time division length width area intensity CMx CMy
0 0 44.0714 11.5948 511 131.311 270.908 470.284
1 0 45.0847 11.8222 533 130.985 271.326 469.724
2 0 46.0274 11.5583 532 129.964 272.098 469.192
3 0 46.0867 10.784 497 132.348 272.024 469.632
4 0 49.0189 11.669 572 129.435 272.839 468.726
5 0 51.0137 11.5067 587 129.942 273.228 467.826
6 0 51.1066 12.8751 658 128.492 272.424 466.611
7 0 53.0916 12.3937 658 127.284 272.152 467.284
8 0 54.0185 11.9774 647 128.524 272.25 467.541
9 0 56.0694 11.5928 650 129.309 272.074 466.958
10 0 57.0462 12.4811 712 127.605 271.816 465.552
11 0 58.1111 12.6482 735 127.913 271.929 465.482
12 0 61.0645 13.4448 821 124.18 271.619 465.625
13 0 63.1092 12.6289 797 127.055 270.987 464.238
14 0 64.074 12.4544 798 128.108 271.555 461.847
15 0 66.1823 12.526 829 126.996 270.783 461.976
16 0 69.0486 12.3971 856 126.404 271.232 462.978
17 0 72.0613 13.1693 949 123.705 270.393 460.452
18 0 74.0637 13.1373 973 122.942 271.344 461.953
19 0 75.0861 11.8797 892 127.89 270.59 458.861
20 0 79.0895 12.3025 973 126.121 270.513 457.668
21 1 40.1158 10.8935 437 132.927 269.961 477.137
22 0 42.0418 12.3924 521 131.004 272.307 475.714
23 0 41.0393 12.6708 520 134.742 273.323 475.55
24 0 46.0521 12.6379 582 128.849 269.022 474.89
25 0 47.0194 13.5051 635 120.83 269.518 475.362
26 0 46.0249 12.4932 575 126.148 270.997 475.33
27 0 49.0699 13.5929 667 122.36 270.868 473.7
28 0 50.023 13.014 651 126.084 270.189 472.416
29 0 52.0477 14.4291 751 121.137 270.85 471.932
30 0 53.0526 13.4018 711 124.326 270.312 472.668
31 0 57.1055 14.4995 828 119.466 270.18 470.582
32 0 57.0532 13.1631 751 124.719 269.676 470.808
33 0 60.0412 13.7739 827 121.328 270.1 469.521
34 0 62.063 14.4692 898 119.518 270.208 469.068
35 0 63.0548 15.0504 949 119.731 270.378 468.023
36 0 64.0657 14.0169 898 122.508 270.396 466.932
37 0 68.1035 14.6248 996 120.648 269.652 465.6
38 0 71.0516 14.3698 1021 120.493 269.551 465.661
39 0 72.0802 13.915 1003 123.435 268.844 463.239
40 0 75.0537 13.6302 1023 124.001 269.822 462.962
41 0 80.089 15.2955 1225 118.367 269.46 461.913
42 0 82.0611 14.477 1188 121.46 269.201 460.124
43 0 84.0558 14.3476 1206 122.298 269.764 457.253
44 0 86.0755 14.9288 1285 118.996 267.904 459.125
45 0 90.0692 13.534 1219 123.228 267.842 455.732
46 0 93.092 14.577 1357 119.276 268.131 454.165
47 0 96.0696 14.6352 1406 119.028 267.72 453.136
48 0 101.171 15.2712 1545 117.828 268.177 451.851
49 0 104.122 15.0977 1572 118.506 268.055 452.496
50 0 107.12 14.8339 1589 119.188 267.582 449.614
51 1 56.0218 12.7807 716 128.042 267.321 473.3
52 0 55.0282 12.3391 679 118.776 268.828 468.383
53 0 60.0681 14.6334 879 123.826 267.812 469.005
54 0 62.0318 13.3641 829 118.778 268.479 470.451
55 0 62.1793 12.9625 806 122.196 268.426 470.711
56 0 65.0859 12.8292 835 121.822 268.84 468.522
57 0 69.0709 13.2038 912 118.917 268.632 468.666
58 0 70.1071 13.08 917 120.213 268.301 466.043
59 0 73.1266 13.6612 999 117.659 268.665 467.901
60 0 75.0844 11.6269 873 121.794 268.477 466.406
61 0 78.0924 13.0102 1016 118.446 269.046 464.181
62 0 82.1315 13.0035 1068 117.891 268.502 463.192
63 0 84.1295 13.5624 1141 117.477 268.408 459.907
64 0 88.1576 14.9618 1319 113.343 268.553 460.403
65 0 89.1741 14.4437 1288 115.318 268.409 459.46
66 0 91.2011 13.5305 1234 117.553 267.916 457.701
67 0 96.1172 14.3991 1384 115.452 267.811 454.279
68 0 99.1061 14.2877 1416 115.16 268.164 453.58
69 0 102.11 13.2015 1348 117.259 267.432 452.722
70 0 105.058 13.2499 1392 115.552 267.172 451.476
71 0 110.07 13.6278 1500 115.07 267.222 449.579
72 1 54.0304 13.1223 709 112.327 268.159 475.677
73 0 58.2518 12.24 713 114.428 269.049 472.856
74 0 59.3117 12.9486 768 112.326 268.906 471.828
75 0 59.1037 12.4358 735 116.638 267.321 474.582
76 0 62.0168 12.8191 795 117.652 267.045 473.761
77 0 63.0541 14.3528 905 115.294 267.029 471.274
78 0 64.1021 14.6017 936 115.818 267.095 470.38
79 0 68.1057 14.4041 981 115.522 266.916 469.483
80 0 72.0734 14.8182 1068 113.974 267.329 469.099
81 0 73.1258 14.2494 1042 116.516 267.417 468.583
82 0 76.0912 14.4695 1101 114.645 266.496 466.758
83 0 78.0863 12.7679 997 117.967 266.267 467.748
84 0 82.0975 14.4584 1187 114.926 266.914 461.144
85 0 85.1503 14.3159 1219 114.299 267.059 459.679
86 0 89.1053 14.5221 1294 113.157 266.893 458.796
87 0 91.037 14.1701 1290 114.842 266.855 457.325
88 0 95.0893 14.6809 1396 112.554 266.672 456.54
89 0 97.0831 14.3279 1391 113.684 266.795 455.035
90 0 100.101 14.3755 1439 113.618 266.54 452.916
91 0 102.083 14.4294 1473 113.274 266.489 452.768
92 0 107.108 14.238 1525 113.139 266.03 450.524
93 0 112.119 14.9217 1673 110.873 266.045 447.891
94 0 115.164 14.7876 1703 110.891 267.27 446.575
95 1 59.1417 10.72 634 106.107 266.849 471.517
96 0 61.1103 11.6838 714 103.825 266.468 472.81
97 0 61.0501 13.0549 797 106.818 266.335 473.582
98 0 61.0551 11.072 676 112.45 266.016 473.43
99 0 64.0332 11.3535 727 112.05 266.169 471.928
100 0 66.0808 11.6221 768 111.233 265.417 471.846
101 0 69.064 11.178 772 113.593 265.056 469.495
102 0 70.0446 12.849 900 109.842 265.594 468.232
103 0 70.0446 12.8347 899 146.65 266.602 468.242
104 0 75.1361 12.5106 940 111.553 265.198 465.821
105 0 76.0848 13.945 1061 109.619 265.188 464.105
106 0 80.0896 12.6983 1017 110.693 265.377 465.392
107 0 81.1585 12.9746 1053 111.941 265.576 462.741
108 0 85.1729 13.9481 1188 109.353 266.071 461.003
109 0 85.0791 12.5648 1069 113.823 266.014 460.05
110 0 91.1668 14.5667 1328 109.151 265.428 458.959
111 0 92.0515 13.7749 1268 111.173 265.317 458.401
112 0 94.1145 12.4423 1171 114.685 265.895 456.392
113 0 100.252 13.6556 1369 110.828 265.396 455.194
114 0 103.155 13.2422 1366 111.222 265.557 452.835
115 0 106.147 12.6711 1345 112.991 266.026 451.677
116 1 56.0614 12.076 677 110.62 265.056 476.139
117 0 56.2198 12.0242 676 110.796 264.994 473.515
118 0 57.1477 11.6365 665 113.907 264.692 473.131
119 0 61.1915 12.8613 787 110.799 264.742 471.764
120 0 63.2263 13.0958 828 110.078 264.789 470.531
121 0 62.1852 11.9643 744 113.965 264.534 469.94
122 0 66.0663 12.6237 834 110.428 266.837 470.241
123 0 68.0421 12.4482 847 110.732 267.693 467.548
124 0 70.0662 12.7165 891 110.506 267.754 466.347
125 0 70.1466 11.2621 790 113.729 268.161 465.758
126 0 76.05 10.927 831 113.059 266.982 465.774
127 0 77.1596 11.9104 919 110.279 267.156 464.01
128 0 79.0761 12.6713 1002 109.53 267.338 462.398
129 0 82.0641 13.2336 1086 107.944 267.531 461.378
130 0 85.1153 10.5739 900 112.589 267.793 460.454
131 0 89.0756 12.1358 1081 109.192 267.602 457.942
132 0 92.1798 11.9006 1097 109.791 267.756 457.637
133 0 94.1566 12.9784 1222 106.816 267.808 455.213
134 0 95.1412 10.784 1026 111.706 267.135 454.772
135 0 100.123 12.9042 1292 107.977 266.698 450.823
136 0 101.164 11.9114 1205 109.875 265.658 450.85
137 0 106.245 12.9983 1381 108.682 265.861 446.274
138 0 108.249 13.8755 1502 107.693 265.75 442.441
139 0 112.271 12.1937 1369 111.763 265.256 444.85
140 0 117.14 12.6601 1483 109.301 266.351 444.533
141 0 120.244 10.9361 1315 113.029 265.991 442.139
142 0 123.203 11.8341 1458 112.106 266.241 440.589
143 0 128.169 12.8971 1653 111.14 266.111 437.977
144 1 71.1234 12.0073 854 105.165 267.056 467.475
145 0 75.1882 11.9966 902 105.969 267.458 466.131
146 0 78.1278 12.5947 984 106.752 266.954 463.862
147 0 79.1896 12.8426 1017 108.559 266.404 462.051
148 0 82.2611 13.2626 1091 105.852 266.948 461.67
149 0 84.2143 13.8812 1169 106.674 266.258 460.677
150 0 86.2127 12.0632 1040 110.763 267.172 459.725
151 0 90.222 14.1096 1273 106.063 267.009 457.214
152 0 93.3631 13.3672 1248 109.042 266.794 455.478
153 0 95.3516 12.5326 1195 111.705 266.372 456.367
154 0 98.2449 13.9447 1370 108.664 266.158 454.61
155 0 102.284 12.7097 1300 112.972 265.952 450.272
156 0 106.264 14.4075 1531 108.822 265.824 448.952
157 0 107.316 12.1045 1299 119.993 266.201 446.368
158 0 112.387 13.32 1497 117.148 266.182 445.817
159 0 117.312 13.3235 1563 117.729 265.685 443.423
160 1 61.2565 11.8028 723 114.604 266.642 470.051
161 0 62.0872 11.8221 734 112.589 265.071 469.91
162 0 65.1922 12.6242 823 111.708 264.921 469.166
163 0 67.185 13.0833 879 107.116 265.283 470.089
164 0 70.1452 12.4171 871 110.185 265.623 468.664
165 0 71.1601 12.5211 891 113.163 265.589 465.03
166 0 74.0404 11.9664 886 112.139 265.834 465.304
167 0 76.0751 12.8557 978 110.456 266.015 464.562
168 0 79.0373 12.3866 979 112.183 266.027 463.478
169 0 83.0484 12.5108 1039 110.376 265.545 464.185
170 0 87.1813 13.0877 1141 110.443 265.384 461.141
171 0 88.0533 13.1852 1161 110.405 265.516 461.002
172 0 90.2497 12.1108 1093 114.5 265.825 455.489
173 0 90.2497 12.1552 1097 150.875 266.833 455.513
174 0 96.1966 12.9111 1242 112.165 266.037 454.513
175 0 99.1346 12.7806 1267 113.193 266.115 453.399
176 0 103.177 13.9178 1436 112.056 265.907 450.919
177 0 105.143 13.2202 1390 114.289 265.96 450.41
178 0 109.191 13.426 1466 114.874 266.229 448.064
179 0 112.177 12.4 1391 119.123 266.995 447.98
180 1 59.1661 12.3888 733 107.996 267.1 473.364
181 0 59.1952 11.5381 683 111.486 266.99 471.19
182 0 62.058 13.5679 842 106.013 267 471.382
183 0 64.0406 12.5545 804 109.42 266.876 470.318
184 0 65.067 13.6321 887 107.982 266.999 468.213
185 0 68.068 12.9723 883 109.39 267.176 468.388
186 0 69.0816 11.595 801 112.803 267.268 469.212
187 0 72.1086 12.9804 936 110.653 267.368 467.034
188 0 73.1201 12.4863 913 113.016 267.863 465.456
189 0 74.1191 13.2489 982 111.314 266.13 465.095
190 0 79.2094 13.5337 1072 109.214 267.02 465.379
191 0 81.0628 14.2976 1159 109.036 267.234 462.208
192 0 83.1157 13.1263 1091 113.541 266.66 459.013
193 0 87.0686 13.0472 1136 112.693 266.805 461.435
194 0 90.1143 12.5063 1127 115.018 266.635 459.098
195 0 92.1309 13.0684 1204 114.074 266.53 458.507
196 0 96.1013 14.1413 1359 111.572 266.815 455.237
197 0 96.2552 13.0279 1254 115.415 267.022 454.995
198 0 102.179 12.5369 1281 117.201 267.304 452.911
199 0 104.075 14.0668 1464 114.445 267.594 450.824
200 0 107.123 13.8346 1482 115.925 265.887 448.777
201 0 112.127 13.8504 1553 117.757 265.757 447.46
202 0 113.103 13.0854 1480 125.117 266.238 444.903
203 1 59.0282 11.0456 652 119.59 266.954 474.239
204 0 63.0151 12.3462 778 116.824 266.767 471.652
205 0 64.0823 11.1731 716 119.659 267.536 470.042
206 0 66.1027 12.3293 815 117.605 267.588 469.135
207 0 69.0818 12.1161 837 118.822 266.182 467.73
208 0 71.1728 13.1652 937 115.334 266.512 466.184
209 0 77.0903 13.4258 1035 112.457 267.192 465.76
210 0 76.0982 12.3262 938 117.69 266.924 463.852
211 0 80.0969 13.0592 1046 114.708 266.731 463.385
212 0 81.0916 13.158 1067 115.246 266.135 460.747
213 0 85.2004 13.392 1141 113.664 266.41 459.804
214 0 87.0912 12.1941 1062 116.862 266.583 458.937
215 0 91.0596 13.7932 1256 112.596 266.13 456.876
216 0 94.0926 13.2529 1247 115.403 267.495 455.5
217 0 95.0529 13.3399 1268 115.636 267.132 454.987
218 0 97.1451 12.8879 1252 118.385 267.426 453.159
219 0 103.103 13.1519 1356 118.059 267.012 450.453
220 0 105.22 13.2675 1396 118.576 266.704 444.773
221 0 109.377 14.4911 1585 114.088 267.093 443.897
222 0 112.282 13.858 1556 116.662 267.523 441.01
223 0 117.418 13.2859 1560 116.587 267.376 442.878
224 0 118.26 13.521 1599 118.471 267.447 439.164
225 0 124.209 13.0425 1620 119.501 267.241 435.075
226 1 65.0612 11.958 778 111.042 267.783 469.207
227 0 65.0193 11.0736 720 118.529 268.064 467.06
228 0 71.025 13.0517 927 113.885 267.419 465.503
229 0 72.0706 11.2529 811 118.773 267.272 464.436
230 0 77.0387 12.0848 931 115.984 267.185 463.828
231 0 79.0327 12.2354 967 115.606 267.326 462.518
232 0 81.0397 12.8085 1038 114.993 266.99 459.95
233 0 85.0886 12.4811 1062 115.909 267.71 458.902
234 0 86.0824 11.7446 1011 118.53 267.709 456.69
235 0 89.1289 11.4553 1021 118.44 267.791 457.043
236 0 92.072 11.9472 1100 117.133 267.741 453.822
237 0 97.1844 13.1605 1279 112.21 268.02 452.961
238 0 100.161 12.8094 1283 113.415 267.488 449.475
239 0 102.198 11.3016 1155 116.352 267.288 449.599
240 0 107.116 11.9964 1285 114.861 266.858 446.84
241 0 111.126 11.3745 1264 116.002 267.26 445.033
242 1 58.0403 11.0096 639 108.496 266.786 471.534
243 0 61.085 11.5904 708 107.062 265.633 469.984
244 0 63.0463 11.1347 702 112.627 268.879 471.001
245 0 67.0325 12.4566 835 108.362 269.127 470.296
246 0 68.0921 11.9985 817 110.842 269.425 465.982
247 0 69.0681 10.6272 734 113.747 269.778 467.65
248 0 73.0893 11.8622 867 110.42 269.871 466.937
249 0 78.0811 13.153 1027 105.723 269.867 463.896
250 0 78.0852 10.6934 835 112.914 270.008 461.788
251 0 81.0334 12.6738 1027 108.539 269.514 459.785
252 0 84.1535 12.2277 1029 108.225 269.535 461.234
253 0 86.0757 12.7795 1100 108.097 268.245 456.842
254 0 88.0986 11.419 1006 110.574 268.418 458.425
255 0 92.2106 13.1872 1216 107.244 268.766 454.951
256 0 95.1897 12.1232 1154 110.473 267.707 453.205
257 1 51.0935 10.7059 547 103.373 268.541 479.101
258 0 50.1842 11.398 572 101.572 266.83 475.341
259 0 53.0663 12.5692 667 98.6807 267.621 475.907
260 0 54.0816 11.6861 632 101 265.851 475.18
261 0 57.1679 11.9997 686 96.7726 266.296 473.867
262 0 57.1169 11.7478 671 101.368 266.015 473.103
263 0 57.1867 11.9783 685 101.511 265.761 472.209
264 0 59.1074 13.4163 793 98.3682 266.221 471.111
265 0 60.1453 11.2561 677 100.111 265.969 472.352
266 0 61.1902 11.6685 714 99.7269 266.077 470.174
267 0 60.1012 11.1146 668 105.042 266.972 468.639
268 0 66.1758 13.4793 892 99.2702 266.532 467.478
269 0 70.0821 13.0133 912 98.6064 266.463 468.806
270 0 68.1207 11.6998 797 103.059 265.379 466.417
271 0 71.2082 11.1223 792 100.426 265.828 463.766
272 0 76.0651 12.3052 936 93.8248 267.464 461.376
273 0 78.1328 10.9045 852 96.7641 267.316 461.869
274 0 79.1228 10.0982 799 98.2002 266.904 461.652
275 0 79.1231 9.98445 790 128.462 267.901 461.646
276 0 87.1099 10.745 936 97.8205 267.432 456.607
277 0 91.0783 12.1983 1111 94.1755 267.261 455.003
278 0 93.1927 11.3743 1060 99.5726 267.417 456.924
279 1 46.077 10.1135 466 99.8498 268.783 478.938
280 0 47.0756 10.7912 508 104.53 268.689 476.74
281 0 52.2832 12.9105 675 98.6193 267.495 474.896
282 0 51.153 12.5701 643 101.319 266.729 474.341
283 0 52.1142 11.3789 593 103.305 266.965 476.648
284 0 56.1344 12.2029 685 101.368 266.715 473.889
285 0 56.1681 12.7474 716 100.753 266.866 474.17
286 0 59.1539 12.5266 741 101.765 267.374 472.408
287 0 60.1645 12.5323 754 102.767 268.33 470.167
288 0 61.1015 12.1437 742 103.121 268.846 468.892
289 0 66.1367 12.9731 858 100.442 269.141 469.924
290 0 68.112 13.7714 938 99.7932 269.195 468.191
291 0 68.0735 12.8391 874 102.688 268.736 467.405
292 0 74.1448 13.4871 1000 100.607 268.391 464.722
293 0 76.0549 13.911 1058 99.4036 268.194 464.834
294 0 78.1808 13.7118 1072 100.554 267.815 464.182
295 0 80.1227 12.6805 1016 104.145 267.272 460.234
296 0 82.1459 12.5143 1028 105.186 267.456 463.196
297 0 85.2768 13.0282 1111 106.303 267.33 458.907
298 1 45.0613 11.4511 516 107.219 267.723 478.543
299 0 45.0624 11.8502 534 105.305 266.856 479.597
300 0 48.0629 11.693 562 108.683 267.299 477.311
301 0 50.0309 12.7122 636 104.987 266.989 478.61
302 0 52.0384 13.0673 680 105.146 268.434 476.621
303 0 53.0898 12.8273 681 106.633 268.558 476.64
304 0 53.0308 12.4267 659 107.61 268.649 475.962
305 0 57.064 13.2308 755 105.527 268.899 472.724
306 0 58.0454 12.8865 748 104.842 267.897 475.191
307 0 59.0438 13.363 789 105.227 268.165 472.885
308 0 62.0296 12.6391 784 105.806 267.957 472.588
309 0 61.0251 12.2245 746 107.114 267.744 472.241
310 0 66.0591 12.8975 852 104.946 268.069 471.104
311 0 68.0379 13.0956 891 103.383 268.216 469.38
312 0 68.0569 12.9744 883 104.045 268.555 468.778
313 0 73.0978 14.0907 1030 100.66 268.82 466.548
314 0 73.1162 12.6101 922 104.343 268.049 465.903
315 0 77.0902 12.5437 967 104.413 267.43 464.347
316 0 79.1052 13.0206 1030 103.392 268.429 462.216
317 0 82.1062 14.1037 1158 99.7746 267.804 462.033
318 0 85.1212 13.3692 1138 100.887 268.021 460.467
319 0 86.105 14.3894 1239 97.2647 268.219 459.538
320 0 90.3178 14.3383 1295 97.5892 268.025 456.828
321 0 93.2104 12.799 1193 102.342 268.48 457.002
322 0 96.1773 13.1944 1269 101.638 267.98 454.056
323 0 99.2246 13.1721 1307 101.936 266.686 452.423
324 0 103.172 13.3757 1380 102.649 266.937 451.713
325 1 56.1256 10.6725 599 103.194 267.326 472.571
326 0 58.0556 11.489 667 95.6567 268.805 472.792
327 0 59.0365 11.603 685 94.9912 268.46 473.72
328 0 60.0536 11.0235 662 95.9517 268.11 472.52
329 0 62.0552 11.5703 718 95.3565 268.439 470.882
330 0 65.089 11.4612 746 95.4477 268.83 470.054
331 0 67.0588 11.6316 780 94.7154 268.235 470.687
332 0 69.0416 10.6892 738 97.5095 267.325 467.102
333 0 73.1109 11.5851 847 95.8453 267.498 466.145
334 0 75.0821 10.9746 824 96.5971 268.607 466.462
335 0 80.1577 12.0138 963 95.6895 268.094 462.727
336 0 80.0877 11.8745 951 96.8276 268.31 461.891
337 0 82.1109 11.3505 932 98.7672 267.992 461.005
338 0 89.109 13.8145 1231 93.8327 267.773 456.31
339 0 91.1372 11.3126 1031 99.1959 268.694 456.481
340 1 48.0469 11.4471 550 97.0073 269.211 478.627
341 0 51.0863 11.001 562 99.1299 268.537 478.265
342 0 51.0467 11.4405 584 94.4623 267.981 472.497
343 0 52.0368 11.5303 600 95.29 268.065 478.255
344 0 53.0572 10.6112 563 96.8135 268.817 479.536
345 0 53.0662 11.5893 615 97.4472 268.359 477.891
346 0 57.2074 12.0789 691 96.8394 267.991 475.619
347 0 58.1209 12.1471 706 97.6331 268.595 475.686
348 0 58.1022 11.2044 651 102.441 268.318 474.097
349 0 61.0884 11.0168 673 102.129 268.327 475.279
350 0 64.1264 12.4442 798 100.613 268.449 473.929
351 0 65.1326 11.7453 765 103.434 267.933 473.37
352 0 67.0565 12.1092 812 103.809 268.438 472.223
353 0 70.1254 12.8484 901 102.049 268.078 470.425
354 0 73.093 11.889 869 104.434 268.328 469.822
355 0 74.0613 12.3411 914 104.561 268.043 468.397
356 0 76.1501 12.1339 924 104.972 267.873 469.805
357 0 79.1224 12.2595 970 106.097 267.857 466.167
358 0 82.1765 12.3636 1016 105.103 267.603 465.383
359 0 85.2104 11.6183 990 105.579 268.35 464.872
360 0 88.1632 13.6678 1205 102.636 268.539 460.304
361 0 90.2694 11.2552 1016 108.303 268.858 460.986
362 0 96.128 13.1491 1264 102.604 268.274 457.954
363 1 50.0528 10.6088 531 104.676 268.277 480.066
364 0 52.0237 12.206 635 103.153 266.86 478.168
365 0 55.0589 12.1688 670 102.83 266.266 476.228
366 0 56.0347 13.5987 762 99.5 266.638 475.97
367 0 57.1542 12.3876 708 102.127 265.77 474.859
368 0 59.0479 12.4306 734 102.548 266.211 473.366
369 0 61.0717 12.3461 754 101.727 265.63 473.337
370 0 63.112 12.2481 773 102 265.947 474.351
371 0 64.0813 12.5153 802 103.049 266.071 472.092
372 0 65.1594 13.0756 852 101.994 266.2 469.59
373 0 68.1323 12.8133 873 101.81 266.699 467.893
374 0 69.2431 12.0301 833 102.712 266.661 470.208
375 0 74.1152 11.8059 875 102.44 267.114 468.011
376 0 73.221 10.9531 802 105.216 266.955 467.964
377 0 76.1762 11.7359 894 103.822 267.091 467.002
378 0 80.1625 12.2501 982 97.5081 268.308 461.383
379 0 84.1936 11.7705 991 99.1564 267.894 460.067
380 0 86.1318 11.7146 1009 100.775 268.299 459.129
381 0 89.2195 12.5309 1118 103.64 267.703 458.817
382 0 91.2057 11.4795 1047 103.678 267.774 459.274
383 0 95.3262 12.0953 1153 102.75 267.588 457.667
384 1 48.1364 9.55618 460 104.391 268.376 479.674
385 0 51.2278 12.4542 638 102.177 267.63 476.763
386 0 54.3045 11.546 627 103.708 267.209 473.565
387 0 57.2397 12.107 693 100.915 268.443 478.292
388 0 56.1028 12.1562 682 103.38 268.371 474.774
389 0 60.0976 12.6794 762 101.231 267.911 476.45
390 0 59.1818 12.1828 721 104.295 267.476 475.438
391 0 62.1842 11.6107 722 106.456 268.076 474.773
392 0 65.1605 12.8145 835 103.446 267.665 475.218
393 0 66.1074 13.5688 897 102.545 267.662 471.201
394 0 68.188 14.4307 984 100.646 268.202 470.326
395 0 71.1568 12.9714 923 104.152 267.912 471.661
396 0 73.0732 13.2744 970 103.939 268.365 470.462
397 0 75.1145 13.2864 998 105.745 268.188 467.944
398 0 74.2058 11.9128 884 119.501 268.266 467.198
399 0 78.1993 13.44 1051 117.613 268.952 464.319
400 0 82.4092 13.8334 1140 116.587 268.296 462.549
401 0 87.3225 12.5512 1096 119.316 268.834 463.598
402 0 89.2929 14.3349 1280 115.643 268.541 462.262
403 0 90.308 13.0221 1176 119.77 267.893 460.397
404 1 48.0362 11.9702 575 113.398 268.454 481.169
405 0 48.0426 10.2201 491 119.387 268.876 481.947
406 0 52.0247 11.533 600 117.493 269.388 480.285
407 0 51.0944 12.3497 631 121.651 267.997 477.493
408 0 53.0498 13.4213 712 117.931 268.687 478.588
409 0 52.1653 11.8278 617 116.749 266.677 479.496
410 0 55.0932 12.5787 693 114.017 267.407 479.29
411 0 56.0636 13.5739 761 112.811 266.461 475.238
412 0 59.0867 12.7271 752 115.093 266.43 475.153
413 0 59.0619 12.2245 722 116.544 266.972 476.492
414 0 63.1467 12.1622 768 115.464 266.658 475.514
415 0 65.0773 13.6146 886 112.278 266.999 473.07
416 0 66.1391 12.7156 841 116.685 267.153 471.25
417 0 69.1147 12.255 847 116.469 267.821 472.544
418 0 71.0719 12.4803 887 116.869 267.621 470.706
419 0 75.035 13.5936 1020 113.699 267.222 468.003
420 0 77.1199 13.9134 1073 113.797 267.242 466.288
421 0 79.0806 13.1891 1043 115.396 266.924 468.203
422 0 82.1992 12.4089 1020 117.116 266.502 463.897
423 0 86.2139 14.9048 1285 110.275 266.861 463.009
424 0 87.102 12.8814 1122 116.254 266.84 461.103
425 0 93.2659 13.1774 1229 114.71 266.177 460.325
426 0 95.1272 14.6751 1396 111.693 267.152 458.11
427 0 97.2974 13.2378 1288 115.159 267.235 455.979
428 1 49.1065 13.0736 642 113.047 268.961 480.871
429 0 52.0854 12.5563 654 115.394 269.375 478.907
430 0 53.0546 14.2872 758 111.954 268.586 477.748
431 0 54.155 12.1318 657 116.7 269.393 477.922
432 0 56.083 13.5692 761 112.959 268.894 477.662
433 0 58.0416 13.5937 789 113.99 268.902 475.501
434 0 60.0579 12.5046 751 116.579 269.574 475.647
435 0 60.0956 12.0641 725 119.669 268.812 476.13
436 0 63.0732 12.1605 767 118.368 268.618 473.694
437 0 63.0805 12.2383 772 120.281 268.506 475.266
438 0 67.081 12.6563 849 118.698 269.537 473.456
439 0 70.0898 13.5398 949 116.276 268.586 471.733
440 0 73.1033 13.8024 1009 114.81 269.273 471.413
441 0 74.0432 12.3171 912 120.111 268.777 470.673
442 0 78.1187 13.0955 1023 118.557 268.412 468.591
443 0 80.1459 13.725 1100 116.983 268.238 467.711
444 0 84.0625 13.1331 1104 116.649 268.393 467.769
445 0 88.1695 14.5062 1279 113.425 268.181 464.089
446 0 89.0994 13.2324 1179 118.907 267.874 461.634
447 0 94.0746 13.3405 1255 117.349 267.488 462.626
448 1 47.018 11.5275 542 124.95 269.028 481.792
449 0 49.0269 12.1362 595 122.087 268.857 479.081
450 0 47.0423 12.9883 611 114.746 269.288 480.869
451 0 51.0202 12.9556 661 114.67 269.053 479.826
452 0 51.0364 11.9131 608 117.054 268.87 479.01
453 0 52.0689 12.0801 629 117.525 269.72 478.442
454 0 56.0781 13.82 775 111.074 269.372 478.146
455 0 57.1272 13.3212 761 112.464 269.397 476.695
456 0 59.0773 14.5403 859 110.1 269.669 476.342
457 0 61.1151 13.2046 807 108.668 268.846 474.057
458 0 61.22 12.2672 751 111.403 268.558 473.344
459 0 63.0618 12.7335 803 110.903 268.237 473.464
460 0 65.1111 12.2406 797 111.398 268.137 472.619
461 0 68.0593 12.5773 856 111.739 268.723 470.619
462 0 69.0493 12.2811 848 117.342 268.916 470.702
463 0 72.223 12.5999 910 114.323 268.276 467.875
464 0 73.098 12.5311 916 115.095 268.571 467.027
465 0 77.145 12.133 936 115.901 269.061 465.892
466 0 81.1436 12.7675 1036 115.088 267.982 464.536
467 0 83.0481 12.27 1019 116.049 267.789 462.164
468 0 85.2077 11.8299 1008 116.999 268.239 463.527
469 0 88.2505 13.269 1171 114.506 267.844 457.93
470 0 93.2085 13.797 1286 113.306 268.018 459.642
471 1 50.1868 11.7959 592 126.333 267.363 478.206
472 0 53.2733 13.5527 722 119.03 266.807 476.809
473 0 54.3301 14.6512 796 116.783 267.579 476.058
474 0 56.1026 14.2774 801 115.418 267.965 474.526
475 0 59.217 13.7798 816 119.743 268.539 475.056
476 0 61.3472 15.0618 924 114.841 268.325 474.081
477 0 61.3496 13.8876 852 120.663 267.596 472.559
478 0 63.3903 14.1189 895 120.105 268.022 469.807
479 0 65.3556 13.7861 901 120.619 267.635 471.303
480 0 68.4186 15.3467 1050 116.781 267.322 467.815
481 0 71.2204 14.1813 1010 119.677 266.87 467.372
482 0 74.3689 13.5675 1009 121.616 267.132 466.401
483 0 75.5598 13.9624 1055 122.583 267.702 464.335
484 0 80.1488 13.5623 1087 113.487 268.669 464.551
485 0 80.1458 13.1635 1055 115.011 268.193 464.72
486 0 85.1333 13.4612 1146 113.213 268.039 463.372
487 0 88.1581 13.6006 1199 112.992 268.804 461.257
488 0 92.2029 13.633 1257 113.67 268.492 459.271
489 1 48.1992 12.0956 583 113.631 269.124 479.208
490 0 49.1817 12.0167 591 113.64 269.528 478.983
491 0 52.2644 12.3794 647 113.674 269.003 478.845
492 0 52.156 11.8299 617 116.65 268.742 478.177
493 0 54.169 11.0026 596 120.067 268.641 476.27
494 0 56.2135 12.9328 727 114.682 268.604 475.593
495 0 59.0532 13.073 772 116.35 267.608 476.215
496 0 58.0372 11.3548 659 118.258 268.539 475.649
497 0 63.111 13.3733 844 113.033 268.661 472.853
498 0 64.1089 14.3038 917 111.312 269.112 471.582
499 0 65.1066 13.4856 878 114.546 268.803 470.027
500 0 67.1221 13.319 894 117.768 268.662 468.984
501 0 71.1069 13.2055 939 119.865 268.368 468.707
502 0 72.1341 12.7263 918 122.073 268.514 468.866
503 0 75.0784 13.9055 1044 120.555 268.504 465.54
504 0 77.1966 13.2648 1024 122.821 268.577 466.123
505 0 80.1195 12.8932 1033 124.656 268.354 464.006
506 0 82.1344 13.7945 1133 124.846 268.335 463.132
507 0 85.1693 13.3264 1135 125.931 268.418 461.342
508 0 87.2015 13.0732 1140 128.646 268.585 459.669
509 0 92.1807 13.5929 1253 125.441 268.33 458.925
510 0 94.1786 14.0265 1321 127.255 268.038 457.555
511 0 94.1899 13.2074 1244 129.243 267.999 454.619
512 0 99.1133 13.1768 1306 129.75 267.449 452.802
513 0 102.198 12.9259 1321 131.079 267.802 454.267
514 0 106.238 14.3452 1524 129.537 268.514 450.617
515 0 111.326 13.8242 1539 129.587 267.997 449.905
516 0 114.099 13.9528 1592 129.969 267.406 445.67
517 0 117.271 13.6692 1603 129.477 267.906 446.059
518 0 123.195 13.1499 1620 128.828 268.151 444.082
519 1 64.1246 10.8227 694 128.082 268.519 470.527
520 0 68.1187 12.1112 825 122.739 267.025 468.267
521 0 70.1924 13.1353 922 121.298 265.862 463.001
522 0 71.1406 12.5526 893 120.017 267.96 467.907
523 0 72.1421 13.0437 941 118.892 268.598 467.298
524 0 72.1028 12.4822 900 119.917 267.696 463.561
525 0 77.1215 13.6019 1049 115.846 267.505 462.63
526 0 80.0676 12.2147 978 113.306 266.996 460.105
527 0 82.1211 12.445 1022 112.816 266.47 459.47
528 0 84.1255 12.5289 1054 112.838 267.02 455.335
529 0 86.2593 11.6045 1001 114.798 267.271 456.588
530 0 88.0894 11.0342 972 116.755 267.68 453.642
531 0 92.155 12.6851 1169 112.118 267.498 453.919
532 0 95.1317 13.1712 1253 113.139 267.75 454.964
533 0 99.1869 13.4796 1337 109.155 267.871 453.1
534 0 101.179 13.3229 1348 113.076 267.671 452.401
535 0 104.152 12.837 1337 110.823 267.92 449.552
536 0 106.16 12.2457 1300 112.044 268.225 444.042
537 0 109.165 12.5681 1372 111.669 267.56 445.321
538 0 111.251 12.9347 1439 110.84 267.824 442.29
539 0 120.141 12.8766 1547 109.597 267.633 443.946
540 0 121.134 12.8288 1554 110.381 267.774 441.062
541 0 125.214 13.5847 1701 109.768 267.473 438.555
542 0 130.221 13.408 1746 111.29 267.649 436.518
543 0 134.276 13.1669 1768 114.808 267.447 433.669
544 0 139.157 13.7686 1916 113.449 267.044 432.52
545 0 142.276 12.7639 1816 115.845 267.425 429.948
546 0 148.358 14.283 2119 112.132 267 424.697
547 0 151.374 12.631 1912 112.337 267.322 422.328
548 0 156.375 14.2414 2227 108.642 267.55 423.015
549 0 159.25 12.9984 2070 115.589 267.913 417.608
550 0 164.4 13.5036 2220 113.286 267.743 419.885
551 0 171.317 14.9022 2553 110.855 267.798 414.633
552 0 174.373 13.7866 2404 113.661 268.082 412.029
553 0 179.33 12.8646 2307 116.873 267.391 407.505
554 0 188.275 14.277 2688 112.132 267.121 410.321
555 0 187.288 12.6329 2366 117.039 266.938 402.975
556 0 197.491 13.5551 2677 115.221 267.516 400.734
557 0 204.641 14.3324 2933 113.085 267.557 399.409
558 0 209.531 13.6925 2869 115.513 267.774 396.356
559 0 216.541 14.9856 3245 111.971 267.451 394.801
560 0 220.589 14.7922 3263 114.493 268.569 386.035
561 0 229.563 14.4623 3320 114.71 267.98 384.18
562 0 235.625 14.5273 3423 116.421 266.993 374.393
563 0 246.613 14.3991 3551 115.894 267.656 375.402
564 1 68.3302 10.9761 750 105.62 268.205 463.628
565 0 70.2898 12.9464 910 99.6472 268.209 466.897
566 0 71.2734 12.7397 908 132.644 267.2 466.626
567 0 75.152 12.5745 945 102.392 269.012 463.152
568 0 78.2566 12.8424 1005 101.822 268.586 463.188
569 0 79.1839 13.5381 1072 101.953 268.578 458.612
570 0 81.2601 11.5432 938 107.217 268.377 460.319
571 0 85.2793 11.7731 1004 106.435 268.095 459.79
572 0 89.2432 12.5164 1117 103.893 268.304 457.662
573 0 93.2662 12.6412 1179 106.084 268.306 455.317
574 0 96.1642 11.8235 1137 105.355 268.692 455.761
575 0 103.126 12.3925 1278 101.603 269.949 453.243
576 0 104.128 10.5159 1095 104.481 269.542 452.162
577 1 54.045 9.91767 536 98.0429 269.187 474.882
578 0 56.1943 11.0865 623 96.0658 269.335 470.445
579 0 59.0692 10.3777 613 96.4992 270.015 472.71
580 0 62.1739 11.7895 733 92.4175 269.518 473.371
581 0 61.1136 11.1105 679 95.2651 269.306 470.169
582 0 65.1379 10.7004 697 93.8307 269.495 470.367
583 0 66.1049 10.9372 723 94.2268 269.397 469.846
584 0 68.2221 11.2134 765 94.7425 269.856 468.35
585 0 69.071 11.2203 775 94.4813 269.058 468.579
586 0 71.1152 10.0401 714 96.9706 269.322 466.534
587 0 72.1267 11.6046 837 94.54 269.458 465.974
588 0 77.2964 10.1169 782 96.2724 269.136 465.488
589 0 80.1057 9.86197 790 97.1785 269.519 466.009
590 0 82.2121 11.2149 922 97.0944 268.648 460.556
591 0 88.1198 12.3809 1091 95.3721 268.998 459.532
592 0 91.242 11.3325 1034 97.9275 269.15 458.64
593 0 92.1738 11.7712 1085 97.9207 268.118 459.417
594 1 49.0386 11.3788 558 96.9928 266.237 477.91
595 0 47.0534 10.0949 475 101.606 266.263 479.198
596 0 51.0993 11.8788 607 96.1895 266.534 478.367
597 0 51.1469 11.4768 587 96.9693 266.29 477.17
598 0 54.1637 12.2407 663 96.1584 267.035 476.17
599 0 55.051 11.5529 636 98.9104 266.797 476.94
600 0 55.1425 11.4612 632 100.411 267.068 475.589
601 0 58.1521 12.1234 705 100.238 267.26 475.675
602 0 59.1171 11.2827 667 104.283 266.867 476.624
603 0 61.1019 13.322 814 100.199 266.741 474.451
604 0 62.0534 12.5859 781 104.286 267.081 474.375
605 0 63.0891 13.1243 828 102.662 267.551 473.728
606 0 67.1094 13.3662 897 102.089 266.334 471.515
607 0 68.0994 13.2747 904 101.102 266.088 472.492
608 0 71.0581 13.1582 935 102.216 265.942 469.876
609 0 72.1053 13.2445 955 98.9717 267.369 468.371
610 0 74.1418 13.0156 965 101.117 267.026 467.223
611 0 78.0559 13.9003 1085 101.053 267.302 466.928
612 0 80.118 13.7547 1102 101.854 267.246 465.482
613 0 81.1824 13.4142 1089 103.522 266.857 465.243
614 0 84.1636 13.0341 1097 105.214 267.506 464.4
615 0 87.1812 13.8562 1208 103.566 267.438 461.885
616 0 88.0909 13.6791 1205 105.365 267.957 461.034
617 0 92.254 13.7555 1269 104.124 269.176 459.634
618 0 94.0998 13.5388 1274 105.98 269.097 457.834
619 0 98.137 13.2366 1299 106.156 268.925 457.039
620 1 53.048 12.9505 687 103.854 269.814 478.681
621 0 53.2222 12.1378 646 108.427 269.628 475.782
622 0 55.1667 12.5982 695 110.439 268.509 473.996
623 0 56.0347 12.7064 712 105.926 268.954 477.66
624 0 56.1681 12.9255 726 106.945 267.318 477.837
625 0 58.1308 13.5556 788 109.61 266.236 477.902
626 0 60.1506 13.3498 803 109.557 266.205 476.631
627 0 63.0605 12.3532 779 109.899 266.896 475.163
628 0 65.132 13.0811 852 109.029 266.408 473.866
629 0 66.0767 13.2271 874 109.375 266.31 472.189
630 0 69.0454 12.8901 890 109.669 266.788 471.548
631 0 71.0581 13.1864 937 109.766 266.196 470.809
632 0 72.0904 13.3305 961 111.66 266.844 469.938
633 0 75.0376 13.0735 981 112.523 266.975 469.064
634 0 79.0768 12.9747 1026 112.933 266.791 468.049
635 0 79.1314 13.0669 1034 114.737 267.169 466.148
636 0 85.1225 14.4968 1234 110.609 267.162 464.438
637 0 86.0836 13.2313 1139 115.654 267.871 461.842
638 0 89.1374 14.0233 1250 114.644 266.944 459.811
639 0 93.1091 14.048 1308 114.792 268.102 460.109
640 1 48.1711 13.0576 629 112.471 269.706 481.423
641 0 50.0596 14.6425 733 109.516 268.829 479.248
642 0 52.0987 14.0695 733 108.896 267.874 478.596
643 0 55.1186 13.6614 753 108.744 268.044 479.692
644 0 55.1105 15.2965 843 106.902 268.575 477.209
645 0 56.1191 14.0772 790 110.957 267.767 475.857
646 0 58.074 13.7755 800 111.79 267.752 477.255
647 0 60.1688 14.0438 845 111.47 267.847 476.527
648 0 61.1371 13.9032 850 112.615 268.259 475.194
649 0 65.076 14.1681 922 111.748 267.892 475.382
650 0 67.1037 13.4121 900 114.004 268.312 474.108
651 0 68.0818 14.3944 980 114.042 268.174 471.199
652 0 71.1508 14.912 1061 113.563 267.887 469.79
653 0 74.1043 14.9249 1106 113.675 268.764 468.819
654 0 77.1321 15.6485 1207 111.971 268.65 467.758
655 0 76.1529 15.0487 1146 116.29 268.496 465.858
656 0 80.1892 14.4533 1159 118.32 268.927 464.633
657 0 84.2056 14.4883 1220 118.41 268.018 464.141
658 0 87.1393 15.6646 1365 115.749 267.771 462.739
659 0 89.1386 15.302 1364 117.558 267.732 462.13
660 0 93.185 15.5175 1446 118.362 267.579 460.154
661 1 49.0493 13.2316 649 126.373 268.438 478.914
662 0 51.0961 13.2887 679 126.013 267.881 478.697
663 0 53.0744 13.3963 711 124.174 267.907 478.973
664 0 54.077 13.8691 750 119.496 268.033 478.424
665 0 54.0536 13.0611 706 121.812 267.496 478.198
666 0 58.0732 14.4129 837 116.048 267.796 476.829
667 0 60.1093 14.5734 876 114.797 267.757 476.858
668 0 62.0727 14.2253 883 116.957 267.781 475.28
669 0 65.0899 13.6273 887 117.994 267.908 474.193
670 0 66.046 13.854 915 118.475 267.787 473.349
671 0 68.0961 13.8187 941 118.699 267.789 472.833
672 0 70.1322 13.717 962 117.971 267.832 471.834
673 0 71.1929 13.6109 969 120.228 267.495 468.987
674 0 74.0734 13.4596 997 121.106 267.142 469.19
675 0 77.0892 13.7114 1057 119.91 268.164 468.091
676 0 79.0822 14.3522 1135 119.548 268.183 464.759
677 0 83.1501 15.1293 1258 116.382 267.903 464.747
678 0 85.0651 14.0716 1197 119.027 268.236 464.831
679 0 87.0481 13.1192 1142 122.174 268.389 463.242
680 0 90.0598 14.2683 1285 119.083 267.834 462.456
681 0 93.1122 14.1979 1322 119.241 267.332 459.525
682 0 95.1096 14.2888 1359 124.95 266.94 455.508
683 1 52.1035 12.3984 646 117.697 268.54 479.04
684 0 53.0302 12.012 637 118.615 268.436 478.812
685 0 56.0322 13.4209 752 114.749 267.133 478.053
686 0 57.0855 13.2959 759 114.619 266.381 478.07
687 0 59.0564 13.1908 779 115.158 266.659 475.044
688 0 63.1269 12.9897 820 115.451 266.267 474.07
689 0 65.1062 13.7161 893 113.437 266.041 473.261
690 0 67.0935 12.9074 866 115.291 266.465 473.212
691 0 69.2524 13.588 941 113.587 266.165 471.038
692 0 73.0526 13.3055 972 112.343 265.95 471.546
693 0 74.0606 12.8003 948 114.015 266.725 468.15
694 0 76.1287 13.2145 1006 112.987 266.636 466.048
695 0 79.0935 13.4272 1062 112.218 266.702 467.097
696 0 83.0441 13.7999 1146 111.768 266.004 464.319
697 0 84.2017 13.8833 1169 111.952 266.293 463.459
698 0 88.0574 11.7878 1038 112.6 266.634 461.585
699 0 90.1346 11.8822 1071 109.614 266.339 455.924
700 0 96.1532 13.0417 1254 109.314 267.502 458.224
701 1 50.0334 12.1519 608 108.235 268.758 480.197
702 0 54.0413 12.657 684 105.497 268.079 479.053
703 0 53.0958 11.6958 621 107.055 267.77 477.709
704 0 55.0238 13.8667 763 103.311 266.581 477.893
705 0 55.0991 11.924 657 106.454 267.075 478.504
706 0 57.0579 11.6023 662 107.665 265.943 476.823
707 0 60.0568 11.256 676 107.985 266.846 474.021
708 0 61.068 12.789 781 106.297 267.222 472.005
709 0 62.0949 9.9042 615 110.059 266.964 473.85
710 0 66.1151 12.5841 832 106.075 266.155 471.125
711 0 67.0599 11.9744 803 107.156 267.528 469.853
712 0 71.0441 11.3591 807 107.949 267.227 469.037
713 0 73.183 12.3116 901 106.726 267.269 468.478
714 0 76.1152 12.6125 960 107.4 268.616 464.317
715 0 79.1049 12.6288 999 107.613 268.073 463.269
716 0 82.1547 12.4521 1023 108.458 267.86 463.255
717 0 83.0745 11.7846 979 110.476 268.635 462.978
718 0 88.2257 13.1028 1156 108.436 268.11 461.038
719 0 92.1058 13.3216 1227 109.292 267.906 456.825
720 1 46.0132 10.4101 479 113.027 268.236 480.942
721 0 49.0686 11.3922 559 106.896 268.413 480.785
722 0 53.0973 12.5807 668 103.398 267.708 478.561
723 0 53.0617 11.2887 599 106.678 268.102 478.886
724 0 55.0379 12.3733 681 106.325 266.532 476.74
725 0 57.0304 12.8703 734 105.112 266.887 475.981
726 0 58.1895 12.9061 751 106.039 267.585 474.245
727 0 60.1314 12.1733 732 106.411 268.178 473.734
728 0 63.2249 11.894 752 107.048 268.229 473.706
729 0 66.2538 12.271 813 106.555 268.376 471.765
730 0 67.1035 11.8772 797 107.405 268.659 472.652
731 0 70.0953 12.5971 883 106.566 268.33 470.277
732 0 71.1152 13.0211 926 106.718 268.443 469.707
733 0 73.1468 12.3997 907 109.66 268.558 467.475
734 0 76.2787 12.8607 981 107.695 268.428 466.736
735 0 80.0562 12.9159 1034 108.14 268.132 467.113
736 0 80.1307 12.4422 997 110.93 267.807 463.138
737 0 86.1416 13.2921 1145 106.961 268.117 463.35
738 0 88.071 12.717 1120 109.679 267.719 462.971
739 0 90.2355 12.7666 1152 111.112 265.957 461.862
740 0 93.1994 12.7039 1184 112.549 265.639 458.958
741 0 97.0904 12.9982 1262 110.858 265.842 458.881
742 0 100.182 12.0581 1208 112.995 265.971 457.18
743 1 52.0177 12.0151 625 114.592 265.115 479.072
744 0 54.0882 12.2208 661 113.687 266.436 478.038
745 0 56.035 12.635 708 104.778 266.196 478.387
746 0 56.0574 13.5754 761 103.392 265.25 476.227
747 0 59.0618 12.4615 736 105.484 265.238 476.463
748 0 61.0612 12.8396 784 104.477 265.393 474.653
749 0 63.053 13.3063 839 103.443 265.2 472.772
750 0 65.1232 12.5147 815 105.356 265.557 472.326
751 0 68.0821 13.6012 926 102.936 265.715 471.396
752 0 67.0996 13.5023 906 105.745 265.959 469.281
753 0 71.1486 11.722 834 105.522 266.095 471.311
754 0 74.0754 11.8663 879 105.709 266.569 468.331
755 0 78.0804 13.3836 1045 102.642 266.108 465.903
756 0 77.0859 12.1293 935 107.245 267.121 465.383
757 0 84.0963 13.758 1157 102.528 266.576 463.75
758 0 85.1061 13.348 1136 104.323 266.305 462.447
759 0 89.0631 14.8771 1325 101.38 266.365 459.196
760 0 93.1009 13.5767 1264 103.79 265.583 459.406
761 0 95.1444 11.4668 1091 108.423 266.208 461.389
762 0 99.1321 12.8112 1270 107.412 266.165 457.819
763 1 49.045 11.8259 580 115.312 267.71 479.597
764 0 51.281 12.2852 630 114.516 266.524 479.498
765 0 51.0232 13.974 713 110.722 268.602 476.038
766 0 51.0346 11.6588 595 110.775 268.247 481.077
767 0 51.0226 12.1907 622 110.397 267.908 479.407
768 0 55.0966 11.8882 655 111.13 268.226 477.617
769 0 56.2129 11.9012 669 110.697 268.344 477.568
770 0 59.0797 13.4226 793 108.144 268.332 475.733
771 0 62.0917 11.5313 716 107.704 268.443 477.7
772 0 63.1491 13.2702 838 106.764 268.518 474.782
773 0 65.135 11.5913 755 108.87 268.911 475.407
774 0 68.0633 13.605 926 105.379 268.538 472.77
775 0 70.1463 13.0442 915 108.946 267.466 471.938
776 0 73.1917 12.6654 927 105.449 266.896 469.004
777 0 72.2329 12.3905 895 107.467 267.752 468.34
778 0 78.1492 11.6828 913 109.21 266.988 468.341
779 0 81.1504 13.2593 1076 109.43 267.081 466.754
780 0 84.1195 12.0305 1012 111.625 266.903 465.698
781 0 86.1706 12.6377 1089 112.458 266.727 465.123
782 0 90.1057 13.0957 1180 112.036 266.32 463.343
783 0 93.1855 13.0171 1213 114.952 266.601 460.875
784 0 95.1288 12.5935 1198 114.191 266.524 460.067
785 1 48.0968 12.0382 579 114.399 267.168 481.649
786 0 50.1688 11.2819 566 115.641 266.82 481.761
787 0 50.2739 12.3126 619 119.275 266.058 476.103
788 0 51.0651 13.0814 668 119.696 267.389 480.166
789 0 54.139 13.6316 738 117.905 267.679 478.61
790 0 54.1159 13.6374 738 118.256 267.709 477.591
791 0 57.2722 13.1652 754 124.801 267.19 475.785
792 0 59.1425 11.9373 706 124.982 266.357 477.974
793 0 63.278 14.2072 899 117.788 266.258 474.788
794 0 65.2285 12.9238 843 119.027 266.658 473.085
795 0 66.137 12.4439 823 120.462 267.344 474.169
796 0 68.1474 12.4289 847 120.692 266.861 471.445
797 0 69.1144 12.993 898 120.148 266.743 469.541
798 0 73.2201 12.7014 930 115.141 266.4 467.308
799 0 75.1227 13.5512 1018 114.138 266.644 464.306
800 0 77.1936 12.4622 962 116.161 266.32 466.692
801 0 80.0624 13.4645 1078 114.663 266.293 465.785
802 0 80.2797 12.0703 969 119.702 265.236 462.718
803 0 86.2503 12.9275 1115 116.382 265.364 460.756
804 0 86.3256 13.3101 1149 115.954 266.022 459.514
805 0 89.3975 13.1659 1177 116.699 265.811 461.103
806 0 92.4463 13.0238 1204 118.158 265.093 455.718
807 0 98.3114 14.1489 1391 114.633 265.231 455.034
808 0 99.3426 13.7001 1361 117.085 265.076 454.27
809 0 103.448 14.413 1491 114.939 265.412 452.752
810 0 105.378 13.5323 1426 117.684 265.705 449.492
811 1 58.1966 11.9079 693 114.338 266.228 472.781
812 0 60.1457 12.636 760 111.572 265.911 472.559
813 0 61.1945 11.9782 733 114.363 265.345 472.813
814 0 64.1951 13.2097 848 109.92 267.051 473.007
815 0 67.1446 12.8082 860 110.949 266.926 471.463
816 0 68.2094 12.4763 851 111.959 267.489 470.913
817 0 72.1567 12.071 871 112.034 267.098 470.005
818 0 75.171 12.3984 932 111.264 266.167 469.502
819 0 77.1541 12.7407 983 111.737 266.659 466.057
820 0 79.1732 13.7799 1091 110.365 266.7 464.602
821 0 81.1909 12.5999 1023 113.026 266.605 463.577
822 0 87.1727 12.5613 1095 112.344 267.047 461.513
823 0 88.1596 13.1126 1156 111.543 267.01 459.193
824 0 95.1941 13.1416 1251 110.671 266.866 460.793
825 0 96.3007 13.219 1273 121.925 267.519 453.811
826 1 51.0861 9.94399 508 122.012 267.661 478.431
827 0 54.112 12.9546 701 113.959 267.355 477.912
828 0 54.1384 11.8216 640 116.759 267.069 478.234
829 0 57.1339 11.9719 684 114.02 268.192 476.458
830 0 60.1652 12.9311 778 115.211 267.676 474.577
831 0 61.1456 11.628 711 116.779 267.515 474.797
832 0 62.18 12.3995 771 116.069 267.27 473.601
833 0 65.2538 12.3058 803 114.765 267.587 473.011
834 0 67.2231 12.942 870 112.83 266.793 472.84
835 0 68.1279 12.9022 879 114.37 267.071 468.8
836 0 71.3432 13.7364 980 109.768 267.213 470.722
837 0 73.2242 13.288 973 110.704 267.085 468.967
838 0 74.2965 13.0154 967 112.025 267.129 467.076
839 0 77.2479 13.9033 1074 109.91 267.321 466.03
840 0 81.2811 12.6598 1029 112.224 267.382 464.2
841 0 83.2283 12.1353 1010 113.398 267.06 463.627
842 0 86.1537 11.8509 1021 115.136 266.872 459.622
843 0 89.2191 12.2844 1096 113.453 266.846 460.811
844 1 46.0428 11.6848 538 106.327 267.849 482.45
845 0 45.0315 10.7924 486 111.076 267.422 483.144
846 0 49.1176 12.1749 598 107.794 266.691 480.679
847 0 48.0324 11.0342 530 104.423 267.364 478.828
848 0 48.0704 11.712 563 104.369 266.847 479.052
849 0 52.103 11.9379 622 102.066 266.976 478.804
850 0 52.0215 12.4179 646 100.69 267.981 479.454
851 0 54.045 11.731 634 102.614 267.454 477.3
852 0 56.1378 12.5049 702 101.202 267.543 475.865
853 0 58.0788 13.6366 792 99.2159 267.056 473.96
854 0 59.0512 12.5484 741 101.982 265.413 476.08
855 0 60.0448 12.5739 755 102.163 265.807 473.999
856 0 60.0894 12.6145 758 102.904 266.046 474.168
857 0 63.1704 12.4584 787 103.901 265.085 469.144
858 0 66.1257 12.2645 811 104.379 264.853 470.985
859 0 66.2284 12.1549 805 106.88 264.976 469.443
860 0 69.0896 12.0423 832 108.1 264.51 466.984
861 0 71.139 12.9184 919 105.996 264.782 465.306
862 0 74.166 12.9574 961 107.2 265.017 463.697
863 0 77.0315 12.2937 947 108.025 266.958 463.715
864 0 77.0575 12.4452 959 109.335 266.872 464.532
865 0 80.0822 11.9377 956 110.024 266.702 462.225
866 0 82.1414 11.0663 909 112.088 266.51 463.812
867 1 43.0141 10.1827 438 113.696 267.322 482.694
868 0 43.0438 10.9888 473 111.518 267.008 481.894
869 0 45.0289 13.0139 586 107.177 267.666 480.401
870 0 46.0823 12.0003 553 108.55 265.324 482.034
871 0 48.0734 12.2313 588 109.019 265.1 477.828
872 0 49.1496 11.0276 542 112.985 264.795 479.679
873 0 49.1122 12.5223 615 110.033 265.911 478.756
874 0 53.073 12.0589 640 110.542 265.569 476.02
875 0 55.1011 13.3028 733 107.333 266.449 476.333
876 0 57.0877 12.4545 711 109.264 266.34 476.014
877 0 58.1164 12.2341 711 109.883 267.633 472.252
878 0 60.1487 13.982 841 105.398 267.933 471.22
879 0 63.1285 12.7201 803 108.022 267.295 472.644
880 0 65.0907 12.1984 794 110.384 267.48 468.38
881 0 65.1824 12.3653 806 110.294 267.056 469.104
882 0 69.1234 13.5699 938 107.274 266.284 467.07
883 0 70.1366 11.6915 820 111.76 266.606 466.355
884 0 72.1421 12.4199 896 110.507 266.844 466.035
885 0 73.0776 11.3578 830 113.102 266.808 463.471
886 0 76.1788 11.5911 883 113.373 266.06 461.22
887 0 80.1074 12.1961 977 112.02 266.059 460.62
888 0 84.1257 13.3015 1119 108.474 266.546 460.325
889 0 86.2935 12.6777 1094 110.757 266.151 458.639
890 1 42.0377 10.5144 442 114.796 267.102 479.93
891 0 45.1476 11.2077 506 112.757 266.508 480.358
892 0 46.1697 12.649 584 104.885 268.224 480.817
893 0 46.1197 12.5109 577 104.499 267.711 480.13
894 0 49.0441 12.866 631 103.338 267.437 479.36
895 0 50.139 11.9867 601 105.764 267.463 477.864
896 0 52.1874 12.6276 659 104.023 267.341 478.055
897 0 52.1207 13.2961 693 103.164 267.304 475.732
898 0 57.1532 12.5277 716 102.112 267.356 476.676
899 0 58.2203 12.4355 724 102.555 267.142 475.521
900 0 58.1278 12.0424 700 104.677 267.187 473.997
901 0 61.138 12.3818 757 103.795 266.84 472.827
902 0 63.151 13.0164 822 102.968 267.225 471.056
903 0 63.1575 11.3684 718 108.333 267.639 470.614
904 0 67.1507 12.0178 807 105.406 267.385 472.349
905 0 71.1496 13.4084 954 102.794 267.27 468.817
906 0 72.2667 12.9243 934 104.329 267.455 468.082
907 0 74.1118 12.9939 963 104.887 267.058 465.901
908 0 76.3185 12.212 932 105.715 266.851 467.003
909 0 79.2416 12.5944 998 106.536 266.443 464.498
910 0 82.0882 11.8287 971 109.168 267.31 463.899
911 1 43.1299 11.1756 482 110.143 267.305 480.531
912 0 46.2021 11.5363 533 106.131 267.655 482.368
913 0 47.0905 11.8071 556 105.052 267.176 480.482
914 0 50.1225 12.1901 611 104.139 267.529 480.969
915 0 52.1605 12.8258 669 98.8087 268.139 480.078
916 0 50.0623 11.9451 598 102.204 267.824 478.528
917 0 53.1271 13.5712 721 97.5132 267.49 478.348
918 0 56.0699 13.6793 767 95.9361 267.678 477.272
919 0 58.0919 13.2032 767 96.4876 268.246 476.356
920 0 60.178 12.9782 781 96.7657 267.487 476.051
921 0 57.1591 11.6692 667 101.267 268.166 474.909
922 0 62.1133 11.9459 742 100 267.774 473.004
923 0 62.1392 11.9087 740 100.576 267.701 472.357
924 0 67.1195 11.6807 784 100.152 266.886 470.724
925 0 69.0964 12.5911 870 97.9713 267.456 469.631
926 0 70.0873 11.8566 831 99.3466 266.218 469.667
927 0 73.2796 11.9269 874 98.857 266.414 468.767
928 0 77.1382 11.6285 897 99.845 266.235 465.226
929 0 80.1334 12.6789 1016 96.8307 266.815 467.251
930 0 82.1517 11.3084 929 100.586 266.467 461.228
931 1 41.08 9.83448 404 104.02 267.834 482.666
932 0 44.0913 10.3649 457 104.077 267.464 483.068
933 0 47.0473 12.1367 571 101.24 268.186 480.398
934 0 47.0935 11.2754 531 105.524 268.075 477.761
935 0 51.1245 13.3791 684 100.313 267.013 478.455
936 0 52.2357 11.1992 585 106.034 267.892 476.993
937 0 53.2878 11.2596 600 105.792 267.657 476.832
938 0 55.3719 11.5943 642 105.308 267.361 475.067
939 0 56.379 12.3628 697 104.44 267.656 474.654
940 0 57.3838 12.6342 725 105.423 267.654 472.239
941 0 60.3864 11.8404 715 105.894 267.758 473.701
942 0 63.4816 13.3267 846 103.108 266.902 471.434
943 0 66.387 12.0054 797 106.611 267.34 471.886
944 0 66.2183 11.9151 789 107.802 267.608 470.153
945 0 70.2973 11.6221 817 108.159 266.774 469.184
946 0 69.391 11.183 776 110.854 267.131 467.424
947 0 73.2805 12.9912 952 106.478 267.27 467.528
948 0 76.3378 12.4185 948 108.439 267.122 466.301
949 0 77.2292 11.9126 920 110.509 266.673 463.315
950 0 81.3549 12.2304 995 110.064 267.235 463.083
951 0 82.2643 11.9736 985 112.325 266.968 461.319
952 0 85.2493 11.5426 984 112.492 267.207 462.081
953 0 88.1985 12.7326 1123 111.313 266.987 458.529
954 1 45.0103 10.131 456 111.114 269.035 479.384
955 0 45.0099 10.4199 469 110.883 268.642 478.731
956 0 45.0456 11.0777 499 105.607 268.754 480.768
957 0 48.0482 10.6768 513 107.456 268.645 479.446
958 0 50.0695 12.0832 605 104.071 268.836 478.331
959 0 49.0378 11.4402 561 108.029 268.742 478.041
960 0 51.1083 11.3289 579 106.983 268.231 477.554
961 0 52.085 10.8669 566 108.436 268.915 477.018
962 0 56.0687 12.8771 722 102.947 269.122 477.072
963 0 56.1677 12.5161 703 104.963 268.424 474.684
964 0 58.0408 12.4051 720 105.724 268.91 474.638
965 0 59.0822 12.0341 711 107.698 268.457 473.15
966 0 61.067 13.8045 843 103.948 268.249 471.257
967 0 64.0994 13.1982 846 104.277 268.819 472.096
968 0 66.0692 13.1831 871 104.754 267.972 470.542
969 0 67.2143 14.0744 946 103.144 267.395 469.323
970 0 68.1006 12.5109 852 107.228 267.458 467.231
971 0 70.1318 12.8045 898 101.207 266.19 466.689
972 0 74.0928 12.8757 954 101.629 266.606 467.637
973 0 76.1743 13.4822 1027 100.535 265.712 464.273
974 0 79.2861 12.5495 995 102.726 266.172 462.371
975 0 80.2492 12.7478 1023 102.828 266.181 460.117
976 0 84.3439 12.0459 1016 103.315 266.607 459.945
977 0 86.3645 12.6209 1090 102.81 266.813 458.979
978 1 47.1909 12.5872 594 101.742 266.65 477.466
979 0 48.0399 11.5529 555 103.692 267.189 480.023
980 0 49.1792 12.2409 602 100.944 267.266 474.405
981 0 50.2361 12.1825 612 103.278 266.08 477.861
982 0 53.173 11.6224 618 104.112 266.235 476.163
983 0 53.1546 12.3602 657 104.463 266.242 473.651
984 0 56.2471 13.7607 774 101.298 266.407 473.704
985 0 57.1453 14.1919 811 100.969 265.564 473.408
986 0 62.1828 13.396 833 101.114 266.059 472.989
987 0 63.205 12.6414 799 103.564 266.717 472.198
988 0 64.2083 12.8955 828 104.407 266.803 469.836
989 0 66.1089 13.0996 866 104.405 267.159 469.697
990 0 70.1952 13.4767 946 103.272 266.466 468.384
991 0 70.222 13.7848 968 103.235 265.987 466.296
992 0 73.2276 12.9459 948 105.323 266.408 466.291
993 0 76.0906 13.5628 1032 104.528 266.435 465.415
994 0 77.0967 12.0887 932 108.759 266.153 465.512
995 0 81.1 12.5031 1014 108.373 266.461 463.211
996 0 84.2346 14.0322 1182 105.243 266.759 461.665
997 0 87.15 13.8382 1206 106.703 266.626 460.57
998 1 43.0775 11.8391 510 108.025 265.529 482.086
999 0 44.0661 11.0743 488 110.1 265.707 482.129
1000 0 46.1808 12.083 558 108.022 266.625 479.695
1001 0 46.0735 12.632 582 107.055 266.249 479.746
1002 0 48.1037 12.1197 583 109.419 266.811 478.189
1003 0 50.0746 13.38 670 107.081 266.54 476.798
1004 0 54.1325 13.8364 749 104.824 266.924 478.611
1005 0 53.1463 13.8486 736 106.87 266.777 476.219
1006 0 55.0793 13.3444 735 108.23 266.722 475.434
1007 0 57.1481 13.0013 743 108.4 266.338 475.191
1008 0 60.1108 13.0592 785 108.071 266.516 476.028
1009 0 62.0345 13.5731 842 107.626 266.556 474.409
1010 0 66.2373 14.6443 970 104.123 265.614 472.508
1011 0 66.0869 13.6941 905 108.181 265.994 470.894
1012 0 68.069 14.4706 985 106.36 265.508 470.495
1013 0 71.1368 13.3827 952 108.467 265.661 469.568
1014 0 75.2128 13.5083 1016 105.744 265.825 466.538
1015 0 78.1478 14.6517 1145 103.391 266.264 465.376
1016 0 81.1753 13.8343 1123 104.619 266.15 464.541
1017 0 84.1843 14.0406 1182 104.572 266.499 460.476
1018 0 87.1881 13.3849 1167 110.542 266.578 462.287
1019 0 92.2551 14.9585 1380 105.748 266.794 460.182
1020 1 47.1207 13.0516 615 108.956 266.798 479.049
1021 0 49.2428 12.9359 637 107.785 266.615 475.987
1022 0 52.1935 11.5148 601 100.456 268.481 478.983
1023 0 52.1902 11.8413 618 100.38 268.183 477.743
1024 0 52.1139 12.1849 635 100.079 268.192 477.302
1025 0 53.0994 10.8099 574 102.401 268.113 475.388
1026 0 57.1172 12.5706 718 99.6602 267.926 473.698
1027 0 61.1517 13.998 856 95.5619 267.495 473.916
1028 0 61.1052 12.4376 760 99.3934 267.418 474.039
1029 0 66.1941 12.4482 824 99.0425 267.444 472.472
1030 0 67.1759 13.4126 901 97.9645 267.138 470.469
1031 0 68.1715 12.3072 839 101.062 267.074 468.49
1032 0 72.1528 13.4991 974 99.1489 267.543 469.084
1033 0 73.1664 13.1891 965 100.818 267.42 468.309
1034 0 76.2122 12.9376 986 103.544 267.469 465.306
1035 0 78.3039 13.0645 1023 104.001 267.128 464.27
1036 0 80.1419 12.5278 1004 105.28 267.638 464.996
1037 1 44.0788 10.5947 467 103.405 269.169 483.914
1038 0 45.0259 11.1714 503 102.74 268.954 482.891
1039 0 47.0504 10.6907 503 102.451 267.421 480.547
1040 0 47.1155 11.2277 529 105.344 268.773 480.832
1041 0 46.0744 10.2443 472 107.445 268.786 481.896
1042 0 50.1221 11.3922 571 104.012 268.9 479.858
1043 0 51.1501 10.0293 513 103.288 268.721 477.616
1044 0 55.1316 13.2955 733 98.9209 268.513 478.351
1045 0 55.1132 13.4451 741 99.1876 268.802 476.279
1046 0 56.0607 11.6659 654 103.008 268.17 475.367
1047 0 58.079 11.1572 648 103.461 268.522 475.724
1048 0 60.1152 12.0435 724 102.526 267.863 472.465
1049 0 61.136 11.4826 702 101.758 267.574 474.087
1050 0 65.1674 11.6623 760 99.95 267.684 472.705
1051 0 68.1272 11.6253 792 100.327 267.061 471.816
1052 0 68.2416 12.7488 870 97.7218 267.392 471.609
1053 0 70.1258 11.8644 832 99.6562 267.32 469.66
1054 0 73.137 11.2255 821 100.543 267.374 466.795
1055 0 77.0928 11.8818 916 98.5164 267.251 464.922
1056 0 79.1374 10.6776 845 99.645 267.273 465.051
1057 0 83.204 11.2254 934 98.8972 267.207 462.368
1058 1 47.0588 11.56 544 94.2831 267.893 480.099
1059 0 46.0517 11.4437 527 96.518 268.313 479.256
1060 0 50.0532 10.9084 546 95.196 267.905 479.507
1061 0 50.1172 11.4731 575 95.4539 266.934 478.456
1062 0 52.1613 10.9276 570 96.086 266.972 477.326
1063 0 53.124 11.2755 599 96.3122 266.918 476.008
1064 0 55.196 10.6892 590 96.5797 267.075 475.268
1065 0 57.1784 10.5984 606 96.7624 267.002 475.855
1066 0 61.2239 12.8871 789 92.6984 266.755 472.84
1067 0 61.1449 12.2169 747 93.8072 267.082 472.548
1068 0 63.256 11.5088 728 94.9725 267.342 471.556
1069 0 68.1497 13.0888 892 92.2007 266.936 470.889
1070 0 67.364 13.39 902 92.6763 266.708 470.404
1071 0 72.2716 12.0379 870 96.6586 266.624 469.322
1072 0 72.471 11.2183 813 99.7515 266.422 468.272
1073 0 77.4528 12.7432 987 97.5127 265.628 462.146
1074 1 40.4126 10.2691 415 97.8626 265.566 480.378
1075 0 40.3457 11.0545 446 98.4036 265.993 479.487
1076 0 44.2909 11.8309 524 96.7347 266.527 478.899
1077 0 46.1016 11.8217 545 95.4532 266.728 481.024
1078 0 46.1138 11.9921 553 93.868 267.277 481.978
1079 0 49.2106 12.3551 608 93.9934 267.138 481.025
1080 0 50.1203 12.7892 641 92.5991 267.523 480.63
1081 0 54.2286 11.9679 649 93.0632 267.376 478.86
1082 0 52.2563 11.5967 606 96.3399 267.784 477.918
1083 0 55.1698 12.1987 673 95.7102 266.982 476.149
1084 0 57.2523 12.768 731 95.0301 266.349 475.19
1085 0 58.1366 12.9178 751 94.6525 267.113 475.176
1086 0 61.3394 11.3467 696 94.9023 267.728 474.193
1087 0 62.3038 11.9736 746 95.2802 267.698 473.096
1088 0 64.3936 12.4702 803 95.5579 267.288 470.948
1089 1 127.153 12.9529 1647 103.073 267.942 438.746
1090 1 68.3584 12.0688 825 96.9079 268.095 468.798
1091 0 68.3722 12.0078 821 98.8526 267.792 468.178
1092 0 73.0817 13.5054 987 96.1226 267.39 467.814
1093 0 75.2388 12.0284 905 100.319 266.485 466.455
1094 0 76.0934 12.0247 915 100.95 266.905 466.948
1095 0 79.2466 13.0857 1037 99.379 266.122 464.582
1096 0 82.3177 12.6097 1038 100.708 266.169 462.439
1097 0 86.1361 14.361 1237 97.5287 266.605 461.054
1098 0 86.2756 12.576 1085 102.369 266.743 458.775
1099 0 90.1657 13.4419 1212 100.805 266.531 458.55
1100 0 95.3138 13.6706 1303 99.8795 266.85 456.343
1101 0 97.3108 12.6913 1235 104.548 266.215 452.615
1102 1 55.3129 11.6609 645 101.395 266.408 473.859
1103 0 57.6158 12.1495 700 99.4743 265.969 473.467
1104 0 57.3274 11.6175 666 103.587 266.285 473.619
1105 0 59.1066 12.6889 750 102.957 266.643 474.16
1106 0 62.1006 13.1883 819 100.199 267.394 471.371
1107 0 61.2011 12.4998 765 102.965 267.855 472.187
1108 0 64.1076 13.3994 859 99.759 267.551 470.456
1109 0 68.1014 13.847 943 98.5143 267.705 467.817
1110 0 68.1489 12.0912 824 102.941 266.984 469.874
1111 0 71.071 13.8172 982 98.5672 266.893 467.55
1112 0 73.1422 13.5353 990 99.0667 266.887 467.513
1113 0 76.1824 12.1157 923 101.155 267.462 464.675
1114 0 76.124 11.455 872 103.867 267.213 462.28
1115 0 79.1855 10.3175 817 105.889 266.93 456.207
1116 0 84.1187 12.8628 1082 99.975 266.551 455.506
1117 0 88.1216 14.2984 1260 96.55 266.835 452.906
1118 0 91.3262 12.0228 1098 100.92 267.289 451.463
1119 0 94.1218 11.772 1108 101.234 267.403 451.088
1120 1 48.0438 11.8642 570 99.5877 267.984 471.789
1121 0 51.0966 11.7229 599 101.23 267.91 477.661
1122 0 51.1215 12.304 629 100.1 267.827 479.952
1123 0 52.1822 13.2804 693 98.8874 267.797 477.473
1124 0 53.1571 12.322 655 100.748 267.269 478.508
1125 0 58.2367 14.029 817 96.9278 267.707 475.843
1126 0 59.2585 14.5127 860 96.9 267.551 475.357
1127 0 61.226 11.6944 716 105.25 266.809 473.758
1128 0 62.3909 12.2935 767 104.914 266.859 473.168
1129 0 65.1749 13.7783 898 102.301 266.905 471.007
1130 0 67.1912 13.603 914 103.745 266.838 469.944
1131 0 70.3122 14.4072 1013 101.772 266.634 468.965
1132 0 72.3233 12.6377 914 107.046 266.593 467.056
1133 0 75.2106 13.2029 993 104.947 266.412 465.809
1134 0 76.2738 12.8091 977 107.47 266.438 465.666
1135 0 80.3598 12.6556 1017 106.191 266.402 465.288
1136 0 82.2438 14.3111 1177 103.85 266.839 461.802
1137 0 85.3563 13.0395 1113 104.817 267.581 461.21
1138 1 45.0375 10.7022 482 99.056 267.952 482.187
1139 0 46.1389 10.4901 484 95.7686 265.915 481.136
1140 0 49.1368 13.2691 652 95.5721 265.733 477.917
1141 0 50.0511 12.8469 643 97.0933 265.991 478.874
1142 0 51.057 11.4186 583 98.9966 267.714 480.302
1143 0 55.0347 12.8646 708 96.5523 267.191 477.965
1144 0 57.0755 12.8952 736 95.4307 267.554 478.879
1145 0 56.0416 12.6513 709 98.7447 267.154 475.392
1146 0 58.0712 12.4674 724 98.6726 266.996 477.471
1147 0 61.2431 12.9321 792 97.1982 267.153 474.375
1148 0 63.1004 13.4547 849 96.4617 266.582 472.433
1149 0 65.1306 13.02 848 98.1686 266.43 471.462
1150 0 69.1074 12.9653 896 97.0391 265.951 469.884
1151 0 71.1298 13.6933 974 96.4641 265.916 468.536
1152 0 73.1076 12.4337 909 99.6216 266.375 467.674
1153 0 75.1763 12.9562 974 99.2659 265.546 468.168
1154 0 77.1619 12.1563 938 100.786 265.762 466.577
1155 0 81.1172 14.7687 1198 95.8848 265.685 464.292
1156 0 84.0993 13.2938 1118 98.8014 266.249 461.996
1157 0 87.1152 13.1665 1147 95.9364 265.71 459.351
1158 1 44.0173 11.6772 514 94.7588 266.813 482.36
1159 0 46.0271 11.7757 542 96.8487 266.528 480.478
1160 0 47.1341 12.0931 570 100.767 265.174 479.454
1161 0 50.0903 14.0347 703 97.5021 266.816 478.586
1162 0 52.0338 12.6649 659 101.572 266.724 479.599
1163 0 53.027 13.1254 696 100.818 266.769 477.749
1164 0 55.1338 12.3336 680 103.196 266.947 476.904
1165 0 55.1233 11.0842 611 106.129 267.345 477.136
1166 0 59.0814 13.4222 793 100.091 266.721 475.962
1167 0 60.0226 12.262 736 103.323 267.474 473.118
1168 0 62.0388 11.7991 732 103.437 267.366 473.335
1169 0 66.1167 12.1603 804 102.321 266.189 470.928
1170 0 68.1327 13.4884 919 99.938 266.631 471.447
1171 0 71.1513 13.4783 959 98.9791 267.225 470.288
1172 0 72.16 13.3038 960 99.8521 267.205 467.552
1173 0 74.1689 13.7119 1017 99.3225 266.651 464.96
1174 0 77.093 12.9195 996 103.475 266.383 465.819
1175 0 79.193 12.7537 1010 105.094 266.593 464.841
1176 1 39.0344 11.9382 466 109.777 266.785 484.549
1177 0 40.0497 11.9102 477 113.614 267.432 483.816
1178 0 44.0149 13.1092 577 109.412 267.412 483.189
1179 0 43.0895 12.1375 523 109.407 266.939 483.161
1180 0 43.0558 12.9135 556 109.68 266.637 481.619
1181 0 48.0643 14.0645 676 104.947 267.251 480.771
1182 0 47.1276 13.4104 632 107.957 266.839 479.989
1183 0 51.0453 13.2627 677 106.637 266.448 480.359
1184 0 49.0985 12.811 629 107.994 266.328 479.297
1185 0 53.1078 14.4423 767 102.898 266.847 479.224
1186 0 51.1041 12.7583 652 109.776 266.926 477.176
1187 0 53.1211 12.5374 666 112.934 266.733 477.907
1188 0 55.0896 13.3056 733 110.84 265.952 477.484
1189 0 56.1588 12.5181 703 112.229 266.946 477.279
1190 0 58.1425 12.8822 749 112.983 266.57 474.824
1191 0 60.2466 12.4986 753 114.114 266.128 473.092
1192 0 63.168 12.728 804 112.405 266.257 474.083
1193 0 64.1445 13.5163 867 112.488 266.531 472.204
1194 0 65.1769 12.4277 810 113.811 266.649 474.581
1195 0 69.3171 12.6231 875 113.858 267.046 470.958
1196 0 71.1458 12.8609 915 114.952 266.052 468.585
1197 0 73.0654 13.4126 980 114.317 266.997 467.285
1198 0 76.1037 12.4961 951 114.824 266.705 469.404
1199 0 81.0793 13.3696 1084 112.537 266.818 465.592
1200 0 84.1776 14.3387 1207 110.539 266.449 462.724
1201 0 89.1302 14.002 1248 108.938 266.349 462.767
1202 1 44.0303 11.6057 511 112.464 266.297 483.023
1203 0 45.0635 13.0039 586 113.406 265.594 481.718
1204 0 46.0498 13.6808 630 112.606 266.984 479.306
1205 0 49.0667 14.144 694 110.643 266.895 479.392
1206 0 51.0714 13.9413 712 110.347 266.211 478.569
1207 0 53.048 13.78 731 111.327 266.917 479.06
1208 0 54.0784 14.4975 784 109.499 266.672 477.707
1209 0 54.0781 13.7764 745 113.807 266.549 477.459
1210 0 58.1772 14.7824 860 109.938 265.993 475.977
1211 0 60.0491 14.5381 873 110.399 265.954 476.186
1212 0 61.1254 14.6257 894 110.65 266.631 474.951
1213 0 62.1681 14.7021 914 111.993 266.035 472.838
1214 0 64.1045 15.9583 1023 109.163 265.903 470.703
1215 0 68.2323 15.6524 1068 113.592 265.248 471.321
1216 0 67.0637 13.7183 920 118.49 265.471 470.674
1217 0 71.13 14.7195 1047 114.243 266.01 468.316
1218 0 72.1292 13.254 956 118.093 266.497 467.286
1219 0 74.2224 13.3652 992 117.137 265.397 465.304
1220 0 79.1812 13.7659 1090 116.518 265.894 463.804
1221 0 81.1884 13.13 1066 117.826 266.364 460.191
1222 0 83.3798 15.0996 1259 114.537 266.323 460.005
1223 0 88.3162 15.4558 1365 114.091 265.955 456.799
1224 0 91.3458 13.9251 1272 118.18 265.439 457.906
1225 1 48.2355 13.1439 634 118.374 265.366 475.202
1226 0 51.2322 13.7414 704 118.142 264.893 474.912
1227 0 52.0784 12.3276 642 110.503 264.569 479.491
1228 0 54.1775 11.6469 631 110.42 265.128 477.095
1229 0 56.0918 12.8183 719 109.178 265.502 475.643
1230 0 55.0858 11.4548 631 111.242 265.269 470.867
1231 0 58.0618 11.9528 694 109.598 265.857 470.248
1232 0 59.1051 12.4016 733 107.771 266.016 470.786
1233 0 62.0843 13.3045 826 113.287 266.271 473.13
1234 0 66.1343 13.1702 871 112.169 266.564 472.255
1235 0 66.1009 13.0104 860 114.5 266.7 470.452
1236 0 70.1029 14.0508 985 111.64 266.048 470.354
1237 0 72.0622 13.0582 941 113.746 265.591 470.206
1238 0 75.1572 13.4119 1008 113.738 265.897 468.265
1239 0 76.1268 12.9915 989 116.303 265.987 467.526
1240 0 80.0828 14.5474 1165 111.845 265.742 464.791
1241 0 82.1675 14.6043 1200 113.43 265.937 462.561
1242 0 85.12 14.1212 1202 115.008 266.303 462.297
1243 0 89.0925 14.7038 1310 114.343 266.005 460.173
1244 0 92.1702 13.8114 1273 116.489 265.689 458.621
1245 0 97.1569 13.5966 1321 112.914 265.815 458.722
1246 1 51.1176 12.7353 651 109.882 266.92 481.083
1247 0 51.1494 12.5515 642 111.544 266.782 479.972
1248 0 53.0372 13.7073 727 109.398 266.979 478.329
1249 0 55.1159 13.4988 744 111.038 266.34 476.638
1250 0 56.0561 12.0058 673 115.407 266.241 478.033
1251 0 58.1027 13.1491 764 113.72 265.766 475.59
1252 0 60.0605 13.553 814 113.319 265.821 473.388
1253 0 63.1311 13.5116 853 112.479 266.363 471.925
1254 0 62.0903 13.1905 819 115.363 266.408 473.205
1255 0 65.1333 14.0328 914 113.653 266.377 470.524
1256 0 69.1008 14.79 1022 114.355 265.296 469.332
1257 0 68.1632 13.8198 942 116.652 265.77 469.343
1258 0 72.1561 12.9026 931 118.639 265.901 468.989
1259 0 74.1854 13.1158 973 119.025 265.608 466.938
1260 0 75.0862 13.7842 1035 118.078 265.554 467.009
1261 0 79.2039 14.0397 1112 117.612 264.878 466.29
1262 0 78.0943 11.3965 890 125.739 264.427 465.012
1263 0 81.1035 11.9477 969 124.237 264.892 466.18
1264 0 85.1174 14.2744 1215 119.382 265.173 462.862
1265 0 87.1907 13.2468 1155 122.805 264.869 462.285
1266 0 90.1121 14.2822 1287 121.861 265.273 460.618
1267 0 93.2123 14.9658 1395 125.368 265.299 458.353
1268 0 96.2176 14.488 1394 126.217 265.28 458.076
1269 0 99.106 14.8124 1468 123.11 264.365 453.621
1270 0 100.402 14.173 1423 125.393 264.568 449.497
1271 0 104.393 13.3343 1392 127.443 264.358 448.954
1272 0 107.379 13.9133 1494 126.219 265.05 447.934
1273 0 112.21 13.9292 1563 127.407 265.049 444.619
1274 0 117.26 13.986 1640 125.735 265.106 445.348
1275 0 119.475 13.8858 1659 126.673 265.063 441.298
1276 0 124.392 14.0122 1743 126.052 264.787 438.646
1277 1 62.2569 11.8381 737 125.385 264.871 471.246
1278 0 65.2586 13.7453 897 124.964 264.935 468.796
1279 0 68.1017 13.5679 924 128.535 265.443 466.317
1280 0 70.2483 13.3526 938 133.18 264.258 465.038
1281 0 72.1493 13.4721 972 132.983 264.199 462.718
1282 0 74.1509 13.958 1035 133.038 264.666 461.87
1283 0 79.3361 15.2264 1208 127.841 265.525 459.045
1284 0 80.1494 14.5229 1164 124.36 265.42 457.278
1285 0 81.2035 14.359 1166 125.38 265.651 456.379
1286 0 85.148 15.0209 1279 123.91 265.617 453.937
1287 0 85.2148 14.0234 1195 129.218 265.385 452.674
1288 0 89.1427 14.6619 1307 127.26 265.72 450.21
1289 0 92.1184 13.9603 1286 130.138 265.07 450.021
1290 0 96.1704 14.5575 1400 127.096 265.571 447.581
1291 0 98.1609 14.7004 1443 128.272 265.616 445.909
1292 0 102.185 14.4737 1479 128.801 265.258 443.449
1293 1 52.1006 12.9365 674 131.583 265.699 469.277
1294 0 55.125 13.5873 749 127.19 265.622 467.447
1295 0 57.2872 14.6455 839 122.67 265.266 468.466
1296 0 59.1653 13.9271 824 124.075 264.859 465.882
1297 0 60.1882 12.544 755 128.683 264.555 465.576
1298 0 63.0942 14.6448 924 122.682 264.231 467.288
1299 0 64.0443 14.7086 942 123.43 264.907 465.53
1300 0 65.2358 14.0567 917 125.944 264.739 465.734
1301 0 67.1792 14.1711 952 125.956 265.216 463.624
1302 0 71.1552 14.0538 1000 125.359 265.329 462.837
1303 0 74.1961 14.2865 1060 123.77 264.668 459.421
1304 0 76.2301 14.7186 1122 124.42 265.2 455.069
1305 0 79.2095 14.5058 1149 124.425 264.78 455.905
1306 0 79.2631 14.5465 1153 125.526 265.167 454.578
1307 0 81.1676 13.9464 1132 126.67 265.264 453.932
1308 0 86.3051 14.4487 1247 124.045 265.075 452.204
1309 0 87.15 14.4922 1263 125.265 264.598 450.454
1310 0 91.1986 14.6494 1336 124.407 264.912 449.542
1311 0 94.0624 15.2027 1430 122.883 264.763 447.114
1312 0 96.1804 13.6826 1316 126.084 264.788 448.064
1313 0 101.149 14.8593 1503 122.456 264.795 444.361
1314 0 103.306 13.9004 1436 123.971 264.6 443.778
1315 0 107.202 13.7497 1474 124.334 264.727 441.638
1316 0 112.402 13.3094 1496 123.944 265.05 438.823
1317 0 116.325 13.9781 1626 123.006 264.863 437.096
1318 1 60.1845 11.7638 708 128.154 264.571 462.497
1319 0 63.1822 12.8676 813 125.25 264.718 461.301
1320 0 64.0973 13.5419 868 120.111 264.888 459.896
1321 0 67.1243 14.421 968 119.127 264.18 458.53
1322 0 66.2225 12.6241 836 126.47 264.696 458.752
1323 0 71.1269 13.736 977 125.496 264.595 463.33
1324 0 77.098 14.4751 1116 121.427 264.242 459.778
1325 0 77.1758 15.0436 1161 121.263 263.439 458.668
1326 0 81.103 14.8083 1201 120.338 264.009 455.55
1327 0 83.1033 14.8129 1231 121.016 264.006 453.863
1328 0 85.1377 14.7526 1256 121.723 264.619 453.515
1329 0 88.2516 14.4133 1272 122.551 265.064 451.164
1330 0 93.2546 14.3693 1340 121.11 264.807 450.451
1331 0 95.2402 15.0147 1430 119.297 264.42 448.339
1332 0 98.361 14.8331 1459 119.456 264.818 442.752
1333 1 51.1913 10.0212 513 118.129 264.61 466.908
1334 0 55.2552 11.8179 653 113.259 265.266 471.231
1335 0 54.2469 11.0052 597 115.191 265.139 474.732
1336 0 58.1007 12.1685 707 111.307 265.351 474.115
1337 0 59.0931 12.2011 721 112.691 265.456 472.807
1338 0 62.1242 11.7989 733 113.28 265.263 472.314
1339 0 64.2245 10.9615 704 114.53 264.719 472.399
1340 0 68.4041 13.9319 953 108.232 265.623 470.465
1341 0 69.1339 11.6441 805 113.037 265.615 468.988
1342 0 73.1239 13.06 955 110.036 265.112 467.14
1343 0 74.0872 13.2951 985 110.994 265.449 465.738
1344 0 75.2181 12.3507 929 113.776 265.272 462.666
1345 0 77.0736 12.7281 981 113.16 265.68 462.581
1346 0 81.072 11.5823 939 113.852 265.771 464.086
1347 0 85.2211 11.9219 1016 111.858 265.497 459.8
1348 0 89.124 12.9483 1154 109.763 265.085 457.12
1349 0 89.1359 11.8919 1060 114.221 265.937 456.833
1350 0 92.2813 12.2885 1134 113.006 266.167 457.306
1351 0 96.2006 13.108 1261 111.906 266.366 455.292
1352 0 97.1735 11.9065 1157 116.469 266.085 453.824
1353 0 101.226 12.8031 1296 116.062 265.574 449.855
1354 0 105.274 13.7071 1443 113.945 265.724 449.73
1355 0 107.353 12.566 1349 118.601 265.38 445.244
1356 0 112.263 12.9696 1456 117.559 265.016 446.418
1357 0 115.288 12.8807 1485 119.011 265.312 441.747
1358 0 119.267 13.0967 1562 118.903 265.199 441.364
1359 0 124.402 13.5448 1685 118.136 265.013 434.779
1360 0 127.575 12.7219 1623 120.303 264.862 431.386
1361 1 69.307 11.716 812 115.355 265.182 461.248
1362 0 72.1686 11.9443 862 116.188 265.137 460.202
1363 0 72.2246 12.2396 884 116.946 264.432 459.469
1364 0 76.2286 12.3576 942 119.979 263.895 462.453
1365 0 81.3052 14.4763 1177 111.915 264.31 463.016
1366 0 81.3471 12.6864 1032 117.751 264.887 460.254
1367 0 87.4471 14.0085 1225 113.302 265.274 458.734
1368 0 89.1946 12.512 1116 115.951 265.217 457.089
1369 0 89.3098 12.507 1117 118.034 264.914 455.142
1370 0 93.3014 12.2613 1144 118.137 265.42 456.279
1371 0 94.2233 12.2899 1158 118.324 265.325 452.624
1372 0 99.2765 13.2559 1316 114.657 264.767 449.91
1373 0 102.322 11.6006 1187 118.074 265.149 449.184
1374 0 105.31 12.3635 1302 116.642 265.072 443.978
1375 0 110.289 12.3493 1362 116.844 264.369 442.99
1376 0 113.341 12.1139 1373 116.288 264.312 441.379
1377 1 59.0964 9.22223 545 116.382 264.457 468.044
1378 0 59.2199 10.537 624 112.619 263.482 465.883
1379 0 61.0527 11.5146 703 110.512 262.882 461.913
1380 0 66.0832 10.8651 718 106.664 266.047 471.06
1381 0 69.3049 9.84058 682 106.773 266.359 470.202
1382 0 71.1023 9.77465 695 106.953 266.406 469.709
1383 0 72.0977 9.01555 650 108.955 266.355 468.506
1384 0 73.1072 9.72544 711 108.098 266.284 467.274
1385 0 77.1182 10.633 820 107.049 266.271 463.3
1386 0 79.1036 10.5811 837 106.594 266.411 464.079
1387 0 81.1187 9.61554 780 108.412 265.846 463.217
1388 0 86.1686 10.4911 904 104.111 266.894 464.084
1389 0 90.2324 11.1822 1009 104.03 267.066 461.409
1390 0 92.1445 12.1874 1123 101.664 266.842 457.173
1391 0 96.1979 11.0501 1063 103.738 266.28 457.471
1392 0 96.2305 9.9033 953 106.73 266.244 455.553
1393 0 103.14 11.6637 1203 101.909 265.734 455.898
1394 1 59.0785 10.5961 626 102.585 266.636 476.489
1395 0 59.1628 10.9021 645 101.715 265.798 474.738
1396 0 61.0844 11.1649 682 102.625 265.503 473.16
1397 0 63.1169 11.7877 744 99.9987 266.504 470.207
1398 0 66.1336 11.1744 739 99.4262 266.754 471.847
1399 0 67.0889 11.9543 802 98.1683 266.403 468.291
1400 0 68.0864 11.647 793 98.855 266.955 468.411
1401 0 70.1025 11.7827 826 98.4939 266.527 468.028
1402 0 74.1279 11.2373 833 99.4418 266.743 465.144
1403 0 74.0959 12.9832 962 96.3763 266.654 464.578
1404 0 76.1251 12.2167 930 99.1043 266.208 463.965
1405 0 81.0938 13.5645 1100 95.5355 266.105 463.305
1406 0 81.1571 11.6934 949 100.493 266.229 460.2
1407 0 84.1402 13.1685 1108 98.111 265.776 458.495
1408 0 88.1291 13.2646 1169 97.8144 265.969 458.779
1409 0 89.264 12.4014 1107 101.465 265.574 457.217
1410 0 92.1992 13.7854 1271 99.4784 264.585 454.489
1411 0 96.1331 13.5437 1302 100.866 265.475 452.435
1412 0 97.2173 13.3618 1299 102.43 266.273 452.484
1413 0 102.298 14.1645 1449 101.251 265.658 449.861
1414 0 106.26 13.5705 1442 102.361 265.615 447.343
1415 0 109.245 14.1517 1546 101.27 266.32 445.195
1416 1 57.0699 11.1618 637 109.209 267.494 471.042
1417 0 59.0918 10.8306 640 109.264 267.183 469.362
1418 0 61.0348 11.1903 683 111.953 266.821 467.782
1419 0 61.0644 11.6107 709 104.382 264.608 469.913
1420 0 64.0972 12.1066 776 103.077 265.808 469.015
1421 0 66.0834 11.9849 792 104.356 265.869 467.946
1422 0 66.0822 11.5008 760 107.226 265.842 464.525
1423 0 70.1103 12.4803 875 105.104 265.734 466.31
1424 0 72.1298 12.3805 893 104.324 265.307 466.386
1425 0 73.1171 13.4989 987 103.711 266.11 462.459
1426 0 76.1933 12.6127 961 106.472 266.339 460.341
1427 0 79.2385 12.8094 1015 106.666 267.125 461.024
1428 0 82.1967 13.6988 1126 105.144 267.06 460.84
1429 0 82.1487 12.3556 1015 111.171 266.588 457.704
1430 0 86.2209 14.0453 1211 106.533 266.593 458.512
1431 0 88.228 12.6717 1118 111.259 266.616 457.967
1432 0 91.221 12.1792 1111 113.801 266.313 453.781
1433 0 95.2467 13.9427 1328 110.064 266.186 452.376
1434 0 97.1068 11.8941 1155 116.65 265.774 451.575
1435 0 98.0833 12.3976 1216 117.748 265.64 449.55
1436 0 104.1 13.2564 1380 115.762 266.341 446.237
1437 1 57.1412 11.5503 660 115.967 266.868 469.6
1438 0 57.2583 11.0726 634 117.566 265.841 468.562
1439 0 56.117 11.9037 668 109.341 264.382 460.924
1440 0 59.0537 11.8197 698 108.13 264.718 461.219
1441 0 60.1795 11.0503 665 102.46 265.474 463.623
1442 0 63.1576 11.4159 721 101.261 265.241 462.48
1443 0 66.1347 12.2477 810 99.4062 266.098 461.021
1444 0 67.1778 10.5541 709 103.212 265.556 459.306
1445 0 67.0918 11.5662 776 102.534 265.995 458.11
1446 0 70.1431 11.5336 809 103.387 265.491 460.682
1447 0 74.1012 12.9283 958 108.29 266.588 463.082
1448 0 76.1805 13.8356 1054 107.233 266.891 461.694
1449 0 77.1634 13.763 1062 107.268 266.787 464.653
1450 0 79.1305 13.7874 1091 107.221 266.941 461.63
1451 0 83.1462 14.1678 1178 106.46 266.71 461.918
1452 0 86.0696 13.6401 1174 107.757 266.405 460.215
1453 0 87.0696 13.3686 1164 109.458 266.804 458.004
1454 0 92.1076 14.3419 1321 106.761 267.044 456.441
1455 0 94.0842 13.1478 1237 111.041 267.314 454.848
1456 0 96.1017 13.9956 1345 109.702 267.375 454.5
1457 0 98.129 13.6351 1338 110.661 267.063 452.29
1458 0 103.101 14.772 1523 107.902 266.785 448.823
1459 0 107.152 14.1295 1514 110.12 266.658 450.476
1460 1 56.0387 11.385 638 116.682 267.19 471.929
1461 0 57.0421 12.0613 688 112.961 267.64 468.775
1462 0 63.0287 13.4859 850 109.919 268.222 471.633
1463 0 62.0496 12.1677 755 115.052 267.719 471.183
1464 0 64.0765 13.0001 833 112.715 267.031 471.206
1465 0 66.0716 12.7892 845 113.149 266.37 468.942
1466 0 68.0426 13.5062 919 111.141 266.669 468.178
1467 0 69.05 12.0927 835 114.896 267.363 468.499
1468 0 71.046 13.0338 926 113.293 267.405 466.727
1469 0 74.0505 13.3288 987 112.598 267.089 465.498
1470 0 77.1371 12.6009 972 113.972 267.399 466.009
1471 0 80.083 13.0864 1048 112.512 267.158 462.931
1472 0 82.1341 12.3822 1017 114.337 267.96 462.436
1473 0 87.0685 13.564 1181 111.534 267.417 461.23
1474 0 85.1851 12.7722 1088 115.831 267.139 457.624
1475 0 91.2281 12.9894 1185 113.36 266.424 458.34
1476 0 94.0676 12.5973 1185 113.833 266.857 457.554
1477 0 96.1441 12.3981 1192 114.987 266.856 452.862
1478 0 98.205 12.7081 1248 113.732 265.891 453.436
1479 1 54.1162 11.2166 607 108.606 267.056 476.325
1480 0 54.0765 11.5392 624 107.925 266.444 475.817
1481 0 58.0331 11.0626 642 103.942 266.467 475.726
1482 0 57.0577 12.9868 741 101.864 266.676 475.14
1483 0 60.0991 13.4777 810 99.837 266.981 473.714
1484 0 60.103 12.7947 769 102.103 267.159 472.425
1485 0 62.0281 12.3815 768 102.574 266.677 472.247
1486 0 62.0606 12.1655 755 103.366 266.731 470.691
1487 0 66.1464 12.1095 801 102.513 266.785 466.467
1488 0 67.1236 12.4248 834 101.905 265.56 469.228
1489 0 71.1456 13.7746 980 98.2929 266.149 467.476
1490 0 75.1083 13.9532 1048 96.7471 266.16 467.454
1491 0 73.085 12.2187 893 101.798 266.561 464.395
1492 0 78.1042 12.6882 991 100.18 266.386 464.829
1493 0 80.1621 12.5496 1006 103.182 265.752 461.477
1494 0 83.2411 12.5539 1045 103.964 265.828 459.598
1495 0 87.3582 14.4234 1260 99.9627 265.595 460.115
1496 0 90.3337 14.1475 1278 100.308 265.466 459.068
1497 0 93.3312 13.436 1254 102.39 265.423 456.986
1498 0 91.419 11.4856 1050 107.89 265.333 456.525
1499 0 97.4083 13.1508 1281 103.529 265.276 453.576
1500 0 101.427 13.5664 1376 102.916 265.087 452.416
1501 0 104.527 13.6903 1431 102.458 264.505 448.648
1502 1 51.2146 10.0167 513 104.91 265.082 474.628
1503 0 55.2894 11.268 623 102.978 265.729 472.629
1504 0 57.2247 13.2111 756 95.6442 266.402 475.202
1505 0 57.2229 12.1804 697 100.486 265.524 472.647
1506 0 58.3178 11.4716 669 104.694 265.136 473.777
1507 0 57.07 11.2844 644 107.106 265.452 472.547
1508 0 58.2634 13.6278 794 102.165 265.844 472.009
1509 0 61.2905 11.7147 718 106.513 265.55 473.558
1510 0 63.2312 11.9245 754 107.466 265.455 472.554
1511 0 64.273 12.2291 786 104.962 265.557 471.538
1512 0 67.3075 12.3612 832 103.709 266.197 469.899
1513 0 69.1493 12.8418 888 101.912 266.182 468.753
1514 0 71.2012 13.82 984 99.3232 265.499 468.576
1515 0 70.239 11.048 776 106.713 265.286 465.716
1516 0 75.2766 11.9293 898 103.443 265.363 467.452
1517 0 78.2559 13.2386 1036 101.935 265.348 464.905
1518 0 80.371 14.5077 1166 100.307 265.11 465.385
1519 0 83.2319 13.2281 1101 104.266 264.821 464.264
1520 0 84.3939 13.5081 1140 106.018 264.877 461.243
1521 0 88.262 12.5988 1112 108.783 264.929 462.425
1522 1 46.0914 10.5226 485 112.61 265.526 479.85
1523 0 48.0573 11.2574 541 112.895 266.115 478.192
1524 0 52.2486 13.2635 693 106.557 264.053 479.293
1525 0 52.2578 13.3569 698 110 264.301 478.097
1526 0 54.2625 11.6655 633 114.419 264.163 478.804
1527 0 53.1993 13.91 740 111.989 264.981 476.609
1528 0 57.2264 14.0844 806 110.426 264.685 477.803
1529 0 56.1653 12.8371 721 116.546 264.076 477.143
1530 0 59.1458 13.4752 797 113.947 264.38 476.537
1531 0 61.2558 13.4844 826 115.782 264.755 474.55
1532 0 62.2799 12.4278 774 120.504 264.578 473.928
1533 0 63.2754 13.7178 868 118.758 264.76 473.854
1534 0 63.2343 13.6318 862 120.577 264.516 472.682
1535 0 65.3372 12.7799 835 123.148 263.925 473.232
1536 0 68.2185 13.8086 942 121.087 264.41 471.9
1537 0 70.1988 14.1028 990 120.205 264.613 470.261
1538 0 72.1622 14.0517 1014 120.097 264.826 469.11
1539 0 74.1663 13.2405 982 122.41 264.226 469.716
1540 0 77.1444 13.896 1072 120.769 264.612 466.785
1541 0 81.2989 15.1663 1233 117.496 264.26 464.545
1542 0 81.3741 12.8419 1045 124.491 263.442 465.946
1543 0 85.1809 15.0973 1286 120.242 263.716 460.65
1544 1 46.1283 11.8365 546 125.969 264.282 481.471
1545 0 47.1049 12.7375 600 119.78 265.493 481.495
1546 0 49.2768 12.8052 631 122.599 263.487 481.372
1547 0 49.2768 12.9676 639 135.465 262.512 481.307
1548 0 51.0286 11.6013 592 123.13 264.269 477.215
1549 0 53.0318 11.7477 623 122.632 264.379 476.668
1550 0 55.1573 12.4009 684 120.67 264.035 474.671
1551 0 57.0427 12.1488 693 120.392 264.499 473.644
1552 0 58.0729 11.7439 682 122.484 263.965 473.18
1553 0 58.0598 12.0565 700 123.03 264.009 472.897
1554 0 62.1006 13.1078 814 119.593 264.19 471.553
1555 0 63.1122 12.248 773 121.724 263.881 471.173
1556 0 67.1037 12.2348 821 120.446 263.325 471.402
1557 0 67.2953 13.8345 931 118.43 263.619 468.125
1558 0 69.0606 12.9886 897 120.894 263.641 467.972
1559 0 70.1514 12.302 863 124.443 263.47 466.797
1560 0 75.2685 12.7543 960 122.326 263.589 466.246
1561 0 78.1737 12.5746 983 123.201 263.155 466.249
1562 0 82.2599 13.506 1111 121.317 263.405 463.554
1563 0 81.2026 12.8075 1040 124.694 263.144 462.902
1564 0 86.1685 14.3092 1233 121.895 262.705 458.377
1565 0 88.2187 13.0244 1149 125.615 262.963 459.077
1566 0 92.3837 13.6171 1258 123.928 263.158 456.999
1567 0 96.315 14.2449 1372 116.134 262.918 456.185
1568 0 98.2005 13.2586 1302 120.275 262.799 456.626
1569 1 52.0904 13.4958 703 122.161 263.004 479.458
1570 0 51.1878 13.5188 692 122.842 262.36 474.815
1571 0 54.2117 14.1482 767 122.536 263.035 473.88
1572 0 57.4296 15.0619 865 119.086 262.346 471.665
1573 0 59.1022 13.9081 822 121.635 262.826 474.482
1574 0 59.1105 14.2445 842 127.625 262.518 475.189
1575 0 61.2394 13.3411 817 128.164 262.662 475.077
1576 0 66.1219 14.1708 937 119.685 263.032 471.592
1577 0 67.0989 14.814 994 118.94 263.518 469.013
1578 0 70.2187 14.1842 996 118.319 262.948 470.861
1579 0 71.4911 14.7711 1056 120.226 263.246 467.048
1580 0 72.3108 13.8154 999 123.835 262.195 466.52
1581 0 75.1326 13.9487 1048 125.291 263.188 465.144
1582 0 77.2569 14.277 1103 125.318 262.903 463.628
1583 0 80.4615 13.957 1123 126.394 262.882 462.577
1584 0 83.3794 14.368 1198 125.667 261.976 461.904
1585 0 87.3253 15.551 1358 122.328 262.194 457.943
1586 0 89.5096 14.8699 1331 124.227 262.856 459.265
1587 0 91.3375 13.357 1220 130.045 262.903 457.405
1588 0 96.5584 14.4161 1392 126.003 261.978 457.535
1589 0 97.3096 14.829 1443 126.886 261.909 454.914
1590 0 101.447 15.4465 1567 125.799 261.943 451.911
1591 0 107.731 15.9657 1720 123.034 261.92 450.751
1592 1 57.3873 13.4525 772 130.494 262.291 472.781
1593 0 58.1646 14.9576 870 127.633 262.644 472.521
1594 0 63.3122 14.5628 922 127.342 262.329 471.042
1595 0 66.3472 14.5296 964 126.287 262.866 469.811
1596 0 69.3883 14.7287 1022 126.294 262.764 467.257
1597 0 71.3949 14.3428 1024 127.165 262.011 466.75
1598 0 72.3374 14.0315 1015 129.456 262.598 465.201
1599 0 77.4594 13.2715 1028 129.667 262.983 464.586
1600 0 79.3208 14.1577 1123 127.994 262.391 463.506
1601 0 82.556 13.8452 1143 129.402 262.482 462.048
1602 0 84.4148 14.2511 1203 128.863 262.558 459.618
1603 0 88.2203 14.5885 1287 127.582 262.158 459.071
1604 0 92.1774 15.3942 1419 126.777 262.3 454.929
1605 0 92.3005 14.1386 1305 131.356 262.367 456.595
1606 0 98.3339 14.6542 1441 128.754 262.857 454.761
1607 0 102.28 15.0861 1543 128.356 262.564 453.456
1608 0 104.357 15.0253 1568 129.948 262.983 450.775
1609 0 109.291 15.0058 1640 129.113 262.818 450.202
1610 0 112.521 14.8417 1670 130.408 261.992 447.541
1611 0 115.266 13.933 1606 133.361 262.339 444.106
1612 0 120.354 15.23 1833 128.583 262.973 443.426
1613 0 120.354 15.1719 1826 163.046 263.96 443.383
1614 1 68.1947 13.4614 918 131.951 261.768 466.796
1615 0 72.1982 15.3189 1106 126.126 262.628 466.044
1616 0 74.1499 13.9852 1037 129.816 261.929 465.247
1617 0 78.1772 14.1473 1106 128.558 261.843 463.665
1618 0 80.1995 13.7781 1105 130.303 262.513 461.359
1619 0 85.115 13.6404 1161 129.61 262.594 460.367
1620 0 86.1994 15.0233 1295 127.734 262.337 457.824
1621 0 87.1708 13.5481 1181 132.328 262.434 455.472
1622 0 91.2234 14.4809 1321 129.656 262.796 454.253
1623 0 96.2706 15.2487 1468 125.762 262.736 455.095
1624 0 99.1399 15.3319 1520 126.116 262.534 453.359
1625 0 103.194 14.3129 1477 129.066 261.76 450.443
1626 0 106.311 15.5016 1648 125.975 261.866 449.735
1627 0 110.267 15.408 1699 125.395 262.269 448.074
1628 0 113.148 14.4943 1640 128.171 261.662 447.585
1629 0 119.234 15.7086 1873 124.171 261.684 444.752
1630 0 121.235 13.6182 1651 131.52 262.122 440.844
1631 0 127.27 14.6538 1865 127.625 261.619 439.749
1632 0 131.188 14.8031 1942 128.292 261.73 436.364
1633 0 135.24 14.6406 1980 129.164 261.903 434.022
1634 1 74.1163 11.1581 827 129.937 261.583 462.869
1635 0 80.0873 12.399 993 126.394 261.552 461.103
1636 0 81.1075 12.206 990 127.243 261.719 461
1637 0 87.1692 14.0876 1228 123.143 261.717 457.5
1638 0 88.085 13.6913 1206 125.632 262.397 456.285
1639 0 92.1412 13.501 1244 125.498 262.518 455.869
1640 0 93.1463 13.4734 1255 126.601 261.688 455.545
1641 0 96.1986 14.4285 1388 125.607 262.305 452.08
1642 0 97.3452 13.5805 1322 129.523 261.916 450.461
1643 0 99.1581 13.302 1319 131.29 262.945 447.307
1644 0 105.249 14.3944 1515 127.056 261.985 446.3
1645 0 109.303 13.8148 1510 128.817 262.403 441.86
1646 0 114.337 13.88 1587 127.419 262.602 441.554
1647 0 116.453 12.855 1497 131.734 262.432 435.996
1648 0 122.413 14.737 1804 126.094 262.602 433.312
1649 0 128.403 15.4514 1984 123.062 263.051 434.165
1650 1 68.3126 12.7502 871 122.022 263.538 459.906
1651 0 71.3946 11.4294 816 121.083 263.713 458.667
1652 0 72.0858 11.625 838 124.782 262.427 461.629
1653 0 73.0717 11.605 848 124.301 261.153 457.992
1654 0 77.0488 12.2779 946 120.23 261.228 456.561
1655 0 74.1171 10.0652 746 127.454 260.865 449.468
1656 0 81.1954 11.3676 923 119.538 262.598 450.755
1657 0 80.1127 11.7834 944 119.75 262.559 446.24
1658 0 82.1336 12.1022 994 118.785 262.694 445.513
1659 0 87.0911 10.8163 942 121.792 262.76 444.185
1660 0 89.153 11.1269 992 121.728 262.454 442.381
1661 0 82.1907 10.4756 861 125.828 262.661 438.983
1662 0 99.0819 12.6259 1251 114.948 262.809 443.018
1663 0 100.195 10.2799 1030 120.967 262.541 441.885
1664 0 101.152 12.5257 1267 115.881 262.565 440.176
1665 0 106.234 11.0228 1171 119.442 262.775 438.441
1666 0 107.227 9.84828 1056 124.303 262.933 431.505
1667 0 113.429 12.5893 1428 116.503 262.606 434.321
1668 0 117.386 10.6742 1253 120.642 262.077 431.923
1669 0 121.364 11.6262 1411 118.371 261.476 427.969
1670 1 69.3374 8.63892 599 100.459 261.419 461.718
1671 0 74.2672 9.81591 729 98.1139 261.265 461.855
1672 0 73.0983 9.08366 664 108.526 262.401 458.459
1673 0 79.0742 9.28242 734 105.599 260.917 458.516
1674 0 79.0357 9.18572 726 106.603 260.803 456.64
1675 0 80.067 9.97914 799 104.089 260.776 455.849
1676 0 84.0549 8.37548 704 106.974 260.837 453.273
1677 0 88.1377 9.39439 828 103.973 261.818 454.292
1678 0 87.212 9.79224 854 103.547 262.526 451.936
1679 0 90.1351 10.0405 905 101.832 263.207 455.088
1680 0 90.3816 8.962 810 107.275 262.37 446.128
1681 0 94.2458 8.49906 801 106.835 262.64 446.577
1682 0 96.3416 9.33138 899 106.34 261.798 444.366
1683 0 101.246 9.85716 998 103.975 262.236 447.98
1684 0 103.267 9.89664 1022 105.788 262.022 443.683
1685 0 107.17 9.6016 1029 105.545 262.155 444.269
1686 0 110.212 11.6866 1288 102.215 262.206 441.043
1687 0 113.286 10.8751 1232 103.778 261.435 438.903
1688 0 116.275 9.91619 1153 105.618 261.937 439.125
1689 0 118.232 10.5809 1251 106.479 262.341 428.406
1690 0 123.145 9.93948 1224 106.494 262.319 432.307
1691 0 127.228 9.65985 1229 106.253 262.22 433.333
1692 0 131.225 9.27416 1217 109.476 262.823 423.433
1693 1 74.072 8.65374 641 94.9111 262.095 461.807
1694 0 77.1627 9.56421 738 95.4919 261.566 457.581
1695 0 81.3973 9.95119 810 104.435 264.343 458.3
1696 0 82.2931 8.73706 719 108.167 263.787 453.797
1697 0 84.3424 9.97126 841 105.249 263.999 455.07
1698 0 84.2364 8.951 754 108.135 263.899 451.084
1699 0 89.2848 10.1137 903 105.533 264.137 450.911
1700 0 91.3646 9.24866 845 107.524 263.592 448.041
1701 0 94.3982 10.551 996 105.614 263.79 446.417
1702 0 91.2092 9.01225 822 109.794 263.805 443.23
1703 0 96.2813 9.30606 896 107.865 263.076 442.666
1704 0 100.246 9.90567 993 103.507 262.354 445.708
1705 0 103.331 9.69695 1002 103.949 262.594 439.468
1706 0 103.422 9.54342 987 104.283 263.046 437.718
1707 0 108.327 8.76972 950 105.165 263.072 437.502
1708 0 113.273 9.52563 1079 103.619 262.699 435.082
1709 0 115.254 9.50074 1095 103.4 261.715 431.69
1710 0 122.291 10.704 1309 100.935 262.354 435.74
1711 0 126.29 10.563 1334 100.479 262.712 436.114
1712 1 67.1382 8.20695 551 98.6661 263.771 461.094
1713 0 72.0756 10.822 780 89.0808 264.174 459.686
1714 0 74.1655 10.6249 788 94.1929 264.528 460.128
1715 0 78.1995 11.7904 922 90.2625 264.028 461.3
1716 0 80.1477 11.8531 950 93.2916 264.535 459.428
1717 0 82.1831 11.6691 959 94.0678 263.95 457.516
1718 0 82.1761 11.8891 977 96.5169 263.857 454.722
1719 0 84.1163 10.9967 925 100.097 263.613 452.766
1720 0 88.1051 12.2694 1081 98.2091 263.921 456.619
1721 0 90.2703 11.0889 1001 102.682 263.6 453.458
1722 0 92.2652 12.4966 1153 101.621 263.967 453.721
1723 0 94.1882 12.1247 1142 102.777 264.397 452.28
1724 0 99.1825 12.6333 1253 102.883 263.748 451.014
1725 0 101.162 11.536 1167 106.233 263.829 449.657
1726 0 103.193 11.5027 1187 110.256 263.893 449.58
1727 0 106.187 13.448 1428 108.193 263.746 446.689
1728 0 110.192 13.05 1438 111.397 263.824 444.116
1729 1 59.0265 8.77572 518 111.685 264.514 463.801
1730 0 54.1477 8.60609 466 115.476 263.251 459.227
1731 0 59.0126 10.1165 597 111.055 264.953 456.739
1732 0 62.0738 9.02152 560 113.318 264.641 458.114
1733 0 65.0237 11.119 723 108.008 264.599 459.544
1734 0 66.0291 11.0254 728 109.495 264.621 458.662
1735 0 67.028 9.7422 653 113.953 264.103 455.636
1736 0 69.0558 11.1794 772 110.216 264.177 458.666
1737 0 73.0222 11.6403 850 109.399 264.006 459.167
1738 0 75.0334 12.008 901 109.436 264.23 456.545
1739 0 77.023 12.2171 941 109.841 264.199 456.748
1740 0 77.0402 10.527 811 115.988 264.66 454.91
1741 0 80.1027 10.3742 831 115.52 264.02 457.247
1742 0 83.0264 12.5261 1040 111.356 264.439 454.853
1743 0 86.1047 11.3931 981 115.645 264.463 451.528
1744 0 88.0558 11.3678 1001 116.919 263.973 448.955
1745 0 91.0607 11.399 1038 115.937 263.83 451.733
1746 0 91.0467 11.6424 1060 118.205 263.46 446.742
1747 0 95.0781 12.4003 1179 116.058 263.225 447.457
1748 0 97.115 12.6757 1231 116.149 263.19 445.365
1749 0 100.08 11.6007 1161 118.911 263.083 444.218
1750 0 101.056 11.6866 1181 118.375 262.095 445.836
1751 0 107.166 12.7933 1371 117.256 261.675 442.572
1752 0 110.089 13.1167 1444 115.589 262.677 441.934
1753 0 111.105 11.7817 1309 119.914 262.158 442.269
1754 0 115.219 12.6541 1458 117.519 262.275 441.089
1755 1 65.2795 9.11465 595 108.75 263.321 464.75
1756 0 68.2031 11.8616 809 106.278 263.865 468.666
1757 0 71.1492 12.3543 879 107.56 263.582 466.158
1758 0 72.1589 12.0567 870 105.032 263.845 465.848
1759 0 75.1651 12.1067 910 104.653 263.688 465.046
1760 0 75.1794 10.9472 823 108.023 263.731 462.092
1761 0 76.1633 10.5825 806 109.295 263.115 463.071
1762 0 79.3043 10.8191 858 108.568 263.362 460.058
1763 0 82.1663 11.8053 970 106.272 263.58 457.296
1764 0 85.2083 12.0998 1031 104.938 263.45 459.624
1765 0 87.2164 11.8097 1030 106.149 263.138 457.958
1766 0 91.1638 11.3422 1034 106.384 262.875 451.945
1767 0 93.1429 12.1534 1132 105.363 262.54 449.132
1768 0 98.2607 11.9987 1179 105.347 262.433 450.558
1769 0 100.13 12.344 1236 106.524 262.262 446.671
1770 0 102.224 11.1911 1144 111.045 262.779 445.905
1771 0 105.184 12.1026 1273 110.523 262.871 445.752
1772 0 110.245 12.1184 1336 109.5 263.048 448.127
1773 0 113.173 12.6532 1432 110.42 263.819 445.044
1774 1 65.062 10.0981 657 108.164 264.266 470.402
1775 0 68.2046 11.0403 753 103.084 263.918 467.789
1776 0 66.1909 9.72944 644 106.652 262.899 462.168
1777 0 70.1789 10.4732 735 103.293 262.318 462.348
1778 0 72.0462 10.7292 773 103.07 262.627 464.809
1779 0 75.1685 10.7625 809 103.253 263.109 462.082
1780 0 77.2254 11.1492 861 103.679 262.21 458.465
1781 0 81.3433 12.5763 1023 100.897 262.38 456.67
1782 0 80.1916 11.3353 909 104.927 262.122 457.541
1783 0 84.1941 12.3999 1044 102.791 262.567 456.135
1784 0 88.2368 12.7838 1128 101.828 262.292 454.375
1785 0 90.2822 11.5859 1046 104.738 262.102 453.127
1786 0 94.3156 11.2495 1061 105.395 263.661 447.14
1787 0 94.328 12.4141 1171 104.487 263.933 443.825
1788 0 98.3195 13.2629 1304 102.891 262.715 442.985
1789 0 102.311 10.8297 1108 108.347 262.822 442.017
1790 1 54.1924 10.7211 581 99.9518 262.582 468.618
1791 0 55.1564 11.7303 647 112.703 262.374 463.161
1792 0 57.1918 10.8232 619 105.59 261.871 465.194
1793 0 61.1609 12.7369 779 95.4326 263.457 462.716
1794 0 62.2293 10.2524 638 102.179 262.719 463.431
1795 0 63.1026 12.028 759 104.047 261.975 470.966
1796 0 66.2316 12.6979 841 102.35 261.768 465.455
1797 0 67.124 11.6799 784 106.172 262.286 465.027
1798 0 69.2008 11.9941 830 104.863 262.196 465.669
1799 0 70.1849 12.0966 849 105.28 262.516 465.269
1800 0 72.19 12.3009 888 105.187 262.823 464.24
1801 0 75.2839 12.858 968 104.843 262.111 462.23
1802 0 75.1392 12.3105 925 107.68 262.775 460.598
1803 0 79.196 12.7027 1006 106.73 262.351 461.535
1804 0 81.1598 12.7649 1036 108.813 261.879 457.613
1805 0 84.1842 13.7437 1157 106.933 261.532 459.328
1806 0 84.2054 12.6714 1067 110.457 263.587 459.187
1807 0 86.1538 12.408 1069 112.662 263.777 457.643
1808 0 91.2022 14.3856 1312 107.929 263.715 456.564
1809 0 93.1468 12.8722 1199 112.086 264.107 457.109
1810 0 96.1396 12.9187 1242 112.723 263.866 455.752
1811 0 98.219 12.8692 1264 115.169 264.017 451.767
1812 0 102.327 13.4081 1372 114.645 263.985 451.27
1813 0 106.209 13.3981 1423 114.893 263.79 451.653
1814 0 109.179 13.2626 1448 116.509 263.76 449.13
1815 0 109.201 12.2526 1338 120.853 263.359 446.467
1816 1 63.105 10.7123 676 117.499 264.475 472.606
1817 0 66.106 12.011 794 117.009 264.321 469.305
1818 0 67.0947 12.8028 859 114.504 264.183 469.22
1819 0 67.0432 12.1713 816 113.403 263.902 469.283
1820 0 71.187 12.9518 922 110.452 264.154 466.718
1821 0 73.1363 12.0597 882 112.178 264.248 465.366
1822 0 76.1174 12.0866 920 112.091 264.163 463.868
1823 0 79.1697 12.1511 962 112.985 264.304 463.876
1824 0 81.1766 11.8877 965 113.662 264.769 462.983
1825 0 82.1633 11.6354 956 113.883 264.276 462.538
1826 0 85.2533 11.6828 996 113.11 264.499 460.78
1827 0 90.1678 11.2568 1015 113.832 263.687 459.439
1828 0 90.1519 10.7929 973 115.566 264.319 457.26
1829 0 94.1844 12.8259 1208 111.301 264.108 455.987
1830 0 95.1902 10.978 1045 117.476 263.083 454.865
1831 0 100.164 11.8306 1185 113.821 262.754 451.937
1832 0 101.178 12.2655 1241 113.587 262.976 448.583
1833 0 106.201 11.6571 1238 114.13 262.375 447.042
1834 0 109.241 11.3144 1236 114.748 262.39 446.875
1835 1 61.0527 10.3353 631 112.723 263.452 468.938
1836 0 64.0412 11.3833 729 111.575 263.31 470.978
1837 0 67.1783 12.2659 824 108.643 263.74 467.502
1838 0 68.1271 10.7593 733 113.139 263.625 465.846
1839 0 69.0506 11.1078 767 112.55 264.555 465.552
1840 0 71.1115 11.0671 787 112.196 264.229 464.694
1841 0 74.0924 11.5261 854 111.114 264.11 464.318
1842 0 75.125 10.4226 783 113.378 263.932 463.86
1843 0 79.1611 12.1019 958 110.365 264.238 459.028
1844 0 81.2449 11.7792 957 112.948 263.504 457.727
1845 0 83.1558 11.5927 964 111.987 263.192 459.855
1846 0 85.1438 11.2398 957 114.935 263.257 454.112
1847 0 90.2096 12.7924 1154 110.638 263.152 454.533
1848 0 91.096 11.3946 1038 116.643 262.49 453.848
1849 0 93.1204 12.0597 1123 115.205 263.387 453.825
1850 0 97.1165 13.1595 1278 112.612 263.469 451.826
1851 0 100.176 11.3201 1134 117.576 263.529 449.949
1852 0 105.102 12.1976 1282 114.81 263.516 446.365
1853 0 104.054 10.9462 1139 118.881 264.121 444.886
1854 0 110.251 10.5486 1163 120.706 263.759 437.828
1855 0 110.198 10.8259 1193 120.898 263.857 439.987
1856 0 118.117 12.7839 1510 116.078 263.346 439.462
1857 1 61.1182 10.1279 619 114.782 264.25 469.488
1858 0 69.0982 11.4909 794 107.98 263.723 467.183
1859 0 68.1329 10.6703 727 112.567 263.728 467.432
1860 0 71.0626 13.0871 930 107.296 263.574 464.989
1861 0 73.1736 12.2722 898 109.41 263.933 464.577
1862 0 73.1133 11.2428 822 113.294 264.303 464.714
1863 0 79.1829 14.7001 1164 103.831 264.172 462.988
1864 0 81.1602 13.2824 1078 108.069 264.598 461.99
1865 0 80.2771 12.8555 1032 110.592 263.908 458.553
1866 0 84.192 13.7661 1159 107.405 264.567 459.741
1867 0 85.1439 12.0619 1027 111.742 263.719 457.929
1868 0 90.1097 14.0273 1264 106.261 263.695 456.528
1869 0 92.2302 13.5964 1254 107.939 264.128 454.892
1870 0 95.2668 14.1392 1347 106.365 264.117 455.756
1871 0 95.2258 13.3682 1273 110.145 263.601 452.855
1872 0 98.1537 14.569 1430 106.338 263.124 450.684
1873 0 100.258 13.6647 1370 108.864 262.789 449.934
1874 0 103.248 13.8115 1426 108.179 262.424 447.231
1875 0 106.3 13.9229 1480 108.012 261.901 444.814
1876 0 108.651 13.2995 1445 110.178 262.17 443.496
1877 0 112.371 13.7847 1549 114.712 261.872 440.343
1878 0 112.371 13.7313 1543 156.249 262.862 440.436
1879 0 119.294 12.8674 1535 114.7 262.229 440.211
1880 0 122.201 12.8395 1569 109.802 262.258 438.351
1881 0 128.199 12.4572 1597 109.044 262.88 437.729
1882 0 133.336 13.1323 1751 104.961 263.5 432.17
1883 1 74.2009 10.3233 766 103.674 263.521 460.552
1884 0 76.2794 12.3756 944 104.932 262.438 458.604
1885 0 79.1875 11.7443 930 100.573 261.996 459.163
1886 0 82.1651 11.6229 955 101.382 261.792 458.242
1887 0 85.0993 11.5512 983 100.923 261.823 458.736
1888 0 88.1411 11.6858 1030 101.506 261.556 456.203
1889 0 91.2148 11.9169 1087 100.372 261.821 456.455
1890 0 95.1956 10.9564 1043 102.341 261.673 455.102
1891 0 94.2252 9.86997 930 105.996 261.097 454.414
1892 0 100.201 12.6446 1267 99.5951 261.998 451.656
1893 0 102.138 12.395 1266 101.028 261.555 449.226
1894 0 104.183 11.739 1223 102.886 261.563 447.483
1895 0 106.142 11.5411 1225 103.195 261.573 447.406
1896 0 109.245 11.1767 1221 104.458 261.793 445.523
1897 0 114.159 11.5979 1324 103.267 261.872 442.897
1898 0 116.296 11.0493 1285 104.321 262.992 437.209
1899 0 119.379 11.7273 1400 103.294 262.757 434.519
1900 0 123.496 10.478 1294 105.438 262.94 435.751
1901 0 127.438 12.6807 1616 101.259 262.755 434.408
1902 0 130.537 11.6518 1521 102.733 263.332 431.894
1903 0 133.39 10.638 1419 105.66 262.848 427.75
1904 0 140.394 11.4036 1601 103.821 263.112 425.533
1905 0 145.385 11.7068 1702 103.497 263.248 421.357
1906 0 150.407 12.9648 1950 101.413 263.233 418.448
1907 1 88.2582 10.8545 958 95.2255 262.129 455.368
1908 0 91.1848 11.0325 1006 94.2584 261.68 451.779
1909 0 94.1794 11.287 1063 94.4976 262.358 453.949
1910 0 97.1528 12.012 1167 94.024 262.002 451.782
1911 0 98.3048 13.4683 1324 92.9962 262.625 451.396
1912 0 100.125 11.3858 1140 97.9825 262.582 448.396
1913 0 104.382 11.9752 1250 97.8072 262.147 446.427
1914 0 104.364 10.6167 1108 101.712 261.797 447.754
1915 0 105.192 10.8849 1145 103.61 261.429 444.525
1916 0 109.277 10.7251 1172 104.907 261.98 443.237
1917 0 112.39 11.38 1279 102.945 261.627 445.511
1918 0 117.417 11.3272 1330 103.166 262.237 443.765
1919 0 120.24 10.6953 1286 105.902 262.675 440.556
1920 0 125.234 12.0495 1509 103.412 263.006 432.632
1921 0 128.296 11.5281 1479 104.896 262.663 430.916
1922 0 133.483 12.9005 1722 102.599 262.838 426.101
1923 0 138.442 12.3373 1708 104.829 262.789 423.94
1924 1 79.1992 10.985 870 101.489 263.322 460.07
1925 0 80.272 12.0092 964 102.203 263.596 459.701
1926 0 85.182 12.127 1033 100.685 264.081 458.904
1927 0 87.1853 12.5136 1091 97.6324 263.743 457.652
1928 0 90.1374 12.3589 1114 98.7585 263.691 457.73
1929 0 91.1462 11.0482 1007 101 263.648 458.078
1930 0 90.2051 11.1413 1005 103.184 264.475 453.624
1931 0 98.2005 12.9531 1272 101.214 264.164 454.207
1932 0 101.191 12.7087 1286 103.785 263.81 451.741
1933 0 104.224 12.1373 1265 107.034 263.85 449.926
1934 0 105.127 11.7001 1230 109.211 263.552 449.299
1935 0 108.175 11.8604 1283 110.191 263.23 447.921
1936 0 114.26 14.5021 1657 103.709 263.583 444.314
1937 0 116.167 12.921 1501 109.151 263.636 443.456
1938 0 118.2 13.291 1571 110.053 263.486 442.929
1939 0 124.327 14.3654 1786 107.049 263.771 435.261
1940 0 126.167 13.72 1731 110.223 263.127 435.195
1941 0 128.274 13.2607 1701 112.541 262.778 435.016
1942 0 132.247 12.265 1622 114.801 261.363 433.639
1943 0 137.299 13.9695 1918 113.009 261.863 434.311
1944 0 141.272 12.4582 1760 116.61 262.768 429.185
1945 0 148.216 13.5208 2004 114.469 262.656 428.693
1946 1 79.2181 9.66951 766 118.661 264.114 458.838
1947 0 82.1634 11.7571 966 108.134 263.788 449.54
1948 0 81.1305 10.0209 813 103.792 263.745 449.416
1949 0 86.2067 10.3588 893 103.32 264.035 449.924
1950 0 89.1758 11.9091 1062 101.219 263.462 450.872
1951 0 89.2268 11.8798 1060 102.85 263.215 444.355
1952 0 94.2313 11.4081 1075 103.867 262.981 447.18
1953 0 98.2147 10.8945 1070 106.496 263.125 442.16
1954 0 97.2871 10.2377 996 108.844 263.189 439.449
1955 0 105.08 10.0875 1060 113.213 261.868 451.517
1956 0 107.089 12.2889 1316 110.708 261.856 444.812
1957 0 112.148 12.3497 1385 110.77 261.678 445.214
1958 0 112.12 12.1387 1361 112.339 261.549 442.81
1959 0 117.112 12.0141 1407 111.092 262.644 445.225
1960 0 120.17 13.664 1642 108.317 262.602 442.046
1961 0 125.194 12.7562 1597 110.887 262.821 437.219
1962 0 128.148 11.3073 1449 114.444 262.629 435.455
1963 0 133.11 12.5836 1675 110.423 262.288 434.916
1964 0 138.109 13.8803 1917 106.887 262.393 431.879
1965 0 141.199 12.8896 1820 109.507 262.119 428.569
1966 1 82.168 10.9775 902 103.632 261.483 460.994
1967 0 83.1999 10.9015 907 100.265 261.639 456.729
1968 0 85.1474 11.8266 1007 97.71 262.932 456.058
1969 0 86.0899 11.2789 971 100.175 263.078 457.15
1970 0 90.1068 12.3631 1114 100.602 264.646 457.836
1971 0 94.0887 11.4785 1080 102.34 264.392 455.513
1972 0 96.2408 12.6765 1220 101.065 264.24 452.52
1973 0 99.131 12.9929 1288 100.082 264.347 452.577
1974 0 99.1199 11.249 1115 104.984 264.335 451.114
1975 0 105.18 12.2932 1293 103.55 263.425 449.589
1976 0 107.219 12.3486 1324 104.456 263.769 446.921
1977 0 111.165 13.8353 1538 101.508 263.954 446.378
1978 0 111.23 12.3618 1375 106.166 263.924 443.933
1979 0 116.203 12.7622 1483 106.871 263.531 441.273
1980 0 118.218 13.086 1547 107.456 262.8 438.715
1981 0 123.18 11.8688 1462 110.475 263.584 439.269
1982 0 127.263 12.3288 1569 111.276 263.281 437.959
1983 0 131.179 12.0217 1577 112.087 263.399 435.951
1984 0 135.253 13.8851 1878 107.185 263.905 433.96
1985 0 137.106 11.5823 1588 113.018 263.491 432.168
1986 0 141.165 12.5597 1773 111.796 262.992 429.757
1987 0 146.25 13.0735 1912 110.377 263.636 429.197
1988 0 151.323 13.2101 1999 111.43 263.846 421.978
1989 0 154.33 13.0305 2011 110.374 263.198 422.246
1990 0 160.211 12.1277 1943 114.166 263.354 418.257
1991 0 167.331 13.9842 2340 106.071 264.257 414.67
1992 1 88.2266 10.8131 954 106.7 265.046 457.05
1993 0 93.114 12.6834 1181 102.876 264.211 455.017
1994 0 95.1561 12.1379 1155 104.86 263.751 453.022
1995 0 99.1232 13.0847 1297 101.613 263.81 451.177
1996 0 101.183 12.3736 1252 104.169 264.451 448.493
1997 0 103.158 11.7877 1216 105.894 263.982 448.164
1998 0 107.079 13.3826 1433 101.096 263.611 445.873
1999 0 112.134 12.8417 1440 101.696 263.403 446.017
2000 0 114.126 12.6001 1438 103.001 262.985 443.999
2001 0 116.137 11.3917 1323 105.43 263.695 445.748
2002 0 122.206 12.8389 1569 102.396 264.156 441.722
2003 0 124.285 12.3748 1538 103.368 264.261 439.923
2004 0 128.241 12.3049 1578 103.757 263.786 438.095
2005 0 131.094 12.6321 1656 104.013 263.66 431.124
2006 0 136.131 12.5394 1707 104.734 263.637 431.711
2007 0 140.196 12.8178 1797 105.164 263.481 429.669
2008 0 143.304 12.1769 1745 109.217 262.9 424.677
2009 0 150.397 13.2782 1997 111.835 263.551 424.767
2010 0 154.274 13.0547 2014 113.647 263.696 424.482
2011 1 88.1567 10.9691 967 109.363 264.185 457.005
2012 0 88.1029 10.3856 915 111.26 263.939 453.542
2013 0 92.0749 12.0337 1108 107.608 263.971 456.878
2014 0 95.1661 12.8617 1224 107.583 263.253 452.072
2015 0 98.1888 12.6287 1240 108.791 263.416 451.248
2016 0 97.1883 12.4501 1210 111.978 263.289 448.85
2017 0 102.155 12.6377 1291 111.385 262.966 449.232
2018 0 106.144 12.9918 1379 111.733 263.15 447.146
2019 0 111.214 13.0739 1454 112.558 263.508 444.549
2020 0 112.113 12.9066 1447 113.835 263.351 442.324
2021 0 114.116 12.7151 1451 115.478 262.788 441.919
2022 0 114.123 12.7143 1451 150.029 261.79 442.065
2023 0 120.292 12.1205 1458 116.712 262.938 442.829
2024 0 126.122 13.5979 1715 113.464 262.556 435.191
2025 0 128.14 12.697 1627 117.252 263.473 431.17
2026 0 132.09 12.976 1714 115.414 263.802 430.232
2027 0 136.172 12.6237 1719 115.983 264.133 424.209
2028 0 142.155 12.6341 1796 116.494 262.832 424.871
2029 0 142.155 12.6341 1796 146.388 261.848 425.035
2030 1 85.1717 10.9896 936 113.297 264.219 458.384
2031 0 86.1669 12.174 1049 109.452 264.676 454.872
2032 0 88.1174 12.3018 1084 109.399 264.518 453.304
2033 0 89.0699 11.6875 1041 111.706 263.6 451.096
2034 0 92.1526 11.7197 1080 106.358 263.859 454.009
2035 0 97.1174 12.14 1179 105.367 263.115 452.552
2036 0 98.1004 12.0998 1187 108 263.184 449.138
2037 0 101.174 14.1142 1428 103.88 264.13 449.521
2038 0 104.304 12.8375 1339 107.494 263.476 448.193
2039 0 108.133 12.6511 1368 106.822 263.822 448.358
2040 0 110.176 12.4347 1370 109.38 262.934 443.207
2041 0 113.213 12.4102 1405 108.692 263.664 445.39
2042 0 115.207 12.0306 1386 110.062 264.231 443.88
2043 0 118.253 12.2026 1443 110.107 264.412 437.365
2044 0 122.282 12.9864 1588 107.786 263.9 435.605
2045 0 126.111 13.1867 1663 106.554 263.388 435.299
2046 0 130.177 11.976 1559 108.891 263.618 435.694
2047 1 77.089 10.183 785 106.236 264.609 459.278
2048 0 81.0612 9.89375 802 106.701 264.717 461.131
2049 0 83.2282 11.4264 951 104.43 263.639 457.941
2050 0 88.0804 13.1584 1159 99.8766 264.265 458.156
2051 0 86.2862 10.7433 927 106.672 263.463 458.236
2052 0 90.1944 12.8389 1158 103.229 263.72 455.917
2053 0 93.164 12.859 1198 103.635 263.704 453.137
2054 0 97.2786 13.6515 1328 102.093 263.557 452.751
2055 0 98.3381 12.4875 1228 106.173 263.128 452.422
2056 0 102.318 13.331 1364 104.331 263.106 451.342
2057 0 103.205 12.7611 1317 106.587 263.192 448.988
2058 0 106.276 12.6087 1340 107.826 263.2 447.293
2059 0 107.362 12.4812 1340 109.678 262.912 444.467
2060 0 113.22 14.6617 1660 104.586 263.494 445.154
2061 0 115.114 13.8992 1600 107.906 263.474 441.645
2062 0 118.218 13.4836 1594 110.326 262.974 441.987
2064 0 121.141 12.5391 1519 112.567 263.319 440.972
2065 0 124.344 13.0123 1618 113.355 261.954 436.79
2066 0 127.255 11.1587 1420 116.55 262.427 435.846
2067 0 132.454 12.5327 1660 113.078 262.506 431.79
2068 0 135.469 12.5637 1702 113.011 263.068 427.493
2069 0 137.572 12.6116 1735 113.13 262.833 424.4
2070 0 144.564 12.223 1767 118.578 261.697 418.543
2071 0 147.452 13.2653 1956 116.386 262.578 416.714
2072 0 152.592 13.3821 2042 117.128 261.623 413.887
2073 0 158.538 13.0316 2066 117.94 262.166 411.389
2074 0 163.33 13.4758 2201 115.608 262.251 410.997
2075 1 91.475 11.7846 1078 116.904 261.19 443.317
2076 0 95.2763 12.5635 1197 113.377 261.652 441.784
2077 0 97.3025 12.826 1248 113.705 262.362 439.369
2078 0 97.257 12.4721 1213 115.409 261.481 438.899
2079 0 103.349 14.3108 1479 108.876 261.496 437.266
2080 0 104.282 12.6004 1314 110.721 260.709 438.305
2081 0 108.294 13.8696 1502 107.662 260.967 439.752
2082 0 111.291 12.7055 1414 111.565 260.872 439.32
2083 0 113.32 12.0985 1371 113.087 260.75 433.3
2084 0 118.421 13.3084 1576 110.412 260.65 431.772
2085 0 122.714 12.5088 1535 112.727 261.21 428.144
2086 0 121.274 12.1378 1472 114.605 261.537 425.218
2087 0 127.383 13.22 1684 112.452 261.61 426.359
2088 0 133.388 12.3774 1651 115.159 261.669 423.065
2089 0 135.43 10.9872 1488 119.024 261.453 418.923
2090 1 80.2469 10.7294 861 109.585 261.086 451.002
2091 0 79.1493 9.56421 757 113.416 260.834 450.135
2092 0 84.2664 11.8909 1002 107.005 260.628 449.519
2093 0 88.4254 12.666 1120 105.318 261.362 449.496
2094 0 91.2765 11.8103 1078 107.635 260.596 448.306
2095 0 92.2555 11.3164 1044 109.362 260.682 449.751
2096 0 95.2709 12.0708 1150 109.52 260.617 446.025
2097 0 99.3693 12.9114 1283 107.506 261.129 446.511
2098 0 95.2248 11.5831 1103 115.809 261.337 438.306
2099 0 103.252 12.7746 1319 111.714 261.371 441.917
2100 0 106.186 12.1673 1292 113.746 261.149 441.568
2101 0 107.217 11.6399 1248 116.798 260.696 437.57
2102 0 112.12 11.675 1309 114.185 261.791 441.859
2103 0 114.267 13.9585 1595 111.048 261.817 434.74
2104 0 116.39 12.7159 1480 115.92 261.539 434.691
2105 0 122.433 12.6274 1546 115.617 261.787 434.862
2106 0 127.327 12.4326 1583 116.083 261.644 432.222
2107 0 129.204 11.9269 1541 118.631 261.221 431.971
2108 0 135.174 12.9388 1749 116.165 261.903 428.958
2109 1 79.1569 10.4476 827 110.57 262.33 455.64
2110 0 80.1633 10.8404 869 110.846 262.562 454.167
2111 0 83.3003 11.0324 919 106.991 262.832 454.561
2112 0 83.1642 10.5214 875 109.29 263.153 453.865
2113 0 86.1351 12.2018 1051 106.007 263.231 453.832
2114 0 89.1392 10.5004 936 109.251 263.25 455.194
2115 0 90.1683 9.72625 877 113.213 263.074 444.332
2116 0 93.1303 11.5967 1080 108.8 262.835 444.456
2117 0 94.1721 11.0648 1042 110.564 263.023 446.129
2118 0 99.1997 11.9053 1181 109.821 262.771 442.183
2119 0 101.168 10.7544 1088 112.287 263.082 441.452
2120 0 106.193 11.1401 1183 111.508 262.494 439.532
2121 0 110.124 12.268 1351 109.757 262.663 446.671
2122 0 113.172 12.7858 1447 109.189 262.162 444.896
2123 0 116.168 11.6899 1358 111.282 262.775 439.57
2124 1 66.1604 10.4745 693 108.844 263.289 465.505
2125 0 68.0604 10.476 713 105.818 263.52 467.431
2126 0 69.1278 10.8205 748 109.049 264.02 467.959
2127 0 73.1321 12.0467 881 105.286 263.369 463.484
2128 0 75.1207 11.4349 859 106.274 263.192 464.905
2129 0 77.0619 12.4445 959 103.679 263.447 464.438
2130 0 79.1821 12.0229 952 102.292 263.254 459.973
2131 0 80.2831 11.0609 888 103.842 262.525 456.75
2132 0 85.2149 12.1575 1036 105.474 261.464 459.876
2133 0 86.2845 12.3777 1068 100.324 262.48 454.692
2134 0 90.3108 11.5379 1042 103.622 262.045 454.181
2135 0 95.2881 13.0132 1240 99.9 261.735 454.298
2136 0 95.199 13.0884 1246 102.061 261.755 449.615
2137 0 98.2174 12.7472 1252 104.069 261.887 450.048
2138 0 100.235 11.8721 1190 107.022 261.292 448.255
2139 0 103.238 12.166 1256 108.007 261.762 446.498
2140 0 105.107 11.4075 1199 111.568 261.28 450.995
2141 0 110.306 11.6857 1289 110.706 261.68 446.74
2142 0 113.295 11.8099 1338 113.321 261.546 447.661
2143 1 64.1004 12.184 781 108.046 262.508 471.731
2144 0 64.1846 11.8097 758 111.309 261.604 470.574
2145 0 66.1421 12.5487 830 112.998 260.793 470.395
2146 0 68.0714 12.575 856 107.38 261.567 466.853
2147 0 71.1426 12.749 907 107.486 261.891 466.261
2148 0 75.2196 12.5765 946 108.605 261.473 466.042
2149 0 75.1146 12.5408 942 110.603 261.656 464.479
2150 0 75.096 13.3962 1006 110.287 261.89 465.561
2151 0 79.143 12.7112 1006 112.377 261.443 464.22
2152 0 82.0634 13.4652 1105 110.948 261.529 463.494
2153 0 82.0824 12.8286 1053 113.851 262.047 462.796
2154 0 86.1446 13.4309 1157 112.891 262.211 461.219
2155 0 87.0723 14.4133 1255 112.1 263.14 458.544
2156 0 90.1329 14.1125 1272 113.679 263.123 454.526
2157 0 91.0848 12.8013 1166 119.151 263.639 455.662
2158 0 94.1294 13.0034 1224 120.048 262.486 456.034
2159 0 97.1691 13.4611 1308 118.913 262.255 455.08
2160 0 100.098 13.6765 1369 119.098 262.738 453.424
2161 0 103.224 13.5918 1403 120.158 262.48 452.937
2162 0 106.17 13.5538 1439 121.234 263.257 448.094
2163 0 109.237 13.283 1451 123.527 262.689 447.686
2164 0 110.163 14.061 1549 124.48 261.758 445.124
2165 0 114.184 14.0212 1601 125.342 261.83 440.985
2166 0 119.261 14.179 1691 127.192 262.046 442.38
2167 0 123.134 14.399 1773 126.479 261.681 442.051
2168 0 125.249 14.2676 1787 127.555 262.148 441.99
2169 0 128.273 13.331 1710 130.704 262.571 434.95
2170 0 135.294 14.62 1978 127.247 262.015 433.144
2171 0 140.336 14.8572 2085 126.234 262.273 432.125
2172 1 79.2525 13.1226 1040 121.643 262.654 465.068
2173 0 80.109 13.0073 1042 121.565 262.966 465.127
2174 0 84.1765 13.3885 1127 121.77 262.877 458.489
2175 0 87.3036 12.9204 1128 122.749 262.252 457.717
2176 0 90.124 13.5036 1217 120.589 262.463 457.345
2177 0 92.1197 12.8637 1185 122.536 262.538 455.276
2178 0 94.1761 12.5085 1178 124.648 262.656 453.986
2179 0 99.2289 13.5545 1345 121.556 262.301 452.9
2180 0 101.297 14.3933 1458 122.662 262.084 447.885
2181 0 106.315 13.1779 1401 124.959 262.212 447.075
2182 0 109.219 14.036 1533 124.625 261.72 448.252
2183 0 112.484 13.7531 1547 125.41 262.148 445.423
2184 0 115.51 14.1373 1633 124.125 262.248 444.438
2185 1 65.2944 11.9612 781 123.722 261.598 467.8
2186 0 68.3374 12.5261 856 121.172 262.14 468.022
2187 0 69.0596 12.7137 878 117.108 262.974 465.271
2188 0 73.1902 13.2531 970 113.937 262.585 466.592
2189 0 73.0971 12.6954 928 116.741 262.196 466.196
2190 0 79.2899 13.5452 1074 113.333 262.854 462.632
2191 0 82.2966 12.9288 1064 114.826 262.812 460.476
2192 0 82.2492 12.9241 1063 115.856 262.691 459.276
2193 0 84.1959 11.6158 978 120.352 262.37 456.877
2194 0 88.2713 13.3792 1181 116.821 262.383 455.208
2195 0 91.4445 13.0899 1197 117.047 262.697 456.657
2196 0 93.4218 12.9306 1208 118.63 263.04 452.284
2197 0 97.3355 13.1401 1279 119.287 263.206 453.522
2198 0 100.097 12.9674 1298 122.565 263.227 452.113
2199 0 102.115 12.9168 1319 124.321 263.171 448.76
2200 0 104.184 13.1882 1374 123.608 263.435 446.592
2201 0 106.213 11.7311 1246 127.211 262.917 447.396
2202 0 113.356 14.2118 1611 121.068 262.168 442.936
2203 0 113.276 11.6264 1317 127.574 262.63 445.346
2204 0 117.349 11.4786 1347 127.395 263.044 444.12
2205 0 121.315 12.3315 1496 125.811 262.2 441.453
2206 0 124.181 11.4913 1427 128.254 262.623 437.425
2207 0 131.212 12.1712 1597 125.338 262.706 436.577
2208 0 136.271 13.0182 1774 122.967 262.21 432.67
2209 0 142.27 12.3779 1761 123.392 262.069 432.185
2210 0 147.317 13.1825 1942 121.532 262.54 428.301
2211 1 83.132 12.6065 1048 117.698 262.711 461.168
2212 0 84.0606 11.8486 996 120.913 262.976 458.673
2213 0 90.2154 12.5477 1132 121.766 262.283 457.189
2214 0 92.2173 12.6983 1171 122.006 262.132 456.453
2215 0 96.2117 12.8778 1239 122.585 262.173 453.694
2216 0 99.2143 12.3168 1222 124.591 261.961 450.901
2217 0 102.201 13.0038 1329 122.575 262.334 449.77
2218 0 107.211 13.7206 1471 120.848 262.018 448.107
2219 0 110.22 13.3007 1466 122.686 262.292 447.673
2220 0 111.316 12.3253 1372 127.09 261.64 445.018
2221 0 116.167 13.5925 1579 124.604 262.155 441.973
2222 0 118.21 14.1781 1676 123.536 262.035 441.819
2223 0 123.218 13.4964 1663 126.437 261.477 440.439
2224 0 127.202 13.6868 1741 126.43 261.99 438.94
2225 0 131.256 14.3917 1889 124.926 261.63 437.049
2226 0 135.196 15.0004 2028 125.051 262.142 432.054
2227 0 139.277 13.7424 1914 127.868 262.293 435.092
2228 0 144.341 14.0847 2033 127.723 262.129 431.243
2229 0 149.214 14.1542 2112 127.286 261.764 430.31
2230 0 154.362 13.7729 2126 127.613 261.305 425.818
2231 0 158.396 14.0092 2219 128.22 261.809 421.315
2232 0 163.323 13.8438 2261 130.489 261.689 419.592
2233 0 169.466 13.4599 2281 131.91 262.168 418.212
2234 0 177.369 15.1041 2679 127.629 261.582 413.504
2235 0 181.385 13.7387 2492 132.562 262.114 409.32
2236 0 188.34 13.534 2549 132.555 262.851 410.259
2237 0 197.252 13.977 2757 131.116 262.608 409.786
2238 0 201.454 13.8543 2791 136.909 262.522 399.366
2239 1 154.421 13.2236 2042 137.231 262.778 424.139
2240 0 158.334 13.3958 2121 137.942 262.115 419.415
2241 0 162.246 12.9001 2093 139.948 262.399 420.248
2242 0 169.212 13.5037 2285 138.365 261.448 417.49
2243 0 174.302 14.3888 2508 137.388 261.12 411.974
2244 0 179.367 13.9212 2497 139.112 261.571 409.503
2245 0 184.431 13.4034 2472 141.407 262.109 405.039
2246 0 192.51 14.3318 2759 138.729 261.566 400.96
2247 0 200.361 14.8033 2966 136.381 261.037 402.814
2248 0 206.331 14.1908 2928 139.107 260.506 394.979
2249 0 214.363 14.7554 3163 135.301 260.998 396.017
2250 0 219.395 13.2683 2911 140.189 261.887 391.995
2251 0 228.229 14.4022 3287 136.976 261.582 386.397
2252 0 235.421 14.37 3383 136.842 261.816 382.408
2253 0 243.356 14.7931 3600 135.772 261.048 378.548
2254 0 251.49 14.597 3671 136.606 261.578 376.268
2255 0 260.406 14.2585 3713 138.228 260.907 369.45
2256 1 69.2766 11.5479 800 119.548 260.638 465.792
2257 0 72.1332 13.1008 945 119.771 261.23 464.722
2258 0 71.0744 12.4658 886 118.958 263.455 468.909
2259 0 74.1075 11.5913 859 121.881 263.809 466.619
2260 0 79.0337 12.7667 1009 117.278 263.315 468.742
2261 0 82.1086 13.4456 1104 116.148 263.067 467.938
2262 0 84.1563 12.762 1074 118.305 262.366 468.577
2263 0 85.0709 11.7431 999 120.911 262.514 468.916
2264 0 87.1842 10.5638 921 126.964 261.942 468.642
2265 0 92.191 12.2788 1132 123.268 262.117 466.946
2266 0 95.2343 11.6345 1108 125.445 261.714 467.279
2267 0 99.3335 12.4933 1241 123.025 260.943 465.332
2268 0 107.266 14.9349 1602 113.66 260.122 458.354
2269 0 107.374 13.0292 1399 120.999 260.464 463.006
2270 0 114.286 14.4637 1653 117.059 260.021 459.4
2271 1 62.2082 12.7154 791 124.08 258.837 483.895
2272 0 63.1022 11.0614 698 119.635 259.569 483.854
2273 0 63.2642 11.1596 706 115.093 258.466 481.943
2274 0 66.1628 10.1417 671 116.674 259.906 474.545
2275 0 70.178 12.568 882 109.907 259.13 474.474
2276 0 71.3265 11.7067 835 112.128 258.562 472.799
2277 0 72.3011 11.6596 843 113.445 258.251 469.452
2278 0 74.2766 12.2111 907 112.533 258.058 472.937
2279 0 76.3424 11.1079 848 116.463 257.672 472.406
2280 0 78.3034 11.6981 916 124.864 256.655 476.676
2281 0 80.3394 11.8248 950 124.216 257.185 473.245
2282 0 83.455 12.6056 1052 120.64 256.348 472.463
2283 0 88.6156 13.4401 1191 117.764 257.24 467.969
2284 0 89.3392 12.8275 1146 118.474 256.696 470.869
2285 0 90.3888 12.1586 1099 122.325 255.426 465.884
2286 0 93.2234 11.7353 1094 123.059 255.809 463.556
2287 0 97.2802 12.243 1191 121.062 255.914 462.606
2288 0 99.5569 13.5299 1347 117.293 255.179 461.449
2289 0 102.224 13.1085 1340 118.128 255.01 460.431
2290 0 106.258 14.2295 1512 114.565 254.653 457.376
2291 0 108.372 12.4202 1346 118.651 254.742 459.831
2292 0 110.22 12.7745 1408 117.994 255.033 458.026
2293 0 113.285 13.9559 1581 115.261 254.782 455.749
2294 0 118.38 13.482 1596 114.904 255.808 456.584
2295 0 120.361 12.5456 1510 117.371 255.78 455.538
2296 0 125.318 12.9191 1619 116.872 255.347 451.027
2297 0 127.215 12.7344 1620 116.404 255.597 451.614
2298 0 131.263 12.1131 1590 118.105 255.833 444.864
2299 0 138.514 12.8002 1773 115.832 255.028 441.447
2300 0 140.363 12.2468 1719 116.385 255.696 439.098
2301 0 147.385 13.0271 1920 112.999 255.724 433.952
2302 0 153.236 13.489 2067 110.686 256.028 434.576
2303 1 78.2125 13.2332 1035 106.437 254.903 470.128
2304 0 81.3152 12.2978 1000 107.572 254.628 469.641
2305 0 85.312 13.9019 1186 100.121 254.79 467.872
2306 0 87.3181 12.8267 1120 102.58 255.166 465.218
2307 0 90.3871 13.1213 1186 101.89 254.845 465.639
2308 0 93.1434 12.4324 1158 104.113 254.769 462.225
2309 0 92.1665 12.6836 1169 104.222 254.538 461.126
2310 0 97.2972 13.4433 1308 101.614 254.08 460.588
2311 0 101.195 13.2319 1339 101.178 254.693 459.479
2312 0 103.41 12.639 1307 102.22 254.682 453.217
2313 0 105.293 13.7331 1446 100.515 254.142 453.217
2314 0 106.427 12.2713 1306 104.288 255.573 452.232
2315 0 112.426 13.8758 1560 99.959 255.088 449.807
2316 0 114.482 12.561 1438 103.202 255.314 447.745
2317 0 120.509 13.0032 1567 101.038 255.183 446.319
2318 0 122.423 12.514 1532 102.476 254.404 443.36
2319 0 127.358 12.9241 1646 100.652 254.414 443.59
2320 0 131.286 14.1828 1862 98.369 255.098 439.546
2321 0 136.313 14.0339 1913 98.9143 255.078 437.73
2322 0 139.406 14.1458 1972 99.2049 255.192 434.237
2323 0 141.305 12.4553 1760 103.752 255.557 433.482
2324 0 148.319 16.2218 2406 95.8358 256.652 427.514
2325 0 150.294 12.1496 1826 105.688 256.121 433.743
2326 0 155.404 12.8825 2002 105.466 255.545 427.669
2327 0 160.245 14.0036 2244 105.23 256.65 427.842
2328 0 165.444 14.724 2436 104.849 256.003 420.923
2329 0 172.576 14.2082 2452 106.053 256.601 420.664
2330 0 176.464 14.7282 2599 106.596 255.929 415.654
2331 1 194.683 21.0958 4107 89.6915 256.09 397.613
2332 0 193.409 19.2649 3726 96.117 256.048 399.491
2333 0 195.491 17.7451 3469 99.2159 255.935 406.512
2334 0 200.325 15.4449 3094 105.134 255.8 400.402
2335 0 207.42 15.9917 3317 104.305 256.617 398.083
2336 0 213.37 16.9002 3606 102.45 255.985 396.65
2337 0 221.484 17.5001 3876 101.254 255.877 389.999
2338 0 225.443 15.9153 3588 106.731 256.16 388.022
2339 0 232.593 15.5851 3625 107.094 256.581 380.385
2340 0 245.519 17.7053 4347 101.235 256.736 376.739
2341 1 54.1451 9.64076 522 96.2778 257.63 475.408
2342 0 56.1356 12.6836 712 92.8244 257.694 474.871
2343 0 58.025 13.5976 789 94.8618 257.455 477.754
2344 0 58.0761 12.7763 742 98.911 255.58 477.098
2345 0 60.0267 11.6615 700 101.904 256.576 478.263
2346 0 64.1506 12.7201 816 99.636 256.373 476.499
2347 0 64.1368 13.7519 882 98.373 256.328 476.332
2348 0 67.1795 13.4565 904 99.2146 255.902 472.158
2349 0 68.1334 12.9745 884 101.416 256.704 471.637
2350 0 67.0763 11.4198 766 106.8 256.843 470.927
2351 0 71.0964 13.545 963 102.723 257.467 467.856
2352 0 72.1786 13.6328 984 102.948 257.17 465.863
2353 0 74.0817 12.4862 925 106.762 257.311 466.302
2354 0 79.4738 15.3384 1219 98.4192 257.387 461.483
2355 0 78.221 10.4959 821 107.591 257.648 461.972
2356 0 77.3764 9.40856 728 110.999 258.179 458.315
2357 0 83.3027 11.4522 954 105.808 259.092 430
2358 0 85.407 11.4393 977 106.778 258.658 428.795
2359 0 89.4665 11.5015 1029 106.295 258.657 429.101
2360 0 91.4706 13.0534 1194 103.301 259.45 426.869
2361 0 96.4318 12.3092 1187 103.136 260.03 430.425
2362 0 99.5776 13.1355 1308 102.476 259.962 432.404
2363 0 98.4896 11.4631 1129 106.801 259.299 431.998
2364 0 102.407 10.8977 1116 107.252 260.044 437.998
2365 0 106.501 12.7886 1362 103.872 260.349 435.598
2366 0 110.353 12.7137 1403 104.314 260.082 434.966
2367 0 115.364 13.1844 1521 102.845 259.675 436.121
2368 0 116.422 12.6952 1478 104.355 259.614 435.953
2369 0 120.474 12.6501 1524 105.204 259.68 431.606
2370 0 124.411 13.6162 1694 103.181 260.15 433.521
2371 0 125.268 13.8822 1739 102.382 259.888 434.999
2372 0 132.478 13.1871 1747 103.665 259.116 432.04
2373 1 72.3809 10.3618 750 105.757 260.073 461.499
2374 0 75.2007 11.6222 874 104.145 259.931 456.786
2375 0 78.1752 11.244 879 103.141 260.282 457.589
2376 0 83.1217 12.5599 1044 99.3563 261.042 457.73
2377 0 84.3652 13.2045 1114 97.8698 260.627 457.364
2378 0 87.3841 13.2404 1157 98.2325 260.544 456.485
2379 0 90.4716 12.4791 1129 98.6732 260.898 456.112
2380 0 93.2199 12.7977 1193 98.0604 260.94 452.612
2381 0 95.3136 12.0025 1144 100.109 261.034 450.821
2382 0 98.4716 12.6128 1242 98.88 260.822 452.333
2383 0 100.454 11.0199 1107 102.332 260.837 450.775
2384 0 104.424 12.6025 1316 99.3336 260.514 449.438
2385 0 106.373 13.1612 1400 97.8757 261.002 445.896
2386 0 111.33 12.4584 1387 98.8962 260.629 444.784
2387 0 110.567 10.419 1152 104.35 260.275 441.11
2388 0 117.431 13.7272 1612 96.3741 260.274 441.068
2389 0 121.4 12.29 1492 99.252 259.999 441.158
2390 0 123.336 12.3078 1518 100.327 260.549 436.65
2391 0 126.573 11.8272 1497 100.519 260.743 435.256
2392 0 134.423 13.3385 1793 96.5114 260.231 433.713
2393 0 138.299 13.8685 1918 96.6846 260.025 430.054
2394 0 142.563 14.6181 2084 95.6828 259.452 427.565
2395 0 147.464 12.6946 1872 99.5566 259.514 425.097
2396 0 149.533 11.8235 1768 102.777 260.291 421.372
2397 0 157.456 13.2164 2081 100.249 260.417 417.807
2398 0 162.45 15.1 2453 95.8903 260.623 420.795
2399 0 165.81 11.5976 1923 104.539 261.197 410.284
2400 0 173.673 13.9112 2416 99.2057 260.028 412.78
2401 1 103.338 11.3801 1176 97.6743 260.56 446.629
2402 0 102.465 10.872 1114 99.632 260.885 444.447
2403 0 109.371 13.1388 1437 94.071 260.831 445.276
2404 0 109.399 11.1427 1219 99.8942 260.786 444.275
2405 0 109.345 10.1605 1111 103.519 261.701 438.897
2406 0 115.526 11.5125 1330 101.345 260.764 432.866
2407 0 121.556 12.6033 1532 98.7774 261.014 432.907
2408 0 124.475 11.3276 1410 101.471 260.833 433.315
2409 0 130.429 12.2289 1595 100.278 260.855 430.624
2410 0 136.488 12.8949 1760 98.9222 261.228 430.162
2411 0 138.219 11.1707 1544 104.748 261.887 425.654
2412 1 88.1946 9.1162 804 92.3271 261.958 457.96
2413 0 91.2671 10.6501 972 91.216 261.9 459.491
2414 0 92.1533 10.374 956 93.5063 261.577 458.243
2415 0 94.3554 11.7322 1107 95.019 260.703 449.472
2416 0 97.3998 12.7824 1245 100.705 260.635 448.123
2417 0 100.293 12.0247 1206 98.7065 261.634 451.823
2418 0 101.364 10.3192 1046 101.551 261.648 451.926
2419 0 102.281 7.01013 717 107.247 261.522 447.509
2420 0 105.2 8.93539 940 105.684 261.484 443.639
2421 0 112.206 11.5323 1294 100.526 261.418 441.827
2422 0 113.217 9.29192 1052 104.707 260.924 440.349
2423 0 115.242 8.94639 1031 106.14 261 436.748
2424 0 121.246 11.0932 1345 102.098 260.944 438.038
2425 0 123.342 10.0614 1241 104.276 261.028 439.075
2426 0 124.282 9.52673 1184 106.093 260.829 435.425
2427 0 130.188 10.4388 1359 105.142 260.952 433.067
2428 0 133.177 10.4373 1390 106.986 260.53 423.745
2429 0 138.258 10.3285 1428 105.927 261.12 431.093
2430 0 142.222 10.5117 1495 107.312 260.604 423.711
2431 0 147.181 11.299 1663 107.011 260.268 419.06
2432 0 152.246 10.1481 1545 109.14 260.781 419.717
2433 0 156.247 10.9378 1709 108.726 259.739 413.628
2434 0 160.243 11.0458 1770 108.522 259.858 414.831
2435 0 163.148 10.5794 1726 111.422 260.2 407.928
2436 0 169.284 9.88873 1674 107.717 259.981 410.05
2437 1 97.204 10.6271 1033 108.667 259.218 450.109
2438 0 98.2186 8.46072 831 112.043 259.001 450.149
2439 0 103.222 9.8913 1021 100.594 259.968 448.572
2440 0 104.298 9.86593 1029 102.055 260.354 447.894
2441 0 107.181 9.274 994 104.328 260.373 447.105
2442 0 110.262 10.729 1183 103.15 260.476 439.765
2443 0 113.285 9.93067 1125 105.178 260.912 444.961
2444 0 117.296 10.4778 1229 105.036 261.26 440.073
2445 0 120.177 10.8757 1307 105.936 260.9 438.385
2446 0 122.257 9.34096 1142 108.911 261.328 437.558
2447 0 127.332 10.1781 1296 105.919 261.207 438.829
2448 0 128.336 9.74782 1251 113.667 261.65 431.456
2449 0 134.3 10.7967 1450 106.462 261.632 430.479
2450 0 138.295 10.8753 1504 108.506 261.112 428.332
2451 0 142.327 10.8061 1538 109.851 260.633 423.221
2452 0 144.225 9.68629 1397 112.434 260.407 417.162
2453 0 148.425 9.56035 1419 114.784 260.624 422.698
2454 0 151.219 8.97374 1357 115.732 261.196 411.044
2455 0 159.352 10.8753 1733 110.417 260.867 415.02
2456 0 161.276 10.2743 1657 115.289 260.91 414.011
2457 0 168.416 11.5726 1949 111.96 260.345 407.252
2458 0 173.41 13.1769 2285 111.523 260.557 405.634
2459 0 172.223 11.8509 2041 115.281 260.848 400.212
2460 0 178.185 12.762 2274 112.456 261.329 402.018
2461 0 186.422 13.4855 2514 115.477 261.859 404.135
2462 0 190.32 11.9693 2278 119.317 261.363 406.4
2463 0 196.388 12.4753 2450 119.74 260.709 400.321
2464 0 203.265 14.1096 2868 114.264 261.616 401.533
2465 0 205.481 13.5876 2792 117.266 261.551 394.576
2466 0 212.36 13.3641 2838 117.724 261.706 390.105
2467 0 217.283 13.8115 3001 117.335 261.512 386.536
2468 0 223.415 13.692 3059 117.913 261.349 382.508
2469 0 228.382 12.8995 2946 120.016 261.051 376.456
2470 0 237.485 13.8998 3301 117.941 261.148 372.074
2471 0 243.372 13.9991 3407 118.868 260.906 370.125
2472 0 251.577 13.2683 3338 118.013 261.301 369.267
2473 1 59.2501 11.4599 679 99.3697 263.001 465.692
2474 0 60.0607 10.9722 659 101.463 264.296 464.487
2475 0 62.2806 10.5009 654 103.06 261.148 465.184
2476 0 63.4135 11.3225 718 100.903 261.294 465.664
2477 0 65.2749 11.7043 764 99.9529 261.279 466.338
2478 0 67.3054 12.7479 858 97.9207 261.323 464.66
2479 0 67.3447 9.87456 665 104.989 261.608 466.409
2480 0 69.1947 12.0819 836 101.599 260.839 463.061
2481 0 73.353 12.5694 922 99.3774 260.606 465.648
2482 0 73.2745 11.3955 835 103.667 260.556 463.782
2483 0 76.3022 12.5029 954 101.13 260.658 461.939
2484 0 76.2427 11.2404 857 105.807 260.067 461.72
2485 0 80.2463 12.823 1029 101.833 260.997 460.042
2486 0 82.2519 13.1426 1081 101.038 261.217 460.062
2487 0 83.44 13.1951 1101 101.94 261.333 458.513
2488 0 85.1961 13.3457 1137 103.379 261.157 456.409
2489 0 88.198 13.2883 1172 103.72 261.5 458.333
2490 0 88.1861 12.6324 1114 106.717 261.21 454.249
2491 0 95.2311 13.462 1282 103.973 261.536 454.208
2492 0 96.3166 13.1338 1265 105.353 261.502 454.583
2493 0 106.277 20.089 2135 86.9232 261.504 443.142
2494 0 104.34 18.4781 1928 92.027 261.548 445.447
2495 1 138.786 16.1039 2235 86.8228 260.974 437.609
2496 0 132.056 18.2726 2413 86.6975 261.594 437.225
2497 0 134.399 17.21 2313 90.5763 261.086 441.297
2498 0 129.357 17.2313 2229 93.8367 261.284 435.697
2499 0 124.322 19.0553 2369 92.1338 260.707 438.36
2500 0 124.216 19.4581 2417 93.4981 260.136 435.243
2501 1 69.2045 10.5918 733 113.289 259.737 467.329
2502 0 71.1088 11.841 842 110.796 259.55 458.74
2503 0 71.1723 11.8445 843 111.69 259.867 461.859
2504 0 73.3301 12.5733 922 116.594 261.242 461.129
2505 0 77.2164 13.9737 1079 113.114 260.88 461.842
2506 0 77.2818 13.7807 1065 115.411 261.411 461.274
2507 0 80.3008 14.371 1154 113.729 261.598 460.948
2508 0 81.2802 13.2874 1080 117.817 261.42 458.286
2509 0 82.227 13.5235 1112 117.536 261.785 459.676
2510 0 82.2754 13.0659 1075 120.807 261.514 455.704
2511 0 87.2282 12.6106 1100 110.327 260.502 455.365
2512 0 90.1783 13.5398 1221 108.275 260.453 455.852
2513 0 93.1436 12.8082 1193 111.809 260.676 451.546
2514 0 93.1442 12.3357 1149 113.604 261.027 452.43
2515 0 99.2753 13.1856 1309 111.237 260.784 451.39
2516 0 101.203 13.9224 1409 112.279 260.634 447.253
2517 0 103.198 14.0409 1449 112.62 260.616 447.59
2518 0 106.166 13.6673 1451 115.695 260.793 444.474
2519 0 110.191 14.1027 1554 115.486 260.938 442.364
2520 0 113.258 13.5178 1531 115.933 261.159 441.973
2521 0 114.173 13.2255 1510 117.442 261.5 442.072
2522 0 117.123 12.9778 1520 118.872 261.539 440.969
2523 0 121.221 12.902 1564 120.987 261.192 432.721
2524 1 71.0654 10.033 713 113.237 260.798 462.172
2525 0 73.2446 11.878 870 116.031 262.331 461.276
2526 0 71.1804 9.45485 673 119.41 261.36 452.037
2527 0 76.1599 11.3052 861 110.702 263.012 458.631
2528 0 78.0596 12.3752 966 108.196 262.852 457.925
2529 0 81.0777 11.1745 906 111.16 262.608 456.329
2530 0 84.0954 11.7486 988 109.298 262.488 454.825
2531 0 85.173 11.6938 996 110.503 262.564 452.95
2532 0 86.0543 11.6322 1001 112.379 261.776 450.564
2533 0 89.1631 11.6528 1039 112.776 263.16 448.654
2534 0 92.1513 11.34 1045 113.532 263.307 449.208
2535 0 92.0695 11.2306 1034 114.883 263.005 448.708
2536 0 95.0888 12.3989 1179 114.457 262.481 445.42
2537 0 100.126 13.2034 1322 111.528 263.257 446.985
2538 0 103.129 12.3049 1269 115.138 263.117 447.285
2539 0 104.083 12.663 1318 115.192 262.205 444.096
2540 0 106.189 12.7886 1358 122.678 262.314 442.415
2541 0 111.239 13.1788 1466 121.752 262.626 440.877
2542 0 115.121 12.7605 1469 118.86 262.153 437.708
2543 0 115.137 11.2475 1295 123.134 262.743 431.754
2544 0 122.173 11.852 1448 120.633 262.678 434.196
2545 1 66.2121 10.5721 700 106.494 262.957 465.647
2546 0 67.2338 11.3038 760 108.528 262.328 459.367
2547 0 68.1612 10.1524 692 111.928 262.955 458.108
2548 0 73.408 12.7779 938 105.971 263.44 459.098
2549 0 73.0907 12.2861 898 103.292 264.293 459.53
2550 0 78.0741 12.1039 945 102.622 263.239 459.007
2551 0 79.1431 12.2057 966 104.045 263.227 456.109
2552 0 81.1246 11.846 961 105.328 262.979 457.265
2553 0 83.1449 11.4138 949 106.41 263.192 456.11
2554 0 88.1071 12.0308 1060 104.827 263.009 453.469
2555 0 89.1209 12.7692 1138 104.552 262.998 450.587
2556 0 91.1568 11.7709 1073 106.327 262.937 451.329
2557 0 93.0944 11.7837 1097 107.539 262.877 450.234
2558 0 98.1659 13.1206 1288 104.741 262.647 448.099
2559 0 100.128 12.9434 1296 105.68 262.105 447.337
2560 0 101.263 13.0353 1320 108.038 262.4 443.044
2561 0 107.26 12.6982 1362 108.356 261.711 443.579
2562 0 109.428 12.739 1394 110.022 261.657 438.577
2563 0 113.4 13.4568 1526 108.285 261.628 436.331
2564 0 114.515 12.4962 1431 111.42 261.751 434.022
2565 0 120.383 13.2245 1592 109.573 262.023 432.698
2566 0 121.392 12.9003 1566 111.86 261.759 428.375
2567 0 126.442 13.01 1645 110.708 261.715 429.14
2568 0 128.428 12.3805 1590 113.123 261.702 427.367
2569 0 135.441 13.4597 1823 110.267 261.946 425.976
2570 0 138.398 13.071 1809 112.816 261.849 421.114
2571 0 142.407 12.5625 1789 114.567 262.674 421.978
2572 0 147.346 13.2952 1959 113.784 262.601 420.762
2573 0 152.226 13.7493 2093 117.036 262.021 416.091
2574 0 156.158 13.7425 2146 117.629 263.018 418.818
2575 0 164.238 14.5764 2394 112.899 263.454 418.382
2576 0 168.368 14.397 2424 115.515 262.549 410.032
2577 1 97.2241 11.3449 1103 108.2 262.233 443.69
2578 0 101.238 12.278 1243 107.046 261.337 445.253
2579 0 104.171 12.7386 1327 107.072 262.738 447.309
2580 0 106.153 11.6059 1232 111.312 262.836 444.386
2581 0 110.259 11.5909 1278 110.658 263.2 441.987
2582 0 113.361 11.7325 1330 112.194 263.048 436.861
2583 0 115.359 11.5986 1338 113.041 262.854 437.305
2584 0 118.368 11.2699 1334 114.008 263.472 436.918
2585 0 121.33 10.7476 1304 115.255 262.768 435.769
2586 0 123.45 11.1948 1382 115.978 262.719 432.354
2587 0 129.335 11.9071 1540 115.349 262.835 429.042
2588 0 133.343 12.1266 1617 115.646 262.88 428.973
2589 0 138.289 12.5245 1732 116.178 263.264 425.241
2590 0 143.484 12.6495 1815 116.877 262.805 424.429
2591 0 146.352 13.4743 1972 115.81 263.408 424.429
2592 0 150.428 12.7237 1914 118.528 262.89 423.025
2593 0 153.293 11.5595 1772 121.593 262.695 422.879
2594 0 160.263 11.843 1898 122.591 263.058 416.847
2595 0 166.243 12.6682 2106 121.858 262.841 415.685
2596 0 172.301 12.9889 2238 122.927 262.637 413.118
2597 1 102.276 12.1533 1243 120.062 262.994 448.097
2598 0 106.141 12.8697 1366 116.722 263.534 446.71
2599 0 107.133 12.4519 1334 118.217 263.227 447.142
2600 0 112.13 13.3684 1499 116.943 262.915 444.616
2601 0 115.195 13.3253 1535 119.385 262.698 441.3
2602 0 118.254 12.2448 1448 122.503 262.951 440.567
2603 0 122.179 12.8991 1576 123.206 263.284 437.438
2604 0 124.147 13.041 1619 123.636 263.782 435.55
2605 0 128.182 14.9241 1913 119.988 263.551 431.059
2606 0 132.268 12.5049 1654 126.354 264.005 432.653
2607 0 135.301 13.9319 1885 124.732 263.839 428.593
2608 0 139.259 13.2559 1846 126.943 263.656 428.086
2609 0 145.264 13.9746 2030 124.182 263.371 428.395
2610 0 148.268 13.4958 2001 126.771 263.154 423.156
2611 0 153.145 13.9411 2135 124.97 263.546 422.215
2612 0 156.22 14.6332 2286 125.085 263.329 417.73
2613 0 161.165 14.2959 2304 125.947 263.55 414.341
2614 0 169.325 15.178 2570 121.949 263.583 416.764
2615 0 172.249 13.4863 2323 128.421 263.896 411.315
2616 0 177.385 14.6461 2598 126.022 263.639 409.41
2617 0 183.409 14.1378 2593 128.308 262.665 407.605
2618 0 189.251 14.1082 2670 128.583 262.895 404.516
2619 0 192.443 14.4614 2783 128.743 262.944 398.566
2620 0 200.362 15.2774 3061 126.299 262.881 398.557
2621 0 205.343 14.6778 3014 128.815 262.074 395.433
2622 0 208.284 13.5536 2823 134.005 261.981 388.204
2623 0 217.368 15.6693 3406 127.087 262.013 388.873
2624 0 221.302 14.8576 3288 129.574 262.309 388.253
2625 0 229.304 15.6473 3588 127.127 261.613 381.826
2626 0 235.437 14.4242 3396 128.633 262.152 379.158
2627 0 246.305 15.2697 3761 125.579 262.194 374.412
2628 0 252.318 14.4025 3634 129.238 260.9 370.166
2629 0 260.279 14.4845 3770 128.928 261.732 366.047
2630 0 270.345 16.1498 4366 122.869 261.333 356.402
2631 1 65.101 9.56975 623 114.067 260.453 460.848
2632 0 66.1145 10.2852 680 112.722 260.824 460.828
2633 0 66.1249 10.0567 665 117.162 263.284 459.008
2634 0 72.2902 11.7997 853 115.992 262.933 463.317
2635 0 72.2306 10.688 772 120.909 262.571 463.968
2636 0 75.113 11.1299 836 119.425 262.083 465.116
2637 0 78.2407 12.6916 993 116.573 262.198 462.431
2638 0 82.1843 12.7032 1044 114.415 261.874 462
2639 0 84.2361 12.7499 1074 114.258 261.345 462.582
2640 0 82.2354 11.3333 932 120.603 261.762 458.777
2641 0 88.1936 12.1211 1069 117.14 261.502 458.505
2642 0 91.2533 12.7995 1168 115.458 261.004 457.525
2643 0 91.2786 11.5909 1058 119.008 260.956 455.239
2644 0 97.2421 13.1527 1279 114.486 260.792 453.295
2645 0 98.2938 12.6661 1245 115.476 261.133 452.52
2646 0 102.219 13.0895 1338 113.649 260.545 452.209
2647 0 103.245 12.8336 1325 115.311 260.327 450.997
2648 0 106.273 14.124 1501 111.881 260.298 445.367
2649 0 108.257 12.9968 1407 111.045 259.856 446.53
2650 0 114.285 14.2538 1629 107.3 259.342 446.767
2651 0 115.191 11.8759 1368 114.504 260.034 444.134
2652 0 118.338 12.1516 1438 114.784 259.455 440.801
2653 0 121.423 13.2265 1606 112.096 259.47 442.045
2654 0 125.441 13.2572 1663 112.738 259.244 436.838
2655 0 128.253 13.0679 1676 114.017 259.62 437.59
2656 0 130.3 11.8496 1544 117.775 259.099 428.472
2657 0 135.255 13.1751 1782 114.058 259.038 432.411
2658 0 136.152 12.8019 1743 115.363 258.78 434.929
2659 0 140.238 11.9297 1673 117.797 260.652 427.166
2660 0 145.495 12.2547 1783 116.553 260.473 426.884
2661 1 161.534 20.0639 3241 91.743 259.863 409.291
2662 1 94.1954 11.6991 1102 103.939 260.427 460.936
2663 0 95.1296 13.592 1293 101.17 260.088 456.868
2664 0 97.4512 12.6422 1232 105.08 258.661 449.623
2665 0 98.2995 12.3297 1212 106.328 258.854 452.535
2666 0 101.519 11.5545 1173 108.532 259.369 450.748
2667 0 102.533 12.123 1243 107.81 259.188 450.535
2668 0 105.428 13.4688 1420 105.255 258.697 450.081
2669 0 107.428 12.548 1348 108.875 259.439 444.403
2670 0 111.36 12.958 1443 108.358 259.714 441.877
2671 0 113.246 12.4243 1407 107.751 259.822 443.576
2672 0 115.186 12.189 1404 109.101 260.61 434.862
2673 0 117.202 12.568 1473 109.321 259.853 435.829
2674 0 120.147 11.0198 1324 112.854 260.092 436.344
2675 0 125.183 12.6615 1585 110.146 259.659 431.714
2676 0 127.144 12.2223 1554 112.256 259.476 430.073
2677 0 131.17 12.6249 1656 112.075 259.729 427.348
2678 0 137.166 13.4946 1851 110.962 259.303 424.438
2679 0 139.239 13.1644 1833 112.726 259.944 422.76
2680 0 142.194 13.9176 1979 112.218 259.677 420.096
2681 0 148.245 14.7661 2189 110.566 259.321 418.307
2682 0 152.211 14.1514 2154 113.11 259.74 417.87
2683 0 157.263 14.6125 2298 112.081 259.887 415.019
2684 0 160.305 14.4974 2324 113.956 259.158 411.803
2685 0 164.152 13.4631 2210 117.908 259.156 406.743
2686 0 169.205 13.6284 2306 118.01 259.145 406.016
2687 0 173.197 13.4471 2329 119.923 259.222 400.452
2688 0 181.184 13.4173 2431 119.048 259.597 400.642
2689 0 186.202 14.5702 2713 116.654 259.53 397.929
2690 0 192.169 13.7848 2649 118.685 259.727 395.345
2691 0 195.118 14.4323 2816 118.605 259.934 389.584
2692 0 203.39 14.7697 3004 117.466 259.001 389.739
2693 0 209.399 15.5397 3254 115.082 259.112 388.952
2694 0 217.424 14.9293 3246 117.027 259.166 380.904
2695 0 222.66 14.8118 3298 117.944 259.314 377.121
2696 0 231.352 14.4369 3340 117.992 259.731 374.738
2697 0 235.43 14.31 3369 119.801 259.921 365.866
2698 1 171.403 11.7384 2012 120.643 259.816 402.049
2699 0 172.322 10.0103 1725 126.187 259.416 397.183
2700 0 181.427 12.567 2280 119.243 259.586 401.742
2701 0 189.389 13.1476 2490 117.898 259.468 394.296
2702 0 193.491 12.3675 2393 119.985 259.359 392.78
2703 0 198.375 13.3736 2653 119.121 259.863 386.147
2704 0 205.365 12.7091 2610 120.927 259.367 384.05
2705 0 211.502 13.5649 2869 119.564 258.84 379.122
2706 0 217.568 13.0672 2843 119.793 258.435 381.484
2707 0 224.37 13.4911 3027 118.689 259.254 380.904
2708 0 230.374 13.604 3134 119.961 259.256 370.649
2709 0 234.41 12.2435 2870 124.906 259.594 364.197
2710 0 246.495 13.1727 3247 122.005 259.249 363.663
2711 1 13.0005 3.46141 45 84.6222 263.156 489.556
2712 0 14.0089 6.78141 95 85.4947 264.032 488.895
2713 0 18.0088 4.66438 84 86.9048 263.274 489.357
2714 0 26.0384 7.45055 194 86.1186 263.01 485.376
2715 0 22.0091 4.99793 110 90.7 263.155 486.245
2716 0 21.011 6.33003 133 88.0752 263.233 487.812
2717 0 19.0118 4.68131 89 91.2135 263.135 488.315
2718 1 229.344 11.5067 2639 122.528 259.554 373.927
2719 0 239.268 12.1412 2905 120.527 259.387 375.339
2720 0 249.328 13.6848 3412 117.11 259.469 372.798
2721 0 256.547 13.6349 3498 118.594 259.026 362.184
2722 0 264.529 13.938 3687 119.903 259.701 353.813
2723 0 274.521 13.3432 3663 121.732 259.353 350.123
2724 0 283.379 14.5318 4118 118.128 259.145 344.643
2725 1 78.1367 9.96971 779 96.5687 260.772 462.859
2726 0 81.0906 11.5057 933 95.1844 260.171 460.451
2727 0 82.0522 10.1277 831 98.6017 258.912 456.349
2728 0 84.0799 10.9301 919 98.0511 259.094 457.393
2729 0 87.1086 11.0896 966 98.1739 259.775 455.21
2730 0 88.1417 10.5172 927 100.797 260.313 456.067
2731 0 93.0476 11.8327 1101 97.1144 261.443 456.687
2732 0 95.1418 11.341 1079 98.6858 261.714 452.26
2733 0 97.172 11.5568 1123 99.1006 260.606 448.066
2734 0 98.1058 11.9259 1170 100.135 260.138 447.875
2736 0 101.156 11.8529 1199 101.073 259.621 446.445
2737 0 105.109 10.0658 1058 111.541 262.015 444.575
2738 0 107.094 10.3087 1104 110.466 261.936 446.765
2739 0 109.15 10.8291 1182 112.575 261.775 440.538
2740 0 114.3 12.1523 1389 110.422 261.557 434.365
2741 0 117.116 10.622 1244 114.248 260.751 442.897
2742 0 124.257 12.7638 1586 111.031 261.603 437.115
2743 0 129.178 13.524 1747 110.22 261.9 436.108
2744 0 133.289 12.8067 1707 112.322 262.289 433.295
2745 0 137.157 13.6705 1875 110.563 261.473 434.585
2746 0 140.24 13.4056 1880 112.211 261.612 433.027
2747 0 143.158 13.0695 1871 108.762 261.425 428.784
2748 0 144.154 13.9087 2005 108.427 262.092 424.89
2749 0 150.186 15.2811 2295 105.514 262.434 427.534
2750 0 152.161 13.3411 2030 111.144 262.666 426.35
2751 0 155.143 14.3545 2227 110.482 262.706 423.532
2752 0 158.183 14.0407 2221 112.303 263.064 416.752
2753 0 163.13 12.9774 2117 114.85 262.732 416.317
2754 1 100.12 9.2489 926 116.968 263.625 438.774
2755 0 105.203 11.2735 1186 111.212 262.497 442.553
2756 0 107.091 11.6163 1244 113.342 260.982 433.452
2757 0 109.127 11.0422 1205 115.46 260.172 436.076
2758 0 114.186 11.6302 1328 112.05 259.688 439.898
2759 0 116.123 11.419 1326 114.299 259.572 432.726
2760 0 120.063 12.1852 1463 111.972 259.566 433.987
2761 0 123.135 11.9787 1475 112.71 259.923 429.5
2762 0 127.1 12.3997 1576 110.328 260.01 432.928
2763 0 130.209 13.4245 1748 109.411 259.892 430.163
2764 0 130.17 13.2827 1729 111.86 259.645 427.922
2765 0 133.096 12.6299 1681 114.049 259.643 426.199
2766 0 135.123 12.2555 1656 114.624 260.132 425.864
2767 0 139.246 12.8334 1787 113.477 260.732 422.642
2768 0 141.168 12.3824 1748 115.496 260.784 422.114
2769 0 146.161 12.4589 1821 115.888 261.277 417.198
2770 0 151.117 12.573 1900 116.176 261.269 413.965
2771 0 154.209 12.081 1863 117.04 261.138 412.705
2772 0 158.289 11.9528 1892 118.407 261.203 406.822
2773 0 166.16 12.2051 2028 117.033 260.762 407.386
2774 0 167.262 11.5807 1937 120.959 260.738 400.795
2775 0 174.291 12.8004 2231 116.879 261.089 403.498
2776 0 177.378 14.1337 2507 115.034 260.681 397.107
2777 0 183.191 12.0694 2211 120.239 261.144 396.811
2778 0 188.279 11.961 2252 120.609 261.376 394.204
2779 0 196.294 12.1196 2379 120.19 261.365 391.797
2780 0 201.211 13.5678 2730 116.589 260.706 391.045
2781 0 207.234 11.8465 2455 121.679 261.118 376.397
2782 0 213.306 13.3095 2839 117.986 260.853 378.928
2783 1 37.1641 6.40404 238 81.3571 263.403 480.298
2784 0 36.2045 7.23668 262 84.626 263.114 480.721
2785 0 37.1097 5.79364 215 81.093 262.209 479.772
2786 0 38.085 6.6693 254 82.2126 262.783 476.917
2787 0 39.1791 8.98439 352 82.2699 262.665 479.196
2788 0 40.2168 8.80229 354 84.678 262.873 480.605
2789 0 38.0792 7.82579 298 86.6946 261.513 482.017
2790 0 39.1878 7.83407 307 85.4821 263.629 479.078
2791 0 39.0778 8.44469 330 84.2667 263.309 477.582
2792 0 40.0137 8.82198 353 82.8754 263.479 480.348
2793 0 38.0112 6.84009 260 86.4115 261.915 481.531
2794 0 40.0827 7.43462 298 85.3993 262.362 480.564
2795 0 40.0157 9.1714 367 83.436 262.436 481.782
2796 0 41.0286 9.9443 408 82.2255 262.431 479.787
2797 0 40.056 8.91253 357 84.1625 261.476 482.98
2798 0 40.0526 10.0368 402 82.2537 262.781 479.716
2799 0 41.1837 10.5867 436 81.2294 263.062 478.461
2800 0 42.0434 9.96589 419 82.6921 261.265 481.122
2801 0 39.11 7.61953 298 88.5638 261.856 481.171
2802 0 43.0878 10.2117 440 84.2545 260.861 480.339
2803 0 42.2793 9.62645 407 87.398 259.973 472.978
2804 0 43.0993 9.3273 402 86.8607 261.498 481.607
2805 0 43.0814 10.1204 436 85.3624 261.672 481.548
2806 0 44.0364 9.49215 418 87.5718 261.457 480.12
2807 0 42.2793 9.79203 414 90.2174 259.819 478.899
2808 0 44.0388 10.1956 449 89.7483 261.363 480.151
2809 0 45.049 10.5219 474 90.7131 261.42 479.051
2810 0 45.112 10.1968 460 95.0478 261.509 479.754
2811 0 44.0645 11.2562 496 94.9879 260.488 479.978
