time division length width area intensity CMx CMy
0 0 43.1886 15.1429 654 122.839 574.239 471.41
1 0 44.1071 15.5531 686 124.159 574.096 469.821
2 0 44.0613 15.5465 685 116.193 574.607 469.618
3 0 45.0819 15.0615 679 128.514 575.262 469.73
4 0 47.0594 16.766 789 115.109 575.478 470.763
5 0 46.0849 15.7752 727 120.532 575.451 469.554
6 0 48.1419 16.3267 786 126.319 575.167 469.328
7 0 49.2299 16.2097 798 121.977 574.605 468.401
8 0 50.1134 14.9062 747 126.873 574.855 467.645
9 0 51.1308 15.4114 788 122.15 574.728 468.194
10 0 53.0746 15.6384 830 124.904 574.488 466.911
11 0 54.0956 15.7869 854 125.571 574.255 467.475
12 0 57.1617 16.0772 919 124.811 573.99 466.523
13 0 57.0305 15.3602 876 123.761 573.682 464.457
14 0 60.038 16.8227 1010 118.194 574.341 465.92
15 0 59.0347 15.889 938 124.977 573.277 465.076
16 0 61.0232 15.6006 952 124.987 574.661 464.878
17 0 62.0347 15.9104 987 124.556 574.191 463.796
18 0 64.0869 16.384 1050 123.091 574.872 462.889
19 0 67.1089 15.6313 1049 123.722 574.366 461.731
20 0 70.0587 15.801 1107 124.042 574.22 460.459
21 0 72.0748 16.4135 1183 119.239 573.349 461.391
22 0 74.0971 17.0722 1265 118.428 573.628 459.375
23 0 73.0991 15.5406 1136 164.364 573.598 460.885
24 0 79.0782 17.3752 1374 121.179 572.913 458.553
25 0 81.0355 17.0172 1379 124.294 573.094 457.407
26 0 84.0606 16.9283 1423 123.877 573.074 456.304
27 0 88.168 17.7275 1563 120.928 572.521 455.638
28 0 91.0882 17.1372 1561 123.113 572.053 452.858
29 0 93.0702 18.5666 1728 119.557 572.704 452.327
30 0 96.0983 17.94 1724 121.458 572.067 451.707
31 0 98.0882 16.6687 1635 125.645 571.818 447.919
32 0 102.112 16.8639 1722 124.259 571.994 447.142
33 1 56.0606 12.8076 718 130.543 572.116 472.43
34 0 57.0457 13.4454 767 130.057 572.235 471.917
35 0 58.0716 13.4489 781 130.223 572.805 470.572
36 0 60.1673 13.3129 801 125.159 573.502 471.059
37 0 60.0808 13.6317 819 126.791 572.424 469.883
38 0 60.0808 13.6649 821 160.923 571.406 469.87
39 0 65.0431 12.8223 834 128.357 571.01 467.065
40 0 69.1463 13.7535 951 125.37 572.197 467.064
41 0 69.1597 13.1001 906 127.743 572.209 465.627
42 0 75.1605 14.7418 1108 122.32 571.53 462.117
43 0 77.0335 14.8896 1147 121.908 571.858 462.802
44 0 80.1593 14.3963 1154 124.884 571.127 460.82
45 0 80.1593 14.4213 1156 150.141 571.101 460.915
46 0 84.2297 13.7719 1160 133.635 570.926 457.002
47 0 88.1975 15.0685 1329 129.558 570.468 457.113
48 0 93.193 14.7007 1370 130.027 571.165 454.753
49 1 45.1208 11.4138 515 129.845 570.969 479.313
50 0 46.1438 12.5044 577 130.227 570.35 476.608
51 0 48.0476 13.3826 643 127.401 570.39 476.974
52 0 48.0677 13.8763 667 127.24 570.753 475.994
53 0 53.0151 13.9394 739 123.903 570.352 475.862
54 0 53.0953 12.939 687 127.902 570.339 475.639
55 0 53.056 13.2502 703 126.861 570.707 475.792
56 0 55.0834 13.9607 769 120.237 571.463 474.25
57 0 56.1028 13.8139 775 119.645 571.361 473.603
58 0 56.0539 13.3443 748 123.146 570.787 472.352
59 0 61.0251 14.535 887 118.029 571.192 471.818
60 0 62.0696 13.6782 849 120.2 570.18 471.245
61 0 62.0696 13.6943 850 142.339 570.189 471.258
62 0 65.1717 12.7049 828 123.35 570.159 470.187
63 0 67.0689 13.7023 919 119.868 570.908 468.791
64 0 70.2146 13.829 971 119.026 571.145 467.875
65 0 73.1289 14.2762 1044 117.935 570.978 465.155
66 0 75.1078 12.1426 912 122.742 570.522 464.539
67 0 75.1101 12.049 905 140.188 569.547 464.544
68 0 80.0887 13.4226 1075 123.049 570.545 462.567
69 0 81.0484 12.8812 1044 122.076 569.982 459.557
70 0 86.1463 13.4423 1158 119.61 570.199 459.605
71 0 88.1376 12.4011 1093 122.166 570.007 459.138
72 0 92.1605 12.9557 1194 120.898 570.084 456.539
73 1 49.1036 11.2619 553 121.403 571.168 477.736
74 0 51.0933 12.5261 640 117.994 571.398 477.245
75 0 51.0405 12.5391 640 117.414 571.344 475.061
76 0 51.0248 12.0922 617 118.934 570.794 477.076
77 0 51.0248 12.0138 613 129.811 570.801 477.131
78 0 55.0596 11.987 660 120.171 571.026 476.739
79 0 57.0804 12.316 703 120.257 570.824 473.841
80 0 60.121 13.2732 798 119.422 571.293 473.1
81 0 62.1858 14.1351 879 118.352 571.282 472.207
82 0 64.2012 12.9437 831 120.018 570.403 472.631
83 0 67.1075 13.3666 897 119.977 570.103 469.805
84 0 69.1229 12.6586 875 122.534 570.354 469.245
85 0 71.1743 14.3591 1022 118.753 570.392 467.96
86 0 72.1153 12.7989 923 120.158 570.145 466.496
87 0 77.0696 13.118 1011 119.515 570.043 465.554
88 0 79.1856 12.2876 973 121.514 569.427 463.705
89 0 82.2006 13.2359 1088 119.858 569.393 461.958
90 0 85.101 13.7954 1174 119.164 569.22 460.106
91 0 88.0988 13.3032 1172 120.539 569.539 458.289
92 0 88.0988 13.3146 1173 145.959 570.531 458.284
93 1 47.0348 12.6502 595 114.751 568.77 480.257
94 0 48.0254 12.5142 601 116.361 569.679 480.566
95 0 49.0489 13.2113 648 115.071 570.156 478.75
96 0 51.0305 14.0112 715 113.547 569.972 478.702
97 0 52.1453 13.635 711 115.412 569.989 477.114
98 0 53.0654 12.8898 684 116.885 569.63 476.173
99 0 55.034 12.7012 699 116.956 570.006 475.89
100 0 57.0617 12.9158 737 115.773 569.461 475.087
101 0 60.0531 13.1717 791 115.75 568.98 473.167
102 0 61.0868 13.8328 845 114.656 569.409 472.864
103 0 60.0723 12.3351 741 120.171 568.603 470.19
104 0 63.1668 12.1741 769 121.432 568.257 469.172
105 0 69.0985 12.3592 854 119.575 567.995 468.176
106 0 69.0718 12.5232 865 120.188 568.434 466.142
107 0 71.1159 13.021 926 120.497 569.199 465.833
108 0 74.1462 12.799 949 120.545 569.838 465.47
109 0 77.2664 13.1881 1019 118.702 569.511 463.404
110 0 80.1536 12.6258 1012 120.549 569 462.267
111 0 82.2786 12.7494 1049 119.234 568.366 459.75
112 0 85.2089 12.0997 1031 120.031 568.818 458.839
113 0 89.256 12.8059 1143 117.924 568.718 453.806
114 0 92.2361 12.9884 1198 114.968 568.884 451.993
115 1 45.2129 10.2847 465 107.6 569.847 475.884
116 0 48.1058 10.6432 512 107.123 569.186 473.885
117 0 51.0356 11.6781 596 112.923 568.636 479.32
118 0 51.0264 11.6606 595 114.597 568.239 475.859
119 0 55.1118 12.5019 689 111.366 568.123 476.212
120 0 55.0496 11.971 659 113.323 568.205 475.366
121 0 58.0856 13.6178 791 109.04 568.042 475.265
122 0 58.0531 12.1441 705 114.077 568.068 473.913
123 0 61.046 13.6291 832 110.453 568.609 471.673
124 0 63.0579 12.6867 800 112.34 568.762 472.342
125 0 66.0704 12.8953 852 112.715 569.156 469.723
126 0 67.0188 12.6383 847 118.767 567.248 468.753
127 0 69.0815 11.595 801 120.844 567.396 466.38
128 0 74.0574 13.341 988 116.47 568.114 466.011
129 0 76.1162 13.1641 1002 116.488 568.439 465.424
130 0 79.1004 13.4892 1067 115.909 568.801 463.252
131 0 83.1098 13.2957 1105 115.887 568.628 461.252
132 0 85.2144 13.7653 1173 115.162 568.403 461.62
133 0 87.1606 12.6433 1102 118.872 569.025 457.675
134 1 43.0945 10.7902 465 114.841 569.31 480.449
135 0 45.0518 11.2537 507 112.947 569.245 479.379
136 0 47.0297 12.0987 569 107.193 568.404 480.772
137 0 48.0882 12.1236 583 110.122 568.923 478.527
138 0 49.1555 11.9824 589 109.699 568.913 476.849
139 0 50.1764 11.1805 561 112.672 568.062 477.401
140 0 51.0716 12.2769 627 110.967 569.075 476.053
141 0 51.0716 12.3356 630 130.413 570.073 476.051
142 0 53.1262 10.8609 577 114.542 567.983 474.553
143 0 58.0872 12.5501 729 109.42 568.097 475.218
144 0 58.1213 12.0438 700 112.354 568.427 472.633
145 0 62.1224 12.25 761 111.386 568.896 472.837
146 0 64.0361 13.1176 840 112.082 568.835 470.545
147 0 64.0549 11.9429 765 115.393 568.593 470.54
148 0 68.2563 13.6398 931 111.358 569.182 468.001
149 0 71.1752 13.3192 948 112.456 568.608 467.451
150 0 72.1825 12.7039 917 114.32 569.255 466.727
151 0 74.1284 12.3839 918 115.817 568.968 463.965
152 0 74.1731 11.3518 842 119.493 568.885 464.36
153 1 41.1052 10.7772 443 113.115 568.494 483.445
154 0 42.2292 12.5979 532 111.662 568.135 480.171
155 0 44.2458 11.8429 524 114.088 568.597 479.412
156 0 42.0836 10.9544 461 110.356 567.443 479.495
157 0 44.0311 10.6743 470 112 569.298 480.626
158 0 46.087 11.4132 526 111.46 569.053 479.2
159 0 46.0174 10.2135 470 114.404 568.451 480.034
160 0 48.0338 12.2414 588 111.213 568.791 477.515
161 0 49.0514 12.4155 609 111.737 568.851 476.297
162 0 53.1004 12.3163 654 110.924 568.535 476.685
163 0 54.1137 11.291 611 114.799 568.537 475.537
164 0 55.0591 11.4241 629 114.997 569.089 474.03
165 0 57.0635 11.5135 657 113.553 569.394 473.702
166 0 58.0548 11.1274 646 115.238 569.124 472.584
167 0 61.0494 11.0566 675 115.695 569.09 470.527
168 0 64.0877 12.3269 790 112.652 569.172 469.711
169 0 66.0604 11.7468 776 113.945 568.675 469.543
170 0 67.119 12.5449 842 116.451 567.867 470.318
171 0 69.1445 12.0472 833 119.265 567.777 467.061
172 0 74.103 12.0373 892 117.787 568.405 465.406
173 0 74.103 12.0913 896 142.792 569.392 465.411
174 1 40.1567 11.9532 480 112.842 568.654 481.612
175 0 41.4131 11.8561 491 113.99 569.045 479.149
176 0 38.0307 10.176 387 112.946 568.783 482.483
177 0 40.0416 10.3892 416 112.228 568.832 481.8
178 0 44.02 11.8128 520 107.5 569.012 480.654
179 0 42.0454 11.3449 477 114.105 568.782 478.421
180 0 46.043 11.0766 510 112.035 568.229 477.978
181 0 46.0819 11.1975 516 111.82 568.176 476.333
182 0 47.1219 12.1175 571 109.566 567.869 477.368
183 0 50.1044 11.7355 588 109.014 567.957 477.167
184 0 49.1083 10.9961 540 117.724 568.019 476.254
185 0 53.0445 11.858 629 108.909 568.006 475.313
186 0 52.1342 11.1443 581 111.32 568.064 473.212
187 0 54.0779 12.2971 665 109.765 568.432 471.811
188 0 56.165 12.1606 683 108.448 568.896 471.93
189 0 58.0248 12.5636 729 107.513 568.366 471.967
190 0 60.151 13.1336 790 107.011 568.161 470.561
191 0 61.0577 11.612 709 110.81 568.454 469.532
192 0 63.0708 13.0488 823 108.256 567.874 470.532
193 0 66.1698 12.6342 836 109.732 568.077 466.65
194 0 68.186 12.2899 838 109.49 568.116 467.732
195 0 69.0666 10.4392 721 114.239 568.549 465.828
196 0 69.0666 10.4102 719 129.522 568.522 465.89
197 0 76.0977 12.0372 916 111.762 568.825 463.228
198 0 79.1599 12.0389 953 111.001 568.766 463.893
199 0 81.1037 12.0217 975 112.411 569.321 460.504
200 0 85.1206 12.4059 1056 113.601 568.43 458.882
201 1 43.0743 11.6079 500 109.054 569.262 478.146
202 0 47.1123 11.186 527 107.602 568.898 478.429
203 0 48.0793 11.7098 563 107.963 569.826 475.925
204 0 50.038 11.6512 583 108.379 568.398 474.976
205 0 51.0548 12.3984 633 107.6 568.87 476.376
206 0 55.0944 13.2137 728 104.768 569.257 474.92
207 0 57.038 12.7284 726 106.118 569.143 473.515
208 0 59.0231 12.3172 727 105.803 569.283 474.184
209 0 59.1861 12.5705 744 106.794 569.941 471.574
210 0 62.0667 12.5671 780 106.719 569.583 469.135
211 0 64.0538 12.3646 792 107.153 569.437 470.467
212 0 68.0784 13.2494 902 105.715 568.827 468.292
213 0 69.164 13.027 901 106.552 569.083 466.759
214 0 73.1349 13.1674 963 106.354 569.597 464.046
215 0 75.1493 13.1472 988 107.046 568.931 465.941
216 0 77.108 12.5927 971 109.811 570.036 463.925
217 0 80.0392 13.1186 1050 108.93 569.468 462.993
218 0 82.0991 13.2279 1086 110.123 569.762 460.297
219 0 86.1117 12.7509 1098 111.996 569.066 459.007
220 0 89.0691 12.844 1144 112.071 569.098 457.471
221 1 48.0504 11.9874 576 113.53 569.632 477.328
222 0 50.0589 12.2655 614 112.673 569.661 477.537
223 0 51.1128 12.267 627 111.399 570.754 476.711
224 0 52.0412 11.7023 609 112.92 569.486 475.432
225 0 53.0306 12.3513 655 113.325 569.809 475.362
226 0 53.0504 12.2336 649 115.798 571.31 474.242
227 0 55.0489 12.0983 666 116.905 570.661 473.611
228 0 56.0917 11.6238 652 118.972 569.768 472.808
229 0 58.096 12.5654 730 117.711 569.797 473.304
230 0 58.096 12.5998 732 147.273 568.813 473.294
231 0 63.0429 12.7849 806 118.893 569.935 469.839
232 0 65.0897 13.0896 852 118.723 569.744 470.9
233 0 68.0389 13.4629 916 117.912 570.296 470.017
234 0 69.1601 13.5049 934 118.986 570.389 467.734
235 0 72.0683 12.8628 927 121.099 570.274 467.153
236 0 75.0406 13.1795 989 120.665 570.211 466.52
237 0 76.0737 12.9874 988 123.639 570.266 463.858
238 0 79.1321 12.6624 1002 123.265 570.163 464.294
239 0 83.1674 13.5029 1123 121.105 569.926 462.374
240 0 87.1005 12.8128 1116 123.928 569.625 459.671
241 0 89.0824 12.6624 1128 125.996 569.774 457.785
242 0 93.1457 14.472 1348 119.897 569.21 455.318
243 0 96.2626 13.8995 1338 122.547 569.75 454.273
244 1 49.2217 12.0272 592 118.973 569.99 478.38
245 0 51.2847 12.7523 654 114.917 570.269 475.633
246 0 52.2145 12.1039 632 113.968 570.511 472.5
247 0 53.0375 11.6333 617 118.677 571.982 477.06
248 0 53.0585 12.2883 652 116.862 572.17 477.965
249 0 54.0352 12.0662 652 117.411 571.959 477.807
250 0 57.0746 12.9304 738 117.267 572.047 473.991
251 0 57.0383 12.8861 735 117.392 571.478 474.506
252 0 58.1158 11.9933 697 118.385 571.172 474.182
253 0 60.1398 12.6539 761 118.812 570.226 470.334
254 0 63.1206 13.1019 827 117.184 570.513 470.761
255 0 63.1206 13.0702 825 152.308 570.518 470.744
256 0 68.1329 11.4629 781 122.06 569.814 468.142
257 0 69.1427 13.2769 918 117.617 570.101 466.727
258 0 70.12 12.336 865 118.109 570.23 467.179
259 0 74.0979 12.6859 940 118.163 570.889 465.501
260 0 74.0995 13.6843 1014 117.511 570.837 464.741
261 0 77.071 13.1697 1015 119.089 570.481 462.328
262 0 81.0592 13.3976 1086 119.14 570.206 461.768
263 0 82.061 13.3559 1096 119.197 569.908 460.931
264 0 84.1281 12.4453 1047 121.987 570.458 457.947
265 0 89.111 13.4888 1202 117.34 569.965 457.705
266 0 92.1327 12.6557 1166 117.994 570.169 456.094
267 0 97.1187 13.015 1264 114.89 570.786 455.455
268 0 99.1781 13.0573 1295 115.548 570.296 453.798
269 0 102.095 12.2435 1250 112.872 570.238 452.338
270 1 54.0604 11.0432 597 109.943 569.95 475.511
271 0 56.0248 11.9411 669 109.271 570.078 473.735
272 0 58.0101 12.4461 722 108.319 570.54 473.38
273 0 61.0534 12.7921 781 107.983 570.583 474.14
274 0 61.0277 12.142 741 110.858 570.267 471.857
275 0 61.0277 12.1748 743 134.9 570.254 471.834
276 0 61.0281 12.2239 746 134.314 570.231 471.701
277 0 68.0836 12.2496 834 110.542 570.511 468.556
278 0 68.1215 11.2006 763 114.203 570.478 466.807
279 0 71.0768 12.9297 919 110.621 571.091 466.771
280 0 74.1577 12.9319 959 110.327 571.038 464.69
281 0 75.0943 11.5455 867 114.389 570.7 464.185
282 0 80.1258 12.8548 1030 112.532 570.873 460.954
283 0 83.1132 12.6334 1050 113.547 571.19 461.759
284 0 84.1055 11.6639 981 117.174 571.064 459.453
285 0 89.1026 13.9727 1245 111.723 571.135 457.994
286 1 48.0812 12.1877 586 111.225 572.167 476.645
287 0 48.1041 11.0178 530 111.44 571.866 474.683
288 0 49.0632 10.2113 501 108.455 571.701 476.194
289 0 49.0798 10.6561 523 111.925 572.002 477.317
290 0 51.0928 11.2736 576 110.335 571.92 476.543
291 0 53.0893 11.3206 601 108.95 571.431 476.621
292 0 55.126 12.2084 673 107.091 570.999 474.47
293 0 56.0999 10.7309 602 110.143 570.85 474.779
294 0 57.15 12.6859 725 105.138 570.646 476.113
295 0 60.2031 13.2219 796 104.465 570.021 471.499
296 0 61.109 10.4567 639 110.21 570.376 470.54
297 0 64.1135 12.2283 784 106.367 570.315 470.116
298 0 66.1252 12.1588 804 105.77 570.771 470.751
299 0 70.2213 13.9559 980 101.338 570.38 468.317
300 0 72.2313 12.8199 926 103.851 570.167 468.369
301 0 74.1887 12.9804 963 103.124 569.875 466.079
302 0 74.2085 12.9365 960 133.028 569.853 466.065
303 0 78.156 11.976 936 106.328 570.529 461.197
304 0 84.1646 12.1191 1020 104.548 570.801 461.084
305 0 86.1731 12.1732 1049 102.819 570.847 460.63
306 0 89.1405 12.183 1086 102.343 569.813 458.658
307 1 44.0854 10.2755 453 102.684 571.192 481.466
308 0 45.1033 11.4182 515 103.361 570.689 478.019
309 0 45.2282 10.5023 475 100.872 570.368 481.96
310 0 46.0863 11.5869 534 100.953 570.597 478.948
311 0 49.1393 11.3758 559 99.6816 570.719 478.857
312 0 50.0194 12.3552 618 98.8479 570.896 478.23
313 0 50.0194 12.3152 616 132.666 571.877 478.239
314 0 52.1873 12.3019 642 98.6838 570.143 475.184
315 0 53.1411 12.4009 659 99.4734 569.37 474.108
316 0 56.1978 12.367 695 98.4676 570.34 475.506
317 0 56.1146 12.0111 674 99.1766 569.745 475.2
318 0 60.1791 13.3435 803 96.472 569.74 472.882
319 0 60.0643 12.2535 736 100.541 570.048 472.058
320 0 62.1122 13.4112 833 99.09 569.939 470.55
321 0 64.169 12.2956 789 101.777 570.058 471.872
322 0 66.0371 12.6141 833 102.669 569.681 469.794
323 0 67.11 12.7254 854 103.073 569.815 469.923
324 0 71.1569 14.6015 1039 100.398 569.673 467.934
325 0 72.2821 12.4097 897 105.441 569.705 469.137
326 0 70.223 10.9793 771 110.51 570.226 467.598
327 0 74.1595 13.8755 1029 104.262 569.426 467.801
328 0 77.1536 13.3241 1028 106.44 569.209 464.966
329 0 81.3375 13.5362 1101 106.213 569.699 464.845
330 0 83.2995 13.4815 1123 106.445 569.971 463.553
331 0 86.0898 13.9157 1198 107.168 569.91 461.08
332 0 90.2861 14.3765 1298 107.553 568.793 459.157
333 0 91.1897 13.8503 1263 109.593 568.663 457.249
334 0 92.1749 12.1942 1124 112.716 569.577 457.843
335 1 49.1402 11.803 580 107.8 569.203 481.05
336 0 51.0153 12.1924 622 108.971 569.659 478.637
337 0 53.1243 13.2708 705 105.769 569.121 477.546
338 0 56.0582 13.04 731 105.142 569.501 476.754
339 0 58.0632 13.1064 761 112.76 569.622 472.741
340 0 58.0389 12.9913 754 113.603 569.373 473.859
341 0 60.0564 12.6215 758 114.984 569.296 473.687
342 0 63.0449 14.1011 889 110.594 569.201 472.604
343 0 64.015 12.1534 778 117.496 568.55 469.356
344 0 68.0497 14.1808 965 111.785 569.056 469.085
345 0 69.1482 13.6952 947 114.988 568.847 466.873
346 0 73.1112 13.2264 967 114.89 568.675 466.757
347 0 74.0553 12.6257 935 116.927 569.302 466.883
348 0 78.1337 13.3489 1043 116.344 569.1 463.127
349 0 80.0227 13.6211 1090 116.333 568.829 462.466
350 0 81.0587 13.8295 1121 116.18 569.389 462.654
351 0 83.0819 13.0955 1088 116.672 568.868 462.03
352 0 87.0634 14.2425 1240 114.069 569.505 458.632
353 0 91.1267 13.6184 1241 114.977 569.237 458.23
354 0 93.1156 14.2296 1325 113.593 569.49 454.613
355 0 96.1416 12.596 1211 117.093 569.626 455.547
356 0 98.1616 12.4081 1218 118.595 569.328 454.662
357 0 102.163 13.0967 1338 117.671 569.735 451.087
358 1 53.0351 10.8419 575 112.379 570.002 478.306
359 0 53.0736 11.8326 628 112.162 570.303 476.537
360 0 55.1463 12.8386 708 108.884 570.223 476.549
361 0 57.0736 12.4576 711 110.305 570.713 474.672
362 0 58.028 12.0804 701 112.014 570.118 473.428
363 0 59.103 12.216 722 112.335 570.091 473.359
364 0 64.0437 13.3815 857 109.243 570.386 471.252
365 0 67.0918 11.924 800 112.346 570.182 470.762
366 0 67.0411 12.9622 869 111.221 570.802 470.483
367 0 69.0433 11.3842 786 116.667 570.126 468.592
368 0 72.0322 12.5083 901 114.708 570.204 467.224
369 0 77.1204 12.7593 984 112.815 570.246 465.899
370 0 79.2127 13.0661 1035 114.548 570.544 463.038
371 0 83.1268 12.7757 1062 115.481 570.535 463.792
372 0 83.1508 12.7118 1057 117.602 570.461 462.289
373 0 86.1578 12.953 1116 117.854 570.94 460.357
374 1 45.0324 11.7915 531 113.783 571.576 481.563
375 0 47.0977 11.2744 531 114.731 571.996 482.111
376 0 49.0681 11.8814 583 113.026 571.847 481.021
377 0 49.0665 11.087 544 110.515 571.322 480.316
378 0 49.1329 11.9675 588 109.464 571.56 479.272
379 0 53.0533 12.478 662 109.24 569.879 477.787
380 0 53.1303 12.4788 663 110.169 569.403 477.46
381 0 56.0668 12.4673 699 109.086 569.22 476.173
382 0 55.0427 11.8272 651 111.406 568.911 477.074
383 0 57.1014 12.5041 714 110.409 568.975 474.693
384 0 58.0419 10.9231 634 114.169 568.653 474.565
385 0 61.058 11.2188 685 113.561 569.565 472.75
386 0 63.0967 11.9658 755 111.654 569.45 471.897
387 0 64.1174 12.4147 796 110.372 569.19 472.477
388 0 68.0496 12.0647 821 110.588 569.197 470.467
389 0 69.1439 12.0184 831 111.562 568.764 468.763
390 0 71.0601 11.9476 849 111.746 568.498 467.065
391 0 75.1084 12.5951 946 110.022 569.077 464.752
392 0 77.0323 12.3714 953 110.51 568.885 464.643
393 0 79.1005 10.9355 865 113.459 569.001 462.935
394 0 81.0998 11.6646 946 111.892 569.568 462.121
395 1 44.059 9.94122 438 110.288 568.813 482.749
396 0 43.0303 10.8993 469 112.051 569.07 480.761
397 0 46.0449 10.9024 502 114.663 568.811 477.494
398 0 48.0397 12.3439 593 110.99 568.867 476.988
399 0 47.0442 10.7771 507 108.485 570.199 479.122
400 0 46.0561 8.90219 410 112.402 569.939 478.446
401 0 49.0489 10.2347 502 108.643 570.046 479.299
402 0 52.0288 11.5321 600 106 569.973 478.367
403 0 53.0508 10.1412 538 109.091 569.63 476.901
404 0 56.0652 11.4688 643 105.162 569.215 477.689
405 0 57.0849 11.7544 671 105.134 569.431 475.416
406 0 57.0937 10.1412 579 108.889 569.649 474.413
407 0 59.0449 10.8731 642 106.709 568.754 472.534
408 0 62.0753 11.9049 739 108.894 570.924 471.767
409 0 65.1141 11.2725 734 110.038 571.063 471.492
410 0 67.1524 12.6578 850 106.972 571.605 468.415
411 0 70.2133 12.0632 847 108.74 571.104 466.962
412 0 73.2795 12.5956 923 108.185 570.998 467.044
413 0 74.1707 12.6061 935 109.813 571.333 465.409
414 0 76.3851 11.3766 869 111.832 571.109 465.931
415 1 44.1105 10.6324 469 109.311 571.878 482.292
416 0 45.11 11.1727 504 109.113 572.077 480.159
417 0 45.0355 11.7241 528 100.095 572.131 480.917
418 0 45.0505 11.4094 514 101.802 572.111 481.839
419 0 46.1034 11.5827 534 102.933 571.667 478.854
420 0 47.0916 11.552 544 115.061 571.671 478.366
421 0 49.116 11.2794 554 109.202 571.235 477.406
422 0 50.1303 11.9289 598 108.13 571.145 475.771
423 0 52.1226 11.4154 595 110.166 571.363 475.279
424 0 54.0516 11.6185 628 109.438 571.347 476.25
425 0 55.1051 12.4671 687 107.541 570.718 474.159
426 0 57.1056 12.4506 711 107.174 571.044 473.454
427 0 59.1527 12.5269 741 106.865 570.706 474.914
428 0 59.2293 12.038 713 108.738 571.102 473.931
429 0 63.2327 13.0787 827 105.284 571.443 471.837
430 0 65.1008 13.7018 892 104.877 570.608 469.844
431 0 67.3386 13.5435 912 104.532 571.34 469.171
432 0 68.2884 12.9597 885 106.212 570.929 469.692
433 0 69.26 11.3197 784 112.415 570.793 468.267
434 0 73.3028 11.2547 825 110.079 571.521 467.699
435 0 76.2558 12.0647 920 107.438 571.312 468.522
436 0 76.2349 10.6513 812 109.021 571.392 467.127
437 0 80.1491 10.8423 869 108.499 571.135 463.759
438 0 83.1756 10.9167 908 107.021 571.405 462.251
439 1 46.0296 9.68942 446 99.3161 569.742 483.453
440 0 45.0273 10.9045 491 100.348 569.99 481.8
441 0 48.2187 12.0493 581 98.3115 569.654 478.468
442 0 51.0553 11.3211 578 99.3875 570.569 480.576
443 0 51.0723 11.8655 606 98.0924 569.774 479.49
444 0 52.1132 11.4942 599 100.447 569.439 479.078
445 0 56.0928 11.1423 625 102.978 569.542 477.4
446 0 57.0442 12.7094 725 98.3876 569.487 477.24
447 0 57.0856 11.2112 640 102.745 568.969 476.22
448 0 59.1857 13.6351 807 97.9901 569.926 474.223
449 0 62.1369 13.2289 822 98.7007 570.114 473.403
450 0 63.1012 11.8064 745 103.048 570.286 471.71
451 0 65.1229 12.2998 801 102.031 570.271 470.084
452 0 69.0385 13.2969 918 106.024 570.833 468.717
453 0 70.0738 10.9171 765 111.485 571.677 470.101
454 0 72.0649 14.2233 1025 105.228 571.144 467.182
455 0 75.0845 12.8389 964 107.527 570.868 465.02
456 0 77.0509 12.0959 932 110.041 571.014 463.658
457 0 81.1138 13.0927 1062 107.925 570.731 461.679
458 0 83.0967 12.9247 1074 108.698 570.367 462.384
459 0 86.1438 11.8871 1024 110.946 570.04 462.056
460 1 45.0579 11.341 511 104.818 569.245 481.714
461 0 46.1022 11.4745 529 104.253 571.134 481.263
462 0 48.1791 11.5818 558 104.801 572.177 477.83
463 0 50.0323 10.6331 532 104.848 570.09 480.011
464 0 49.0665 11.5354 566 106.127 569.657 477.382
465 0 52.0212 12.764 664 103.527 570.679 476.557
466 0 55.0546 12.8418 707 104.734 569.187 474.86
467 0 55.0573 12.0602 664 107.649 568.994 472.895
468 0 57.132 11.5522 660 107.43 569.889 475.282
469 0 59.0835 12.3892 732 105.268 569.351 473.234
470 0 60.0986 11.9803 720 107.521 569.511 472.131
471 0 62.0575 12.5368 778 105.263 569.576 473.456
472 0 65.063 13.1872 858 103.825 569.047 470.359
473 0 66.047 12.0974 799 106.418 570.155 468.384
474 0 68.1756 12.2038 832 103.167 570.178 468.811
475 0 72.0503 12.5884 907 104.48 570.736 467.4
476 0 76.1962 14.2264 1084 100.515 570.622 465.581
477 0 78.1948 14.4639 1131 99.336 570.12 466.088
478 0 80.2604 13.4687 1081 101.801 570.478 464.366
479 0 83.2209 12.4128 1033 102.159 570.189 461.991
480 0 88.0458 12.255 1079 102.063 569.899 462.2
481 0 90.1483 11.9248 1075 103.45 569.587 459.411
482 0 94.1033 12.9857 1222 105.936 569.723 456.534
483 0 95.2974 10.9657 1045 112.632 569.307 457.511
484 0 98.2623 11.8051 1160 112.275 569.751 452.805
485 0 100.123 9.8479 986 109.424 569.229 454.433
486 0 105.277 12.0824 1272 104.744 569.361 450.755
487 0 109.17 11.2118 1224 106.327 570.384 449.153
488 1 54.1482 11.3577 615 100.177 569.535 474.364
489 0 56.1194 10.05 564 102.621 569.77 474.257
490 0 57.0734 11.4239 652 100.282 570.138 472.853
491 0 58.0953 9.79425 569 102.944 569.728 473.046
492 0 63.1393 11.6884 738 98.0827 569.812 471.522
493 0 66.0841 11.4854 759 98.17 569.681 469.997
494 0 66.1447 12.1249 802 97.4352 569.908 468.51
495 0 69.1496 10.8171 748 99.6578 570.245 467.561
496 0 73.1617 11.3994 834 97.3106 569.458 465.6
497 0 72.1267 9.21989 665 102.406 569.8 465.189
498 0 77.1594 12.2863 948 97.0759 570.152 462.303
499 0 82.0919 11.6455 956 96.9247 570.192 463.143
500 0 84.1904 11.7709 991 99.4319 569.755 459.015
501 0 87.2143 11.9246 1040 100.791 569.654 460.613
502 0 91.1906 11.4705 1046 102.008 569.867 459.035
503 0 91.2016 10.2301 933 105.503 570.745 455.953
504 1 51.0954 10.6467 544 99.2353 570.412 477.752
505 0 53.1288 11.538 613 98.2431 569.571 474.387
506 0 55.1337 10.9552 604 98.6142 569.646 474.333
507 0 57.0463 11.3066 645 103.378 571.958 473.338
508 0 58.0455 11.2498 653 103.328 572.196 473.348
509 0 58.0455 11.2326 652 120.718 572.206 473.506
510 0 63.1173 12.358 780 102.909 571.583 470.558
511 0 65.0819 12.1385 790 102.671 571.587 470.896
512 0 67.0465 12.2751 823 103.533 571.226 468.92
513 0 70.0834 11.0868 777 107.44 571.582 466.565
514 0 73.1858 11.6963 856 106.556 572.346 467.319
515 0 74.1714 12.0532 894 107.508 572.017 465.389
516 0 77.181 11.92 920 107.557 571.221 464.949
517 0 81.0751 11.3722 922 108.9 571.6 464.563
518 0 85.2373 12.5649 1071 106.605 571.798 463.364
519 0 87.2871 12.1782 1063 108.852 571.729 460.647
520 0 88.2245 10.3373 912 113.17 571.435 459.838
521 1 46.0553 9.90113 456 107.331 571.45 482.421
522 0 48.1171 11.9916 577 101.967 570.924 481.035
523 0 47.0924 11.4456 539 105.538 572.082 479.627
524 0 49.0286 11.3403 556 101.75 570.381 480.291
525 0 50.0867 10.4619 524 104.49 571.212 479.458
526 0 50.0667 9.20772 461 107.993 569.961 480.349
527 0 52.0465 10.6443 554 105.894 570.726 478.094
528 0 55.0827 11.2013 617 105.694 571.123 476.091
529 0 57.0786 10.8097 617 105.966 571.489 476.836
530 0 56.1549 10.3286 580 108.129 571.802 475.112
531 0 58.0695 11.4173 663 106.029 571.388 474.397
532 0 64.0566 13.6598 875 101.721 571.042 473.951
533 0 64.0987 12.4184 796 106.676 571.709 471.947
534 0 66.0903 11.1968 740 108.178 571.784 472.42
535 0 67.1297 10.3531 695 110.847 571.94 472.176
536 0 70.1214 11.309 793 109.293 572.31 469.812
537 0 73.1495 12.0438 881 107.763 571.325 467.856
538 0 75.0778 12.2673 921 107.505 571.476 468.027
539 0 76.1664 11.6587 888 111.949 571.119 464.905
540 0 79.0836 11.6333 920 113.045 571.323 462.984
541 0 82.1297 11.908 978 112.987 571.057 462.238
542 0 86.0683 12.0718 1039 113.424 571.138 461.245
543 0 88.1787 12.9737 1144 112.489 570.907 458.418
544 0 90.1625 11.7676 1061 116.076 569.946 457.166
545 0 95.3454 12.2817 1171 114.026 570.102 454.508
546 1 48.1773 9.44429 455 109.89 569.93 475.136
547 0 49.1799 9.57708 471 115.586 569.571 477.333
548 0 52.0196 12.3415 642 104.151 569.551 479.123
549 0 54.0138 11.9414 645 105.859 570.029 478.749
550 0 54.0297 11.7158 633 107.888 569.172 477.07
551 0 55.0645 12.5489 691 106.657 570.197 476.957
552 0 57.0359 12.7288 726 107.063 570.526 475.798
553 0 59.0209 13.0632 771 107.254 570.109 474.7
554 0 59.0838 11.6276 687 112.93 568.787 474.604
555 0 62.0534 12.8277 796 109.043 569.063 473.011
556 0 64.0723 12.4703 799 110.904 570.204 473.429
557 0 68.1584 12.8964 879 108.633 569.501 474.125
558 0 69.094 14.0823 973 107.441 569.959 471.429
559 0 71.1821 13.1494 936 109.482 569.673 470.792
560 0 71.1126 12.6982 903 112.917 570.78 468.904
561 0 76.0629 14.5143 1104 108.285 570.62 468.845
562 0 76.0629 14.5932 1110 144.626 570.605 468.877
563 0 81.1271 12.955 1051 111.73 570.099 468.054
564 0 83.1373 12.7861 1063 114.138 569.871 465.414
565 0 86.1619 13.7416 1184 111.948 570.075 465.242
566 0 91.208 14.1435 1290 111.317 571.347 459.959
567 0 92.2502 14.1897 1309 112.637 571.27 457.669
568 1 48.0564 11.32 544 118.631 572.114 479.816
569 0 52.1315 13.3125 694 114 571.756 478.363
570 0 50.019 12.0354 602 103.482 570.118 477.973
571 0 51.0368 12.54 640 115.036 568.92 478.852
572 0 55.0815 13.4346 740 110.053 569.788 479.708
573 0 54.0566 13.4304 726 113.456 569.751 478.956
574 0 55.0592 12.5865 693 115.98 569.872 479.01
575 0 55.1257 11.6461 642 118.938 570.263 477.508
576 0 59.1022 12.6391 747 116.649 570.21 476.696
577 0 61.1273 13.431 821 115.184 569.631 475.956
578 0 63.0924 12.6481 798 118.005 569.782 475.302
579 0 65.087 12.6446 823 119.654 569.891 474.301
580 0 66.1072 13.4025 886 118.713 569.42 472.407
581 0 67.0619 13.7634 923 118.61 569.405 470.212
582 0 70.0775 12.9571 908 119.959 569.509 471.481
583 0 73.1302 13.5375 990 118.698 569.554 469.774
584 0 76.0931 13.9829 1064 118.438 570.036 467.206
585 0 78.1295 14.1048 1102 119.346 569.477 468.114
586 0 82.2096 14.4387 1187 119.081 569.826 465.852
587 0 84.1265 13.7769 1159 121.487 569.908 465.016
588 0 86.1595 13.2777 1144 122.78 569.692 463.014
589 0 90.1615 14.2522 1285 119.577 570.092 462.567
590 0 93.1242 13.9706 1301 119.869 569.772 459.413
591 0 96.1807 13.1627 1266 122.409 569.786 459.325
592 0 99.1793 13.6319 1352 122.155 570.107 458.023
593 1 52.0763 12.3857 645 118.242 569.738 481.378
594 0 55.0409 12.845 707 117.338 570.089 478.948
595 0 55.0419 12.0454 663 115.869 569.401 478.703
596 0 56.1104 13.117 736 113.572 569.501 477.171
597 0 57.0685 11.8104 674 117.055 569.383 476.855
598 0 59.0795 11.9839 708 117.103 569.888 476.02
599 0 60.1187 12.625 759 116.191 569.603 475.7
600 0 63.122 12.7372 804 115.167 569.896 473.343
601 0 66.1949 13.2034 874 114.473 570.177 472.561
602 0 66.1282 11.5684 765 119.056 569.927 473.387
603 0 68.1889 13.4626 918 114.836 569.899 471.003
604 0 73.2996 13.7245 1006 113.523 570.367 469.519
605 0 75.2315 13.3189 1002 113.648 570.739 469.249
606 0 78.1938 12.3411 965 116.503 569.466 468.462
607 0 81.2835 13.619 1107 113.695 569.726 465.034
608 0 85.3571 13.2854 1134 113.298 569.511 466.29
609 0 85.3263 12.376 1056 118.082 570.595 462.412
610 0 90.3851 12.0484 1089 117.205 570.435 461.68
611 0 91.0535 12.597 1147 116.021 569.806 457.688
612 0 97.2215 12.3018 1196 116.699 569.84 456.401
613 0 102.182 13.701 1400 112.834 569.921 456.636
614 0 102.182 13.8087 1411 137.838 569.897 456.504
615 0 107.268 12.9955 1394 122.109 570.063 449.466
616 1 58.0687 12.4852 725 118.888 570.043 475.75
617 0 61.0848 13.293 812 116.102 569.554 475.748
618 0 63.091 12.4106 783 119.146 569.702 475.451
619 0 64.1216 12.102 776 120.823 569.626 472.976
620 0 66.1297 13.3072 880 118.424 569.793 472.524
621 0 69.0539 14.1773 979 115.638 570.092 471.034
622 0 70.1229 13.0628 916 120.648 569.365 468.79
623 0 71.0943 12.5467 892 118.836 569.407 470.333
624 0 74.1562 13.0535 968 117.368 569.156 467.514
625 0 76.0701 12.4622 948 119.604 568.85 468.386
626 0 82.0563 13.3323 1094 116.765 568.83 467.49
627 0 83.0999 12.4429 1034 120.397 569.385 464.603
628 0 87.2184 13.3802 1167 117.607 568.95 463.579
629 0 89.1286 12.8578 1146 119.893 568.764 461.133
630 0 93.1105 13.1994 1229 118.578 569.31 458.986
631 0 96.134 13.4916 1297 118.557 569.189 458.218
632 0 99.3622 13.8785 1379 117.761 569.84 457.183
633 1 53.1347 13.2682 705 114.367 569.458 480.339
634 0 51.0706 11.6505 595 121.514 569.123 479.837
635 0 56.111 13.1525 738 115.518 569.55 479.409
636 0 55.0487 11.9531 658 120.916 569.439 476.733
637 0 59.1448 11.8692 702 118.298 570.321 479.349
638 0 61.1796 12.9618 793 117.226 569.56 476.151
639 0 61.0677 12.5926 769 119.289 570.399 475.59
640 0 63.1885 11.7585 743 120.596 570.692 475.1
641 0 67.0615 12.6749 850 116.655 569.906 474.245
642 0 67.0537 12.5422 841 117.227 569.039 473.04
643 0 69.0884 12.0425 832 119.548 569.215 470.876
644 0 73.1181 12.7055 929 116.588 569.977 471.896
645 0 73.2232 12.0454 882 120.482 569.867 468.616
646 0 75.2841 11.9946 903 120.962 569.652 467.553
647 0 79.1921 12.7285 1008 119.253 570.452 465.964
648 0 82.0901 12.5837 1033 112.389 571.115 465.913
649 0 83.2011 12.0311 1001 114.583 570.532 464.336
650 0 85.0682 11.626 989 115.766 571.034 463.956
651 0 89.1163 12.1078 1079 114.711 571.004 461.098
652 1 49.0644 11.9435 586 110.87 571.326 481.978
653 0 50.0696 11.7237 587 112.555 572.426 481.123
654 0 52.0864 12.9017 672 108.546 572.112 480.872
655 0 52.0568 12.2558 638 110.429 571.926 478.569
656 0 52.048 12.2963 640 110.994 572.362 478.755
657 0 55.072 12.293 677 110.588 571.375 478.665
658 0 57.0945 12.4355 710 110.899 571.096 477.78
659 0 57.0328 12.6769 723 111.564 571.17 477.333
660 0 62.1167 14.3601 892 107.084 570.869 475.418
661 0 62.1317 12.4091 771 113.257 571.14 475.026
662 0 63.1499 12.5891 795 113.896 570.391 473.481
663 0 65.2689 12.7319 831 113.88 570.516 471.252
664 0 70.1111 12.7227 892 112.659 571.05 471.48
665 0 70.0909 12.8547 901 129.597 572.053 471.617
666 0 75.2352 13.2385 996 109.739 570.583 468.892
667 0 75.1568 12.2943 924 113.345 570.483 467.72
668 0 80.1379 13.926 1116 109.852 570.63 465.588
669 0 82.1795 12.9838 1067 112.304 570.804 464.117
670 0 86.1627 14.2637 1229 109.181 570.686 462.857
671 0 89.0669 13.0239 1160 112.469 570.465 459.79
672 1 45.0399 11.9006 536 111.631 571.157 483.185
673 0 45.0399 11.9228 537 135.38 572.145 483.182
674 0 50.0297 11.5931 580 122.221 570.784 480.605
675 0 51.1443 12.2985 629 120.561 571.431 479.86
676 0 52.0238 12.6673 659 119.812 571.423 479.528
677 0 52.0739 11.4837 598 117.781 571.346 480.052
678 0 54.1768 11.5732 627 117.831 571.485 479.246
679 0 57.1247 11.9913 685 116.743 571.66 479.882
680 0 56.1096 13.135 737 116.567 571.09 475.609
681 0 59.2119 12.8353 760 115.564 570.63 476.486
682 0 61.0693 12.0191 734 120.657 570.737 474.307
683 0 63.0818 12.032 759 117.518 571.451 475.794
684 0 66.1367 13.5477 896 113.815 571.199 472.945
685 0 66.0604 11.0808 732 118.321 570.926 474.124
686 0 69.0958 12.2149 844 114.897 570.398 472.051
687 0 73.1037 12.2292 894 114.376 570.957 470.265
688 0 76.0754 12.8031 974 112.354 570.651 469.111
689 0 78.0902 11.7684 919 115.259 570.777 466.139
690 0 82.1212 11.1908 919 115.369 571.212 466.979
691 0 85.0829 11.5534 983 115.85 570.714 465.1
692 1 44.0144 11.2009 493 112.552 571.154 484.014
693 0 44.0774 11.0941 489 105 570.051 476.382
694 0 45.0515 12.4746 562 105.393 571.224 482.18
695 0 47.0771 11.4281 538 108.294 571.4 481.807
696 0 49.0315 9.68766 475 110.956 570.598 482.396
697 0 49.059 11.4352 561 107.725 570.954 479.724
698 0 52.0372 12.1452 632 105.509 571.191 478.962
699 0 53.0692 9.91158 526 109.819 570.816 479.466
700 0 54.0497 10.4348 564 109.356 570.759 479.679
701 0 58.0809 12.3965 720 106.29 571.547 475.175
702 0 60.0686 11.8365 711 106.484 570.982 474.143
703 0 61.1137 11.8631 725 105.548 570.85 475.494
704 0 62.0804 11.9361 741 108.127 570.471 471.796
705 0 66.0955 12.7543 843 105.133 571.159 470.378
706 0 66.215 12.0819 800 107.205 570.15 470.594
707 0 69.1919 13.7299 950 104.145 570.823 466.911
708 0 73.1543 13.0273 953 105.65 571.02 467.042
709 0 75.1357 11.7521 883 107.87 570.967 467.412
710 0 77.0898 12.3363 951 107.403 570.575 464.041
711 0 80.0627 12.3403 988 107.268 570.915 464.562
712 0 84.1517 12.4299 1046 108.06 570.344 461.968
713 0 85.162 11.7188 998 110.122 570.054 461.4
714 0 91.1955 12.2045 1113 109.786 571.385 460.085
715 0 91.2229 12.5078 1141 111.135 570.861 458.824
716 0 96.1695 13.3618 1285 110.311 570.64 455.472
717 0 99.1134 12.1881 1208 118.403 571.613 456.954
718 0 101.175 13.0566 1321 117.594 571.361 451.061
719 0 106.15 12.0867 1283 119.456 571.284 451.362
720 1 52.1296 9.99432 521 118.169 569.572 480.063
721 0 55.0703 12.5294 690 109.61 569.496 478.513
722 0 58.0582 12.6597 735 111.392 569.39 477.11
723 0 57.0667 12.1262 692 113.988 570.075 476.777
724 0 61.0974 12.7829 781 111.853 569.055 475.406
725 0 64.1133 13.0238 835 111.552 568.857 474.541
726 0 66.082 12.9839 858 112.976 568.153 473.439
727 0 66.1241 13.021 861 115.096 568.743 472.528
728 0 68.0865 13.0569 889 115.629 568.836 471.714
729 0 71.0479 13.2868 944 114.779 569.126 469.369
730 0 74.048 13.3022 985 115.804 569.186 467.038
731 0 77.0765 12.8833 993 117.849 569.21 465.79
732 0 80.1628 14.6951 1178 113.425 571.091 465.328
733 0 82.2341 12.9995 1069 119.542 571.242 464.49
734 0 86.3631 13.7559 1188 117.335 570.848 461.499
735 0 90.1653 13.5862 1225 118.03 570.599 461.537
736 1 45.0653 10.9397 493 118.205 571.487 482.209
737 0 47.1733 11.9771 565 115.207 570.91 481.782
738 0 51.0187 12.9364 660 112.306 571.559 481.839
739 0 51.0175 11.4471 584 117.134 571.389 481.315
740 0 52.1176 11.6851 609 117.793 570.713 478.637
741 0 54.0406 12.065 652 116.865 571.279 478.117
742 0 56.0356 12.2065 684 116.655 570.963 478.292
743 0 58.1123 11.3401 659 117.349 571.08 478.851
744 0 60.0337 12.0432 723 118.503 571.593 476.404
745 0 62.0628 13.1319 815 116.933 571.634 473.486
746 0 63.0595 12.5754 793 118.995 570.977 472.837
747 0 67.0141 13.042 874 117.324 571.135 473.238
748 0 68.0425 13.5357 921 117.985 571.141 471.733
749 0 71.0448 12.6118 896 119.219 570.977 472.017
750 0 72.0644 12.5721 906 120.62 571.34 469.766
751 0 75.1034 12.5161 940 120.822 571.21 468.495
752 0 79.0824 14.0613 1112 116.05 571.199 467.176
753 0 80.0931 11.6864 936 123.113 571.298 467.728
754 0 84.1167 13.2554 1115 119.77 571.504 465.194
755 1 42.0194 10.6379 447 122.772 571.329 483.284
756 0 45.0623 12.7601 575 117.172 572.423 484.391
757 0 45.1383 11.3651 513 112.407 569.889 483.331
758 0 47.1455 11.3266 534 113.852 569.64 481.803
759 0 49.0957 12.5266 615 119.699 571.327 482.117
760 0 51.0613 12.1814 622 121.833 570.405 481.534
761 0 52.0542 13.0633 680 119.603 570.95 481.532
762 0 53.0685 12.8136 680 122.959 571.007 479.506
763 0 53.0597 12.6084 669 123.925 570.827 479.395
764 0 55.0507 12.5339 690 126.138 570.67 478.967
765 0 55.0868 12.6164 695 126.673 570.715 477.351
766 0 58.0607 13.572 788 123.694 570.68 476.374
767 0 59.0639 13.8833 820 123.002 570.41 478.037
768 0 61.1307 14.1664 866 124.643 570.742 474.928
769 0 64.0562 14.4092 923 123.648 570.662 474.301
770 0 64.1342 14.4385 926 124.174 570.97 474.607
771 0 67.1054 13.6353 915 128.291 570.964 473.471
772 0 69.1106 14.0644 972 128.092 571.047 472.715
773 0 71.1793 13.9928 996 128.175 571.077 469.679
774 0 75.1724 13.183 991 129.071 570.857 470.192
775 0 75.2425 13.7555 1035 130.192 569.7 468.721
776 0 78.2029 14.4624 1131 126.281 569.416 468.54
777 0 82.1939 15.0498 1237 124.297 570.178 465.941
778 0 84.1991 14.1213 1189 127.503 569.278 464.474
779 0 86.4716 13.8427 1197 124.704 569.051 460.213
780 1 49.0121 11.4462 561 117.025 568.586 484.2
781 0 48.0195 12.7656 613 118.892 569.543 481.884
782 0 53.149 12.1921 648 117.466 569.619 480.886
783 0 52.054 12.6023 656 120.745 568.413 479.174
784 0 52.0873 11.9031 620 123.531 568.31 478.321
785 0 55.1207 12.3728 682 121.051 568.796 478.532
786 0 59.1248 13.4461 795 116.111 568.766 478.533
787 0 59.0484 13.4466 794 118.04 568.127 477.106
788 0 60.1723 12.5805 757 120.33 568.214 477.209
789 0 62.0737 12.4852 775 120.79 568.714 475.725
790 0 65.0898 12.3061 801 119.216 568.769 474.803
791 0 67.1341 11.9909 805 120.067 568.796 473.814
792 0 68.0608 13.6349 928 117.227 567.794 472.489
793 0 70.0885 12.47 874 119.608 567.966 472.789
794 0 72.1722 13.6895 988 117.52 568.314 470.337
795 0 76.1331 12.8853 981 120.15 569.048 469.472
796 0 79.0752 13.4555 1064 117.634 568.43 468.559
797 0 81.1405 13.9018 1128 117.518 568.572 466.219
798 0 83.0945 13.6712 1136 118.342 568.383 464.174
799 0 86.1273 13.7935 1188 119.123 568.642 464.084
800 0 89.0807 14.1782 1263 117.595 568.606 463.549
801 1 46.0255 12.6017 580 116.767 567.8 483.929
802 0 48.0544 13.0269 626 116.209 567.859 482.201
803 0 47.0507 12.0933 569 111.067 570.158 483.455
804 0 50.1259 12.7678 640 108.391 570.564 481.706
805 0 49.0793 12.2659 602 112.108 570.256 481.664
806 0 51.1138 12.1102 619 111.738 569.606 482.37
807 0 52.0547 11.9298 621 113.969 569.47 479.874
808 0 54.1418 12.5965 682 112.801 569.258 480.535
809 0 58.1362 12.4535 724 112.369 569.681 479.396
810 0 58.2778 11.9428 696 114.411 569.902 477.668
811 0 61.1264 13.4475 822 110.405 570.495 476.687
812 0 64.0841 13.1234 841 109.76 569.904 476.316
813 0 65.1662 12.5218 816 111.806 568.879 474.276
814 0 68.1126 12.5821 857 111.439 569.511 472.714
815 0 69.152 11.8435 819 113.409 569.414 471.039
816 0 71.3116 13.1255 936 110.753 569.849 469.605
817 0 74.1993 12.0486 894 112.677 569.437 471.366
818 0 75.1998 12.5532 944 113.228 568.604 468.851
819 0 78.1216 13.1718 1029 112.024 569.006 467.59
820 0 78.1089 12.393 968 115.858 569.052 466.386
821 0 81.199 11.9336 969 116.775 568.948 464.237
822 0 85.1446 12.3672 1053 115.668 569.219 463.387
823 0 88.1681 12.5442 1106 114.948 569.34 460.782
824 0 92.1834 13.3864 1234 114.626 569.058 459.67
825 0 95.1696 14.1116 1343 114.226 569.757 456.678
826 0 99.1303 13.1241 1301 116.181 569.011 456.596
827 0 101.124 12.8951 1304 117.469 569.095 454.531
828 0 104.185 13.1881 1374 118.052 569.591 452.742
829 0 107.182 12.3901 1328 119.767 569.725 453.005
830 0 113.121 12.6413 1430 119.224 569.103 448.62
831 0 114.21 12.2669 1401 121.542 568.677 444.898
832 0 120.238 11.4606 1378 123.112 568.681 445.443
833 1 59.2875 10.4238 618 116.324 569.539 472.515
834 0 60.1599 11.137 670 113.903 569.118 471.94
835 0 63.0849 11.223 708 113.008 569.986 474.227
836 0 65.1095 11.2887 735 111.664 570.339 474.312
837 0 68.1174 11.304 770 112.409 570.264 471.362
838 0 70.101 11.0269 773 113.251 570.19 471.281
839 0 73.0877 12.3277 901 109.852 570.467 468.872
840 0 73.2022 10.5871 775 114.765 570.643 469.636
841 0 77.2032 11.6964 903 111.839 570.124 466.411
842 0 80.1507 11.7154 939 111.572 570.141 464.755
843 0 85.1218 12.0063 1022 111.306 569.903 465.572
844 0 85.1308 11.2533 958 112.899 569.844 464.824
845 0 89.1146 11.0307 983 113.712 569.627 461.925
846 0 90.1261 10.5075 947 115.207 568.846 457.278
847 0 94.2341 11.3971 1074 112.755 569.167 456.995
848 0 97.1291 12.1797 1183 110.685 568.606 455.883
849 0 102.175 11.079 1132 112.615 568.889 455.017
850 0 104.177 10.7509 1120 111.921 569.593 454.23
851 0 108.222 11.0606 1197 113.769 568.598 450.825
852 0 112.27 11.5436 1296 114.157 568.9 448.191
853 1 58.158 10.5918 616 110.709 568.484 474.138
854 0 61.1012 10.9818 671 108.765 570.434 473.502
855 0 65.07 11.5875 754 108.569 570.275 472.469
856 0 66.092 11.6202 768 107.848 570.819 471.837
857 0 68.166 12.4549 849 107.602 570.279 470.303
858 0 70.1614 11.2597 790 111.437 570.318 470.822
859 0 72.1483 12.5436 905 109.692 570.217 467.87
860 0 75.1685 12.1327 912 110.917 569.729 468.016
861 0 77.1703 12.2456 945 112.447 569.939 466.99
862 0 79.1905 13.1834 1044 112.267 570.104 463.83
863 0 81.1756 10.9762 891 117.774 570.081 463.896
864 0 85.1566 12.2128 1040 116.733 569.996 462.268
865 0 86.1597 13.0688 1126 115.63 569.899 460.026
866 0 90.1045 13.329 1201 116.181 569.576 459.688
867 0 92.2628 13.0714 1206 118.197 569.911 457.629
868 0 97.3407 11.0745 1078 126.891 569.199 454.115
869 0 99.2318 11.9216 1183 125.445 569.773 453.855
870 1 54.0601 10.5253 569 118.23 570.471 476.448
871 0 56.2693 10.9118 614 117.599 568.287 476.326
872 0 58.0899 11.3273 658 117.847 570.257 475.568
873 0 56.1058 10.9436 614 111.36 570.617 475.01
874 0 59.1235 11.383 673 110.253 570.994 475.073
875 0 60.1694 10.8693 654 111.891 570.855 473.08
876 0 61.1583 10.4483 639 113.147 570.609 474.013
877 0 66.1705 10.3369 684 112.969 570.719 472.317
878 0 66.1484 11.2021 741 110.244 571.042 471.329
879 0 69.1119 12.1542 840 109.264 569.988 469.14
880 0 72.1904 10.8463 783 109.019 570.103 467.349
881 0 74.1561 11.2061 831 108.357 569.602 466.745
882 0 76.1862 10.2775 783 111.936 568.737 463.978
883 0 76.1886 10.3165 786 129.683 567.744 463.92
884 0 79.2615 10.5726 838 115.415 567.976 459.78
885 0 82.3491 8.91327 734 117.203 568.255 461.805
886 0 81.328 8.59483 699 122.878 568.597 458.8
887 0 87.2345 9.81263 856 120.688 568.525 458.839
888 0 92.112 9.87927 910 120.457 569.016 457.516
889 0 91.2795 11.0211 1006 117.798 568.418 455.922
890 0 97.2888 10.6898 1040 120.408 568.829 455.085
891 0 99.2831 11.7039 1162 118.363 569.756 454.321
892 0 103.507 12.5016 1294 121.216 569.067 449.198
893 1 53.0758 9.74079 517 113.333 567.828 478.665
894 0 53.2156 10.0534 535 114.729 568.028 477.176
895 0 58.0887 12.1366 705 121.742 567.431 476.658
896 0 60.1516 11.9531 719 121.611 567.527 476.666
897 0 60.1862 11.6306 700 124.166 567.614 474.177
898 0 63.1045 11.7741 743 123.307 567.927 474.432
899 0 64.2321 12.159 781 122.088 567.665 473.565
900 0 65.1146 12.9003 840 120.745 567.739 471.705
901 0 67.112 12.8889 865 120.445 567.427 472.757
902 0 69.1766 13.0825 905 120.618 567.898 469.79
903 0 71.1365 11.9348 849 122.477 568.302 468.733
904 0 75.1572 13.4784 1013 118.377 568.157 469.65
905 0 75.1691 11.973 900 123.454 568.628 467.12
906 0 79.1857 13.4115 1062 118.619 568.671 466.529
907 0 79.2068 13.4332 1064 120.334 568.582 464.596
908 0 82.2083 12.6995 1044 122.258 568.391 464.77
909 0 86.1144 13.3195 1147 119.905 568.066 464.211
910 0 91.1272 14.0024 1276 118.534 568.735 461.747
911 0 92.2464 12.2064 1126 123.77 568.385 459.798
912 0 96.2869 13.5117 1301 119.246 568.823 457.956
913 0 99.2087 12.6299 1253 120.575 568.382 456.225
914 1 53.1125 11.278 599 118.885 568.159 478.249
915 0 55.2678 11.4533 633 121.49 569.175 477.649
916 0 58.1412 12.676 737 108.867 571.007 476.355
917 0 59.1153 12.3318 729 114.749 570.538 475.184
918 0 61.1243 12.4664 762 113.761 570.819 476.501
919 0 61.1061 13.4357 821 112.944 571.235 475.631
920 0 63.0646 13.7002 864 113.256 570.515 472.795
921 0 67.0564 13.1233 880 113.039 571.122 472.14
922 0 69.12 12.5434 867 114.484 570.622 469.307
923 0 72.1204 14.0459 1013 109.882 570.63 469.982
924 0 74.1243 13.7876 1022 110.993 569.793 468.663
925 0 76.1203 12.7561 971 113.098 570.426 468.079
926 0 77.1659 12.972 1001 112.636 569.17 466.574
927 0 81.2169 13.4332 1091 110.688 569.401 466.558
928 0 84.1773 14.1487 1191 110.49 569.227 463.326
929 0 89.1723 13.8944 1239 108.808 569.884 464.674
930 0 89.1369 13.7653 1227 111.127 569.682 461.761
931 0 94.1126 14.3445 1350 108.139 569.977 460.894
932 0 95.1868 12.4807 1188 114.008 570.035 457.343
933 0 100.148 14.0592 1408 109.518 569.956 457.865
934 0 103.139 13.8356 1427 110.34 570.217 454.707
935 1 54.076 12.8153 693 111.16 570.977 479.271
936 0 55.1131 12.6467 697 113.366 570.818 477.047
937 0 56.0337 12.2069 684 114.139 571.392 476.184
938 0 59.0357 12.3993 732 113.866 570.91 475.102
939 0 58.0479 12.5758 730 142.979 569.899 475.074
940 0 63.0266 14.0734 887 110.037 570.933 474.555
941 0 63.0189 12.6629 798 115.487 570.677 473.524
942 0 66.0649 13.5019 892 112.627 570.12 473.007
943 0 67.0901 12.9378 868 115.111 570.448 472.238
944 0 70.1212 13.548 950 113.832 570.724 469.914
945 0 72.1461 13.3618 964 115.463 569.816 469.075
946 0 74.068 13.0556 967 116.921 570.059 468.077
947 0 75.0507 12.6714 951 119.139 570.36 467.079
948 0 75.0666 11.643 874 124.3 570.267 463.627
949 0 80.1581 14.0472 1126 117.607 569.726 463.832
950 0 82.2166 12.2481 1007 123.123 570.448 463.588
951 0 86.2003 13.7819 1188 119.902 570.188 462.088
952 0 90.1562 13.2437 1194 120.599 570.192 462.518
953 0 93.3409 14.5274 1356 118.355 569.832 458.787
954 0 94.3886 13.2325 1249 122.664 570.082 459.371
955 0 95.4438 12.1118 1156 127.035 569.704 456.283
956 1 53.0827 11.8871 631 119.165 571.038 477.74
957 0 55.1246 11.7008 645 120.439 571.034 477.45
958 0 57.1295 12.6905 725 119.858 571.12 474.897
959 0 57.1139 12.0636 689 123.308 571.07 474.978
960 0 59.1381 12.9866 768 121.426 570.012 475.853
961 0 63.02 14.2971 901 115.877 570.871 475.916
962 0 64.1264 13.7229 880 119.602 571.351 474.543
963 0 65.1024 13.1792 858 121.287 570.495 473.087
964 0 66.2959 13.2135 876 121.477 570.675 473.264
965 0 71.2404 14.3739 1024 117.896 570.142 470.214
966 0 72.1453 13.4312 969 121.065 570.038 468.941
967 0 73.1336 12.7165 930 123.784 570.543 466.966
968 0 77.093 13.4124 1034 121.122 569.69 466.389
969 0 78.1455 13.5261 1057 121.705 569.203 465.53
970 0 83.3567 14.4439 1204 119.325 569.083 460.227
971 0 87.3212 14.1317 1234 120.325 568.267 458.807
972 0 90.2103 14.5881 1316 119.109 569.034 458.01
973 0 92.2621 13.3207 1229 122.91 568.937 458.431
974 0 94.2315 14.0081 1320 120.311 569.533 454.001
975 0 98.1486 15.2931 1501 115.238 569.724 446.294
976 0 102.278 13.6589 1397 119.422 570.019 444.021
977 0 105.237 14.0254 1476 118.244 570.352 441.648
978 1 55.0361 10.375 571 119.023 571.119 471.329
979 0 55.0878 11.4181 629 118.727 570.785 471.377
980 0 60.1361 12.8708 774 106.185 570.218 471.164
981 0 60.0614 11.6714 701 109.626 570.438 471.678
982 0 63.137 11.2454 710 111.123 569.493 470.604
983 0 65.1214 12.7454 830 116.201 570.249 471.088
984 0 67.0648 12.8682 863 116.309 570.581 473.577
985 0 67.1859 13.0087 874 117.357 569.852 472.3
986 0 72.1704 13.9254 1005 114.45 570.332 470.596
987 0 74.2018 13.6789 1015 115.733 570.636 470.418
988 0 75.2524 13.7139 1032 116.925 570.803 468.341
989 0 78.16 13.7027 1071 116.426 571.005 465.723
990 0 82.1908 13.8093 1135 116.893 570.876 465.589
991 0 85.1783 12.9845 1106 118.505 570.247 465.7
992 0 87.1816 13.0876 1141 120.855 570.592 461.92
993 0 92.2121 13.9678 1288 118.452 570.546 461.699
994 1 48.0527 12.3614 594 123.205 571.042 481.808
995 0 49.027 12.075 592 123.539 571.574 481.248
996 0 50.0439 13.1085 656 123.127 571.841 480.556
997 0 52.1266 12.6039 657 125.099 571.18 479.758
998 0 56.3 14.9378 841 117.498 570.166 479.703
999 0 55.2091 12.6066 696 129.264 570.103 479.487
1000 0 58.3592 13.2798 775 126.421 570.521 478.676
1001 0 60.1879 14.1058 849 124.517 570.132 475.789
1002 0 63.2509 13.5176 855 123.287 570.656 478.342
1003 0 63.3406 13.2459 839 125.461 570.403 476.487
1004 0 66.1839 13.6136 901 124.299 570.498 474.629
1005 0 66.3792 13.8146 917 124.61 570.246 472.655
1006 0 69.1208 13.8019 954 123.469 570.112 473.803
1007 0 69.1534 13.029 901 126.486 569.677 471.743
1008 0 73.2574 13.2683 972 125.557 569.755 470.609
1009 0 75.1667 13.6896 1029 124.716 569.842 469.201
1010 0 79.1327 13.0161 1030 122.013 568.53 466.413
1011 0 81.0831 15.1573 1229 119.028 568.107 465.228
1012 0 83.08 12.4458 1034 124.739 567.903 465.736
1013 0 87.1195 13.5217 1178 121.638 568.01 465.45
1014 0 88.102 12.8374 1131 125.935 568.14 461.037
1015 0 94.2603 13.8128 1302 122.843 568.588 460.356
1016 0 96.1952 14.6369 1408 121.658 568.733 457.706
1017 0 99.2492 13.6122 1351 125.9 569.224 455.52
1018 0 103.245 14.5963 1507 123.499 568.887 454.682
1019 1 49.1361 11.7836 579 125.658 569.693 481.634
1020 0 52.0937 12.6119 657 123.916 570.329 478.376
1021 0 55.1235 12.7713 704 120.92 570.324 481.423
1022 0 56.1602 13.9423 783 119.982 569.954 477.609
1023 0 57.2106 13.7562 787 120.582 569.931 478.027
1024 0 60.2122 13.3196 802 122.466 570.076 477.244
1025 0 62.2071 12.4262 773 124.188 570.107 475.374
1026 0 64.2179 13.0182 836 122.877 569.773 475.275
1027 0 66.2615 12.8732 853 123.41 569.543 474.202
1028 0 69.1175 14.4681 1000 121.274 569.278 471.473
1029 0 70.1519 13.9269 977 124.068 569.24 470.19
1030 0 72.2228 14.2614 1030 123.62 568.904 470.177
1031 0 76.1172 14.1886 1080 122.761 568.785 469.3
1032 0 76.0711 13.4874 1026 128.734 568.843 467.694
1033 0 81.2208 14.8361 1205 123.514 568.921 465.155
1034 0 81.2072 14.2845 1160 125.963 569.032 464.202
1035 0 85.1953 14.6252 1246 124.787 568.792 463.331
1036 0 87.2005 13.8187 1205 127.298 569.147 462.136
1037 0 90.2479 13.4408 1213 127.949 569.678 462.294
1038 0 93.187 14.369 1339 125.249 569.453 458.878
1039 0 96.195 14.2523 1371 125.352 569.194 457.142
1040 0 100.373 14.7848 1484 123.84 569.169 453.875
1041 1 50.1806 12.3554 620 126.589 569.711 479.665
1042 0 52.0442 13.1619 685 125.238 569.766 478.58
1043 0 54.0794 14.1274 764 123.094 570.183 477.106
1044 0 56.0612 13.9847 784 123.482 570.26 479.004
1045 0 58.0922 14.1327 821 123.613 570.574 477.592
1046 0 62.1218 13.554 842 123.988 569.966 476.629
1047 0 64.1708 14.29 917 122.028 570.051 477.034
1048 0 66.1474 13.4548 890 125.499 569.573 475.227
1049 0 69.1724 14.5578 1007 122.704 569.458 473.988
1050 0 69.274 14.1467 980 125.646 569.094 470.999
1051 0 71.2457 15.0746 1074 123.67 568.596 470.477
1052 0 74.1974 14.4345 1071 125.445 568.83 465.5
1053 0 76.149 14.708 1120 124.2 568.672 465.128
1054 0 80.1902 15.2388 1222 122.481 568.91 464.638
1055 0 82.4831 14.4757 1194 124.649 568.92 462.554
1056 0 84.4037 14.2766 1205 125.637 568.828 460.556
1057 0 87.1419 14.9641 1304 123.937 568.84 460.745
1058 0 90.317 14.3273 1294 125.051 568.833 457.772
1059 0 93.1288 15.1511 1411 123.182 569.098 456.496
1060 0 97.3946 14.929 1454 123.224 568.97 456.525
1061 1 48.164 14.4922 698 125.553 568.668 477.928
1062 0 50.1858 14.1474 710 126.275 568.946 475.668
1063 0 51.3421 13.0692 671 129.782 569.134 476.908
1064 0 53.1301 14.888 791 123.362 569.316 473.977
1065 0 55.39 15.8873 880 121.27 569.177 474.256
1066 0 56.2787 14.7125 828 125.915 569.151 472.068
1067 0 56.3653 14.1222 796 128.553 569.546 471.636
1068 0 60.3852 16.2457 981 121.854 569.773 470.306
1069 0 63.3266 15.1911 962 124.248 569.519 469.936
1070 0 64.3978 15.2179 980 125.316 569.133 471.115
1071 0 66.2714 14.6217 969 126.866 569.282 471.84
1072 0 67.4192 14.5359 980 127.463 569.14 470.755
1073 0 71.352 15.2624 1089 126.049 568.657 468.335
1074 0 74.4121 15.4007 1146 124.745 568.483 467.339
1075 0 76.3458 15.5215 1185 124.839 568.671 466.765
1076 0 78.457 15.9705 1253 123.648 569.006 465.474
1077 0 80.36 15.2937 1229 125.181 568.543 463.46
1078 0 82.5489 15.409 1272 124.447 569.028 464.267
1079 0 87.2609 15.5167 1354 123.876 568.919 462.268
1080 0 90.3926 16.3509 1478 120.633 569.179 460.182
1081 1 45.2508 13.9003 629 125.343 568.995 480.634
1082 0 46.168 14.1007 651 124.214 569.375 481.356
1083 0 48.2355 15.2792 737 123.33 568.678 479.619
1084 0 49.4315 13.7969 682 126.934 568.073 480.604
1085 0 51.1542 14.9743 766 125.615 568.791 478.512
1086 0 52.1374 14.9221 778 126.928 568.685 477.695
1087 0 56.3707 15.7529 888 124.167 568.869 476.734
1088 0 56.1184 14.8258 832 129.531 568.278 476.739
1089 0 58.523 15.9595 934 127.274 569.309 474.833
1090 0 59.1839 15.6799 928 130.444 569.324 474.038
1091 0 63.4512 16.7688 1064 125.797 569.063 473.836
1092 0 63.2932 16.5895 1050 130.52 568.83 469.855
1093 0 67.3569 16.4348 1107 129.966 568.032 470.639
1094 0 68.3136 16.4389 1123 132.358 568.415 468.881
1095 0 71.3944 16.4159 1172 131.809 567.769 467.904
1096 0 72.2896 15.4102 1114 135.969 567.805 468.326
1097 0 74.2589 15.7153 1167 135.202 568.319 467.963
1098 0 77.2333 16.6249 1284 133.889 568.442 463.724
1099 0 81.3328 16.5985 1350 133.134 568.357 464.521
1100 0 81.3533 15.3774 1251 138.358 568.756 463.127
1101 0 85.494 16.6444 1423 134.126 568.66 461.762
1102 0 88.2096 15.4745 1365 137.464 568.484 460.61
1103 0 92.1948 16.1397 1488 134.164 568.302 459.467
1104 0 95.2938 17.5877 1676 130.015 568.313 459.014
1105 0 99.1456 15.4722 1534 136.402 568.364 455.606
1106 1 53.061 13.7578 730 135.063 568.605 479.866
1107 0 54.0343 14.2872 772 136.588 569.297 476.953
1108 0 56.1158 14.3988 808 136.084 568.978 474.718
1109 0 59.0456 15.2594 901 132.749 569.003 473.474
1110 0 61.0702 14.0822 860 136.102 568.198 472.452
1111 0 64.0728 15.1703 972 132.255 568.315 471.909
1112 0 66.0779 14.498 958 134.275 568.26 471.363
1113 0 69.0891 14.6333 1011 133.347 568.947 470.037
1114 0 71.0746 16.2927 1158 129.889 568.445 466.887
1115 0 73.1745 14.4586 1058 134.76 568.718 466.871
1116 0 76.2694 15.4059 1175 131.48 568.387 466.401
1117 0 77.1125 14.4983 1118 134.872 568.715 464.096
1118 0 80.0631 15.263 1222 133.818 569.073 462.684
1119 0 82.0776 13.5847 1115 136.968 569.258 463.602
1120 0 83.031 14.5127 1205 136.855 568.974 460.637
1121 0 86.0835 13.6147 1172 139.352 569.359 458.759
1122 0 91.0788 14.9431 1361 135.426 569.045 455.638
1123 0 93.1128 14.2193 1324 137.161 569.156 455.809
1124 0 98.1224 15.0526 1477 135.488 568.747 452.587
1125 0 100.122 14.9318 1495 136.739 569.433 451.836
1126 0 104.191 15.2988 1594 136.647 569.348 449.152
1127 0 109.148 14.3933 1571 139.045 568.794 447.489
1128 0 111.082 14.1157 1568 140.986 568.773 445.41
1129 0 115.172 14.9255 1719 140.192 568.874 442.696
1130 0 119.212 15.0824 1798 140.716 568.742 440.073
1131 0 123.229 15.3616 1893 140.453 568.597 436.545
1132 0 130.197 15.7301 2048 138.917 568.535 436.733
1133 0 133.259 14.5806 1943 143.107 568.246 433.255
1134 0 136.233 14.5706 1985 146.044 568.108 431.46
1135 0 142.271 15.1331 2153 143.869 568.092 428.606
1136 0 147.193 14.4573 2128 146.465 568.538 425.996
1137 0 153.299 14.9642 2294 145.769 569.409 421.855
1138 0 157.291 14.5462 2288 147.469 569.001 420.531
1139 0 162.2 15.0678 2444 146.082 568.194 415.011
1140 0 168.186 13.8834 2335 150.069 568.664 411.611
1141 1 95.1074 12.2809 1168 143.915 568.518 446.719
1142 0 99.1953 11.9562 1186 144.212 568.715 444.362
1143 0 103.145 11.2367 1159 146.579 568.615 440.243
1144 0 104.236 11.0998 1157 147.642 568.827 434.91
1145 0 112.216 11.7541 1319 144.738 568.406 435.904
1146 0 118.104 12.3027 1453 141.847 568.249 435.938
1147 0 124.131 11.9954 1489 143.126 568.251 430.371
1148 0 131.32 13.2958 1746 140.926 567.679 432.873
1149 1 65.0815 10.6021 690 118.255 567.619 471.907
1150 0 64.0576 10.7559 689 117.707 568.367 471.473
1151 0 69.0618 10.6282 734 116.757 568.463 470.337
1152 0 71.0356 10.0795 716 118.233 568.655 469.433
1153 0 72.065 9.51919 686 119.558 567.739 466.975
1154 0 76.0678 9.63614 733 118.782 568.119 466.497
1155 0 79.1421 10.8033 855 116.361 568.378 462.72
1156 0 82.131 10.7268 881 114.984 568.915 463.552
1157 0 84.1771 10.1453 854 116.781 568.816 461.167
1158 0 90.284 10.3008 930 114.595 569.324 460.054
1159 1 48.1271 11.4696 552 109.547 569.596 478.813
1160 0 49.2359 9.48494 467 117.981 569.668 477.079
1161 0 49.0907 9.1056 447 119.322 569.642 477.168
1162 0 52.1339 9.41805 491 118.752 569.354 477.285
1163 0 50.1529 8.27469 415 123.125 569.798 473.108
1164 0 56.1045 9.09017 510 118.773 569.484 477.243
1165 0 56.1587 10.4169 585 117.494 569.935 472.215
1166 0 59.1565 9.26356 548 120.245 569.281 473.414
1167 0 61.1131 9.99785 611 119.56 569.8 471.789
1168 0 62.105 8.72715 542 122.788 570.066 470.048
1169 0 64.0615 10.365 664 120.574 568.873 467.745
1170 0 66.0427 9.35758 618 122.997 569.864 470.296
1171 0 68.0528 8.89015 605 125.545 570.532 466.033
1172 1 34.0077 8.0276 273 119.256 570.718 486.352
1173 0 36.0229 8.77219 316 117.959 569.959 485.028
1174 0 37.0382 9.28771 344 115.799 568.779 484.738
1175 0 37.0312 9.80254 363 109.791 568.579 485.154
1176 0 38.0514 10.5647 402 110.274 567.9 484.983
1177 0 39.0703 9.52129 372 113.253 568.18 484.358
1178 0 40.1566 8.9898 361 115.878 567.934 483.161
1179 0 41.1834 8.93563 368 126.364 567.215 482.272
1180 0 44.1241 8.74806 386 125.231 567.047 482.368
1181 0 45.0472 10.0783 454 122.295 567.018 478.822
1182 0 46.0754 10.396 479 121.251 567.086 477.929
1183 0 49.0379 10.3797 509 121.018 566.902 479.043
1184 0 51.1691 9.47838 485 122.515 567.113 479.002
1185 0 50.1015 10.7582 539 121.095 567.54 477.653
1186 0 52.0451 10.3564 539 120.831 567.124 477.353
1187 0 55.0616 11.1148 612 119.453 567.319 475.645
1188 0 54.0792 10.2257 553 122.479 566.705 477.517
1189 0 55.0681 10.6959 589 121.267 567.475 476.45
1190 0 57.0335 9.62592 549 123.709 566.954 475.729
1191 0 58.0547 9.90445 575 124.391 566.56 472.727
1192 0 63.0996 12.3139 777 118.366 567.255 473.066
1193 0 62.0864 10.0666 625 124.053 566.936 474.403
1194 0 68.1004 10.8076 736 120.065 567.105 471.864
1195 0 66.1728 9.89833 655 123.504 568.284 472.168
1196 0 67.1629 10.0949 678 123.305 567.553 471.109
1197 1 37.0331 9.77503 362 120.586 567.11 482.956
1198 0 36.0473 10.1533 366 120.527 566.902 482.546
1199 0 38.1551 10.2476 391 119.169 567.217 482.982
1200 0 39.0336 9.42779 368 121.728 570.573 483.617
1201 0 40.0195 10.5448 422 118.083 570.616 485.194
1202 0 42.0894 12.2596 516 114.267 570.766 483.841
1203 0 42.0278 12.0396 506 116.229 570.615 483.988
1204 0 42.1569 10.9828 463 115.702 567.544 482.965
1205 0 45.1093 12.2148 551 111.8 567.475 481.65
1206 0 45.187 11.4192 516 114.705 566.907 480.688
1207 0 46.1556 10.8546 501 117.916 567.625 480.743
1208 0 48.1496 11.1112 535 118.215 567.615 479.224
1209 0 49.1028 12.036 591 116.876 567.403 478.53
1210 0 53.1958 12.1438 646 115.167 566.992 477.601
1211 0 52.182 12.9547 676 115.293 567.283 475.504
1212 0 54.1314 12.5066 677 116.388 567.749 477.27
1213 0 55.1534 11.8034 651 119.899 567.335 476.793
1214 0 56.1692 11.59 651 121.253 567.051 475.194
1215 0 59.1938 12.8899 763 118.484 566.586 473.632
1216 0 60.1643 12.8149 771 118.109 566.882 472.455
1217 0 64.2734 13.8004 887 113.699 567.308 472.589
1218 0 66.2754 13.0365 864 115.942 567.574 472.206
1219 0 66.2025 13.7608 911 115.557 566.97 469.146
1220 0 67.1041 12.6669 850 119.402 567.365 467.889
1221 0 69.1051 12.6763 876 118.708 568.309 468.307
1222 0 73.1049 14.103 1031 114.152 568.301 468.862
1223 0 75.0509 13.1244 985 116.803 568.19 467.106
1224 0 75.197 12.4473 936 118.595 567.362 464.583
1225 0 80.1747 13.3209 1068 115.675 567.478 462.811
1226 0 81.1529 13.2096 1072 116.447 567.195 464.359
1227 0 85.2021 11.995 1022 117.94 567.251 463.094
1228 0 87.1303 12.5444 1093 117.963 568.454 462.775
1229 0 88.1435 11.243 991 122.583 569.592 459.357
1230 0 92.2633 10.7085 988 122.72 568.74 459.774
1231 0 98.2923 12.1881 1198 117.245 569.387 456.21
1232 0 99.4552 12.0054 1194 118.353 569.364 455.847
1233 0 101.355 11.3167 1147 120.61 569.06 456.348
1234 1 53.0168 12.0528 639 119.725 570.321 475.801
1235 0 55.0334 12.4833 687 118.515 570.295 475.416
1236 0 57.0239 12.6789 723 117.484 569.686 475.595
1237 0 59.092 13.2844 785 116.082 569.006 473.806
1238 0 60.0893 12.3982 745 118.907 569.083 472.923
1239 0 63.0549 13.401 845 115.348 569.198 472.612
1240 0 66.1937 12.69 840 116.149 568.818 472.643
1241 0 66.1697 13.284 879 111.168 569.281 472.433
1242 0 69.1535 11.6263 804 114.42 569.572 470.996
1243 0 67.1947 11.3253 761 116.444 569.167 469.854
1244 0 72.1506 11.5037 830 114.152 568.773 470.225
1245 0 74.2003 12.0619 895 112.477 569.513 470.099
1246 0 78.1369 11.9406 933 109.423 569.79 468.722
1247 0 81.0998 11.677 947 110.126 569.424 464.805
1248 0 85.1652 12.4581 1061 107.81 569.312 464.704
1249 0 88.11 12.6546 1115 107.151 568.831 461.478
1250 1 45.0302 11.2147 505 107.202 569.834 483.935
1251 0 45.0551 11.7634 530 106.058 567.93 484.332
1252 0 45.0675 10.7616 485 110.002 566.066 481.577
1253 0 47.0708 13.639 642 103.245 566.612 479.914
1254 0 48.162 11.4198 550 109.144 567.085 478.936
1255 0 49.0712 11.5139 565 109.819 567.108 479.248
1256 0 49.2103 11.8674 584 112.604 566.337 477.783
1257 0 53.1519 12.4737 663 108.211 566.875 478.027
1258 0 53.1694 12.4132 660 110.017 566.909 477.432
1259 0 54.2146 12.2292 663 110.796 566.789 476.089
1260 0 57.0785 12.2113 697 112.143 569.033 476.802
1261 0 60.0481 12.3235 740 110.859 568.427 475.597
1262 0 62.0486 14.0052 869 107.453 568.299 473.394
1263 0 63.0426 11.5636 729 112.833 568.668 474.908
1264 0 66.1507 12.8646 851 110.304 568.981 473.439
1265 0 69.1267 12.2963 850 113.841 568.849 472.914
1266 0 72.0762 14.1239 1018 109.278 569.15 470.277
1267 0 75.0872 14.1968 1066 109.383 569.171 468.654
1268 0 77.257 13.824 1068 111.378 569.075 468.76
1269 0 78.1108 13.6601 1067 112.364 568.231 466.806
1270 0 82.0954 13.935 1144 111.536 568.146 466.103
1271 0 86.2078 13.4211 1157 112.882 567.799 464.522
1272 0 87.2229 13.1502 1147 114.887 568.508 462.704
1273 0 92.1604 13.802 1272 113.066 568.417 461.41
1274 1 46.1424 11.7462 542 117.065 568.336 482.738
1275 0 46.1287 11.0127 508 113.571 568.169 479.185
1276 0 49.3428 13.3353 658 112.96 567.336 478.521
1277 0 49.1453 12.3104 605 118.922 567.932 478.982
1278 0 51.3419 13.4588 691 114.055 566.864 479.737
1279 0 52.2206 14.1898 741 114.289 567.34 475.224
1280 0 54.3535 12.4371 676 118.28 566.95 476.703
1281 0 57.3058 14.0998 808 111.521 566.75 477.063
1282 0 59.2375 13.3699 792 114.905 567.479 474.164
1283 0 60.248 12.7473 768 115.527 569.84 475.691
1284 0 63.1524 15.0588 951 109.983 569.093 474.228
1285 0 65.1765 12.4738 813 116.51 569.665 472.705
1286 0 67.1905 13.8115 928 114.248 569.536 471.412
1287 0 69.1432 13.8842 960 114.177 569.232 469.949
1288 0 68.2237 12.972 885 118.247 569.524 469.599
1289 0 73.338 13.84 1015 113.911 568.738 470.536
1290 0 75.2549 12.544 944 117.656 569.169 467.892
1291 0 75.2232 13.4533 1012 115.542 569.447 467.282
1292 0 77.1527 12.8706 993 115.656 569.399 468.449
1293 0 81.1469 13.8145 1121 114.52 569.47 464.917
1294 0 80.1264 10.1714 815 122.238 569.477 464.524
1295 0 86.2115 13.1305 1132 113.307 569.154 458.594
1296 0 88.1365 12.0268 1060 116.307 568.612 458.328
1297 0 92.192 14.1227 1302 109.839 567.846 450.153
1298 1 45.094 10.1787 459 111.911 566.166 476.362
1299 0 47.1063 10.8903 513 110.934 566.481 474.209
1300 0 49.0292 11.4829 563 109.336 566.027 476.671
1301 0 52.0229 11.9947 624 107.877 566.582 476.327
1302 0 51.0256 11.0729 565 110.563 566.669 476.064
1303 0 51.0277 10.896 556 112.079 565.942 475.606
1304 0 56.0843 11.5897 650 109.602 566.788 473.652
1305 0 57.058 11.3218 646 108.777 566.399 475.392
1306 0 57.0844 11.4742 655 110.719 566.795 472.556
1307 0 60.0395 11.7922 708 108.339 567.056 472.592
1308 0 62.2472 11.9684 745 106.593 567.266 468.226
1309 0 63.2626 11.9186 754 107.688 566.78 467.163
1310 0 65.129 11.5156 750 109.789 566.939 466.392
1311 0 65.1716 11.1245 725 111.163 566.957 466.734
1312 0 68.2395 11.7381 801 109.759 566.981 465.007
1313 0 71.2324 11.0905 790 110.611 567.108 465.014
1314 0 75.2255 12.9211 972 106.371 566.917 460.43
1315 0 79.2061 11.9562 947 108.766 566.709 461.775
1316 0 80.3438 10.8783 874 105.788 567.219 460.002
1317 0 82.4484 9.76369 805 108.532 567.043 459.166
1318 0 84.2559 9.13882 770 110.227 566.803 458.547
1319 0 89.1554 11.351 1012 108.191 566.659 461.153
1320 1 46.1728 10.3091 476 107.964 566.603 479.071
1321 0 46.2047 9.67434 447 111.438 566.094 477.72
1322 0 49.1366 11.0305 542 106.952 566.972 478.419
1323 0 49.1366 10.9287 537 117.646 567.985 478.417
1324 0 54.119 10.366 561 102.513 568.695 475.964
1325 0 55.0237 11.6859 643 100.677 567.762 473.11
1326 0 58.0563 11.1616 648 101.23 568.167 473.38
1327 0 58.0301 10.1499 589 104.107 568.088 471.677
1328 0 62.0757 11.6148 721 99.2705 568.745 474.168
1329 0 65.1063 11.8575 772 99.3381 568.912 470.766
1330 0 67.1321 12.7659 857 97.2905 568.667 470.716
1331 0 66.0648 10.3989 687 103.604 568.466 470.472
1332 0 71.0532 11.4984 817 101.507 568.599 467.913
1333 0 73.0821 12.2055 892 100.159 568.328 467.433
1334 0 76.1775 11.9852 913 99.5904 568.125 468.809
1335 0 77.1974 11.4253 882 102.573 566.456 465.402
1336 0 78.2003 11.9181 932 128.633 565.406 466.235
1337 1 41.0865 9.44349 388 101.062 566.616 483.936
1338 0 45.0759 10.804 487 99.0144 567.864 479.366
1339 0 44.0286 11.0156 485 104.777 565.864 483.501
1340 0 44.0984 11.7691 519 110.025 566.123 482.509
1341 0 49.1281 12.0501 592 106.655 566.221 481.541
1342 0 50.1134 12.771 640 105.445 565.895 480.484
1343 0 51.1946 13.4389 688 104.975 566.398 479.551
1344 0 52.0893 12.9009 672 107.497 566.305 478.103
1345 0 52.3225 12.1936 638 109.829 566.277 479
1346 0 56.1738 12.6749 712 107.779 566.531 478.587
1347 0 56.1738 12.6927 713 143.795 565.501 478.623
1348 0 57.1489 12.7561 729 110.37 566.353 475.509
1349 0 60.2136 12.8044 771 110.324 567.327 474.987
1350 0 60.1616 13.9956 842 108.217 567.653 473.291
1351 0 63.4199 14.3015 907 107.222 568.301 472.702
1352 0 66.3281 13.5388 898 108.768 568.318 470.92
1353 0 68.1998 13.1085 894 110.136 567.855 469.36
1354 0 71.1103 13.9642 993 107.509 568.152 467.86
1355 0 74.4058 14.0043 1042 107.282 568.08 466.588
1356 0 75.2139 13.2023 993 109.347 567.791 466.907
1357 0 77.5603 11.9907 930 112.112 568.452 461.026
1358 0 83.6742 13.9828 1170 105.36 568.566 461.523
1359 0 84.4118 13.1617 1111 110.315 568.479 457.238
1360 1 45.192 10.8426 490 112.467 569.102 479.796
1361 0 43.1608 9.84689 425 111.247 569.296 479.781
1362 0 46.2096 11.556 534 107.099 569.375 477.981
1363 0 50.0553 12.1066 606 109.404 569.908 479.785
1364 0 50.0622 12.025 602 143.547 569.892 479.595
1365 0 52.0187 11.7073 609 111.657 569.828 479.363
1366 0 56.0525 12.97 727 108.344 570.395 477.724
1367 0 56.0525 12.8808 722 137.328 570.407 477.735
1368 0 57.0902 11.911 680 112.896 570.715 474.431
1369 0 58.1114 12.1835 708 112.773 570.446 474.398
1370 0 60.1043 12.6447 760 111.601 570.863 474.059
1371 0 61.0215 11.6189 709 114.058 570.602 472.392
1372 0 63.0456 12.8637 811 111.589 570.044 471.631
1373 0 66.0303 13.4635 889 110.281 570.24 469.772
1374 0 69.1174 12.8477 888 111.468 569.794 469.774
1375 0 73.1544 13.4237 982 109.366 569.33 469.92
1376 0 72.0593 12.2538 883 114.165 569.275 467.711
1377 0 76.0736 12.8165 975 112.421 570.072 466.998
1378 0 78.2983 12.976 1016 113.6 568.349 464.919
1379 0 81.1804 13.1313 1066 113.115 568.589 463.598
1380 0 85.3035 13.4109 1144 113.056 568.699 462.385
1381 0 87.2374 13.5149 1179 113.049 568.626 459.545
1382 0 91.4459 14.1067 1290 111.65 568.236 457.05
1383 0 93.3745 13.4084 1252 113.562 568.039 456.851
1384 1 46.2207 12.0725 558 110.043 568.839 479.491
1385 0 45.253 11.049 500 101.49 567.724 475.918
1386 0 49.1024 10.0199 492 95.9492 568.819 476.551
1387 0 48.0347 10.0761 484 97.3326 568.329 477.952
1388 0 49.0792 10.86 533 96.758 569.317 475.272
1389 0 52.0534 12.468 649 93.7797 569.729 473.45
1390 0 53.0483 11.6121 616 95.6705 569.817 473.401
1391 0 55.0621 11.4416 630 97.1603 569.095 472.414
1392 0 52.0448 10.0875 525 101.733 569.034 469.192
1393 0 57.096 12.0674 689 97.3919 568.73 470.489
1394 0 58.0974 11.4119 663 99.8914 568.44 470.549
1395 0 61.0611 11.4476 699 99.4349 568.202 470.175
1396 0 62.1012 10.9338 679 100.761 568.399 468.875
1397 0 66.0677 11.8363 782 99.6151 568.555 465.939
1398 0 66.1572 10.6564 705 102.955 568.773 466.57
1399 0 72.245 12.4438 899 98.3037 568.452 464.642
1400 0 72.0999 11.8586 855 100.767 568.772 462.827
1401 0 75.184 12.3697 930 100.295 568.338 462.195
1402 0 77.1597 12.2732 947 101.966 568.621 460.415
1403 0 81.0819 12.0742 979 101.604 568.531 459.143
1404 0 85.1463 12.1556 1035 102.102 568.083 458.885
1405 0 87.153 12.0363 1049 103.245 567.735 455.042
1406 0 91.1038 11.8546 1080 103.594 568.056 454.489
1407 1 49.0374 10.4206 511 98.9022 568.211 475.294
1408 0 48.1516 9.9062 477 102.857 568.447 472.751
1409 0 52.391 11.4905 602 104.711 567.249 472.249
1410 0 51.1936 9.88404 506 103.63 567.407 473.004
1411 0 53.0423 10.3879 551 101.804 568.29 474.111
1412 0 56.1212 9.85368 553 103.476 569.043 471.734
1413 0 56.0891 9.73451 546 103.643 568.396 471.57
1414 0 58.0872 9.83004 571 105.086 568.415 469.012
1415 0 60.1626 11.8845 715 102.182 569.157 466.253
1416 0 64.1945 11.8546 761 102.148 569.352 465.666
1417 0 66.0639 12.3214 814 102.549 568.941 464.937
1418 0 65.2133 10.7647 702 110.131 569.147 462.872
1419 0 69.1421 11.8886 822 107.144 568.14 462.119
1420 0 72.1873 10.9992 794 109.118 568.21 461.901
1421 0 74.0693 10.8142 801 110.04 568.378 460.699
1422 0 76.0843 10.4884 798 112.298 568.405 458.531
1423 0 80.2476 11.2278 901 111.445 568.382 457.976
1424 0 82.1638 12.1708 1000 106.644 567.721 458.737
1425 0 86.1743 12.1034 1043 108.919 568.566 452.836
1426 1 43.1111 10.4382 450 102.569 569.393 477.113
1427 0 43.2143 9.20991 398 103.819 569.852 475.99
1428 0 46.0202 10.7779 496 103.609 567.734 477.034
1429 0 48.0392 13.2392 636 105.605 566.558 476.057
1430 0 46.1294 10.8824 502 114.225 569.751 476.51
1431 0 49.0326 11.9716 587 110.857 569.629 476.814
1432 0 49.0341 13.0725 641 111.789 569.062 473.412
1433 0 52.1391 11.8529 618 113.191 569.484 473.002
1434 0 52.1391 11.8721 619 142.859 569.498 473.103
1435 0 55.0798 11.8737 654 113.468 569.667 473.274
1436 0 56.0734 11.699 656 114.912 569.835 471.514
1437 0 58.0622 12.2455 711 115.11 569.561 469.142
1438 0 59.0824 12.3049 727 116.224 569.146 468.74
1439 0 63.0808 12.159 767 114.974 568.709 468.894
1440 0 64.1226 12.1642 780 115.328 569.556 467.796
1441 0 68.0923 12.5565 855 114.136 568.901 467.351
1442 0 68.1074 12.216 832 116.508 568.463 466.24
1443 0 70.0698 11.931 836 117.733 569.374 465.055
1444 0 73.1537 11.9885 877 117.558 568.753 463.965
1445 0 74.1493 12.313 913 115.865 569.101 464.791
1446 0 77.2289 12.4176 959 116.628 568.926 463.391
1447 0 81.3354 12.2456 996 116.885 568.916 461.058
1448 0 83.1148 12.2361 1017 116.682 569.147 462.45
1449 0 85.1728 12.7153 1083 119.203 569.082 457.546
1450 0 88.2476 12.7029 1121 118.873 568.963 453.457
1451 1 49.2294 11.3753 560 114.525 568.291 473.762
1452 0 48.3242 11.5677 559 113.501 568.614 467.367
1453 0 50.1483 10.7481 539 103.095 568.367 469.788
1454 0 52.1452 11.1803 583 103.003 568.666 469.189
1455 0 50.1285 9.87463 495 107.741 568.939 469.406
1456 0 54.2129 11.3442 615 103.688 568.93 469.374
1457 0 55.1745 11.4908 634 104.47 568.866 467.855
1458 0 56.1356 11.4188 641 104.226 568.594 469.154
1459 0 57.2177 10.329 591 108.081 568.266 466.54
1460 0 59.1381 10.8898 644 107.991 567.803 464.621
1461 0 58.2101 10.9431 637 108.995 568.476 464.413
1462 0 64.1492 12.05 773 104.401 568.964 466.15
1463 0 60.0996 11.2314 675 109.75 568.539 459.664
1464 0 66.2144 11.8856 787 105.919 567.722 463.53
1465 0 68.2517 12.1316 828 106.179 567.161 460.547
1466 0 69.2303 11.1945 775 107.937 567.729 460.008
1467 0 73.1699 11.4118 835 107.58 568.376 459.568
1468 0 74.1843 10.8244 803 109.046 568.755 459.37
1469 0 78.3307 12.4728 977 106.429 568.389 456.415
1470 0 79.1939 11.2509 891 110.428 568.75 454.389
1471 0 82.259 11.5854 953 110.603 568.661 453.135
1472 0 86.3272 11.7228 1012 110.006 569.359 452.45
1473 0 90.2628 11.8986 1074 111.318 568.975 452.447
1474 1 46.0439 10.7072 493 114.931 569.511 476.529
1475 0 47.1509 10.6679 503 115.03 567.557 474.433
1476 0 50.0346 12.3914 620 113.055 566.977 475.692
1477 0 52.0481 12.7382 663 112.4 567.151 475.179
1478 0 52.1118 11.744 612 115.982 566.392 475.328
1479 0 54.1127 11.9011 644 115.592 566.821 474.759
1480 0 57.0423 14.1299 806 111.366 566.192 471.813
1481 0 59.0452 12.9731 766 114.248 566.67 471.983
1482 0 60.061 12.9868 780 115.542 566.79 471.392
1483 0 64.1114 14.1004 904 111.879 566.884 471.092
1484 0 65.0966 14.0407 914 112.801 567.021 469.088
1485 0 66.0711 13.5914 898 115.353 566.611 468.008
1486 0 66.0338 13.3871 884 117.45 566.655 466.761
1487 0 66.0338 13.3568 882 150.836 565.629 466.599
1488 0 71.1488 13.8161 983 117.945 565.975 465.138
1489 0 76.0924 13.7859 1049 116.029 566.752 463.864
1490 0 77.0818 13.8684 1069 117.354 566.903 462.361
1491 0 80.09 13.8594 1110 117.995 567.075 460.881
1492 0 80.0953 13.7836 1104 151.527 567.078 460.921
1493 0 87.1479 12.8861 1123 123.115 566.71 457.516
1494 0 90.0548 14.8243 1335 117.812 567.111 456.997
1495 1 43.1259 10.9911 474 122.34 567.291 477.833
1496 0 43.088 11.1168 479 120.785 567.543 472.188
1497 0 46.0309 11.4271 526 118.644 568.956 473.882
1498 0 48.0789 11.1899 538 119.015 569.069 476.242
1499 0 51.1595 12.1776 623 113.917 569.17 476.706
1500 0 50.12 11.9114 597 117.369 569.353 474.772
1501 0 53.0632 12.2118 648 115.867 568.761 473.856
1502 0 52.0626 10.6218 553 112.855 568.407 472.783
1503 0 56.0613 11.1485 625 110.459 569.168 470.862
1504 0 57.1136 11.5734 661 105.66 569.307 469.251
1505 0 59.2311 11.9701 709 105.241 568.449 469.566
1506 0 58.0615 10.7472 624 114.026 568.184 467.657
1507 0 59.3232 12.0358 714 111.511 568.406 467.66
1508 0 60.124 12.5075 752 110.584 568.749 467.823
1509 0 63.1155 11.4552 723 114.118 568.602 469.49
1510 0 62.0929 11.6438 723 115.7 568.285 468.473
1511 0 66.0793 11.8948 786 113.632 568.257 467.749
1512 0 68.0742 11.5022 783 113.729 568.977 465.888
1513 0 70.1669 10.5605 741 113.061 568.773 461.453
1514 0 74.0534 11.4512 848 110.4 568.282 460.315
1515 0 73.1801 10.563 773 112.777 568.062 459.11
1516 0 77.1458 10.8885 840 111.038 567.76 457.382
1517 0 79.1559 10.8899 862 111.633 567.352 458.763
1518 0 80.1849 11.3612 911 112.982 567.334 456.212
1519 1 46.0407 12.3369 568 116.234 567.815 479.333
1520 0 46.1798 10.9355 505 117.525 566.99 474.958
1521 0 48.0825 12.3954 596 113.366 567.122 471.867
1522 0 49.1893 10.856 534 114.758 567.195 473.225
1523 0 51.1097 11.2307 574 106.733 567.284 474.003
1524 0 53.1793 11.6399 619 107.738 567.622 472.712
1525 0 54.2263 11.4336 620 109.913 567.285 472.287
1526 0 55.1619 10.6958 590 112.998 567.242 472.91
1527 0 57.3231 12.6302 724 110.276 567.862 471.366
1528 0 58.2832 12.3363 719 112.798 567.502 469.341
1529 0 60.1657 11.834 712 115.302 567.132 469.806
1530 0 63.1799 13.2162 835 113.489 567.62 467.895
1531 0 64.2019 10.9654 704 120.266 567.645 468.109
1532 0 66.1846 10.8484 718 122.901 567.591 466.439
1533 0 68.2293 12.3847 845 121.164 567.737 465.312
1534 0 70.191 12.1241 851 124.09 567.556 464.929
1535 0 74.1835 12.6982 942 124.075 566.925 463.448
1536 0 74.2255 11.3573 843 131.13 567.224 464.329
1537 0 78.2795 11.5995 908 130.916 567.478 461.696
1538 1 39.1197 9.71378 380 128.3 567.405 480.168
1539 0 40.2531 9.86259 397 129.529 566.788 481.237
1540 0 43.1717 10.7478 464 135.019 566.897 480.463
1541 0 44.063 12.0055 529 142.032 568.197 483.064
1542 0 47.0294 13.0769 615 138.571 567.398 483.811
1543 0 49.0111 13.1603 645 137.847 567.481 482.219
1544 0 49.0699 12.8184 629 140.568 566.021 482.339
1545 0 51.0605 13.0825 668 138.69 565.903 479.714
1546 0 52.107 13.4147 699 139.306 565.478 478.95
1547 0 52.0847 12.4413 648 144.827 564.988 479.84
1548 0 55.0856 12.7983 705 143.84 564.776 478.756
1549 0 57.0327 13.5186 771 142.017 565.501 478.594
1550 0 58.0788 13.2923 772 142.905 564.767 478.251
1551 0 58.1105 12.9753 754 147.434 565.121 476.649
1552 0 62.0833 14.0134 870 143.057 564.539 474.759
1553 0 63.052 13.5444 854 143.871 564.73 475.377
1554 0 64.1307 12.8644 825 148.293 565.01 472.787
1555 0 68.1231 13.5637 924 145.052 564.701 472.66
1556 0 71.1618 15.4577 1100 138.116 564.164 471.51
1557 0 73.1452 14.6421 1071 141.188 564.538 470.803
1558 0 75.1546 14.1442 1063 144.276 564.727 468.701
1559 0 78.2402 14.6089 1143 141.051 564.953 469.031
1560 0 78.1549 14.0106 1095 145.098 565.74 464.819
1561 0 83.3707 14.2256 1186 142.573 565.38 463.773
1562 0 83.2604 13.5238 1126 146.246 565.582 463.042
1563 0 86.2263 13.5921 1172 144.052 565.303 459.067
1564 0 90.3766 13.4106 1212 142.807 564.903 460.502
1565 0 90.2009 12.0176 1084 141.801 564.901 458.704
1566 1 45.2303 9.81642 444 130.218 566.054 480.849
1567 0 45.3133 10.3502 469 139.173 564.851 476.874
1568 0 49.1137 11.7279 576 124.911 566.076 477.427
1569 0 50.0413 11.9701 599 123.584 565.938 476.504
1570 0 52.0653 11.063 576 126.021 565.656 475.059
1571 0 54.1074 12.8079 693 121.332 566.43 474.821
1572 0 53.1082 10.7893 573 128.527 565.745 473.098
1573 0 58.2582 12.0155 700 124.033 566.143 473.606
1574 0 60.1356 12.1392 730 125.978 566.152 473.289
1575 0 62.0569 12.5369 778 128.812 566.303 474.203
1576 0 63.1311 13.4165 847 126.779 567.017 474.843
1577 0 65.0598 13.2493 862 128.11 567.425 472.616
1578 0 66.0713 11.7903 779 131.773 566.991 471.376
1579 0 70.0691 12.7874 896 129.759 567.128 472.729
1580 0 72.0747 12.7229 917 131.627 566.119 470.467
1581 0 73.0219 12.599 920 133.09 567.158 468.875
1582 1 37.0451 10.3657 384 134.555 567.044 486.417
1583 0 40.0276 11.7419 470 129.143 566.964 485.638
1584 0 39.0741 9.82747 384 134.745 566.211 485.938
1585 0 41.0895 10.976 451 132.231 566.217 482.654
1586 0 42.1077 12.4443 524 128.666 567.135 483.702
1587 0 44.269 12.7855 566 128.092 566.83 482.58
1588 0 46.0594 12.6141 581 126.446 566.25 482.551
1589 0 47.2545 12.3163 582 133.031 566.069 481.99
1590 0 47.1479 12.8744 607 132.913 565.931 481.651
1591 0 48.0578 12.9219 621 133.419 566.126 481.002
1592 0 47.1478 11.3473 535 136.957 566.357 481.058
1593 0 52.0486 12.3154 641 129.431 566.757 480.507
1594 0 52.1178 11.3781 593 132.548 566.494 479.135
1595 0 55.1059 11.614 640 130.972 567.072 477.552
1596 0 57.1391 12.7758 730 128.588 566.793 476.579
1597 0 60.1851 12.1126 729 130.731 566.001 474.808
1598 0 62.2861 11.8807 740 129.519 566.304 472.281
1599 0 64.2108 12.5524 806 129.44 566.578 469.795
1600 0 66.2054 12.4461 824 131.636 566.124 471.426
1601 0 69.3512 12.8909 894 132.085 566.123 470.669
1602 0 70.2519 12.3982 871 134.844 566.084 469.653
1603 0 73.3874 13.1358 964 132.369 565.684 466.929
1604 0 73.4508 10.9869 807 140.171 565.582 461.656
1605 0 76.6627 11.7919 904 137.463 565.616 462.825
1606 0 79.5541 12.2055 971 136.218 566.04 462.15
1607 0 83.6281 12.0653 1009 136.786 565.822 460.329
1608 0 85.7151 12.3899 1062 138.745 566.054 456.807
1609 1 44.4383 11.5441 513 137.992 565.731 478.283
1610 0 45.2544 10.9161 494 138.504 565.289 475.231
1611 0 44.1888 11.4282 505 136.663 565.76 475.642
1612 0 46.203 11.6226 537 128.911 565.523 473.572
1613 0 47.0667 11.4518 539 128.692 564.967 475.787
1614 0 50.1685 11.7604 590 128.008 564.563 472.253
1615 0 52.0274 12.0129 625 128.051 564.864 475.562
1616 0 54.1485 10.6559 577 132.352 564.156 474.045
1617 0 55.0612 11.4781 632 130.226 564.117 472.356
1618 0 58.1829 13.956 812 122.587 564.643 473.15
1619 0 61.325 13.6812 839 122.352 564.71 472.312
1620 0 61.3254 12.2788 753 127.541 564.498 471.833
1621 0 64.3474 13.0852 842 124.64 564.543 469.044
1622 0 64.4256 11.8431 763 128.577 565.039 467.958
1623 0 68.4363 13.0194 891 123.89 564.962 466.896
1624 0 68.2162 12.5044 853 125.61 564.811 467.02
1625 0 71.4343 12.151 868 126.484 564.305 463.19
1626 0 73.3739 11.6118 852 126.251 564.246 464.836
1627 0 77.4691 12.9471 1003 122.984 564.579 461.983
1628 0 79.3722 12.4477 988 124.83 563.968 461.439
1629 0 80.3741 11.7824 947 126.812 564.042 459.231
1630 0 86.4333 11.3498 981 125.749 564.35 459.986
1631 0 88.378 11.6545 1030 127.11 564.002 456.393
1632 1 49.3363 12.2222 603 115.516 563.723 476.167
1633 0 51.3929 12.1807 626 116.391 564.099 475.339
1634 0 53.074 11.8891 631 123.609 563.092 475.531
1635 0 53.0639 12.3625 656 123.495 563.026 475.614
1636 0 56.0591 13.5393 759 119.319 563.452 474.474
1637 0 56.0851 12.8376 720 121.339 563.264 474.083
1638 0 57.1649 12.7876 731 121.263 564.272 475.434
1639 0 58.1699 12.601 733 122.67 564.398 472.944
1640 0 61.1103 13.2874 812 119.229 563.638 474.679
1641 0 62.1543 13.7722 856 119.79 564.254 470.085
1642 0 65.24 13.9792 912 118.557 563.496 471.331
1643 0 67.1308 12.6172 847 122.23 564.359 469.744
1644 0 70.3224 13.2959 935 119.736 563.347 468.288
1645 0 72.2364 12.5698 908 121.756 563.664 467.325
1646 0 74.2117 12.7743 948 120.801 564.013 463.716
1647 0 74.3737 12.6658 942 122.139 563.817 463.023
1648 0 79.2864 13.1801 1045 119.601 563.91 460.766
1649 0 82.2304 12.842 1056 119.574 564.203 459.134
1650 0 82.193 12.8843 1059 133.905 564.237 458.918
1651 0 86.34 12.6592 1093 119.658 564.767 454.321
1652 0 90.3334 14.059 1270 114.129 564.626 453.724
1653 0 94.2903 12.5676 1185 117.637 564.514 450.552
1654 1 49.2089 9.55113 470 113.63 564.228 473.328
1655 0 49.0368 9.56425 469 116.723 563.009 474.52
1656 0 54.1799 12.3662 670 110.955 564.197 477.001
1657 0 53.0529 11.0833 588 113 563.495 475.871
1658 0 55.1331 11.1367 614 113.137 563.611 473.759
1659 0 58.082 10.7607 625 113.72 563.506 474.224
1660 0 59.0744 12.6112 745 109.604 563.522 470.534
1661 0 61.153 12.2643 750 109.529 563.772 471.887
1662 0 62.1589 12.452 774 109.32 563.979 469.486
1663 0 64.1168 11.9158 764 111.779 563.928 468.19
1664 0 66.1744 12.0288 796 111.471 563.981 468.041
1665 0 70.1546 12.501 877 110.486 564.421 467.762
1666 0 70.1323 11.8205 829 113.812 564.701 467.834
1667 0 74.2016 12.0348 893 113.205 564.993 466.122
1668 0 76.1024 13.7972 1050 109.61 564.381 465.175
1669 0 77.1441 13.4294 1036 110.763 563.924 464.684
1670 0 79.2089 12.4986 990 113.634 564.379 461.818
1671 0 84.257 12.1889 1027 113.242 564.003 460.838
1672 0 86.1633 10.8515 935 115.363 564.518 462.981
1673 0 88.152 11.639 1026 115.982 564.399 458.465
1674 1 44.0329 9.01599 397 118.995 563.97 479.244
1675 0 46.0607 10.3559 477 111.218 564.807 477.317
1676 0 46.0934 9.76279 450 113.558 566.773 476.669
1677 0 50.0475 10.1304 507 111.351 567.091 476.223
1678 0 51.0682 11.1028 567 105.813 567.25 476.624
1679 0 52.0494 11.662 607 104.928 567.886 475.362
1680 0 54.0504 11.3228 612 106.074 567.064 473.644
1681 0 55.0899 11.8534 653 104.391 567.415 475.492
1682 0 58.103 10.1716 591 108.068 566.508 471.624
1683 0 62.0692 11.3905 707 103.936 566.847 473.325
1684 0 61.0803 12.0497 736 104.163 566.826 472.717
1685 0 64.0946 9.76682 626 108.955 566.468 468.893
1686 0 66.1334 12.3236 815 103.481 566.699 469.124
1687 0 69.0958 12.0991 836 104.051 566.258 469.472
1688 0 69.0806 11.6241 803 105.649 566.474 467.035
1689 0 71.1335 11.7385 835 105.617 566.6 465.217
1690 0 73.0689 11.5234 842 105.426 566.626 465.944
1691 0 78.0816 13.6268 1064 99.7613 566.035 464.402
1692 0 78.1136 11.3681 888 104.769 566.552 462.417
1693 0 82.126 12.0059 986 102.725 566.232 462.397
1694 0 84.0984 12.0811 1016 103.495 566.096 458.816
1695 0 87.1809 12.7092 1108 102.065 567.144 458.524
1696 0 90.2054 12.66 1142 102.328 566.599 457.261
1697 0 92.122 11.8321 1090 104.438 566.794 458.25
1698 0 95.1673 12.5673 1196 103.145 566.85 455.666
1699 0 98.3312 12.285 1208 104.859 566.953 451.536
1700 0 101.125 11.3227 1145 106.844 566.668 451.893
1701 1 51.0324 10.7775 550 103.811 567.684 477.751
1702 0 54.1452 12.3557 669 98.8027 564.928 471.827
1703 0 54.0384 11.4733 620 100.869 563.834 474.056
1704 0 58.0525 12.7471 740 95.4878 563.295 474.491
1705 0 58.0872 12.4812 725 95.0441 563.851 474.662
1706 0 62.0868 12.3859 769 95.6294 564.449 471.486
1707 0 64.1877 12.2609 787 95.2757 564.715 471.715
1708 0 66.1098 13.7347 908 93.4196 564.512 469.947
1709 0 66.1063 11.5571 764 98.9359 563.637 470.548
1710 0 69.06 12.786 883 96.983 564.028 469.958
1711 0 71.0823 13.3366 948 96.2479 564.483 467.956
1712 0 73.0621 13.1121 958 97.8591 564.609 468.502
1713 0 75.065 13.122 985 98.7086 564.83 466.338
1714 0 79.0895 12.3784 979 99.5148 565.215 467.394
1715 0 80.1119 12.8321 1028 99.5321 564.195 463.581
1716 0 82.0773 13.1461 1079 100.103 564.568 464.724
1717 0 85.1607 13.0107 1108 101.861 563.986 461.372
1718 0 88.0941 11.4991 1013 105.082 564.131 458.229
1719 0 90.1581 13.2323 1193 101.681 564.167 460.541
1720 0 91.1187 13.1367 1197 103.069 564.204 456.734
1721 0 91.1183 13.1697 1200 135.256 564.208 456.831
1722 0 98.069 12.2567 1202 106.388 564.814 454.012
1723 0 102.353 13.4241 1374 103.927 565.221 453.539
1724 1 55.0405 11.5006 633 104.596 563.855 476.81
1725 0 57.088 12.8573 734 100.176 566.76 477.172
1726 0 53.08 9.26903 492 110.472 566.646 472.738
1727 0 59.1117 13.8044 816 99.7181 566.504 472.893
1728 0 61.1755 11.9165 729 104.272 566.698 474.775
1729 0 64.0855 12.9358 829 102.068 566.896 471.642
1730 0 64.099 10.7802 691 107.564 567.161 470.656
1731 0 66.1169 12.6443 836 104.175 567.246 469.542
1732 0 69.1808 12.3878 857 104.407 566.7 470.433
1733 0 71.1466 12.9732 923 103.602 566.742 471.049
1734 0 73.1194 12.5685 919 106.305 566.676 466.816
1735 0 75.1539 13.7584 1034 103.785 566.288 465.985
1736 0 78.1884 12.5722 983 106.868 566.297 464.588
1737 0 81.198 13.2516 1076 105.753 566.049 464.007
1738 0 82.2316 12.027 989 109.812 566.208 460.476
1739 0 85.1704 12.9035 1099 107.678 566.3 460.788
1740 0 85.168 12.9274 1101 138.699 566.315 460.817
1741 1 46.0857 11.0229 508 111.762 567.106 480.86
1742 0 50.0845 12.9381 648 103.532 566.866 482.435
1743 0 51.0564 12.9857 663 105.745 567.391 479.513
1744 0 51.0416 12.6564 646 107.927 566.992 476.602
1745 0 55.0895 12.4162 684 107.52 566.668 475.81
1746 0 56.0792 13.3026 746 106.634 566.383 474.913
1747 0 57.0983 13.0477 745 108.136 566.264 475.079
1748 0 59.0813 12.9482 765 108.498 566.246 475.031
1749 0 61.1105 14.122 863 105.627 566.352 473.862
1750 0 62.0977 14.3162 889 107.45 565.619 471.692
1751 0 64.1549 13.4986 866 109.11 565.203 470.647
1752 0 67.1166 13.9608 937 107.322 566.126 470.933
1753 0 70.1004 13.9372 977 108.139 565.912 469.999
1754 0 69.1088 12.3863 856 113.022 566.217 468.896
1755 0 73.1344 12.6616 926 112.335 566.563 467.068
1756 0 75.0895 12.3186 925 113.361 566.688 464.556
1757 0 79.0636 13.1666 1041 111.214 567.139 464.302
1758 0 81.1658 13.762 1117 110.244 566.415 463.224
1759 0 82.0625 12.4661 1023 114.318 566.531 464.272
1760 1 42.0134 10.4252 438 119.011 567.16 482.055
1761 0 42.0174 11.6618 490 119.829 566.369 480.849
1762 0 43.3625 11.3001 490 114.231 565.163 476.282
1763 0 46.3865 11.6198 539 112.095 565.262 476.605
1764 0 49.1247 12.1324 596 112.238 563.77 478.45
1765 0 49.1024 12.5452 616 116.56 563.357 480.002
1766 0 51.1369 11.8114 604 118.833 563.763 478.748
1767 0 53.1166 11.7666 625 119.378 563.546 477.499
1768 0 55.2572 12.7585 705 116.355 563.424 477.892
1769 0 56.0236 12.2448 686 119.548 563.637 475.093
1770 0 58.1542 13.619 792 115.932 564.135 475.701
1771 0 60.1389 12.521 753 119.734 563.981 474.851
1772 0 63.211 12.6244 798 118.984 564.086 472.848
1773 0 66.3719 12.7916 849 118.092 565.084 471.468
1774 0 67.1244 13.4079 900 118.209 564.271 470.922
1775 0 67.1558 12.0168 807 123.181 564.445 470.605
1776 0 70.127 11.7644 825 123.007 564.312 469.585
1777 0 73.2492 13.1196 961 121.569 563.445 465.791
1778 0 75.149 12.0294 904 124.969 563.313 464.968
1779 0 79.134 11.9291 944 124.195 564.002 464.581
1780 1 39.0112 10.7405 419 121.773 563.926 482.826
1781 0 43.0449 11.7087 504 117.966 564.476 484.234
1782 0 43.307 12.7924 554 117.179 565.991 481.455
1783 0 43.0364 12.199 525 113.771 567.665 482.964
1784 0 47.0355 12.65 595 112.703 567.36 481.449
1785 0 48.0683 12.5446 603 112.363 566.881 481.768
1786 0 49.0296 12.625 619 114.045 567.53 479.661
1787 0 48.01 11.7684 565 117.596 567.966 478.204
1788 0 49.0463 12.7023 623 116.014 566.559 477.278
1789 0 52.1292 12.5458 654 113.54 566.953 476.616
1790 0 55.1473 13.1466 725 111.954 566.821 476.657
1791 0 54.0815 12.74 689 114.807 566.776 475.7
1792 0 57.1045 14.132 807 110.825 566.314 474.217
1793 0 58.055 13.9006 807 111.535 566.684 474.989
1794 0 59.0965 13.3341 788 114.305 566.154 472.096
1795 0 62.0694 13.3238 827 113.744 566.148 473.644
1796 0 63.0859 12.5385 791 114.829 566.532 472.582
1797 0 66.1291 12.5814 832 114.959 566.911 469.852
1798 0 66.1532 13.0606 864 113.894 566.99 468.84
1799 0 68.1782 12.3207 840 115.325 567.299 468.499
1800 0 70.2102 13.9866 982 111.462 567.501 467.835
1801 0 72.1759 13.5087 975 112.763 566.798 467.297
1802 0 74.1634 12.4994 927 114.704 567.09 466.111
1803 0 76.259 11.4741 875 117.225 567.158 466.358
1804 0 78.2207 12.7971 1001 116.432 566.283 461.15
1805 0 81.2721 12.9565 1053 115.783 566 461.243
1806 0 83.2507 13.069 1088 115.785 566.024 458.879
1807 0 87.2266 13.7458 1199 113.765 566.177 457.427
1808 0 90.1571 13.9534 1258 113.544 566.152 455.808
1809 0 92.2411 12.5107 1154 117.54 566.393 455.488
1810 0 95.2362 12.8208 1221 117.538 566.117 453.291
1811 0 98.2488 13.5981 1336 115.457 566.428 452.591
1812 0 101.195 13.7358 1390 116.052 566.397 449.47
1813 0 104.212 13.8084 1439 116.488 566.089 447.597
1814 0 106.174 13.9112 1477 116.265 564.71 450.266
1815 0 111.216 13.1186 1459 117.082 564.583 448.798
1816 0 113.183 13.8802 1571 115.801 564.695 446.081
1817 0 117.285 12.9172 1515 117.354 565.092 447.701
1818 0 121.331 13.5249 1641 116.512 565.043 443.82
1819 0 124.27 12.7787 1588 117.904 564.7 444.044
1820 1 63.1013 12.6463 798 114.199 564.945 468.034
1821 0 63.1013 13.6447 861 140.117 564.89 468.859
1822 0 66.1312 12.3391 816 113.995 565.044 471.395
1823 0 66.1428 12.7905 846 112.916 565.323 470.313
1824 0 70.1291 13.9885 981 109.334 565.871 470.827
1825 0 71.1622 13.7152 976 111.303 565.181 469.068
1826 0 74.0715 14.324 1061 109.497 565.413 466.826
1827 0 77.1704 13.8525 1069 110.716 564.558 467.27
1828 0 79.0994 13.6284 1078 110.772 565.162 467.291
1829 0 83.0683 14.7108 1222 109.524 565.047 463.235
1830 0 83.0492 13.6907 1137 112.602 564.065 463.675
1831 0 86.1131 13.5636 1168 113.785 563.894 459.924
1832 0 88.1311 12.6856 1118 116.506 564.119 459.558
1833 0 91.1357 13.9133 1268 113.549 563.462 459.502
1834 0 93.1062 13.6189 1268 115.2 563.664 456.837
1835 0 98.187 14.1872 1393 113.148 563.958 457.774
1836 0 101.135 14.4658 1463 112.893 564.517 456.331
1837 0 102.146 13.138 1342 117.007 564.73 455.433
1838 0 107.122 14.7402 1579 113.448 564.379 451.628
1839 0 111.141 16.0966 1789 110.222 565.421 450.013
1840 0 115.088 14.8755 1712 112.991 564.971 449.185
1841 0 118.119 14.3076 1690 114.656 565.002 447.159
1842 0 123.137 15.5599 1916 111.126 564.86 444.177
1843 0 128.159 14.8487 1903 112.492 565.581 443.127
1844 0 131.183 13.9576 1831 115.52 564.824 441.289
1845 0 133.139 14.5937 1943 114.56 564.293 438.001
1846 0 139.33 13.5721 1891 117.386 564.908 431.297
1847 0 144.334 13.2193 1908 118.425 564.907 426.974
1848 0 149.341 14.4501 2158 115.483 564.37 425.573
1849 0 154.315 14.3473 2214 115.399 565.203 423.498
1850 0 156.282 12.8294 2005 113.603 565.232 418.176
1851 0 165.259 13.9176 2300 112.482 564.917 419.319
1852 0 172.204 14.9068 2567 108.908 564.85 413.647
1853 0 175.354 13.2874 2330 115.196 565.501 410.736
1854 0 182.433 13.3803 2441 114.549 565.388 405.465
1855 0 189.308 15.0337 2846 110.735 565.585 403.745
1856 0 189.308 13.6444 2583 114.557 564.834 406.93
1857 0 190.373 12.5281 2385 117.719 565.078 409.904
1858 0 190.313 10.9714 2088 119.849 564.608 416.83
1859 0 189.351 10.9532 2074 120.384 564.435 415.904
1860 1 162.241 13.4676 2185 116.685 564.086 419.747
1861 0 165.309 12.9333 2138 119.728 564.701 413.451
1862 0 170.389 12.8999 2198 120.545 564.751 413.582
1863 0 178.357 13.0749 2332 119.919 565.028 409.859
1864 0 184.322 12.8471 2368 120.189 565.59 411.008
1865 0 190.454 12.0187 2289 121.917 565.076 407.744
1866 0 198.508 12.8458 2550 119.987 565.85 400.497
1867 0 207.49 12.3909 2571 120.539 564.993 398.477
1868 0 213.469 13.2478 2828 118.324 565.113 393.378
1869 0 221.619 12.4267 2754 124.119 565.733 390.841
1870 0 232.511 13.0359 3031 119.553 565.315 384.105
1871 1 171.33 11.4983 1970 121.323 564.911 412.672
1872 1 54.2273 9.23889 501 104.948 564.551 471.295
1873 0 54.1255 10.0692 545 99.9064 564.58 472.048
1874 0 55.1317 10.5384 581 98.3683 564.775 471.85
1875 0 59.0869 10.9161 645 97.7922 564.603 472.057
1876 0 62.0968 11.6109 721 96.9168 564.741 470.595
1877 0 62.1195 11.1559 693 98.3175 564.499 470.566
1878 0 63.0695 11.2099 707 122.6 564.495 470.936
1879 0 68.0767 12.3684 842 96.5321 565.11 468.538
1880 0 68.1382 11.3593 774 100.961 566.517 466.266
1881 0 70.2219 11.9763 841 100.526 566.725 464.731
1882 0 74.073 11.8532 878 101.468 566.899 465.383
1883 0 76.2399 11.3589 866 103.843 566.461 464.224
1884 0 78.1127 11.5346 901 104.123 566.131 464.865
1885 0 80.295 12.4167 997 103.414 566.175 461.736
1886 0 84.2173 12.0997 1019 104.614 565.974 460.4
1887 0 87.2256 12.6339 1102 103.7 566.191 459.466
1888 1 47.232 8.61703 407 101.654 566.216 480.796
1889 0 46.1453 10.6837 493 101.193 566.795 478.795
1890 0 49.1145 11.8295 581 102.64 566.713 480.105
1891 0 51.0945 11.5472 590 100.064 566.049 476.866
1892 0 53.3336 9.89994 528 106.631 565.091 474.708
1893 0 55.2882 11.3948 630 112.086 565.495 476.911
1894 0 56.324 12.7832 720 109.862 566.112 476.372
1895 0 59.4621 12.5122 744 111.742 565.835 472.101
1896 0 60.3507 11.7977 712 113.716 565.767 472.178
1897 0 61.393 11.972 735 112.669 565.676 471.826
1898 0 62.2885 11.8642 739 114.234 566.068 469.415
1899 0 65.3221 13.0124 850 110.909 565.981 470.913
1900 0 72.3562 15.7139 1137 99.7546 565.857 464.132
1901 0 68.239 15.1673 1035 105.348 565.629 466.977
1902 0 71.23 14.7269 1049 106.664 566.322 468.064
1903 0 72.2396 12.1955 881 112.078 566.208 467.75
1904 0 76.2681 12.4954 953 108.891 566.013 467.808
1905 0 83.2136 17.2808 1438 94.475 566.029 462.015
1906 0 82.0919 12.7053 1043 106.685 567.21 468.178
1907 0 82.0598 13.2464 1087 108.496 566.934 465.078
1908 0 84.1628 13.3194 1121 109.068 566.462 463.525
1909 0 84.1111 12.4122 1044 111.893 567.022 464.053
1910 0 89.2366 13.481 1203 109.263 566.65 461.712
1911 0 93.255 13.9296 1299 102.697 566.796 459.588
1912 0 94.1958 13.5356 1275 105 566.478 457.49
1913 1 52.0744 12.8086 667 106.925 567.109 479.286
1914 0 51.0296 12.4438 635 111.644 566.518 477.745
1915 0 55.0413 12.8449 707 110.355 566.24 476.805
1916 0 55.08 11.5832 638 100.392 566.055 473.45
1917 0 55.0692 11.6762 643 100.563 564.776 474.345
1918 0 58.2055 12.1123 705 100.035 565.244 473.045
1919 0 58.1254 12.1806 708 101.73 565.788 471.055
1920 0 61.0779 13.1471 803 98.604 566.125 470.847
1921 0 65.1053 13.1633 857 99.4422 566.203 470.008
1922 0 62.0608 11.7788 731 104.912 566.609 468.079
1923 0 66.0498 12.0061 793 104.451 566.214 468.74
1924 0 68.211 12.2414 835 104.557 565.478 468.083
1925 0 68.211 11.9042 812 136.534 564.479 467.716
1926 0 71.0926 12.1672 865 105.117 566.061 466.143
1927 0 74.1605 12.7696 947 102.467 565.256 465.185
1928 0 77.1246 12.8882 994 102.659 565.531 461.149
1929 0 80.1992 13.7657 1104 100.648 565.731 461.418
1930 0 82.1571 12.7926 1051 103.83 566.338 459.922
1931 0 84.1237 13.2424 1114 104.735 565.969 459.059
1932 0 87.0502 12.1884 1061 109.548 565.621 458.026
1933 0 89.2058 12.3983 1106 109.393 565.657 456.774
1934 0 93.2142 12.3694 1153 110.592 565.441 452.681
1935 0 97.1846 14.0249 1363 106.704 565.224 453.668
1936 1 47.101 10.4032 490 106.992 565.11 477.535
1937 0 49.0832 11.124 546 105.267 565.115 476.062
1938 0 51.1299 12.2042 624 110.011 564.736 476.793
1939 0 52.1183 11.8001 615 108.709 565.164 478.304
1940 0 53.0864 11.0386 586 110.609 564.621 477.875
1941 0 57.1142 11.8184 675 108.058 564.351 476.696
1942 0 59.199 12.8887 763 105.402 564.604 474.844
1943 0 60.1688 12.7309 766 107.193 565.057 473.32
1944 0 61.1009 13.2077 807 106.875 565.461 474.022
1945 0 60.1002 12.3128 740 129.4 566.473 472.95
1946 0 64.0311 13.431 860 108.33 566.103 470.078
1947 0 68.1417 12.2245 833 110.983 566.288 469.916
1948 0 68.0542 12.9603 882 111.754 566.281 470.029
1949 0 70.1172 11.8944 834 115.189 566.495 470.305
1950 0 73.1526 12.8499 940 114.721 565.934 467.894
1951 0 77.1278 12.2394 944 117.356 565.94 463.618
1952 0 79.0602 13.2178 1045 116.685 565.525 462.263
1953 0 80.0772 12.2132 978 120.31 565.425 463.073
1954 0 82.1466 13.2081 1085 117.573 566.216 462.757
1955 0 85.1581 14.1267 1203 118.695 565.303 458.986
1956 0 88.2744 13.2201 1167 120.851 565.239 459.65
1957 0 92.2133 13.1001 1208 122.227 564.945 456.68
1958 0 94.471 13.655 1290 122.674 564.647 451.184
1959 0 97.5404 14.5273 1417 120.833 565.812 448.186
1960 0 97.5443 14.4652 1411 150.118 565.816 448.091
1961 0 102.426 13.5024 1383 124.616 565.784 446.565
1962 0 105.333 13.7658 1450 124.083 565.586 444.925
1963 0 110.385 12.9003 1424 125.578 565.488 443.725
1964 0 115.315 13.2767 1531 124.21 565.671 441.871
1965 1 60.2698 12.5934 759 117.659 565.357 466.826
1966 0 62.4287 11.4851 717 115.972 565.165 468.907
1967 0 64.206 11.9771 769 115.624 564.828 470.254
1968 0 64.1161 11.448 734 118.138 566.568 470.181
1969 0 70.1501 12.7156 892 113.695 566.433 470.178
1970 0 70.1471 12.0461 845 116.417 566.71 468.529
1971 0 75.103 12.6093 947 113.65 566.641 468.54
1972 0 76.1218 13.0055 990 115.775 566.693 462.608
1973 0 77.1138 11.5803 893 120.349 566.7 463.141
1974 0 81.0471 11.8079 957 116.846 567.112 463.746
1975 0 83.0556 13.0274 1082 117.055 566.295 459.602
1976 0 86.1524 13.0002 1120 115.396 566.841 458.592
1977 0 88.1894 12.3371 1088 117.483 566.913 456.777
1978 0 92.2364 12.2728 1132 117.23 566.919 453.584
1979 0 95.242 12.7675 1216 116.858 566.75 452.807
1980 0 99.1676 13.7242 1361 114.616 565.997 451.774
1981 0 100.243 12.4796 1251 118.453 566.647 449.035
1982 0 104.25 12.6331 1317 118.805 566.511 443.815
1983 0 109.255 13.2992 1453 116.815 566.501 443.446
1984 0 113.369 13.6898 1552 114.68 566.356 439.586
1985 1 58.3204 11.0253 643 111.267 566.1 467.871
1986 0 61.5068 11.9662 736 109.041 565.145 470.543
1987 0 63.261 10.4488 661 107.493 565.879 472.893
1988 0 63.1272 11.1046 701 108.367 565.986 469.143
1989 0 67.0619 11.139 747 107.008 565.668 469.539
1990 0 69.0893 11.1305 769 107.224 565.993 468.313
1991 0 69.0893 11.1016 767 139.394 565.988 468.199
1992 0 73.107 11.3259 828 108.371 567.121 465.826
1993 0 74.1881 11.7809 874 108.622 566.327 463.955
1994 0 77.2121 11.3454 876 110.103 566.107 460.764
1995 0 79.1544 10.6753 845 111.477 566.225 461.456
1996 0 81.1274 12.1537 986 108.982 566.908 461.246
1997 0 81.1274 12.1784 988 129.884 566.904 461.223
1998 0 87.1293 11.2706 982 112.46 565.614 457.057
1999 0 89.1878 12.042 1074 111.93 565.445 453.939
2000 0 91.1708 11.2646 1027 114.772 565.519 452.711
2001 0 95.3234 11.718 1117 113.251 566.372 448.988
2002 0 98.3698 11.0603 1088 115.444 566.422 447.222
2003 0 101.275 11.5527 1170 114.77 566.601 445.974
2004 1 55.1776 11.0552 610 106.833 566.467 469.895
2005 0 57.1031 10.4548 597 106.469 565.425 474.564
2006 0 58.0412 11.0439 641 107.532 566.722 474.055
2007 0 61.0569 12.2181 746 108.424 567.326 470.96
2008 0 61.0824 11.7219 716 112.039 566.732 467.649
2009 0 65.0737 12.3245 802 109.663 567.146 468.586
2010 0 65.1256 11.117 724 113.952 567.577 468.486
2011 0 69.2332 12.0607 835 111.138 566.881 467.805
2012 0 70.1455 12.8732 903 111.228 566.631 463.666
2013 0 72.1486 14.2068 1025 108.021 566.554 464.53
2014 0 74.1656 12.7552 946 111.5 566.182 465.406
2015 0 75.2153 12.4443 936 113.312 566.319 463.413
2016 0 78.3086 12.5784 985 113.065 566.199 461.824
2017 0 78.2101 11.4435 895 117.914 566.037 459.656
2018 0 81.1427 11.0053 893 118.811 565.928 459.845
2019 0 79.1401 11.0184 872 146.56 565.907 459.625
2020 0 86.134 12.109 1043 115.585 566.049 457.522
2021 0 85.1074 10.9861 935 120.248 565.511 452.716
2022 0 88.1244 10.9618 966 118.744 565.563 453.284
2023 0 93.1049 12.0939 1126 116.256 565.782 450.985
2024 0 95.1484 12.2651 1167 116.232 565.255 449.752
2025 0 97.1089 10.6375 1033 120.752 565.923 446.564
2026 0 98.1079 10.7127 1051 119.571 565.183 442.297
2027 0 102.139 10.4074 1063 119.737 565.894 440.947
2028 1 57.0487 8.74692 499 111.679 564.437 463.603
2029 0 58.1009 10.5162 611 108.07 565.088 463.083
2030 0 61.0381 11.5338 704 108.358 564.009 464.973
2031 0 64.0848 11.7033 750 115.225 564.7 467.047
2032 0 68.0852 13.2481 902 110.922 564.866 466.42
2033 0 69.1483 12.0755 835 113.83 564.008 467.404
2034 0 70.1049 12.7381 893 114.148 564.316 464.955
2035 0 71.1347 12.6099 897 115.44 563.695 464.304
2036 0 74.068 12.4615 923 115.257 563.696 463.733
2037 0 79.3744 12.9261 1026 113.777 566.12 463.394
2038 0 80.1933 13.1931 1058 113.563 565.546 463.574
2039 0 80.1915 12.0586 967 118.554 565.638 460.154
2040 0 83.1905 12.9822 1080 117.511 564.826 459.751
2041 0 87.2536 13.8447 1208 115.346 565.513 458.273
2042 0 87.2036 13.0958 1142 118.852 565.988 457.163
2043 0 90.3379 13.051 1179 119.177 566.107 456.74
2044 0 93.2223 13.8593 1292 117.461 565.615 454.783
2045 0 94.2417 12.6483 1192 120.58 565.424 454.766
2046 0 99.3148 12.5862 1250 120.718 565.371 452.829
2047 0 101.179 12.9078 1306 120.101 565.593 451.232
2048 0 103.176 12.9682 1338 122.317 565.745 449.502
2049 0 107.191 12.2958 1318 118.055 565.721 448.011
2050 0 109.164 11.524 1258 120.729 565.78 446.874
2051 0 112.326 11.5022 1292 122.421 565.269 444.1
2052 0 117.119 11.4585 1342 123.441 565.554 442.379
2053 0 123.307 12.9676 1599 120.254 564.283 439.803
2054 1 65.1424 12.158 792 134.48 563.812 469.566
2055 0 67.1373 13.1224 881 114.505 563.976 466.144
2056 0 68.2352 12.7354 869 116.878 563.733 466.47
2057 0 72.2854 11.9526 864 117.874 563.846 464.963
2058 0 74.2778 12.7629 948 116.865 564.068 463.004
2059 0 73.1161 10.9005 797 124.572 563.89 463.099
2060 0 78.1928 13.4667 1053 117.7 564.306 461.589
2061 0 80.4064 12.1135 974 121.409 564.502 460.423
2062 0 82.4098 11.4428 943 125.713 564.23 456.923
2063 0 86.5205 13.2917 1150 120.783 564.877 454.089
2064 0 90.7763 12.4923 1134 126.368 565.034 451.837
2065 0 92.6718 12.6899 1176 126.85 565.781 449.491
2066 0 92.7665 12.0733 1120 130.588 565.424 445.118
2067 0 98.5397 12.9389 1275 127.15 566.056 448.026
2068 1 52.5018 9.98061 524 123.405 566.231 472.09
2069 0 53.3534 11.4707 612 121.859 565.892 471.94
2070 0 53.0301 10.1263 537 126.592 565.752 472.607
2071 0 54.0663 10.4316 564 122.606 564.613 473.794
2072 0 55.0248 10.9769 604 122.315 563.763 470.627
2073 0 58.0489 10.6979 621 121.911 564.267 471.936
2074 0 62.0607 11.6982 726 118.499 564.325 471.507
2075 0 61.158 11.8382 724 120.849 563.649 469.145
2076 0 64.0772 12.0948 775 119.457 564.095 468.397
2077 0 66.0643 11.731 775 121.114 564.528 468.75
2078 0 68.1592 11.6785 796 121.265 563.75 467.359
2079 0 70.179 11.6844 820 120.861 563.76 468.321
2080 0 71.2828 12.3312 879 120.655 563.379 465.123
2081 0 74.17 10.5973 786 124.302 563.398 464.235
2082 0 74.3369 10.5869 787 124.933 563.28 463.499
2083 0 79.2348 12.4566 987 119.862 563.384 461.133
2084 0 82.1635 11.4649 942 121.69 563.186 460.001
2085 1 44.3458 9.35828 415 123.217 564 476.949
2086 0 46.2518 9.88069 457 120.943 565.081 477.225
2087 0 47.2091 10.4429 493 114.586 564.418 470.736
2088 0 50.1873 10.0822 506 113.063 564.579 469.065
2089 0 47.1766 10.111 477 116.642 564.394 467.143
2090 0 52.1924 10.4421 545 115.349 565 468.543
2091 0 54.2021 11.2357 609 113.391 564.594 467.962
2092 0 56.107 11.6741 655 113.256 564.67 467.351
2093 0 58.1908 11.8747 691 119.12 566.02 473.25
2094 0 60.1951 12.393 746 117.58 565.227 473.489
2095 0 60.1313 12.5891 757 118.52 564.947 472.39
2096 0 61.1251 11.4683 701 124.368 565.017 469.19
2097 0 65.188 12.7478 831 119.591 565.181 470.594
2098 0 69.398 13.473 935 118.748 565.556 468.302
2099 0 70.2968 12.3192 866 122.492 565.061 465.716
2100 0 73.3623 12.9222 948 122.013 564.747 462.428
2101 0 74.3223 12.8764 957 123.217 564.262 464.355
2102 0 78.2786 12.8899 1009 122.876 565.048 462.69
2103 0 80.4282 12.5951 1013 124.904 564.716 461.081
2104 0 84.4244 13.1479 1110 125.095 564.326 459.265
2105 0 86.2699 12.7507 1100 130.273 564.701 458.166
2106 0 90.4643 13.895 1257 127.739 564.638 453.254
2107 1 48.224 10.0158 483 125.203 563.431 478.988
2108 0 49.0469 12.0089 589 118.822 563.806 477.263
2109 0 52.1147 12.223 637 117.86 563.786 476.59
2110 0 52.1084 12.2437 638 118.986 564.119 476.378
2111 0 53.0283 12.2576 650 126.525 563.54 475.12
2112 0 55.0745 12.4014 683 126.713 564.064 476.132
2113 0 57.0526 12.8303 732 125.904 563.669 474.627
2114 0 59.1031 12.7574 754 125.573 563.79 473.85
2115 0 59.0393 13.2285 781 126.501 564.054 472.736
2116 0 61.0982 12.3081 752 128.093 563.802 473.448
2117 0 64.0331 14.2426 912 121.803 563.578 472.518
2118 0 63.0332 12.7393 803 127.425 563.395 471.091
2119 0 65.028 12.7484 829 128.062 563.75 469.662
2120 0 68.1147 12.9928 885 128.049 563.45 467.988
2121 0 70.0648 12.5598 880 128.905 563.08 468.088
2122 0 72.1009 13.4811 972 126.873 562.652 467.279
2123 0 73.0687 13.3025 972 129.041 563.613 464.033
2124 0 77.1613 13.7763 1063 125.968 563.335 463.874
2125 0 79.145 13.8227 1094 125.706 564.486 463.125
2126 0 82.2412 12.8768 1059 127.48 565.278 462.127
2127 0 84.2951 13.3934 1129 127.66 564.771 459.354
2128 0 86.1239 12.6678 1091 128.117 564.463 460.016
2129 1 46.046 11.2279 517 123.075 564.074 480.122
2130 0 48.0859 11.7082 563 121.403 564.369 478.522
2131 0 49.0167 11.2411 551 118.359 564.285 478.067
2132 0 50.1449 11.8058 592 117.057 563.931 474.949
2133 0 51.086 11.5687 591 116.125 564.264 476.068
2134 0 54.1433 11.8759 643 115.201 563.893 473.059
2135 0 55.1855 11.9959 662 114.98 563.994 472.881
2136 0 57.161 12.2986 703 113.869 563.909 472.121
2137 0 58.1158 14.4367 839 108.832 564.085 472.471
2138 0 60.0966 13.5282 813 111.669 563.418 472.105
2139 0 61.0728 11.8056 721 115.906 563.982 471.039
2140 0 64.1945 12.54 805 113.357 563.886 468.893
2141 0 65.0925 12.8586 837 113.575 563.91 467.677
2142 0 68.2197 13.3979 914 112.609 563.945 467.387
2143 0 71.0775 14.0129 996 110.752 564.093 465.797
2144 0 74.0823 13.9844 1036 110.591 563.929 465.816
2145 0 76.1617 14.0097 1067 111.494 563.653 464.511
2146 0 78.1418 14.2689 1115 110.535 563.717 463.477
2147 0 80.102 13.5203 1083 113.081 564.121 461.187
2148 0 83.0979 13.9233 1157 112.166 563.878 459.419
2149 0 86.1052 13.1235 1130 114.519 564.358 458.661
2150 0 88.1331 12.9577 1142 114.404 565.907 457.869
2151 0 91.0769 13.2525 1207 113.576 565.107 459.472
2152 1 49.0641 9.96656 489 121.483 565.384 475.209
2153 0 53.1417 12.4573 662 110.955 564.579 474.372
2154 0 55.1361 13.0586 720 108.972 563.978 473.797
2155 0 56.108 12.6363 709 109.563 564.702 473.66
2156 0 58.1461 13.4317 781 107.624 564.259 473.038
2157 0 60.1762 13.7264 826 107.246 564.751 473.074
2158 0 58.132 12.5576 730 111.608 564.781 470.84
2159 0 64.2011 13.0995 841 108.222 564.464 469.409
2160 0 65.1771 14.591 951 104.963 565.023 467.812
2161 0 67.1057 12.5921 845 109.089 564.373 467.273
2162 0 71.1379 13.6777 973 105.072 564.548 466.848
2163 0 74.189 12.6838 941 107.278 564.505 465.968
2164 0 76.2597 14.4768 1104 103.877 563.862 461.96
2165 0 80.1845 13.0324 1045 106.409 563.823 462.325
2166 0 79.2063 12.8778 1020 108.388 563.672 459.697
2167 0 85.2566 12.6207 1076 106.743 563.87 461.375
2168 0 89.1716 13.0759 1166 106.002 564.171 458.777
2169 0 92.1773 13.192 1216 105.644 564.406 455.149
2170 1 49.1108 11.0974 545 110.15 563.279 476.383
2171 0 50.1023 12.5942 631 107.788 563.406 476.504
2172 0 53.0854 12.3763 657 111.521 563.683 475.251
2173 0 56.0459 14.2205 797 106.917 564.04 475.319
2174 0 55.0371 11.6467 641 115.635 563.339 473.332
2175 0 58.0632 12.3831 719 113.465 562.935 473.206
2176 0 61.0956 13.6998 837 110.643 563.087 470.719
2177 0 63.0713 13.2866 838 112.712 563.162 471.099
2178 0 64.1087 11.6053 744 117.524 563.292 470.426
2179 0 67.1071 13.009 873 113.778 563.189 468.593
2180 0 68.0438 13.168 896 114.718 563.162 466.908
2181 0 71.0998 13.6569 971 113.815 563.307 467.452
2182 0 73.1619 14.0784 1030 114.062 563.158 466.084
2183 0 76.274 13.8842 1059 113.721 564.268 464.975
2184 0 77.1961 13.6276 1052 116.368 564.289 462.836
2185 0 81.2257 13.1239 1066 117.834 563.769 462.081
2186 0 83.2459 13.9947 1165 116.97 564.258 460.552
2187 0 87.2994 13.4823 1177 118.181 564.302 459.168
2188 0 89.4257 14.1011 1261 118.083 565.159 455.852
2189 0 95.4405 13.8725 1324 118.1 564.911 455.338
2190 0 96.5979 13.8926 1342 120.741 564.899 452.247
2191 1 53.414 11.5887 619 121.433 565.16 471.296
2192 0 54.0997 11.4973 622 112.19 566.323 474.965
2193 0 56.1604 11.7164 658 112.257 566.005 473.787
2194 0 58.0692 12.6229 733 110.083 566.074 474.258
2195 0 59.1591 12.7115 752 112.565 565.969 475.166
2196 0 61.1206 13.1707 805 110.65 566.4 474.017
2197 0 64.1042 13.0725 838 111.535 566.243 471.36
2198 0 65.1817 12.7797 833 113.695 565.712 470.617
2199 0 67.0857 12.7151 853 115.428 565.769 469.778
2200 0 71.174 12.7856 910 113.637 566.166 470.59
2201 0 71.206 12.3304 878 116.322 565.756 468.046
2202 0 73.1375 12.2372 895 117.226 565.147 468.629
2203 0 75.185 12.2764 923 117.883 565.585 466.48
2204 0 79.1336 13.2561 1049 116.153 565.781 462.433
2205 0 84.1374 13.7989 1161 114.558 565.018 463.828
2206 0 83.1546 12.3505 1027 120.49 565.483 462.144
2207 0 87.1727 12.4695 1087 119.799 565.632 463.019
2208 0 89.1141 13.4883 1202 119.491 565.062 459.026
2209 0 93.174 12.5571 1170 121.059 565.142 458.985
2210 1 48.0171 11.6209 558 123.783 566.738 478.464
2211 0 51.225 12.2792 629 123.07 564.903 477.558
2212 0 52.4065 13.2426 694 120.17 564.314 475.079
2213 0 54.0456 12.804 692 122.701 566.605 476.59
2214 0 56.016 13.8532 776 119.246 566.196 476.857
2215 0 57.0481 13.0942 747 122.643 566.616 474.937
2216 0 58.0459 13.5582 787 122.822 566.521 474.699
2217 0 60.0197 13.7788 827 122.453 566.781 473.741
2218 0 63.0874 12.7125 802 124.84 566.431 472.763
2219 0 64.0481 13.1932 845 124.557 566.587 470.596
2220 0 68.1192 13.9608 951 120.841 565.988 471.471
2221 0 68.1263 13.1961 899 124.648 566.627 469.57
2222 0 70.043 13.5631 950 124.213 566.477 466.92
2223 0 75.0466 14.8308 1113 119.406 565.755 467.48
2224 0 78.083 14.8176 1157 119.806 566.055 465.376
2225 0 78.1268 15.3724 1201 118.198 565.778 466.448
2226 0 84.2004 13.6698 1151 122.145 566.067 462.493
2227 0 84.0556 13.8599 1165 122.151 566.086 462.643
2228 0 87.1294 13.8989 1211 121.106 566.125 461.396
2229 0 90.1099 14.0162 1263 120.773 565.957 460.297
2230 0 94.111 13.9304 1311 121.052 565.465 456.379
2231 0 96.1891 15.8126 1521 116.118 565.861 456.703
2232 0 98.1803 13.1798 1294 124.815 565.771 452.873
2233 0 102.143 13.9706 1427 122.172 566.354 452.758
2234 0 104.104 14.4471 1504 121.344 565.849 449.834
2235 0 103.195 11.987 1237 119.694 565.546 453.816
2236 1 57.0746 12.1946 696 111.955 567.318 474.566
2237 0 58.1342 12.7464 741 113.571 567.339 473.459
2238 0 59.0939 13.3347 788 111.357 567.129 473.985
2239 0 62.0922 12.7391 791 106.29 567.291 471.231
2240 0 65.0548 12.4357 809 106.747 566.419 469.974
2241 0 66.1135 13.0684 864 106.164 567.037 468.647
2242 0 66.0436 11.5378 762 110.507 566.07 467.093
2243 0 70.0622 12.232 857 108.606 565.917 466.903
2244 0 72.1472 11.8092 852 109.619 566.216 465.07
2245 0 76.0768 12.6977 966 107.596 566.789 464.358
2246 0 75.1077 12.1026 909 110.374 566.265 463.472
2247 0 80.0566 13.0658 1046 108.459 565.716 461.913
2248 0 80.0746 11.4268 915 113.44 565.224 459.596
2249 0 85.1083 13.0775 1113 108.164 565.692 458.044
2250 0 88.1178 13.2096 1164 107.571 566.509 459.264
2251 0 90.1226 12.1612 1096 111.878 566.033 455.432
2252 0 91.0509 12.4656 1135 112.284 566.258 455.356
2253 0 97.1158 13.3861 1300 112.578 565.752 455.99
2254 0 99.1242 13.2157 1310 114.114 566.108 453.415
2255 0 102.09 12.7437 1301 123.559 565.603 449.747
2256 0 107.117 13.7794 1476 119.784 566.283 447.858
2257 0 108.036 12.8383 1387 123.871 566.458 444.759
2258 1 61.0784 10.6912 653 122.441 566.438 475.021
2259 0 62.2673 11.5149 717 121.676 565.244 470.427
2260 0 64.0353 11.6186 744 105.081 565.192 473.078
2261 0 65.1353 11.1614 727 107.07 565.333 472.956
2262 0 69.1436 12.785 884 103.367 564.675 472.538
2263 0 70.1422 10.8494 761 108.214 564.791 472.152
2264 0 71.17 12.2805 874 108.142 564.133 470.866
2265 0 75.1821 11.3857 856 110.333 564.551 472.466
2266 0 77.1012 10.9596 845 111.709 564.406 474.476
2267 0 77.166 12.1815 940 111.891 563.61 471.576
2268 0 82.1132 13.3596 1097 108.861 563.28 471.522
2269 0 83.1514 11.9541 994 113.026 563.156 470.062
2270 0 87.1427 11.9804 1044 112.391 562.723 470.701
2271 0 89.1634 11.9556 1066 114.246 562.202 467.779
2272 0 92.1428 12.0574 1111 114.391 562.191 467.772
2273 0 95.2456 11.9376 1137 115.61 562.034 467.874
2274 0 98.1785 11.9273 1171 116.391 562.559 464.945
2275 0 101.282 12.4701 1263 116.42 561.772 462.486
2276 0 103.15 12.0795 1246 118.238 561.106 458.689
2277 0 107.09 12.3355 1321 117.167 561.193 458.816
2278 0 110.219 11.3411 1250 121.249 561.468 458.828
2279 1 61.0518 9.63117 588 118.51 561.876 484.325
2280 0 63.1883 12.6764 801 119.421 560.996 482.268
2281 0 65.1142 12.9311 842 118.479 561.504 481.819
2282 0 66.0628 12.3519 816 114.419 560.961 480.684
2283 0 68.1898 12.5385 855 115.152 561.594 480.236
2284 0 71.1634 11.5368 821 117.119 560.76 479.162
2285 0 73.2759 11.8047 865 119.229 559.872 477.502
2286 0 74.3521 12.5349 932 118.264 560.009 473.7
2287 0 76.1854 11.5901 883 119.923 560.144 475.713
2288 0 80.2165 11.5438 926 117.94 559.19 476.702
2289 0 80.2275 10.6946 858 121.869 558.967 473.392
2290 0 86.3352 11.5943 1001 118.717 558.454 474.619
2291 0 88.3396 11.5124 1017 119.535 558.659 473.323
2292 0 91.32 11.6513 1064 119.442 558.776 471.381
2293 0 96.4035 12.8211 1236 115.625 558.448 469.559
2294 0 99.3653 13.4755 1339 115.117 559.526 466.739
2295 0 103.362 12.1805 1259 117.916 559.384 465.956
2296 1 53.1637 11.7938 627 119.368 559.608 486.435
2297 0 55.1176 11.4845 633 120.844 560.182 488.855
2298 0 59.1488 12.5277 741 113.14 560.509 489.889
2299 0 60.2251 12.0216 724 116.124 559.666 487.178
2300 0 60.3999 12.0033 725 117.418 560.006 486.673
2301 0 63.2683 11.9175 754 116.968 559.765 483.645
2302 0 65.2493 12.7818 834 115.26 559.677 480.522
2303 0 69.3675 13.6375 946 112.644 558.959 479.452
2304 0 69.2275 12.6684 877 116.243 558.763 477.51
2305 0 72.4899 13.1467 953 114.03 558.7 476.507
2306 0 77.6179 14.507 1126 110.123 559.047 475.558
2307 0 79.4893 13.2345 1052 114.717 558.755 472.93
2308 0 82.3109 14.7368 1213 111.363 558.692 470.821
2309 0 82.2976 13.0138 1071 116.671 558.361 470.538
2310 0 86.3718 13.2682 1146 115.024 557.772 470.688
2311 0 92.3922 13.9839 1292 111.509 558.276 470.197
2312 0 93.4116 12.3004 1149 121.768 557.962 465.416
2313 0 98.4331 13.2781 1307 118.116 557.383 464.057
2314 0 99.4024 13.0983 1302 118.55 558.896 463.234
2315 1 51.1897 11.4867 588 118.731 558.577 485.114
2316 0 54.2437 13.2734 720 113.244 558.667 484.432
2317 0 52.1158 10.3999 542 120.446 559.963 487.323
2318 0 53.03 11.0692 587 118.988 559.095 484.31
2319 0 54.1855 10.2241 554 120.394 559.103 482.838
2320 0 59.1006 11.878 702 115.11 559.846 483.983
2321 0 62.2075 13.4389 836 110.337 559.849 483.659
2322 0 64.1505 12.611 809 111.891 559.948 482.452
2323 0 65.1233 14.5724 949 107.963 560.115 481.503
2324 0 66.1974 11.7678 779 113.629 561.379 481.376
2325 0 70.1741 11.9845 841 112.661 560.452 477.539
2326 0 71.1749 12.5044 890 111.021 559.852 477.909
2327 0 75.1756 13.4485 1011 109.906 560.95 477.251
2328 0 76.1279 12.1506 925 110.552 560.372 477.605
2329 0 80.2212 13.7993 1107 107.393 560.853 474.631
2330 0 80.1809 11.4366 917 113.23 560.349 473.63
2331 0 85.1035 14.0182 1193 107.411 560.239 471.508
2332 0 86.0736 12.1059 1042 111.896 560.24 470.741
2333 0 91.0998 13.2712 1209 107.916 560.203 469.514
2334 1 48.0868 12.1239 583 104.925 560.763 490.091
2335 0 48.1228 12.7798 615 104.857 560.833 487.574
2336 0 50.2052 12.4489 625 106.069 560.846 487.83
2337 0 51.1131 11.3278 579 109.9 560.623 486.435
2338 0 53.2054 13.0626 695 106.987 560.682 484.101
2339 0 55.1319 13.6582 753 106.084 561.189 482.155
2340 0 56.206 13.2904 747 106.323 561.143 483.139
2341 0 59.2007 12.3478 731 109.476 560.782 481.803
2342 0 58.1936 12.3725 720 110.172 560.851 480.076
2343 0 62.1787 13.5416 842 107.879 560.296 479.318
2344 0 64.1405 12.6753 813 109.417 560.802 478.06
2345 0 68.1824 14.3585 979 105.104 560.418 478.41
2346 0 67.2605 12.801 861 110.918 560.236 474.391
2347 0 72.1424 14.5268 1048 107.144 560.502 471.921
2348 0 74.3239 14.3292 1065 107.804 560.335 472.179
2349 0 76.412 14.1077 1078 109.622 561.063 469.653
2350 0 77.5557 14.6088 1133 109.33 560.571 467.383
2351 0 80.4115 13.5677 1091 113.52 561.232 464.238
2352 0 84.5377 14.2303 1203 111.446 561.115 463.277
2353 0 87.4821 13.1684 1152 114.269 560.899 461.745
2354 0 87.2413 14.2364 1242 111.82 561.491 462.655
2355 0 92.2775 13.7737 1271 113.22 561.634 459.871
2356 0 93.1825 13.4682 1255 111.197 562.476 456.649
2357 0 98.16 13.2742 1303 110.218 563.22 459.964
2358 1 50.1636 11.4226 573 114.595 562.949 478.693
2359 0 51.2053 10.7215 549 116.563 562.714 473.275
2360 0 53.147 11.9104 633 113.923 563.071 471.784
2361 0 56.0592 12.6117 707 111.55 561.491 476.931
2362 0 56.0845 12.4633 699 113.581 561.258 474.034
2363 0 59.0647 12.9858 767 111.516 560.714 474.648
2364 0 61.0825 12.786 781 111.741 561.294 472.8
2365 0 64.076 14.0926 903 108.701 561.638 470.017
2366 0 67.1813 13.0245 875 108.799 561.137 470.335
2367 0 67.1928 13.9449 937 107.799 560.775 469.084
2368 0 70.0642 12.7883 896 110.081 560.817 466.931
2369 0 73.0878 13.2854 971 108.056 561.063 465.923
2370 0 76.1407 13.2386 1008 109.186 561.422 464.174
2371 0 79.2704 14.0279 1112 108.069 561.039 463.558
2372 0 80.126 13.5661 1087 109.064 560.56 462.657
2373 0 83.188 14.2448 1185 107.488 561.685 462.561
2374 0 86.3431 14.3613 1240 107.919 561.618 459.594
2375 0 88.1668 13.1229 1157 110.962 561.991 459.866
2376 0 92.2628 14.7947 1365 107.196 562.626 457.895
2377 0 92.3445 13.0923 1209 113.141 562.189 456.106
2378 0 96.1874 12.6732 1219 114.048 562.169 455.703
2379 0 99.2956 12.5282 1244 114.355 562.414 453.851
2380 1 54.3391 11.4834 624 116.139 562.119 475.054
2381 0 56.1007 11.7289 658 116.365 561.939 474.195
2382 0 57.2709 11.6813 669 116.496 562.193 473.723
2383 0 61.1835 13.1081 802 112.488 562.244 472.413
2384 0 60.2041 13.3712 805 114.125 561.81 470.631
2385 0 63.1275 12.7837 807 115.164 562.306 469.67
2386 0 64.2719 11.9648 769 117.362 562.697 470.674
2387 0 66.2645 11.9521 792 117.693 562.491 468.764
2388 0 71.2459 13.278 946 114.076 562.661 466.587
2389 0 72.2366 12.999 939 115.028 562.496 466.867
2390 0 74.2899 13.3666 993 115.449 563.088 465.209
2391 0 77.3841 13.4524 1041 114.601 563.25 463.483
2392 0 78.4052 13.6343 1069 115.562 562.859 462.464
2393 0 82.357 13.2229 1089 117.156 562.751 460.026
2394 0 87.2882 13.3351 1164 117.012 562.089 459.632
2395 0 86.1525 13.0698 1126 120.46 562.076 455.54
2396 0 92.1849 13.4512 1240 118.077 562.648 454.626
2397 0 94.433 14.4653 1366 116.216 562.642 452.015
2398 0 97.2616 13.3146 1295 115.015 562.514 456.595
2399 0 98.2905 12.5851 1237 118.179 562.993 452.627
2400 0 103.39 13.2605 1371 116.713 561.948 450.979
2401 0 106.169 12.4612 1323 119.313 562.293 450.057
2402 1 58.1262 9.75464 567 125.213 562.346 468.342
2403 0 62.3131 12.9026 804 118.76 562.468 467.483
2404 0 65.2385 13.6116 888 119.548 562.589 471.068
2405 0 66.2621 13.9446 924 119.473 563.789 469.701
2406 0 70.2608 14.5743 1024 117.854 563.24 467.495
2407 0 73.3459 14.9429 1096 116.712 563.418 467.047
2408 0 73.2507 14.1569 1037 118.805 562.779 467.266
2409 0 74.1155 14.0052 1038 120.605 562.343 464.734
2410 0 77.1028 13.9295 1074 121.641 562.69 463.868
2411 0 80.2456 14.1067 1132 122.665 563.534 460.47
2412 0 83.1322 13.4845 1121 124.894 563.238 459.726
2413 0 85.2879 13.5189 1153 126.775 562.926 456.111
2414 0 90.3226 13.4739 1217 125.503 562.894 454.058
2415 0 91.3082 13.2628 1211 128.149 562.596 452.583
2416 0 96.4184 14.2919 1378 124.667 562.326 450.29
2417 0 99.375 14.3296 1424 124.575 563.084 450.621
2418 0 102.389 14.0249 1436 126.564 563.104 446.264
2419 1 55.4066 11.4246 633 131.264 562.668 469.81
2420 0 56.3219 12.6949 715 128.733 562.945 472.043
2421 0 58.0396 12.302 714 130.473 562.175 468.744
2422 0 61.1198 12.7618 780 128.05 562.154 471.047
2423 0 63.1814 13.4533 850 126.629 562.521 470.273
2424 0 63.1377 13.5577 856 127.926 562.502 469.241
2425 0 68.1536 13.9097 948 124.659 562.659 469.583
2426 0 70.1169 13.7912 967 125.161 562.645 466.583
2427 0 71.3619 15.1762 1083 122.742 563.042 464.297
2428 0 73.2954 13.2614 972 127.897 562.637 464.09
2429 0 74.2523 12.4575 925 130.253 563.001 461.013
2430 0 80.465 14.5778 1173 122.438 562.536 459.583
2431 0 81.4777 14.4579 1178 124.778 562.337 457.351
2432 0 84.3769 15.2648 1288 122.914 562.749 455.237
2433 0 86.176 14.3079 1233 126.247 561.861 453.559
2434 0 89.2749 14.5954 1303 124.722 561.776 451.462
2435 0 93.2586 13.8647 1293 126.635 562.114 449.715
2436 0 96.3036 14.7554 1421 123.757 561.952 449.76
2437 0 98.4691 13.1107 1291 127.53 562.789 447.795
2438 0 104.439 13.6539 1426 125.459 562.477 445.722
2439 0 105.339 13.9455 1469 125.489 562.125 441.197
2440 0 110.221 14.8792 1640 122.308 562.532 441.598
2441 1 61.2214 12.659 775 124.36 562.173 466.914
2442 0 65.1777 14.1306 921 120.749 562.073 466.198
2443 0 66.2708 13.0072 862 124.484 562.346 464.465
2444 0 68.3537 12.2598 838 125.893 562.629 465.095
2445 0 70.1821 11.9831 841 127.738 562.241 460.813
2446 0 74.2899 13.3262 990 123.721 562.984 460.118
2447 0 77.4448 13.2611 1027 123.33 563.898 459.985
2448 0 79.348 12.6531 1004 124.171 563.425 459.615
2449 0 80.3276 14.0923 1132 121.586 563.834 455.372
2450 0 82.22 12.2963 1011 122.001 562.746 456.15
2451 0 83.3436 12.2145 1018 122.926 562.863 454.663
2452 0 86.3543 10.9433 945 125.53 562.856 455.152
2453 0 88.3209 10.9487 967 126.033 562.98 453.972
2454 0 91.2337 12.5502 1145 124.367 563.627 448.544
2455 0 95.3699 11.8276 1128 124.596 563.23 450.589
2456 0 97.3455 11.7109 1140 125.931 563.249 449.132
2457 0 101.188 13.1438 1330 122.85 562.754 445.627
2458 0 103.244 12.2137 1261 126.442 563.138 444.002
2459 0 108.428 12.8104 1389 124.235 563.04 443.893
2460 0 111.465 13.0534 1455 123.579 563.281 440.878
2461 0 115.367 12.8199 1479 123.337 563.588 441.132
2462 0 122.444 13.5164 1655 121.387 563.38 436.049
2463 1 64.1648 12.0004 770 124.075 562.46 462.857
2464 0 67.2733 11.8472 797 123.178 563.321 462.368
2465 0 69.2889 12.1953 845 122.652 563.447 460.52
2466 0 72.2534 13.9371 1007 116.441 564.138 459.362
2467 0 74.1957 12.8714 955 119.657 564.022 456.443
2468 0 78.441 14.087 1105 115.671 564.271 458.192
2469 0 79.3028 12.5847 998 121.247 563.714 454.819
2470 0 80.2973 14.6331 1175 116.826 563.965 454.775
2471 0 82.2636 14.3441 1180 119.522 563.648 450.924
2472 0 83.3922 13.6224 1136 119.961 563.955 450.602
2473 0 89.2616 13.8469 1236 117.447 563.598 449.909
2474 0 89.2265 12.7877 1141 122.305 564.297 445.394
2475 0 93.3928 12.3243 1151 123.292 563.624 445.479
2476 0 96.281 13.149 1266 120.992 563.907 444.026
2477 0 100.613 14.1532 1424 117.787 564.087 443.589
2478 0 103.403 14.2259 1471 117.29 564.067 443.789
2479 0 105.276 13.6403 1436 120.405 564.618 440.874
2480 0 107.441 12.8163 1377 124.251 563.642 437.062
2481 0 111.277 13.9741 1555 120.875 563.594 437.522
2482 0 116.397 12.4402 1448 125.1 563.379 433.939
2483 0 123.343 13.5233 1668 121.522 563.626 432.606
2484 0 124.257 12.4983 1553 125.177 563.044 428.592
2485 0 131.295 13.5648 1781 121.883 563.892 425.604
2486 1 72.0387 13.34 961 118.555 563.124 460.278
2487 0 76.2083 13.345 1017 119.545 563.32 462.855
2488 0 77.1612 13.4912 1041 120.528 562.979 460.72
2489 0 80.1627 12.8988 1034 122.073 563.634 461.257
2490 0 83.2077 12.9676 1079 120.902 563.285 459.693
2491 0 85.287 13.1673 1123 120.483 563.844 458.752
2492 0 89.2705 14.2936 1276 118.987 563.933 456.509
2493 0 92.1907 14.1229 1302 120.323 563.638 455.061
2494 0 92.2389 12.782 1179 126.672 563.508 455.02
2495 0 96.3475 13.5862 1309 123.992 563.031 452.273
2496 0 100.283 14.3992 1444 123.643 563.726 450.843
2497 0 104.445 14.4573 1510 124.47 563.397 449.303
2498 0 105.347 14.1912 1495 126.541 563.066 445.751
2499 0 109.432 14.7671 1616 125.428 562.775 445.974
2500 0 110.343 13.023 1437 131.374 562.169 444.807
2501 0 114.379 14.3908 1646 128.324 562.794 443.137
2502 0 118.401 15.1857 1798 127.229 562.702 440.402
2503 0 119.439 12.3075 1470 136.623 563.063 437.175
2504 0 126.629 14.4596 1831 129.65 562.984 435.754
2505 0 128.331 14.3301 1839 131.27 562.762 432.798
2506 0 134.624 14.6111 1967 130.305 563.409 430.795
2507 0 136.62 14.1267 1930 133.192 563.672 427.38
2508 0 142.564 14.1761 2021 134.461 563.444 423.413
2509 0 145.516 13.5036 1965 135.78 563.827 421.021
2510 0 150.276 13.0626 1963 131.856 564.185 416.223
2511 0 156.185 13.2536 2070 131.56 563.652 417.457
2512 0 160.267 13.3028 2132 132.92 563.439 412.599
2513 0 167.448 13.1802 2207 133.067 563.192 408.043
2514 0 173.399 12.6933 2201 135.12 563.555 406.194
2515 0 177.318 13.0049 2306 135.14 563.628 403.049
2516 0 185.303 13.1677 2440 135.602 563.455 396.22
2517 0 190.294 12.6226 2402 137.546 563.429 392.902
2518 0 194.462 13 2528 136.867 563.613 394.029
2519 0 201.372 11.9778 2412 139.493 563.758 390.813
2520 0 209.61 12.6759 2657 137.995 564.102 384.57
2521 1 166.292 11.6362 1935 133.053 563.779 411.705
2522 0 172.166 13.5799 2338 130.068 564.156 412.299
2523 0 175.388 12.4296 2180 135.179 563.962 408.003
2524 0 183.418 13.6409 2502 132.609 564.257 401.107
2525 0 187.482 12.0812 2265 139.338 564.086 394.336
2526 0 194.57 11.8878 2313 139.009 564.377 394.885
2527 0 200.467 13.1393 2634 137.01 564.902 382.623
2528 0 207.47 13.4574 2792 136.413 564.895 380.916
2529 0 213.474 13.7956 2945 135.734 564.712 382.388
2530 0 221.522 13.3169 2950 137.294 564.831 378.436
2531 0 226.393 11.9924 2715 141.974 564.686 371.396
2532 0 237.366 14.2986 3394 137.348 564.053 366.755
2533 0 243.302 14.2087 3457 138.41 564.967 360.255
2534 0 247.221 13.1785 3258 140.09 565.021 353.695
2535 0 256.302 14.401 3691 138.076 564.705 350.915
2536 0 265.173 15.0619 3994 139.635 564.397 352.105
2537 0 267.408 14.6555 3919 142.949 564.862 337.909
2538 0 279.401 14.481 4046 141.952 564.769 338.61
2539 1 67.069 7.26118 487 119.029 562.854 442.388
2540 0 67.1628 9.60352 645 116.597 563.924 445.482
2541 0 76.1227 9.11686 694 121.205 563.245 452.45
2542 0 77.1456 9.39781 725 121.09 562.862 451.178
2543 0 82.1637 11.0633 909 120.999 563.719 455.925
2544 0 83.101 9.66294 803 125.187 563.846 457.284
2545 0 85.1588 10.4745 892 126.025 564.182 451.14
2546 0 89.1592 9.73539 868 127.949 564.268 450.23
2547 0 94.121 11.3471 1068 122.93 564.282 448.466
2548 0 94.1497 9.62297 906 121.579 567.789 436.811
2549 0 98.1718 11.1845 1098 117.403 567.801 437.239
2550 1 37.0306 8.74953 324 110.904 567.975 464.685
2551 0 38.022 8.86328 337 112.944 567.614 448.774
2552 0 38.0612 9.90509 377 113.324 567.459 453.7
2553 0 39.0076 9.99805 390 116.249 567.585 454.995
2554 0 38.0857 9.87248 376 119.096 567.646 457.463
2555 0 40.0212 9.69487 388 118.294 568.072 468.51
2556 0 42.0339 10.6343 447 116.385 568.315 475.785
2557 0 41.0291 11.4309 469 116.723 567.891 478.964
2558 0 39.1243 9.81486 384 127.964 566.63 477.852
2559 0 45.0985 11.619 524 118.326 568.052 478.662
2560 0 45.0323 10.6368 479 124.896 568.415 478.466
2561 0 45.042 11.3672 512 124.291 567.887 478.84
2562 0 44.0422 11.6252 512 126.295 567.688 477.836
2563 0 42.0133 11.0679 465 131.333 567.72 478.634
2564 0 46.0208 13.2549 610 124.113 567.831 477.997
2565 0 46.0225 10.5383 485 134.736 568.161 478.029
2566 0 46.0265 12.558 578 127.822 567.905 479.273
2567 0 47.0122 11.9969 564 130.184 567.814 478.239
2568 0 47.0203 12.6967 597 129.114 567.591 478.193
2569 0 46.0109 12.171 560 134.012 567.875 477.134
2570 0 48.0248 12.2229 587 132.56 567.356 478.506
2571 0 47.0177 12.9738 610 131.693 568.307 477.641
2572 0 47.0119 11.763 553 134.23 568.427 479.559
2573 0 46.0156 13.6475 628 133.008 568.212 477.049
2574 0 45.0457 12.9868 585 136.432 568.121 477.578
2575 0 48.0223 13.3063 639 131.685 568.224 479.387
2576 0 47.0264 13.1628 619 132.099 568.04 478.039
2577 0 46.0457 13.3346 614 133.671 567.161 477.114
2578 0 47.0927 14.1423 666 129.605 566.033 479.041
2579 0 47.0283 14.1404 665 130.302 567.465 477.934
2580 0 47.0426 13.0095 612 134.306 568.116 477.09
2581 0 48.1724 13.3271 642 132.263 567.442 478.132
2582 0 47.0263 13.3117 626 134.45 567.438 477.276
2583 0 48.0521 13.7351 660 131.061 567.198 479.092
2584 0 45.0307 12.0585 543 140.004 567.622 478.532
2585 0 48.0667 13.4813 648 132.816 567.008 478.471
2586 0 46.0163 12.1044 557 138.58 567 479.363
2587 0 46.074 12.1109 558 139.932 567.1 479.326
2588 0 47.0338 13.7561 647 135.091 567.241 477.952
2589 0 47.0352 12.0548 567 141.608 567.543 477.838
2590 0 49.0727 12.777 627 138.094 567.144 478.384
2591 0 48.0673 13.3979 644 136.457 567.606 478.635
2592 0 48.0321 13.9906 672 133.747 567.26 477.621
2593 0 48.2435 12.6235 609 138.049 566.936 477.86
