time division length width area intensity CMx CMy
0 0 37.0391 12.0953 448 153.083 877.529 474.417
1 0 38.0123 13.3115 506 149.937 877.551 473.457
2 0 38.0116 11.4702 436 152.716 877.956 474.892
3 0 38.011 12.3385 469 151.085 878.896 474.29
4 0 38.0121 12.3119 468 150.735 879.908 474.259
5 0 41.0254 13.4551 552 146.288 878.172 473.063
6 0 40.0371 13.4376 538 148.766 877.829 473.439
7 0 43.044 12.5918 542 147.613 877.421 473.531
8 0 43.0462 12.8467 553 147.931 877.523 472.309
9 0 46.04 13.9227 641 141.788 877.577 472.031
10 0 46.0412 13.3359 614 144.803 877.397 471.638
11 0 49.0428 13.6615 670 141.022 877.557 472.955
12 0 49.0554 12.8426 630 145.846 877.19 471.163
13 0 48.0583 13.0466 627 158.506 876.172 471.102
14 0 51.0578 14.1212 721 142.06 877.092 470.363
15 0 53.0581 13.08 694 142.905 876.751 472.174
16 0 54.0654 13.5022 730 143.101 877.126 470.418
17 0 56.036 13.9375 781 141.087 876.625 469.424
18 0 55.0865 13.6694 753 142.825 877.118 469.315
19 0 58.0784 13.344 775 143.086 876.628 468.458
20 0 60.0947 13.7117 824 142.797 876.749 467.933
21 0 60.0853 13.5807 816 143.512 876.716 467.268
22 0 65.0872 14.2271 926 139.161 877.329 467.09
23 0 65.0872 14.2117 925 160.161 877.325 467.122
24 0 65.0872 14.2117 925 159.674 877.325 467.122
25 0 65.0765 14.214 925 159.345 877.325 467.122
26 0 75.1653 14.9271 1122 135.307 876.266 462.837
27 0 78.0934 15.2766 1193 133.76 876.095 460.186
28 0 81.161 14.7978 1201 138.832 875.157 457.827
29 1 40.0214 12.7182 509 140.611 875.794 478.363
30 0 41.0644 12.6387 519 140.445 876.382 477.796
31 0 44.1345 13.4136 592 139.758 875.431 476.716
32 0 46.0811 13.5413 624 138.615 875.027 476.736
33 0 46.0979 13.5581 625 140.405 875.242 474.992
34 0 49.0611 12.9634 636 138.572 874.843 477.505
35 0 49.0133 14.4655 709 138.188 875.267 474.647
36 0 49.047 13.7419 674 138.491 875.197 475.23
37 0 51.0454 14.1247 721 137.211 874.519 472.76
38 0 51.0454 14.1443 722 151.129 873.543 472.619
39 0 56.0722 14.3743 806 129.423 873.732 471.649
40 0 57.0737 13.9118 794 131.443 874.72 472.018
41 0 59.046 15.3948 909 131.572 874.315 469.553
42 0 61.0715 14.393 879 133.634 873.991 469.926
43 0 62.0609 14.2763 886 133.149 874.477 468.985
44 0 66.0494 14.6103 965 130.838 873.816 468.61
45 0 66.0494 14.5648 962 146.517 873.792 468.61
46 0 70.0844 14.0545 985 132.372 873.738 465.891
47 0 73.0774 15.0799 1102 128.003 873.426 465.035
48 0 76.071 15.3672 1169 127.396 873.829 461.846
49 0 79.1321 15.114 1196 126.98 873.69 462.405
50 0 81.1766 13.2427 1075 131.499 873.35 461.886
51 0 84.1886 15.0495 1267 126.427 873.597 458.859
52 1 42.0905 12.9483 545 123.066 874.042 481.594
53 0 42.0452 12.6293 531 125.559 873.567 481.947
54 0 45.047 13.719 618 124.204 874.052 478.621
55 0 45.0109 14.6187 658 121.745 874.348 479.783
56 0 45.0135 14.5734 656 133.524 875.354 479.845
57 0 45.0275 14.48 652 133.296 876.345 479.86
58 0 51.0372 14.46 738 119.328 874.455 477.443
59 0 52.0697 13.2323 689 121.334 874.787 478.797
60 0 54.1276 13.7822 746 120.78 873.737 475.342
61 0 54.1308 13.7629 745 137.144 872.733 475.231
62 0 61.1311 12.8249 784 121.709 873.628 475.39
63 0 61.061 13.6748 835 119.859 873.677 474.436
64 0 63.085 15.281 964 117.026 873.952 472.902
65 0 63.0515 13.8458 873 121.663 873.792 472.354
66 0 65.0624 13.756 895 122.089 873.437 470.488
67 0 65.0624 13.756 895 149.356 873.437 470.488
68 0 71.0756 14.773 1050 119.949 873.646 467.472
69 0 73.1021 13.2144 966 122.875 873.07 467.13
70 0 75.179 13.275 998 122.828 873.319 465.476
71 0 79.1308 13.4335 1063 121.892 873.363 464.529
72 0 83.1427 14.0602 1169 119.338 873.266 463.947
73 0 86.161 13.9274 1200 121.052 873.9 460.872
74 0 88.2345 13.5321 1194 122.126 873.802 459.549
75 0 92.166 13.4757 1242 121.98 873.576 459.126
76 0 92.166 13.4214 1237 139.308 872.57 459.211
77 0 92.1516 13.391 1234 138.934 871.571 459.154
78 1 48.027 12.2847 590 112.769 874.319 480.185
79 0 51.1054 12.4644 637 111.664 873.615 479.099
80 0 52.071 11.9836 624 113.364 873.949 477.357
81 0 54.1196 12.9343 700 111.956 873.81 476.579
82 0 56.0633 12.254 687 113.556 872.886 475.376
83 0 59.1327 13.2921 786 109.346 873.239 471.425
84 0 63.0885 13.3622 843 109.529 873.483 472.924
85 0 62.1074 12.7199 790 112.741 873.47 471.9
86 0 67.1385 12.72 854 112.381 873.351 469.629
87 0 68.2096 12.7548 870 113.129 872.855 470.401
88 0 72.0936 13.2744 957 112.723 872.635 468.879
89 0 74.1127 13.0072 964 113.387 872.87 466.588
90 0 78.1047 13.4179 1048 111.218 872.546 468.052
91 0 79.0838 12.5057 989 115.156 872.306 465.359
92 0 79.0869 12.442 984 135.461 873.308 465.275
93 0 86.1276 12.017 1035 117.094 871.483 461.832
94 0 90.1927 12.8614 1160 115.418 872.545 460.058
95 1 47.0487 12.1576 572 109.521 873.334 481.811
96 0 47.0887 10.6607 502 112.092 873.556 479.817
97 0 48.0415 11.4484 550 106.262 872.538 481.5
98 0 51.0902 12.4486 636 104.544 871.794 479.854
99 0 51.1127 11.1323 569 107.714 872.464 478.418
100 0 52.1791 11.4797 599 107.778 871.679 476.367
101 0 55.1328 11.8804 655 107.142 871.287 476.466
102 0 56.1057 10.801 606 108.827 871.708 476.782
103 0 59.1312 11.8212 699 106.366 871.252 475.961
104 0 61.1236 12.0739 738 106.328 871.152 473.737
105 0 63.1636 12.2222 772 106.69 870.974 472.926
106 0 66.1137 11.3138 748 108.694 871.009 472.727
107 0 68.0752 11.4579 780 110.337 871.185 470.353
108 0 70.1309 12.7191 892 106.284 872.123 469.382
109 0 74.0355 12.0618 893 107.409 871.909 468.719
110 0 74.0355 12.1023 896 124.574 873.921 468.648
111 0 77.1736 10.2885 794 112.204 871.025 467.616
112 0 80.0955 11.2616 902 112.004 871.478 464.271
113 0 84.1216 11.5785 974 110.354 871.121 462.46
114 0 84.1187 11.5313 970 120.048 870.11 462.652
115 1 46.0481 9.05574 417 113.947 871.566 481.374
116 0 46.0427 9.1654 422 124.626 874.628 481.164
117 0 49.2381 11.1905 551 107.047 871.131 479.517
118 0 49.0965 12.119 595 105.279 870.761 478.35
119 0 53.0805 12.076 641 104.242 870.621 478.009
120 0 54.1098 11.6984 633 104.564 870.834 476.137
121 0 55.0939 10.7998 595 107.476 870.709 475.998
122 0 58.1286 11.6122 675 104.406 871.013 475.695
123 0 59.0686 10.6994 632 106.127 871.764 472.639
124 0 62.0881 12.4017 770 102.632 871.801 472.735
125 0 63.1101 11.0283 696 105.605 872.047 471.283
126 0 65.0773 11.4479 745 105.246 870.811 470.486
127 0 67.1091 11.7272 787 104.574 871.052 468.224
128 0 70.178 11.7843 827 105.183 871.207 468.933
129 0 73.1085 11.6949 855 105.535 871.687 468.223
130 0 76.1807 11.5384 879 106.273 872.937 464.592
131 0 78.1482 11.6957 914 107.249 872.824 463.929
132 0 81.2047 10.7752 875 111.904 873.197 465.192
133 0 84.1881 11.8782 1000 110.478 873.705 461.119
134 1 42.0317 10.3018 433 109.483 873.63 481.737
135 0 43.0676 10.379 447 110.94 873.369 480.653
136 0 47.0607 11.7933 555 107.126 873.103 479.162
137 0 47.0241 10.6967 503 110.833 873.173 480.553
138 0 47.026 10.4623 492 123.984 874.128 480.703
139 0 51.0799 11.3743 581 110.788 872.403 476.912
140 0 51.1253 12.8117 655 108.398 873.273 477.211
141 0 51.1253 12.8117 655 125.412 874.252 477.085
142 0 54.0713 11.8917 643 111.154 872.288 474.89
143 0 57.0852 11.8945 679 110.212 872.19 474.72
144 0 57.1018 11.4007 651 111.114 872.614 474.533
145 0 61.1617 11.3633 695 110.845 872.682 473.05
146 0 63.1802 11.7917 745 110.467 872.505 472.494
147 0 64.087 12.6547 811 110.301 872.173 471.316
148 0 67.0348 12.3518 828 109.789 872.758 471.171
149 0 71.0741 13.2819 944 107.745 872.341 468.862
150 0 71.1292 12.4421 885 110.181 872.91 468.484
151 0 75.1266 13.4972 1014 107.781 872.482 466.446
152 0 78.0737 13.2311 1033 108.727 872.467 465.118
153 0 80.1228 13.2547 1062 109.207 872.231 465.279
154 0 83.128 12.9559 1077 109.336 872.171 464.37
155 0 87.1396 13.0136 1134 110.744 871.742 460.502
156 1 41.0333 11.0398 453 109.766 872.179 483
157 0 43.0879 11.6738 503 109.382 871.338 480.668
158 0 46.1286 12.8554 593 107.818 870.971 477.528
159 0 48.0659 12.7949 615 106.689 870.226 480.595
160 0 50.1362 13.2838 666 105.764 870.584 480.116
161 0 50.0459 13.3078 666 107.035 871.044 477.718
162 0 51.0478 11.5774 591 111.575 870.716 478.587
163 0 54.0515 12.8766 696 108.687 870.467 477.705
164 0 57.0466 12.6213 720 109.221 870.997 477.306
165 0 57.0238 12.8017 730 109.938 870.966 474.347
166 0 57.0503 12.7957 730 111.03 871.195 473.603
167 0 61.1012 12.4548 761 110.021 871.213 473.583
168 0 62.0829 12.1934 757 111.59 871.199 471.892
169 0 62.1002 11.5297 716 112.878 870.81 472.758
170 0 66.1076 13.115 867 108.685 870.735 470.382
171 0 68.0393 11.5668 787 111.87 870.616 469.454
172 0 69.0709 12.8419 887 110.132 871.596 466.986
173 0 70.069 13.5152 947 129.912 872.617 467.968
174 0 74.1312 11.5066 853 112.556 871.512 466.516
175 0 78.1353 12.2736 959 110.453 872.219 462.653
176 0 82.1357 12.1628 999 110.102 872.013 463.077
177 1 41.0938 9.32013 383 114.444 872.739 482.371
178 0 42.0514 9.29814 391 112.729 872.959 482.143
179 0 44.0487 10.2841 453 111.196 873.415 479.309
180 0 45.1456 11.474 518 107.085 872.631 480.77
181 0 48.117 12.3241 593 104.998 872.32 479.305
182 0 48.0751 10.6084 510 111.008 870.812 477.924
183 0 50.1896 11.6359 584 108 870.92 477.473
184 0 50.1896 11.6359 584 124.089 869.942 477.519
185 0 50.1896 11.7355 589 123.228 868.905 477.55
186 0 53.0431 10.9156 579 110.872 871.043 475.314
187 0 57.0636 11.6361 664 109.601 871.077 474.928
188 0 57.0574 11.6374 664 109.938 871.812 472.959
189 0 60.0927 11.9482 718 109.657 871.416 472.558
190 0 61.0947 12.7507 779 108.855 871.035 471.499
191 0 66.0514 12.8385 848 107.909 872.818 470.474
192 0 67.051 12.9752 870 109.26 872.205 469.459
193 0 71.0854 13.0688 929 108.44 872.196 469.547
194 0 71.0792 12.6057 896 110.881 872.169 468.26
195 0 77.1268 13.5362 1044 107.231 872.483 467.18
196 0 77.125 13.6013 1049 135.689 872.461 467.215
197 0 81.1405 14.3332 1163 107.589 872.825 463.797
198 0 83.2405 12.8904 1073 111.429 872.775 462.28
199 1 40.0716 11.4794 460 114.878 873.346 483.433
200 0 43.0728 11.9797 516 110.659 872.51 484.01
201 0 46.0662 13.1984 608 108.786 872.043 481.581
202 0 45.1819 12.0402 544 113.906 870.335 481.239
203 0 48.05 13.0905 629 109.962 871.302 480.534
204 0 48.0849 11.3757 547 115.706 870.934 478.037
205 0 51.0324 12.7762 652 110.788 871.88 478.02
206 0 52.0133 12.7275 662 111.228 872.248 477.202
207 0 53.0678 13.3414 708 109.069 872.367 477.573
208 0 55.059 12.9134 711 109.463 872.737 475.793
209 0 59.0388 12.9406 764 107.097 873.518 476.135
210 0 60.0281 13.1438 789 108.687 873.611 474.913
211 0 60.0876 12.7647 767 110.992 873.402 473.747
212 0 61.0411 12.7947 781 111.553 872.638 472.83
213 0 65.0369 13.1464 855 110.137 872.96 472.324
214 0 64.1175 11.8688 761 115.311 873.131 470.187
215 0 67.071 12.688 851 112.967 872.59 469.863
216 0 71.0584 12.1168 861 114.419 873.697 467.955
217 0 71.0615 12.4681 886 115.394 873.144 466.53
218 0 74.0742 11.8935 881 115.646 873.286 466.49
219 0 77.0977 13.4894 1040 113.733 872.409 464.145
220 0 80.133 12.2297 980 116.034 872.263 463.554
221 0 82.0413 12.7862 1049 116.86 872.645 461.387
222 0 85.1559 11.9663 1019 118.014 872.528 463.177
223 1 43.1759 11.0247 476 114.454 872.088 482.128
224 0 43.4309 11.4435 497 115.513 871.753 477.932
225 0 45.3421 11.711 531 116.614 871.864 476.61
226 0 48.1084 12.7628 614 110.769 872.21 478.868
227 0 48.0737 13.3753 643 112.226 872.033 478.201
228 0 48.0803 13.3943 644 127.958 872.043 478.214
229 0 48.0803 13.3735 643 127.526 871.051 478.24
230 0 48.0782 11.7101 563 132.337 869.876 479.828
231 0 55.1155 13.0272 718 113.465 871.306 476.326
232 0 57.1416 12.8278 733 114.464 870.784 474.831
233 0 58.1115 13.9731 812 112.025 871.547 474.119
234 0 60.0625 12.5203 752 116.576 871.662 472.612
235 0 60.1033 12.3621 743 118.244 871.739 470.764
236 0 62.1171 12.2189 759 118.599 871.858 473.026
237 0 67.101 13.1891 885 116.227 872.24 470.141
238 0 67.0854 11.7462 788 119.825 872.065 470.184
239 0 70.0898 12.1986 855 120.153 871.932 466.557
240 0 72.0722 12.3487 890 120.507 871.539 466.642
241 0 74.1708 11.9993 890 121.498 871.943 466.142
242 0 75.0652 12.6423 949 120.242 871.529 464.313
243 0 80.1488 13.2129 1059 120.015 871.995 462.919
244 0 80.1488 12.8137 1027 144.466 873.004 462.44
245 0 85.1102 12.2547 1043 122.063 872.392 460.021
246 0 88.0967 11.6803 1029 124.626 872.603 458.706
247 0 92.1024 11.9867 1104 122.667 873.067 460.215
248 1 45.0895 9.98015 450 122.7 872.309 480.12
249 0 47.2506 11.9152 563 119.719 872.616 476.861
250 0 48.069 11.7956 567 120.291 872.353 475.506
251 0 50.0257 11.714 586 118.867 872.326 477.014
252 0 53.107 12.8985 685 114.581 872.378 476.578
253 0 53.0805 12.9803 689 116.887 871.025 475.984
254 0 54.1461 12.5401 679 117.929 871.06 474.679
255 0 54.1461 12.5032 677 136.213 871.047 474.679
256 0 57.0464 12.9368 738 118.596 870.9 471.314
257 0 58.1657 11.9658 696 121.299 871.461 471.658
258 0 62.2373 12.3881 771 119.173 871.354 469.969
259 0 65.1262 12.2992 801 119.181 871.76 468.688
260 0 67.1064 13.2178 887 117.182 871.742 468.799
261 0 67.1177 12.1578 816 120.822 871.982 467.625
262 0 71.1446 12.7065 904 119.915 871.628 464.677
263 0 74.0873 13.754 1019 116.454 871.598 463.973
264 0 76.0825 12.9859 988 119.476 871.587 462.24
265 0 76.0847 11.9078 906 122.528 871.174 461.637
266 0 81.1934 13.8065 1121 116.185 871.934 462.534
267 0 82.1269 12.2615 1007 122.025 873.178 458.385
268 0 86.1089 12.2055 1051 122.225 873.742 455.679
269 0 90.1148 11.9514 1077 121.949 873.327 455.633
270 1 48.0974 10.8322 521 118.676 873.605 475
271 0 50.0489 10.7495 538 115.797 873.173 477.929
272 0 50.0604 12.3451 618 111.706 873.06 478.21
273 0 51.0514 10.5972 541 116.403 871.052 474.357
274 0 54.1184 11.9738 648 111.58 870.718 474.619
275 0 54.1071 12.0687 653 125.45 869.746 474.565
276 0 54.0989 12.089 654 124.847 868.739 474.673
277 0 59.0626 13.5449 800 106.986 871.102 471.228
278 0 61.0668 13.2642 810 107.316 871.025 471.828
279 0 63.0233 12.9158 814 108.786 871.771 470.249
280 0 66.0541 12.293 812 108.232 871.714 469.464
281 0 67.1012 13.0251 874 107.112 871.309 466.128
282 0 70.0883 12.8838 903 106.483 871.589 467.247
283 0 74.0814 13.1207 972 105.636 871.953 464.244
284 0 76.0977 12.2211 930 108.24 871.705 461.735
285 0 76.0726 11.9491 909 108.898 871.943 460.98
286 0 78.1002 11.4084 891 110.643 872.492 462.7
287 0 81.1424 10.8328 879 111.666 872.612 461.561
288 1 40.43 10.0421 406 112.628 873.855 477.268
289 0 42.0292 10.0169 421 110.207 872.454 481.145
290 0 44.0324 10.7648 474 110.23 872.447 477.46
291 0 45.0638 10.5406 475 111.038 871.966 477.987
292 0 47.107 11.0387 520 108.86 871.621 477.487
293 0 47.07 10.4313 491 111.725 871.519 476.672
294 0 48.0823 11.3555 546 110.233 871.163 474.954
295 0 51.0633 9.96802 509 111.572 870.937 477.44
296 0 52.035 11.3001 588 109.827 870.99 474.862
297 0 54.1294 11.0661 599 111.085 871.14 474.801
298 0 55.1094 13.2101 728 106.97 871.501 473.426
299 0 57.0834 12.1576 694 108.918 870.548 472.471
300 0 60.0654 10.9547 658 111.289 870.553 470.825
301 0 63.0815 12.6186 796 106.804 870.82 469.539
302 0 62.0789 12.3391 766 121.226 870.773 468.952
303 0 66.1083 12.4039 820 108.196 871.367 467.177
304 0 69.1374 13.3647 924 106.03 871.735 467.176
305 0 71.1323 12.8352 913 108.018 872.18 464.749
306 0 73.1389 11.0338 807 111.23 871.167 464.432
307 0 78.1441 12.8481 1004 106.559 871.809 464.056
308 0 81.1335 13.3484 1083 107.263 871.314 462.227
309 1 43.0172 11.8325 509 103.904 870.727 482.356
310 0 43.1291 10.9439 472 105.775 871.097 481.841
311 0 43.0834 11.8143 509 102.387 873.709 480.511
312 0 45.0829 13.9299 628 98.7341 873.841 481.097
313 0 45.1337 11.0339 498 105.173 874.01 478.506
314 0 48.0737 13.4585 647 97.983 873.246 478.646
315 0 49.1076 12.5642 617 102.671 872.882 478.267
316 0 49.0374 11.1548 547 107.086 873.846 478.124
317 0 52.0866 12.076 629 103.687 873.135 477.107
318 0 54.0607 12.7449 689 102.148 873.393 475.759
319 0 52.0434 11.6441 606 106.287 873.726 474.71
320 0 56.1093 13.1172 736 101.992 873.552 474.073
321 0 57.0751 13.9465 796 100.482 873.666 474.112
322 0 57.0702 12.4058 708 104.701 873.353 474.653
323 0 59.0918 13.386 791 102.064 873.483 472.722
324 0 63.199 14.399 910 98.6923 873.289 473.798
325 0 64.1166 12.6332 810 100.085 873.311 468.985
326 0 64.1308 13.3477 856 99.3259 873.724 470.227
327 0 67.0497 12.7965 858 100.78 872.895 467.894
328 0 71.0976 13.3197 947 99.6822 872.871 467.391
329 0 73.1202 13.2795 971 99.5747 873.358 466.853
330 0 74.1014 12.078 895 102.428 872.266 465.514
331 0 76.0789 12.0138 914 102.581 872.305 464.758
332 0 77.115 12.7472 983 103.193 871.262 464.597
333 0 83.1085 14.2585 1185 100.071 871.124 460.616
334 0 85.2536 12.9379 1103 102.299 872.091 462.376
335 0 89.1428 11.8686 1058 106.735 871.57 460.256
336 0 90.0987 11.7205 1056 108.42 871.861 459.045
337 1 44.0499 9.67084 426 108.538 871.254 480.153
338 0 47.1575 10.8996 514 106.556 871.623 478.819
339 0 49.2041 11.808 581 104.814 872.422 477.182
340 0 48.0762 11.357 546 106.007 872.668 479.643
341 0 51.0953 11.8015 603 104.872 871.756 479.095
342 0 53.0918 11.6779 620 106.106 871.963 474.968
343 0 54.1332 12.9311 700 103.856 871.239 477.724
344 0 58.0515 12.4372 722 104.63 871.633 476.427
345 0 59.126 13.6657 808 102.387 871.71 475.72
346 0 59.1281 12.7012 751 105.565 871.651 472.67
347 0 64.1549 13.0777 839 103.518 872.226 472.4
348 0 63.1413 12.1157 765 107.641 871.957 471.093
349 0 67.1493 12.4499 836 106.129 871.818 471.682
350 0 70.1391 13.8582 972 103.773 872.314 467.689
351 0 73.0813 13.7929 1008 103.96 871.361 468.322
352 0 76.1086 12.5873 958 106.627 871.878 467.401
353 0 76.0491 12.7023 966 107.541 871.534 465.739
354 0 80.0715 12.5763 1007 107.174 871.773 467.122
355 0 83.1172 12.8854 1071 107.886 871.945 462.5
356 0 85.158 13.0933 1115 106.971 871.774 464.19
357 0 88.1183 13.3116 1173 107.525 872.01 461.527
358 0 92.2136 14.5098 1338 104.958 872.185 458.691
359 0 94.0514 12.7165 1196 109.365 872.787 459.796
360 0 97.1853 12.8003 1244 113.202 873.162 456.341
361 1 53.0528 12.4027 658 107.802 872.822 479.006
362 0 54.1802 13.6397 739 105.832 872.179 477.553
363 0 55.2133 12.986 717 103.762 872.043 477.191
364 0 56.1111 12.4753 700 104.647 872.1 477.434
365 0 58.0627 12.9343 751 101.69 872.148 475.877
366 0 62.1561 12.5169 778 99.9974 872.53 476.746
367 0 62.0561 12.2148 758 102.088 872.231 474.372
368 0 65.1447 12.7716 832 100.007 872.578 472.458
369 0 67.14 11.8111 793 100.681 872.474 471.781
370 0 72.0562 12.2543 883 100.433 873.592 469.507
371 0 72.0929 11.8458 854 103.171 873.687 467.992
372 0 76.195 11.733 894 101.877 873.709 469.839
373 0 77.2795 11.1414 861 104.828 874.045 466.17
374 0 81.1561 11.7305 952 102.86 873.993 466.46
375 0 83.2925 12.0059 1000 103.824 874.196 463.106
376 0 88.2413 12.9984 1147 99.7873 874.167 463.962
377 1 45.0425 10.5678 476 102.645 874.521 483.265
378 0 47.2673 10.4512 494 105.779 874.755 482.049
379 0 49.2259 12.8184 631 101.748 874.002 479.949
380 0 49.2144 11.4194 562 105.016 873.733 479.872
381 0 51.1886 12.0339 616 103.065 873.565 479.86
382 0 52.4088 11.6774 612 102.92 873.109 479.668
383 0 55.2814 12.5539 694 100.726 873.104 478.465
384 0 55.35 12.6468 700 101.96 872.833 477.363
385 0 57.2951 11.1877 641 105.44 873.663 476.939
386 0 60.2614 12.1803 734 102.715 873.7 476.178
387 0 59.247 11.7981 699 105.213 873.305 473.928
388 0 63.3164 12.9508 820 103.098 873.328 471.983
389 0 65.1817 12.0586 786 104.85 872.887 473.7
390 0 69.3406 13.1236 910 103.068 872.514 471.718
391 0 69.3058 13.3178 923 103.688 873.62 471.845
392 0 73.1495 15.1197 1106 100.911 872.825 469.423
393 0 73.2761 12.8691 943 108.021 872.893 467.209
394 0 78.3182 12.9089 1011 108.233 873.563 466.439
395 0 80.2836 14.6605 1177 105.161 873.269 464.421
396 0 84.2263 13.0482 1099 107.853 873.91 466.035
397 0 86.2927 13.0254 1124 109.52 873.712 463.237
398 1 44.1151 12.49 551 106.604 874.027 483.029
399 0 45.0494 11.3875 513 104.871 875.261 482.865
400 0 48.0611 13.0459 627 100.544 874.469 481.758
401 0 47.0289 12.9282 608 102.691 875.007 481.225
402 0 51.0754 12.6676 647 102.209 874.824 481.546
403 0 52.0188 11.5535 601 104.624 874.526 482.003
404 0 54.0219 11.9581 646 104.189 874.294 479.378
405 0 54.0999 12.5509 679 104.218 873.999 478.376
406 0 54.0319 12.5296 677 105.706 874.247 478.809
407 0 56.0184 12.6209 707 105.851 873.054 478.129
408 0 59.0675 11.6815 690 108.109 874.033 477.07
409 0 62.1143 12.9278 803 105.167 874.035 475.24
410 0 63.0963 13.2179 834 105.416 874.679 473.54
411 0 66.0421 13.1128 866 105.665 874.159 473.48
412 0 67.0794 13.3871 898 106.949 874.006 472.18
413 0 71.0736 12.7473 906 108.741 874.401 471.831
414 0 73.0822 12.7665 933 108.763 874.053 470.587
415 0 74.079 13.2831 984 108.337 874.326 469.695
416 0 79.1195 13.3975 1060 108.704 874.533 467.228
417 0 79.0891 13.2762 1050 110.328 874.913 465.572
418 0 83.1552 14.7195 1224 107.426 874.792 465.541
419 0 84.1049 13.067 1099 112.82 874.13 463.841
420 0 84.1049 13.1502 1106 149.297 874.108 463.724
421 0 90.0779 13.6215 1227 114.138 873.754 460.398
422 0 93.1672 13.9963 1304 112.88 873.517 458.743
423 0 97.147 15.1626 1473 108.811 873.845 458.126
424 1 49.0363 12.0931 593 113.889 874.44 481.03
425 0 52.1095 12.5313 653 114.254 871.106 477.859
426 0 52.0274 12.7049 661 113.271 871.649 478.508
427 0 54.0364 13.3799 723 111.325 871.31 479.653
428 0 56.0069 13.1234 735 113.977 871.684 476.82
429 0 58.1042 13.4586 782 110.003 872.457 476.789
430 0 60.0825 13.1819 792 111.167 871.746 475.662
431 0 62.1143 12.96 805 111.643 872.557 474.723
432 0 63.1443 12.7803 807 112.249 872.068 474.409
433 0 66.1267 13.1717 871 110.719 872.156 472.767
434 0 68.0656 14.486 986 108.586 872.902 471.249
435 0 70.0793 13.285 931 110.548 872.788 471.654
436 0 72.1108 12.7165 917 111.227 872.767 471.528
437 0 75.0946 12.8371 964 111.113 872.628 468.344
438 0 79.1424 13.9748 1106 107.249 873.137 465.858
439 0 81.082 13.4185 1088 109.263 872.373 465.142
440 0 85.0409 14.4401 1228 105.506 873.503 464.638
441 0 87.174 13.4903 1176 108.4 873.528 464.092
442 0 87.1185 12.1099 1055 113.756 873.131 464.822
443 1 46.0229 12.4069 571 110.236 873.609 483.492
444 0 46.0433 12.7706 588 110.179 873.675 482.656
445 0 46.0237 12.4501 573 112.312 873.649 482.225
446 0 48.013 11.5802 556 114.241 873.831 481.246
447 0 52.0744 11.618 605 111.835 873.587 480.283
448 0 52.0744 11.4836 598 141.239 872.612 480.306
449 0 54.0936 12.8296 694 109.435 874.405 478
450 0 55.1651 11.9822 661 111.499 874.582 477.75
451 0 59.0676 12.6465 747 109.549 874.423 477.123
452 0 60.0586 12.5711 755 110.111 874.163 475.55
453 0 62.0916 12.4171 771 110.773 875.065 474.468
454 0 65.1499 12.0338 784 110.43 875.117 475.027
455 0 66.0817 12.7267 841 109.787 875.051 470.21
456 0 69.1219 12.5431 867 109.557 875.191 471.356
457 0 71.1209 12.7951 910 110.01 874.613 470.911
458 0 74.157 12.5005 927 111.008 874.415 468.738
459 0 76.1312 13.0695 995 109.033 873.791 467.592
460 0 78.1271 12.6845 991 109.372 873.692 466.694
461 0 81.1477 12.8654 1044 109.211 874.167 466.307
462 0 83.1613 11.0268 917 114.117 874.161 463.45
463 1 46.0278 11.1672 514 115.601 874.091 481.471
464 0 49.0172 12.159 596 112.508 874.502 480.074
465 0 50.0951 13.1749 660 109.597 875.077 479.183
466 0 52.0278 12.1474 632 115.896 874.18 479.25
467 0 53.0886 12.3567 656 115.396 873.905 478.264
468 0 53.0723 12.2474 650 139.217 873.897 478.212
469 0 56.0537 12.6843 711 114.686 873.944 477.463
470 0 59.0897 12.7264 752 114.562 874.047 475.585
471 0 61.0696 13.4437 821 112.41 873.929 474.516
472 0 63.0693 12.8272 809 114.117 873.382 472.886
473 0 66.0319 13.6298 900 110.288 874.432 472.737
474 0 68.2298 14.7296 1005 104.109 874.518 472.112
475 0 71.1708 13.1515 936 111.959 875.207 470.115
476 0 72.1217 12.1323 875 115.057 874.817 469.567
477 0 75.2009 13.577 1021 112.744 874.099 467.057
478 0 78.1942 12.827 1003 113.185 874.48 465.937
479 0 79.2556 13.5132 1071 112.631 873.935 463.169
480 0 85.2453 12.9509 1104 111.682 873.784 465.338
481 0 86.1286 12.9806 1118 112.534 873.229 462.089
482 0 88.1495 13.67 1205 112.376 873.341 457.983
483 1 47.0447 12.2649 577 110.861 874.823 481.296
484 0 47.0388 11.5862 545 112.55 874.736 480.903
485 0 47.1307 11.8818 560 108.777 872.895 478.866
486 0 53.0294 12.1253 643 107.397 873.941 479.795
487 0 52.0488 12.6035 656 108.704 874.57 478.64
488 0 53.1138 12.8404 682 108.399 874.075 478.154
489 0 57.0519 14.0398 801 104.899 874.33 476.01
490 0 58.0476 13.2994 772 106.997 874.745 477.017
491 0 61.0734 14.2779 872 104.343 874.502 475.001
492 0 61.1281 12.5147 765 109.775 874.378 472.83
493 0 64.0995 12.8706 825 108.733 874.211 473.615
494 0 65.0998 12.5039 814 110.498 874.203 472.625
495 0 66.0291 13.5698 896 110.352 874.58 471.239
496 0 72.0567 13.7531 991 108.401 873.802 470.954
497 0 71.0607 12.6089 896 113.996 874.022 467.848
498 0 75.0898 13.5571 1018 112.365 874.387 465.915
499 0 78.1629 13.7533 1075 112.172 874.459 464.862
500 0 80.1111 13.2566 1062 117.56 874.125 464.175
501 0 85.0565 13.1677 1120 120.845 873.776 463.39
502 0 87.1553 13.9292 1214 120.661 873.904 462.532
503 0 91.1005 13.9736 1273 122.092 874.046 459.863
504 1 47.0249 12.9718 610 121.438 874.757 482.198
505 0 49.0352 12.0934 593 126.634 874.484 480.54
506 0 53.1075 12.7854 679 123.031 874.744 479.461
507 0 53.0215 12.9947 689 123.835 871.837 480.016
508 0 53.0208 12.5988 668 126.575 871.912 479.448
509 0 53.0208 12.58 667 163.57 871.921 479.607
510 0 59.0248 13.0962 773 123.538 871.411 476.95
511 0 59.0216 12.6225 745 124.705 871.403 477.753
512 0 61.0922 12.8167 783 123.424 871.217 474.111
513 0 64.0661 12.7837 819 124.455 871.469 473.151
514 0 65.0453 13.3907 871 124.119 872.471 472.299
515 0 69.054 14.2932 987 122.504 872.056 470.175
516 0 72.0594 14.155 1020 123.428 871.346 469.438
517 0 74.0694 13.7439 1018 125.533 871.793 469.892
518 0 75.1068 13.9535 1048 125.736 872.216 467.789
519 0 79.1614 13.3525 1057 127.744 872.57 466.179
520 0 81.0831 13.591 1102 127.741 872.779 464.907
521 0 83.1202 13.0895 1088 129.712 872.328 463.871
522 0 85.2985 13.4703 1149 128.092 872.762 462.206
523 0 89.2456 12.8746 1149 129.057 873.602 462.166
524 0 94.2123 13.6076 1282 126.272 872.79 460.303
525 0 96.2264 13.5202 1301 126.46 872.59 457.004
526 1 48.1629 11.2535 542 127.664 873.555 480.308
527 0 51.168 13.3677 684 121.487 872.852 478.633
528 0 52.1978 12.0312 628 123.646 872.454 479.121
529 0 54.0448 11.4905 621 124.882 874.422 476.977
530 0 57.0912 12.8216 732 119.773 874.835 476.519
531 0 59.0805 13.2192 781 118.031 874.645 475.95
532 0 58.0894 11.4479 665 123.274 874.538 474.962
533 0 61.0818 12.5733 768 120.408 874.74 473.315
534 0 63.0533 12.3546 779 119.969 874.465 470.607
535 0 67.0651 12.3909 831 118.629 874.621 470.874
536 0 70.1329 13.3176 934 115.842 874.851 468.931
537 0 71.113 12.5715 894 118.182 873.921 467.914
538 0 73.1378 13.2626 970 116.375 874.052 467.953
539 0 78.2996 13.1929 1033 115.896 873.674 465.317
540 0 78.2315 12.9871 1016 117.634 873.215 463.473
541 0 82.2691 14.2338 1171 113.738 873.288 463.347
542 0 83.5187 11.9853 1001 119.724 873.107 462.689
543 0 88.3856 12.6604 1119 117.473 873.389 462.033
544 0 90.3535 12.3847 1119 116.366 873.165 457.484
545 1 47.2076 11.2482 531 113.682 874.879 479.275
546 0 49.0564 11.0893 544 114.208 874.482 478.52
547 0 50.0697 11.0845 555 114.782 874.551 479.45
548 0 49.0132 11.1603 547 113.839 874.247 480.98
549 0 51.1069 12.9533 662 109.826 874.506 478.231
550 0 53.1188 12.2179 649 112.781 874.582 478.542
551 0 54.0838 13.4236 726 110.817 874.539 478.099
552 0 55.0752 13.2001 727 112.293 874.878 476.772
553 0 56.1574 12.1623 683 116.643 874.3 476.451
554 0 58.1149 13.0603 759 115.423 873.814 477.02
555 0 58.0839 11.8105 686 120.261 873.72 476.026
556 0 61.0976 13.3393 815 119.314 874.194 473.086
557 0 62.1795 12.2388 761 123.008 874.292 473.407
558 0 64.1486 12.7049 815 123.99 874.577 472.928
559 0 66.2568 13.6137 902 122.596 874.252 472.706
560 0 69.2026 14.1613 980 122.839 875.161 471.153
561 0 72.0896 13.8716 1000 123.998 874.843 470.338
562 0 72.0896 13.8716 1000 154.914 874.844 470.381
563 0 73.068 13.029 952 129.578 874.475 469.603
564 0 76.1791 13.9146 1060 129.362 874.156 467.475
565 0 78.0979 13.6879 1069 129.974 873.642 466.848
566 0 81.1134 13.8325 1122 130.758 872.621 464.885
567 0 86.092 13.8805 1195 130.836 872.501 463.972
568 0 88.1789 13.0644 1152 133.397 872.394 462.84
569 0 88.0705 13.0691 1151 135.273 872.328 462.51
570 0 93.1195 13.778 1283 133.467 872.664 459.815
571 0 96.0914 13.2166 1270 135.942 872.646 457.154
572 1 49.0928 12.5884 618 125.883 872.723 476.718
573 0 51.0907 12.2527 626 124.243 872.928 475.955
574 0 52.0435 12.2782 639 121.161 874.818 482.156
575 0 52.0337 11.3772 592 124.226 875.189 480.829
576 0 52.0283 11.4937 598 127.217 874.853 479.018
577 0 56.0582 12.8081 718 122.409 874.28 477.983
578 0 57.1107 12.467 712 122.813 874.365 478.188
579 0 61.144 12.3315 754 122.267 874.324 476.849
580 0 62.0406 12.3306 765 122.193 873.79 476.195
581 0 63.0415 11.7542 741 123.198 873.754 475.02
582 0 65.1353 12.1286 790 122.52 873.925 473.405
583 0 69.1314 13.0476 902 119.908 873.713 471.656
584 0 70.1088 12.88 903 120.81 874.055 469.299
585 0 72.0967 11.7065 844 125 873.469 467.672
586 0 76.09 13.2475 1008 121.083 873.97 465.446
587 0 78.1045 12.9698 1013 128.867 874.335 467.989
588 0 80.1527 12.4013 994 130.58 874.132 466.001
589 0 84.0643 13.1923 1109 128.862 874.427 465.752
590 1 42.0321 11.063 465 132.628 874.951 483.729
591 0 44.0716 11.6628 514 129.819 874.907 484.008
592 0 46.0544 13.3538 615 125.098 875.19 483.524
593 0 46.0557 11.5512 532 123.414 874.945 485.179
594 0 47.0541 11.1786 526 123.901 874.736 483.797
595 0 48.0782 12.3965 596 120.767 874.401 483.372
596 0 49.0865 11.6325 571 122.067 874.599 482.475
597 0 52.0675 13.5785 707 116.897 874.471 481.364
598 0 54.1062 13.1963 714 117.679 875.021 479.845
599 0 53.0704 11.2304 596 124.482 874.544 479.258
600 0 57.1376 13.0037 743 118.436 874.809 476.762
601 0 57.0783 11.4755 655 123.267 874.933 477.678
602 0 59.1009 12.3687 731 121.167 874.464 476.878
603 0 63.1068 13.6911 864 116.318 874.247 476.646
604 0 64.1396 12.4104 796 119.954 874.666 476.402
605 0 67.1561 12.5826 845 120.021 874.814 472.205
606 0 69.1163 13.6292 942 118.632 873.621 470.944
607 0 72.0884 12.3321 889 120.655 873.512 471.955
608 0 74.074 12.204 904 121.433 873.202 471.252
609 0 79.1814 12.8187 1015 118.788 874.094 468.825
610 0 81.0938 13.2563 1075 117.788 873.765 466.311
611 1 44.0286 11.9922 528 116.256 875.049 486.35
612 0 44.0972 11.52 508 119.657 874.844 484.138
613 0 47.0681 10.3679 488 111.66 873.961 481.459
614 0 45.0613 10.2971 464 132.237 874.047 482.093
615 0 48.0648 11.6717 561 112.084 874.847 480.957
616 0 50.1065 11.3758 570 115.43 875.379 482.735
617 0 51.1507 12.082 618 114.183 874.762 481.073
618 0 53.0548 12.4023 658 113.801 874.767 480.661
619 0 53.1184 11.9168 633 115.66 874.603 479.445
620 0 57.0556 12.8296 732 112.094 874.959 478.878
621 0 58.0556 11.334 658 115.372 875.198 478.363
622 0 60.0922 12.0648 725 113.537 874.397 477.968
623 0 64.0946 12.0291 771 114.322 874.213 474.244
624 0 65.0599 13.2032 859 111.593 874.016 473.984
625 0 67.1104 13.2021 886 112.445 873.777 472.642
626 0 70.0436 12.6064 883 112.651 873.514 473.754
627 0 73.1671 13.9407 1020 109.927 873.954 469.882
628 0 73.0511 11.622 849 113.986 873.31 468.856
629 0 78.1235 12.8131 1001 110.952 873.152 468.2
630 0 80.1506 12.3018 986 112.509 873.567 467.813
631 0 83.1493 12.4475 1035 115.182 872.865 463.679
632 0 84.3333 11.6324 981 120.402 873.08 458.611
633 1 41.2313 9.24056 381 112.039 872.843 481.654
634 0 43.1168 10.2744 443 107.151 873.919 483.336
635 0 45.0378 10.258 462 108.015 874.16 484.056
636 0 46.0259 10.9938 506 108.37 874.042 481.557
637 0 45.111 10.5074 474 114.11 874.804 484.141
638 0 47.0532 11.0938 522 112.705 874.002 483.203
639 0 47.0368 11.289 531 113.932 874.733 481.721
640 0 50.0945 11.5382 578 110.561 874.706 481.176
641 0 52.0181 11.2845 587 109.659 874.342 481.223
642 0 54.1403 12.4676 675 107.314 873.102 479.095
643 0 55.0896 12.3798 682 106.349 873.349 479.839
644 0 56.0434 12.9364 725 106.618 874.116 477.137
645 0 58.0648 12.0038 697 109.623 873.022 476.199
646 0 59.1253 11.7378 694 110.154 872.981 474.408
647 0 62.0651 9.66727 600 111.76 873.183 476.393
648 0 65.0513 11.9752 779 107.53 873.552 472.647
649 0 67.1137 11.9499 802 108.561 872.933 471.111
650 0 68.1982 11.276 769 109.664 873.395 471.479
651 0 71.0453 11.6968 831 104.81 873.738 469.549
652 0 74.1799 12.3349 915 103.889 873.244 467.151
653 0 77.1165 11.6577 899 104.905 874.135 464.378
654 0 79.1664 11.0779 877 106.431 873.859 465.456
655 0 82.0724 11.831 971 104.744 873.873 464.109
656 0 86.2024 11.879 1024 105.056 874.207 460.15
657 0 90.1601 11.9121 1074 104.512 873.276 459.858
658 1 44.0425 9.3773 413 103.644 873.472 481.998
659 0 48.0896 9.37833 451 103.772 872.869 479.078
660 0 48.2511 10.4039 502 104.546 872.779 475.38
661 0 51.049 10.6564 544 104.82 872.621 476.099
662 0 52.0405 11.1836 582 105.301 872.988 475.387
663 0 54.0199 10.9589 592 106.698 873.059 473.052
664 0 53.039 10.7657 571 107.8 873.916 471.984
665 0 53.0433 10.8025 573 119.607 874.918 472.017
666 0 58.0938 9.96665 579 106.589 873.47 471.221
667 0 62.0747 10.8257 672 104.295 873.125 471.076
668 0 62.0464 10.1053 627 106.789 873.396 467.019
669 0 66.0919 10.7124 708 106.014 873.102 468.928
670 0 70.1063 10.5126 737 106.554 872.921 467.052
671 0 70.1068 11.8961 834 105.21 872.614 468.258
672 0 73.124 11.0224 806 106.761 872.428 466.99
673 0 73.124 10.9403 800 130.727 872.444 466.942
674 0 80.1402 11.3551 910 106.377 871.925 468.202
675 0 84.0911 12.1059 1018 106.548 872.906 465.43
676 0 87.2403 12.4828 1089 106.433 872.6 462.439
677 1 44.032 10.6513 469 104.247 872.075 485.808
678 0 47.1289 12.0521 568 101.812 875.063 480.463
679 0 48.122 11.9072 573 103.539 875.25 480.323
680 0 49.0301 13.5835 666 99.8889 873.345 482.764
681 0 51.0477 13.458 687 99.444 871.275 482.309
682 0 50.0597 13.0245 652 104.934 871.299 479.112
683 0 51.0489 12.0669 616 105.601 872.08 480.805
684 0 52.0418 12.1249 631 106.918 871.957 479.628
685 0 54.0667 13.0579 706 105.431 871.722 477.627
686 0 57.0622 13.5466 773 103.169 871.406 478.426
687 0 59.2033 13.0736 774 104.553 871.743 475.953
688 0 60.116 12.1266 729 106.871 871.51 477.126
689 0 63.1546 13.364 844 104.235 871.713 475.893
690 0 64.1232 13.5364 868 104.982 872.052 475.647
691 0 65.1797 13.0409 850 107.166 871.66 474.052
692 0 69.1283 13.4822 932 106.153 871.405 472.183
693 0 71.1097 12.4034 882 108.313 872.082 472.896
694 0 74.1014 13.4141 994 107.776 871.984 470.1
695 0 75.1228 13.7109 1030 109.309 872.05 468.064
696 0 78.1333 13.6049 1063 109.938 871.485 467.357
697 0 80.1814 13.033 1045 112.731 871.691 466.143
698 0 82.1538 11.7097 962 116.985 872.002 464.629
699 0 84.3043 13.2852 1120 114.588 871.666 463.594
700 0 86.1536 13.4411 1158 116.226 871.947 461.833
701 0 90.2776 13.824 1248 118.226 872.636 460.573
702 0 94.1613 13.3494 1257 119.418 872.228 457.288
703 0 96.3061 12.8029 1233 121.03 871.884 457.136
704 0 100.169 14.2659 1429 116.638 871.626 455.338
705 0 102.17 13.8984 1420 119.545 872.386 453.098
706 0 106.167 13.8838 1474 120.1 871.52 450.97
707 0 110.13 13.6838 1507 113.614 872.539 449.161
708 0 114.222 13.1761 1505 115.209 872.868 447.49
709 1 59.0964 10.8636 642 107.95 873.128 473.734
710 0 61.164 11.1667 683 104.392 872.709 471.549
711 0 63.1585 10.9091 689 108.668 873.09 469.255
712 0 63.1475 12.067 762 108.064 872.584 468.219
713 0 65.1917 11.9954 782 109.423 872.428 467.565
714 0 67.1152 10.8768 730 112.121 873.752 467.048
715 0 71.072 10.7919 767 112.149 873.276 466.671
716 0 75.117 11.5021 864 115.322 872.656 462.433
717 0 78.1728 11.82 924 114.133 873.495 465.107
718 0 77.1867 10.9863 848 118.126 873.203 463.895
719 0 80.1404 11.8792 952 117.789 872.952 458.881
720 0 84.0974 11.998 1009 112.892 873.546 461.04
721 0 89.1161 11.7038 1043 113.769 873.862 459.263
722 0 92.0599 12.7852 1177 111.368 873.451 457.388
723 0 92.0899 11.5431 1063 114.19 873.943 457.279
724 0 97.1461 11.6011 1127 116.476 873.092 455.537
725 0 99.1624 11.2543 1116 117.948 872.571 450.796
726 1 49.1436 9.70625 477 111.35 872.656 478.998
727 0 54.1276 13.8931 752 110.766 873.372 478.827
728 0 54.0783 12.4079 671 111.11 873.462 480.723
729 0 54.1047 11.8659 642 112.98 873.822 478.593
730 0 57.0611 12.1098 691 110.493 874.227 479.179
731 0 58.1133 11.3399 659 113.631 874.171 476.549
732 0 60.1001 10.8486 652 113.71 874.294 476.753
733 0 62.2201 12.1343 755 112.122 874.298 473.824
734 0 64.0766 11.9856 768 110.853 874.169 475.16
735 0 68.1148 12.6551 862 110.028 873.741 473.816
736 0 69.1026 12.0545 833 112.148 873.188 470.822
737 0 71.134 10.8528 772 111.991 873.278 468.545
738 0 74.1108 11.9821 888 108.168 873.047 468.779
739 0 78.0929 11.7296 916 109.776 872.844 465.172
740 0 79.1222 11.2105 887 110.86 872.318 465.209
741 0 83.1466 12.0871 1005 111.322 872.779 463.379
742 0 86.1787 11.9171 1027 111.461 872.536 461.115
743 0 89.2329 10.9937 981 113.596 872.093 460.324
744 0 93.2247 11.9711 1116 111.633 872.233 457.462
745 1 46.258 10.8306 501 107.495 872.325 481.878
746 0 47.0674 11.2605 530 105.681 871.874 481.721
747 0 48.0424 11.5315 554 104.502 873.451 481.724
748 0 48.0324 10.9718 527 105.349 873.497 482.935
749 0 52.1108 12.6845 661 100.876 873.166 480.602
750 0 54.0846 12.9981 703 99.2077 873.442 479.553
751 0 53.1123 11.391 605 103.833 873.208 479.069
752 0 56.0863 12.2668 688 101.622 873.108 477.589
753 0 56.1086 11.1926 628 102.893 873.027 477.758
754 0 61.1869 12.4863 764 99.6165 873.516 476.91
755 0 62.0631 11.5366 716 101.359 873.007 476.115
756 0 64.0703 12.1741 780 101.335 873.94 474.041
757 0 65.1015 11.7662 766 102.298 873.342 473.774
758 0 67.0995 12.176 817 102.459 873.114 472.507
759 0 70.0672 12.7306 892 100.683 873.555 470.38
760 0 72.1184 11.1206 802 103.904 872.627 470.799
761 0 75.0497 12.3518 927 102.33 873.248 469.533
762 0 78.1923 13.0192 1018 101.424 873.256 468.577
763 0 80.1758 11.0133 883 105.788 873.234 467.016
764 0 83.0728 12.9043 1072 103.474 873.037 464.61
765 0 86.1216 11.8553 1021 105.266 873.025 464.731
766 0 88.1096 12.1667 1072 105.229 872.987 463.378
767 0 90.2108 11.9165 1075 107.49 872.791 462.65
768 0 95.159 12.0535 1147 108.251 873.077 460.064
769 0 99.2186 12.4069 1231 107.522 873.1 458.795
770 0 103.201 12.4612 1286 106.929 873.32 455.563
771 1 55.2112 11.6643 644 105.203 873.512 479.092
772 0 57.1243 12.0964 691 101.184 873.907 478.509
773 0 56.1818 12.6731 712 105.452 874.726 477.513
774 0 58.1964 13.9184 810 103.248 874.183 476.54
775 0 61.1944 11.537 706 110.775 872.809 476.03
776 0 62.1869 10.8222 673 109.141 872.646 475.761
777 0 65.2802 11.6881 763 106.962 873.203 473.219
778 0 67.1924 12.1145 814 106.591 872.643 472.711
779 0 67.1709 10.9869 738 110.44 872.654 472.665
780 0 69.2092 10.8512 751 110.321 872.435 470.105
781 0 72.2898 10.0982 730 111.912 872.47 470.825
782 0 76.2526 11.5799 883 104.471 872.075 467.96
783 0 79.1967 11.8692 940 106.106 872.247 464.028
784 0 81.1069 11.491 932 109.708 872.485 464.388
785 1 41.0108 9.99735 410 102.546 873.915 488.141
786 0 40.13 10.0424 403 107.104 873.635 486.682
787 0 44.0722 10.8458 478 103.912 872.952 485.749
788 0 44.0425 11.943 526 100.913 872.567 484.097
789 0 45.0791 10.8476 489 103.654 873.102 483.268
790 0 46.0165 11.3655 523 103.547 872.08 482.436
791 0 48.1868 10.7291 517 104.741 871.544 481.524
792 0 50.0624 12.4445 623 102.149 870.644 481.608
793 0 52.0647 12.5229 652 103.903 870.543 480.75
794 0 53.1019 12.3159 654 105.801 870.778 480.578
795 0 55.0902 13.015 717 103.845 871.664 479.764
796 0 56.1754 12.7458 716 106.19 870.999 477.507
797 0 59.2129 12.683 751 106.537 870.997 475.956
798 0 62.1644 12.4348 773 106.221 870.94 476.505
799 0 63.1564 12.4928 789 108.421 871.185 474.142
800 0 64.0855 12.0932 775 106.237 871.182 474.545
801 0 65.0834 11.8156 769 107.784 871.159 472.473
802 0 70.1116 12.366 867 105.698 870.939 472.745
803 0 72.1652 12.3328 890 106.633 871.029 472.5
804 0 74.1618 12.1761 903 106.233 871.581 470.921
805 0 75.081 11.3744 854 109.698 871.253 468.689
806 0 78.124 11.2769 881 110.186 870.551 468.426
807 0 81.1354 11.7211 951 111.287 870.56 469.607
808 1 39.0156 9.45775 369 110.927 869.886 488.29
809 0 43.0404 11.0361 475 111.017 870.377 485.459
810 0 44.0776 12.3419 544 106.404 870.61 485.461
811 0 46.021 12.755 587 111.039 870.901 481.179
812 0 49.0444 11.9891 588 112.109 870.357 481.709
813 0 46.0181 10.9522 504 117.772 869.415 482.524
814 0 49.0147 10.8743 533 117.356 870.03 482.126
815 0 52.0517 13.0831 681 111.573 870.113 480.675
816 0 53.1379 12.8533 683 112.966 870.775 481.277
817 0 55.081 12.2728 676 115.269 870.482 480.565
818 0 58.1482 13.0185 757 112.967 869.696 480.575
819 0 57.1014 13.0645 746 116.082 870.221 477.879
820 0 61.1819 12.6345 773 116.204 870.246 478.096
821 0 61.0983 12.8972 788 115.934 870.259 477.463
822 0 62.135 12.6499 786 116.342 870.486 475.37
823 0 64.0805 12.9525 830 115.351 870.659 475.059
824 0 68.0769 13.0588 889 115.198 870.304 474.019
825 0 68.1217 12.8887 878 118.392 871.748 472.661
826 0 72.1273 13.1434 948 117.637 870.96 471.423
827 0 72.182 12.898 931 119.769 870.951 471.532
828 0 76.238 12.8545 980 119 871.571 470.386
829 0 78.2331 13.6515 1068 117.538 871.835 467.931
830 0 80.1982 13.1549 1055 119.914 871.421 467.244
831 0 82.2258 11.9062 979 122.476 871.097 468.308
832 0 87.4061 12.5048 1093 120.491 871.294 466.018
833 0 87.252 11.6215 1014 124.036 872.288 462.278
834 0 91.3469 12.4689 1139 122.183 871.574 460.794
835 1 48.1051 11.9946 577 116.842 871.354 483.308
836 0 48.088 11.6869 562 115.817 870.861 482.064
837 0 51.084 12.7046 649 112.664 871.099 481.886
838 0 53.118 12.5758 668 113.332 870.934 479.704
839 0 55.2264 11.6611 644 115.548 871.329 480.21
840 0 58.1687 13.3233 775 110.395 871.377 479.493
841 0 59.1293 11.6693 690 114.461 870.8 477.99
842 0 61.1117 11.8472 724 113.316 870.866 476.662
843 0 63.0869 13.4576 849 110.832 870.777 475.993
844 0 64.0464 12.4129 795 113.288 870.503 473.964
845 0 67.0969 13.3985 899 110.345 870.299 473.542
846 0 69.1038 12.6042 871 111.828 869.743 472.053
847 0 72.1799 12.8983 931 111.313 870.154 469.994
848 0 74.0535 13.4362 995 107.14 869.642 471.209
849 0 78.1332 13.477 1053 106.338 869.972 468.447
850 0 79.1402 13.2802 1051 107.173 870.831 468.548
851 0 80.1457 12.1154 971 111.047 870.32 465.624
852 0 83.047 13.1251 1090 108.982 870.52 466.133
853 0 86.181 12.3693 1066 111.381 870.218 462.902
854 1 44.0978 12.7217 561 109.847 870.373 484.029
855 0 46.1283 11.6198 536 112.276 870.644 483.159
856 0 47.1192 12.4578 587 110.748 870.52 482.01
857 0 48.0795 11.8554 570 114.804 870.553 482.73
858 0 51.1299 11.6957 598 114.617 870.495 482.612
859 0 52.1284 12.1623 634 115.696 870.517 480.603
860 0 53.0284 11.673 619 117.242 869.688 480.199
861 0 56.0959 12.2825 689 116.528 870.366 478.614
862 0 56.1092 12.0123 674 119.936 870.457 477.923
863 0 59.1015 12.7746 755 115.522 870.58 478.581
864 0 59.0447 12.2788 725 119.441 870.114 477.077
865 0 61.0475 12.3019 751 119.443 870.06 476.712
866 0 64.1346 13.2378 849 118.38 870.439 474.025
867 0 66.1348 13.0642 864 119.259 870.712 473.245
868 0 67.2048 13.1985 887 119.797 870.534 472.811
869 0 69.1787 13.4434 930 119.661 870.999 471.206
870 0 71.1148 13.8227 983 118.192 870.636 470.684
871 0 73.2088 13.0176 953 119.972 871.175 471.621
872 0 77.1836 13.1893 1018 116.357 870.756 468.524
873 0 81.1634 13.2572 1076 115.967 871.257 467.69
874 0 81.2567 13.4389 1092 117.929 871.808 465.25
875 0 84.0823 12.3451 1038 117.712 873.118 466.223
876 1 43.0269 11.7136 504 115.76 872.488 486.258
877 0 44.0633 11.1204 490 116.7 873.541 483.414
878 0 46.095 12.3875 571 113.308 873.963 480.968
879 0 45.0167 11.5957 522 117.213 872.964 482.107
880 0 49.0435 12.1729 597 115.554 873.28 482.767
881 0 48.0308 10.8888 523 120.312 872.797 482.138
882 0 50.1054 12.1344 608 118.117 872.053 480.891
883 0 50.1054 12.0945 606 124.672 871.031 480.818
884 0 54.0492 13.0622 706 115.967 872.368 478.78
885 0 55.0253 13.0667 719 115.869 872.385 479.868
886 0 55.1243 13.0432 719 117.188 871.396 476.691
887 0 57.177 12.7324 728 117.479 871.367 478.516
888 0 61.1616 13.7177 839 113.592 871.774 476.296
889 0 61.1116 13.3526 816 115.494 871.39 474.396
890 0 62.0747 13.0005 807 117.102 871.74 474.741
891 0 63.1724 12.7587 806 117.986 872.752 473.862
892 0 67.1382 13.8222 928 114.337 872.959 472.107
893 0 71.1073 14.218 1011 112.062 872.694 470.841
894 0 72.1031 13.6055 981 114.597 872.408 470.906
895 0 74.0688 12.9474 959 116.151 872.272 468.859
896 0 77.2292 13.3758 1033 114.009 872.047 467.704
897 0 80.1472 13.338 1069 114.07 872.341 466.779
898 1 41.0234 11.9932 492 116.567 872.935 486.522
899 0 40.1514 11.631 467 117.953 872.152 486.805
900 0 42.1298 13.0786 551 114.236 872.677 485.423
901 0 44.0979 13.9916 617 112.232 872.12 483.89
902 0 45.0869 13.1746 594 115.03 872.582 482.584
903 0 45.0659 12.2044 550 117.889 872.849 481.985
904 0 48.1275 13.2357 637 115.272 872.697 481.951
905 0 49.0535 13.4547 660 114.248 872.615 483.124
906 0 50.0946 13.3148 667 114.877 872.868 482.84
907 0 51.1149 12.6382 646 117.528 872.492 481.276
908 0 53.2716 14.0788 750 115.333 872.316 479.103
909 0 56.0739 13.3752 750 116.053 872.076 478.028
910 0 57.0887 13.5403 773 116.409 872.664 478.123
911 0 61.0814 14.1123 862 114.582 872.397 477.125
912 0 60.1091 13.2925 799 118.344 872.711 475.945
913 0 64.1562 15.2596 979 112.068 872.305 474.46
914 0 65.1213 13.0833 852 118.203 872.675 474.722
915 0 68.1388 14.4705 986 115.061 873.056 471.807
916 0 72.108 15.5877 1124 111.669 872.666 471.209
917 0 73.1105 15.1688 1109 113.698 872.502 469.257
918 0 76.1075 13.586 1034 117.736 872.544 470.364
919 0 79.2165 14.2521 1129 116.216 873.116 467.925
920 0 82.1639 14.325 1177 116.588 872.415 466.454
921 0 84.1382 15.1417 1274 114.852 872.662 463.552
922 0 85.1776 14.4991 1235 118.47 871.911 465.155
923 0 89.2208 14.5258 1296 118.188 871.974 460.84
924 0 91.1874 13.9822 1275 119.204 871.221 460.941
925 0 94.2557 14.2166 1340 118.504 871.978 459.799
926 0 99.3754 15.1848 1509 115.357 870.733 457.805
927 1 49.2223 13.2054 650 118.532 871.394 480.76
928 0 51.1458 12.2786 628 123.019 871.134 478.048
929 0 53.134 14.1341 751 118.716 872.02 477.989
930 0 56.203 14.4298 811 115.617 871.91 477.84
931 0 57.227 12.8086 733 120.574 872.09 477.045
932 0 59.3769 13.7764 818 117.767 871.963 474.191
933 0 61.1148 13.581 830 114.702 871.854 474.855
934 0 62.1536 12.63 785 117.181 872.004 474.87
935 0 66.2295 13.9968 927 114.982 872.563 470.631
936 0 68.1501 13.1181 894 116.311 872.303 472.177
937 0 71.0864 13.2233 940 116.366 872.318 470.829
938 0 74.1194 12.9251 958 117.968 871.882 468.766
939 0 72.1108 12.6749 914 159.16 872.933 468.226
940 0 79.3587 13.5335 1074 117.258 872.074 464.416
941 0 81.213 13.6678 1110 117.894 872.012 461.655
942 0 85.1745 13.8304 1178 116.995 871.477 457.581
943 0 88.1906 14.2872 1260 116.753 871.79 455.638
944 1 43.1045 10.6021 457 120.532 871.768 475.871
945 0 47.1547 12.7029 599 115.267 870.773 474.636
946 0 46.1608 11.6766 539 114.777 871.978 480.696
947 0 47.0753 12.5119 589 115.623 872.185 479.489
948 0 51.1617 12.9589 663 117.91 872.321 480.944
949 0 53.2146 12.3462 657 119.129 871.942 480.382
950 0 54.266 12.6783 688 119.084 872.488 478.006
951 0 54.1694 12.184 660 121.252 872.308 478.626
952 0 59.0863 12.5241 740 114.835 872.638 476.247
953 0 59.0915 11.9476 706 115.698 872.8 476.307
954 0 60.1218 12.5412 754 116.29 872.989 473.459
955 0 65.1347 12.4818 813 115.812 872.701 474.114
956 0 66.1802 11.8464 784 118.282 872.929 472.76
957 0 66.1156 11.9034 787 120.05 872.855 472.493
958 0 70.1848 11.1563 783 122.475 873.074 472.338
959 0 70.1848 11.0423 775 125.23 872.985 469.827
960 0 76.1694 11.9733 912 122.014 872.549 468.683
961 0 80.091 12.4359 996 121.193 873.257 466.033
962 0 81.278 11.5529 939 124.175 873.858 464.52
963 1 39.0386 10.4256 407 119.396 873.403 486.256
964 0 41.0867 11.4879 472 117.371 873.57 485.059
965 0 42.0646 11.2208 472 119.117 873.006 482.472
966 0 45.0964 11.8856 536 114.498 873.108 482.731
967 0 44.0565 11.2129 494 116.247 873.034 483.472
968 0 47.1019 11.9316 562 113.215 872.121 481.089
969 0 48.1044 11.2464 541 113.773 871.689 482.338
970 0 51.261 12.3486 633 111.518 872.147 479.455
971 0 50.0821 11.4811 575 114.939 871.41 478.91
972 0 53.0347 11.879 630 113.889 871.997 477.187
973 0 54.0768 11.983 648 113.522 871.892 476.781
974 0 56.0755 12.2157 685 113.134 872.042 474.054
975 0 59.0374 12.2126 721 112.358 872.148 474.813
976 0 62.0757 13.3547 829 109.22 872.604 474.476
977 0 64.113 13.8817 890 107.526 873.072 473.287
978 0 65.04 12.992 845 109.88 873.11 472.754
979 0 66.0472 11.9309 788 112.898 872.863 472.357
980 0 69.0602 12.5108 864 112.513 872.634 470.228
981 0 71.0976 12.0539 857 114.443 873.048 470.17
982 0 73.0523 11.1427 814 115.721 872.582 467.221
983 0 75.1412 11.3786 855 115.425 872.419 467.688
984 0 79.1668 11.6716 924 115.939 872.937 463.578
985 0 80.2697 11.9846 962 115.696 872.136 461.699
986 1 43.2773 12.2004 528 108.756 873.091 480.299
987 0 43.1327 12.1717 525 110.453 873.272 480.133
988 0 46.1561 11.8944 549 109.472 873.428 479.947
989 0 48.0207 12.6404 607 107.323 872.867 481.216
990 0 49.0545 12.3944 608 109.556 872.758 479.235
991 0 51.0641 11.2995 577 111.969 872.023 478.211
992 0 53.076 12.8683 683 107.527 872.43 478.348
993 0 55.0616 13.3124 733 107.108 872.619 478.67
994 0 58.075 13.0349 757 107.803 871.873 475.877
995 0 60.1939 12.9913 782 109.348 872.324 473.486
996 0 61.1298 12.7925 782 111.02 872.584 472.913
997 0 66.1104 14.3397 948 107.1 872.852 473.568
998 0 65.0716 13.4928 878 112.397 872.454 472.419
999 0 69.131 13.9156 962 111.109 873.008 473.024
1000 0 71.1196 13.1609 936 115.368 873.546 470.965
1001 0 72.1701 12.6091 910 120.454 873.262 469.188
1002 0 76.2221 13.7231 1046 119.505 873.598 466.017
1003 0 80.1403 14.1627 1135 117.76 873.554 467.301
1004 0 83.1127 13.8005 1147 121 873.655 464.908
1005 1 40.0438 11.6872 468 118.647 873.615 486.011
1006 0 41.1345 11.8149 486 120.893 873.243 484.63
1007 0 45.0135 11.4188 514 121.512 872.095 482.839
1008 0 46.0645 11.9181 549 120.18 871.812 480.25
1009 0 47.1736 14.3301 676 116.219 872.951 483.09
1010 0 48.0862 12.8935 620 121.284 871.882 480.895
1011 0 51.0526 13.7505 702 118.48 871.987 481.212
1012 0 50.1584 13.5371 679 121.174 871.85 479.682
1013 0 55.2007 14.1846 783 117.807 871.844 479.724
1014 0 55.1966 14.2219 785 119.112 871.915 478.238
1015 0 57.1582 12.964 741 123.266 872.57 477.514
1016 0 59.0348 13.7885 814 119.678 872.903 476.765
1017 0 60.035 13.9419 837 121.717 873.313 475.889
1018 0 61.0648 13.1172 801 123.971 872.931 474.688
1019 0 66.0893 13.8903 918 119.108 873.149 475.498
1020 0 67.0351 14.664 983 120.224 873.842 472.489
1021 0 68.0816 13.7335 935 123.142 873.457 471.661
1022 0 71.2438 13.1099 934 124.916 873.619 471.813
1023 0 72.0739 13.278 957 125.642 873.525 469.55
1024 0 75.1727 13.8481 1041 124.486 873.365 469.131
1025 0 78.185 13.2378 1035 127.165 873.325 465.575
1026 0 83.2426 13.767 1146 124.154 872.898 466.248
1027 0 83.1281 13.3048 1106 127.335 872.681 463.77
1028 0 86.2149 14.2783 1231 124.985 872.483 462.254
1029 0 89.3411 14.3271 1280 125.374 872.374 458.694
1030 0 92.6866 12.4074 1150 130.304 871.863 454.535
1031 1 45.2984 11.1704 506 127.468 871.182 477.765
1032 0 48.0843 11.6254 559 119.962 872.424 469.619
1033 0 48.0997 11.8712 571 117.671 872.42 469.648
1034 0 51.1261 12.6746 648 116.963 872.179 473.932
1035 0 52.0711 12.3293 642 117.181 872.065 475.232
1036 0 54.0906 11.2404 608 120.14 872.572 473.01
1037 0 56.0749 12.9113 724 116.646 872.972 470.833
1038 0 56.0933 10.4469 586 113.734 873.379 471.816
1039 0 58.0844 10.6225 617 113.668 873.204 469.956
1040 0 61.1467 12.4782 763 109.511 873.174 468.294
1041 0 62.0671 10.4564 649 114.683 873.202 466.541
1042 0 65.1212 11.778 767 112.939 873.605 467.777
1043 0 68.1631 11.8686 809 119.216 873.999 469.938
1044 0 70.2304 12.1885 856 117.803 873.657 470.265
1045 0 74.1432 12.2735 910 117.756 873.827 468.431
1046 0 77.1257 12.7714 985 116.132 873.182 467.467
1047 0 80.2369 11.2043 899 118.483 873.224 465.734
1048 0 84.1863 13.1969 1111 113.277 872.707 463.498
1049 0 84.063 10.2304 860 118.242 872.169 464.187
1050 1 44.0594 10.849 478 112.046 872.527 481.803
1051 0 46.0707 11.1134 512 111.25 872.574 482.986
1052 0 49.1127 12.1353 596 107.027 873.431 481.767
1053 0 51.1535 12.6677 648 106.966 873.029 479.27
1054 0 52.1465 12.2539 639 109.354 873.202 477.817
1055 0 55.1551 12.0932 667 108.738 873.061 478.211
1056 0 55.2117 12.4068 685 108.466 873.104 475.361
1057 0 55.1631 11.0581 610 112.826 873.084 475.382
1058 0 60.1974 13.8378 833 104.723 872.893 474.517
1059 0 62.1352 12.3762 769 108.224 873.33 473.932
1060 0 63.1061 12.7088 802 108.691 873.175 472.918
1061 0 63.1371 12.3699 781 110.635 872.581 471.569
1062 0 65.1064 10.7823 702 114.925 872.701 468.675
1063 0 69.1972 12.7462 882 112.068 872.735 467.559
1064 0 72.1237 13.1441 948 110.697 873.157 467.841
1065 0 73.1547 11.9883 877 114.469 872.976 466.577
1066 0 78.1209 12.327 963 113.675 873.089 466.775
1067 0 80.1884 13.0568 1047 113.349 873.083 464.707
1068 0 82.1789 12.3754 1017 115.99 873.355 461.889
1069 0 84.1091 12.139 1021 117.735 873.095 462.198
1070 1 41.0828 9.88249 406 121.638 873.18 482.52
1071 0 45.1952 11.5278 521 116.76 872.117 481.676
1072 0 47.1804 11.7634 555 116.523 872.409 481.299
1073 0 48.0515 12.0288 578 116.784 873.931 479.42
1074 0 50.0568 10.9675 549 120.06 873.696 478.659
1075 0 48.0664 10.4855 504 118.002 873.486 477.635
1076 0 50.0436 8.71241 436 121.048 873.878 478.534
1077 0 52.1218 11.3388 591 113.716 873.002 477.958
1078 0 54.0541 10.3785 561 115.713 873.631 478.476
1079 0 55.1072 11.1419 614 115.171 873.476 477.715
1080 0 57.185 11.9087 681 113.056 873.88 476.523
1081 0 57.092 11.4026 651 115.694 873.903 474.762
1082 0 60.0581 11.2058 673 115.248 874.302 476.419
1083 0 62.1009 11.4169 709 116.645 873.429 472.437
1084 0 63.1784 12.0611 762 115.421 872.99 474.23
1085 0 66.0626 11.5951 766 117.017 873.757 472.637
1086 0 67.1011 10.7301 720 120.183 873.419 469.101
1087 0 69.1124 11.966 827 118.075 873.528 469.145
1088 0 70.0659 11.6034 813 119.761 873.092 468.154
1089 0 76.2496 12.0525 919 117.254 873.99 466.493
1090 0 78.1494 11.4012 891 118.782 874.022 467.125
1091 0 81.2602 10.8909 885 120.104 873.792 465.863
1092 0 84.1765 11.9867 1009 119.209 873.275 463.261
1093 0 85.0772 10.8842 926 122.857 872.068 462.626
1094 0 87.1358 11.396 993 121.796 872.76 461.282
1095 1 47.028 10.5894 498 121.512 872.962 480.02
1096 0 50.0976 11.5175 577 117.433 872.451 479.653
1097 0 51.084 13.1744 673 113.11 871.694 479.309
1098 0 52.0795 12.4041 646 111.611 872.998 478.632
1099 0 50.043 10.6109 531 116.992 873.245 477.13
1100 0 56.0534 12.5059 701 110.094 873.589 477.979
1101 0 55.0718 11.6757 643 114.121 873 476.306
1102 0 57.1035 11.2077 640 115.297 872.722 477.428
1103 0 56.0589 11.7198 657 116.064 872.409 476.256
1104 0 56.0738 10.4862 588 119.697 872.384 475.383
1105 0 62.0615 10.9085 677 115.214 872.075 475.115
1106 0 65.0845 12.7219 828 110.13 873.068 471.64
1107 0 64.0182 10.4502 669 116.963 872.851 472.644
1108 0 67.0171 12.2655 822 112.578 872.442 470.69
1109 0 71.0349 12.1912 866 112.222 872.415 471.159
1110 0 73.1112 12.2006 892 112.879 871.758 469.963
1111 0 75.0483 12.4986 938 111.752 871.727 467.849
1112 0 78.091 13.4715 1052 109.478 871.205 468.272
1113 0 79.1158 12.3363 976 111.765 871.531 466.539
1114 0 83.1407 12.4368 1034 111.21 871.398 464.717
1115 0 85.2443 12.2471 1044 111.192 871.547 462.576
1116 0 87.1054 11.9051 1037 112.23 871.222 462.497
1117 0 90.1358 12.4479 1122 111.364 871.587 457.217
1118 0 94.0871 12.5735 1183 110.943 871.887 458.117
1119 0 96.0813 11.0531 1062 114.49 871.997 458.638
1120 0 100.13 12.234 1225 112.069 871.825 456.3
1121 0 103.064 12.3128 1269 111.529 872.173 454.303
1122 1 47.03 10.2275 481 114.372 871.262 480.975
1123 0 50.0886 11.1403 558 108.53 871.21 481.276
1124 0 52.1531 11.5429 602 113.648 871.196 477.666
1125 0 53.0384 12.7455 676 104.49 873.294 480.288
1126 0 54.0357 11.2518 608 108.148 873.424 480.041
1127 0 55.0611 11.5145 634 108.382 872.703 478.631
1128 0 55.0726 10.2047 562 111.374 872.683 478.105
1129 0 59.0697 9.7004 573 111.405 873.119 478.464
1130 0 60.144 10.5414 634 111.052 873 475.066
1131 0 64.1514 11.6131 745 107.864 873.07 475.515
1132 0 65.2581 12.6881 828 107.047 872.67 472.763
1133 0 67.1273 11.6942 785 110.841 872.191 470.601
1134 0 70.1688 12.6552 888 108.664 872.333 472.035
1135 0 73.2273 12.3588 905 109.297 872.069 468.588
1136 0 77.2147 12.7437 984 108.098 872.517 467.857
1137 0 79.1914 12.7665 1011 109.036 873.343 467.343
1138 0 80.1899 12.5577 1007 111.827 872.85 463.959
1139 0 83.2102 12.847 1069 111.27 872.104 463.986
1140 0 86.2957 13.0366 1125 111.46 872.736 463.715
1141 0 87.2212 12.3594 1078 114.443 872.591 462.508
1142 0 90.2223 12.9458 1168 113.724 872.394 457.974
1143 0 93.2224 11.8856 1108 116.671 872.246 460.445
1144 0 97.2601 13.4896 1312 113.37 872.539 458.175
1145 0 99.2393 12.4346 1234 117.668 872.04 455.533
1146 0 103.17 12.5715 1297 117.086 871.82 453.75
1147 0 106.227 13.5277 1437 115.695 871.808 453.862
1148 0 110.238 12.9991 1433 118.401 871.103 448.207
1149 0 115.231 13.6769 1576 116.822 870.821 447.746
1150 1 72.1039 11.5389 832 119.105 871.373 470.608
1151 0 76.1476 12.896 982 114.116 871.506 468.311
1152 0 78.0919 12.7414 995 115.104 871.902 469.059
1153 0 81.0864 13.2821 1077 114.217 871.058 466.029
1154 0 82.1136 12.7872 1050 116.824 871.215 464.765
1155 0 85.1756 12.257 1044 117.706 871.376 465.197
1156 0 88.1774 13.4275 1184 116.459 871.715 461.997
1157 0 90.2727 13.9355 1258 116.565 871.349 462.482
1158 0 93.1001 13.0719 1217 118.5 871.958 461.042
1159 0 96.0699 13.1363 1262 119.737 871.88 459.55
1160 0 98.138 13.644 1339 121.069 871.742 457.067
1161 0 101.115 12.9061 1305 124.742 871.667 455.227
1162 0 104.213 13.2997 1386 126.347 871.434 455.105
1163 0 106.189 12.8827 1368 129.048 871.594 453.452
1164 0 107.25 13.1189 1407 130.578 871.532 451.197
1165 0 111.121 12.2209 1358 133.634 871.901 451.895
1166 0 113.181 12.6523 1432 134.442 871.49 449.904
1167 0 116.179 13.6255 1583 133.763 871.889 446.397
1168 0 120.115 13.3539 1604 134.953 871.971 446.56
1169 0 122.194 13.143 1606 138.349 870.851 445.673
1170 0 125.113 13.5478 1695 137.924 871.277 445.181
1171 0 127.225 12.4425 1583 143.043 871.946 443.419
1172 0 131.179 12.9289 1696 141.715 871.976 441.544
1173 0 135.183 13.1821 1782 143.659 871.526 440.357
1174 0 137.293 13.6205 1870 144.876 871.19 439.136
1175 0 141.207 13.0092 1837 150.146 871.365 438.444
1176 0 143.341 13.4226 1924 151.377 871.388 434.318
1177 0 145.207 12.7749 1855 156.665 871.637 434.673
1178 0 149.221 12.9941 1939 158.529 871.511 430.745
1179 0 152.131 13.8828 2112 158.884 871.359 430.004
1180 0 154.21 13.8577 2137 162.634 871.187 430.537
1181 0 158.185 13.2882 2102 170.029 871.8 427.067
1182 0 159.162 13.37 2128 172.764 871.41 425.027
1183 0 162.241 13.5539 2199 176.486 871.146 422.158
1184 0 164.253 13.6253 2238 178.287 871.006 420.561
1185 0 168.294 13.4289 2260 181.847 871.746 422.26
1186 0 169.273 12.8313 2172 188.471 871.761 416.166
1187 0 170.341 12.9916 2213 191.149 871.812 417.833
1188 0 174.457 14.955 2609 183.99 871.146 416.261
1189 0 174.49 13.164 2297 195.27 871.998 416.373
1190 0 176.634 14.0064 2474 191.829 871.758 417.697
1191 0 179.52 14.3048 2568 193.075 871.452 416.334
1192 0 179.597 13.5191 2428 197.208 871.619 417.449
1193 0 181.625 13.9794 2539 197.392 871.803 414.266
1194 0 183.446 14.691 2695 192.758 871.807 416.321
1195 0 182.518 14.3712 2623 197.311 872.104 412.85
1196 0 186.615 14.1414 2639 199.14 871.306 413.337
1197 0 186.584 14.0473 2621 199.83 872.224 413.738
1198 0 189.734 14.7839 2805 196.557 871.989 411.66
1199 0 189.639 13.6048 2580 201.871 872.053 412.458
1200 0 190.587 14.3609 2737 198.85 871.792 410.275
1201 0 190.58 13.9417 2657 201.747 871.708 409.335
1202 0 194.591 14.7848 2877 196.707 872.007 407.99
1203 0 195.608 14.3195 2801 198.181 871.887 410.35
1204 0 195.556 14.3386 2804 197.986 872.209 410.574
1205 0 195.562 14.5478 2845 198.427 872.034 406.338
1206 0 199.744 15.2095 3038 193.005 871.515 409.101
1207 0 198.686 14.7217 2925 197.894 872.153 406.896
