time division length width area intensity CMx CMy
0 0 56.1115 13.0276 731 146.821 571.275 465.149
1 0 57.0621 13.8446 790 144.359 572.084 464.13
2 0 58.0896 12.8594 747 147.566 572.861 464.363
3 0 59.0236 12.8593 759 146.83 572.808 462.661
4 1 30.0536 10.0487 302 140.172 572.877 478.344
5 0 31.0403 11.4045 354 133.59 573.452 478.251
6 0 33.0772 10.7022 354 139.573 572.347 477.972
7 0 32.138 11.8551 381 142.787 572.738 476.85
8 0 35.0731 12.7163 446 134.774 572.478 477.556
9 0 37.1766 13.6914 509 125.613 572.385 477.935
10 0 35.0101 12.3679 433 139.808 572.513 477.423
11 0 35.0359 11.6452 408 143.098 573.419 477.377
12 0 38.0106 13.4962 513 134.727 572.614 476.111
13 0 38.0805 13.0776 498 139.767 571.249 475.269
14 0 38.0648 12.3211 469 143.136 571.036 476.727
15 0 40.1389 12.7308 511 142.436 571.299 475.986
16 0 42.0378 13.9161 585 137.744 571.68 475.685
17 0 43.0731 13.4887 581 135.065 571.408 475.62
18 0 44.1702 13.7876 609 136.813 571.916 475.68
19 0 45.1369 13.9797 631 137.184 570.986 474.674
20 0 46.1012 15.0972 696 136.254 570.556 473.76
21 0 48.1095 14.5086 698 136.093 570.937 473.579
22 0 48.0997 13.867 667 138.493 570.976 474.922
23 0 49.1124 13.5607 666 140.426 570.632 474.523
24 0 51.1271 14.1804 725 137.154 570.509 472.891
25 0 53.1269 13.6089 723 139.282 569.761 473.046
26 0 53.0844 13.9777 742 138.779 569.667 472.546
27 0 56.0948 15.3847 863 131.095 569.73 472.054
28 0 57.09 14.8012 845 136.639 569.405 470.296
29 0 59.1198 14.4452 854 135.767 569.939 469.987
30 0 60.1152 15.4038 926 133.296 570.092 469.673
31 0 62.1755 15.3276 953 133.222 569.021 467.582
32 0 67.1832 14.9144 1002 131.393 568.744 469.319
33 0 66.1046 15.2637 1009 131.629 569.128 468.569
34 0 68.1425 13.2223 901 137.748 569.19 468.504
35 0 70.131 12.7476 894 138.809 569.266 468.123
36 0 70.2302 13.5981 955 137.072 569.909 466.749
37 0 76.1031 14.1913 1080 132.823 569.413 462.194
38 0 77.1472 13.5715 1047 135.444 568.439 461.429
39 0 80.1536 13.7985 1106 133.293 568.701 463.14
40 0 82.181 13.3121 1094 133.96 568.393 462.399
41 0 87.1951 15.127 1319 124.835 568.299 457.158
42 0 90.1173 15.0138 1353 127.436 567.88 455.104
43 1 48.0481 13.5489 651 128.123 568.584 477.18
44 0 46.1024 12.8627 593 132.484 568.705 478.813
45 0 50.1114 13.45 674 131.212 568.779 476.056
46 0 52.1236 13.679 713 130.391 567.553 477.153
47 0 52.202 13.9458 728 130.457 567.809 476.808
48 0 53.0895 13.7315 729 132.278 567.819 474.977
49 0 56.1463 14.4266 810 129.354 567.56 475.258
50 0 57.0726 14.4202 823 128.493 567.748 475.891
51 0 59.1611 13.6069 805 131.641 568.157 475.289
52 0 60.3083 13.945 841 133.334 567.798 474.554
53 0 65.2816 14.4604 944 129.536 567.826 471.87
54 0 64.2545 12.8396 825 136.263 567.464 471.171
55 0 69.261 13.7307 951 134.13 567.468 468.816
56 0 71.1134 13.5839 966 130.421 568.594 466.909
57 0 74.151 14.8616 1102 129.231 568.077 465.536
58 0 76.0903 14.8245 1128 130.831 568.52 465.838
59 0 77.0773 13.8432 1067 133.417 568.99 464.859
60 0 80.161 13.4355 1077 134.124 568.674 463.495
61 0 85.0753 13.8818 1181 131.771 568.284 462.362
62 0 87.1132 13.0405 1136 134.557 567.605 459.88
63 0 89.1681 12.9418 1154 134.656 567.538 459.946
64 0 94.179 13.2726 1250 133.879 567.223 457.336
65 0 98.1358 14.429 1416 130.309 567.32 456.28
66 1 52.0974 12.1119 631 126.593 567.756 478.647
67 0 54.0804 12.9252 699 125.416 567.246 477.436
68 0 57.2159 12.549 718 129.043 567.01 477.029
69 0 57.1417 12.5653 718 132.54 566.329 476.003
70 0 59.1414 12.1235 717 127.611 566.279 476.524
71 0 62.2127 13.7592 856 124.173 566.096 474.022
72 0 65.1284 13.1586 857 121.036 567.035 470.079
73 0 68.1497 13.3089 907 119.456 567.243 471.714
74 0 70.1358 14.2723 1001 118.445 567.563 469.383
75 0 71.0905 13.3492 949 120.859 566.939 469.901
76 0 74.1283 13.6115 1009 119.663 567.151 468.112
77 0 78.1098 13.5834 1061 118.447 567.913 465.623
78 0 79.1756 13.2869 1052 121.34 567.712 464.123
79 0 84.1348 12.9079 1086 121.462 567.769 462.994
80 0 88.0813 13.2605 1168 120.001 567.803 462.385
81 0 88.135 13.2184 1165 121.924 566.789 458.651
82 0 91.103 12.3048 1121 125.483 566.755 457.642
83 0 95.1171 12.8894 1226 121.064 567.425 458.457
84 0 98.1273 12.8201 1258 124.062 567.156 452.734
85 1 51.0653 13.5121 690 112.077 567.616 479.187
86 0 54.141 11.5993 628 116.995 567.256 477.798
87 0 56.1598 12.3398 693 114.707 567.124 478.202
88 0 58.2145 12.1791 709 114.856 567.087 476.47
89 0 61.091 13.0297 796 113.849 566.678 474.406
90 0 60.1885 11.7132 705 118.784 566.447 475.278
91 0 65.2039 12.6986 828 115.698 566.589 473.041
92 0 67.2046 13.0199 875 115.994 566.857 472.28
93 0 69.1814 13.0237 901 120.133 566.521 471.183
94 0 72.1635 13.026 940 121.088 566.921 468.652
95 0 76.2375 12.7759 974 120.816 566.458 469.186
96 0 78.2608 13.7233 1074 119.407 566.524 465.775
97 0 83.2182 13.3745 1113 118.691 567.654 465.118
98 0 84.1922 14.3362 1207 115.995 567.075 464.077
99 0 86.1128 13.0643 1125 121.018 567.21 460.54
100 0 90.1643 13.3423 1203 117.555 567.401 459.823
101 0 92.2094 12.862 1186 118.984 566.013 456.424
102 1 50.1148 9.7975 491 119.585 566.55 480.393
103 0 51.0835 11.3931 582 115.766 566.696 479.945
104 0 52.0856 12.5754 655 113.6 566.82 480.157
105 0 56.0458 11.5441 647 114.048 566.655 479.216
106 0 57.0918 11.4027 651 115.556 566.246 478.005
107 0 58.0713 12.5363 728 113.176 566.68 477.74
108 0 58.022 11.7714 683 117.293 566.94 476.649
109 0 62.0414 13.6522 847 110.837 566.481 476.962
110 0 63.0711 12.0023 757 115.555 566.31 475.988
111 0 66.0501 12.112 800 116.728 566.62 473.875
112 0 69.0674 12.162 840 117.16 566.369 472.163
113 0 72.1097 13.2715 957 115.312 566.213 470.236
114 0 73.1457 11.7437 859 118.428 566.476 470.028
115 0 78.0962 12.4206 970 115.987 566.76 468.426
116 0 80.0796 13.087 1048 115.32 567.01 464.885
117 0 83.1013 12.936 1075 115.463 567.276 463.416
118 0 86.1319 13.2239 1139 115.352 567.268 462.536
119 0 89.1006 13.3108 1186 115.365 566.374 461.625
120 0 91.1141 13.1045 1194 116.548 566.195 462.52
121 0 91.0644 12.3539 1125 119.85 566.271 460.921
122 0 97.1426 12.7339 1237 117.618 566.808 457.189
123 0 99.1451 11.5992 1150 121.185 566.32 457.731
124 0 100.113 11.0476 1106 122.646 566.967 459.402
125 1 53.2456 11.1746 595 119.721 566.565 478.968
126 0 55.1782 12.0337 664 116.453 565.901 477.223
127 0 57.2346 13.104 750 114.3 565.521 475.936
128 0 55.0712 11.6213 640 111.661 566.748 476.955
129 0 58.1218 10.2027 593 113.661 566.653 478.761
130 0 58.0674 11.5383 670 113.161 566.027 476.952
131 0 63.118 10.9953 694 111.839 566.218 477.261
132 0 62.0593 10.7478 667 113.52 566.015 476.448
133 0 66.1228 11.1913 740 113.027 566.82 470.538
134 0 65.084 9.31104 606 117.479 565.911 475.312
135 0 67.1007 9.56771 642 116.748 565.621 475.185
136 0 74.0922 12.5384 929 107.68 566.436 465.378
137 0 76.156 11.6603 888 109.339 566.144 468.09
138 0 80.106 12.421 995 108.621 565.511 464.075
139 0 81.1172 10.8608 881 113.035 566.531 463.96
140 0 84.0758 10.9425 920 115.076 565.93 462.347
141 0 88.0773 12.103 1066 111.513 566.548 461.48
142 0 90.1267 9.79732 883 117.01 565.475 461.41
143 0 93.0625 10.1974 949 117.808 566.136 456.799
144 0 95.1759 11.4525 1090 116.014 566.006 455.012
145 1 51.079 11.6095 593 114.747 565.309 479.459
146 0 53.0736 13.3023 706 105.154 566.84 478.323
147 0 54.1542 12.5013 677 108.464 565.985 477.563
148 0 54.2446 11.1163 603 116.567 566.733 478.468
149 0 56.2338 11.3099 636 115.495 566.535 478.049
150 0 59.1387 10.4162 616 116.724 566.312 476.076
151 0 62.1954 11.8658 738 114.13 566.648 474.388
152 0 64.2088 11.0421 709 114.928 565.684 473.835
153 0 66.1544 11.8511 784 114.538 565.629 471.787
154 0 68.1389 11.5793 789 115.75 566.336 471.736
155 0 71.1325 12.315 876 114.914 565.999 470.416
156 0 72.1305 12.1447 876 116.596 565.661 468.987
157 0 75.2773 12.1816 917 118.964 565.995 464.214
158 0 77.5493 12.1858 945 119.996 566.06 461.003
159 0 80.3527 12.1962 980 121.234 565.918 459.322
160 0 83.5499 12.4836 1043 121.464 566.55 459.475
161 0 85.2623 12.4205 1059 121.517 566.718 461.689
162 1 42.2374 10.3226 436 118.275 566.807 480.906
163 0 45.2679 10.6035 480 116.833 565.962 482.119
164 0 45.0374 10.5246 474 116.816 565.582 483.945
165 0 48.0999 12.4325 598 112.505 565.686 481.311
166 0 50.085 11.8798 595 114.261 565.945 479.815
167 0 52.1359 12.0454 628 114.043 566.425 478.812
168 0 53.0622 13.7009 727 110.768 566.748 477.164
169 0 55.1484 11.0429 609 122.729 566.654 478.479
170 0 57.1255 11.6235 664 122.5 566.687 477.502
171 0 58.1564 12.1741 708 120.153 566.208 476.311
172 0 58.1858 10.6899 622 124.264 566.066 475.859
173 0 61.1096 11.3239 692 120.624 566.344 473.718
174 0 63.2023 12.9584 819 116.527 566.142 473.894
175 0 63.1376 10.9602 692 121.136 565.282 473.994
176 0 66.1731 11.757 778 118.433 565.154 473.144
177 0 68.0859 11.8821 809 116.195 566.001 473.02
178 0 70.1216 11.4088 800 119.054 565.296 467.289
179 0 74.1694 12.404 920 114.687 565.727 467.317
180 0 76.1117 12.1401 924 115.411 565.537 465.463
181 0 79.3757 11.4645 910 118.11 565.969 461.411
182 0 81.3701 11.6873 951 117.374 566.278 458.942
183 0 83.2335 10.9211 909 119.448 566.31 458.273
184 0 86.2847 10.6392 918 119.512 565.71 456.853
185 0 89.291 10.9977 982 118.323 566.285 455.55
186 0 93.0995 11.9979 1117 114.025 565.818 457.81
187 1 48.2388 10.0956 487 114.462 566.92 473.667
188 0 50.2549 11.0437 555 111.559 566.658 474.962
189 0 49.054 11.8849 583 111.451 566.424 476.106
190 0 51.0528 11.5371 589 110.852 565.411 476.772
191 0 53.056 12.0816 641 109.64 565.719 476.073
192 0 56.1102 12.6893 712 107.268 565.73 475.624
193 0 56.0858 12.1599 682 109.355 565.959 473.205
194 0 59.0494 12.1762 719 107.844 565.704 473.889
195 0 62.0632 12.0683 749 106.923 565.216 472.614
196 0 61.0484 11.1879 683 110.369 565.52 471.622
197 0 65.1013 12.9491 843 106.77 565.496 468.747
198 0 68.0687 12.458 848 108.159 566.037 469.159
199 0 71.0483 13.5542 963 105.674 566.158 467.723
200 0 74.0647 14.5683 1079 104.093 566.277 466.248
201 0 76.1107 11.9563 910 110.23 566.366 465.115
202 0 80.0422 12.2186 978 111.37 565.609 463.301
203 0 81.0692 13.4576 1091 109.341 565.671 463.616
204 0 85.083 12.3409 1050 111.223 566.201 461.097
205 0 89.2802 12.6568 1130 111.876 566.957 456.054
206 0 91.1847 13.3027 1213 110.473 566.549 457.532
207 0 94.1181 13.7487 1294 110.468 566.015 455.631
208 1 48.121 9.80861 472 109.699 568.042 477.977
209 0 50.1763 11.2802 566 106.645 568.267 474.972
210 0 53.2355 12.7171 677 103.378 568.614 475.148
211 0 52.0767 12.0975 630 105.517 567.06 478.148
212 0 54.0602 12.8376 694 104.029 567.826 476.262
213 0 54.0605 11.8386 640 107.57 566.47 475.477
214 0 55.1304 11.2279 619 108.79 566.604 474.732
215 0 60.0477 12.5733 755 102.97 566.658 473.948
216 0 64.1496 12.2214 784 103.265 567.004 471.698
217 0 65.0734 13.0468 849 102.853 567.563 471.061
218 0 64.1367 11.2416 721 109.161 567.098 470.632
219 0 67.1484 11.4374 768 108.773 566.737 470.353
220 0 70.1544 10.705 751 109.863 567.284 471.278
221 0 72.1122 11.496 829 110.057 566.826 466.899
222 0 76.1469 12.3314 939 107.772 566.854 464.315
223 0 77.1401 11.2393 867 110.777 567.073 465.792
224 0 81.2284 12.7172 1033 108.284 567.48 462.525
225 0 84.1168 12.9582 1090 107.751 568.191 461.265
226 0 85.1013 12.2325 1041 110.497 567.505 461.251
227 1 49.0797 10.0449 493 109.136 568.572 480.189
228 0 50.0303 10.5736 529 109.442 567.25 478.076
229 0 52.0108 11.4399 595 109.398 567.136 477.676
230 0 54.0473 11.2494 608 102.763 567.985 477.839
231 0 54.1281 10.4197 564 106.486 566.823 476.661
232 0 56.1045 11.9064 668 103.434 566.994 476.365
233 0 57.0266 12.4153 708 103.496 566.501 475.706
234 0 56.023 10.9598 614 107.629 566.415 474.402
235 0 58.0669 9.81626 570 109.991 566.456 475.074
236 0 59.0867 11.1023 656 107.091 566.57 472.976
237 0 63.0634 11.3854 718 105.513 566.816 470.893
238 0 67.078 12.5675 843 102.814 566.189 470.553
239 0 65.0736 10.7724 701 107.133 566.387 470.424
240 0 70.1108 11.4961 806 104.718 567.252 466.919
241 0 71.0692 11.1863 795 105.643 565.414 468.589
242 0 75.0552 11.778 884 102.881 565.768 465.089
243 0 79.1474 12.0282 952 101.73 566.291 463.441
244 0 80.0774 11.8136 946 102.396 565.829 464.221
245 0 82.1233 11.1783 918 105.193 565.893 461.592
246 0 86.1071 11.6599 1004 104.197 565.919 458.905
247 1 43.0665 10.2168 440 104.886 566.793 480.486
248 0 43.0274 11.0627 476 106.962 565.935 477.994
249 0 46.1179 12.1428 560 103.573 566.1 480.3
250 0 46.136 9.2986 429 111.303 565.839 480.795
251 0 47.0886 10.321 486 110.73 565.438 478.864
252 0 50.1629 12.2601 615 105.441 565.94 475.764
253 0 48.1004 8.607 414 108.254 566.536 475.891
254 0 51.0913 10.5889 541 103.762 565.98 475.512
255 0 51.1086 10.8397 554 104.379 566.419 476.807
256 0 53.093 10.0013 531 105.017 566.936 477.655
257 0 56.144 11.2212 630 102.357 566.192 477.448
258 0 54.0718 10.0977 546 105.251 566.522 478.086
259 0 64.0871 9.20622 590 104.829 567.163 476.919
260 0 62.1191 10.7535 668 103.061 566.633 473.172
261 0 62.0988 11.7877 732 101.973 566.947 471.649
262 0 65.1301 10.8552 707 104.352 567.223 470.719
263 0 66.1034 11.6787 772 102.244 566.749 472.627
264 0 69.197 11.2144 776 103.259 566.912 468.482
265 0 71.1033 10.4918 746 105.101 567.001 467.064
266 0 73.0869 11.069 809 103.747 566.686 465.606
267 0 79.1534 10.7513 851 103.827 567.357 465.234
268 0 80.0908 11.025 883 103.243 567.635 462.736
269 0 82.1868 11.413 938 102.848 567.418 462.268
270 0 85.1051 10.8219 921 103.921 567.549 461.089
271 0 88.1386 11.1642 984 103.791 566.883 459.178
272 0 89.0996 9.84291 877 105.948 566.106 458.764
273 1 47.0419 10.5225 495 100.558 566.962 478.822
274 0 51.0833 10.9429 559 97.5796 566.465 480.134
275 0 49.0975 10.2857 505 100.402 566.345 478.962
276 0 54.1277 10.974 594 105.569 564.998 474.759
277 0 54.1291 11.6758 632 104.767 565.1 474.484
278 0 55.1436 11.7511 648 104.446 564.951 474.549
279 0 56.2086 11.8487 666 104.854 565.683 474.814
280 0 60.1358 11.025 663 106.738 565.893 471.166
281 0 61.0944 12.4561 761 103.558 566.384 471.237
282 0 62.104 10.9816 682 108.082 566.254 471.372
283 0 65.1402 10.393 677 107.996 566.79 472.679
284 0 63.1502 10.1029 638 112.111 566.077 469.212
285 0 70.2043 11.1817 785 106.255 567.282 470.529
286 0 70.1525 11.8741 833 108.323 566.329 467.671
287 0 73.2027 11.7892 863 106.881 567.082 467.112
288 0 74.1812 13.0761 970 105.905 566.249 463.577
289 0 76.1314 11.953 910 107.774 566.66 465.525
290 0 77.1203 12.1758 939 109.146 566.725 462.552
291 0 79.2195 12.2823 973 110.115 566.858 463.122
292 0 82.1445 12.7458 1047 109.736 566.096 462.402
293 0 85.1336 12.4158 1057 109.173 566.254 458.603
294 0 88.0773 11.751 1035 110.962 566.967 458.018
295 1 183.231 12.2632 2247 120.587 566.334 411.859
296 0 186.217 11.6155 2163 121.96 565.682 413.796
297 1 95.1222 12.2159 1162 112.921 566.326 452.328
298 0 97.1633 10.7242 1042 116.297 565.96 453.415
299 0 101.252 11.901 1205 113.861 565.829 449.63
300 0 104.137 10.5726 1101 116.423 565.686 452.275
301 0 109.148 11.9838 1308 112.872 566.099 449.154
302 0 111.174 11.9183 1325 115.026 565.725 447.217
303 0 115.199 10.3559 1193 117.912 566.568 446.753
304 1 61.034 10.8956 665 108.621 566.835 473.316
305 0 63.0941 11.6334 734 107.733 566.91 469.213
306 0 65.12 11.1794 728 108.324 567.253 470.386
307 0 65.1101 11.7033 762 109.631 566.486 468.686
308 0 70.1429 10.9348 767 115.937 566.276 469.636
309 0 73.1258 11.9383 873 112.796 566.432 465.538
310 0 74.1961 11.0518 820 115.407 565.309 466.021
311 0 76.1584 10.8852 829 117.055 565.945 461.756
312 0 79.1596 11.3442 898 114.993 566.683 461.757
313 0 82.2664 12.1678 1001 113.05 566.606 459.186
314 0 85.1422 10.7585 916 115.676 566.025 460.037
315 0 87.1036 11.538 1005 114.455 565.878 459.844
316 0 90.2175 11.6053 1047 112.001 565.457 460.167
317 0 94.173 12.1585 1145 111.838 565.976 454.493
318 0 97.1636 11.352 1103 110.863 564.802 455.897
319 0 99.1511 10.2672 1018 113.269 565.785 455.02
320 1 50.0107 11.1976 560 101.35 566.055 475.13
321 0 52.0621 10.9101 568 101.905 566.393 476.106
322 0 52.0719 10.2935 536 104.675 567.5 477.032
323 0 53.0171 10.2043 541 105.299 566.75 474.88
324 0 55.0761 10.5309 580 105.481 566.99 476.752
325 0 58.0564 11.5233 669 103.707 567.141 474.353
326 0 62.1131 11.6562 724 102.439 567.148 473.402
327 0 63.0962 11.5062 726 106.511 567.004 472.865
328 0 66.1416 12.1709 805 104.768 567.14 472.271
329 0 65.0586 11.4051 742 109.466 566.763 470.898
330 0 67.0931 11.879 797 108.143 567.036 473.463
331 0 68.1044 11.409 777 112.327 567.193 467.344
332 0 70.1168 11.6377 816 111.733 567.021 469.347
333 0 75.1908 12.7808 961 109.286 566.626 465.336
334 0 75.0791 12.4402 934 111.632 566.543 464.723
335 0 78.0609 12.3365 963 112.645 566.236 463.736
336 0 80.1311 11.9679 959 113.31 566.867 464.537
337 0 81.1216 11.1931 908 116.011 566.306 463.41
338 0 85.1207 12.4412 1059 113.861 566.475 460.471
339 0 88.2019 11.9952 1058 114.427 566.379 461.401
340 0 91.1463 12.2221 1114 114.993 566.809 459.484
341 0 93.1886 12.4908 1164 115.621 566.129 459.65
342 1 49.0544 10.9063 535 110.893 567.08 477.89
343 0 50.0115 10.1377 507 112.081 566.817 477.363
344 0 53.0305 11.6348 617 108.311 566.84 478.16
345 0 53.0346 11.0871 588 110.366 567.452 478.359
346 0 54.0502 10.8233 585 111.284 566.361 478.089
347 0 54.0567 9.52704 515 115.396 565.751 477.505
348 0 59.019 11.5725 683 110.874 566.473 475.288
349 0 62.1261 12.6034 783 111.027 568.079 473.258
350 0 61.1427 10.6799 653 115.884 567.631 474.214
351 0 62.0829 9.89 614 117.936 567.586 476.01
352 0 62.0829 9.80947 609 137.248 567.589 475.964
353 0 65.0631 10.3284 672 118.257 567.555 473.366
354 0 69.1284 11.0808 766 117.45 567.235 471.332
355 0 74.1154 11.4956 852 116.228 567.18 470.327
356 0 75.0755 12.3476 927 114.797 567.355 468.578
357 0 76.1528 11.6739 889 116.786 567.317 468.647
358 0 77.0996 11.5435 890 118.809 567.769 465.347
359 0 83.2115 11.8613 987 117.095 567.829 465.458
360 0 85.1964 11.8315 1008 117.304 568.094 464.392
361 0 87.1301 11.7296 1022 116.366 567.829 460.893
362 1 47.0589 11.1562 525 112.903 568.52 482.238
363 0 50.0341 11.0525 553 114.508 568.741 481.32
364 0 53.025 12.6544 671 114.03 567.921 478.599
365 0 53.1495 13.0011 691 108.855 568.962 478.57
366 0 54.0927 11.3694 615 114.751 568.48 478.176
367 0 54.0431 12.5455 678 113.99 568.086 479.338
368 0 54.068 11.9294 645 117.679 567.555 479.088
369 0 57.0619 12.1447 693 115.619 567.557 477.714
370 0 56.0714 10.1835 571 122.147 567.736 478.315
371 0 60.1276 12.1409 730 117.126 568.1 474.593
372 0 64.1399 12.7222 816 114.415 567.789 475.049
373 0 65.0889 12.1372 790 118.191 567.822 472.491
374 0 67.1771 12.3256 828 118.157 567.793 473.546
375 0 69.1201 11.2268 776 122.411 568.401 471.902
376 0 70.1545 11.4889 806 122.919 568.149 468.907
377 0 73.1844 11.7648 861 122.808 567.986 470.515
378 0 78.2261 13.4993 1056 116.392 567.983 467.021
379 0 80.1614 12.7493 1022 120.073 567.161 465.948
380 1 44.0147 13.291 585 117.015 568.61 482.376
381 0 47.0119 12.2522 576 116.524 567.771 483.604
382 0 47.0355 12.3311 580 118.759 567.795 482.488
383 0 46.0433 11.2503 518 122.297 567.29 482.865
384 0 48.0755 11.2115 539 121.783 567.562 484.165
385 0 48.0171 9.87148 474 125.192 567.186 483.696
386 0 51.0249 12.1705 621 120.908 568.081 481.847
387 0 49.0512 10.0711 494 125.794 568.844 483.644
388 0 53.0766 11.7189 622 121.859 568.27 479.489
389 0 56.0384 11.5278 646 122.588 567.932 479.576
390 0 55.0552 11.8245 651 124.243 567.55 477.922
391 0 60.0787 12.9996 781 120.661 567.659 476.982
392 0 59.1018 11.844 700 124.609 568.084 476.799
393 0 64.1061 13.2125 847 120.401 567.777 473.558
394 0 64.1095 12.9466 830 121.96 567.931 472.706
395 0 67.1269 12.4242 834 123.296 567.549 472.982
396 0 69.1673 12.7083 879 123.686 567.846 471.675
397 0 73.0894 12.5052 914 122.868 568.603 469.009
398 0 74.1101 12.0766 895 125.128 567.739 468.612
399 0 78.1047 12.4192 970 123.972 568.679 466.256
400 0 79.0686 11.9011 941 124.816 569.072 465.838
401 0 84.2261 12.6564 1066 121.006 568.534 464.81
402 0 84.067 10.8604 913 128.697 567.964 461.977
403 1 44.0251 10.9937 484 121.066 567.961 483.308
404 0 46.0081 11.9544 550 117.947 568.358 481.085
405 0 47.0602 11.3472 534 115.717 567.114 480.991
406 0 47.0432 11.3088 532 116.079 567.797 482.207
407 0 48.0119 11.2264 539 115.818 567.709 480.16
408 0 50.0246 12.4539 623 112.697 567.639 479.889
409 0 54.0472 13.0257 704 108.898 567.186 479.605
410 0 55.0873 11.8721 654 112.359 567.102 478.862
411 0 55.0252 12.7214 700 111.946 567.314 477.186
412 0 56.0216 11.8169 662 113.621 566.805 478.063
413 0 56.0386 11.153 625 115.187 567.478 476.096
414 0 58.016 12.0139 697 113.66 567.244 475.32
415 0 62.0794 12.7579 792 109.609 567.484 474.062
416 0 62.1383 11.3778 707 113.801 567.342 470.518
417 0 66.0519 12.8233 847 109.687 567.718 470.701
418 0 68.0426 11.6251 791 112.062 567.748 472.137
419 0 70.1029 11.3833 798 112.738 568.481 467.797
420 0 73.0479 12.1017 884 110.692 567.773 468.966
421 0 77.0567 12.3286 950 109.945 567.597 466.699
422 0 79.104 11.9589 946 112.443 567.609 464.025
423 0 79.1075 11.8952 941 121.637 567.609 464.092
424 0 85.0736 13.3884 1139 109.241 567.09 463.284
425 0 88.0995 13.0194 1147 112.642 567.017 461.636
426 0 92.1124 13.1036 1207 110.519 567.696 459.128
427 1 48.047 11.4888 552 109.243 567.821 482.897
428 0 49.0475 11.7029 574 111.047 567.667 480.366
429 0 51.0661 11.9453 610 110.198 568.128 480.107
430 0 54.037 12.4359 672 110.561 568.18 479.076
431 0 53.0269 11.3905 604 114.46 568.576 478.268
432 0 57.0956 12.0675 689 111.639 568.55 477.213
433 0 57.0649 11.8812 678 113.363 568.044 476.935
434 0 62.0299 12.3489 766 108.843 567.842 477.15
435 0 61.0619 12.692 775 110.561 568.677 475.688
436 0 63.0668 12.7484 804 111.776 569.066 472.54
437 0 66.1166 12.8712 851 110.818 568.49 472.394
438 0 67.1872 11.5052 773 114.4 567.67 472.82
439 0 69.12 12.066 834 113.019 567.942 470.098
440 0 72.1669 11.6813 843 112.999 567.61 470.389
441 0 75.1048 13.3147 1000 108.826 567.168 469.018
442 0 76.2322 12.0159 916 113.346 567.276 465.747
443 0 79.2087 11.476 909 112.804 566.801 465.838
444 0 82.2028 12.384 1018 109.657 566.964 463.801
445 0 81.0686 9.80651 795 110.454 566.946 462.785
446 0 89.2128 12.1619 1085 108.231 567.45 462.609
447 0 92.1561 12.7067 1171 106.992 566.746 460.711
448 1 45.02 9.55132 430 109.953 568.602 482.316
449 0 50.0391 12.3903 620 101.81 567.71 480.466
450 0 52.0943 13.3604 696 100.803 567.57 479.912
451 0 54.0328 13.4548 727 101.809 567.135 479.199
452 0 56.1141 12.5815 706 103.384 568.86 479.035
453 0 56.0471 11.6688 654 108.39 567.396 477.489
454 0 56.0424 11.2058 628 111.572 567.919 478.162
455 0 60.1036 12.6615 761 108.661 567.98 475.878
456 0 63.064 12.9234 815 108.21 568.307 474.866
457 0 64.1182 12.477 800 109.991 568.866 473.812
458 0 68.0629 12.2387 833 110.102 568.784 473.606
459 0 68.0865 12.4694 849 111.058 568.781 474.408
460 0 68.0941 11.4107 777 116.27 568.656 472.486
461 0 72.273 12.1207 876 114.303 568.366 471.774
462 0 77.0953 13.3082 1026 111.827 568.859 468.506
463 0 79.1211 12.3482 977 114.65 568.999 467.536
464 0 82.1417 12.4541 1023 115.393 568.696 464.167
465 0 85.1175 12.5826 1071 115.338 569.219 464.17
466 0 88.0914 13.3384 1175 114.859 569.653 462.707
467 0 89.061 11.6774 1040 116.98 569.045 464.274
468 0 94.0588 12.9387 1217 114.235 568.54 457.782
469 0 97.2205 12.8985 1254 116.261 568.758 457.247
470 0 97.2987 11.6754 1136 116.685 568.298 460.778
471 0 98.1734 11.0824 1088 119.031 568.189 460.259
472 1 52.0208 11.6684 607 110.349 568.203 480.876
473 0 55.0807 13.0536 719 108.573 569.293 478.62
474 0 57.0494 11.9721 683 109.65 568.924 479.177
475 0 57.0596 11.9699 683 110.485 569.031 478.19
476 0 60.138 11.0745 666 112.29 569.222 477.886
477 0 63.0786 11.779 743 111.495 569.236 474.612
478 0 65.1239 12.5146 815 110.548 569.48 474.476
479 0 67.1891 12.4723 838 110.323 568.952 474.338
480 0 68.1436 11.1236 758 113.869 568.456 472.412
481 0 68.0982 10.1177 689 115.345 568.626 474.145
482 0 72.1764 11.0424 797 114.103 568.263 471
483 0 76.1743 11.9594 911 112.795 568.005 468.487
484 0 78.1273 11.942 933 113.924 568.862 466
485 0 83.093 11.8421 984 112.782 568.517 467.446
486 0 84.1127 10.1887 857 117.399 568.386 464.468
487 0 87.0791 12.2417 1066 113.224 569.26 462.027
488 1 47.0345 10.673 502 114.207 569.671 483.55
489 0 48.0351 11.8247 568 109.542 567.79 481.09
490 0 51.0441 11.7154 598 107.055 568.085 481.018
491 0 52.1001 11.1132 579 110.078 567.993 480.537
492 0 52.039 12.3946 645 107.381 567.837 480.039
493 0 54.0419 11.6391 629 109.693 566.976 480.151
494 0 56.0775 12.5006 701 107.907 567.675 477.889
495 0 56.0282 10.5304 590 112.41 567.385 478.644
496 0 59.0676 11.9863 708 110.048 567.479 475.236
497 0 59.054 10.1602 600 114.085 567.46 477.738
498 0 62.0991 10.0323 623 113.323 567.475 477.361
499 0 63.1254 10.7564 679 113.031 567.253 473.099
500 0 65.2387 11.8948 776 114.334 567.58 472.469
501 0 69.3436 10.8013 749 117.96 567.498 472.383
502 0 72.2248 12.1011 874 116.11 567.513 470.832
503 0 74.2065 11.1176 825 118.152 567.712 470.267
504 0 77.2329 11.8602 916 117.055 567.719 467.255
505 0 80.1912 12.4951 1002 115.089 567.676 466.641
506 0 83.1535 11.2202 933 119.071 567.588 464.456
507 0 85.1652 13.1274 1118 114.729 567.534 462.846
508 1 43.1581 10.0792 435 118.538 567.177 484.464
509 0 46.038 10.4262 480 116.462 568.794 482.727
510 0 47.0551 11.7097 551 112.557 568.575 482.033
511 0 46.0895 11.8248 545 113.459 567.894 481.776
512 0 48.149 10.8829 524 113.345 569.086 481.176
513 0 50.0574 11.307 566 113.113 568.691 480.641
514 0 51.1495 11.0656 566 124.578 568.33 480.129
515 0 54.1505 12.2067 661 121.598 568.357 478.629
516 0 55.1161 10.8861 600 124.297 568.34 477.833
517 0 57.1569 10.9173 624 124.133 568.962 475.378
518 0 57.085 11.4566 654 123.667 568.586 475.22
519 0 62.1326 11.7973 733 120.363 568.428 476.183
520 0 61.2619 11.508 705 123.044 568.447 474.159
521 0 64.1561 10.7862 692 124.185 568.684 474.262
522 0 66.0842 11.3945 753 120.085 568.117 474.19
523 0 68.1064 11.1443 759 121.51 568.116 472.51
524 0 69.2247 11.0076 762 123.39 568.462 469.882
525 0 72.131 11.9643 863 121.453 568.36 470.774
526 0 74.1323 10.7915 800 123.264 567.61 469.348
527 0 76.2001 11.063 843 124.184 567.483 466.741
528 0 80.0955 10.8121 866 122.275 567.428 467.956
529 0 83.1258 11.1758 929 122.818 567.257 466.044
530 0 81.272 11.2339 913 124.088 567.876 465.612
531 0 88.1049 12.7235 1121 120.343 567.493 463.594
532 0 91.1965 13.0926 1194 119.384 568.172 461.29
533 1 46.0701 10.0065 461 116.764 568.037 485.926
534 0 48.0556 11.4243 549 116.007 567.568 483.157
535 0 49.0174 11.0165 540 117.815 567.583 482.624
536 0 50.0524 12.3271 617 115.078 567.789 481.107
537 0 52.0713 11.7147 610 116.639 568.37 479.115
538 0 53.1559 10.2341 544 119.226 568.993 481.768
539 0 56.0956 12.9957 729 114.418 567.948 477.412
540 0 58.0519 11.9548 694 123.782 567.625 478.853
541 0 58.1554 11.7444 683 125.659 567.772 476.747
542 0 61.1578 13.3262 815 120.704 567.479 477.325
543 0 64.0701 12.5175 802 123.335 567.606 473.599
544 0 64.1199 12.1023 776 121.29 567.64 473.003
545 0 68.1368 12.4896 851 122.597 567.935 473.945
546 0 69.1199 11.2124 775 127.72 568.265 471.93
547 0 71.1248 12.0211 855 125.754 567.898 471.036
548 0 74.1084 13.3723 991 120.937 567.758 469.305
549 0 76.1201 11.7052 891 125.229 567.516 468.911
550 0 79.1349 13.7739 1090 120.258 568.398 466.338
551 0 81.2399 12.26 996 124.723 567.649 462.165
552 0 83.1248 12.1023 1006 123.906 568.42 466.661
553 0 87.0818 12.2299 1065 123.502 568.19 464.99
554 0 88.1434 12.0372 1061 123.931 568.079 464.136
555 0 92.1368 11.4504 1055 125.116 567.966 462.941
556 0 95.1458 11.887 1131 125.154 568.181 460.72
557 0 99.2283 11.6398 1155 124.849 568.049 458.275
558 0 103.147 11.7696 1214 123.853 568.062 455.155
559 0 107.057 11.8161 1265 122.15 568.425 454.486
560 0 110.103 12.0977 1332 121.363 568.225 452.198
561 0 115.113 12.3444 1421 121.425 567.574 450.842
562 0 117.192 13.1067 1536 126.385 567.552 448.203
563 1 63.0799 12.6665 799 120.773 567.28 476.957
564 0 63.0724 11.7643 742 123.795 567.233 474.876
565 0 65.0722 11.0339 718 123.401 567.894 475.873
566 0 67.0529 12.0502 808 120.644 567.475 474.557
567 0 69.0675 11.3946 787 123.125 567.376 472.643
568 0 73.1295 11.7326 858 121.657 568.118 469.967
569 0 76.0855 12.7094 967 118.401 567.915 470.192
570 0 78.2128 11.6733 913 121.581 567.93 467.859
571 0 83.1154 13.3309 1108 116.73 568.573 468.673
572 0 82.2819 12.0804 994 121.175 568.733 466.102
573 0 85.1873 10.9289 931 124.076 568.533 468.378
574 0 88.132 10.8701 958 125.531 567.887 465.337
575 1 43.0334 10.5732 455 120.51 570.338 485.024
576 0 45.0315 12.2137 550 118.751 568.876 484.607
577 0 44.016 10.2008 449 122.584 567.759 484.272
578 0 48.057 12.1939 586 116.212 569.224 484.524
579 0 48.0369 11.6369 559 118.34 568.966 484.125
580 0 51.0629 13.3757 683 113.48 569.022 483.042
581 0 52.0759 12.6546 659 115.288 568.744 482.212
582 0 51.0926 12.5067 639 117.545 568.102 481.397
583 0 52.0131 12.7852 665 117.776 568.057 482.808
584 0 54.0738 12.8528 695 116.896 569.104 481.016
585 0 57.0774 12.7371 727 119.125 568.42 480.605
586 0 58.0338 12.8201 744 119.261 567.929 478.09
587 0 58.0637 12.5896 731 120.398 568.747 478.015
588 0 60.0676 12.5858 756 120.767 568.41 477.304
589 0 64.0628 14.236 912 116.705 568.105 476.862
590 0 66.0672 13.5014 892 111.204 567.878 473.086
591 0 68.041 13.3302 907 126.442 568.871 474.388
592 0 70.0337 12.7938 896 128.289 569.391 472.544
593 0 72.0485 13.9767 1007 125.375 569.321 472.815
594 0 74.0226 12.888 954 129.338 569.269 470.775
595 0 77.0571 13.5873 1047 127.262 569.031 470.109
596 0 80.035 13.2817 1063 127.822 570.041 468.489
597 0 81.0634 12.4717 1011 131.33 569.51 467.198
598 0 87.064 13.783 1200 126.23 569.311 465.636
599 0 89.1026 12.7606 1137 127.134 569.369 463.836
600 0 91.0526 11.9162 1085 129.099 569.255 465.207
601 1 48.0731 12.0442 579 121.907 568.195 485.485
602 0 48.0948 12.808 616 122.114 567.495 484.573
603 0 51.1281 13.9454 713 116.353 567.731 482.641
604 0 52.1956 12.3382 644 119.87 569.149 481.104
605 0 53.0961 13.4473 714 117.562 569.077 481.069
606 0 55.1557 13.3803 738 121.103 569.436 481.369
607 0 56.07 13.715 769 118.202 569 481.722
608 0 59.1079 14.1267 835 115.934 568.581 479.243
609 0 62.1673 12.7077 790 123.748 568.309 477.634
610 0 65.1201 13.7899 898 122.35 567.879 475.617
611 0 67.2048 12.1271 815 126.281 567.179 475.94
612 0 66.0996 12.2694 811 127.292 567.465 476.811
613 0 67.1139 12.6948 852 126.871 567.717 476.853
614 0 67.0788 12.1201 813 128.288 568.091 476.32
615 0 75.1432 13.8536 1041 122.868 567.937 470.907
616 0 78.1838 13.4555 1052 123.314 567.749 470.888
617 0 81.2146 12.8795 1046 124.286 568.038 468.157
618 0 84.1554 14.3187 1205 124.153 567.532 466.004
619 1 44.0496 11.4189 503 122.936 569.598 489.529
620 0 46.0629 11.6363 536 125.015 568.965 485.129
621 0 49.1096 13.5411 665 118.547 569.012 484.98
622 0 48.1729 11.7286 565 125.393 567.687 485.515
623 0 52.0291 13.9153 724 119.902 567.423 484.511
624 0 52.0463 12.6618 659 123.073 567.22 484.53
625 0 55.1561 13.1989 728 120.602 567.712 481.306
626 0 57.1099 12.2921 702 123.419 567.02 481.744
627 0 57.1577 11.7744 673 128.394 567.368 480.912
628 0 60.1546 13.6482 821 124.084 566.951 479.96
629 0 62.055 11.1514 692 130.597 566.747 478.916
630 0 65.1179 12.5465 817 127.108 566.988 479.006
631 0 68.0776 13.9106 947 124.683 567.376 476.562
632 0 72.0916 13.2748 957 125.791 567.72 474.397
633 0 72.2294 13.1802 952 127.928 568.035 473.289
634 0 74.194 13.3299 989 128.756 567.802 473.038
635 0 77.1467 12.6123 973 129.437 568.202 473.692
636 0 81.1267 13.707 1112 128.787 568.692 469.054
637 0 84.1105 13.3753 1125 130.064 568.775 467.219
638 0 86.193 12.6808 1093 134.399 568.008 466.08
639 0 88.0896 12.5781 1108 134.634 568.45 463.949
640 0 92.1988 12.5815 1160 134.94 568.922 463.57
641 1 45.0529 10.9871 495 134.556 568.909 486.42
642 0 49.0076 12.447 610 127.274 568.702 485.241
643 0 49.0811 13.5694 666 122.962 567.062 484.691
644 0 51.1716 12.1161 620 137.405 567.869 483.848
645 0 50.18 12.0167 603 141.532 567.967 481.803
646 0 53.1331 12.1017 643 136.305 567.313 482.017
647 0 56.1441 13.3763 751 133.804 567.419 479.625
648 0 57.2911 12.6372 724 133.807 567.475 480.228
649 0 58.22 12.8306 747 137.672 567.439 480.088
650 0 61.1274 12.793 782 126.716 567.307 478.384
651 0 63.1425 13.4299 848 135.449 567.083 476.856
652 0 63.157 11.891 751 140.085 567.073 477.296
653 0 66.1541 12.8941 853 136.579 567.461 475.04
654 0 69.1559 12.7538 882 134.576 567.697 474.828
655 0 70.1526 13.2283 928 135.651 568.105 474.931
656 0 72.2023 12.742 920 140.121 568.164 474.079
657 0 75.123 13.9105 1045 135.915 567.953 470.128
658 0 78.1232 13.5299 1057 137.252 567.885 470.267
659 0 81.1067 13.2665 1076 136.312 567.166 470.152
660 0 85.166 13.1978 1124 133.945 566.981 469.339
661 0 85.1488 12.9421 1102 136.405 566.809 466.46
662 0 88.1444 13.0354 1149 135.607 566.78 466.881
663 1 42.0239 12.0408 506 133.958 567.457 487.484
664 0 44.0807 11.7512 518 133.842 567.178 485.772
665 0 47.0648 13.3008 626 125.185 567.112 484.652
666 0 47.0824 12.6162 594 135.813 567.744 483.665
667 0 50.0694 13.3015 666 132.383 567.387 483.02
668 0 53.074 13.0572 693 123.53 567.211 482.394
669 0 52.0532 12.6217 657 127.018 567.333 481.697
670 0 56.0678 13.4302 753 124.056 567.538 480.094
671 0 57.1212 13.2 754 130.809 567.66 480.989
672 0 56.0907 12.9077 724 133.464 567.67 479.452
673 0 59.0543 12.988 767 127.163 567.501 478.279
674 0 63.1489 14.1253 892 125.085 567.638 476.507
675 0 65.1398 12.8493 837 131.164 568.306 476.509
676 0 67.0841 13.5352 908 129.763 567.676 476.352
677 0 69.1467 13.0013 899 131.849 567.537 474.623
678 0 71.0816 13.2102 939 132.009 567.772 472.94
679 0 71.0965 12.8698 915 132.517 567.154 472.398
680 0 76.0598 13.6209 1036 129.766 566.82 471.361
681 0 77.1547 12.8443 991 133.786 567.17 467.863
682 0 82.1233 14.1129 1159 128.018 566.702 469.547
683 0 83.0887 12.7695 1061 132.34 567.209 469.132
684 0 85.0763 13.2704 1129 131.502 567.535 466.367
685 1 42.0206 11.9703 503 125.692 567.879 486.467
686 0 42.0684 11.9092 501 126.485 567.609 486.545
687 0 43.0168 13.0879 563 124.108 567.927 485.039
688 0 47.1581 13.3593 630 127.071 567.476 486.04
689 0 50.1416 13.063 655 126.398 567.185 483.34
690 0 51.1723 11.9205 610 129.215 567.379 482.466
691 0 53.094 11.6209 617 128.961 567.297 481.277
692 0 56.0836 12.3922 695 126.694 567.209 480.826
693 0 57.1313 13.7053 783 122.99 567.393 479.398
694 0 59.0481 13.1249 775 124.255 567.226 478.209
695 0 60.1307 12.7057 764 125.953 567.384 476.88
696 0 64.0787 13.3274 854 123.094 566.946 477.071
697 0 65.1462 12.2954 801 127.754 567.674 476.387
698 0 67.0753 13.5817 911 122.71 567.537 475.158
699 0 69.0739 13.377 924 123.959 567.564 474.041
700 0 73.0494 15.072 1101 116.532 567.278 471.436
701 0 76.0529 14.2927 1087 119.131 567.429 470.304
702 0 76.033 13.3495 1015 123.314 567.439 469.223
703 0 79.0482 14.0927 1114 121.811 567.57 468.339
704 0 82.0669 13.3184 1093 125.866 567.697 467.2
705 0 82.064 13.4164 1101 127.296 567.451 465.492
706 0 87.1104 13.6608 1190 125.949 567.331 463.996
707 0 90.142 13.2458 1194 127.206 567.141 463.749
708 0 92.1077 12.7785 1177 129.28 567.106 462.483
709 0 98.0364 14.464 1418 124.212 567.291 458.049
710 0 99.0909 13.9266 1380 126.039 567.533 457.337
711 1 54.0631 12.2635 663 122.205 567.504 481.585
712 0 55.0786 12.4731 687 129.608 567.744 480.555
713 0 58.0411 12.784 742 125.311 567.809 478.902
714 0 59.0887 12.5405 741 126.028 568.441 480.762
715 0 62.061 13.2128 820 125.502 567.448 476.599
716 0 64.0674 13.6419 874 125.405 567.807 475.613
717 0 66.0465 14.0356 927 125.407 568.838 474.759
718 0 67.0884 13.2363 888 129.383 568.117 474.967
719 0 69.2091 13.4231 929 130.058 568.41 472.17
720 0 72.1461 14.138 1020 127.69 568.5 472.5
721 0 74.0825 13.566 1005 130.664 568.329 470.506
722 0 77.1667 14.5011 1119 127.89 568.131 468.742
723 0 78.0888 13.7536 1074 129.655 568.512 467.926
724 0 81.0823 14.0474 1139 130.753 568.371 463.686
725 0 84.1078 12.9477 1089 132.567 567.781 464.827
726 0 87.1583 13.1026 1142 131.504 567.702 462.524
727 0 91.1012 14.5552 1326 125.456 567.953 458.901
728 0 95.0907 13.2084 1256 128.501 567.821 457.303
729 0 99.2544 13.551 1345 128.107 566.891 458.784
730 1 50.0572 13.4646 674 124.853 568.092 481.415
731 0 52.0541 13.7357 715 122.505 568.459 480.993
732 0 54.0591 12.6343 683 125.953 567.492 481.572
733 0 55.1278 13.768 759 124.35 567.796 480.005
734 0 56.1458 11.7729 661 130.014 567.601 479.841
735 0 58.1687 13.478 784 126.585 567.579 478.21
736 0 60.0435 12.6242 758 128.5 567.524 478.354
737 0 63.1493 13.4285 848 126.105 568.715 475.525
738 0 65.2137 13.8775 905 124.559 568.09 475.504
739 0 66.1083 12.7669 844 129.655 567.532 475.435
740 0 69.1783 13.4869 933 127.516 567.205 474.48
741 0 72.1541 13.3049 960 127.899 566.877 472.895
742 0 74.1274 13.5173 1002 126.602 567.25 470.319
743 0 77.0951 14.5794 1124 122.658 567.218 469.613
744 0 78.1705 13.0484 1020 127.071 567.646 469.587
745 0 81.1323 13.2746 1077 120.028 567.698 469.887
746 0 81.0588 12.5588 1018 124.035 567.614 468.265
747 0 86.1574 13.4057 1155 126.112 567.385 466.396
748 0 88.1373 13.3201 1174 122.629 567.613 464.284
749 0 92.1437 14.8355 1367 118.296 567.56 463.966
750 0 93.1451 13.5166 1259 123.514 567.328 461.869
751 0 95.1379 12.7604 1214 126.185 567.737 460.661
752 0 98.102 13.5675 1331 124.868 567.637 457.795
753 0 102.224 14.1551 1447 121.939 567.724 457.088
754 0 105.099 13.2066 1388 125.601 567.697 454.661
755 0 108.123 12.8465 1389 125.651 567.235 453.774
756 0 113.103 13.2888 1503 124.304 567.577 452.324
757 0 118.195 12.987 1535 124.798 568.504 448.093
758 1 65.1501 11.2816 735 119.102 568.931 474.448
759 0 67.0952 12.4897 838 116.811 568.279 472.181
760 0 69.2175 13.147 910 123.827 568.348 474.997
761 0 70.1099 12.0953 848 126.014 567.955 473.338
762 0 74.2476 12.8085 951 126.023 568.221 471.079
763 0 78.1797 14.0318 1097 120.039 568.259 469.544
764 0 81.132 12.9912 1054 124.187 568.617 468.799
765 0 82.3684 13.4396 1107 123.768 567.957 465.341
766 0 85.281 11.6439 993 126.096 567.779 467.049
767 0 88.3032 12.0947 1068 124.479 567.501 464.167
768 0 91.271 11.8658 1083 123.156 567.945 466.617
769 0 92.2019 11.6809 1077 125.515 567.409 462.281
770 0 96.226 11.4626 1103 122.222 567.323 463.259
771 1 54.0222 9.77375 528 123.616 567.667 481.845
772 0 55.0857 11.11 612 122.668 567.626 480.621
773 0 59.0455 12.2617 724 118.133 567.24 477.269
774 0 61.0428 13.384 817 116.188 567.917 478.204
775 0 63.0718 13.1596 830 117.995 567.38 476.541
776 0 62.0452 11.959 742 121.201 567.73 477.077
777 0 63.0765 11.8903 750 121.843 568.325 477.937
778 0 65.0662 11.5728 753 124.604 567.814 475.181
779 0 67.0583 11.5422 774 124.331 567.602 475.671
780 0 73.0565 12.0318 879 121.436 568.54 472.769
781 0 75.0645 12.5359 941 119.691 568.454 473.642
782 0 77.0612 11.9386 920 124.125 567.461 472.296
783 0 79.0576 12.7502 1008 124.627 567.851 468.933
784 0 82.1252 12.8828 1058 122.287 568.238 468.913
785 0 83.0676 12.869 1069 125.325 566.659 468.206
786 0 88.0893 13.1571 1159 124.77 567.409 466.877
787 0 92.1037 13.3871 1233 124.976 567.83 464.418
788 0 95.0844 13.3566 1270 125.05 567.584 463.266
789 0 98.0873 13.7734 1351 126.404 567.036 461.176
790 0 101.121 13.6866 1384 125.995 568.543 460.467
791 0 102.096 12.9681 1324 129.846 567.782 458.73
792 0 107.145 14.3264 1535 127.438 568.372 456.771
793 0 111.181 13.6624 1519 131.99 566.623 456.1
794 0 112.122 13.1375 1473 135.771 566.74 453.376
795 0 116.242 13.5149 1571 135.826 567.126 453.488
796 0 120.346 13.8102 1662 135.33 567.311 448.431
797 0 126.273 14.2548 1800 133.649 566.471 448.427
798 1 69.1122 12.2844 849 134.902 566.834 475.345
799 0 72.0563 13.0592 941 132.04 566.917 474.542
800 0 74.0357 12.1158 897 128.488 566.823 470.464
801 0 78.1459 13.6412 1066 120.931 566.86 468.367
802 0 78.1097 13.4426 1050 128.189 567.163 468.867
803 0 81.1521 12.8031 1039 129.859 567.151 469.021
804 0 82.1121 12.6047 1035 134.491 566.557 468.211
805 0 86.1478 13.4072 1155 130.623 566.856 467.487
806 0 91.1445 13.0013 1185 132.311 567.287 463.6
807 0 93.0815 13.515 1258 129.61 567.26 460.738
808 0 94.0695 12.3207 1159 134.173 567.368 460.751
809 0 101.116 14.3499 1451 129.954 567.716 458.181
810 0 102.141 12.3163 1258 135.471 566.896 460.405
811 0 107.13 12.8349 1375 133.944 567.033 458.122
812 0 110.114 12.8684 1417 131.624 567.297 456.302
813 0 115.241 14.1703 1633 129.465 566.719 453.448
814 0 120.178 13.4467 1616 130.621 566.8 451.661
815 1 64.0621 13.284 851 128.445 567.763 476.474
816 0 65.1428 12.3268 803 129.838 567.73 472.462
817 0 67.1758 13.5019 907 130.687 567.303 474.653
818 0 71.1183 15.4109 1096 124.92 567.773 474.497
819 0 72.0965 13.4126 967 132.72 568.035 472.255
820 0 76.07 14.1974 1080 128.904 566.627 471.187
821 0 76.1377 13.2786 1011 132.5 566.318 470.549
822 0 80.0996 14.1699 1135 129.862 566.294 467.796
823 0 84.1353 14.2865 1202 127.359 566.439 467.329
824 0 86.1257 13.6777 1178 130.099 566.199 466.044
825 0 88.0691 13.796 1215 131.438 566.365 464.832
826 0 91.0661 14.3522 1307 126.79 566.63 463.606
827 0 95.1274 14.7907 1407 125.987 566.825 463.077
828 0 97.1134 14.3338 1392 128.388 567.386 461.842
829 0 99.1794 12.7648 1266 134.854 567.456 457.867
830 0 103.08 12.8153 1321 134.61 567.945 457.625
831 0 107.206 14.1876 1521 130.815 567.36 456.071
832 0 111.167 15.0764 1676 128.971 567.001 452.35
833 1 55.1298 11.6271 641 132.676 567.471 480.521
834 0 58.0288 11.7355 681 130.865 566.88 480.253
835 0 58.088 12.6704 736 120.626 567.361 478.773
836 0 60.0557 12.7715 767 118.734 566.249 478.185
837 0 64.0831 12.5774 806 116.752 567.428 476.921
838 0 64.1204 13.3343 855 119.434 568.209 475.367
839 0 68.2428 13.2029 901 128.446 567.555 476.515
840 0 70.122 12.4497 873 131.528 567.67 474.41
841 0 72.2319 13.0275 941 130.125 567.8 473.159
842 0 74.2716 13.2217 982 130.41 567.441 471.43
843 0 77.2302 13.531 1045 131.293 567.56 469.358
844 0 80.1176 13.0808 1048 131.26 567.445 469.974
845 0 82.1365 12.954 1064 132.778 567.696 466.974
846 0 85.1021 13.1372 1118 131.548 567.163 466.821
847 0 87.1728 14.5229 1266 127.604 567.269 464.6
848 0 90.1201 13.593 1225 130.75 566.576 464.12
849 0 90.1289 11.9052 1073 134.966 566.851 464.145
850 0 97.2838 12.5612 1222 127.306 567.484 459.855
851 0 98.1524 13.1938 1295 128.238 567.642 455.234
852 0 101.155 12.6933 1284 130.226 567.569 459.927
853 1 51.0211 11.1915 571 125.655 568.32 484.17
854 0 52.0829 12.6913 661 121.516 568.127 482.372
855 0 53.0289 11.4655 608 124.464 567.91 481.352
856 0 57.0328 13.3081 759 117.307 567.817 481.042
857 0 59.0435 13.6171 804 116.799 567.98 478.091
858 0 60.1141 12.6925 763 120.135 568.658 478.157
859 0 61.0677 12.4779 762 122.592 567.755 477.714
860 0 63.0293 13.1526 829 121.49 567.555 476.275
861 0 67.0923 12.7436 855 120.987 567.816 474.986
862 0 70.1008 13.4235 941 120.169 568.437 474.698
863 0 71.0425 12.1195 861 133.933 568.091 472.713
864 0 74.1171 13.4787 999 130.46 567.826 472.957
865 0 76.0735 12.856 978 134.1 568.42 470.951
866 0 77.043 13.9273 1073 130.668 567.958 471.924
867 0 79.0673 12.8625 1017 136.873 568.356 468.429
868 0 82.0887 13.327 1094 134.686 568.386 468.805
869 0 86.0735 13.5001 1162 133.507 567.836 465.679
870 1 44.0651 10.7341 473 136.556 568.865 486.512
871 0 46.1174 11.6659 538 132.251 568.461 485.335
872 0 47.1149 12.2254 576 128.517 568.314 485.21
873 0 49.2017 12.4792 614 129.57 568.464 482.7
874 0 52.0876 12.7093 662 127.021 567.903 482.147
875 0 53.1311 12.7044 675 128.61 568.59 482.239
876 0 55.1948 12.9541 715 127.413 568.66 481.189
877 0 55.144 12.5852 694 129.859 568.267 481.523
878 0 58.1147 14.3337 833 124.262 568.047 480.484
879 0 60.1315 13.7698 828 124.231 568.251 478.816
880 0 63.1125 14.7831 933 121.245 567.998 477.456
881 0 62.0707 13.3235 827 128.638 567.58 477.32
882 0 63.1028 13.0264 822 131.019 567.311 477.198
883 0 66.1005 13.9333 921 127.849 566.667 477.015
884 0 66.0323 12.5999 832 134.656 566.63 475.547
885 0 71.0598 14.129 1004 129.722 567.072 473.467
886 0 71.1386 13.0028 925 135.494 566.682 472.158
887 0 72.1129 13.1322 947 135.393 566.532 472.656
888 0 77.111 13.2536 1022 133.92 566.566 471.677
889 0 78.0706 13.2444 1034 135.924 566.762 470.204
890 0 80.0701 13.6505 1093 137.227 566.447 467.269
891 0 85.0844 14.1742 1206 134.024 567.468 467.493
892 0 88.0358 13.3355 1174 137.172 567.568 468.265
893 1 46.0994 13.1021 604 133.171 568.162 484.649
894 0 48.0717 12.9182 621 133.615 568.058 485.304
895 0 48.0852 13.8712 667 134.21 567.853 484.016
896 0 50.1063 12.2539 614 138.393 567.953 485.265
897 0 50.0216 12.5746 629 138.224 567.545 484.312
898 0 53.1116 13.0103 691 136.745 567.339 481.588
899 0 55.0484 13.0612 719 136.324 567.79 481.693
900 0 57.053 13.5313 772 135.092 567.346 479.873
901 0 58.0874 11.8442 688 139.528 567.253 481.24
902 0 61.0829 13.2279 808 136.282 567.187 478.792
903 0 63.0919 13.0286 822 135.673 567.627 480.151
904 0 65.0657 12.9254 841 136.721 567.491 476.943
905 0 68.1614 14.0255 956 133.215 567.967 475.707
906 0 68.0279 13.4651 916 136.038 567.857 475.034
907 0 71.0473 12.4706 886 138.538 567.407 474.114
908 0 74.0834 13.0799 969 136.269 567.529 473.05
909 0 77.1319 12.4592 961 139.085 566.985 469.36
910 0 80.0862 13.2857 1064 136.785 567.025 468.685
911 1 41.026 12.1874 500 135.372 566.948 485.174
912 0 44.0942 13.4485 593 131.138 567.981 483.933
913 0 46.0539 12.5505 578 133.076 567.017 485.569
914 0 47.0911 13.4845 635 131.761 567.528 483.915
915 0 47.0333 12.2254 575 136.953 567.372 483.734
916 0 50.1224 11.831 593 136.777 567.965 481.474
917 0 50.0418 12.4896 625 135.522 567.922 482.856
918 0 54.0334 13.5842 734 131.159 567.198 482.012
919 0 56.1034 14.1524 794 129.47 568.529 479.719
920 0 59.1037 13.7724 814 128.893 568.161 479.731
921 0 59.1037 13.637 806 137.519 568.181 479.872
922 0 61.1063 13.0592 798 132.499 567.346 477.539
923 0 62.1749 12.4327 773 135.466 567.683 476.614
924 0 67.0792 13.8046 926 129.663 567.772 474.224
925 0 71.1055 13.262 943 129.878 568.052 473.093
926 0 72.1172 14.213 1025 131.065 567.828 470.3
927 0 76.1614 13.8128 1052 131.979 566.831 470.517
928 0 77.0906 13.5814 1047 137.729 566.318 468.809
929 0 80.1132 13.6682 1095 137.642 567.263 467.976
930 0 84.1699 14.1499 1191 135.612 567.334 465.609
931 1 44.0327 10.2197 450 125.96 566.187 483.602
932 0 46.0363 11.5561 532 124.707 566.709 482.094
933 0 49.0293 13.0942 642 133.492 568.104 483.502
934 0 48.0266 12.4098 596 131.681 568.478 484.664
935 0 49.0829 11.1851 549 136.925 568.404 483.191
936 0 52.0324 12.1463 632 133.878 568.791 482.384
937 0 51.0216 11.4853 586 137.094 568.478 481.814
938 0 54.0347 11.8627 641 134.242 568.368 481.265
939 0 56.0455 12.0795 677 133.078 568.869 478.942
940 0 60.0665 12.0699 725 132.197 568.338 477.874
941 0 61.0423 11.9098 727 133.334 567.446 476.646
942 0 63.0882 11.6504 735 134.612 567.92 476.671
943 0 62.0735 11.6475 723 136.324 567.878 476.649
944 0 70.1055 13.7792 966 127.444 567.795 472.225
945 0 70.0711 12.5587 880 133.941 568.301 470.469
946 0 72.0897 11.7631 848 135.509 568.02 471.389
947 0 77.1426 13.3519 1030 130.883 567.898 470.651
948 0 81.0949 14.7975 1200 124.918 568.31 468.378
949 0 83.105 14.3553 1193 126.333 568.027 467.511
950 0 85.1064 12.9955 1106 131.41 567.828 464.147
951 0 87.2265 13.0923 1142 131.798 567.846 463.884
952 1 44.0201 13.0622 575 125.475 568.544 485.028
953 0 48.0291 13.6376 655 127.672 568.487 484.298
954 0 47.0741 12.5972 593 123.902 568.43 484.153
955 0 48.0191 12.0577 579 126.24 568.888 484.389
956 0 50.0912 12.6569 634 123.617 568.185 483.197
957 0 51.0475 13.2034 674 122.835 568.349 482.407
958 0 53.0884 12.9595 688 123.371 568.922 481.735
959 0 55.0315 12.0658 664 123.34 567.818 479.563
960 0 59.0216 12.9952 767 120.726 567.531 480.304
961 0 57.0096 11.805 673 127.031 567.899 479.661
962 0 60.0854 12.1327 729 125.483 568.273 479.141
963 0 62.097 12.094 751 126.656 568.186 476.337
964 0 67.1091 13.3514 896 121.445 567.898 474.308
965 0 66.1151 12.4934 826 126.427 567.792 474.598
966 0 69.0532 11.6287 803 129.836 567.511 473.994
967 0 72.0435 13.2836 957 131.981 567.623 472.881
968 0 73.0376 12.6784 926 135.677 567.444 470.76
969 0 78.1732 13.5468 1059 133.519 567.381 466.715
970 0 80.1922 13.742 1102 134.318 567.143 465.029
971 0 84.3883 14.3385 1210 131.18 567.073 465.033
972 0 86.3336 13.054 1127 135.438 567.287 461.128
973 0 90.2089 14.4775 1306 132.454 567.471 460.008
974 1 47.3318 11.7468 556 134.768 568.061 480.14
975 0 49.1137 11.1578 548 136.248 567.881 482.321
976 0 48.0881 12.082 581 135.365 566.611 483.398
977 0 54.0987 12.9024 698 131.312 567.536 482.189
978 0 53.181 11.7899 627 136.99 566.995 481.188
979 0 55.1252 12.8616 709 134.478 567.114 479.37
980 0 56.0972 12.0683 677 136.699 566.92 480.309
981 0 58.0462 12.6623 735 136.599 567.709 477.411
982 0 60.0921 12.1813 732 138.305 567.481 477.305
983 0 62.095 11.5951 720 140.304 567.189 478.199
984 0 66.4552 13.3022 884 135.069 568.23 472.136
985 0 66.4186 13.0686 868 138.57 567.735 469.567
986 0 69.1975 13.1508 910 138.849 567.856 471.903
987 0 72.4507 12.7949 927 140.046 568.085 469.621
988 0 74.334 12.8205 953 142.32 568.602 468.658
989 0 77.3724 13.3381 1032 140.631 568.771 467.117
990 0 79.5164 13.4312 1068 142.19 568.478 465.786
991 0 84.516 14.6008 1234 139.049 568.433 463.057
992 0 86.2775 14.1868 1224 141.247 568.094 464.252
993 0 88.3585 14.792 1307 141.79 569.007 461.943
994 0 91.191 13.7843 1257 145.695 568.112 459.2
995 0 93.2768 14.3337 1337 145.969 568.293 458.557
996 0 98.2227 15.0067 1474 142.645 568.017 458.832
997 0 99.4123 13.7508 1367 148.894 568.119 457.515
998 0 103.231 14.608 1508 146.921 568.447 454.303
999 0 107.356 15.0899 1620 145.22 567.977 453.302
1000 0 112.357 14.5696 1637 146.777 568.638 451.855
1001 1 54.1101 12.3822 670 147.963 568.097 477.539
1002 0 59.0844 14.217 840 140.669 567.942 477.1
1003 0 60.0883 12.9476 778 148.235 568.991 475.217
1004 0 62.0563 13.81 857 147.005 568.389 473.279
1005 0 64.0686 13.5324 867 147.413 568.249 472.8
1006 0 62.0791 13.5956 844 148.927 568.681 472.058
1007 0 69.1319 14.089 974 143.277 568.152 470.207
1008 0 71.0787 13.6046 967 146.131 567.979 468.95
1009 0 74.1366 14.5407 1078 141.611 568.089 468.835
1010 0 74.076 13.3781 991 148.243 568.334 465.601
1011 0 79.122 13.397 1060 147.398 567.649 464.417
1012 0 81.1007 13.4894 1094 147.805 567.58 462.85
1013 0 84.0835 13.4628 1132 148.958 567.983 461.005
1014 0 85.2027 12.617 1075 152.209 567.766 461.282
1015 0 86.2027 12.111 1044 156.294 567.691 460.431
1016 0 91.1893 14.0038 1277 149.38 567.723 457.713
1017 0 94.1487 13.4574 1267 151.298 567.878 456.281
1018 0 98.2251 13.5607 1332 150.926 567.77 454.213
1019 0 99.2599 13.2279 1313 152.95 567.292 451.318
1020 0 103.338 12.851 1328 155.518 568.203 448.027
1021 0 106.316 13.2906 1413 153.83 567.684 445.428
1022 0 109.311 12.1396 1327 156.944 567.41 442.982
1023 1 61.1717 10.1191 619 138.246 568.805 469.855
1024 0 62.1015 10.4345 648 137.336 568.667 469.858
1025 0 64.0811 11.1889 717 131.404 568.643 472.603
1026 0 66.1355 11.7184 775 133.165 568.168 471.461
1027 0 68.1042 12.4221 846 130.985 568.208 469.864
1028 0 69.1777 11.4777 794 134.785 567.759 467.764
1029 0 72.1013 11.0262 795 135.083 568.186 466.538
1030 0 75.1566 10.6311 799 134.601 568.353 467.507
1031 0 77.2787 11.6203 898 132.422 568.2 464.824
1032 0 82.0883 12.3282 1012 129.209 568.414 464.466
1033 0 85.2097 11.5362 983 131.11 568.223 462.641
1034 0 85.1692 11.4008 971 132.468 568.462 460.756
1035 0 87.254 11.0367 963 134.441 568.33 459.611
1036 0 90.1754 10.7235 967 135.543 567.908 456.251
1037 0 93.1051 10.9768 1022 134.274 568.093 455.112
1038 0 97.1183 11.0896 1077 133.649 568.195 455.728
1039 0 101.213 12.0241 1217 130.647 568.514 452.749
1040 0 102.132 10.692 1092 133.886 568.1 451.627
1041 0 105.162 10.8975 1146 133.18 568.835 449.96
1042 0 110.14 10.8226 1192 133.601 568.535 448.208
1043 0 113.234 12.249 1387 131.118 568.473 445.645
1044 0 114.078 10.5279 1201 131.414 568.529 447.3
1045 0 120.162 13.4735 1619 123.125 568.1 443.732
1046 0 123.11 10.7465 1323 129.662 567.925 441.07
1047 1 57.0453 9.30839 531 117.056 568.2 477.288
1048 0 60.048 9.80883 589 116.862 567.951 474.015
1049 0 60.0647 8.94036 537 119.229 567.291 470.898
1050 0 63.0625 9.91081 625 115.632 568.454 473.186
1051 0 64.0448 9.19669 589 117.526 568.725 471.428
1052 0 68.0658 9.90219 674 115.938 568.191 468.328
1053 0 67.0401 8.30846 557 118.799 568.25 465.497
1054 0 71.0781 7.7239 549 118.157 569.286 467.996
1055 1 165.648 11.3796 1885 125.641 567.514 419.817
1056 0 166.529 10.4607 1742 128.402 567.441 419.23
1057 0 169.429 10.6652 1807 129.019 567.613 419.423
1058 0 167.525 9.56874 1603 132.858 567.425 416.352
1059 0 167.301 7.93781 1328 137.389 567.091 414.651
1060 1 41.0295 6.50751 267 111.85 567.202 483.019
1061 0 44.0176 8.29215 365 108.447 566.926 482.556
1062 0 45.0855 8.49497 383 108.178 566.854 482.36
1063 0 47.0665 8.96605 422 105.827 567.111 478.832
1064 1 91.2899 9.30005 849 118.824 567.403 458.391
1065 1 105.439 4.90329 517 122.547 567.176 468.046
1066 0 106.393 6.4478 686 125.347 567.207 462.273
1067 0 104.189 5.03891 525 122.082 567.619 468.916
1068 1 55.2462 11.2044 619 104.472 567.916 477.569
1069 0 57.2113 10.7322 614 104.565 567.783 477.77
1070 0 58.172 11.4488 666 103.505 567.94 477.952
1071 0 58.2435 11.3489 661 104.941 568.365 477.909
1072 0 61.1873 9.95305 609 108.437 568.061 473.264
1073 0 63.2068 11.7551 743 105.124 568.384 474.295
1074 0 65.1622 10.4969 684 108.282 568.466 473.485
1075 0 66.1494 11.217 742 107.112 567.81 474.022
1076 0 68.1463 11.6954 797 108.028 568.325 469.522
1077 0 71.1996 12.3456 879 106.403 568.472 471.348
1078 0 73.1411 11.2112 820 109.924 568.165 470.089
1079 0 76.131 10.7578 819 111.328 568.165 468.963
1080 0 78.1409 11.3769 889 110.117 567.855 467.412
1081 0 80.1578 10.7288 860 112.406 567.819 465.542
1082 0 83.2482 12.0723 1005 111.19 568.083 465.617
1083 0 85.1195 10.7496 915 117.489 567.479 463.111
1084 1 46.0934 12.0842 557 103.923 568.047 484.713
1085 0 47.0342 10.7156 504 107.865 567.998 483.361
1086 0 47.031 11.2904 531 108.831 567.612 483.397
1087 0 49.067 10.9646 538 110.359 566.277 483.797
1088 0 49.0715 11.5546 567 112.025 566.39 479.899
1089 0 53.0624 11.3828 604 111.099 566.406 480.57
1090 0 54.0354 13.2691 717 107.392 567.922 479.326
1091 0 54.0775 10.8548 587 114.305 567 478.724
1092 0 56.1067 11.8881 667 113.324 567.448 478.741
1093 0 56.1209 11.5643 649 115.495 567.304 478.354
1094 0 61.0513 12.6942 775 112.24 567.275 477.903
1095 0 63.0636 13.8749 875 108.651 566.453 476.723
1096 0 64.0663 12.1749 780 114.005 566.814 475.585
1097 0 66.0518 12.8384 848 112.688 566.751 475.208
1098 0 67.0593 12.7052 852 114.885 566.249 473.134
1099 0 70.0939 12.255 859 115.729 566.371 470.736
1100 0 73.2014 12.9916 951 113.137 566.683 471.178
1101 0 75.2705 13.6707 1029 111.351 566.98 470.819
1102 0 78.1152 12.8528 1004 113.247 566.502 470.201
1103 0 79.0814 13.1384 1039 114.952 566.253 467.718
1104 0 83.242 13.0103 1083 115.378 566.606 465.232
1105 0 86.2068 13.0152 1122 115.246 566.647 464.434
1106 0 89.1692 13.2221 1179 115.735 566.046 461.44
1107 0 91.2206 12.3437 1126 117.293 566.538 460.339
1108 0 95.1602 11.5595 1100 118.83 566.319 462.055
1109 1 50.1105 11.9735 600 119.402 566.44 481.415
1110 0 52.0421 12.8934 671 116.17 567.27 479.198
1111 0 55.0437 13.244 729 114.232 567.774 478.336
1112 0 56.1419 12.0409 676 118.18 567.487 478.849
1113 0 57.035 12.6589 722 115.13 567.479 477.245
1114 0 58.0316 12.8206 744 116.716 566.614 478.733
1115 0 61.0378 13.4671 822 114.697 566.266 476.713
1116 0 61.0933 11.4743 701 119.476 566.114 476.143
1117 0 64.1604 12.2817 788 118.061 566.274 474.929
1118 0 65.0516 11.8675 772 118.861 566.28 475.285
1119 0 71.1609 12.9003 918 116.086 566.488 471.727
1120 0 73.1656 13.5173 989 115.326 566.533 470.465
1121 0 75.2215 13.4137 1009 114.689 566.859 470.22
1122 0 76.1514 12.462 949 118.002 567.076 470.878
1123 0 82.1203 13.8699 1139 114.219 566.663 468.074
1124 0 85.1636 13.5386 1153 115.392 566.702 466.71
1125 0 87.1054 12.9269 1126 118.96 567.048 464.043
1126 0 91.1342 13.2771 1210 117.339 567.146 462.52
1127 1 47.1217 10.0378 473 124.467 566.645 481.34
1128 0 51.1152 11.386 582 120.545 566.809 480.639
1129 0 51.0529 11.9876 612 114.918 567.333 482.258
1130 0 53.0925 11.188 594 124.513 566.396 480.918
1131 0 55.1363 11.8978 656 124.323 566.651 478.165
1132 0 56.054 11.9884 672 124.131 565.56 477.001
1133 0 57.1304 11.9026 680 125.335 566.2 476.234
1134 0 62.0315 13.1224 814 120.318 565.634 475.903
1135 0 62.12 12.1539 755 125.94 567.205 475.669
1136 0 64.185 12.2147 784 125.911 566.888 474.365
1137 0 67.1449 12.2273 821 125.721 567.838 474.43
1138 0 69.2414 13.3302 923 123.348 568.632 471.912
1139 0 71.2039 12.7662 909 126.026 568.186 470.252
1140 0 75.1945 13.7377 1033 122.648 567.533 471.151
1141 0 77.1487 13.1435 1014 125.612 567.603 470.967
1142 0 78.2024 13.0942 1024 126.652 567.976 466.691
1143 0 83.1653 13.4311 1117 124.345 567.543 466.881
1144 0 85.2346 14.114 1203 123.17 567.156 465.422
1145 1 44.0289 10.1297 446 126.883 569.157 484.567
1146 0 47.0506 13.2411 623 118.462 568.804 484.148
1147 0 46.0586 10.8992 502 122.018 567.267 485.155
1148 0 49.0644 11.8416 581 114.088 567.657 483.528
1149 0 50.0678 12.503 626 112.572 565.447 482.554
1150 0 51.083 12.5286 640 118.847 565.005 481.702
1151 0 51.0884 12.8796 658 113.804 566.02 480.843
1152 0 51.0433 12.6755 647 113.991 565.926 482.961
1153 0 55.1985 13.2431 731 110.365 567.338 479.532
1154 0 56.0921 12.4795 700 112.309 567.294 478.641
1155 0 59.2561 12.64 749 111.152 566.626 478.507
1156 0 60.297 12.9691 782 110.572 566.602 475.927
1157 0 62.1535 12.4691 775 121.267 566.988 477.799
1158 0 63.1926 13.2136 835 120 566.556 475.638
1159 0 63.1886 12.0275 760 124.357 567.247 475.474
1160 0 64.2042 12.2733 788 125.138 566.99 473.317
1161 0 68.2441 13.2173 902 122.887 567.118 473.636
1162 0 68.203 14.2662 973 123.555 567.059 470.536
1163 0 70.2791 14.357 1009 124.134 567.631 470.209
1164 0 72.1246 13.754 992 124.146 567.114 470.204
1165 0 74.1718 14.2372 1056 124.111 567.683 469.258
1166 0 76.1121 14.321 1090 118.628 567.85 469.224
1167 0 77.1054 14.2662 1100 121.27 566.762 466.601
1168 0 79.1131 12.8929 1020 128.821 567.087 466.881
1169 0 80.1022 12.3592 990 132.219 566.857 464.869
1170 0 83.1352 13.5442 1126 129.483 566.721 465.849
1171 0 85.1559 13.2698 1130 128.005 566.38 464.472
1172 0 86.1157 13.4238 1156 129.951 566.915 463.523
1173 0 90.1539 13.8319 1247 130.751 566.783 461.237
1174 0 92.2096 13.979 1289 131.056 566.855 460.992
1175 0 94.126 14.6081 1375 128.636 567.239 457.409
1176 0 97.162 13.9664 1357 131.408 567.537 456.214
1177 0 99.13 14.1834 1406 131.683 567.57 456.663
1178 0 101.126 14.3979 1456 132.153 567.464 455.058
1179 0 102.228 13.2351 1353 137.366 566.525 454.606
1180 0 105.131 14.0112 1473 136.175 566.745 452.788
1181 0 106.081 13.6216 1445 138.498 567.224 453.846
1182 0 112.215 14.597 1638 134.481 567.192 448.305
1183 0 115.094 13.7974 1588 138.798 566.802 446.083
1184 0 117.119 13.7211 1607 140.442 566.622 445.467
1185 0 120.18 13.7378 1651 140.901 567.065 447.898
1186 0 123.206 13.7818 1698 142.706 567.21 442.195
1187 0 127.2 14.0959 1793 142.21 567.277 442.939
1188 0 130.155 14.3521 1868 143.111 566.452 439.89
1189 0 133.242 13.7644 1834 146.111 566.579 436.642
1190 0 137.256 14.4401 1982 145.574 567.124 433.679
1191 0 143.144 15.5228 2222 142.017 567.141 433.195
1192 0 146.247 16.6089 2429 139.524 567.289 430.267
1193 0 148.208 14.8238 2197 147.609 566.706 428.227
1194 0 152.254 15.7303 2395 145.385 566.767 425.201
1195 0 156.231 15.6435 2444 146.685 567.273 426.33
1196 0 160.283 15.1794 2433 149.517 567.321 423.335
1197 0 164.155 15.2417 2502 151.696 566.913 420.97
1198 0 169.206 14.6922 2486 154.671 567.264 417.582
1199 0 173.297 15.5341 2692 151.468 567.798 414.549
1200 0 180.198 14.7338 2655 154.284 567.455 416.585
1201 0 184.225 15.074 2777 153.755 567.389 414.391
1202 0 188.292 15.0564 2835 156.04 567.356 410.275
1203 0 191.263 15.3924 2944 156.781 567.215 409.277
1204 0 196.153 14.4734 2839 160.699 566.954 407.407
1205 0 198.333 14.395 2855 163.205 566.731 405.171
1206 0 204.162 15.2819 3120 161.304 567.312 403.724
1207 0 210.263 15.0431 3163 164.631 566.663 400.659
1208 0 214.221 15.4233 3304 164.808 566.553 395.81
1209 0 222.199 15.8191 3515 163.947 566.758 390.646
1210 0 228.345 16.2298 3706 162.025 566.458 388.511
1211 0 235.361 16.3196 3841 161.654 566.359 385.564
1212 0 240.379 16.5031 3967 161.963 565.964 383.451
1213 0 247.323 17.2851 4275 158.928 566.649 380.199
1214 0 253.283 17.7944 4507 156.617 566.158 376.383
1215 0 261.31 18.48 4829 153.886 566.324 369.273
1216 0 266.387 17.9814 4790 154.251 566.073 366.398
1217 0 275.485 17.1879 4735 156.032 566.328 365.202
1218 0 283.356 17.5115 4962 155.173 565.848 359.788
1219 0 291.34 16.9184 4929 157.155 566.091 353.345
1220 0 301.244 18.0286 5431 153.393 566.217 350.874
1221 0 309.448 17.4213 5391 155.534 565.999 350.76
1222 0 313.268 16.9503 5310 159.247 565.913 340.885
1223 0 322.282 17.0285 5488 160.761 566.01 333.965
1224 0 333.333 18.489 6163 155.201 565.641 329.776
1225 0 343.457 17.813 6118 158.214 565.39 326.018
1226 0 350.321 17.6923 6198 159.127 566.121 320.547
1227 0 360.4 18.5239 6676 155.259 565.956 311.953
1228 0 369.658 18.4251 6811 157.033 565.647 312.319
1229 0 379.481 19.0734 7238 154.787 565.858 308.8
1230 0 388.574 18.3311 7123 156.574 565.679 302.27
1231 0 399.652 18.1383 7249 155.969 565.384 304.424
1232 0 409.618 18.6198 7627 153.781 565.216 292.67
1233 0 420.648 19.5056 8205 151.251 565.436 287.561
1234 0 429.482 22.604 9708 140.319 565.701 280.005
1235 0 429.539 19.8375 8521 151.292 565.969 276.457
1236 0 430.969 19.0965 8230 154.052 566.067 274.137
1240 0 431.447 17.9489 7744 156.828 565.968 272.369
1241 0 432.195 18.4037 7954 154.384 565.861 274.277
1242 1 71.1527 10.7375 764 129.639 567.041 470.123
1243 0 73.0603 11.4974 840 129.812 566.995 470.72
1244 0 72.0694 11.1837 806 133.339 566.464 468.031
1245 0 73.0589 11.1691 816 134.539 566.638 469.964
1246 0 73.0338 10.8991 796 137.481 566.612 469.995
1247 0 71.039 10.811 768 139.908 567.21 470.445
1248 0 74.0259 12.2254 905 139.722 566.973 469.913
1249 0 75.1159 12.3809 930 140.295 567.234 469.961
1250 0 76.088 12.9061 982 138.875 567.294 468.394
1251 0 76.0855 13.5243 1029 136.996 566.225 470.082
1252 0 78.102 12.6117 985 139.525 566.16 470.072
1253 0 76.121 11.9546 910 141.201 566.701 468.819
1254 0 423.066 17.0423 7210 152.365 565.233 284.572
1255 1 39.0131 10.9194 426 136.674 566.81 489.141
1256 0 38.0166 10.1009 384 142.404 565.977 486.852
1257 0 40.1015 11.5457 463 136.685 565.533 487.674
1258 0 35.0169 9.13846 320 147.053 565.878 491.103
1259 0 39.0618 9.54898 373 146.019 565.239 489.464
1260 0 38.0226 10.1518 386 144.899 566.246 488.725
1261 0 38.1273 10.3863 396 142.831 565.712 489.692
1262 0 37.0234 10.6149 393 144.01 565.018 488.44
1263 0 38.0488 10.1974 388 144.737 565.273 487.503
1264 0 40.0803 10.7285 430 140.535 565.374 488.537
1265 0 39.051 10.7808 421 141.62 565.599 488.515
1266 0 39.0322 10.4529 408 139.525 565.787 489.846
1267 0 41.0994 10.5111 432 142.558 566.479 488.065
1268 0 39.0132 10.5605 412 142.371 565.988 488.102
1269 0 41.0158 12.0441 494 135.794 566.466 487.838
1270 0 40.0166 10.9454 438 140.689 565.936 487.352
1271 0 40.0289 10.1677 407 140.13 565.948 488.45
1272 0 39.0349 11.0414 431 141.367 565.752 486.422
1273 0 40.056 10.3855 416 141.454 565.808 487.315
1274 0 39.0232 10.2759 401 143.259 566.03 487.047
1275 0 41.0267 10.3835 426 138.615 566.256 487.897
1276 0 42.0354 9.75369 410 140.085 565.934 487.505
