time division length width area intensity CMx CMy
0 0 43.1724 12.9017 557 149.819 875.108 470.092
1 0 44.0982 12.4495 549 155.45 874.847 470.424
2 0 46.1466 13.7822 636 149.681 875.472 468.373
3 0 48.1003 14.3658 691 144.384 875.851 467.573
4 0 50.165 13.6749 686 146.039 875.971 467.153
5 0 51.046 14.6926 750 143.227 876.368 469.041
6 0 51.0623 13.0821 668 148.777 875.476 469.127
7 0 51.0086 13.7232 700 148.346 876.171 468.424
8 0 52.0431 14.0268 730 146.292 875.447 468.763
9 0 54.0404 14.6557 792 143.441 875.444 468.655
10 0 57.0316 14.0098 799 145.926 874.887 468.379
11 0 56.0913 13.1215 736 150.367 875.776 468.364
12 0 58.0437 12.9385 751 149.16 875.107 468.602
13 0 59.052 14.9699 884 143.983 874.702 465.561
14 0 61.0939 13.7657 841 147.278 874.869 466.738
15 0 63.0449 14.5769 919 144.338 874.802 465.882
16 0 65.0408 13.3301 867 151.118 875.02 464.834
17 0 69.1475 14.3317 991 147.85 874.868 462.341
18 0 70.0846 14.6395 1026 146.311 875.51 462.712
19 0 74.1479 14.1474 1049 146.074 874.405 463.628
20 0 75.1345 14.9199 1121 145.741 873.671 461.245
21 0 78.0684 14.1286 1103 148.331 874.189 461.104
22 0 81.063 15.7778 1279 141.612 874.271 460.205
23 0 83.1645 13.4793 1121 149.454 873.688 460.362
24 1 44.0459 12.4189 547 149.627 874.239 476.817
25 0 45.0359 13.2783 598 147.222 873.326 476.052
26 0 46.0367 13.272 611 148.123 872.614 475.9
27 0 49.05 13.1498 645 143.095 872.933 476.581
28 0 50.0488 14.2061 711 140.298 872.537 476.159
29 0 50.0309 13.6516 683 141.114 872.925 476.4
30 0 51.0444 12.4989 638 145.456 873.194 475.077
31 0 55.083 12.8896 710 141.145 872.328 474.32
32 0 56.0391 13.8832 778 138.847 872.004 473.551
33 0 58.0519 13.953 810 137.115 872.627 472.58
34 0 59.0531 13.9535 824 138.142 872.464 471.468
35 0 62.0926 14.0274 871 137.014 872.389 471.351
36 0 63.1153 14.0378 886 137.54 873.095 469.677
37 0 64.1003 12.8705 825 141.567 872.524 470.143
38 0 68.0273 13.9062 946 138.51 871.441 467.438
39 0 68.0659 13.8689 944 140.599 871.565 466.285
40 0 73.1033 13.009 951 142.982 871.368 466.431
41 0 75.1358 13.3359 1002 141.837 871.501 465.219
42 0 77.0585 14.2359 1097 139.582 871.446 464.486
43 0 81.0716 14.6044 1184 140.084 872.046 462.544
44 0 83.2348 13.4559 1120 143.732 871.523 461.731
45 0 87.1929 15.2879 1333 139.172 871.725 460.217
46 0 88.0836 13.8278 1218 144.544 871.076 459.505
47 1 44.1098 12.3782 546 148.425 871.399 480.419
48 0 46.0952 13.2769 612 145.343 871.503 478.962
49 0 47.0486 14.0706 662 142.255 871.24 479.432
50 0 49.0257 13.1972 647 139.569 871.297 479.915
51 0 48.0174 12.433 597 142.851 871.68 478.352
52 0 52.0544 13.4475 700 137.409 871.35 478.689
53 0 52.0535 13.3324 694 140.608 871.153 475.653
54 0 53.0583 12.7973 679 142.331 870.695 475.128
55 0 59.0427 13.9391 823 135.677 870.673 474.237
56 0 60.0251 14.294 858 135.494 871.325 474.414
57 0 59.0894 13.2003 780 141.997 870.776 472.376
58 0 62.0318 13.7188 851 139.162 871.184 473.12
59 0 64.0357 14.5856 934 137.493 871.683 471.108
60 0 65.1067 13.2552 863 142.372 871.459 469.868
61 0 68.0652 13.825 941 140.843 870.961 469.321
62 0 70.0614 14.159 992 140.261 870.399 469.041
63 0 73.034 14.993 1095 137.004 870.272 468.005
64 0 75.1179 14.4573 1086 139.444 869.986 467.114
65 0 78.0752 14.486 1131 139.061 870.056 465.765
66 0 81.0668 14.9013 1208 137.305 870.286 464.191
67 0 84.0525 14.7408 1239 137.715 869.787 462.343
68 0 88.0589 15.501 1365 135.439 869.964 461.456
69 0 90.0867 14.9745 1349 138.331 869.466 460.216
70 0 93.0811 16.1902 1507 135.175 869.523 456.791
71 0 96.1944 14.6578 1410 138.787 869.155 457.438
72 0 100.101 15.0748 1509 135.596 869.314 455.008
73 1 53.048 12.7997 679 131.146 869.73 477.996
74 0 54.0462 12.1193 655 132.86 870.139 478.066
75 0 58.0716 13.3628 776 130.143 869.269 475.879
76 0 59.0154 13.5388 799 129.969 869.416 475.025
77 0 61.0396 12.4346 759 132.165 870.088 474.922
78 0 63.0531 13.9565 880 128.728 870.039 473.201
79 0 65.0747 13.569 883 129.992 870.002 472.702
80 0 68.0591 14.0319 955 129.075 870.086 471.329
81 0 69.0427 12.8616 888 136.257 869.109 469.686
82 0 72.2249 13.6103 983 132.714 869.014 469.46
83 0 73.0978 12.8595 940 135.471 869.804 467.056
84 0 77.1908 13.0974 1011 131.485 870.579 463.407
85 0 76.0847 12.1181 922 135.958 870.789 465.939
86 0 81.0748 13.8884 1126 130.873 870.543 463.097
87 0 84.2439 13.4728 1135 131.661 870.581 463.297
88 0 86.0703 13.8375 1191 130.952 870.547 459.592
89 0 89.1953 13.6891 1221 131.261 870.133 459.315
90 0 91.1544 13.8008 1258 130.452 869.951 459.214
91 0 94.2007 13.6729 1288 131.533 869.978 455.854
92 0 98.1838 13.3831 1314 132.247 870.007 452.645
93 0 101.266 14.2495 1443 128.514 869.492 452.974
94 0 104.143 13.1166 1366 131.829 869.846 451.473
95 0 107.146 13.3463 1430 131.49 869.529 449.893
96 0 112.134 13.8673 1555 130.18 869.413 447.065
97 0 116.171 13.351 1551 129.467 870.191 449.119
98 1 62.0584 12.456 773 123.701 869.627 473.278
99 0 63.1416 11.8147 746 124.875 869.769 472.605
100 0 66.0951 12.7846 845 127.404 870.292 471.228
101 0 68.1635 12.7928 872 128.751 868.778 469.579
102 0 71.0445 12.7526 906 129.703 868.882 466.919
103 0 73.1052 12.5025 914 129.234 868.953 467.304
104 0 75.0807 12.8795 967 128.349 868.866 466.451
105 0 78.0779 12.2314 955 130.14 868.792 466.631
106 0 80.0895 12.7857 1024 130.104 868.141 463.645
107 0 82.0835 12.4873 1025 130.585 868.909 462.51
108 0 86.0411 13.8655 1193 128.014 868.812 460.476
109 0 91.1104 13.7525 1253 126.552 868.679 460.782
110 0 93.0763 13.5695 1263 127.815 868.445 457.082
111 0 96.1657 13.8927 1336 124.885 868.6 458.362
112 0 99.1034 13.5616 1344 126.803 868.237 455.298
113 0 104.072 13.3081 1385 126.745 868.388 452.49
114 1 53.0141 11.9025 631 119.182 869.219 479.147
115 0 57.0493 12.5856 718 117.485 869.316 477.848
116 0 59.0818 13.0835 773 116.661 868.78 475.417
117 0 59.1214 13.5991 804 122.877 868.53 473.193
118 0 59.0868 12.744 753 121.975 868.842 472.769
119 0 64.145 13.0641 838 118.156 868.32 473.987
120 0 66.2941 13.0479 865 119.338 867.985 472.75
121 0 68.1621 12.9251 881 120.655 867.88 470.114
122 0 70.1691 12.9544 909 120.58 868.582 468.898
123 0 72.1685 13.6902 988 118.757 868.336 468.736
124 0 74.233 13.8079 1025 118.833 868.85 467.788
125 0 77.1212 13.2 1018 121.419 869.047 464.754
126 0 77.1212 13.2908 1025 146.744 870.034 464.876
127 0 79.1776 11.3037 895 126.83 867.532 463.937
128 0 84.0606 14.323 1204 119.198 868.646 460.8
129 0 85.0899 13.0803 1113 123.049 868.925 459.453
130 0 89.1245 13.7785 1228 120.467 868.565 458.087
131 0 91.1287 13.1901 1202 120.699 869.058 457.045
132 0 96.0787 14.8732 1429 120.812 868.992 455.333
133 0 99.1623 14.9654 1484 120.933 869.54 452.338
134 0 102.122 12.6221 1289 127.979 868.848 448.446
135 0 107.139 14.0752 1508 122.455 868.849 448.416
136 1 56.076 11.3953 639 119.717 870.158 472.091
137 0 60.1569 12.3344 742 114.399 869.442 472.761
138 0 60.0362 10.9101 655 115.635 869.33 472.467
139 0 64.0454 12.1476 778 111.959 869.573 471.166
140 0 65.0988 12.1354 790 113.152 869.335 470.537
141 0 68.0314 11.9357 812 112.438 869.383 469.942
142 0 67.0706 11.1524 748 116.349 868.913 467.191
143 0 71.0446 11.5984 824 115.21 869.206 466.88
144 0 73.0711 10.3735 758 118.071 869.018 466.044
145 0 76.0726 10.9895 836 117.019 869.054 463.913
146 0 79.1043 12.1864 964 115.004 869.48 462.138
147 0 81.1631 11.8034 958 120.424 868.955 461.516
148 0 81.1631 11.865 963 132.861 867.958 461.342
149 0 87.0577 13.1407 1144 115.608 869.289 459.541
150 0 92.0869 12.2927 1132 117.697 869.13 455.367
151 0 95.1032 12.029 1144 117.448 869.59 455.725
152 1 50.1765 10.483 526 114.356 867.289 476.441
153 0 50.0247 11.8941 595 114.361 869.18 475.069
154 0 54.07 11.855 641 117.204 870.651 476.09
155 0 56.0627 11.1482 625 119.667 868.44 474.118
156 0 57.0763 12.9826 741 115.58 868.178 472.27
157 0 59.0458 12.0076 709 118.272 868.292 472.69
158 0 60.0631 11.7377 705 119.109 868.574 472.339
159 0 63.1293 12.5457 792 116.865 868.482 470.634
160 0 63.1669 11.8891 751 119.124 869.442 469.509
161 0 67.1512 12.2113 820 117.515 869.338 467.924
162 0 68.1577 11.8549 808 119.095 868.663 469.699
163 0 72.2122 12.3109 889 117.8 868.579 467.027
164 0 74.2215 12.6513 939 116.316 869.015 465.735
165 0 77.1605 12.636 975 118.082 868.616 463.559
166 0 79.1751 12.7313 1008 118.474 868.662 461.474
167 0 81.1735 12.0113 975 118.647 869.425 460.645
168 0 83.2769 12.6926 1057 118.309 869.825 459.468
169 0 87.1549 11.9787 1044 113.717 869.728 460.058
170 0 88.0742 11.2292 989 117.254 869.803 456.229
171 1 47.0178 10.613 499 111.876 869.788 480.116
172 0 49.0558 11.6806 573 110.522 869.634 478.813
173 0 49.0434 11.3165 555 111.984 870.056 478.032
174 0 48.0324 10.826 520 115.619 869.987 476.64
175 0 52.0646 10.7943 562 115.598 868.89 475.58
176 0 52.0862 10.8282 564 116.844 868.988 475.824
177 0 54.0533 11.0262 596 116.2 870.012 475.309
178 0 58.1659 10.642 619 115.095 869.415 474.638
179 0 59.0821 11.3571 671 114.984 869.961 475.353
180 0 59.06 10.8703 642 118.03 869.807 473.115
181 0 63.0728 12.2874 775 114.297 869.168 471.643
182 0 65.2021 12.0702 787 113.249 869.179 469.948
183 0 65.1663 10.8799 709 117.172 869.395 470.168
184 0 70.0632 10.776 755 116.995 868.768 468.677
185 0 71.0842 11.6622 829 116.977 869.129 467.662
186 0 72.0268 11.4263 823 117.642 869.405 464.644
187 0 75.1555 11.5228 866 118.858 868.467 466.208
188 0 79.1141 13.6765 1082 114.656 868.311 461.646
189 0 82.0754 13.451 1104 115.102 868.684 461.818
190 0 83.0664 12.0747 1003 120.026 868.211 459.246
191 0 87.1781 13.2832 1158 116.902 868.244 457.456
192 0 90.1561 12.4562 1123 122.227 868.27 456.907
193 0 93.1619 13.1277 1223 120.02 868.397 456.391
194 0 96.1227 12.0679 1160 121.397 868.159 454.097
195 0 98.0632 11.3192 1110 122.35 867.961 455.233
196 1 53.0477 11.4237 606 118.01 867.584 475.32
197 0 55.0543 12.8964 710 115.09 867.437 474.4
198 0 58.0208 12.1163 703 117.246 867.993 475.262
199 0 58.0209 11.651 676 116.185 867.938 474.142
200 0 59.0429 11.4154 674 116.77 868.392 472.699
201 0 62.0372 13.2501 822 112.383 868.56 472.465
202 0 64.0835 12.4057 795 114.834 867.664 472.147
203 0 66.0453 12.3854 818 114.623 867.555 470.786
204 0 68.0735 12.9713 883 112.412 868.159 469.57
205 0 70.1573 12.9138 906 114.139 868.391 468.361
206 0 69.0206 11.7356 810 117.988 868.189 467.162
207 0 73.0592 11.8397 865 117.372 868.046 467.775
208 0 77.0773 11.975 923 115.782 868.506 465.789
209 0 78.1086 12.3546 965 115.472 868.797 461.56
210 0 81.1112 13.0315 1057 114.727 869.181 462.605
211 0 85.0957 12.6798 1079 115.076 868.994 461.53
212 0 87.0673 13.2426 1153 114.178 869.458 460.685
213 0 89.1752 12.5259 1117 116.672 868.368 459.106
214 0 94.1113 12.7721 1202 116.215 868.448 456.865
215 0 97.1827 13.2945 1292 116.186 868.454 454.861
216 0 97.0692 13.2174 1283 117.737 868.712 452.052
217 0 102.134 13.9033 1420 116.089 869.443 452.181
218 0 105.073 12.2391 1286 119.516 868.628 450.395
219 1 51.0373 10.2474 523 124.119 868.166 476.312
220 0 54.0372 11.5476 624 121.543 868.574 473.678
221 0 56.0262 13.0475 731 119.726 868.616 473.627
222 0 58.0343 12.8028 743 120.017 868.774 472.878
223 0 60.0386 12.2754 737 122.104 868.262 472.353
224 0 61.0769 12.9836 793 120.869 868.905 470.4
225 0 63.0308 12.5018 788 122.602 869.575 471.124
226 0 66.0348 13.9321 920 119.088 869.292 468.61
227 0 68.029 13.6412 928 120.27 869.375 466.787
228 0 72.0378 14.9227 1075 116.377 868.583 467.074
229 0 75.0555 15.0022 1126 116.274 868.408 464.856
230 0 75.1731 13.6618 1027 121.122 868.976 463.463
231 0 77.0411 13.6161 1049 121.133 868.329 464.666
232 0 80.1221 13.6791 1096 122.231 868.929 462.038
233 0 82.1113 13.9688 1147 120.296 869.481 460.957
234 0 84.1158 13.3863 1126 123.291 868.132 461.607
235 0 86.1431 13.4311 1157 124.098 868.315 459.516
236 0 87.106 13.3516 1163 125.58 868.39 457.248
237 0 91.0993 14.0396 1279 123.575 868.777 457.888
238 0 95.094 14.3858 1368 121.797 868.664 451.528
239 0 99.036 14.0454 1391 122.666 868.869 451.625
240 0 102.121 13.6308 1392 125.698 868.353 450.085
241 0 106.122 14.4739 1536 123.869 867.514 449.962
242 0 109.05 13.7551 1500 125.465 867.849 448.121
243 0 114.083 14.0249 1600 126.02 868.109 446
244 0 117.116 14.063 1647 126.911 868.215 443.435
245 0 122.136 14.4347 1763 126.603 868.445 441.415
246 0 127.121 14.5058 1844 125.213 868.402 438.806
247 1 57.0303 12.3268 703 117.33 870.452 474.76
248 0 58.0535 11.7995 685 120.496 869.971 473.823
249 0 60.0133 12.064 724 116.895 868.986 473.591
250 0 63.0465 13.3711 843 113.183 868.69 469.947
251 0 63.0876 12.2528 773 116.815 868.335 468.448
252 0 68.1326 12.2115 832 115.053 868.762 468.049
253 0 68.0331 12.5674 855 116.366 868.267 467.499
254 0 71.0325 12.0086 853 117.941 867.753 465.884
255 0 74.0845 12.3643 916 117.578 867.989 465.008
256 0 75.0778 12.2406 919 118.143 868.261 464.866
257 0 80.0465 12.1804 975 117.396 867.995 463.159
258 0 81.1861 13.1426 1067 116.869 867.568 460.501
259 0 84.0914 10.7978 908 122.869 867.989 461.865
260 0 87.0525 13.2679 1155 118.061 867.739 457.943
261 0 93.1956 13.7989 1286 116.054 868.291 457.761
262 0 93.0688 12.3994 1154 121.867 868.644 455.672
263 0 94.0677 12.3422 1161 123.915 868.202 454.462
264 0 98.0884 12.7844 1254 124.431 869.443 454.465
265 0 102.07 12.0407 1229 127.397 869.385 452.423
266 0 104.127 12.4655 1298 126.881 869.273 450.388
267 0 108.249 12.3327 1335 127.109 869.845 449.007
268 0 114.255 13.4174 1533 122.51 870.061 446.795
269 1 54.0903 10.4455 565 119.45 870.271 477.032
270 0 56.0459 11.1337 624 121.353 870.986 473.782
271 0 56.1837 10.5369 592 119.878 867.978 473.25
272 0 60.0761 11.9016 715 114.655 867.432 474.126
273 0 62.0636 11.7782 731 114.99 867.929 472.291
274 0 62.1599 11.8887 739 116.196 868.05 469.905
275 0 65.199 12.1474 792 115.869 867.821 469.669
276 0 68.1651 13.0859 892 113.972 867.841 469.308
277 0 71.0779 12.5355 891 113.985 867.838 468.176
278 0 71.1022 11.9687 851 116.455 867.599 468.83
279 0 75.0689 11.576 869 118.704 868.293 465.916
280 0 76.1022 11.8788 904 124.473 868.99 464.475
281 0 80.189 11.9094 955 123.612 869.127 463.644
282 0 83.1754 12.5879 1047 122.562 868.663 460.679
283 0 85.1915 11.3039 963 125.363 869.128 461.102
284 0 89.1818 12.4241 1108 122.672 868.73 459.967
285 0 92.1533 12.0343 1109 122.342 869.387 458.122
286 0 96.1792 11.8113 1136 121.884 868.954 458.411
287 0 98.2985 11.872 1167 122.985 869.298 454.406
288 1 56.161 11.4848 645 118.029 868.705 477.085
289 0 56.1346 11.4012 640 121.011 869.019 475.606
290 0 57.1227 10.7488 614 123.749 868.961 474.212
291 0 60.0376 11.9092 715 119.083 868.625 475.585
292 0 60.0763 12.068 725 119.484 867.713 474.526
293 0 63.0628 12.1625 767 118.849 867.841 473.435
294 0 65.0429 12.2381 796 118.107 867.994 473.525
295 0 67.0689 12.3157 826 119.034 868.12 470.711
296 0 70.1105 11.8812 833 120.216 867.649 468.502
297 0 71.0182 12.8277 911 119.31 868.171 467.645
298 0 73.2021 12.2537 897 116.884 869.006 466.164
299 0 75.065 13.1619 988 115.715 868.878 465.983
300 0 77.0677 12.3268 950 118.151 868.454 465.849
301 0 80.033 11.8576 949 118.828 869.128 465.003
302 0 82.0463 12.8586 1055 117.373 869.652 461.382
303 0 85.0899 11.4232 972 119.073 871.022 459.327
304 1 44.0671 9.57631 422 118.107 869.014 480.275
305 0 47.03 11.482 540 111.698 869.537 479.998
306 0 49.0382 10.4001 510 113.398 871.725 478.469
307 0 48.0616 9.92475 477 110.172 870.757 480.637
308 0 48.0527 9.55202 459 112.063 869.959 479.179
309 0 51.0653 9.94804 508 109.321 870.136 480.244
310 0 52.0941 12.1703 634 106.259 869.055 477.861
311 0 53.0331 11.408 605 107.846 869.612 477.645
312 0 56.0643 10.7733 604 109.061 870.252 477.387
313 0 55.1125 10.1429 559 111.193 870.54 477.118
314 0 56.0298 10.9763 615 109.161 869.907 475.989
315 0 59.0262 12.4521 735 106.698 869.853 474.212
316 0 60.1171 10.779 648 110.616 869.386 473.505
317 0 64.082 12.5932 807 104.561 869.971 474.042
318 0 66.1223 11.8719 785 106.985 868.981 471.544
319 0 66.1759 10.865 719 109.623 870.033 471.433
320 0 68.0995 9.98539 680 111.466 869.625 468.671
321 0 73.1263 11.3776 832 107.748 870.052 470.043
322 0 73.1294 9.81822 718 113.181 870.719 465.886
323 0 76.1803 11.7222 893 107.585 869.919 468.732
324 0 77.1588 9.86277 761 112.532 870.185 467.242
325 0 81.2001 10.6157 862 109.994 870.225 465.78
326 0 86.1276 11.6107 1000 106.858 870.195 463.308
327 0 88.2184 11.6075 1024 107.925 869.626 460.236
328 1 47.0303 9.22809 434 105.857 870.217 482.657
329 0 47.0662 11.3882 536 102.957 869.894 479.284
330 0 50.0725 11.2237 562 102.628 870.272 477.395
331 0 53.1623 12.3208 655 99.9313 870.328 478.579
332 0 53.1284 11.8581 630 102.006 869.952 478.137
333 0 54.1093 11.9758 648 101.298 869.81 478.04
334 0 58.1508 12.1064 704 100.555 869.815 477.641
335 0 59.1254 13.632 806 98.4628 869.289 474.208
336 0 60.0337 13.5257 812 101.663 869.973 473.692
337 0 61.1303 12.2852 751 104.21 869.581 473.535
338 0 64.128 12.5062 802 103.294 869.733 473.479
339 0 65.1316 12.2828 800 106.151 869.596 472.07
340 0 67.122 12.7678 857 103.631 870.112 472.333
341 0 71.1995 13.2023 940 104.276 869.126 470.363
342 0 71.1342 13.1723 937 105.064 869.751 470.634
343 0 72.0833 12.5549 905 109.778 869.872 466.642
344 0 75.1246 13.3245 1001 106.523 869.891 468.26
345 0 80.0851 13.6355 1092 106.073 870.245 465.913
346 0 82.0732 13.5001 1108 109.318 869.944 466.299
347 0 83.114 13.6078 1131 111.444 869.226 463.729
348 0 87.1929 14.2557 1243 111.862 869.662 462.372
349 1 47.0931 10.4899 494 119.773 870.771 482.018
350 0 48.0973 11.3936 548 111.493 869.83 483.292
351 0 49.229 12.2082 601 111.236 868.805 479.875
352 0 49.229 12.2489 603 144.521 867.793 479.818
353 0 51.1174 12.6963 649 114.109 870.863 479.681
354 0 54.1151 13.7669 745 111.4 870.404 478.828
355 0 53.1604 13.7885 733 115.529 870.124 477.674
356 0 57.0772 12.7897 730 116.484 870.441 478.763
357 0 57.1149 12.8163 732 118.572 870.287 477.413
358 0 60.2226 13.2508 798 117.251 870.509 475.584
359 0 60.2733 11.9622 721 122.021 870.594 475.189
360 0 63.2027 12.5311 792 121.784 870.87 474.423
361 0 65.1155 13.3302 868 119.096 870.984 473.657
362 0 67.1324 11.6933 785 122.978 871.55 472.712
363 0 69.1088 13.6596 944 119.033 871.579 470.426
364 0 70.1081 13.1083 919 120.968 871.004 470.531
365 0 72.1538 13.3742 965 121.772 871.229 469.691
366 0 75.0966 13.689 1028 120.611 870.924 469.362
367 0 79.1265 14.0661 1113 119.3 870.712 466.401
368 0 81.1704 13.7489 1116 121.411 870.557 465.076
369 0 84.0396 14.8144 1245 118.484 870.431 463.978
370 0 88.0665 14.3982 1268 124.229 870.22 461.757
371 0 91.0271 13.9849 1273 125.391 870.082 460.534
372 1 48.0746 12.0438 579 120.665 869.967 483.211
373 0 48.0299 10.2853 494 123.245 869.285 481.909
374 0 50.0493 11.8883 595 116.368 868.659 481.484
375 0 55.0823 14.8505 818 112.654 869.037 478.835
376 0 54.0975 12.7178 688 119.988 869.535 479.163
377 0 57.0896 13.2248 755 118.319 868.85 477.796
378 0 57.0812 13.5246 772 117.346 869.617 475.466
379 0 59.098 12.9954 768 118.228 868.464 476.764
380 0 60.0986 12.6292 759 117.625 869.083 476.926
381 0 62.0766 12.5812 781 118.804 868.412 474.227
382 0 62.0335 13.4927 837 116.229 868.247 474.615
383 0 65.0875 12.2758 799 118.091 868.302 472.426
384 0 65.0322 12.1632 791 119.302 868.606 471.574
385 0 71.0362 13.1201 932 115.258 868.095 469.368
386 0 73.019 12.3803 904 115.656 869.017 470.746
387 0 76.0828 13.1304 999 115.875 869.546 467.046
388 0 78.0714 13.5645 1059 114.716 869.267 465.518
389 0 80.1417 12.6027 1010 116.01 868.845 466.933
390 0 84.0481 13.9325 1171 113.629 868.33 462.432
391 0 87.0749 13.2644 1155 114.843 868.506 463.037
392 0 89.2138 13.2491 1182 113.429 870.421 465.151
393 1 47.0999 11.5924 546 112.861 870.101 484.372
394 0 49.1673 12.0202 591 110.338 869.57 482.838
395 0 47.0476 10.245 482 111.315 868.969 482.185
396 0 51.0255 12.5231 639 105.053 869.266 480.419
397 0 51.0712 12.1791 622 107.113 870.494 479.238
398 0 54.1086 11.6433 630 107.703 870.132 480.083
399 0 56.0435 12.7936 717 104.515 870.103 478.259
400 0 56.126 11.0644 621 109.539 870.456 476.491
401 0 58.031 11.6317 675 106.883 869.945 478.83
402 0 61.0643 13.1173 801 104.752 869.527 475.333
403 0 63.0585 12.5598 792 105.057 869.33 475.312
404 0 64.0592 13.6436 874 103.292 869.696 473.421
405 0 66.0838 12.9986 859 105.026 869.128 472.726
406 0 69.0802 12.9704 896 104.51 869.637 471.825
407 0 70.0818 11.7291 822 108.153 869.582 470.977
408 0 70.0607 13.0173 912 105.912 869.474 471.015
409 0 74.0886 12.755 945 106.397 868.992 470.456
410 0 79.0813 13.7201 1085 103.856 869.132 468.094
411 0 79.0417 12.2973 972 108.504 869.367 465.029
412 0 83.0989 13.1049 1089 107.001 868.995 465.271
413 0 83.1344 11.7881 980 110.769 869.432 460.703
414 0 86.1883 11.7301 1011 111.733 869.232 458.438
415 0 91.1121 12.8084 1167 109.118 869.579 462.518
416 0 94.0728 12.501 1176 110.935 869.4 458.81
417 0 97.0401 12.3145 1195 111.644 870.087 458.736
418 0 98.1406 12.5534 1232 111.726 870.396 455.18
419 1 52.0391 10.4345 543 112.838 871.519 481.103
420 0 55.0715 12.1479 669 109.815 871.659 478.898
421 0 54.1354 11.9146 645 112.383 871.389 477.079
422 0 59.1602 12.0182 711 111.055 871.412 476.459
423 0 59.1602 11.9168 705 139.234 871.383 476.399
424 0 64.0932 12.2322 784 108.852 870.566 475.024
425 0 66.1348 11.9151 788 110.511 870.406 473.353
426 0 68.1766 13.2597 904 107.717 870.726 471.493
427 0 68.2153 12.0941 825 111.051 870.461 471.707
428 0 70.0848 11.1294 780 113.463 870.179 470.296
429 0 73.1754 12.2855 899 112.845 870.419 467.343
430 0 77.1136 12.125 935 111.095 870.459 467.428
431 0 80.1277 12.817 1027 110.876 870.876 466.172
432 0 83.1277 12.6432 1051 111.232 871.012 465.037
433 0 85.111 13.265 1129 111.178 870.332 463.679
434 0 88.2184 11.7096 1033 116.363 869.942 463.525
435 1 46.0665 9.94215 458 119.177 871.749 483.751
436 0 47.0922 11.5306 543 122.58 872.217 482.46
437 0 50.0293 12.3128 616 119.662 871.851 481.101
438 0 50.0279 11.1938 560 124.671 872.082 478.645
439 0 53.0377 11.275 598 122.14 872.426 479.107
440 0 55.0424 12.1724 670 120.701 871.794 477.439
441 0 55.2135 11.3016 624 125.311 870.434 479.114
442 0 59.1048 12.6386 747 122.328 870.234 477.256
443 0 60.1418 13.3518 803 120 869.819 476.478
444 0 62.1555 12.694 789 121.455 870.095 476.196
445 0 64.1539 13.8417 888 118.586 869.948 474.313
446 0 66.188 13.0688 865 120.843 870.568 473.55
447 0 67.1833 12.2798 825 122.842 869.85 472.882
448 0 67.2076 12.7515 857 122.753 870.928 472.858
449 0 72.2577 13.5072 976 118.902 870.045 470.568
450 0 73.1589 13.7646 1007 119.79 870.007 469.444
451 0 75.3022 12.483 940 122.687 870.41 469.756
452 0 75.1532 11.736 882 124.531 870.848 468.147
453 0 80.1234 12.4558 998 117.528 870.203 465.79
454 0 83.1487 12.3754 1029 117.519 870.731 465.966
455 0 85.2291 13.5752 1157 115.689 870.653 463.143
456 1 41.064 12.1031 497 115.575 871.193 483.843
457 0 44.0587 10.5768 466 117.753 871.071 485.268
458 0 45.1022 12.0837 545 116.655 870.387 482.38
459 0 46.0386 12.0768 556 119.362 870.122 481.198
460 0 48.147 13.0849 630 116.462 871.705 481.962
461 0 49.0949 13.5656 666 115.55 871.267 480.991
462 0 50.0504 13.5663 679 115.873 871.608 480.317
463 0 50.083 13.3977 671 117.323 871.693 479.122
464 0 52.1235 12.6814 661 118.593 871.675 479.263
465 0 54.0574 13.3747 723 115.758 872.169 479.043
466 0 56.147 13.5181 759 116.016 872.669 478.032
467 0 57.0796 12.9644 740 116.382 871.97 477.457
468 0 59.036 12.5008 738 116.474 871.421 477.194
469 0 59.1782 11.3217 670 122.693 871.6 474.955
470 0 65.144 13.3243 868 114.726 871.467 475.085
471 0 64.1794 10.8134 694 120.288 871.095 474.367
472 0 67.1525 11.4962 772 113.251 870.984 470.942
473 0 68.1492 12.0031 818 112.998 871.633 471.279
474 0 71.126 11.4445 814 114.934 871.678 469.254
475 0 75.079 12.014 902 113.888 870.747 469.929
476 0 76.0735 11.7387 893 115.516 870.861 466.585
477 0 80.2397 11.7149 940 116.567 870.678 464.971
478 0 81.2418 12.112 984 115.303 870.747 464.921
479 0 84.2667 11.9858 1010 115.753 870.307 463.897
480 1 40.0404 10.5393 422 111.235 869.81 485.429
481 0 44.1106 11.6752 515 108.289 869.95 484.565
482 0 46.0542 11.291 520 110.994 869.594 483.44
483 0 48.0988 12.9941 625 110.378 869.581 482.2
484 0 45.1767 11.4661 518 117.292 870.243 480.633
485 0 47.0547 11.4548 539 111.963 871.213 482.974
486 0 47.1137 11.2918 532 111.077 870.818 483.571
487 0 48.0976 11.6846 562 111.657 871.742 480.788
488 0 50.1315 11.0509 554 111.477 871.69 481.744
489 0 52.0618 10.9101 568 112.181 871.465 480.495
490 0 56.1311 12.1858 684 108.38 871.548 479.797
491 0 56.0351 11.35 636 110.7 871.52 478.876
492 0 58.1917 11.7199 682 110.865 871.469 478.424
493 0 59.1175 12.8558 760 110.641 870.575 476.243
494 0 64.1551 14.8858 955 105.43 870.508 471.68
495 0 63.1793 13.1372 830 113.294 870.199 469.948
496 0 63.2009 12.3732 782 116.711 870.199 470.35
497 0 67.0552 13.4665 903 114.214 870.67 471.961
498 0 71.0629 13.4247 954 112.886 871.225 472.974
499 0 72.0611 12.9612 934 116.455 871.276 469.667
500 0 73.1303 11.7598 860 123.828 871.137 469.429
501 0 76.0777 12.8947 981 124.779 871.165 468.359
502 0 78.1598 12.8199 1002 128.02 870.853 466.143
503 0 82.0664 13.2819 1090 126.606 871.278 464.8
504 0 84.0723 13.1553 1106 128.488 871.092 463.714
505 0 87.1732 13.5018 1177 128.757 870.89 461.434
506 0 91.1983 14.1889 1294 129.937 870.668 459.376
507 0 92.1242 13.3407 1229 130.141 870.98 460.08
508 0 98.0995 14.5668 1429 125.898 870.926 459.46
509 0 101.251 14.8542 1504 126.326 871.62 456.275
510 0 103.283 14.5135 1499 127.946 871.551 453.741
511 1 56.2428 12.0193 676 130.556 870.91 475.133
512 0 58.1982 12.9557 754 132.029 870.959 471.801
513 0 58.0936 12.652 735 129.265 872.166 478.286
514 0 62.065 12.9864 806 124.326 870.744 476.865
515 0 64.0927 12.9032 827 124.861 870.548 475.068
516 0 64.046 12.7096 814 126.888 870.305 473.501
517 0 69.0663 13.2337 914 122.844 870.992 473.177
518 0 69.1141 12.1538 840 126.533 870.546 472.499
519 0 72.072 12.8066 923 125.338 870.502 468.1
520 0 76.0591 14.1206 1074 119.29 870.581 470.626
521 0 78.0914 12.7159 993 124.319 870.81 466.163
522 0 79.0387 12.0447 952 126.292 870.202 465.959
523 0 82.0781 12.6465 1038 129.19 870.16 462.85
524 0 86.1455 12.2351 1054 123.935 870.693 462.838
525 1 42.0096 10.8308 455 122.844 870.218 482.765
526 0 44.0622 10.4625 461 120.51 869.514 485.161
527 0 45.0524 10.9206 492 123.039 869.461 481.366
528 0 47.1328 12.6027 594 115.892 869.668 482.38
529 0 50.1011 13.2931 666 113.173 869.721 481.453
530 0 52.1059 12.0332 627 116.132 870.226 480.435
531 0 53.073 11.8893 631 115.555 869.859 480.036
532 0 56.1736 13.5117 759 110.034 870.092 479.365
533 0 56.1737 12.764 717 112.824 870.188 478.683
534 0 59.1523 13.4737 797 109.885 870.085 478.346
535 0 60.1898 12.7596 768 111.832 870.145 475.951
536 0 62.194 13.683 851 109.278 870.076 474.632
537 0 63.1185 11.0427 697 122.044 870.369 475.521
538 0 66.129 12.7932 846 117.206 871.1 472.604
539 0 67.1051 12.8306 861 118.125 870.474 469.546
540 0 70.2781 13.4324 944 116.662 870.041 468.343
541 0 71.2214 11.4572 816 121.048 869.949 468.261
542 0 76.2342 12.8027 976 116.944 869.758 467.086
543 0 76.1116 12.5868 958 111.927 870.064 467.419
544 0 79.1686 12.1892 965 115.044 870.128 464.197
545 1 41.1041 10.4369 429 111.319 870.648 485.084
546 0 43.0706 11.0749 477 109.883 871 484.136
547 0 45.0704 10.7166 483 112.002 870.186 483.331
548 0 46.0599 12.5489 578 113.725 869.4 482.116
549 0 48.049 12.3207 592 114.954 869.155 480.833
550 0 49.0804 12.3471 606 114.606 870.279 481.573
551 0 51.0312 10.9933 561 118.016 870.146 481.066
552 0 52.0259 12.2247 636 115.712 870.311 478.901
553 0 54.0807 11.8527 641 116.583 870.385 478.827
554 0 52.0511 13.1409 684 117.016 870.206 476.019
555 0 56.1854 13.0461 733 115.879 870.158 477.052
556 0 58.0219 12.3574 717 119.929 870.434 476.442
557 0 59.0762 11.3413 670 122.543 870.354 474.763
558 0 62.0512 12.5058 776 118.736 870.647 474.28
559 0 66.0941 14.2978 945 115.535 871.007 472.767
560 0 68.1864 13.5658 925 118.214 870.84 472.77
561 0 67.0889 12.7294 854 122.067 870.514 472.705
562 0 69.1405 13.0893 905 122.997 870.52 470.655
563 0 72.183 14.5048 1047 119.648 870.627 468.321
564 0 75.1097 14.1393 1062 120.315 870.527 469.774
565 0 79.1442 14.3156 1133 119.963 871.035 468.409
566 0 80.1677 14.4572 1159 121.368 870.664 467.61
567 0 83.2053 14.2058 1182 121.683 870.432 465.271
568 0 84.1286 14.3471 1207 122.463 871.216 463.162
569 0 88.099 13.6551 1203 123.315 870.74 463.118
570 0 90.1229 14.1362 1274 123.629 870.772 461.111
571 0 93.1161 14.0255 1306 124.053 870.948 458.802
572 0 95.1475 13.6104 1295 118.927 871.71 456.922
573 0 97.155 13.6174 1323 121.147 871.265 454.226
574 0 102.16 14.0465 1435 119.497 870.799 453.63
575 0 106.163 13.6018 1444 120.956 871.907 454.566
576 1 53.0216 10.9389 580 117.05 871.967 481.776
577 0 55.0446 12.2991 677 116.062 871.699 478.876
578 0 58.0766 11.7603 683 115.678 872.594 478.937
579 0 60.0897 12.3981 745 116.072 872.16 477.149
580 0 60.137 12.8041 770 117.329 871.017 475.24
581 0 62.1006 11.9806 744 118.806 871.93 473.367
582 0 66.1049 12.7222 841 116.828 871.516 473.143
583 0 67.099 14.1433 949 114.914 871.44 472.621
584 0 69.1276 12.9181 893 117.815 872.431 472.143
585 0 72.1037 13.4667 971 117.41 871.747 471.287
586 0 75.1268 14.0695 1057 116.409 871.067 470.002
587 0 76.1311 13.1352 1000 119.851 871.831 469.745
588 0 80.1493 14.0613 1127 117.812 871.549 466.97
589 0 81.1695 13.6505 1108 120.323 871.384 464.769
590 0 82.1356 12.735 1046 124.249 871.534 463.699
591 0 87.1659 14.3864 1254 119.693 871.466 463.585
592 0 88.1209 12.846 1132 124.496 871.858 462.38
593 0 90.0926 13.8857 1251 122.439 871.795 460.567
594 0 94.1406 13.5861 1279 123.709 871.712 457.257
595 0 96.2332 12.8334 1235 127.475 871.581 457.501
596 0 99.1613 13.4831 1337 126.525 872.437 455.913
597 0 104.133 13.2138 1376 127.491 871.854 455.56
598 1 53.1423 11.9867 637 122.099 872.504 478.185
599 0 55.0587 11.6603 642 123.38 871.855 477.902
600 0 57.0745 12.3698 706 123.567 871.492 475.776
601 0 57.1634 11.5983 663 126.29 872.529 477.005
602 0 59.134 12.2772 726 125.194 871.663 474.689
603 0 63.1268 13.0372 823 121.391 871.695 473.431
604 0 65.0736 11.9557 778 123.74 872.057 473.779
605 0 69.077 13.2895 918 119.155 872.008 472.813
606 0 72.0728 12.7094 916 121.464 872.301 471.519
607 0 72.1658 12.4436 898 122.586 871.719 470.954
608 0 75.0903 12.9444 972 121.407 870.59 469.177
609 0 77.1184 12.5521 968 122.364 870.347 465.175
610 0 79.052 12.2198 966 123.086 871.792 465.286
611 0 83.1553 13.0118 1082 120.723 870.866 464.982
612 0 86.1173 13.5861 1170 118.051 871.06 462.382
613 0 90.1768 12.0763 1089 120.976 871.126 462.67
614 0 92.0992 12.8666 1185 119.759 871.051 459.222
615 0 93.1328 12.1869 1135 120.9 870.918 458.408
616 0 97.1016 10.7928 1048 122.665 870.821 460.148
617 0 101.156 12.4758 1262 120.007 870.947 455.825
618 1 53.0827 10.5119 558 119.455 870.896 477.638
619 0 54.0912 11.7025 633 116.845 872.074 478.804
620 0 58.0566 12.0055 697 113.75 871.894 477.57
621 0 59.0702 11.207 662 112.983 871.961 477.03
622 0 58.0353 11.2001 650 114.308 871.509 474.945
623 0 62.091 12.4495 773 110.387 871.483 474.168
624 0 63.1109 12.0264 759 111.273 871.138 474.676
625 0 66.0662 12.7902 845 107.303 871.641 473.406
626 0 70.0938 12.6545 887 107.578 870.793 470.166
627 0 70.0629 12.2033 855 108.945 871.151 468.577
628 0 71.1097 10.9268 777 112.669 870.664 467.708
629 0 74.0465 11.0606 819 112.832 870.383 465.883
630 0 77.1091 11.7107 903 111.803 870.367 465.456
631 0 79.1206 11.6405 921 113.416 870.562 465.531
632 0 80.0601 9.78015 783 119.147 870.868 464.31
633 0 85.1041 11.2921 961 115.747 871.213 463.685
634 0 87.1414 10.7182 934 119.427 870.584 461.741
635 1 45.1103 10.6184 479 118.395 870.119 482.198
636 0 48.0456 11.6556 560 116.02 870.618 481.409
637 0 48.0333 10.4719 503 118.96 872.062 481.197
638 0 49.0875 11.1026 545 118.114 871.343 479.56
639 0 52.0479 10.5672 550 118.535 871.816 481.109
640 0 53.0996 10.904 579 118.927 872.226 481.259
641 0 54.1027 10.6649 577 120.945 871.468 477.53
642 0 57.084 10.9663 626 119.315 871.371 479.684
643 0 59.1173 11.6041 686 118.907 870.574 475.181
644 0 60.1422 11.3398 682 120.251 871.001 473.667
645 0 65.1474 11.8807 774 116.972 871.009 474.894
646 0 65.1005 10.6144 691 121.647 870.391 473.217
647 0 68.188 10.3684 707 121.443 870.311 473.679
648 0 71.2269 12.3549 880 117.34 870.232 470.238
649 0 73.3221 11.4017 836 120.624 870.06 468.019
650 0 77.2772 11.9828 926 118.121 869.631 467.726
651 1 39.016 9.79086 382 120.361 870.908 486.848
652 0 40.1081 10.9953 441 118.515 870.17 484.993
653 0 43.1852 11.8791 513 114.784 869.558 482.392
654 0 45.0829 12.0223 542 113.939 872.125 484.465
655 0 45.0218 12.4606 561 114.811 871.501 482.535
656 0 47.0357 11.1405 524 118.235 871.42 484.313
657 0 48.0331 11.4296 549 118.463 871.055 482.94
658 0 51.0139 12.4084 633 115.324 871.156 482.381
659 0 51.0932 12.2717 627 117.238 869.236 480.321
660 0 52.0652 11.5816 603 118.927 868.783 479.194
661 0 57.0416 12.3068 702 116.009 868.915 478.756
662 0 59.0847 12.1182 716 116.588 868.589 478.486
663 0 59.0992 13.0628 772 116.18 869 476.631
664 0 61.0544 13.1686 804 114.636 868.915 477.311
665 0 63.1128 12.343 779 116.701 868.678 474.371
666 0 65.0845 12.8602 837 116.602 869.031 473.485
667 0 66.0506 12.8992 852 117.369 868.816 473.576
668 0 70.0423 13.3776 937 117.146 869.012 471.036
669 0 72.081 13.9288 1004 116.653 869.182 469.97
670 0 74.1307 13.2469 982 118.681 869.211 470.449
671 0 75.1221 12.4198 933 122.759 869.316 468.301
672 0 80.0931 13.2221 1059 119.657 869.312 467.052
673 0 83.128 13.5574 1127 118.506 871.192 469.136
674 0 84.0706 13.6076 1144 122.055 871.244 466.645
675 0 88.0625 14.0014 1233 119.814 872.058 466.092
676 0 91.1264 14.211 1295 120.282 871.476 462.707
677 1 49.0604 10.7826 529 125.011 871.31 483.794
678 0 49.1939 11.9934 590 122.529 869.937 482.124
679 0 53.1838 12.297 654 121.994 869.674 479.665
680 0 52.2657 12.1495 635 125.183 869.06 479.411
681 0 54.0131 11.812 638 125.889 871.541 479.917
682 0 56.0682 12.681 711 122.878 869.53 479.089
683 0 58.1541 13.8769 807 120.489 870.119 478.258
684 0 59.1872 13.0603 773 122.453 871.241 477.712
685 0 61.1505 12.919 790 122.519 870.911 476.167
686 0 63.1749 14.0404 887 119.669 870.715 476.689
687 0 64.1274 13.5511 869 122.474 870.988 473.985
688 0 67.1675 12.6103 847 123.456 870.502 474.067
689 0 69.1694 14.1392 978 121.027 870.081 472.497
690 0 71.1929 13.8076 983 122.014 870.377 473.24
691 0 74.1959 13.5452 1005 122.597 870.26 471.02
692 0 75.1449 14.3855 1081 120.806 870.313 472.855
693 0 76.1822 13.914 1060 125.086 870.21 469.699
694 0 78.1996 12.775 999 129.687 870.007 468.856
695 0 83.1238 14.2198 1182 124.784 870.34 466.905
696 0 86.1345 14.3729 1238 124.857 869.863 466.426
697 0 88.2375 13.747 1213 128.27 870.45 463.397
698 0 92.1773 14.1792 1307 126.326 870.35 461.807
699 0 94.2179 14.3285 1350 126.076 870.164 460.39
700 0 96.2605 12.8609 1238 126.293 869.733 456.905
701 1 50.0645 10.7262 537 117.801 870.196 479.002
702 0 51.0835 11.7063 598 115.773 870.311 477.644
703 0 53.0586 11.3083 600 112.455 870.832 477.812
704 0 55.0947 11.8523 653 111 870.858 475.386
705 0 56.1258 13.345 749 108.549 870.741 473.997
706 0 58.0586 12.4357 722 115.819 870.129 476.741
707 0 61.0439 11.9586 730 116.627 870.221 476.199
708 0 63.0859 13.014 821 113.96 869.993 475.576
709 0 62.0588 12.9393 803 115.34 870.149 474.046
710 0 66.1279 12.4002 820 116.189 870.837 470.85
711 0 69.0578 12.8009 884 113.719 870.188 471.973
712 0 72.085 13.1095 945 114.097 870.637 469.819
713 0 74.1302 13.6247 1010 112.856 870.738 469.378
714 0 74.1043 12.4284 921 116.894 869.887 468.113
715 0 78.0753 12.7185 993 114.659 868.991 467.976
716 0 80.0443 11.4811 919 119.104 869.187 466.837
717 0 83.0362 12.4644 1035 115.704 870.421 463.116
718 0 89.0247 11.6372 1036 115.761 870.402 464.018
719 1 48.0284 11.4099 548 113.13 869.62 481.367
720 0 47.1116 11.4622 540 114.95 869.831 481.865
721 0 50.024 11.5345 577 113.945 869.629 481.551
722 0 51.0624 13.0429 666 108.613 869.892 479.746
723 0 51.134 11.5579 591 113.056 870.2 480.396
724 0 51.0313 10.8365 553 116.034 870.241 479.255
725 0 54.0496 10.9159 590 114.336 869.505 478.927
726 0 56.0635 11.0767 621 113.836 869.486 477.982
727 0 59.0601 11.5814 684 111.987 869.863 477.936
728 0 61.1261 12.9895 794 108.466 870.065 474.708
729 0 61.0383 11.3863 695 112.338 869.275 476.276
730 0 63.0751 11.0186 695 113.614 869.878 473.381
731 0 68.0594 12.8711 876 108.072 869.648 472.773
732 0 69.1299 11.2252 776 111.773 869.488 473.99
733 0 73.0905 12.5461 917 108.847 870.051 470.692
734 0 72.1001 11.0957 800 112.76 869.885 469.259
735 0 79.0419 12.3858 979 108.953 869.835 468.865
736 1 38.0371 11.8306 450 110.624 868.94 485.949
737 0 40.2538 12.0485 485 108.134 871.769 485.53
738 0 37.0163 11.1843 414 111.275 871.411 487.761
739 0 40.024 11.3682 455 110.633 871.297 485.475
740 0 41.0437 11.0126 452 112.093 870.777 483.883
741 0 43.1303 12.7289 549 108.638 870.282 482.444
742 0 43.0116 11.834 509 111.265 870.827 482.912
743 0 45.0806 11.3796 513 111.953 870.865 482.107
744 0 45.0676 10.9391 493 114.294 871.065 481.868
745 0 49.0712 11.8603 582 111.278 871.232 481.51
746 0 52.0386 11.7989 614 110.651 871.262 480.79
747 0 52.129 11.8936 620 111.86 870.905 480.184
748 0 51.0596 11.5551 590 114.853 871.175 480.3
749 0 53.098 11.1869 594 116.63 871.101 479.024
750 0 55.074 12.2018 672 113.15 870.692 478.356
751 0 56.0819 11.7507 659 115.525 871.191 476.797
752 0 61.1025 13.3873 818 110.367 871.161 477.01
753 0 60.1173 12.093 727 114.565 871.221 476.868
754 0 61.1333 12.5791 769 116.276 871.062 474.446
755 0 65.1116 12.2098 795 115.873 870.618 474.414
756 0 68.2429 13.1003 894 115.687 870.796 470.68
757 0 70.3505 13.0774 920 115.945 871.478 468.383
758 0 72.2837 12.9905 939 117.183 870.57 467.584
759 0 74.1716 12.1745 903 119.666 870.524 467.375
760 0 77.1827 13.7466 1061 115.946 870.521 464.577
761 0 82.0848 12.414 1019 113.461 870.425 461.839
762 0 85.0784 13.2584 1128 115.857 869.947 461.979
763 1 42.0544 10.9144 459 119.51 869.649 479.366
764 0 45.0382 11.7012 527 113.038 870.423 478.433
765 0 46.1095 11.8848 548 115.876 870.484 476.739
766 0 48.0658 12.2124 587 113.003 870.6 479.043
767 0 47.1441 11.5815 546 117.086 870.469 477.399
768 0 50.1198 10.874 545 118.424 870.855 477.066
769 0 53.0729 11.569 614 116.704 870.389 475.026
770 0 53.0925 11.2634 598 118.776 870.806 473.488
771 0 56.1414 11.471 644 118.469 870.545 474.061
772 0 57.0884 12.1916 696 118.987 870.644 472.011
773 0 61.0623 12.5609 767 117.416 870.428 472.561
774 0 64.1116 13.5857 871 114.51 870.995 472.878
775 0 65.117 12.0245 783 120.338 870.723 470.055
776 0 68.0978 12.8492 875 116.735 871.121 469.763
777 0 70.1126 12.1234 850 119.4 871.713 468.891
778 0 74.1133 14.0461 1041 114.573 871.359 468.423
779 0 76.0746 14.0389 1068 119.284 870.969 470.085
780 0 78.1061 14.109 1102 119.957 869.898 467.269
781 0 82.1195 14.6372 1202 119.006 869.95 467.364
782 0 82.0888 13.6194 1118 123.953 869.573 466.74
783 0 86.113 14.2139 1224 123.085 870.478 463.652
784 0 88.0965 13.5987 1198 125.22 870.251 463.969
785 0 92.0767 13.9232 1282 125.874 869.215 463.741
786 0 96.0862 14.1644 1361 126.262 869.761 459.837
787 0 98.1982 13.3607 1312 128.779 869.901 458.75
788 0 100.218 13.5206 1355 128.671 869.642 456.986
789 0 106.228 14.5348 1544 126.69 869.136 455.423
790 0 108.139 12.8908 1394 130.683 870.383 454.737
791 1 58.0387 12.2505 711 129.069 869.689 477.378
792 0 58.0517 10.9041 633 123.712 871.276 471.964
793 0 61.0433 11.7949 720 121.433 870.969 472.167
794 0 62.063 11.875 737 123.056 871.228 471.18
795 0 63.0529 11.7045 738 124.916 871.683 469.905
796 0 68.0919 13.6139 927 126.241 871.123 472.903
797 0 73.1222 14.1134 1032 125.044 870.91 470.605
798 0 74.1046 12.9277 958 129.846 871.392 469.52
799 0 76.0826 13.5116 1028 128.949 871.375 469.651
800 0 77.0634 13.7549 1060 129.188 870.925 468.716
801 0 81.1243 13.202 1071 130.642 870.431 468.305
802 0 85.0672 13.3071 1132 131.951 870.94 464.246
803 0 86.0964 13.5662 1168 131.711 870.838 462.682
804 0 90.1398 14.1558 1276 129.783 870.618 462.296
805 0 93.1784 13.3937 1248 131.187 871.045 460.925
806 0 97.2331 13.154 1279 133.55 870.967 457.303
807 0 99.0757 12.8891 1277 129.742 870.08 458.305
808 1 51.0279 10.9548 559 126.558 871.029 482.218
809 0 53.0414 12.2546 650 122.283 871.025 480.438
810 0 53.0401 11.0294 585 133.53 872.044 481.853
811 0 54.0994 11.3495 614 126.075 870.668 478.516
812 0 57.0903 10.6323 607 126.082 870.774 479.664
813 0 59.1196 10.7748 637 125.705 870.699 478.505
814 0 60.1524 10.3736 624 127.92 870.537 476.962
815 0 62.069 10.2467 636 128.607 870.781 475.178
816 0 63.1048 11.0293 696 127.016 870.514 475.203
817 0 67.1047 11.1915 751 124.742 870.626 474.407
818 0 69.0521 11.4986 794 124.408 871.349 473.393
819 0 73.1693 11.4666 839 124.895 871.331 471.7
820 0 74.0648 12.3405 914 125.232 870.886 469.859
821 0 76.1632 11.3441 864 127.543 870.35 467.975
822 0 78.1494 11.0941 867 128.092 870.283 468.824
823 0 82.1423 10.7983 887 128.325 870.207 466.866
824 0 83.1167 10.2867 855 130.577 869.871 464.375
825 0 88.1612 12.5679 1108 123.49 869.873 461.027
826 0 90.1604 11.291 1018 127.423 869.836 461.492
827 0 94.1339 12.2485 1153 124.765 869.692 461.243
828 1 48.024 10.8487 521 124.781 870.914 484.825
829 0 49.047 11.8254 580 123.826 871.064 481.667
830 0 51.014 13.1337 670 116.991 871.348 482.1
831 0 51.0539 13.1038 669 117.774 868.915 482.432
832 0 51.0539 13.1626 672 129.162 867.99 482.503
833 0 55.1829 12.667 699 115.488 868.741 481.129
834 0 56.1292 12.5247 703 116.535 868.788 479.664
835 0 57.0347 12.2031 696 118.667 869.009 479.797
836 0 59.0745 11.6971 691 117.36 868.557 477.386
837 0 61.0757 11.936 729 113.296 869.173 477.295
838 0 61.0609 11.2019 684 117.183 870.455 475.465
839 0 62.061 10.393 645 119.594 869.674 476.226
840 0 65.0996 11.9663 779 115.255 869.842 474.573
841 0 67.0996 11.5649 776 114.731 869.786 475.987
842 0 69.0794 11.3493 784 113.675 869.235 471.291
843 0 72.0956 9.80643 707 116.153 869.264 471.653
844 0 75.0699 11.9089 894 110.871 869.086 468.596
845 0 76.0954 11.0125 838 113.481 869.27 467.624
846 0 82.0894 10.9393 898 112.281 869.501 466.862
847 0 81.1403 10.2662 833 114.101 868.945 463.72
848 1 41.0143 8.26541 339 118.33 868.295 484.69
849 0 45.0688 10.6282 479 113.269 868.518 482.382
850 0 48.078 11.8557 570 107.753 869.153 483.107
851 0 48.1095 10.871 523 109.189 869.897 481.033
852 0 48.0252 10.4112 500 110.38 871.056 481.708
853 0 50.0411 9.9718 499 111.242 870.92 481.383
854 0 52.1002 12.4759 650 105.14 871.522 480.323
855 0 54.0539 10.36 560 109.584 871.487 479.861
856 0 55.1686 11.4739 633 107.94 871.523 478.853
857 0 56.0853 11.643 653 107.988 870.96 476.355
858 0 59.0522 11.8539 700 106.58 871.744 477.906
859 0 59.0784 11.07 654 109.216 871.28 476.697
860 0 63.0647 10.6557 672 109.583 871.007 475.016
861 0 64.0745 11.1589 715 108.976 871.122 473.394
862 0 66.0781 11.5167 761 108.947 871.69 472.255
863 0 67.0741 10.5853 710 110.244 871.063 472.631
864 0 69.0824 10.2631 709 110.759 870.848 473.179
865 0 72.0789 11.7649 848 107.268 871.408 472.294
866 0 76.1348 11.9525 910 107.092 870.925 470.051
867 0 78.0667 10.9394 854 109.26 871.258 469.861
868 1 44.0595 11.666 514 104.368 871.93 485.722
869 0 43.0183 10.7629 463 105.421 871.259 486.773
870 0 45.0679 12.4479 561 102.278 869.8 482.848
871 0 45.0433 11.2114 505 104.265 871.61 484.687
872 0 48.1149 11.9298 574 102.503 871.596 483.526
873 0 49.0837 12.2648 602 102.083 871.738 480.801
874 0 49.1488 11.923 586 103.942 871.116 480.416
875 0 52.1154 12.6642 660 101.674 871.933 479.035
876 0 54.1313 11.3243 613 104.165 872.075 479.281
877 0 55.0693 11.2767 621 104.266 871.623 477.361
878 0 57.1025 11.7158 669 102.931 871.465 478.103
879 0 59.1138 11.8585 701 102.111 871.437 476.806
880 0 60.0946 11.3321 681 103.172 871.184 476.106
881 0 62.1553 11.4874 714 102.591 870.648 473.542
882 0 66.1061 11.8143 781 100.869 870.77 473.228
883 0 68.1231 13.2114 900 97.5611 870.291 472.363
884 0 68.073 11.8696 808 101.666 870.196 470.623
885 0 73.0998 12.2025 892 100.004 869.98 470.179
886 0 74.1568 11.1655 828 103.44 870.464 466.919
887 0 77.0658 12.3531 952 100.312 870.259 465.845
888 0 81.1209 11.9205 967 101.014 869.918 464.308
889 0 85.1275 12.7808 1088 99.5699 870.352 464.073
890 0 87.0693 12.4958 1088 101.094 869.92 460.74
891 0 87.1342 10.5584 920 105.19 870.592 462.295
892 1 47.0802 9.77056 460 109.043 871.715 482.322
893 0 49.1065 12.6052 619 103.958 871.33 481.827
894 0 51.032 11.3262 578 106.979 871.502 480.616
895 0 50.0649 12.6636 634 100.726 871.344 480.778
896 0 53.047 12.1402 644 101.843 871.593 480.573
897 0 54.0655 13.2987 719 100.081 871.117 478.14
898 0 54.0562 11.562 625 105.704 870.675 477.899
899 0 56.0881 13.568 761 101.025 871.171 477.448
900 0 59.041 12.7708 754 101.736 870.765 478.123
901 0 60.0666 14.2508 856 99.2407 870.486 476.916
902 0 61.0284 13.7149 837 100.999 870.444 474.492
903 0 61.0409 11.5988 708 106.442 870.925 475.492
904 0 67.2473 14.5285 977 99.131 870.88 474.172
905 0 69.0897 12.9252 893 102.12 871.366 476.052
906 0 68.0931 13.1878 898 102.4 871.163 475.318
907 0 71.1006 13.4457 956 101.924 870.762 471.537
908 0 72.0824 11.2649 812 106.25 870.895 472.352
909 0 76.059 13.2792 1010 102.43 870.353 467.776
910 0 78.1506 13.8834 1085 101.675 870.434 470.195
911 0 83.0658 13.399 1113 102.144 869.713 466.655
912 0 85.0932 14.0199 1193 101.066 870.432 466.925
913 0 87.0714 13.3798 1165 102.999 870.062 462.397
914 0 91.1386 13.5727 1237 101.829 870.513 463.664
915 0 92.1044 12.7138 1171 104.938 870.412 459.903
916 0 95.1321 11.0793 1054 106.746 870.744 461.908
917 1 49.0604 12.7394 625 102.29 871.659 480.496
918 0 51.0393 11.4422 584 104.098 870.565 479.918
919 0 53.0738 12.0964 642 105.771 870.854 479.935
920 0 56.0332 12.9209 724 104.231 871.157 479.823
921 0 56.0332 12.9209 724 125.793 871.174 479.837
922 0 60.0254 13.8108 829 102.717 871.071 478.081
923 0 61.0564 13.8233 844 104.293 871.336 475.761
924 0 62.0659 12.9862 806 105.392 870.99 476.009
925 0 65.0414 13.5452 881 105.304 871.291 473.28
926 0 68.0184 13.3346 907 105.84 871.088 472.929
927 0 70.0365 13.4359 941 106.778 870.172 470.634
928 0 71.043 12.4995 888 110.303 870.071 469.964
929 0 74.0713 13.7165 1016 106.745 871.164 470.884
930 0 79.0475 13.0681 1033 107.209 870.961 470.454
931 0 79.037 12.665 1001 109.934 870.468 467.107
932 0 82.0454 12.9319 1061 110.103 870.866 464.969
933 0 85.0523 13.5564 1153 108.631 871.029 464.623
934 0 88.0539 12.9239 1138 110.905 871.55 463.13
935 0 91.1173 12.3796 1128 113.024 871.394 460.742
936 0 94.1297 13.4389 1265 110.67 871.814 459.647
937 1 51.0165 13.0154 664 107.608 871.825 481.078
938 0 52.0365 12.3759 644 109.368 870.918 478.835
939 0 52.081 12.4038 646 104.904 870.121 479.811
940 0 54.104 13.2522 717 102.957 870.107 477.3
941 0 57.0969 13.7135 783 101.255 869.278 478.47
942 0 58.0989 12.909 750 103.167 869.616 477.208
943 0 63.1295 14.6049 922 97.4989 869.569 475.158
944 0 64.0979 13.261 850 100.727 869.216 474.568
945 0 64.0608 12.6598 811 103.166 869.789 473.597
946 0 69.1532 13.3472 923 100.125 869.766 470.91
947 0 71.11 13.894 988 98.9079 869.601 471.06
948 0 73.1533 12.1936 892 101.935 869.944 469.655
949 0 75.1127 13.1136 985 100.259 869.898 467.346
950 0 79.0842 14.1621 1120 98.0687 869.808 466.169
951 0 81.0931 12.5288 1016 101.329 869.638 465.921
952 0 85.1711 14.3711 1224 98.9142 869.449 459.672
953 0 87.0998 14.3743 1252 99.3219 869.752 460.419
954 0 89.0887 13.5932 1211 101.505 870.524 456.107
955 0 91.1686 13.9412 1271 100.982 870.961 459.535
956 0 96.1293 12.6184 1213 103.136 870.7 458.073
957 0 98.1322 13.329 1308 101.841 870.904 454.726
958 0 105.213 13.8005 1452 99.6639 871.411 454.281
959 0 105.099 12.4835 1312 102.543 870.671 452.987
960 0 111.299 13.3964 1491 101.505 870.015 443.708
961 0 116.244 13.291 1545 100.926 870.543 444.889
962 1 57.0399 11.2377 641 102.844 871.474 472.406
963 0 60.0848 11.8333 711 103.554 871.197 472.174
964 0 62.1623 13.4165 834 99.982 870.573 470.695
965 0 62.132 12.3608 768 103.915 870.826 470.514
966 0 65.1584 11.7406 765 104.903 870.507 470.722
967 0 71.1747 12.9962 925 100.842 870.492 466.802
968 0 69.1653 13.3304 922 104.211 870.202 461.393
969 0 75.1094 13.3938 1006 102.546 869.946 462.489
970 0 77.1225 14.2112 1096 102.983 869.997 460.878
971 0 80.1386 13.3893 1073 104.173 869.919 459.516
972 0 85.16 14.5726 1241 102.044 870.044 457.894
973 0 86.1989 13.9677 1204 104.561 870.044 454.285
974 0 90.1982 13.6588 1232 104.293 870.254 454.503
975 0 94.2831 14.0322 1323 103.2 870.376 453.181
976 0 97.1079 13.3666 1298 104.796 869.802 450.963
977 1 53.0145 11.412 605 106.312 871.291 473.507
978 0 57.0896 13.365 763 103.613 871.288 469.974
979 0 56.0893 12.284 689 107.824 871.372 471.665
980 0 60.1283 14.3693 864 103.631 869.846 473.082
981 0 61.2178 13.7378 841 104.258 871.728 470.004
982 0 64.1191 14.0208 899 104.685 871.172 468.376
983 0 68.2053 14.3537 979 104.464 870.199 470.349
984 0 67.2923 13.211 889 108.831 870.073 468.326
985 0 71.1648 14.4594 1029 106.127 869.53 466.88
986 0 71.3211 13.32 950 110.785 870.029 462.643
987 0 77.2203 15.0479 1162 106.046 869.856 462.475
988 0 77.2415 13.5549 1047 112.403 870.319 459.516
989 0 79.1365 14.0643 1113 111.217 870.451 459.412
990 0 84.1348 14.7382 1240 109.473 870.195 457.878
991 0 87.2858 14.4239 1259 110.75 870.202 457.685
992 0 87.2258 14.7663 1288 112.48 869.816 454.589
993 0 91.1186 13.7733 1255 115.118 870.676 453.166
994 0 94.2652 15.5094 1462 110.947 869.969 452.003
995 0 96.1826 13.911 1338 116.039 870.099 449.413
996 0 101.088 13.602 1375 114.613 869.739 449.727
997 0 107.143 15.54 1665 108.607 869.965 442.872
998 0 107.119 15.1981 1628 111.014 870.436 441.284
999 0 112.21 14.6778 1647 112.146 870.409 443.857
1000 1 59.0404 11.8902 702 105.899 871.208 475.835
1001 0 61.0896 12.6536 773 107.712 869.965 474.039
1002 0 63.103 13.7236 866 107.88 869.96 471.865
1003 0 64.0686 12.3305 790 112.47 870.608 473.582
1004 0 65.0316 12.1172 788 115.122 870 471.303
1005 0 69.1673 12.8674 890 111.649 869.869 470.533
1006 0 71.1986 12.1772 867 113.512 870.343 469.707
1007 0 73.1373 12.7568 933 113.225 869.834 466.598
1008 0 77.2016 13.1085 1012 112.298 869.708 466.227
1009 0 80.1589 13.2986 1066 111.903 869.858 465.248
1010 0 82.2583 12.9106 1062 113.144 870.231 465.187
1011 0 86.0948 13.7523 1184 112.274 869.674 461.51
1012 0 88.1509 13.0572 1151 114.502 869.643 460.775
1013 0 92.2664 14.7183 1358 111.563 870.03 457.278
1014 0 95.2917 14.6812 1399 112.582 870.014 456.119
1015 0 99.2831 13.4262 1333 116.281 869.863 454.131
1016 0 102.253 13.3395 1364 116.501 870.027 448.541
1017 0 104.182 12.1134 1262 116.349 870.143 445.549
1018 0 109.127 13.0581 1425 114.892 869.999 447.689
1019 1 55.1396 10.954 604 113.003 869.061 470.813
1020 0 58.0766 11.3643 660 111.585 870.268 472.845
1021 0 62.0553 12.0538 748 116.464 869.235 474.798
1022 0 64.1452 12.3938 795 116.107 869.697 472.54
1023 0 67.0987 12.7573 856 115.035 870.692 472.34
1024 0 69.0717 12.6535 874 116.762 870.196 469.51
1025 0 71.1089 12.727 905 116.379 870.166 466.864
1026 0 72.0564 11.7408 846 119.599 870.111 465.831
1027 0 77.0879 12.9203 996 116.391 870.245 465.116
1028 0 82.2113 13.7937 1134 113.42 870.518 463.903
1029 0 85.1534 13.7986 1175 114.73 870.105 463.107
1030 0 87.1318 13.0607 1138 116.093 870.494 463.567
1031 0 90.1456 13.8997 1253 115.296 870.3 460.572
1032 0 93.1156 12.5435 1168 119.432 870.575 459.895
1033 0 96.2351 12.4175 1195 119.494 870.437 457.31
1034 0 100.219 12.1533 1218 120.405 870.797 454.808
1035 1 55.0461 11.4086 628 114.768 871.264 479.188
1036 0 54.0534 11.5441 624 116.954 870.886 478.322
1037 0 58.0628 13.2959 772 112.409 871.905 477.431
1038 0 59.121 12.2291 723 108.394 871.96 479.304
1039 0 58.052 11.7481 682 111.922 872.315 477.22
1040 0 61.054 10.6299 649 109.399 871.541 473.245
1041 0 64.0651 12.1439 778 110.584 872.539 473.844
1042 0 66.0706 12.2899 812 111.268 872.264 472.745
1043 0 71.1797 11.5763 824 105.312 871.57 470.89
1044 0 73.0664 13.6041 994 106.966 872.375 472.295
1045 0 73.0692 11.8928 869 108.105 871.601 467.281
1046 0 76.1953 11.7461 895 108.6 871.387 467.145
1047 0 78.1021 11.3313 885 109.789 871.371 466.801
1048 0 82.1249 12.9194 1061 107.205 871.086 463.348
1049 0 81.1487 10.7211 870 112.725 870.325 461.579
1050 0 85.2652 11.6695 995 110.921 870.639 459.141
1051 0 91.1255 12.6309 1151 109.043 870.815 456.247
1052 0 91.2224 10.9951 1003 114.211 870.46 454.5
1053 0 96.2554 11.4695 1104 113.459 870.399 453.025
1054 0 98.1001 11.3558 1114 114.994 871.385 450.092
1055 0 106.131 13.7284 1457 116.248 871.06 453.312
1056 1 57.0927 11.963 683 114.056 871.572 478.832
1057 0 56.1453 12.5033 702 115.932 871.311 478.342
1058 0 57.0432 11.0968 633 109.853 871.709 477.823
1059 0 61.0697 11.8226 722 108.54 871.367 476.733
1060 0 61.0925 11.8673 725 109.27 870.654 474.79
1061 0 63.2087 13.5266 855 105.733 870.529 473.833
1062 0 66.0759 12.077 798 108.688 870.434 474.54
1063 0 67.1565 12.4783 838 108.514 870.609 471.446
1064 0 69.0902 12.6791 876 109.99 871.435 472.513
1065 0 72.2357 12.7776 923 110.894 870.74 470.222
1066 0 75.1087 11.5433 867 113.073 871.103 469.257
1067 0 77.0672 12.3269 950 112.338 871.279 467.814
1068 0 80.1456 12.9389 1037 111.763 871.014 465.14
1069 0 83.0954 13.1175 1090 112.291 870.77 464.168
1070 0 85.0636 12.3907 1054 113.861 871.02 464.295
1071 0 89.2161 12.834 1145 113.265 871.286 462.507
1072 0 93.1517 12.8178 1194 110.549 870.982 457.712
1073 1 46.0287 11.0366 508 114.86 872.053 483.555
1074 0 46.0549 10.6395 490 115.078 871.827 482.433
1075 0 49.045 11.3569 557 109.819 870.858 478.192
1076 0 51.1213 12.8322 656 110.337 871.575 480.317
1077 0 52.0682 12.1379 632 112.008 871.853 481.142
1078 0 55.0726 12.5652 692 110.916 871.637 480.103
1079 0 56.037 13.1877 739 110.644 871.461 477.886
1080 0 57.091 13.4872 770 109.195 871.403 476.848
1081 0 58.0694 11.8135 686 114.555 871.308 477.125
1082 0 60.0732 12.6512 760 112.122 871.571 476.45
1083 0 63.0591 12.8768 812 111.576 871.34 474.567
1084 0 64.0658 12.9086 827 111.606 871.148 473.242
1085 0 66.1702 13.2688 878 110.582 871.285 471.346
1086 0 67.1615 12.3583 830 112.733 870.825 473.337
1087 0 70.0759 11.6445 816 114.396 870.388 471.995
1088 0 72.0899 13.1641 949 110.988 870.456 469.281
1089 0 74.0915 13.5103 1001 110.904 870.472 469.304
1090 0 77.277 14.2733 1103 109.597 871.051 465.897
1091 0 81.3029 13.6895 1113 109.944 870.815 466.793
1092 0 83.1198 12.6324 1050 111.562 870.465 460.88
1093 0 84.1919 12.2221 1029 112.166 870.275 461.784
1094 0 90.3083 13.011 1175 111.779 870.446 459.615
1095 0 89.3391 11.6746 1043 119.103 869.375 452.278
1096 1 51.185 11.898 609 111.576 869.915 475.933
1097 0 54.1193 12.1768 659 109.745 870.024 478.765
1098 0 55.1109 12.8105 706 108.598 870.296 478.367
1099 0 56.163 12.3035 691 110.569 870.372 476.849
1100 0 59.1142 12.8734 761 106.76 870.565 476.608
1101 0 60.1258 10.977 660 112.036 870.909 475.974
1102 0 65.1039 13.1021 853 106.145 870.46 474.608
1103 0 63.0855 11.746 741 110.42 870.356 471.556
1104 0 67.1486 11.8543 796 110.065 870.618 470.392
1105 0 67.117 11.9344 801 109.931 870.703 470.076
1106 0 70.1045 11.4971 806 113.593 870.058 470.699
1107 0 73.1465 12.0306 880 108.186 870.657 470.267
1108 0 78.0713 12.2324 955 107.055 870.654 468.741
1109 0 77.0578 12.562 968 108.179 870.845 466.949
1110 0 80.0849 12.5866 1008 108.812 870.052 466.943
1111 0 82.2026 13.1991 1085 108 870.576 462.028
1112 0 84.1999 12.3753 1042 109.217 870.285 464.957
1113 0 89.214 12.6774 1131 108.18 870.032 462.422
1114 0 92.1255 12.0705 1112 109.622 870.205 460.337
1115 0 95.0991 13.1126 1247 108.733 869.954 455.684
1116 1 51.1144 11.3471 580 108.847 869.891 480.066
1117 0 53.0902 12.9214 686 105.442 870.531 478.797
1118 0 53.0291 9.78708 519 104.578 870.613 477.081
1119 0 53.0739 11.1354 591 104.904 870.804 474.65
1120 0 55.1136 11.7938 650 103.949 870.386 474.825
1121 0 59.0351 13.5004 797 99.803 870.757 474.576
1122 0 60.0588 11.5553 694 104.468 870.912 472.762
1123 0 63.0857 12.9823 819 101.531 870.453 473.249
1124 0 62.0314 11.607 720 106.701 870.578 471.751
1125 0 64.0757 11.424 732 108.653 871.18 468.355
1126 0 67.0322 12.7849 857 106.27 871.021 469.461
1127 0 67.0635 11.765 789 110.535 870.416 467.447
1128 0 72.0634 11.8923 857 109.838 870.538 468.279
1129 0 74.0655 12.6105 934 109.952 870.21 465.53
1130 0 76.1207 11.4029 868 112.596 870.079 466.289
1131 0 80.1446 13.7377 1101 108.5 869.739 466.789
1132 0 82.1871 13.664 1123 108.14 869.513 464.427
1133 0 85.0969 12.7032 1081 108.97 869.436 464.302
1134 0 88.1279 11.8918 1048 111.177 869.598 460.854
1135 1 44.0235 11.244 495 107.113 869.883 482.152
1136 0 47.0751 12.257 577 104.229 869.683 482.92
1137 0 45.0484 11.8983 536 106.92 870.317 482.675
1138 0 49.1022 12.9933 638 104.146 871.922 481.21
1139 0 51.038 12.6376 645 105.105 871.462 481.543
1140 0 53.069 13.36 709 103.343 870.728 479.573
1141 0 54.0338 11.937 645 106.716 871.074 480.513
1142 0 56.0917 12.2656 688 105.945 871.206 479.443
1143 0 59.07 11.5456 682 107.195 870.6 479.828
1144 0 60.0265 12.5111 751 106.269 870.268 475.842
1145 0 61.04 13.8925 848 103.795 871.254 476.3
1146 0 61.0578 12.5455 766 107.415 870.867 474.385
1147 0 65.0761 13.2614 863 105.93 869.452 473.727
1148 0 66.0254 12.3437 815 108.917 870.059 473.184
1149 0 68.0567 12.6512 861 109.084 869.173 471.775
1150 0 71.1053 12.9667 922 107.423 869.271 473.188
1151 0 73.0781 12.4935 913 108.866 869.69 467.934
1152 0 78.0824 14.267 1114 104.077 869.397 466.704
1153 0 82.0931 14.6906 1206 102.115 869.717 467.372
1154 0 84.0795 13.844 1164 104.492 869.626 465.857
1155 0 87.0782 13.9759 1217 105.254 868.957 463.486
1156 0 89.0478 13.4198 1195 106.351 869.007 462.551
1157 1 45.0174 13.0172 586 107.614 870.082 484.551
1158 0 45.0305 12.325 555 110.049 869.762 484.105
1159 0 47.0282 12.5457 590 109.858 870.454 482.844
1160 0 50.0465 12.928 647 108.75 870.454 481.02
1161 0 52.0146 13.65 710 108.528 870.531 479.925
1162 0 52.0244 13.1284 683 111.236 870.681 480.835
1163 0 55.0423 13.6259 750 109.665 871.287 478.887
1164 0 56.0515 13.6125 763 110.803 870.743 478.054
1165 0 57.0926 11.3325 647 116.862 871.366 477.645
1166 0 61.0248 13.683 835 110.327 871.17 475.768
1167 0 63.0765 13.3172 840 111.99 870.235 474.514
1168 0 66.0244 14.6007 964 108.906 870.623 473.54
1169 0 67.1464 13.5972 913 113.111 870.34 473.602
1170 0 68.1049 13.1709 897 116.39 870.22 471.657
1171 0 70.0238 14.1238 989 114.904 869.85 470.004
1172 0 74.0579 14.2591 1056 114.909 870.59 469.347
1173 0 75.0861 13.5311 1016 118.548 870.412 468.746
1174 0 78.086 14.7274 1150 116.321 870.432 466.589
1175 0 79.1225 14.4965 1147 117.546 870.609 466.911
1176 0 80.0563 13.1532 1053 121.836 870.817 465.597
1177 0 84.2166 14.9258 1257 119.113 870.758 465.302
1178 1 44.0453 12.0331 530 125.336 870.992 482.721
1179 0 47.1247 12.4563 587 124.467 870.061 483.295
1180 0 48.129 12.882 620 118.574 870.082 482.548
1181 0 48.122 12.4475 599 121.404 870.608 480.092
1182 0 50.2214 12.5046 628 120.635 870.497 479.963
1183 0 53.0556 12.3832 657 121.709 870.108 478.785
1184 0 54.0513 13.2097 714 118.964 869.895 479.711
1185 0 56.0297 13.4036 751 121.364 870.453 479.338
1186 0 57.1168 12.9384 739 121.658 870.539 479.912
1187 0 57.1743 11.6311 665 127.623 870.459 478.421
1188 0 60.0604 12.221 734 125.398 869.624 477.324
1189 0 64.0962 12.9337 829 123.768 869.815 475.643
1190 0 65.1168 14.0978 918 122.593 870.339 473.448
1191 0 65.1012 13.0105 847 127.085 870.243 473.237
1192 0 69.1728 13.5603 938 125.187 870.419 471.979
1193 0 72.0811 12.8883 929 128.168 869.936 471.856
1194 0 74.0645 12.5296 928 130.891 870.12 471.52
1195 0 77.0926 13.4254 1035 129.13 870.58 469.061
1196 1 41.0299 13.1124 538 133.526 871.087 484.331
1197 0 43.0311 13.7807 593 135.823 870.595 483.782
1198 0 43.0734 13.6743 589 137.282 870.893 482.463
1199 0 46.0448 13.8995 640 125.542 871.478 484.552
1200 0 49.0623 13.1058 643 128.894 871.058 484.425
1201 0 51.0357 13.4612 687 128.598 870.929 482.393
1202 0 50.031 13.7915 690 130.412 870.919 480.252
1203 0 53.1052 12.8613 683 133.83 870.782 480.391
1204 0 54.0265 12.9011 697 134.841 870.539 479.3
1205 0 57.1115 14.5155 829 129.248 870.475 478.883
1206 0 58.0554 14.2967 830 131.967 870.995 477.004
1207 0 61.0326 14.0089 855 133.828 870.392 477.378
1208 0 62.0361 13.476 836 136.744 870.212 475.477
1209 0 65.0273 14.071 915 135.392 870.28 473.27
1210 0 64.0933 14.2448 913 137.184 869.895 470.906
1211 0 69.0852 13.7367 949 135.719 869.294 471.296
1212 0 72.0949 13.6903 987 134.558 868.922 470.911
1213 0 75.1543 15.1023 1135 130.805 869.554 469.283
1214 0 77.1009 13.5277 1043 135.354 869.518 468.089
1215 0 79.109 13.6141 1077 134.78 869.662 467.977
1216 0 80.1178 14.0044 1122 134.236 869.421 463.835
1217 0 84.1466 13.0962 1102 134.864 869.606 465.867
1218 0 88.2453 14.743 1301 130.277 869.179 463.629
1219 0 90.2418 14.0844 1271 134.26 869.422 461.393
1220 1 47.2326 13.7828 651 132.356 869.241 483.743
1221 0 47.1314 13.0486 615 138.044 869.085 482.05
1222 0 49.1268 13.7807 677 135.842 869.16 481.544
1223 0 53.1372 14.0956 749 133.649 869.354 479.865
1224 0 53.1328 15.019 798 131.644 869.023 478.842
1225 0 57.1117 14.3753 821 132.228 868.965 477.81
1226 0 56.0865 13.4257 753 137.053 869.697 477.033
1227 0 61.4409 14.5831 896 130.243 869.403 475.366
1228 0 61.1629 14.4859 886 132.063 868.837 475.64
1229 0 64.3126 14.0408 903 134.123 869.069 472.439
1230 0 67.1564 15.8436 1064 128.925 868.895 471.797
1231 0 70.2074 14.4144 1012 132.49 868.534 470.726
1232 0 69.3189 14.0943 977 135.715 868.521 468.735
1233 0 75.4113 16.4034 1237 126.849 868.563 469.045
1234 0 76.2736 14.4218 1100 133.837 868.636 468.44
1235 0 80.2661 15.025 1206 132.191 868.816 465.823
1236 0 81.2372 14.2915 1161 135.475 868.693 464.512
1237 0 85.3507 15.1961 1297 132.099 868.576 462.47
1238 0 88.3687 14.53 1284 134.516 868.214 462.323
1239 0 91.3576 14.6676 1340 135.686 868.808 459.49
1240 0 92.2808 15.1928 1402 134.849 868.419 457.503
1241 0 97.3016 14.933 1453 134.723 868.27 455.855
1242 0 101.295 14.9069 1510 132.174 868.421 455.812
1243 0 104.324 14.5508 1518 132.773 868.655 454.057
1244 0 109.3 15.8828 1736 127.804 868.13 451.599
1245 0 112.089 13.3822 1500 134.678 868.296 451.117
1246 1 58.1341 14.1569 823 134.151 868.429 473.803
1247 0 61.1616 14.3554 878 131.836 868.814 473.089
1248 0 64.1992 14.5173 932 131.229 868.595 471.164
1249 0 65.2463 15.0813 984 130.043 868.834 471.397
1250 0 66.0955 13.9949 925 134.304 868.604 469.457
1251 0 69.1774 13.993 968 132.986 867.593 467.055
1252 0 71.1524 13.9981 996 132.96 867.626 467.642
1253 0 74.2633 15.5393 1154 128.425 868.287 466.429
1254 0 77.1561 14.6327 1129 131.935 868.087 463.809
1255 0 77.2334 14.5533 1124 133.66 868.584 463.136
1256 0 80.131 14.2017 1138 135.098 868.43 461.857
1257 0 81.1761 14.5486 1181 135.229 868.662 460.023
1258 0 84.1018 13.6263 1146 138.279 868.421 458.532
1259 0 88.0892 14.7918 1303 134.134 867.91 457.74
1260 0 91.2002 13.9144 1269 136.948 868.727 456.584
1261 0 92.25 14.2656 1316 137.559 868.415 455.261
1262 0 96.1421 14.5098 1395 136.399 867.713 452.682
1263 0 98.1756 14.2092 1395 137.827 868.041 450.573
1264 0 103.272 15.1832 1568 134.109 868.286 449.788
1265 0 107.262 14.954 1604 134.62 868.398 447.062
1266 0 113.282 14.8391 1681 133.589 868.277 444.542
1267 1 55.1045 11.1062 612 130.422 869.335 473.059
1268 0 57.0159 12.4527 710 126.82 868.72 469.739
1269 0 59.153 12.1887 721 128.495 869.083 468.172
1270 0 62.0939 13.3185 827 127.253 869.265 470.104
1271 0 66.0769 13.4994 892 125.281 869.354 468.422
1272 0 68.1005 13.4067 913 125.863 869.195 467.92
1273 0 67.0991 12.5486 842 130.197 869.064 465.511
1274 0 71.1376 13.748 978 125.042 869.273 459.227
1275 0 75.0907 13.9165 1045 124.731 869.355 459.845
1276 0 79.055 13.7373 1086 124.316 869.11 460.779
1277 0 80.0707 12.8886 1032 127.071 869.527 454.944
1278 0 83.1365 12.702 1056 128.149 869.108 456.039
1279 0 86.1087 13.2739 1143 126.59 868.602 453.283
1280 0 89.1221 12.7241 1134 127.585 869.147 452.827
1281 0 94.1099 12.9954 1223 126.232 869.121 452.217
1282 0 97.1903 12.6247 1227 127.617 869.187 451.036
1283 1 47.1021 9.78724 461 117.03 869.354 473.896
1284 0 52.0483 10.4902 546 115.06 870.275 477.075
1285 0 53.0378 12.5759 667 111.369 869.978 477.661
1286 0 56.0474 12.3645 693 111.012 870.228 478.821
1287 0 57.0928 13.0664 746 110.488 871.035 474.117
1288 0 59.043 12.4486 735 110.937 870.306 473.08
1289 0 61.0617 12.3318 753 111.473 870.637 474.394
1290 0 61.0276 12.0601 736 113.398 869.484 472.311
1291 0 64.1169 12.68 813 110.241 869.926 474.014
1292 0 65.0863 13.7356 894 109.343 870.494 471.803
1293 0 69.0618 12.887 890 110.201 870.411 469.845
1294 0 70.1032 11.8967 834 113.318 870.506 468.909
1295 0 73.1314 13.9065 1017 108.038 870.787 464.947
1296 0 77.1403 15.1672 1170 103.648 871.29 459.994
1297 0 78.1101 12.8024 1000 111.755 870.718 464.015
1298 0 80.2197 13.0766 1049 111.554 871.056 463.58
1299 0 83.2948 12.2337 1019 113.586 870.723 461.378
1300 1 43.118 10.0886 435 111.816 869.779 480.641
1301 0 43.1946 9.97811 431 112.896 870.128 481.536
1302 0 46.1005 10.7808 497 109.258 869.429 482.72
1303 0 47.1036 11.1244 524 108.416 869.445 481.113
1304 0 49.0983 10.4688 514 110.047 868.471 479.862
1305 0 49.1246 10.0764 495 111.097 868.915 479.725
1306 0 53.099 10.7912 573 108.18 868.813 477.909
1307 0 54.1156 12.0852 654 105.787 868.971 477.81
1308 0 53.0899 10.8872 578 109.427 869.317 477.758
1309 0 57.152 10.6908 611 108.863 869.502 477.147
1310 0 57.118 11.1523 637 110.386 869.27 473.204
1311 0 61.2426 12.2627 751 106.951 869.16 472.542
1312 0 62.2589 10.8258 674 110.261 868.878 473.095
1313 0 63.0904 11.3805 718 110.033 868.73 471.344
1314 0 66.122 10.405 688 112.145 868.244 469.468
1315 0 69.1833 13.0523 903 106.039 869.249 469.464
1316 0 67.132 10.1591 682 114.559 869.336 467.827
1317 0 73.1655 11.3168 828 110.459 868.965 467.874
1318 0 76.1207 11.889 905 109.66 868.891 466.887
1319 1 39.0437 9.98882 390 111.333 869.985 484.915
1320 0 41.0496 11.2547 462 109.84 869.859 484.017
1321 0 42.0425 11.2267 472 104.655 869.773 485.479
1322 0 41.0855 9.29768 382 113.147 870.414 485.28
1323 0 46.0294 10.2326 471 109.796 869.943 484.089
1324 0 47.0428 11.1388 524 109.025 870.166 482.113
1325 0 46.0716 10.7007 493 111.416 870.702 482.452
1326 0 49.0305 11.9517 586 109.834 870.788 481.522
1327 0 51.0731 11.787 602 111.203 870.123 480.096
1328 0 51.0238 11.5828 591 112.846 870.215 479.645
1329 0 52.0509 11.1045 578 114.599 870.388 480.035
1330 0 57.0387 11.536 658 111.828 870.705 480.14
1331 0 56.086 10.9118 612 115.969 870.172 478.956
1332 0 59.1337 11.8207 699 115.013 869.685 476.831
1333 0 63.0823 12.5233 790 110.652 869.943 478.109
1334 0 62.1039 11.5291 716 115.885 869.81 475.31
1335 0 66.0982 12.3453 816 114.201 870.113 473.525
1336 0 66.0622 11.2167 741 117.915 869.664 473.656
1337 0 69.167 11.8264 818 117.155 870.092 472.256
1338 0 74.0773 12.244 907 114.867 869.462 472.184
1339 0 75.2642 12.1705 916 116.313 869.43 470.061
1340 0 79.1973 11.6166 920 112.137 869.838 469.448
1341 1 42.0697 10.5064 442 111.231 870.604 487.025
1342 0 42.0396 11.7746 495 111.691 870.762 486.663
1343 0 42.0267 12.7062 534 112.06 870.165 484.493
1344 0 44.1001 13.0612 576 113.318 870.385 485.391
1345 0 45.0616 12.3831 558 116.211 870.586 484.357
1346 0 46.0543 13.2235 609 113.782 869.842 484.862
1347 0 47.067 12.5141 589 114.647 870.402 483.548
1348 0 49.0791 13.1217 644 114.026 869.96 482.262
1349 0 50.1125 13.4697 675 113.49 870.566 482.203
1350 0 52.0485 13.1032 682 113.842 870.323 480.899
1351 0 52.0712 12.8094 667 115.286 870.642 481.859
1352 0 55.1062 13.2653 731 113.22 870.328 482.256
1353 0 56.0221 13.0306 730 113.875 869.963 480.174
1354 0 58.0458 14.0062 813 112.087 869.371 477.16
1355 0 60.0345 13.3257 800 114.27 869.428 478.831
1356 0 63.1052 13.6756 863 114.037 869.608 477.273
1357 0 64.0728 12.6419 810 118.22 869.673 476.09
1358 0 67.0676 13.8368 928 114.256 870.109 476.051
1359 0 68.0825 14.1299 962 115.533 870.047 473.786
1360 0 69.0916 13.4314 928 118.253 869.681 473.347
1361 0 72.0842 13.7756 993 117.217 869.299 471.421
1362 0 74.0906 13.9019 1030 117.821 869.615 471.903
1363 0 76.0498 12.7679 971 121.679 870.176 472.607
1364 0 76.0383 12.6252 960 125.126 870.039 470.211
1365 0 80.0409 13.6055 1089 123.861 869.601 467.1
1366 0 83.0754 12.8799 1070 126.379 869.369 468.92
1367 0 86.0799 14.289 1230 125.319 869.818 465.289
1368 0 88.1181 14.594 1286 125.82 869.665 463.492
1369 0 92.2276 14.7244 1358 125.043 868.917 459.514
1370 0 94.1921 13.8865 1308 129.026 869.161 460.54
1371 0 98.2047 14.9789 1471 126.755 869.965 456.13
1372 0 102.288 14.6155 1495 130.232 869.513 453.887
1373 0 105.238 15.3937 1620 132.988 869.041 449.967
1374 0 106.282 14.9225 1586 134.75 869.344 449.667
1375 0 111.341 15.7893 1758 133.432 868.605 445.144
1376 0 114.39 14.5467 1664 136.839 868.541 445.883
1377 0 119.496 15.4482 1846 133.485 868.675 444.973
1378 0 124.425 15.7123 1955 132.403 868.716 443.793
1379 0 126.263 15.0242 1897 136.099 867.874 442.415
1380 0 131.555 16.0921 2117 132.605 868.351 440.493
1381 0 132.228 14.3011 1891 139.304 868.21 436.391
1382 0 140.365 16.1152 2262 133.174 868.521 435.337
1383 0 147.527 15.8208 2334 132.962 868.225 433.032
1384 1 78.3944 12.6795 994 139.515 868.013 466.003
1385 0 80.3961 13.4708 1083 139.204 868.789 463.649
1386 0 84.4498 14.8372 1253 135.225 868.781 461.36
1387 0 85.4636 14.1464 1209 138.108 867.997 461.245
1388 0 90.2883 13.9774 1262 137.021 868.242 460.342
1389 0 95.2722 13.6346 1299 136.903 868.722 458.05
1390 0 96.3519 14.5197 1399 136.355 868.903 454.157
1391 0 101.233 14.0172 1419 136.492 869.109 454.034
1392 0 104.324 14.3399 1496 136.056 868.89 451.346
1393 0 108.443 15.3813 1668 132.733 868.54 447.614
1394 0 112.399 15.2226 1711 133.123 868.001 447.599
1395 1 60.3823 13.0999 791 135.377 868.338 471.091
1396 0 63.3356 13.91 881 131.297 867.148 471.079
1397 0 63.2144 14.0633 889 131.769 867.69 467.871
1398 0 62.1642 13.8504 861 158.294 868.733 467.485
1399 0 66.4309 14.0447 933 135.015 867.582 467.989
1400 0 70.4246 14.3416 1010 133.122 867.603 464.233
1401 0 73.3381 13.9627 1024 132.17 867.961 465.102
1402 0 73.3358 13.8677 1017 162.719 866.942 465.037
1403 0 78.4766 14.2718 1120 131.647 868.019 462.221
1404 0 81.2327 14.1076 1146 131.88 867.838 459.995
1405 0 83.2996 13.4214 1118 135.028 867.943 458.199
1406 0 86.4572 14.0532 1215 133.23 867.535 457.193
1407 0 89.3877 12.8765 1151 137.606 867.548 455.38
1408 0 93.4957 13.9899 1308 134.621 867.326 453.215
1409 0 96.3211 12.9774 1250 139.142 867.726 448.513
1410 0 101.425 13.1526 1334 137.364 867.563 450.139
1411 1 53.2533 12.7879 681 131.944 867.919 472.213
1412 0 54.2846 12.3055 668 136.63 868.575 470.142
1413 0 56.1726 12.3904 696 135.22 868.691 469.951
1414 0 58.2705 12.7509 743 136.478 867.856 469.767
1415 0 59.0835 12.5585 742 138.212 868.098 468.111
1416 0 64.2899 13.2991 855 134.573 868.302 466.411
1417 0 66.3189 14.4152 956 132.047 867.528 463.959
1418 0 68.389 12.6628 866 136.864 867.303 463.895
1419 0 70.2765 12.7069 893 137.954 868.124 461.876
1420 0 73.4149 12.9674 952 136.101 867.799 461.294
1421 0 74.2634 12.7788 949 138.708 867.561 459.042
1422 0 77.3199 12.9203 999 139.048 867.78 456.67
1423 0 80.2558 12.8963 1035 139.028 867.956 458.365
1424 0 80.2337 12.2766 985 141.93 868.099 453.811
1425 0 86.1949 13.7247 1183 136.485 868.56 453.26
1426 0 87.3732 13.3794 1169 138.974 868.789 451.958
1427 0 91.3288 13.5116 1234 139.029 869.643 450.015
1428 0 93.2426 14.0601 1311 138.474 869.444 449.117
1429 0 97.1559 13.8952 1350 139.485 869.599 447.007
1430 0 99.298 13.4242 1333 142.188 869.386 443.607
1431 0 103.398 13.2207 1367 142.484 868.691 443.15
1432 0 108.395 14.2258 1542 139.621 869.538 440.054
1433 0 110.3 14.2701 1574 140.658 868.264 436.156
1434 1 57.2184 11.9891 686 133.614 868.248 459.286
1435 0 61.2866 10.198 625 135.139 868.67 461.331
1436 0 62.2478 12.1611 757 131.165 868.411 461.46
1437 0 64.2158 12.8784 827 129.036 868.236 464.203
1438 0 65.1544 10.8512 707 136.414 868.868 463.666
1439 0 69.0215 11.7065 808 131.613 869.442 463.183
1440 0 70.1312 11.1933 785 133.805 870.408 460.203
1441 0 74.2511 11.6497 865 133.224 869.513 456.65
1442 0 76.3768 11.7706 899 132.075 870.048 456.829
1443 0 79.1912 12.7539 1010 130.72 870.115 453.193
1444 0 81.2683 11.8004 959 133.205 870.038 450.98
1445 0 86.3762 11.9362 1031 131.894 869.767 451.478
1446 0 88.3552 12.5969 1113 129.83 870.059 451.8
1447 0 90.2735 12.3403 1114 131.553 870.078 447.668
1448 0 92.2035 11.7241 1081 132.189 870.435 449.513
1449 0 95.226 11.541 1099 133.093 869.902 448.267
1450 0 100.172 12.5684 1259 130.091 869.817 447.463
1451 1 55.1699 11.7455 648 121.586 869.194 467.656
1452 0 55.1699 11.7455 648 125.877 868.213 467.58
1453 0 53.1851 10.3976 553 118.682 868.749 471.561
1454 0 57.0802 11.0371 630 115.821 869.49 471.214
1455 0 60.1497 10.2744 618 115.613 868.714 469.154
1456 0 61.0809 10.3797 634 115.338 869.356 470.08
1457 0 62.1898 10.0338 624 115.478 869.904 469.474
1458 0 66.0876 10.3196 682 113.66 869.43 467.019
1459 0 66.1399 9.79741 648 115.315 868.471 467.168
1460 0 70.0749 11.0453 774 112.016 869.749 463.503
1461 0 73.08 10.7143 783 112.654 870.024 465.323
1462 0 75.2388 10.1145 761 111.57 870.427 458.594
1463 0 78.1698 10.8993 852 110.825 871.092 460.404
1464 0 76.2059 9.67116 737 116.871 870.837 457.801
1465 0 81.1757 10.3726 842 114 871.417 459.656
1466 0 83.1664 11.7956 981 112.495 871.211 455.672
1467 0 86.2356 11.4454 987 113.493 870.897 455.907
1468 0 87.1203 11.1914 975 115.511 870.875 457.153
1469 0 91.1296 11.1599 1017 115.044 871.279 457.845
1470 0 93.2391 12.0336 1122 115.243 870.951 454.674
1471 0 96.2357 12.5629 1209 116.303 870.499 451.208
1472 0 97.2632 10.5178 1023 122.577 870.341 452.351
1473 0 101.208 11.333 1147 121.346 870.635 448.737
1474 0 104.523 11.586 1211 121.821 870.026 446.804
1475 0 105.254 12.085 1272 123.814 870.142 444.565
1476 0 108.315 12.0297 1303 124.33 871.07 444.837
1477 0 114.312 11.9498 1366 123.564 870.616 442.81
1478 0 116.244 12.7232 1479 123.38 869.751 437.53
1479 0 122.393 13.2524 1622 122.018 869.2 436.011
1480 0 123.212 12.6854 1563 125.703 869.01 428.972
1481 0 126.577 11.8189 1496 128.242 868.348 429.289
1482 0 130.228 12.2247 1592 127.715 868.021 425.839
1483 1 68.1053 10.8508 739 121.976 868.674 457.847
1484 0 72.1884 10.3895 750 121.264 869.415 456.321
1485 0 75.4728 11.0901 837 119.765 869.667 455.606
1486 0 77.2938 11.4886 888 119.976 869.157 453.741
1487 0 79.3491 10.9768 871 121.544 869.941 455.243
1488 0 83.2777 11.972 997 118.918 869.658 453.811
1489 0 83.2317 11.5701 963 118.807 870.802 455.675
1490 0 84.2105 10.2244 861 123.75 870.345 453.823
1491 0 90.2445 10.538 951 121.97 870.507 453.621
1492 0 91.216 11.1603 1018 122.555 870.385 451.589
1493 0 96.363 11.5189 1110 123.575 870.765 443.312
1494 0 97.4736 11.8494 1155 124.41 870.5 442.396
1495 0 102.423 11.6868 1197 124.668 870.119 443.673
1496 0 105.491 11.3375 1196 125.671 869.698 442.917
1497 0 108.338 11.4364 1239 125.105 870.005 441.839
1498 1 62.2484 10.683 665 120.767 870.633 465.062
1499 0 62.2963 9.67954 603 122.846 869.39 465.439
1500 0 63.1879 9.84366 622 119.815 869.714 462.167
1501 0 69.3398 9.90772 687 112.639 870.233 471.384
1502 0 70.2266 9.55478 671 113.094 869.928 471.705
1503 0 71.1035 10.1261 720 111.797 870.472 469.768
1504 0 75.2307 11.7505 884 104.75 870.143 466.58
1505 0 74.1827 11.2155 832 107.373 870.329 469.014
1506 0 74.1307 11.0885 822 113.071 870.055 466.021
1507 0 75.2395 10.7789 811 113.404 870.478 466.298
1508 0 77.2341 10.1898 787 115.479 869.778 464.391
1509 0 78.281 11.3565 889 113.945 869.586 463.603
1510 0 79.2696 10.786 855 116.423 869.37 463.937
1511 0 83.1398 10.4162 866 112.402 870.18 464.71
1512 0 84.0914 10.0367 844 112.976 869.867 462.447
1513 0 86.1613 10.6893 921 110.354 870.585 459.798
1514 0 90.1437 10.8382 977 109.619 870.363 457.333
1515 0 95.1592 11.6857 1112 106.419 870.356 457.83
1516 0 95.3622 9.47964 904 112.008 869.963 455.05
1517 0 97.1665 10.7033 1040 109.369 870.459 455.498
1518 0 99.2182 11.2278 1114 110.555 869.963 451.491
1519 0 102.249 11.2764 1153 111.409 869.481 451.072
1520 0 103.333 7.99356 826 119.605 869.349 450.277
1521 1 52.106 9.1928 479 109.614 870.409 478.952
1522 0 55.1179 11.0309 608 104.819 869.434 478.372
1523 0 57.1384 11.9359 682 104.333 869.331 477.189
1524 0 58.2241 11.9882 698 108.252 869.153 474.825
1525 0 58.1684 10.2805 598 108.86 870.085 476.251
1526 0 58.1636 10.6252 618 109.773 869.976 475.113
1527 0 61.176 10.478 641 110.665 870.335 474.109
1528 0 64.2166 11.5546 742 107.935 870.31 473.611
1529 0 65.3008 11.3628 742 110.23 869.752 472.307
1530 0 65.1933 11.1975 730 112.77 869.76 471.421
1531 0 67.3239 10.7837 726 114.2 869.646 470.679
1532 0 70.164 12.4993 877 110.712 869.651 470.761
1533 0 72.1371 11.1316 803 115.938 869.276 468.392
1534 0 75.2882 11.5423 869 114.739 869.9 467.602
1535 0 75.2207 12.111 911 115.891 870.074 466.418
1536 0 78.3372 12.7526 999 115.803 869.403 465.147
1537 0 80.316 11.8532 952 118.416 869.32 465.991
1538 0 82.4003 12.0752 995 118.592 869.204 463.434
1539 0 85.3773 12.2515 1046 118.329 869.22 461.308
1540 0 88.3995 12.3191 1089 119.438 868.371 459.683
1541 0 90.3568 12.019 1086 121.001 868.167 459.437
1542 0 93.2873 12.1453 1133 121.617 868.643 455.811
1543 1 48.2866 9.87851 477 126.721 867.899 479.803
1544 0 52.4411 11.4605 601 124.273 868.208 478.087
1545 0 52.2252 11.6419 608 124.492 867.452 479.015
1546 0 52.1716 11.2897 589 126.739 867.059 477.638
1547 0 53.234 11.703 623 127.379 867.051 477.035
1548 0 57.2171 12.4788 714 124.063 867.494 474.419
1549 0 59.2023 13.3103 788 121.963 866.665 476.245
1550 0 59.1271 13.0735 773 124.016 867.229 474.762
1551 0 59.1533 12.7803 756 126.29 867.283 474.136
1552 0 64.1257 12.9901 833 124.484 866.956 472.772
1553 0 63.0628 13.3518 842 125.597 867.094 473.447
1554 0 68.1058 14.4628 985 121.965 866.475 471.964
1555 0 68.2525 13.7284 937 125.555 866.818 468.612
1556 0 69.2057 12.6724 877 129.58 866.666 469.885
1557 0 74.1906 14.8402 1101 122.302 866.705 469.421
1558 0 75.1839 14.3914 1082 125.295 866.045 467.876
1559 0 76.1927 14.4896 1104 126.061 867.156 467.423
1560 0 78.146 13.9099 1087 128.724 866.999 464.746
1561 0 80.1112 14.5548 1166 127.489 866.634 464.117
1562 0 83.0939 13.8037 1147 127.191 865.715 464.91
1563 0 86.1527 14.2422 1227 127.035 865.905 461.834
1564 0 89.1338 13.519 1205 125.88 866.971 462.335
1565 0 91.0736 13.6812 1246 125.951 867.551 460.4
1566 0 93.0906 13.7715 1282 126.349 867.666 458.226
1567 1 50.1351 11.2895 566 131.88 868.493 478.565
1568 0 52.2662 13.0103 680 126.985 868.351 477.329
1569 0 55.2931 13.6183 753 126.988 868.404 475.258
1570 0 54.1451 12.799 693 118.193 867.628 472.058
1571 0 56.0622 12.5396 703 118.661 867.693 472.609
1572 0 58.091 12.7214 739 118.862 867.827 470.75
1573 0 61.1435 13.1658 805 115.64 867.38 471.704
1574 0 61.2767 11.9621 733 119.787 867.457 468.829
1575 0 63.1683 13.092 827 116.398 868.106 467.89
1576 0 62.1782 12.5446 780 144.035 869.01 466.799
1577 0 68.2376 13.3797 913 115.162 868.759 467.824
1578 0 69.2258 12.3075 852 119.818 868.097 465.284
1579 0 72.1987 12.6318 912 118.576 868.156 463.726
1580 0 73.1036 12.8174 937 119.679 868.125 460.907
1581 0 77.212 13.8709 1071 116.616 868.134 460.571
1582 0 80.1248 14.1155 1131 118.188 868.536 463.991
1583 0 81.057 13.6077 1103 124.468 867.546 464.293
1584 0 85.0762 13.7171 1167 123.194 866.849 462.669
1585 0 85.0753 13.6467 1161 123.91 866.798 455.087
1586 0 89.0745 14.3363 1277 123.092 867.395 460.687
1587 0 91.1586 13.5149 1232 125.314 867.419 457.832
1588 0 94.0746 13.2448 1246 126.306 866.197 453.498
1589 0 95.1828 14.8346 1412 122.34 867.295 453.489
1590 0 101.188 14.0036 1417 123.335 867.715 449.57
1591 1 54.0674 11.0973 600 121.932 867.56 473.43
1592 0 57.0569 12.987 741 117.069 867.494 472.059
1593 0 56.0527 11.6676 654 120.228 867.424 471.893
1594 0 60.0872 12.0991 727 119.495 867.972 470.74
1595 0 61.0567 12.3819 756 118.563 868.307 470.079
1596 0 64.0816 11.4385 733 120.437 868.6 467.734
1597 0 64.0722 10.8159 693 122.846 868.39 467.664
1598 0 68.0504 12.2115 831 119.481 867.791 463.437
1599 0 70.0494 13.105 918 116.949 868.016 463.695
1600 0 71.1238 12.4853 888 117.943 868.908 464.658
1601 0 73.0574 11.9906 876 119.896 867.815 463.213
1602 0 78.1612 11.8217 924 116.759 867.766 462.042
1603 0 80.1724 11.9118 955 118.156 867.019 456.948
1604 0 83.1312 11.969 995 117.068 867.183 460.357
1605 0 84.1813 12.1405 1022 120 867.08 455.218
1606 0 88.2066 11.7905 1040 120.46 866.926 454.243
1607 0 92.1192 13.2329 1219 116.389 867.441 454.441
1608 0 95.1632 12.7465 1213 118.12 867.894 452.519
1609 0 98.0707 12.5624 1232 117.42 867.574 447.596
1610 1 52.0688 10.3901 541 112.961 868.268 471.828
1611 0 54.1128 10.4412 565 112.947 867.963 471.747
1612 0 57.0882 12.3318 704 107.587 867.864 471.371
1613 0 58.1599 9.9725 580 109.516 868.583 473.39
1614 0 61.1148 11.1921 684 107.961 868.322 470.797
1615 0 62.2008 10.4339 649 109.357 868.029 470.293
1616 0 65.254 11.0645 722 107.637 868.693 469.137
1617 0 69.1848 10.7827 746 107.103 868.46 468.233
1618 0 71.1758 11.9563 851 106.298 868.974 465.776
1619 0 70.2891 11.1113 781 110.294 868.141 463.234
1620 0 72.0981 11.734 846 110.089 867.663 464.299
1621 0 76.1486 11.7533 895 109.324 867.764 462.34
1622 0 81.2034 12.6842 1030 113.112 867.639 466.435
1623 0 83.0572 12.0399 1000 112.691 867.696 464.792
1624 0 86.0245 12.0198 1034 113.072 868.496 463.817
1625 0 90.0712 13.5337 1219 110.39 867.992 461.205
1626 0 90.0781 11.8786 1070 114.598 868.221 462.32
1627 0 95.125 12.4363 1183 114.113 867.991 457.779
1628 0 100.116 13.4944 1351 111.556 867.511 457.477
1629 1 52.0845 11.9613 623 112.148 867.73 480.7
1630 0 54.0667 11.1899 605 109.886 868.147 476.509
1631 0 56.1141 12.7241 714 110.42 868.394 475.273
1632 0 56.1355 12.0067 674 113.371 867.454 475.099
1633 0 59.1069 12.3505 730 110.886 867.677 473.667
1634 0 59.0475 12.8541 759 110.892 867.462 474.601
1635 0 62.104 13.252 823 108.994 868.134 471.825
1636 0 64.1098 12.4786 800 110.256 868.936 471.421
1637 0 65.0873 13.551 882 108.509 868.669 470.137
1638 0 68.0905 12.9387 881 110.087 868.42 469.522
1639 0 70.1535 13.0428 915 110.05 867.697 468.376
1640 0 72.1636 12.7488 920 111.048 867.817 470.47
1641 0 74.1037 11.7403 870 115.731 868.259 467.014
1642 0 77.0569 14.34 1105 109.423 868.326 466.647
1643 0 78.0647 12.6818 990 114.442 867.859 464.716
1644 0 82.064 13.7819 1131 111.347 867.92 463.789
1645 0 82.1703 12.4498 1023 116.136 867.072 458.993
1646 0 86.1089 13.03 1122 114.873 868.215 458.353
1647 0 88.1416 12.9337 1140 115.146 868.069 460.124
1648 0 90.1775 13.1629 1187 115.816 868.06 459.437
1649 0 94.099 13.2201 1244 116.706 868.273 454.802
1650 0 96.1145 12.4851 1200 119.026 868.207 453.595
1651 0 102.153 13.979 1428 115.457 867.993 453.113
1652 1 53.0651 11.7403 623 117.075 866.95 478.525
1653 0 56.0638 11.5761 649 115.861 866.492 478.29
1654 0 57.0967 11.5593 660 118.17 866.235 477.17
1655 0 59.0216 13.2494 782 112.808 866.409 473.923
1656 0 63.0878 12.015 758 113.388 866.583 475.567
1657 0 65.0451 13.0371 848 110.45 866.388 474.009
1658 0 67.1333 13.1082 880 110.844 866.331 472.247
1659 0 70.1452 14.4415 1013 108.223 866.501 470.691
1660 0 71.142 12.1728 866 114.307 866.625 469.82
1661 0 75.066 13.3882 1005 110.653 866.52 468.536
1662 0 78.0487 13.9272 1087 109.687 866.415 466.031
1663 0 79.065 12.5087 989 114.262 866.397 465.887
1664 0 81.0674 12.0517 977 115.434 866.641 464.728
1665 0 82.1612 13.3396 1096 115.915 865.711 459.555
1666 0 87.1584 13.1829 1149 116.581 865.974 460.824
1667 0 91.0865 13.9428 1270 114.464 866.575 459.964
1668 0 93.2023 13.8838 1294 115.27 866.131 459.17
1669 0 96.1133 13.8482 1331 117.272 865.963 457.27
1670 0 99.1481 13.7572 1364 118.196 866.406 455.608
1671 0 102.088 12.9202 1319 119.994 865.446 453.294
1672 0 105.138 12.7452 1340 120.07 866.382 454.537
1673 1 55.1724 12.0894 667 122.966 865.829 476.228
1674 0 56.094 13.1743 739 118.754 865.915 475.009
1675 0 56.0532 12.1135 679 118.3 866.1 478.532
1676 0 59.1031 13.3157 787 116.128 866.03 475.971
1677 0 61.1199 11.731 717 119.842 866.487 475.604
1678 0 64.0807 12.8588 824 116.43 866.464 474.874
1679 0 65.0561 13.081 851 115.765 866.367 475.954
1680 0 69.0842 13.5632 937 115.058 866.926 470.918
1681 0 70.1728 13.424 942 115.552 866.986 471.137
1682 0 72.1698 13.6899 988 115.495 866.471 471.291
1683 0 75.1066 13.4875 1013 115.463 866.401 469.541
1684 0 78.0804 12.7817 998 117.343 866.243 467.923
1685 0 81.0926 12.8988 1046 116.646 866.158 466.723
1686 0 83.1385 12.9904 1080 117.711 865.554 465.339
1687 0 84.2519 12.3914 1044 119.805 865.552 465.011
1688 0 89.1401 14.0677 1254 115.126 866.182 461.897
1689 0 92.2182 13.8367 1276 116.23 865.639 459.647
1690 0 95.137 12.3506 1175 119.478 865.767 458.377
1691 0 98.1337 12.4524 1222 119.487 866.32 457.97
1692 0 102.144 13.5201 1381 118.4 866.24 454.664
1693 1 58.1748 11.8608 690 119.975 866.435 478.399
1694 0 56.067 12.0035 673 122.896 865.822 476.909
1695 0 58.1047 11.5309 670 116.346 867.928 478.533
1696 0 61.1003 10.5891 647 118.093 868.901 476.142
1697 0 62.0648 11.2463 698 116.304 868.464 475.45
1698 0 66.1218 11.7813 779 114.932 869.448 474.293
1699 0 67.1438 11.1998 752 117.436 869.027 473.81
1700 0 67.1473 11.1695 750 140.48 869.025 473.759
1701 0 73.1536 11.6467 852 115.998 869.316 471.248
1702 0 75.1102 12.1288 911 115.839 868.345 469.867
1703 0 79.0879 13.1752 1042 113.68 868.227 468.107
1704 0 79.0394 10.9313 864 117.06 868.454 468.684
1705 0 83.0937 12.4919 1038 112.82 868.074 465.853
1706 0 87.1066 13.0874 1140 112.423 867.843 464.868
1707 0 90.1389 13.0576 1177 114.138 868.228 463.51
1708 0 90.0916 13.4086 1208 115.072 868.098 462.55
1709 0 96.0867 13.3213 1280 114.177 867.991 462.639
1710 0 98.1733 12.702 1247 117.637 868.193 461.168
1711 0 100.159 12.1906 1221 121.054 867.778 458.875
1712 1 53.055 13.0431 692 118.747 868.59 479.605
1713 0 55.1419 12.7308 702 119.816 868.574 478.058
1714 0 56.1926 11.8699 667 124.318 868.439 478.025
1715 0 58.1344 13.2624 771 120.371 868.344 477.092
1716 0 60.1571 12.0185 723 124.61 868.432 475.488
1717 0 62.1326 12.6182 784 122.481 867.491 475.42
1718 0 65.2022 14.202 926 119.081 867.554 474.429
1719 0 64.2077 13.1448 844 123.422 866.794 473.601
1720 0 68.2404 12.9835 886 122.573 866.894 472.342
1721 0 71.2504 12.6175 899 122.907 867.483 473.28
1722 0 71.1663 12.7307 906 125.167 866.912 471.292
1723 0 75.1985 13.5375 1018 124.217 866.983 468.309
1724 0 77.2111 13.884 1072 122.808 867.047 467.572
1725 0 79.2625 13.1083 1039 124.691 867.099 468.002
1726 0 81.2416 12.629 1026 127.273 866.811 465.325
1727 0 86.191 14.0038 1207 122.669 867.041 464.665
1728 0 86.1875 13.6447 1176 127.316 867.173 461.908
1729 0 88.1647 13.5882 1198 127.475 867.765 459.966
1730 0 91.1459 13.5168 1232 127.094 867.113 461.775
1731 0 95.1761 13.7745 1311 125.362 867.159 459.837
1732 0 97.0885 13.6885 1329 127.728 866.544 455.576
1733 0 101.094 14.5211 1468 124.524 867.28 454.424
1734 1 52.128 12.3926 646 124.2 868.35 479.358
1735 0 53.0603 12.4575 661 118.997 868.585 478.368
1736 0 55.072 11.2398 619 121.968 868.092 478.712
1737 0 58.0566 12.6428 734 117.583 868.713 477.643
1738 0 59.0895 12.828 758 117.894 867.939 476.161
1739 0 61.0694 13.8531 846 115.595 868.381 475.137
1740 0 63.1621 13.5366 855 114.892 868.165 475.38
1741 0 65.1006 13.0414 849 116.104 868.378 472.385
1742 0 66.077 13.0605 863 115.925 868.847 472.924
1743 0 70.0682 13.3156 933 114.361 868.385 472.095
1744 0 73.0869 13.7097 1002 112.864 867.634 468.244
1745 0 76.0683 13.7639 1047 111.687 867.474 467.751
1746 0 78.1279 12.4667 974 115.004 867.841 465.321
1747 0 81.1297 13.9406 1131 111.471 867.442 465.393
1748 0 83.0731 13.4339 1116 112.581 867.404 463.051
1749 0 87.0898 14.8812 1296 108.751 867.706 461.824
1750 0 90.0806 13.9653 1258 110.825 867.403 462.518
1751 0 93.0971 13.1583 1225 113.198 866.615 458.813
1752 0 95.1637 13.4925 1284 112.167 867.389 460.712
1753 1 50.0601 10.4275 522 119.169 868.228 479.805
1754 0 52.0292 12.1662 633 115.016 867.976 478.777
1755 0 54.1522 12.3356 668 112.629 867.734 480.395
1756 0 55.1135 13.0458 719 112.95 867.599 477.63
1757 0 57.1028 13.7121 783 110.9 867.729 477.483
1758 0 58.1217 12.5598 730 114.748 867.904 477.692
1759 0 60.1454 12.7358 766 114.687 867.996 475.748
1760 0 60.0798 12.2337 735 116.878 867.827 475.727
1761 0 63.1494 14.1727 895 112.301 868.428 474.139
1762 0 65.0923 13.4424 875 114.31 868.087 472.817
1763 0 67.1708 13.9346 936 113.687 867.429 471.196
1764 0 70.1114 13.935 977 114.001 868.06 470.918
1765 0 71.134 14.7609 1050 112.565 868.137 468.48
1766 0 73.1069 14.3762 1051 114.104 867.769 468.284
1767 0 76.0689 13.869 1055 115.079 867.387 465.982
1768 0 79.1051 13.2861 1051 115.75 868.076 465.764
1769 0 80.0731 13.7 1097 116.768 867.046 464.39
1770 0 86.0908 13.358 1150 116.535 867.312 462.313
1771 0 88.1568 13.6348 1202 116.722 867.703 460.928
1772 0 91.0718 13.2533 1207 117.302 867.532 459.189
1773 1 48.0754 12.3348 593 118.481 867.892 479.774
1774 0 48.0599 12.7757 614 120.178 868.407 478.098
1775 0 48.0333 10.7842 518 114.792 868.598 474.952
1776 0 51.1052 11.173 571 113.254 868.448 474.093
1777 0 50.0568 11.8066 591 113.105 868.99 474.794
1778 0 52.0782 12.3468 643 111.844 868.914 472.611
1779 0 54.0227 11.7543 635 114.094 868.479 472.402
1780 0 56.0857 11.8747 666 114.14 867.824 470.706
1781 0 60.0873 12.1656 731 112.45 868.298 471.312
1782 0 62.0973 11.4498 711 115.54 868.664 470.204
1783 0 64.0413 12.5076 801 114.036 867.836 467.96
1784 0 65.0609 12.6343 822 115.016 867.597 465.506
1785 0 69.0361 11.6461 804 116.213 868.435 467.28
1786 0 69.0966 11.9688 827 117.67 867.565 464.149
1787 0 71.0659 11.426 812 118.443 867.82 463.505
1788 0 73.046 11.4175 834 119.457 868.339 461.789
1789 0 77.1239 12.2141 942 116.29 867.947 460.137
1790 0 80.117 12.3944 993 116.249 867.757 459.834
1791 0 82.0728 13.1225 1077 115.358 868.742 457.564
1792 0 85.1476 13.1536 1120 115.965 867.712 456.259
1793 0 89.127 13.6659 1218 114.591 867.732 455.065
1794 0 91.1131 12.3253 1123 119.654 867.724 454.205
1795 0 95.0434 13.3413 1268 117.66 867.534 451.125
1796 0 97.1339 13.3733 1299 118.353 867.491 448.69
1797 0 101.12 14.7844 1495 115.677 868.099 446.23
1798 0 105.129 14.2967 1503 117.621 867.959 445.916
1799 1 57.0576 11.3394 647 117.267 868.295 468.691
1800 0 61.2 11.3072 692 119.355 867.938 465.578
1801 0 64.107 11.824 758 116.724 868.487 464.846
1802 0 66.0637 12.8512 849 113.994 868.728 465.468
1803 0 67.0344 12.9486 868 114.96 868.687 466.211
1804 0 71.0808 12.8445 913 115.548 868.616 464.635
1805 0 72.2597 12.0676 872 118.599 868.143 463.894
1806 0 76.1941 13.0456 994 116.913 867.531 462.026
1807 0 79.0939 12.6811 1003 117.362 867.95 460.222
1808 0 81.1063 12.2309 992 119.206 868.557 459.092
1809 0 84.1561 11.8589 998 120.101 868.575 457.611
1810 0 88.2455 12.9185 1140 117.038 868.483 455.614
1811 0 89.1374 12.3181 1098 120.749 868.02 452.46
1812 0 94.117 13.2707 1249 117.436 868.669 454.093
1813 0 97.1236 12.1701 1182 121.176 868.407 449.511
1814 0 103.196 12.1032 1249 121.219 868.502 448.811
1815 0 107.106 13.0712 1400 119.819 868.628 446.456
1816 1 57.1554 11.25 643 116.736 869.152 474.922
1817 0 59.1193 11.9758 708 113.797 866.806 476.39
1818 0 60.0446 11.6247 698 115.261 867.427 474.175
1819 0 62.1227 11.8958 739 114.666 866.88 474.654
1820 0 64.0717 12.4236 796 114.151 867.026 471.948
1821 0 67.1275 12.5731 844 113.146 866.94 470.329
1822 0 71.23 13.2107 941 110.584 866.69 469.47
1823 0 72.2296 12.8064 925 112.339 868.051 470.13
1824 0 73.1808 11.9703 876 115.781 866.934 467.338
1825 0 76.1767 11.539 879 116.8 866.786 467.878
1826 0 79.2902 12.4858 990 115.326 866.574 466.164
1827 0 83.1217 12.8005 1064 114.514 866.341 465.742
1828 0 86.1231 13.3646 1151 114.406 866.563 461.566
1829 0 88.2233 13.5678 1197 115.552 866.587 459.892
1830 0 91.2448 13.3597 1219 117.151 866.856 460.08
1831 0 95.1688 13.9962 1332 115.905 866.146 456.878
1832 0 98.189 14.1156 1386 116.543 865.952 456.84
1833 0 100.088 13.4282 1344 120.196 866.015 454.211
1834 1 52.1624 11.445 597 120.513 866.008 478.683
1835 0 54.2136 12.1925 661 119.035 865.617 478.038
1836 0 55.0674 13.3654 736 117.466 865.943 477.575
1837 0 58.0833 12.8953 749 118.131 865.969 476.025
1838 0 59.0713 12.3579 730 124.055 866.126 475.192
1839 0 61.0515 13.2511 809 122.745 865.845 474.661
1840 0 62.0984 12.5607 780 125 866.086 474.178
1841 0 65.2946 13.4927 881 122.59 868.543 470.68
1842 0 65.212 13.5865 886 123.845 867.954 471.132
1843 0 67.183 12.8306 862 125.997 867.531 471.879
1844 0 71.1506 14.5747 1037 121.786 868.012 469.022
1845 0 72.1881 14.199 1025 123.7 867.719 468.532
1846 0 75.1927 14.4562 1087 124.077 867.555 466.39
1847 0 78.2648 13.7354 1075 126.675 866.961 464.919
1848 0 81.1502 15.1571 1230 122.486 867.448 464.887
1849 0 83.213 15.3341 1276 122.747 867.266 463.146
1850 0 86.1675 14.6343 1261 124.086 867.064 460.758
1851 0 88.1988 15.1816 1339 123.099 866.997 459.843
1852 0 90.1969 14.4351 1302 126.783 867.435 457.267
1853 0 93.1612 14.3622 1338 120.232 868.095 460.132
1854 0 96.1428 13.3759 1286 123.669 867.101 456.908
1855 0 99.1099 12.9553 1284 125.406 866.72 453.357
1856 0 103.084 14.0468 1448 121.894 866.433 454.618
1857 0 111.128 16.3595 1818 112.794 866.811 446.693
1858 1 52.018 12.092 629 124.641 867.081 480.062
1859 0 55.0893 12.0169 662 126.705 867.175 477.409
1860 0 60.0422 13.224 794 120.503 865.776 475.361
1861 0 60.125 13.1726 792 122.302 865.968 474.258
1862 0 63.0479 13.6404 860 120.681 866.092 473.762
1863 0 64.1297 13.1296 842 122.897 866.131 472.452
1864 0 67.0287 13.3674 896 121.838 866.473 471.198
1865 0 69.1237 13.1214 907 122.858 866.729 469.957
1866 0 72.0351 13.3824 964 122.295 865.971 469.668
1867 0 73.0876 14.1885 1037 121.294 866.058 466.855
1868 0 78.1464 13.7946 1078 120.891 867.433 465.145
1869 0 80.1431 14.3618 1151 120.311 867.04 465.089
1870 0 80.1508 14.8096 1187 120.753 866.747 462.832
1871 0 83.1532 13.7096 1140 121.015 867.242 462.488
1872 0 85.1173 13.1466 1119 118.894 866.95 459.606
1873 0 88.2395 13.7807 1216 121.735 866.76 449.706
1874 0 90.1436 13.8446 1248 122.752 866.647 453.492
1875 0 92.098 13.5834 1251 120.888 867.096 452.774
1876 0 95.1407 14.2526 1356 119 866.274 452.542
1877 0 98.1602 14.4356 1417 118.17 866.4 451.365
1878 0 103.22 14.7065 1518 115.725 867.024 451.974
1879 0 104.16 13.9113 1449 119.002 866.658 447.715
1880 0 108.154 13.3976 1449 120.846 866.073 447.526
1881 1 56.042 10.046 563 116.456 867.632 475.504
1882 0 58.1848 12.4603 725 114.021 866.785 469.778
1883 0 62.1094 14.4261 896 113.924 867.108 473.857
1884 0 63.1736 12.806 809 117.281 867.951 471.697
1885 0 68.1479 12.9865 885 114.461 867.654 468.032
1886 0 67.082 11.9555 802 119.244 867.825 469.4
1887 0 71.048 13.4557 956 114.164 865.982 470.15
1888 0 72.0799 13.8319 997 114.716 866.286 468.068
1889 0 74.1447 13.096 971 116.334 866.361 467.553
1890 0 78.079 13.4992 1054 113.635 866 468.783
1891 0 81.1174 14.6454 1188 110.801 865.8 466.879
1892 0 83.0698 12.2548 1018 117.363 866.413 462.221
1893 0 86.081 13.6848 1178 113.081 866.001 460.906
1894 0 87.0549 13.0033 1132 114.597 866.274 461.502
1895 0 92.1043 13.2676 1222 113.627 865.771 458.501
1896 0 95.176 13.0075 1238 113.654 866.124 457.225
1897 0 101.166 14.1549 1432 109.239 866.255 450.726
1898 0 101.209 12.9139 1307 114.034 866.953 451.709
1899 1 51.0514 10.9106 557 111.284 868.427 478.031
1900 0 53.1364 13.4936 717 105.379 866.158 476.901
1901 0 57.1011 13.8001 788 101.6 866.496 474.773
1902 0 56.0753 12.7329 714 105.193 868.882 474.444
1903 0 57.0203 11.3819 649 109.055 867.701 475.319
1904 0 59.1407 11.4135 675 108.889 868.224 474.136
1905 0 61.0905 12.2769 750 105.957 868.319 471.991
1906 0 64.1399 13.1587 844 104.047 868.455 469.376
1907 0 67.0276 12.4128 832 105 867.373 468.538
1908 0 68.1067 12.451 848 105.899 868.048 467.926
1909 0 71.1344 12.7646 908 104.556 867.752 467.895
1910 0 71.1091 11.4191 812 109.113 867.738 465.305
1911 0 77.1739 13.3594 1031 100.86 867.765 462.568
1912 0 78.1309 12.4535 973 104.774 868.147 463.212
1913 0 80.1486 12.6764 1016 105.208 867.522 464.125
1914 0 82.1178 13.6633 1122 101.406 867.829 461.388
1915 0 85.1472 13.0362 1110 103.597 867.804 459.956
1916 0 89.1216 12.3202 1098 105.412 867.971 459.907
1917 0 92.1111 12.4089 1143 105.725 867.861 456.621
1918 0 93.135 11.0055 1025 108.851 867.642 458.124
1919 0 97.1297 12.9826 1261 105.028 867.8 455.929
1920 0 99.3323 11.4062 1133 109.267 868.132 453.887
1921 1 48.0984 10.624 511 107.93 868.497 478.262
1922 0 53.2006 11.2781 600 105.317 868.25 478.132
1923 0 52.1758 10.043 524 109.63 868.647 477.41
1924 0 55.0708 11.5306 635 106.767 868.091 474.614
1925 0 59.1198 12.9229 764 102.657 868.06 475.056
1926 0 60.076 12.1846 732 105.81 868.291 472.887
1927 0 61.0831 11.4107 697 107.468 866.692 473.945
1928 0 63.0714 11.8596 748 107.037 866.817 470.003
1929 0 67.151 13.1197 881 102.645 866.201 471.411
1930 0 67.0808 11.7918 791 107.134 866.248 470.755
1931 0 67.0808 11.7918 791 135.296 866.248 470.731
1932 0 73.1563 12.3434 903 110.844 866.161 466.6
1933 0 75.1665 12.5854 946 110.981 866.36 467.801
1934 0 78.1163 12.507 977 111.9 866.842 466.231
1935 0 79.2343 10.5889 839 118.205 866.395 465.397
1936 0 84.1976 12.7438 1073 112.005 866.445 464.282
1937 0 85.1894 12.0085 1023 116.215 865.86 460.474
1938 0 88.175 12.0782 1065 116.233 866.121 461.154
1939 0 92.1855 11.0646 1020 118.993 866.645 461.687
1940 0 95.3417 12.2087 1164 117.485 866.708 458.1
1941 1 50.0369 10.3724 519 116.445 865.295 481.422
1942 0 53.0394 11.3689 603 116.499 865.401 477.692
1943 0 53.012 12.7707 677 116.041 865.752 477.589
1944 0 53.0909 11.0942 589 119.351 866.204 476.309
1945 0 55.0437 11.6271 640 115.969 867.091 477.442
1946 0 54.0292 10.0131 541 122.466 866.403 476.216
1947 0 58.1472 12.2448 712 115.528 867.017 473.256
1948 0 61.1204 11.6491 712 116.462 867.088 474.583
1949 0 61.1806 10.3791 635 120.192 866.306 474.093
1950 0 63.0944 10.619 670 120.473 865.963 473.53
1951 0 65.0834 12.3073 801 118.151 866.261 469.494
1952 0 68.0446 11.1691 760 120.85 866.441 469.55
1953 0 71.0766 12.0856 859 120.101 866.016 468.328
1954 0 71.0996 10.6611 758 125.132 866.249 466.071
1955 0 76.0355 12.4021 943 120.773 866.692 466.676
1956 0 76.0543 11.3209 861 123.519 865.25 467.836
1957 0 80.0762 11.3267 907 124.227 866.507 466.185
1958 0 81.1063 11.9103 966 123.47 866.101 465.91
1959 0 84.0876 12.701 1068 123.388 866.092 464.044
1960 0 87.165 12.0805 1053 128.39 866.368 451.702
1961 0 90.1091 12.7956 1153 127.003 866.119 454.818
1962 0 93.1301 13.0033 1211 126.639 866.463 453.917
1963 0 99.1607 12.6663 1256 127.452 866.231 454.286
1964 0 101.07 12.6052 1274 126.77 866.542 455.246
1965 0 102.14 11.6898 1194 128.647 867.151 454.094
1966 0 106.136 13.624 1446 124.438 866.339 452.623
1967 0 110.094 13.8428 1524 126.174 866.308 451.08
1968 1 61.0944 12.2925 751 122.57 866.517 474.189
1969 0 61.061 11.1364 680 112.779 868.922 471.063
1970 0 62.1001 11.0789 688 111.932 868.288 469.648
1971 0 65.0608 11.374 740 109.672 868.503 469.303
1972 0 67.2288 12.5541 844 108.071 868.122 467.239
1973 0 69.12 11.386 787 110.099 868.357 468.206
1974 0 71.0781 11.4522 814 110.333 868.321 465.526
1975 0 74.0645 11.5575 856 109.729 868.157 463.548
1976 0 77.1085 12.1647 938 107.807 868.576 462.997
1977 0 79.0518 11.0054 870 110.623 868.234 462.099
1978 0 82.0983 11.1452 915 110.25 867.952 460.145
1979 0 81.1055 11.7131 950 111.002 868.344 454.753
1980 0 86.1858 12.0089 1035 112.203 867.801 460.659
1981 0 87.3421 11.0485 965 122.302 866.896 460.965
1982 1 49.1875 11.385 560 117.495 868.171 478.586
1983 0 51.131 11.4021 583 114.113 866.497 479.751
1984 0 54.1421 10.8418 587 110.375 869.106 480.092
1985 0 55.0652 11.3502 625 111.045 868.227 477.64
1986 0 55.0777 10.7848 594 112.975 869.182 476.086
1987 0 58.0671 11.4178 663 109.508 869.068 476.667
1988 0 59.0442 11.0087 650 111.637 866.12 476.723
1989 0 58.0404 11.8366 687 112.275 867.017 472.46
1990 0 62.1702 10.6321 661 115.589 867.068 473.455
1991 0 63.0539 10.4197 657 114.887 866.324 472.775
1992 0 65.2313 11.6202 758 113.743 866.166 469.724
1993 0 68.1945 11.8778 810 112.541 866.243 470.874
1994 0 73.1291 11.6506 852 112.554 866.33 468.396
1995 0 73.1185 11.2967 826 113.585 866.6 466.939
1996 0 76.1892 10.7233 817 114.412 866.998 467.305
1997 0 80.1577 11.4524 918 112.842 866.698 463.394
1998 0 83.1329 11.6681 970 112.092 866.016 461.213
1999 1 43.0755 9.51817 410 113.034 865.644 481.68
2000 0 43.0787 10.3996 448 111.531 865.739 482.163
2001 0 46.3834 11.3834 528 112.027 866.117 476.367
2002 0 47.068 12.6625 596 109.987 865.087 479.117
2003 0 49.1179 11.1772 549 113.689 865.282 479.526
2004 0 50.1411 11.1685 560 113.53 865.189 479.137
2005 0 52.0979 11.9583 623 111.955 865.465 477.183
2006 0 54.1031 11.7184 634 111.685 865.71 477.587
2007 0 52.0626 10.3145 537 116.292 865.75 475.639
2008 0 55.0703 10.9315 602 113.246 866.605 475.733
2009 0 57.0794 11.5804 661 113.644 865.428 475.533
2010 0 59.0817 12.3727 731 112.383 865.383 474.744
2011 0 62.0658 12.2128 758 112.704 865.711 473.599
2012 0 64.1579 12.8745 826 112.65 865.395 470.906
2013 0 66.2049 12.5368 830 112.805 865.471 471.696
2014 0 68.2704 13.593 928 111.574 865.149 467.789
2015 0 69.2035 11.7624 814 116.813 864.655 467.167
2016 0 72.1637 12.9428 934 113.587 864.848 466.403
2017 0 74.24 12.2171 907 116.871 865.738 464.569
2018 0 76.2365 12.6973 968 116.403 866.171 464.51
2019 0 81.2137 13.6676 1110 114.039 866.383 463.385
2020 0 83.2159 13.0384 1085 116.517 865.871 463.419
2021 0 85.1994 14.0377 1196 115.28 866.207 460.73
2022 0 89.0686 13.3829 1192 113.242 865.6 459.889
2023 0 90.4894 13.3717 1210 115.399 866.804 457.698
2024 0 94.3752 13.6159 1285 113.194 867.114 458.519
2025 0 96.3266 14.1083 1359 113.492 867.062 456.767
2026 0 98.3563 12.8512 1264 117.29 866.989 454.418
2027 0 102.203 14.7158 1504 111.574 867.487 455.146
2028 1 52.2172 13.0225 680 120.081 867.672 476.721
2029 0 55.1601 13.4517 742 118.296 867.053 476.097
2030 0 57.2516 12.1569 696 121.318 867.511 475.575
2031 0 59.2197 12.1074 717 121.396 868.236 475.944
2032 0 61.2547 13.2071 809 119.109 867.74 472.66
2033 0 63.3654 12.8935 817 119.962 867.764 473.106
2034 0 66.1999 13.2478 877 118.821 867.442 472.216
2035 0 68.3765 13.1039 896 119.124 866.983 470.753
2036 0 69.2417 11.3082 783 124.257 866.908 469.872
2037 0 70.289 12.1783 856 121.95 867.099 470.44
2038 0 76.1919 12.731 970 120.736 867.499 466.456
2039 0 76.3144 13.5885 1037 119.232 866.635 466.604
2040 0 78.3674 13.0794 1025 121.792 866.672 465.884
2041 0 82.4013 12.8153 1056 121.996 866.654 462.324
2042 0 85.2946 13.2247 1128 119.957 866.989 463.083
2043 0 89.3052 13.3587 1193 120.384 866.92 458.298
2044 1 44.2821 10.2976 456 122.221 866.866 479.838
2045 0 46.1919 12.4481 575 111.049 868.12 478.699
2046 0 47.0363 10.9277 514 113.589 868.298 481.173
2047 0 50.0198 12.4351 622 109.632 867.444 479.973
2048 0 50.0159 11.0965 555 112.438 867.849 479.013
2049 0 52.0309 11.3971 593 111.445 867.799 479.605
2050 0 55.0427 12.136 668 109.28 867.609 477.939
2051 0 56.0753 11.752 659 109.921 868.569 475.795
2052 0 58.0672 11.7622 683 109.076 868.013 476.805
2053 0 61.1015 12.3401 754 108.265 867.936 472.825
2054 0 62.0441 11.9431 741 109.111 867.772 471.951
2055 0 63.1338 12.8141 809 107.67 867.48 472.262
2056 0 65.1162 11.825 770 109.539 867.447 471.871
2057 0 68.0832 11.8825 809 109.717 867.833 468.759
2058 0 71.1348 12.3568 879 107.554 868.034 468.279
2059 0 72.074 12.6953 915 107.637 867.237 469.19
2060 0 74.066 11.6653 864 110.662 867.153 465.534
2061 0 77.0825 12.7007 979 108.268 867.45 464.213
2062 0 80.0959 11.6236 931 111.392 867.447 462.944
2063 0 83.0971 11.276 937 112.057 867.493 463.01
2064 0 85.1461 12.1673 1036 110.845 867.74 460.51
2065 0 90.1674 11.9445 1077 112.003 867.77 459.278
2066 0 92.178 11.6731 1076 113.144 867.797 457.364
2067 1 47.0654 11.5584 544 115.228 868.811 479.237
2068 0 48.1041 11.0386 531 113.597 868.294 478.089
2069 0 49.2127 10.668 525 114.848 868.305 476.699
2070 0 52.0566 12.083 629 112.506 868.175 476.576
2071 0 53.0942 10.9993 584 116.205 868.418 473.065
2072 0 54.0677 11.726 634 114.849 868.841 473.744
2073 0 57.0643 12.1792 695 113.184 868.325 473.458
2074 0 58.0894 11.2413 653 115.835 868.11 473.225
2075 0 61.0379 12.2383 747 113.151 868.218 471.561
2076 0 62.0888 12.0634 749 113.636 868.27 472.08
2077 0 65.0927 12.4745 812 112.698 867.888 469.304
2078 0 68.0664 12.5613 855 112.319 865.254 470.263
2079 0 70.1323 12.8614 902 111.05 865.706 469.355
2080 0 71.087 12.337 877 113.075 865.935 470.059
2081 0 72.2174 12.0747 872 114.783 865.148 467.108
2082 0 76.1495 11.8451 902 114.488 865.723 466.824
2083 0 79.1868 11.757 931 114.9 865.621 465.351
2084 0 85.3434 12.8657 1098 110.168 866.231 464.832
2085 0 86.5033 12.6122 1091 112.293 866.451 462.164
2086 1 43.1582 12.1414 524 114.647 866.79 482.219
2087 0 43.2678 10.4003 450 114.664 866.549 477.922
2088 0 46.2566 12.3226 570 107.382 866.812 476.193
2089 0 46.2363 9.3433 432 114.13 866.56 475.729
2090 0 51.3269 11.7482 603 107.521 866.552 474.35
2091 0 51.1698 11.2566 576 108.503 866.642 475.476
2092 0 51.3142 11.4198 586 109.469 866.674 474.019
2093 0 52.207 10.0944 527 112.679 866.609 474.129
2094 0 55.2044 11.9918 662 108.627 866.272 471.787
2095 0 54.1148 11.8267 640 109.978 866.736 471.895
2096 0 57.1003 12.1891 696 109.483 866.825 469.644
2097 0 58.1452 12.4344 723 109.061 866.916 469.477
2098 0 59.1738 10.4269 617 114.658 866.739 468.548
2099 0 63.1758 11.9666 756 110.261 867.795 468.59
2100 0 65.278 12.8834 841 109.165 866.95 466.807
2101 0 67.184 11.982 805 112.379 867.231 463.561
2102 0 70.1295 13.1329 921 109.959 866.894 464.922
2103 0 72.1788 12.4413 898 112.655 867.023 462.523
2104 0 76.292 13.658 1042 109.697 867.364 461.716
2105 0 79.2251 15.2098 1205 106.93 867.027 458.968
2106 0 82.2448 15.0891 1241 107.384 866.081 456.035
2107 0 82.2477 13.1311 1080 114.836 866.447 456.922
2108 0 85.2187 13.6472 1163 114.967 866.674 457.447
2109 1 43.1087 10.9259 471 115.163 866.669 475.902
2110 0 44.1111 11.4937 507 115.197 866.039 473.742
2111 0 47.1553 11.5151 543 110.32 866.882 475.44
2112 0 50.0426 13.5085 676 104.161 867.456 478.109
2113 0 51.0514 11.8508 605 108.15 867.283 477.86
2114 0 51.0658 12.102 618 109.244 867.948 477.508
2115 0 53.1119 11.6923 621 111.747 867.647 475.57
2116 0 52.0965 11.8818 619 113.725 867.7 474.645
2117 0 55.1073 12.1581 670 112.863 867.107 473.913
2118 0 59.0746 12.7805 755 110.63 866.783 472.956
2119 0 58.109 13.2682 771 111.1 867.165 471.856
2120 0 61.0687 12.7889 781 111.027 867.28 472.992
2121 0 62.0827 12.3223 765 114.286 867.107 470.156
2122 0 65.0469 11.853 771 116.3 866.949 469.619
2123 0 68.0704 12.5018 851 115.707 866.967 467.373
2124 0 71.0649 12.9881 923 114.223 866.855 466.931
2125 0 74.0487 13.1535 974 113.898 867.262 466.656
2126 0 78.0439 13.6077 1062 111.34 867.147 466.24
2127 0 80.0562 12.1789 975 115.812 867.224 464.933
2128 1 41.0171 10.2884 422 114.64 867.216 482.711
2129 0 41.0321 10.504 431 116.13 866.731 482.916
2130 0 43.0618 11.6809 503 115.187 867.103 479.712
2131 0 46.04 14.5309 669 107.007 867.348 478.031
2132 0 47.0746 12.8519 605 120.263 865.676 482.089
2133 0 47.0489 12.9227 608 120.421 866.41 481.035
2134 0 50.1073 13.3913 671 116.009 866.709 478.663
2135 0 51.082 13.8013 705 116.83 865.826 478.777
2136 0 54.0671 13.7607 744 116.13 865.601 478.207
2137 0 54.0299 13.3445 721 117.66 865.243 478.806
2138 0 56.0932 13.1745 739 118.237 865.668 477.536
2139 0 58.0671 13.846 804 116.673 865.338 474.347
2140 0 58.092 12.4458 723 121.628 865.639 475.296
2141 0 62.1124 13.8942 863 116.696 865.541 473.891
2142 0 64.0556 13.1136 840 118.185 865.899 471.837
2143 0 66.0569 13.7609 909 116.601 866.369 472.395
2144 0 68.1084 13.4932 919 118.213 866.471 468.408
2145 0 70.0185 13.8106 967 117.967 865.942 467.32
2146 0 74.3026 13.122 975 117.962 866.802 464.965
2147 0 73.1438 12.5369 917 121.45 866.551 463.559
2148 0 77.2509 14.071 1087 116.796 866.234 462.009
2149 0 81.1132 12.2052 990 121.72 866.556 464.544
2150 0 82.2262 13.3412 1097 118.971 866.388 459.798
2151 0 86.1643 13.7876 1188 117.469 866.763 458.523
2152 0 89.2468 12.9528 1156 119.123 867.192 458.168
2153 1 44.2941 11.3559 503 122.199 866.457 481.032
2154 0 47.1666 13.6749 645 114.805 866.591 478.741
2155 0 48.2198 10.9706 529 122.873 866.374 477.486
2156 0 50.0387 14.3689 719 112.719 865.93 479.072
2157 0 50.0678 12.4631 624 117.508 865.062 479.543
2158 0 53.0383 13.1414 697 115.512 865.516 476.737
2159 0 56.0153 12.0681 676 116.396 865.546 477.559
2160 0 56.0343 12.0997 678 116.569 866.184 476.308
2161 0 58.1727 12.6348 735 114.88 865.469 475.048
2162 0 60.0636 13.0029 781 114.478 866.001 474.347
2163 0 63.105 13.5805 857 112.078 865.716 470.88
2164 0 67.19 14.0944 947 109.794 865.302 470.266
2165 0 67.1146 13.3801 898 112.174 865.406 469.602
2166 0 71.0482 14.9898 1065 107.882 865.115 469.705
2167 0 72.0461 13.6163 981 112.117 864.796 469.027
2168 0 73.0829 13.1358 960 114.626 864.68 466.426
2169 0 77.082 13.7646 1061 112.411 864.881 464.474
2170 0 80.0873 14.172 1135 112.722 864.992 464.53
2171 0 83.0693 13.7114 1139 113.788 864.626 463.966
2172 0 87.2037 14.1164 1231 112.227 865.14 463.742
2173 0 88.1117 14.1865 1250 112.777 865.897 458.057
2174 0 92.1514 13.9879 1289 113.375 865.35 458.466
2175 0 96.1567 13.7796 1325 113.303 865.185 456.431
2176 1 45.1919 10.6214 480 117.217 866.021 480.038
2177 0 45.1016 11.2635 508 108.1 866.854 475.787
2178 0 47.0347 10.7155 504 108.933 866.5 476.629
2179 0 47.0261 11.1427 524 111.256 866.656 473.277
2180 0 52.068 12.7525 664 105.542 866.822 473.651
2181 0 54.0782 12.334 667 106.991 866.988 470.859
2182 0 56.0976 11.997 673 106.204 866.602 472.565
2183 0 56.0264 12.3156 690 106.443 866.658 469.983
2184 0 57.0266 10.8371 618 109.293 867.024 470.335
2185 0 62.1136 11.7366 729 107.067 867.263 468.162
2186 0 62.0269 10.3342 641 111.179 867.106 468.791
2187 0 66.0586 10.8843 719 109.43 866.911 468.042
2188 0 67.0178 12.3251 826 106.933 866.622 468.621
2189 0 72.029 12.7032 915 106.93 867.136 463.847
2190 0 73.0654 12.6188 922 108.151 867.289 463.793
2191 0 75.0543 11.525 865 111.024 867.336 461.814
2192 0 78.1071 11.1514 871 112.072 867.163 463.839
2193 0 82.0889 11.853 973 111.166 867.239 459.77
2194 0 83.0555 11.691 971 111.129 867.901 462.099
2195 0 85.0393 11.3124 962 112.182 867.946 460.849
2196 0 88.1326 11.5281 1016 112.945 867.746 456.937
2197 0 94.2363 11.7258 1105 111.211 867.595 456.619
2198 0 95.067 12.0441 1145 111.967 867.934 454.152
2199 0 100.123 12.0651 1208 112.008 866.522 454.268
2200 1 54.0848 11.7223 634 104.257 868.006 475.803
2201 0 58.0585 11.4195 663 105.397 867.21 477.002
2202 0 56.0524 11.3644 637 106.381 866.358 475.928
2203 0 60.0727 11.9855 720 104.607 867.087 473.857
2204 0 61.1274 11.157 682 105.519 867.037 475.17
2205 0 64.1854 13.2429 850 101.601 866.931 469.875
2206 0 67.1379 12.4818 838 103.008 866.724 471.353
2207 0 68.0596 12.6213 859 103.673 867.44 469.951
2208 0 72.1075 13.2025 952 101.666 867.851 468.651
2209 0 73.1807 11.7927 863 104.32 866.978 470.314
2210 0 76.1153 12.8883 981 102.899 867.125 465.246
2211 0 78.2578 11.6282 910 106.242 867.635 464.191
2212 0 83.279 11.7076 975 105.356 867.158 463.592
2213 0 84.1542 12.0137 1011 105.995 867.199 463.076
2214 0 86.2251 12.0962 1043 106.956 866.747 461.194
2215 0 90.1646 12.1001 1091 106.938 866.923 460.858
2216 1 46.0623 11.2456 518 106.653 867.048 480.461
2217 0 49.0992 11.5277 566 106.59 867.117 481.171
2218 0 48.0797 11.5225 554 108.327 868.108 478.327
2219 0 51.0133 11.4676 585 101.079 867.06 477.048
2220 0 52.0342 11.9537 622 101.005 867.413 475.37
2221 0 54.126 12.2123 661 101.722 866.808 475.109
2222 0 55.1618 12.3274 680 101.429 867.543 473.851
2223 0 56.0276 12.6366 708 101.645 866.527 474.023
2224 0 58.0211 12.2197 709 103.055 867.107 470.9
2225 0 60.0581 13.2039 793 100.791 867.445 471.851
2226 0 61.1447 13.9505 853 100.236 867.791 469.863
2227 0 63.1188 12.6428 798 103.006 866.565 471.301
2228 0 67.1572 13.461 904 101.119 866.538 469.944
2229 0 67.0604 12.6602 849 103.903 866.402 469.617
2230 0 68.1159 12.6843 864 104.833 866.191 466.571
2231 0 69.1157 11.9076 823 106.772 865.804 469.183
2232 0 71.1404 12.637 899 107.638 866.2 463.654
2233 0 73.1593 12.0832 884 108.917 866.382 464.697
2234 0 77.1106 12.0865 932 109.028 867.127 462.769
2235 0 78.2517 13.3543 1045 106.879 866.736 460.462
2236 0 80.0946 13.1095 1050 108.801 866.902 459.191
2237 0 85.2598 13.3944 1142 108.794 866.894 458.049
2238 0 86.0839 13.1383 1131 111.477 867.031 454.996
2239 0 91.0373 13.8185 1258 109.676 867.142 456.457
2240 0 94.1261 14.0981 1327 107.783 866.736 451.797
2241 1 47.102 10.9762 517 107.663 865.758 477.555
2242 0 50.0392 11.451 573 109.175 865.832 474.766
2243 0 52.1351 12.3334 643 103.353 867.443 472.857
2244 0 54.0718 12.4464 673 103.153 866.93 474.297
2245 0 54.0718 12.4094 671 119.331 866.931 474.274
2246 0 57.0911 11.613 663 104.05 867.112 471.505
2247 0 60.06 12.0879 726 103.988 866.698 471.921
2248 0 61.0505 11.9246 728 105.276 866.578 468.139
2249 0 64.0828 12.8272 822 102.989 866.58 469.88
2250 0 66.055 13.3828 884 102.105 866.807 467.481
2251 0 67.1343 12.5271 841 105.471 866.103 467.366
2252 0 70.0399 13.6494 956 103.039 866.714 467.39
2253 0 72.0725 13.0286 939 105.557 866.991 463.08
2254 0 72.0725 13.0008 937 124.211 867.994 463.131
2255 0 77.1121 11.7102 903 109.002 866.955 461.547
2256 0 80.1396 13.726 1100 105.735 866.766 459.589
2257 0 82.0993 13.2035 1084 106.534 866.984 462.269
2258 0 88.1075 13.8127 1217 105.95 866.652 461.58
2259 0 89.0835 13.3021 1185 107.848 866.51 460.434
2260 0 92.0895 13.7258 1264 107.261 866.749 459.324
2261 0 96.1437 13.4278 1291 107.754 865.892 460.548
2262 0 96.1285 13.534 1301 135.202 864.889 460.464
2263 0 102.079 13.6561 1394 112.396 864.758 463.077
2264 0 105.133 13.3069 1399 114.002 864.984 459.494
2265 1 57.052 12.9005 736 106.473 864.186 486.63
2266 0 57.0618 12.9509 739 133.881 864.16 486.686
2267 0 60.0723 11.919 716 109.197 864.337 484.288
2268 0 64.0608 13.2843 851 105.454 863.777 484.698
2269 0 65.052 13.1587 856 105.197 864.221 485.654
2270 0 68.1131 13.1399 895 104.61 864.555 484.445
2271 0 70.1565 12.13 851 107.875 863.847 481.286
2272 0 73.1334 14.2753 1044 101.877 864.111 480.447
2273 0 76.0529 12.5965 958 106.322 863.951 479.168
2274 0 76.0586 13.2792 1010 106.848 863.746 477.788
2275 0 82.0521 13.9667 1146 104.682 863.548 477.613
2276 0 81.188 12.9822 1054 108.803 863.271 474.218
2277 0 86.1699 14.6919 1266 104.795 862.847 473.176
2278 0 88.1319 13.2415 1167 109.177 862.893 474.112
2279 0 93.2602 13.6929 1277 110.154 862.211 471.318
2280 0 95.3213 14.7186 1403 109.676 861.754 468.044
2281 0 98.2581 13.6986 1346 112.651 861.533 465.043
2282 1 51.2338 11.8476 607 116.601 861.647 485.119
2283 0 52.1094 12.3778 645 114.496 861.557 488.6
2284 0 56.0834 13.4978 757 112.151 860.04 485.584
2285 0 55.1434 12.803 706 116.132 860.89 484.013
2286 0 56.1571 13.7649 773 114.721 860.397 482.22
2287 0 58.1705 11.7413 683 118.305 860.98 481.514
2288 0 64.0996 13.4322 861 112.252 860.662 482.789
2289 0 66.099 13.0411 862 114.007 859.966 481.376
2290 0 67.126 12.5287 841 115.534 860.347 481.48
2291 0 70.1697 13.0398 915 114.27 860.836 479.944
2292 0 75.1566 14.5962 1097 109.736 860.994 477.878
2293 0 75.2086 13.0836 984 114.499 860.155 478.052
2294 0 81.1444 13.9135 1129 111.35 860.626 475.931
2295 0 81.2225 13.5184 1098 113.54 860.914 476.114
2296 0 84.1615 13.0939 1102 114.374 860.959 474.907
2297 0 89.1703 14.7919 1319 110.23 860.967 470.961
2298 0 90.2003 14.4345 1302 111.58 860.438 469.834
2299 0 93.1671 14.3076 1333 111.671 860.44 468.45
2300 0 98.2057 14.4289 1417 110.936 860.565 468.387
2301 1 52.0413 11.3564 591 110.186 862.457 491.283
2302 0 53.1036 11.9389 634 109.976 861.915 489.937
2303 0 57.078 12.3515 705 110.489 859.739 486.349
2304 0 58.0699 13.9659 811 106.649 860.165 488.203
2305 0 61.1436 13.7218 839 106.383 861.101 486.681
2306 0 62.1457 13.6775 850 106.606 860.987 486.64
2307 0 66.1174 13.7785 911 105.673 861.323 484.418
2308 0 69.133 14.3057 989 104.387 861.508 481.85
2309 0 70.0552 12.3046 862 108.86 861.253 481.964
2310 0 72.1496 14.7056 1061 103.478 861.433 478.954
2311 0 75.1292 12.2323 919 108.303 860.902 478.107
2312 0 77.0651 12.5868 970 107.844 861.488 476.72
2313 0 82.1173 14.4549 1187 102.7 861.059 476.641
2314 0 84.1116 14.3262 1205 103.451 860.942 473.817
2315 0 85.2004 12.6408 1077 108.071 861.079 471.753
2316 0 88.1347 13.695 1207 106.49 861.367 471.853
2317 0 91.0839 13.2735 1209 106.607 861.519 471.352
2318 1 45.0165 11.3292 510 105.594 862.124 493.314
2319 0 46.0308 11.8399 545 103.956 862.349 491.084
2320 0 49.0645 11.2912 554 101.525 861.668 492.043
2321 0 50.054 11.7273 587 100.087 862.385 491.729
2322 0 51.1035 10.9777 561 102.998 862.451 488.961
2323 0 52.0126 11.5164 599 101.429 863.062 489.549
2324 0 52.0473 11.1821 582 103.964 862.182 487.261
2325 0 55.1055 12.4488 686 100.055 862.534 488.481
2326 0 59.0258 12.2319 722 100.413 862.429 486.416
2327 0 58.0907 11.5681 672 103.533 862.418 486.024
2328 0 62.0413 12.2338 759 101.026 862.253 484.047
2329 0 63.0292 13.0574 823 100.362 862.078 482.628
2330 0 65.1336 13.4339 875 100.072 862.107 481.027
2331 0 66.0775 11.8951 786 103.392 862.427 479.655
2332 0 70.0755 12.6863 889 102.296 862.169 479.533
2333 0 73.0612 12.2226 893 101.185 862.679 477.733
2334 0 72.0608 10.3524 746 106.113 862.292 475.637
2335 0 75.1014 11.9572 898 103.095 861.937 474.147
2336 0 79.1519 10.6504 843 103.879 862.403 476.209
2337 0 85.1469 13.2242 1126 99.8659 862.76 473.057
2338 0 84.2176 12.5389 1056 103.352 862.298 469.558
2339 0 86.1869 12.1944 1051 104.654 862.692 467.478
2340 1 48.023 12.6606 608 101.457 863.118 486.597
2341 0 49.0669 10.2717 504 99.5496 861.986 479.569
2342 0 48.0151 10.3926 499 99.3026 862.186 481.01
2343 0 50.0859 10.6817 535 99.5477 862.486 481.48
2344 0 49.1218 8.99803 442 103.5 862.532 480.303
2345 0 52.0878 11.1926 583 104.691 862.305 481.64
2346 0 56.0778 11.5197 646 102.954 863.231 482.128
2347 0 57.1807 11.4724 656 103.502 862.518 480.149
2348 0 60.193 11.8286 712 101.619 862.756 480.228
2349 0 60.1388 10.376 624 106.16 863.599 478.26
2350 0 63.0471 11.42 720 103.487 863.294 475.896
2351 0 66.094 12.0283 795 103.392 862.869 473.635
2352 0 68.0976 11.087 755 105.17 863.497 474.008
2353 0 72.1303 12.9211 932 101.413 863.649 470.311
2354 0 73.1676 11.5352 844 105.359 863.756 471.226
2355 0 76.1017 12.5621 956 101.412 863.538 470.161
2356 0 78.1139 12.2897 960 102.272 863.69 470.082
2357 0 80.1956 10.3746 832 106.847 863.731 467.513
2358 1 39.0567 10.3951 406 108.645 864.956 485.8
2359 0 40.037 11.0897 444 106.865 865.824 485.7
2360 0 41.0395 11.9885 492 111.083 865.707 484.189
2361 0 44.1409 12.4148 548 110.934 866.252 484.714
2362 0 43.0601 13.098 564 113.115 865.567 484.413
2363 0 44.0083 12.0432 530 116.791 865.949 484.174
2364 0 43.023 11.9704 515 118.12 866.219 482.501
2365 0 45.0331 11.7913 531 119.433 866.32 482.435
2366 0 45.0459 13.4085 604 118.46 866.295 480.987
2367 0 49.0598 13.6364 669 115.049 865.83 480.951
2368 0 49.0249 13.7889 676 116.735 865.294 480.787
2369 0 51.0093 13.1937 673 118.065 865.281 480.92
2370 0 53.0659 13.1158 696 118.609 865.884 480.395
2371 0 54.0367 13.6204 736 118.886 866.177 479.488
2372 0 57.1347 13.1094 749 120.223 866.179 478.789
2373 0 57.0752 13.6662 780 121.717 865.794 478.078
2374 0 60.1164 13.9396 838 121.388 866.072 478.227
2375 0 62.0731 13.613 845 122.088 865.595 476.911
2376 0 64.0809 14.0603 901 121.206 865.765 475.912
2377 0 66.1444 14.2264 941 122.401 865.581 474.39
2378 0 67.0254 12.0999 811 129.351 866.54 473.128
2379 0 69.0248 13.7777 951 125.242 865.842 472.138
2380 0 71.0488 13.2866 944 127.303 865.39 470.788
2381 0 74.0508 13.1126 971 128.903 865.993 469.996
2382 0 79.0846 15.5656 1231 121.766 865.705 468.639
2383 1 41.0271 11.9921 492 129.996 865.825 486.626
2384 0 43.0309 12.9674 558 125.914 866.348 486.566
2385 0 44.037 13.4433 592 119.519 865.899 486.432
2386 0 46.031 13.4475 619 120.137 864.674 484.706
2387 0 48.0819 13.477 648 120.194 864.42 483.761
2388 0 48.1193 13.8614 667 120.829 864.378 483.09
2389 0 50.1478 12.4033 622 125.555 864.072 483.392
2390 0 53.0632 14.5487 772 118.223 864.751 482.793
2391 0 53.1179 14.4772 769 120.432 864.51 481.066
2392 0 53.0684 13.3789 710 125.563 864.596 481.238
2393 0 56.0582 13.7179 769 124.337 864.078 480.707
2394 0 57.0489 13.5147 771 124.674 864.523 480.178
2395 0 59.0841 14.5555 860 121.974 864.08 478.878
2396 0 60.0522 13.6548 820 124.494 864.487 477.898
2397 0 63.0403 14.1179 890 121.883 863.944 477.548
2398 0 64.1435 13.3763 858 122.775 864.674 476.992
2399 0 67.1287 13.8987 933 119.428 864.507 473.496
2400 0 69.0507 13.4684 930 120.292 864.717 472.873
2401 0 70.0897 12.8692 902 122.07 864.586 472.795
2402 0 73.1249 13.812 1010 119.242 864.641 470.363
2403 0 77.2326 14.2556 1101 117.233 864.929 468.697
2404 0 79.1719 14.0327 1111 117.289 864.426 468.769
2405 1 41.0435 11.7924 484 121.618 865.045 487.372
2406 0 43.1019 11.1364 480 123.542 864.858 485.267
2407 0 46.1118 13.6841 631 115.433 864.605 485.575
2408 0 46.0832 13.9747 644 115.418 864.963 484.393
2409 0 47.1676 13.2506 625 117.55 865.618 483.053
2410 0 48.1409 12.9204 622 118.027 865.695 483.167
2411 0 51.1485 12.9231 661 117.708 865.216 482.174
2412 0 53.1369 13.437 714 116.776 864.71 481.231
2413 0 53.1526 13.0191 692 119.945 865.1 479.065
2414 0 55.1707 12.996 717 119.04 865.124 479.561
2415 0 56.148 12.7876 718 120.925 865.39 478.391
2416 0 60.0634 13.6356 819 118.204 865.552 476.505
2417 0 60.1001 12.396 745 120.515 864.86 477.334
2418 0 61.1171 12.8606 786 121.193 864.454 475.333
2419 0 63.1012 13.5972 858 119.044 864.494 472.2
2420 0 65.3926 13.1972 863 120.27 864.819 469.49
2421 0 68.3276 13.0548 892 120.531 864.474 468.096
2422 0 70.2105 13.5735 953 118.395 864.307 467.676
2423 0 70.5339 11.9233 841 122.124 864.99 467.778
2424 0 75.4854 12.5057 944 119.461 864.317 466.528
2425 0 78.4717 13.0875 1027 118.585 864.538 464.628
2426 0 77.5104 12.2177 947 122.857 865.18 463.04
2427 0 82.6419 13.3104 1100 119.573 865.16 462.657
2428 0 85.2941 12.9669 1106 120.045 864.685 462.915
2429 0 88.2318 12.4105 1095 123.068 864.508 459.995
2430 0 92.2025 13.3294 1229 120.799 864.424 460.461
2431 0 93.3209 12.3659 1154 124.324 864.607 458.615
2432 0 99.3211 13.9245 1383 120.181 864.801 455.356
2433 1 50.1315 10.5722 530 125.036 864.528 477.97
2434 0 51.0776 10.8071 552 124.696 865.232 477.25
2435 0 56.0647 12.7531 715 118.358 865.032 475.565
2436 0 58.1531 12.811 745 117.718 866.052 473.838
2437 0 60.176 13.2445 797 115.745 865.759 474.479
2438 0 63.1805 13.8967 878 113.935 865.434 469.959
2439 0 63.1232 12.9429 817 117.685 866.165 470.996
2440 0 68.1667 13.6577 931 115.05 865.945 470.231
2441 0 69.089 13.5622 937 117.578 866.351 468.869
2442 0 73.0825 12.2738 897 120.849 866.491 462.686
2443 0 75.0751 14.319 1075 117.213 866.517 459.791
2444 0 78.1748 13.8536 1083 118.612 866.56 461.134
2445 0 80.1604 13.0488 1046 124.239 866.356 458.604
2446 0 81.2292 13.6404 1108 124.256 865.986 455.972
2447 0 85.1452 14.3989 1226 122.912 866.474 457.03
2448 0 87.1761 13.249 1155 127.581 866.242 456.727
2449 0 90.1995 13.4591 1214 128.138 865.769 455.872
2450 0 93.2555 13.9187 1298 127.234 865.797 458.078
2451 0 96.2527 13.2464 1275 129.59 865.916 456.409
2452 0 100.174 13.5264 1355 128.891 865.161 455.9
2453 1 53.1796 13.1065 697 125.502 866.306 477.681
2454 0 54.075 11.3546 614 130.191 865.682 479.311
2455 0 55.1184 12.2826 677 132.133 866.202 476.388
2456 0 58.3052 13.6523 796 132.344 865.818 474.819
2457 0 61.1911 14.0543 860 130.326 866.181 471.142
2458 0 64.1577 14.3241 919 130.149 866.597 469.236
2459 0 66.1971 14.1698 938 130.193 866.011 469.412
2460 0 67.3244 14.1256 951 130.351 865.364 466.254
2461 0 69.1186 14.9309 1032 124.509 865.762 467.062
2462 0 72.097 12.6774 914 130.619 866.361 466.175
2463 0 73.1344 13.3453 976 129.15 866.642 466.041
2464 0 75.1852 12.303 925 132.054 866.071 463.656
2465 0 80.2083 13.44 1078 127.606 865.732 459.497
2466 0 84.1553 12.6908 1068 129.394 866.715 457.6
2467 0 85.1893 13.2176 1126 128.948 866.333 456.288
2468 0 88.2522 13.824 1220 126.477 866.269 455.833
2469 0 92.0891 13.3349 1228 126.239 866.884 456.529
2470 0 96.0885 13.0713 1256 126.526 866.486 455.409
2471 0 97.0868 13.0605 1268 127.999 865.66 453.649
2472 0 101.146 12.3287 1247 126.516 865.976 452.135
2473 0 104.276 12.908 1346 125.973 865.895 450.978
2474 1 55.1755 10.2038 563 125.764 865.844 473.68
2475 0 57.1558 10.6726 610 122.285 865.677 471.285
2476 0 62.0744 11.0674 687 116.306 866.047 472.294
2477 0 62.0741 11.5829 719 115.669 867.095 468.497
2478 0 65.1825 11.6903 762 114.689 866.291 467.261
2479 0 68.1214 13.4906 919 109.876 866.279 467.081
2480 0 71.0513 11.0343 784 115.728 866.129 464.098
2481 0 72.0915 10.4728 755 115.538 865.921 463.599
2482 0 76.1795 10.3046 785 115.405 866.889 459.648
2483 0 78.1796 10.527 823 114.278 866.711 457.776
2484 0 81.1311 10.7973 876 113.54 866.315 455.968
2485 0 83.224 10.4657 871 114.184 866.545 454.913
2486 0 86.1836 11.2202 967 113.016 866.286 455.834
2487 0 91.1596 12.4617 1136 110.032 866.098 454.018
2488 1 49.0722 9.63886 473 104.983 866.822 478.412
2489 0 51.1289 10.5029 537 105.123 866.181 474.19
2490 0 55.0612 12.7131 700 99.5114 866.193 472.876
2491 0 53.3008 10.4689 558 105.247 865.448 471.97
2492 0 57.1855 11.384 651 101.664 865.273 471.697
2493 0 58.1527 10.4896 610 105.426 865.205 469.964
2494 0 60.1646 12.1666 732 101.71 864.877 470.406
2495 0 60.0984 11.9304 717 103.349 866.032 468.801
2496 0 64.0626 11.0361 707 104.798 866.567 468.294
2497 0 64.192 9.72083 624 107.926 866.383 464.627
2498 0 66.1641 11.6075 768 104.759 866.029 462.02
2499 0 68.1145 10.8934 742 107.09 865.865 461.243
2500 0 71.2482 11.102 791 106.75 866.111 462.558
2501 0 74.1321 12.4103 920 103.787 866.424 462.787
2502 0 77.0947 13.1137 1011 103.507 866.082 459.318
2503 0 79.1954 11.0486 875 109.601 866.083 457.01
2504 0 82.2919 11.6658 960 108.793 866.292 457.097
2505 0 84.1423 10.9339 920 111.124 866.108 457.171
2506 0 89.1229 13.0157 1160 106.576 866.036 455.214
2507 1 49.0474 10.8263 531 108.684 866.589 472.552
2508 0 52.164 10.582 552 108.016 867.19 470.549
2509 0 52.2424 9.97274 521 111.816 866.574 471.827
2510 0 54.0667 12.651 684 103.184 866.558 473.161
2511 0 53.0641 9.91255 526 111.053 867.135 472.692
2512 0 58.0641 12.9168 750 103.941 866.731 471.652
2513 0 59.0932 11.2365 664 108.619 866.178 470.569
2514 0 60.1019 10.6153 638 110.665 866.513 470.415
2515 0 60.1507 10.7896 649 111.649 866.86 468.092
2516 0 64.1561 12.1423 779 108.003 866.445 467.462
2517 0 62.1042 10.579 657 113.417 865.861 465.644
2518 0 66.1512 11.9423 790 110.325 866.332 465.581
2519 0 71.1362 11.9067 847 108.242 866.46 464.897
2520 0 73.1414 13.5764 993 105.077 866.451 464.517
2521 0 74.2564 12.7531 947 108.203 866.656 462.089
2522 0 77.1833 13.0598 1008 107.691 866.307 461.767
2523 0 80.2063 13.0912 1050 108.713 866.997 460.337
2524 0 80.1216 11.8695 951 114.067 865.986 460.02
2525 0 82.115 11.6909 960 115.24 865.994 459.061
2526 0 86.1735 11.6509 1004 115.861 866.178 457.113
2527 0 90.1399 13.0242 1174 112.754 866.313 455.598
2528 0 92.2721 11.9429 1102 115.409 866.3 454.294
2529 0 95.2193 12.2139 1163 115.096 866.362 453.005
2530 0 97.1573 11.4968 1117 117.887 866.811 450.103
2531 1 58.1682 12.1372 706 111.637 866.193 470.409
2532 0 58.3083 12.1081 706 105.955 865.841 466.144
2533 0 57.039 10.0633 574 108.486 866.695 463.747
2534 0 59.0167 9.92939 586 106.94 865.514 466.075
2535 0 61.0411 10.583 646 105.498 865.553 464.426
2536 0 62.1554 11.2621 700 104.324 866.413 465.679
2537 0 67.1105 12.5316 841 107.836 865.441 467.315
2538 0 69.1742 11.4927 795 110.044 865.206 466.303
2539 0 70.1419 11.7904 827 110.146 864.948 464.387
2540 0 74.058 12.8143 949 107.239 864.509 462.732
2541 0 74.1181 11.3333 840 110.865 864.606 462.36
2542 0 76.1518 11.2801 859 112.183 864.736 461.122
2543 0 80.068 12.3895 992 109.25 864.593 459.898
2544 0 83.098 12.5755 1045 108.978 865.003 457.285
2545 0 85.094 14.3253 1219 105.955 865.369 455.938
2546 0 85.1154 11.6313 990 111.886 865.618 453.309
2547 0 89.1419 13.4505 1199 108.08 865.419 451.616
2548 0 89.2139 11.6798 1042 112.951 865.635 447.469
2549 0 94.1114 12.1346 1142 111.543 866.218 445.493
2550 1 49.2312 9.18117 452 112.137 866.841 466.075
2551 0 55.1122 10.9595 604 106.275 866.164 468.492
2552 0 52.09 10.1939 531 106.473 867.011 465.998
2553 0 56.0197 11.6209 651 103.965 867.181 462.453
2554 0 55.0432 10.8279 596 102.817 865.961 464.7
2555 0 58.1963 11.8049 687 100.298 865.769 462.064
2556 0 60.1979 10.7147 645 101.564 866.595 463.105
2557 0 60.1957 10.6984 644 123.28 866.623 463.203
2558 0 62.204 9.79037 609 103.969 866.018 456.92
2559 0 65.2025 11.2112 731 101.323 866.361 459.94
2560 0 68.1565 12.0605 822 99.2859 866.432 458.276
2561 0 67.0754 11.2262 753 101.479 867.141 455.915
2562 0 72.1947 13.1589 950 97.6716 866.539 454.373
2563 0 73.2224 11.868 869 101.513 866.231 454.076
2564 0 78.1204 11.2647 880 102.955 866.29 453.64
2565 0 77.1508 11.3155 873 104.982 866.834 450.514
2566 0 80.1204 11.4453 917 104.182 866.056 451.851
2567 0 83.2331 11.654 970 104.812 866.054 447.916
2568 0 88.18 13.4384 1185 101.616 865.617 446.252
2569 0 92.2614 13.982 1290 102.349 865.555 447.019
2570 0 94.2168 13.055 1230 104.223 865.815 444.414
2571 0 94.2539 11.0022 1037 108.649 866.085 439.411
2572 0 99.3623 11.7852 1171 107.88 866.383 438.202
2573 1 50.2071 8.56452 430 107.184 866.456 461.926
2574 0 55.1163 10.8316 597 102.402 866.544 461.054
2575 0 60.1015 10.7651 647 105.725 865.485 465.21
2576 0 60.0874 10.984 660 103.977 865.792 465.248
2577 0 65.0781 11.8934 774 101.857 865.522 464.691
2578 0 64.055 10.4285 668 105.566 864.984 462.111
2579 0 69.0587 11.3382 783 102.419 865.137 464.605
2580 0 71.2066 11.9511 851 101.94 864.92 462.102
2581 0 74.0898 11.891 881 103.118 865.403 460.009
2582 0 77.1576 13.1808 1017 101.094 864.579 460.293
2583 0 77.1576 13.0771 1009 127.492 864.594 460.271
2584 0 80.1404 12.3284 988 105.288 865.87 456.037
2585 0 82.3005 12.9525 1066 103.819 865.189 457.965
2586 0 87.1925 13.4415 1172 103.549 865.231 455.165
2587 0 89.1501 13.2137 1178 105.092 865.775 454.025
2588 0 93.2227 14.2669 1330 102.481 866.52 456.138
2589 0 95.2292 13.9243 1326 105.762 866.341 450.433
2590 0 99.0786 13.5448 1342 100.649 866.528 452.893
2591 0 99.1086 12.2593 1215 105.602 866.455 447.549
2592 0 104.169 12.4894 1301 105.46 866.648 446.988
2593 1 56.1737 10.7524 604 101.659 867.561 470.833
2594 0 57.0981 12.0494 688 98.657 867.339 469.741
2595 0 60.0878 11.5664 695 104.381 868.091 470.109
2596 0 61.0556 12.7261 777 100.995 867.315 472.103
2597 0 60.0683 11.154 670 105.728 867.657 469.784
2598 0 65.0704 13.4623 876 101.555 867.697 467.24
2599 0 66.0807 14.4823 957 100.511 868.161 467.102
2600 0 67.0839 14.057 943 102.152 867.957 469.178
2601 0 70.0809 12.5997 883 105.995 868.492 465.914
2602 0 73.1357 13.181 964 106.095 867.452 463.354
2603 0 74.0939 13.0375 966 107.175 868.014 465.913
2604 0 74.1115 11.8065 875 112.189 867.945 462.464
2605 0 78.1179 12.8012 1000 108.691 868.132 461.54
2606 0 81.1031 12.7739 1036 111.244 867.518 460.139
2607 0 82.1366 13.2828 1091 111.082 867.679 458.475
2608 0 87.1131 14.154 1233 109.31 867.38 456.118
2609 0 90.2608 13.8155 1247 111.003 867.775 455.303
2610 0 91.125 13.2785 1210 112.899 868.164 454.421
2611 0 93.0956 12.9437 1205 115.572 867.857 450.882
2612 0 98.2624 15.0108 1475 110.826 866.953 450.307
2613 0 101.159 15.1741 1535 109.042 867.673 452.219
2614 0 103.087 14.2113 1465 112.15 867.767 450.266
2615 0 104.185 13.2841 1384 117.642 867.218 445.027
2616 0 111.218 14.4491 1607 113.658 867.367 445.928
2617 0 113.106 12.8463 1453 116.747 867.073 446.355
2618 0 116.132 12.193 1416 120.388 866.701 441.991
2619 1 64.1429 10.7416 689 116.347 867.652 467.225
2620 0 67.1798 12.7122 854 110.126 867.102 465.957
2621 0 71.1254 13.8066 982 106.621 867.866 467.667
2622 0 74.0893 14.496 1074 105.222 868.147 465.406
2623 0 75.0861 13.358 1003 109.267 867.559 465.416
2624 0 78.0587 12.0806 943 112.135 867.926 465.989
2625 0 79.1374 12.3709 979 112.846 867.754 464.857
2626 0 83.1448 13.3622 1111 110.397 867.5 464.104
2627 0 87.104 13.4437 1171 111.533 867.699 461.208
2628 0 89.0722 13.4947 1202 112.434 867.643 461.439
2629 0 91.0773 12.1216 1104 117.486 867.563 460.547
2630 0 94.0674 12.0127 1130 118.934 867.558 459.566
2631 0 98.135 13.6343 1338 116.59 867.271 457.04
2632 0 101.277 12.8558 1302 119.364 866.684 455.729
2633 1 55.0634 12.8761 709 113.309 867.113 477.886
2634 0 57.117 12.238 699 112.983 867.049 478.416
2635 0 58.0934 13.4267 780 113.942 866.532 475.287
2636 0 59.1011 13.4177 793 114.579 866.647 475.879
2637 0 61.0969 13.3231 814 116.428 866.049 474.268
2638 0 62.0487 13.8117 857 115.839 865.839 473.413
2639 0 65.0873 12.9979 846 116.184 865.947 473.689
2640 0 66.1368 15.0899 998 112.618 865.856 472.372
2641 0 69.2034 13.0196 901 117.393 865.636 469.619
2642 0 70.0508 13.1619 922 117.812 866.19 469.005
2643 0 73.0684 12.8236 937 117.59 865.358 470.296
2644 0 77.0664 13.9101 1072 115.034 865.452 468.237
2645 0 79.0884 14.0855 1114 115.733 865.822 465.592
2646 0 81.0835 13.1963 1070 118.408 865.484 465.08
2647 0 82.1047 12.886 1058 119.895 865.506 464.526
2648 0 85.0952 14.5484 1238 116.604 865.357 462.1
2649 0 86.1114 13.889 1196 118.707 865.642 459.978
2650 0 89.1396 14.4268 1286 117.628 865.25 459.953
2651 0 92.0838 13.8787 1278 119.809 865.495 459.279
2652 0 95.1099 15.1194 1438 117.054 865.59 458.487
2653 0 98.1048 13.5569 1330 122.162 864.374 456.948
2654 0 99.0902 12.9074 1279 124.252 864.672 456.16
2655 0 102.102 13.5355 1382 123.392 865.238 454.594
2656 0 105.056 13.9164 1462 122.611 864.497 453.348
2657 0 111.141 14.4501 1606 120.616 864.506 451.369
2658 0 112.098 13.5328 1517 124.755 864.699 445.792
2659 0 117.109 13.6369 1597 123.446 864.485 447.984
2660 0 121.147 13.496 1635 123.856 864.378 444.624
2661 0 126.275 14.0725 1777 122.35 864.246 439.734
2662 0 131.233 14.7829 1940 119.92 864.754 440.556
2663 0 135.086 14.4131 1947 121.375 865.27 436.316
2664 0 140.217 14.3849 2017 122.209 864.688 433.77
2665 0 144.163 14.9414 2154 120.772 864.86 432.864
2666 0 150.176 14.7826 2220 121.747 864.725 427.216
2667 0 153.199 14.8957 2282 121.936 864.539 425.116
2668 0 158.18 14.8186 2344 121.992 864.521 428.206
2669 0 162.242 14.7003 2385 122.621 864.376 423.012
2670 0 164.244 14.5029 2382 124.639 864.961 421.242
2671 0 170.123 14.4131 2452 125.462 864.291 417.909
2672 0 177.123 15.1194 2678 124.1 863.731 413.849
2673 0 183.262 14.9295 2736 124.205 864.392 415.315
2674 0 184.161 14.08 2593 128.575 863.868 406.8
2675 0 191.378 14.5262 2780 126.853 863.92 406.618
2676 0 198.338 14.9795 2971 125.172 864.259 404.98
2677 0 204.302 15.4428 3155 124.817 864.292 399.587
2678 0 212.388 15.6977 3334 123.249 863.858 397.133
2679 0 218.389 15.857 3463 123.335 864.077 391.422
2680 0 227.332 15.5323 3531 124.423 864.313 390.85
2681 0 234.467 14.5607 3414 128.161 864.296 386.339
2682 0 242.43 16.2274 3934 124.881 864.247 385.474
2683 0 250.347 16.545 4142 124.407 864.329 374.764
2684 0 257.461 14.7479 3797 129.935 864.687 373.544
2685 0 265.334 15.4937 4111 129.143 863.85 368.725
2686 0 274.34 15.4844 4248 130.181 864.276 368.549
2687 1 218.36 9.89649 2161 136.85 864.069 410.974
2688 0 219.285 10.6026 2325 138.077 864.344 409.183
2689 0 221.351 11.2717 2495 136.356 864.514 411.744
2690 0 222.283 12.8845 2864 138.066 864.642 400.723
2691 0 231.277 15.3928 3560 135.087 864.263 392.888
2692 0 238.362 14.8975 3551 133.466 865.098 391.396
2693 0 244.267 14.1525 3457 136.034 864.718 384.397
2694 0 252.417 13.8144 3487 140.456 865.002 379.247
2695 0 263.284 15.5155 4085 135.09 864.442 377.706
2696 0 271.344 14.9552 4058 137.84 864.697 371.252
2697 0 282.421 14.8643 4198 138.227 865.039 361.985
2698 0 292.376 14.5703 4260 138.967 864.817 360.505
2699 1 311.526 23.7508 7399 111.577 865.092 327.733
2700 1 225.233 13.3906 3016 141.402 865.289 384.71
2701 0 234.216 14.3671 3365 139.015 864.74 387.265
2702 0 240.267 15.1456 3639 137.741 864.853 381.158
2703 0 249.252 14.4994 3614 139.796 864.937 379.791
2704 0 258.288 15.1575 3915 138.015 864.648 376.553
2705 0 269.206 15.0034 4039 139.508 864.494 365.325
2706 1 52.1145 9.76695 509 119.13 863.505 475.65
2707 0 56.0831 9.84253 552 120.761 864.277 469.58
2708 0 57.1144 12.3086 703 119.353 863.519 471.542
2709 0 60.1645 12.1999 734 120.094 865.289 473.842
2710 0 61.1728 12.0151 735 121.95 865.079 473.459
2711 0 62.3123 11.7954 735 122.713 865.589 473.864
2712 0 64.3125 13.5277 870 118.966 865.294 473.591
2713 0 67.1696 12.9672 871 120.152 865.002 469.54
2714 0 68.1284 10.9499 746 121.736 864.8 469.174
2715 0 70.2214 12.8309 901 116.293 864.87 466.371
2716 0 70.1618 10.7038 751 124.513 865.138 466.527
2717 0 72.1454 10.7006 772 121.39 865.21 463.368
2718 0 77.201 11.347 876 120.896 865.063 463.316
2719 0 78.2915 11.1506 873 118.159 865.205 459.661
2720 0 81.1732 10.6932 868 121.141 864.971 462.771
2721 0 85.1797 12.4208 1058 116.154 864.746 461.284
2722 0 88.1687 11.7502 1036 118.252 864.611 457.34
2723 1 110.669 15.0991 1671 98.5308 864.727 440.798
2724 0 106.436 15.2862 1627 102.862 864.817 442.748
2725 0 112.346 14.2774 1604 104.801 864.724 443.514
2726 0 115.329 18.7031 2157 92.9003 864.481 437.009
2727 0 114.357 19.2642 2203 93.2215 864.646 433.049
2728 0 104.298 15.0818 1573 111.173 864.634 443.887
2729 0 107.42 16.0771 1727 109.047 864.561 442.57
2730 0 111.399 17.1546 1911 106.858 865.517 442.483
2731 0 111.392 15.9168 1773 112.041 865.915 441.312
2732 0 112.399 15.4005 1731 115.515 865.243 438.887
2733 0 115.4 15.9532 1841 114.859 865.261 437.903
2734 0 117.356 15.4658 1815 117.951 865.259 435.864
2735 0 121.385 17.3498 2106 113.701 864.999 434.214
2736 0 124.361 17.4895 2175 114.173 865.021 433.097
2737 0 126.315 15.8255 1999 120.302 864.873 430.907
2738 0 131.41 16.148 2122 120.357 865.126 430.144
2739 0 131.323 15.2524 2003 125.162 865.11 429.748
2740 0 136.317 15.3539 2093 125.52 864.891 428.046
2741 0 142.296 16.6554 2370 122.399 865.024 424.672
2742 0 147.397 17.0628 2515 121.414 864.638 423.113
2743 0 151.377 15.7884 2390 126.454 864.946 417.54
2744 0 154.218 15.53 2395 128.686 865.153 414.311
2745 0 160.257 16.3425 2619 126.037 865.766 415.846
2746 0 165.403 15.4471 2555 129.265 865.929 413.193
2747 1 89.1793 10.72 956 129.007 865.771 455.607
2748 0 93.1647 12.011 1119 125.973 866.08 455.183
2749 0 95.1553 12.5269 1192 125.753 866.173 456.585
2750 0 98.1338 11.6372 1142 129.86 866.179 452.334
2751 0 100.09 11.4897 1150 130.591 865.547 452.71
2752 0 103.151 11.3232 1168 131.536 866.7 451.789
2753 0 106.27 11.1038 1180 133.997 865.68 446.015
2754 0 109.226 12.2956 1343 131.143 866.185 444.208
2755 1 63.1538 10.9257 690 123.58 866.684 469.065
2756 0 64.1175 11.4321 733 122.293 866.202 469.718
2757 0 67.0878 11.552 775 123.415 867.359 471.912
2758 0 66.1138 11.7373 776 122.991 867.915 473.847
2759 0 68.1188 10.4376 711 123.1 867.509 470.37
2760 0 72.0609 12.1425 875 117.058 866.457 469.309
2761 0 71.0679 11.8619 843 118.919 866.738 467.098
2762 0 75.0759 11.6282 873 118.087 867.189 467.283
2763 0 75.0209 11.93 895 118.455 867.065 466.482
2764 0 79.1394 12.4338 984 116.482 866.467 466.34
2765 0 81.1059 12.157 986 118.105 867.042 463.259
2766 0 83.1059 12.3818 1029 117.371 866.927 461.718
2767 0 86.0886 12.1735 1048 117.054 866.627 462.927
2768 0 86.1615 11.7338 1011 125.765 865.885 460.799
2769 0 90.06 11.7921 1062 122.754 867.091 459.339
2770 0 94.1391 11.2493 1059 123.724 867.942 456.902
2771 0 97.1152 10.9046 1059 124.198 867.724 453.598
2772 0 98.0745 11.1548 1094 122.224 867.088 452.212
2773 0 105.319 11.0901 1168 120.075 867.108 452.007
2774 1 54.1198 9.97787 540 111.789 867.494 475.259
2775 0 56.2106 11.2612 633 108.656 867.58 476.758
2776 0 56.1217 12.2769 689 109.154 867.502 476.972
2777 0 59.1987 11.3854 674 109.274 867.058 477.187
2778 0 59.1242 11.1799 661 110.381 866.991 475.082
2779 0 62.2477 11.149 694 108.647 866.707 474.937
2780 0 63.1584 11.3841 719 109.015 866.869 474.579
2781 0 66.1291 12.0975 800 106.552 866.361 473.134
2782 0 65.2899 11.3034 738 114.377 866.645 471.486
2783 0 68.2314 12.2378 835 110.716 866.492 471.86
2784 0 70.272 11.1282 782 112.145 866.188 471.228
2785 0 73.3361 11.5632 848 110.939 865.807 469.2
2786 0 75.3212 12.148 915 110.437 866.022 468.553
2787 0 75.1172 11.1293 836 111.407 866.262 469.055
2788 0 81.2378 12.3218 1001 108.862 865.857 465.367
2789 0 84.2559 11.1684 941 110.697 865.746 464.553
2790 0 86.3642 11.9031 1028 109.076 866.033 460.174
2791 0 90.2994 12.0156 1085 109.153 865.806 459.735
2792 1 47.0861 11.256 530 104.183 867.149 481.962
2793 0 49.2136 11.7041 576 105.62 866.847 480.927
2794 0 52.0991 13.0521 680 106.282 867.257 480.538
2795 0 52.0507 12.7376 663 108.483 866.792 479.531
2796 0 53.161 12.1141 644 109.27 866.981 478.112
2797 0 56.0668 12.8061 718 108.003 867.007 477.958
2798 0 58.0411 14.4553 839 103.489 867.013 477.679
2799 0 58.1425 13.1401 764 108.047 866.531 477.279
2800 0 59.1183 13.3969 792 108.04 867.181 474.848
2801 0 63.1565 13.8228 873 106.013 867.103 475.284
2802 0 63.1019 12.4402 785 111.502 866.679 475.189
2803 0 64.1184 13.9118 892 109.45 865.914 473.585
2804 0 65.1214 12.5765 819 113.134 866.404 473.683
2805 0 70.0954 13.2106 926 109.787 866.299 473.763
2806 0 69.1169 12.3269 852 114.965 866.527 469.837
2807 0 72.0513 13.4626 970 112.148 866.977 469.805
2808 0 74.0973 13.2124 979 113.219 866.473 468.854
2809 0 77.1257 12.9399 998 114.147 866.467 464.634
2810 0 81.1894 12.1568 987 115.04 866.48 464.59
2811 0 85.1374 13.6838 1165 111.662 866.058 463.663
2812 0 86.1231 12.3544 1064 115.442 866.188 463.05
2813 1 46.031 12.2526 564 115.672 866.715 480.782
2814 0 48.0899 12.8301 617 114.284 866.297 480.036
2815 0 52.0466 14.7752 769 109.065 866.758 478.557
2816 0 53.0608 13.607 722 113.494 867.028 480.01
2817 0 53.0578 13.3816 710 114.338 866.506 480.756
2818 0 54.0941 12.6631 685 116.946 866.847 479.255
2819 0 53.1274 12.4606 662 119.169 866.512 479.06
2820 0 57.0891 12.8221 732 117.351 866.239 475.995
2821 0 59.0695 13.7973 815 114.81 866.466 477.785
2822 0 61.0602 12.8234 783 117.516 866.148 475.226
2823 0 61.0507 12.8909 787 118.449 865.841 474.182
2824 0 65.0418 12.638 822 118.725 865.663 473.006
2825 0 66.0605 13.8207 913 116.126 864.934 471.788
2826 0 67.0317 13.0983 878 118.618 865.551 469.673
2827 0 70.1837 12.9375 908 118.12 865.53 469.224
2828 0 72.0754 13.2361 954 118.852 865.725 465.899
2829 0 74.17 13.4691 999 119.613 865.537 465.674
2830 0 78.0709 13.3212 1040 118.912 865.549 465.599
2831 0 79.0646 14.1024 1115 118.161 865.921 462.019
2832 0 82.076 14.0967 1157 118.044 865.637 462.175
2833 0 86.065 14.3729 1237 116.365 865.384 462.932
2834 0 87.1566 13.4241 1170 120.883 865.865 458.683
2835 0 92.0679 12.8601 1184 120.813 865.955 458.836
2836 1 49.0756 13.2652 651 121.295 865.813 478.166
2837 0 51.0562 12.2022 623 122.827 864.836 479.112
2838 0 53.0907 14.6353 777 117.197 865.583 480.269
2839 0 55.0667 14.8184 816 117.208 865.194 478.415
2840 0 56.1135 13.7044 769 119.257 865.313 478.542
2841 0 58.1537 14.4273 839 115.567 866.049 476.958
2842 0 60.0788 14.2646 857 116.274 865.23 475.667
2843 0 60.0761 13.3664 803 120.004 865.244 474.105
2844 0 63.0601 13.273 837 119.411 865.165 472.962
2845 0 65.0818 13.9363 907 117.751 864.462 471.86
2846 0 65.2758 12.3017 803 123.299 864.796 469.823
2847 0 70.1077 13.9642 979 117.584 864.511 469.148
2848 0 74.1125 13.4795 999 118.322 864.273 466.603
2849 0 77.039 14.0318 1081 116.573 864.543 466.426
2850 0 80.0801 15.1224 1211 112.579 865.055 466.901
2851 1 40.0747 13.0756 524 124.45 864.525 483.874
2852 0 42.0624 14.1456 595 121.855 864.16 481.61
2853 0 46.0437 15.1378 697 117.488 864.762 482.267
2854 0 46.0581 14.9377 688 120.638 865.129 480.541
2855 0 51.0611 15.1779 775 117.374 864.643 480.432
2856 0 48.2038 14.8744 717 122 864.559 479.163
2857 0 52.0484 16.7152 870 117.252 864.795 478.613
2858 0 52.0682 15.1532 789 123.492 864.525 478.488
2859 0 56.054 14.6288 820 122.7 864.59 478.211
2860 0 57.0515 16.5465 944 118.344 864.587 475.739
2861 0 59.0551 16.2391 959 119.886 864.13 474.319
2862 0 61.0444 16.2668 993 119.028 864.706 475.258
2863 0 63.1531 16.2937 1029 119.599 864.413 473.075
2864 0 66.0774 16.4201 1085 118.283 864.035 473.679
2865 0 66.0578 15.2745 1009 123.431 863.902 472.508
2866 0 69.0782 13.7815 952 126.936 863.655 472.211
2867 0 70.1414 14.8557 1042 124.971 864.14 469.372
2868 0 74.0675 15.0808 1117 123.645 864.055 470.172
2869 0 77.1067 16.0816 1240 119.841 864.569 469.11
2870 0 78.19 15.1938 1188 123.535 864.194 464.809
2871 0 81.0572 14.4589 1172 125.226 863.902 465.432
2872 0 87.0978 15.1783 1322 120.986 864.213 465.486
2873 0 87.2005 13.8875 1211 126.159 863.908 463.135
2874 1 43.0226 13.8764 597 136.466 864.382 480.956
2875 0 47.0746 14.87 700 132.47 864.116 480.947
2876 0 48.0361 16.2378 780 131.695 864.768 480.271
2877 0 50.0576 16.7607 839 129.697 864.313 478.423
2878 0 50.0597 15.4815 775 135.049 863.705 478.493
2879 0 52.0244 15.8772 826 132.762 864.154 476.785
2880 0 55.024 16.1748 890 130.404 864.435 475.418
2881 0 56.0734 15.6224 876 133.597 864.015 473.216
2882 0 58.0203 15.5463 902 134.063 864.799 472.254
2883 0 59.1324 15.5076 917 134.954 864.708 470.296
2884 0 62.1066 15.7149 976 134.486 864.378 470.439
2885 0 64.0887 15.6502 1003 134.659 864.212 468.968
2886 0 67.0269 15.6057 1046 134.75 864.56 467.395
2887 0 71.0576 15.1426 1076 135.051 864.449 466.861
2888 0 72.0942 15.6185 1126 135.115 864.666 463.59
2889 0 76.0281 15.2707 1161 135.056 864.606 464
2890 0 78.1608 15.6472 1223 134.276 864.706 462.621
2891 0 81.1736 15.7687 1280 134.773 864.806 461.423
2892 0 84.1909 15.6549 1318 135.307 864.574 459.593
2893 0 87.0974 15.2703 1330 135.118 864.47 458.295
2894 0 91.1293 15.9115 1450 134.374 864.759 455.015
2895 1 46.1017 14.3596 662 140.008 864.662 475.506
2896 0 48.0471 13.6325 655 141.275 864.931 476.232
2897 0 50.1266 13.4659 675 141.27 864.825 475.059
2898 0 53.0793 13.9414 740 140.301 864.622 472.801
2899 0 54.1213 13.7284 743 141.682 865.023 472.003
2900 0 55.1338 14.0204 773 141.768 865.468 471.467
2901 0 57.1449 14.052 803 143.826 865.182 468.893
2902 0 59.1113 14.9548 884 141.169 865.012 468.152
2903 0 61.0899 13.9139 850 141.996 865.673 467.358
2904 0 65.102 13.7784 897 142.61 864.89 465.487
2905 0 65.1596 14.8558 968 140.901 864.613 463.718
2906 0 69.1346 15.101 1044 140.515 864.579 462.216
2907 0 75.2262 18.677 1405 126.461 864.594 458.317
2908 0 75.172 16.1895 1217 137.231 864.716 458.086
2909 0 77.2266 15.6423 1208 140.711 864.826 456.602
2910 0 76.1143 14.741 1122 146.258 864.922 457.108
2911 0 79.1201 14.3074 1132 147.801 865.164 455.55
2912 0 82.1521 15.094 1240 146.603 864.869 454.234
2913 0 84.1736 13.9355 1173 150.275 864.497 453.49
2914 0 88.0754 14.3854 1267 149.34 864.788 453.702
2915 0 94.0898 15.7297 1480 144.208 864.262 450.486
2916 0 100.104 18.5207 1854 132.061 865.135 443.91
2917 0 104.198 17.1884 1791 137.517 864.987 444.583
2918 0 107.127 16.6811 1787 142.159 864.64 446.379
2919 0 110.115 14.9208 1643 148.634 864.249 447.858
2920 1 59.1087 11.8426 700 141.869 865.046 471.459
2921 0 63.0883 12.8233 809 137.373 864.414 470.189
2922 0 65.0618 12.5573 817 140.37 865.206 466.201
2923 0 67.1107 13.2021 886 142.653 864.929 466.099
2924 0 69.0572 11.8453 818 142.742 865.264 467.155
2925 0 69.0835 10.8709 751 145.181 864.642 465.872
2926 0 74.0568 11.1806 828 143.249 864.128 463.395
2927 0 75.0713 11.4957 863 143.93 864.671 459.074
2928 0 77.1608 11.3918 879 143.505 863.785 459.547
2929 0 81.1055 10.3815 842 145.686 864.308 457.695
2930 0 83.0571 11.1851 929 143.775 864.398 455.904
2931 0 87.1064 11.0095 959 142.955 864.473 453.317
2932 0 89.1614 11.3614 1013 143.136 864.13 451.074
2933 0 93.237 11.09 1034 141.001 863.99 452.046
2934 0 97.1431 10.5103 1021 141.546 863.967 450.427
2935 1 52.0531 10.3356 538 126.165 864.773 473.855
2936 0 54.0706 10.3568 560 124.845 864.705 471.823
2937 0 56.0547 10.5076 589 124.942 864.136 470.363
2938 0 57.1286 9.06726 518 127.564 864.434 470.595
2939 0 58.0697 10.2635 596 125.785 864.844 468.884
2940 0 58.0584 9.3182 541 128.512 864.71 467.823
2941 0 63.0895 10.2553 647 125.723 864.657 467.896
2942 0 64.1188 9.8879 634 126.803 864.688 468.107
2943 0 67.053 9.81314 658 126.5 864.622 464.406
2944 0 70.1356 10.5082 737 124.896 864.832 463.6
2945 0 73.146 10.3081 754 124.386 865.187 463.729
2946 0 74.1256 9.56484 709 126.736 864.384 462.963
2947 0 77.1046 10.609 818 126.995 864.264 458.612
2948 0 80.0765 10.952 877 128.615 864.043 459.206
2949 0 82.1046 10.986 902 129.542 864.315 456.483
2950 0 85.1999 11.5963 988 127.347 864.318 455.885
2951 0 89.0569 10.9256 973 129.789 863.98 450.217
2952 0 92.0699 11.0242 1015 130.018 863.954 451.118
2953 0 94.0747 10.598 997 129.696 864.358 452.495
2954 0 99.1558 10.2263 1014 126.992 864.457 450.875
2955 0 102.25 9.5941 981 127.983 864.526 449.01
2956 0 104.327 9.93031 1036 130.376 864.389 447.659
2957 0 107.386 10.6625 1145 129.652 864.775 444.399
2958 1 57.1386 11.2358 642 122.95 864.953 470.389
2959 0 60.1025 9.66682 581 126.929 864.849 470.716
2960 0 60.0624 9.57337 575 129.358 865.275 469.489
2961 0 66.0828 10.8652 718 124.552 865.603 469.986
2962 0 68.1251 12.0073 818 124.446 865.247 467.144
2963 0 68.1224 11.9931 817 128.903 865.219 467.229
2964 0 70.0513 10.5209 737 132.258 862.978 464.488
2965 0 72.1243 10.8563 783 132.623 862.799 465.202
2966 0 77.0992 11.349 875 130.224 862.696 465.691
2967 0 79.0888 12.3658 978 128.641 863.511 464.036
2968 0 78.0389 10.4435 815 136.025 863.025 462.486
2969 0 83.0277 10.3098 856 132.168 862.021 465.659
2970 0 84.0552 9.69601 815 140.843 861.709 460.19
2971 0 89.088 11.2922 1006 137.101 862.433 458.884
2972 0 91.1966 11.4259 1042 133.978 863.641 457.182
2973 0 91.3535 10.8808 994 137.842 863.606 454.972
2974 1 47.0807 11.321 533 124.908 865.863 479.508
2975 0 50.1255 11.3914 571 124.413 865.837 479.212
2976 0 52.0247 10.9179 568 126.961 865.655 476.629
2977 0 53.02 10.8073 573 128.255 865.578 475.906
2978 0 53.0255 11.8434 628 125.801 865.979 474.924
2979 0 57.0799 12.2635 700 124.487 865.789 474.83
2980 0 58.0253 12.305 714 123.973 865.951 473.702
2981 0 58.127 10.9932 639 128.93 865.792 473.961
2982 0 59.1042 11.4036 674 126.815 865.488 473.374
2983 0 62.0661 13.0667 811 121.276 865.121 473.637
2984 0 63.1199 12.2624 774 123.895 865.479 473.491
2985 0 65.0958 10.9377 712 126.994 865.809 471.938
2986 0 67.0978 11.2522 755 127.282 865.501 469.024
2987 0 68.2112 12.6226 861 123.49 865.404 470.336
2988 0 69.1229 11.4 788 127.853 864.831 467.615
2989 0 72.2033 11.3707 821 127.317 865.196 467.92
2990 0 76.1515 12.8034 975 123.19 864.83 466.293
2991 0 78.1222 11.9556 934 124.13 864.512 466.322
2992 0 80.1627 12.1503 974 124.087 864.298 463.237
2993 0 82.0556 11.4556 940 125.547 864.094 462.119
2994 0 85.1429 12.7433 1085 122.848 863.66 459.664
2995 0 88.1706 12.4872 1101 122.721 863.608 459.972
2996 1 45.0465 9.92309 447 125.754 865.924 480.409
2997 0 48.112 11.6187 559 122.846 865.569 479.179
2998 0 51.0533 12.4576 636 122.489 865.772 478.549
2999 0 50.0526 12.5268 627 120.864 865.542 478.541
3000 0 53.0534 13.0812 694 117.798 865.336 479.323
3001 0 53.0708 12.8885 684 119.763 865.427 477.864
3002 0 56.035 11.6356 652 122.725 865.261 478.544
3003 0 53.0241 12.0323 638 125.075 865.282 476.414
3004 0 56.0485 12.1323 680 124.357 865.526 475.156
3005 0 58.0554 13.9005 807 118.509 865.064 476.647
3006 0 60.0516 12.1229 728 122.908 864.492 474.808
3007 0 61.1181 12.7785 781 121.913 864.665 473.179
3008 0 62.1106 13.154 817 121.641 865.242 472.882
3009 0 64.088 12.8573 824 122.754 864.831 471.58
3010 0 66.0611 13.1545 869 121.521 864.939 471.364
3011 0 68.0704 12.7368 867 121.452 865.781 471.833
3012 0 70.0641 13.7303 962 118.79 865.35 468.995
3013 0 71.0664 12.1154 861 122.578 864.965 468.598
3014 0 76.07 13.1458 1000 118.926 865.358 468.894
3015 0 79.1091 13.7911 1091 116.901 865.038 468.104
3016 0 81.0631 12.3607 1002 122.731 865.265 465.145
3017 1 43.0182 12.762 549 117.122 865.49 482.783
3018 0 42.06 10.2235 430 114.923 863.865 479.691
3019 0 43.0595 10.172 438 115.674 863.893 477.596
3020 0 46.0833 10.5244 485 110.814 863.843 479.085
3021 0 46.0593 11.4201 526 114.373 861.958 477.875
3022 0 46.0654 11.6356 536 113.869 863 478.013
3023 0 48.0182 11.1416 535 113.957 862.785 478.056
3024 0 48.0324 9.74342 468 118.096 863.16 476.024
3025 0 50.0357 10.1727 509 115.833 862.485 475.23
3026 0 53.0299 9.67379 513 116.263 862.725 475.07
3027 0 54.092 11.3141 612 112.324 863.067 474.497
3028 0 54.0735 10.0234 542 116.179 863.834 471.638
3029 0 59.0436 13.1259 775 107.905 863.414 472.625
3030 0 60.063 11.9042 715 111.259 863.299 469.98
3031 0 62.0315 11.0105 683 112.685 863.589 469.48
3032 0 62.1951 11.2549 700 113.471 864.046 469.061
3033 0 66.2014 11.2838 747 112.197 864.075 470.165
3034 0 66.07 10.2164 675 116.97 863.316 467.97
3035 0 68.2452 10.3157 704 116.232 864.188 466.925
3036 0 72.1434 10.5207 759 115.08 864.449 465.623
3037 0 75.1582 10.7906 811 115.229 863.956 464.351
3038 0 77.13 11.6686 900 114.134 864.276 462.196
3039 0 78.2076 11.6101 908 115.739 864.328 461.213
3040 0 82.2073 12.3225 1013 115.402 863.441 459.22
3041 0 84.1653 11.1447 938 118.756 863.854 457.954
3042 0 86.1433 11.8523 1021 117.877 863.517 456.976
3043 0 91.2388 12.8016 1168 115.072 864.46 455.342
3044 0 94.291 12.1857 1149 115.846 864.266 455.923
3045 0 99.1205 12.6815 1257 114.599 864.407 454.435
3046 1 51.0817 11.276 576 105.05 864.957 478.913
3047 0 51.0817 11.1782 571 124.399 863.937 478.89
3048 0 53.0694 13.3222 707 110.614 865.168 480.281
3049 0 52.0346 12.0881 629 104.56 864.822 480.695
3050 0 52.0319 12.7998 666 109.803 866.185 477.905
3051 0 52.0726 12.3481 643 116.561 866.114 479.776
3052 0 53.0721 11.7764 625 118.658 865.493 478.514
3053 0 56.0641 12.8781 722 114.571 865.205 477.519
3054 0 56.0518 12.3993 695 116.108 865.937 477.294
3055 0 59.1087 11.8764 702 115.423 865.543 476.319
3056 0 63.0608 12.7337 803 111.215 865.775 475.828
3057 0 64.0745 13.5311 867 109.819 865.468 472.193
3058 0 66.0972 13.0717 864 110.333 865.117 472.277
3059 0 66.082 13.4681 890 109.158 865.354 472.134
3060 0 69.113 12.7472 881 111.404 865.317 469.121
3061 0 70.0722 13.2577 929 111.128 865.376 468.005
3062 0 75.1113 14.0325 1054 108.659 864.923 467.814
3063 0 76.1341 13.6601 1040 110.579 864.931 466.387
3064 0 79.1357 13.1041 1037 112.181 865.274 466.843
3065 0 80.1473 13.3879 1073 114.139 865.226 463.827
3066 0 83.0744 13.1569 1093 115.018 865.218 463.831
3067 0 84.0689 13.0845 1100 117.107 863.256 462.625
3068 0 87.1301 12.9003 1124 118.253 863.539 464.066
3069 0 88.0495 13.8558 1220 118.306 863.843 460.705
3070 0 91.0582 13.7494 1252 119.918 864.429 461.387
3071 0 94.0876 14.4015 1355 119.266 864.673 459.376
3072 0 94.0431 14.7379 1386 121.016 864.285 457.237
3073 0 97.1245 13.7761 1338 125.014 864.025 457.194
3074 0 100.136 14.6801 1470 124.784 864.211 456.144
3075 0 102.076 13.9504 1424 129.034 864.348 454.271
3076 0 107.174 14.6491 1570 127.749 863.832 453.275
3077 0 110.054 15.1926 1672 127.299 864.16 452.462
3078 0 112.156 14.6759 1646 130.784 863.737 450.555
3079 0 115.088 15.1623 1745 129.637 863.015 448.676
3080 0 118.11 14.1393 1670 134.346 863.546 447.101
3081 0 119.291 13.5718 1619 138.11 864.063 444.909
3082 0 127.258 14.2859 1818 137.926 863.678 443.075
3083 0 131.276 13.9096 1826 139.704 863.446 440.837
3084 0 135.158 13.7025 1852 141.241 863.569 437.741
3085 0 138.258 14.2415 1969 140.85 863.619 433.861
3086 0 144.317 14.3296 2068 140.367 864.23 433.234
3087 0 150.233 15.1165 2271 137.594 863.322 430.168
3088 0 155.284 13.6331 2117 142.96 863.199 411.992
3089 1 73.172 13.6254 997 137.159 863.803 458.051
3090 0 75.1509 13.2267 994 139.075 864.91 462.193
3091 0 75.1082 12.8481 965 141.556 864.733 466.033
3092 0 79.076 13.1772 1042 139.917 865.345 464.045
3093 0 84.0963 14.6499 1232 135.834 865.257 462.769
3094 0 85.0492 13.7803 1172 138.076 865.167 462.43
3095 0 88.1694 14.268 1258 136.807 864.647 460.382
3096 0 92.1017 14.104 1299 136.105 864.436 460.671
3097 0 96.132 13.96 1342 136.501 864.294 459.278
3098 0 97.2431 13.8519 1347 136.33 863.722 456.434
3099 0 100.367 15.3337 1539 132.299 863.399 452.173
3100 0 104.457 14.6184 1527 132.701 863.846 452.441
3101 0 106.27 13.8703 1474 134.606 863.457 451.024
3102 0 110.205 13.4477 1482 134.462 863.268 448.719
3103 0 115.361 13.5228 1560 132.403 863.204 447.375
3104 0 118.314 13.8615 1640 131.418 864.118 444.416
3105 0 121.248 13.262 1608 128.788 864.278 443.53
3106 0 126.33 13.6072 1719 128.997 864.495 441.847
3107 0 132.37 13.2205 1750 130.843 864.394 438.397
3108 0 136.418 15.1373 2065 125.756 864.191 438.387
3109 0 142.269 14.1352 2011 125.884 864.134 434.88
3110 0 145.293 12.5608 1825 129.844 864.075 431.615
3111 0 150.248 13.4711 2024 127.433 863.764 426.819
3112 1 72.1095 12.8555 927 124.029 864.068 461.342
3113 0 74.0879 12.8766 954 124.646 864.523 457.014
3114 0 76.0314 12.4948 950 125.566 865.248 457.633
3115 0 81.1216 13.6462 1107 120.295 865.912 458.349
3116 0 83.0585 12.9668 1077 121.044 866.174 457.513
3117 0 87.0553 14.531 1265 115.907 865.809 453.746
3118 0 90.1224 13.4595 1213 119 865.224 453.104
3119 0 93.0995 12.8787 1199 120.389 865.296 451.547
3120 0 97.0444 13.3341 1294 118.662 865.531 450.65
3121 0 99.0981 14.1375 1401 117.912 865.449 448.844
3122 0 103.104 14.3351 1478 116.862 864.733 446.804
3123 0 107.2 13.8246 1482 118.44 865.117 446.039
3124 0 113.105 13.7748 1558 118.365 865.127 442.472
3125 0 114.17 12.7792 1459 122.062 865.395 441.161
3126 0 121.182 14.928 1809 116.339 865.183 439.055
3127 0 120.194 12.5047 1503 123.786 865.511 436.157
3128 0 130.195 15.0928 1965 115.973 865.369 434.755
3129 0 134.172 16.3745 2197 114.187 864.583 424.503
3130 0 137.138 15.3349 2103 116.174 865.169 428.996
3131 0 141.23 13.871 1959 121.562 865.586 426.062
3132 0 146.26 15.3425 2244 117.506 864.951 427.431
3133 0 149.258 14.6056 2180 118.908 865.483 428.064
3134 0 155.329 13.8223 2147 121.387 864.983 424.041
3135 0 162.293 14.8805 2415 119.205 865.161 419.9
3136 1 79.1061 13.7158 1085 114.45 865.088 462.478
3137 0 81.0898 13.5529 1099 115.226 866.449 462.219
3138 0 84.1954 12.7679 1075 116.491 866.207 461.332
3139 0 89.1392 13.3275 1188 112.055 866.127 460.414
3140 0 91.1092 13.8844 1265 112.752 866.251 457.413
3141 0 92.1547 12.8697 1186 116.959 866.664 453.603
3142 0 96.1093 12.8291 1233 116.597 866.435 454.064
3143 0 101.157 14.0178 1418 114.172 866.745 454.108
3144 0 103.167 14.4426 1490 115.312 866.827 449.793
3145 0 109.093 12.8056 1397 119.779 866.45 451.727
3146 0 111.112 13.6079 1512 118.811 865.962 448.34
3147 0 113.207 13.1971 1494 121.533 866.227 445.906
3148 0 117.096 14.108 1652 119.482 866.051 444.947
3149 0 122.143 13.6479 1667 122.127 866.087 443.703
3150 0 125.192 12.7644 1598 125.732 866.259 442.869
3151 0 130.112 13.4269 1747 125.534 866.005 438.785
3152 0 134.132 14.0608 1886 124.24 865.922 438.116
3153 0 137.299 13.4233 1843 130.435 865.352 435.127
3154 0 144.218 13.75 1983 128.526 865.645 431.738
3155 1 61.1032 11.5379 705 116.807 866.431 473.163
3156 0 62.1729 11.7254 729 116.506 866.468 474.938
3157 0 67.0643 13.1814 884 112.451 866.448 472.286
3158 0 70.1038 13.7082 961 110.416 866.732 471.282
3159 0 71.105 11.912 847 115.035 866.57 469.477
3160 0 75.1242 12.7788 960 111.8 866.446 467.68
3161 0 78.0992 12.4201 970 112.372 865.999 467.494
3162 0 80.2594 12.0858 970 112.79 866.3 468.394
3163 0 84.2661 14.6204 1232 107.263 865.911 464.463
3164 1 42.1509 11.791 497 111.447 865.992 485.408
3165 0 42.1409 10.631 448 114.261 866.123 484.489
3166 0 44.0414 13.0559 575 106.304 866.231 483.085
3167 0 45.0428 12.7656 575 108.677 866.609 481.553
3168 0 45.0321 11.947 538 111.403 866.617 482.322
3169 0 45.0668 11.96 539 111.777 866.529 482.432
3170 0 48.105 12.5351 603 109.464 865.829 482.136
3171 0 49.0908 12.4463 611 110.322 866.011 481.103
3172 0 50.0452 12.3289 617 111.553 866.11 480.282
3173 0 51.0709 12.6687 647 111.099 865.711 480.862
3174 0 54.0876 12.2209 661 112.589 865.835 479.067
3175 0 54.0519 12.6915 686 111.793 866.061 477.832
3176 0 54.1115 13.2874 719 111.939 866.402 477.704
3177 0 56.1137 13.5974 763 111.21 865.623 477.845
3178 0 57.0415 13.4989 770 112.027 865.79 476.531
3179 0 59.1001 13.1472 777 112.189 865.622 475.44
3180 0 62.1282 13.5043 839 110.994 864.133 474.61
3181 0 62.0515 11.99 744 115.136 865.203 473.022
3182 0 66.0513 12.1269 801 114.898 865.109 472.834
3183 0 67.0315 13.0834 877 112.99 865.112 470.985
3184 0 70.0981 12.1972 855 114.218 865.065 472.09
3185 0 71.0873 13.0966 931 112.888 864.501 468.387
3186 0 73.1491 12.9462 947 113.109 864.515 468.593
3187 0 76.1167 11.8634 903 116.075 863.887 467.195
3188 0 77.0646 12.0678 930 112.122 864.443 463.069
3189 0 82.0663 13.745 1128 107.189 864.635 461.629
3190 0 84.0361 12.9349 1087 109.736 864.133 458.036
3191 0 90.0373 13.8942 1251 106.756 864.601 457.121
3192 0 91.0667 12.8258 1168 110.247 864.532 454.658
3193 0 93.0896 11.3761 1059 114.436 864.331 454.153
3194 1 48.079 10.8571 522 113.308 864.603 476.598
3195 0 49.1211 11.7465 577 111.711 864.61 473.244
3196 0 50.0361 11.8914 595 111.22 864.729 473.859
3197 0 51.0722 11.5719 591 111.208 864.785 472.237
3198 0 54.0775 12.7225 688 107.516 864.542 472.961
3199 0 55.025 12.6851 698 108.143 864.645 472.268
3200 0 58.1046 13.579 789 106.535 865.12 471.345
3201 0 58.0934 12.1184 704 110.483 864.695 469.99
3202 0 60.0548 12.2055 733 110.044 864.281 471.112
3203 0 63.0547 13.1315 828 108.136 864.593 469.969
3204 0 66.1787 13.2067 874 109.514 864.641 467.325
3205 0 67.0433 12.9021 865 109.764 863.979 467.46
3206 0 69.0931 13.0693 903 110.746 864.849 464.779
3207 0 70.0648 12.0888 847 116.035 864.74 467.724
3208 0 73.0593 13.5096 987 113.615 865.288 466.499
3209 0 77.1084 13.4097 1034 113.146 865.164 464.352
3210 0 79.0763 12.3299 975 115.709 864.813 461.483
3211 0 83.1039 13.9103 1156 111.51 865.003 462.591
3212 0 84.0756 13.2262 1112 114.085 865.397 459.056
3213 0 86.1348 13.0493 1124 114.802 864.274 458.696
3214 1 44.045 13.0094 573 114.354 865.117 475.644
3215 0 47.0424 12.138 571 114.103 864.82 476.905
3216 0 49.0689 12.2888 603 113.342 863.357 472.172
3217 0 50.057 13.9042 696 109.983 863.529 474.747
3218 0 50.0394 12.8699 644 114.016 863.107 473.635
3219 0 53.0454 13.7807 731 111.263 863.309 472.776
3220 0 54.0728 12.4832 675 111.613 863.434 473.23
3221 0 57.1079 14.4638 826 110.661 863.547 473.821
3222 0 58.0306 14.0443 815 111.18 862.598 473.669
3223 0 58.0372 15.1455 879 108.892 862.807 468.942
3224 0 60.0686 13.6344 819 113.166 863.987 468.35
3225 0 62.0438 14.0062 869 112.697 863.884 468.529
3226 0 64.0466 15.114 968 110.024 863.55 468.411
3227 0 64.0666 14.1415 906 113.855 863.093 465.047
3228 0 67.1045 13.5013 906 115.182 864.031 463.129
3229 0 69.0954 13.8215 955 115.489 863.631 461.275
3230 0 73.158 14.1748 1037 113.478 863.798 459.461
3231 0 75.1069 14.3129 1075 113.819 863.771 458.795
3232 0 79.2077 14.1527 1121 113.899 863.806 457.395
3233 0 81.1528 14.2324 1155 113.844 863.334 455.242
3234 0 83.1803 14.1981 1181 114.988 863.679 454.025
3235 0 84.2015 13.8359 1165 116.333 863.212 452.553
3236 0 90.1265 13.7473 1239 115.596 863.679 451.222
3237 1 48.0462 11.4473 550 114.889 864.509 472.151
3238 0 50.0857 12.4387 623 113.897 864.26 473.151
3239 0 50.0909 10.6207 532 111.207 865 473.212
3240 0 55.051 13.0606 719 104.711 864.573 472.189
3241 0 56.0898 12.2661 688 106.993 864.67 471.802
3242 0 59.0619 11.6149 686 108.831 864.31 469.555
3243 0 61.1349 13.1512 804 106.22 864.619 467.575
3244 0 63.0949 12.711 802 110.746 864.956 466.592
3245 0 64.2175 13.3453 857 109.744 864.286 465.706
3246 0 65.168 12.7516 831 112.49 863.883 463.236
3247 0 69.0947 13.3006 919 110.58 864.083 463.787
3248 0 70.1307 12.2343 858 115.104 864.099 461.786
3249 0 73.0719 12.7682 933 114.719 863.644 459.013
3250 0 75.1305 13.2436 995 116.009 863.802 459.661
3251 0 78.1908 13.045 1020 117.65 863.661 457.077
3252 0 80.0481 12.8798 1031 119.928 864.46 457.45
3253 0 85.227 13.8923 1184 116.047 863.934 457.092
3254 0 87.169 14.3629 1252 118.85 863.702 451.645
3255 0 88.0917 12.9411 1140 125.17 864.182 450.945
3256 1 48.3626 10.4626 506 120.018 864.326 472.47
3257 0 50.1246 11.5113 577 117.463 863.747 473.88
3258 0 50.1053 11.4359 573 118.956 864.349 470.756
3259 0 52.2669 10.4081 544 115.963 864.586 469.868
3260 0 54.095 11.1656 604 111.803 863.695 469.856
3261 0 57.0813 11.3697 649 109.69 863.76 471.565
3262 0 56.0744 10.8784 610 113.531 863.534 470.266
3263 0 60.0659 11.4541 688 112.058 863.423 469.705
3264 0 62.0704 11.4064 708 113.359 863.47 466.343
3265 0 64.0641 11.7539 753 112.183 863.788 465.854
3266 0 66.0585 11.6412 769 112.412 863.2 465.918
3267 0 69.0666 12.8861 890 110.558 863.309 461.203
3268 0 70.059 11.3333 794 114.491 862.894 462.538
3269 0 74.1318 11.2367 833 113.952 863.764 461.221
3270 0 76.1629 11.8956 906 112.817 863.796 457.7
3271 0 80.1238 12.1437 973 111.996 863.385 457.111
3272 0 85.2028 12.84 1094 113.761 863.546 457.208
3273 0 91.2252 13.4941 1231 109.16 863.281 454.421
3274 1 47.0339 10.0778 474 108.114 863.443 475.998
3275 0 48.0809 10.9399 526 107.006 863.46 472.694
3276 0 53.0555 12.0628 640 110.083 863.32 475.909
3277 0 52.0895 11.3458 591 112.914 863.75 475.888
3278 0 53.0619 11.4018 605 112.307 863.78 475.83
3279 0 54.052 11.1004 600 112.983 864.222 470.9
3280 0 57.0332 11.3267 646 110.87 863.828 472.861
3281 0 57.1193 11.8524 677 111.018 864.465 472.109
3282 0 60.0574 11.4557 688 110.923 864.267 472.144
3283 0 61.0817 11.4437 699 111.299 864.482 471.647
3284 0 63.063 11.211 707 111.936 864.405 469.15
3285 0 64.1061 10.7634 690 113.509 864.007 467.496
3286 0 65.2056 11.5174 751 113.067 864.443 467.316
3287 0 67.0935 10.5375 707 115.407 864.485 466.528
3288 0 70.2064 11.4235 802 112.383 864.471 466.848
3289 0 73.1429 13.4531 984 108.616 864.875 463.66
3290 0 74.0754 11.9878 888 113.007 863.877 462.169
3291 0 78.2062 11.7766 921 111.734 864.431 459.795
3292 0 80.16 12.5873 1009 111.006 864.345 459.752
3293 0 82.2687 10.1861 838 115.717 864.5 461.687
3294 0 86.1828 12.0442 1038 112.545 864.843 457.671
3295 0 87.1901 13.0061 1134 111.28 864.423 455.686
3296 0 89.2023 11.5692 1032 113.845 864.376 456.996
3297 0 92.2594 12.2589 1131 112.921 865.485 453.215
3298 0 93.1398 10.35 964 109.817 864.396 451.131
3299 0 100.251 12.2992 1233 104.827 864.083 450.779
3300 0 101.172 12.2761 1242 107.252 864.545 448.626
3301 0 106.196 11.4035 1211 111.543 864.916 450.459
3302 0 109.183 11.9158 1301 111.105 864.12 445.847
3303 0 111.16 11.1101 1235 112.751 864.179 444.009
3304 0 115.144 12.6363 1455 108.922 864.715 445.567
3305 0 117.173 10.9582 1284 113.794 864.602 443.352
3306 1 56.1573 10.0966 567 107.259 864.152 475.441
3307 0 58.1266 11.0965 645 106.65 864.657 473.854
3308 0 62.1838 11.9967 746 103.5 864.874 471.727
3309 0 64.0477 11.3509 727 103.15 865.725 467.259
3310 0 66.0882 11.8327 782 102.091 865.657 468.127
3311 0 67.1359 11.6629 783 105.563 865.625 467.755
3312 0 69.133 12.5844 870 103.62 865.691 465.84
3313 0 74.0941 11.7823 873 105.192 865.68 465.7
3314 0 78.1766 12.4845 976 102.991 866.584 465.712
3315 0 79.1336 11.1963 886 107.146 865.463 463.251
3316 0 82.1252 11.7625 966 106.058 865.78 464.445
3317 0 83.1363 11.9683 995 107.597 865.079 459.057
3318 0 87.109 10.7452 936 109.958 865.455 461.328
3319 1 47.0539 9.92479 467 109.394 866.373 480.036
3320 0 49.0637 10.7819 529 109.809 866.042 475.369
3321 0 51.1779 11.1767 572 109.241 866.173 475.787
3322 0 52.1323 11.9504 623 107.278 866.302 474.616
3323 0 55.1229 12.6263 696 104.657 865.966 475.897
3324 0 55.0975 12.5051 689 105.951 866.684 476.884
3325 0 58.0453 11.1809 649 108.798 866.159 474.709
3326 0 60.0666 11.8868 714 107.275 866.036 473.581
3327 0 60.0943 10.2173 614 112.031 866.094 473.109
3328 0 62.0594 12.0207 746 107.401 866.767 470.279
3329 0 63.0606 12.0043 757 108.065 866.403 471.498
3330 0 67.0404 12.4253 833 105.712 866.384 469.526
3331 0 69.1078 11.6051 802 107.318 865.769 468.121
3332 0 72.0786 13.7211 989 101.674 865.237 466.706
3333 0 74.0942 12.8755 954 103.471 865.781 463.951
3334 0 74.1803 10.9867 815 108.829 865.872 462.671
3335 0 77.1249 11.7731 908 107.632 865.767 459.953
3336 0 82.2472 12.4503 1024 105.809 865.371 461.788
3337 0 85.1891 12.7716 1088 105.892 866.096 458.482
3338 0 87.1827 11.9863 1045 109.104 865.637 458.304
3339 1 45.1015 9.93315 448 112.105 866.435 478.009
3340 0 49.0986 10.7946 530 109.325 865.634 477.057
3341 0 51.1831 11.4295 585 107.424 865.841 476.405
3342 0 53.2916 11.4465 610 112.131 864.508 472.926
3343 0 54.228 11.0828 601 115.516 863.067 474.913
3344 0 55.2104 12.1354 670 114.093 863.004 474.113
3345 0 58.1335 13.2798 772 112.179 863.506 473.105
3346 0 61.1938 12.3705 757 114.725 863.448 472.161
3347 0 60.2358 12.9657 781 115.713 863.47 469.781
3348 0 65.2651 13.8512 904 113.277 863.278 469.162
3349 0 67.1513 12.107 813 117.363 863.526 470.137
3350 0 65.1883 11.7812 768 121.057 863.154 467.755
3351 0 71.3233 12.899 920 116.488 863.625 467.041
3352 0 72.4395 11.7753 853 120.91 864.188 464.216
3353 0 77.2944 13.5844 1050 115.995 863.681 463.453
3354 0 77.2944 13.5844 1050 139.461 862.658 463.31
3355 0 80.194 13.2928 1066 119.256 863.352 459.025
3356 0 83.3886 11.9201 994 122.842 863.97 460.181
3357 0 86.3006 12.2595 1058 122.426 864.165 458.134
3358 0 89.3695 11.8609 1060 123.762 864.558 456.803
3359 1 46.1413 11.7682 543 109.37 865.871 479.637
3360 0 47.1567 12.1722 574 110.002 865.89 477.777
3361 0 47.1831 10.809 510 115.837 865.514 480.022
3362 0 48.1967 10.9551 528 115.458 865.432 479.996
3363 0 50.1174 10.5752 530 117.504 865.43 479.474
3364 0 52.1667 10.8882 568 116.345 865.359 478.373
3365 0 55.1625 12.3091 679 112.075 865.504 476.412
3366 0 55.1752 11.5269 636 114.984 864.676 475.876
3367 0 56.1699 11.5542 649 115.148 865.055 472.977
3368 0 60.1083 12.0948 727 113.096 864.938 474.08
3369 0 59.1048 11.5896 685 115.599 864.904 472.585
3370 0 62.098 12.0777 750 113.392 864.561 472.419
3371 0 63.143 11.957 755 114.577 865.005 471.428
3372 0 66.2101 11.4182 756 123.067 864.835 470.799
3373 0 67.2541 13.1293 883 120.075 865.262 468.58
3374 0 68.3197 11.7389 802 123.661 864.971 466.723
3375 0 74.252 11.8111 877 121.057 864.631 466.448
3376 0 76.2309 11.6226 886 119.144 864.471 467.435
3377 0 74.2074 10.4976 779 123.268 864.401 464.359
3378 0 80.3275 12.1129 973 117.863 864.979 462.316
3379 1 44.1455 9.78582 432 117.794 865.373 482.076
3380 0 45.0976 10.7323 484 113.657 865.326 480.264
3381 0 45.1305 10.1927 460 112.174 865.702 478.328
3382 0 48.0634 12.0882 581 106.277 866.446 477.492
3383 0 48.02 11.2453 540 108.744 865.943 478.293
3384 0 50.0629 10.367 519 111.38 865.649 477.299
3385 0 52.1085 11.3993 594 108.367 865.891 474.458
3386 0 54.1136 11.0139 596 108.008 865.71 475.859
3387 0 57.1114 11.7315 670 106.431 865.6 475.472
3388 0 56.0461 11.1872 627 108.177 865.581 475.34
3389 0 57.0769 12.3167 703 107.676 865.654 473.27
3390 0 59.0722 11.833 699 108.436 865.159 470.66
3391 0 60.0865 11.3004 679 110.937 865.25 469.022
3392 0 61.0909 10.5417 644 113.542 865.388 468.32
3393 0 63.117 10.4726 661 115.316 865.218 468.254
3394 0 66.1211 11.7965 780 112.528 864.614 468.771
3395 0 68.2064 12.1396 828 112.407 865.442 468.151
3396 0 72.0857 12.2771 885 111.967 865.173 465.502
3397 0 74.0939 12.6326 936 112.42 865.142 463.019
3398 0 77.088 13.517 1042 110.914 865.116 464.974
3399 0 78.128 11.9419 933 115.86 865.507 464.646
3400 0 79.1398 12.3452 977 116.609 864.869 462.03
3401 0 83.1175 11.7665 978 118.197 865.148 462.494
3402 0 86.1689 13.3111 1147 115.63 865.312 459.309
3403 0 90.125 13.3592 1204 116.325 865.416 457.387
3404 0 91.1115 12.3804 1128 120.38 865.041 455.618
3405 1 51.098 11.1159 568 120.739 866.312 476.16
3406 0 53.1262 12.1597 646 118.068 865.619 477.063
3407 0 54.0361 12.066 652 121.066 865.416 475.436
3408 0 54.1465 12.2076 661 119.404 865.047 472.295
3409 0 58.1652 12.774 743 117.363 865.41 472.476
3410 0 60.1504 12.7347 766 117.755 866.142 472.168
3411 0 61.1962 12.9093 790 118.959 865.691 469.511
3412 0 64.143 13.7193 880 115.924 865.911 469.302
3413 0 64.13 13.5038 866 118.897 866.181 466.893
3414 0 67.1545 12.434 835 121.06 866.062 467.814
3415 0 70.1073 13.1941 925 119.454 865.286 465.445
3416 0 71.1334 14.2127 1011 117.436 865.496 465.747
3417 0 74.1292 12.4108 920 121.843 865.049 465.958
3418 0 75.1662 13.0378 980 121.807 864.719 463.596
3419 0 79.2082 12.6123 999 121.918 865.065 462.056
3420 0 79.1487 12.4576 986 123.612 864.739 459.268
3421 0 82.1815 13.5067 1110 121.069 865.368 460.004
3422 0 86.1105 13.5872 1170 121.496 864.57 458.01
3423 0 90.0973 13.6963 1234 121.266 864.956 457.325
3424 0 92.1218 13.9055 1281 121.838 865.158 454.861
3425 0 95.0657 14.8003 1407 120.427 865.116 453.625
3426 0 99.1253 13.1652 1305 124.648 865.398 452.139
3427 0 101.175 13.8671 1403 123.584 864.779 449.408
3428 0 106.136 13.5487 1438 123.798 865.152 449.175
3429 0 104.158 13.0955 1364 127.505 865.094 447.493
3430 1 58.0724 12.3983 720 125.335 866.164 468.711
3431 0 61.1318 11.3525 694 126.976 865.501 469.513
3432 0 62.1998 12.4438 774 124.668 865.012 468.54
3433 0 64.0421 13.2725 850 120.209 865.953 464.879
3434 0 67.0747 12.4786 837 121.624 865.259 464.895
3435 0 65.0592 11.1283 724 125.681 865.666 463.144
3436 0 68.0196 12.0553 820 120.649 865.009 461.424
3437 0 69.0287 11.8791 820 120.941 865.874 458.989
3438 0 73.096 12.0937 884 118.954 865.821 459.146
3439 0 74.0596 11.3827 843 120.84 864.613 458.936
3440 0 76.0512 11.7684 895 120.236 864.369 457.698
3441 0 78.0602 11.4783 896 122.176 864.746 454.036
3442 0 82.0551 12.8207 1052 119.419 864.948 452.397
3443 0 86.0576 11.6666 1004 120.76 865.011 452.879
3444 0 89.0263 13.0973 1166 118.206 864.295 448.991
3445 0 93.0529 12.7884 1190 118.254 865.139 449.812
3446 0 94.0964 12.2853 1156 121.278 865.055 447.22
3447 0 97.0683 13.2484 1286 120.337 864.698 443.661
3448 0 100.145 11.6531 1167 124.497 864.117 442.879
3449 0 105.095 11.9416 1255 124.185 864.879 441.837
3450 0 106.11 12.8922 1368 122.183 863.872 442.22
3451 0 109.152 12.2947 1342 124.349 864.086 439.324
3452 0 108.076 12.1304 1311 128.367 864.296 433.611
3453 0 118.093 13.3454 1576 121.188 865.37 436.973
3454 0 122.098 13.3172 1626 121.552 865.022 435.028
3455 0 126.164 12.6581 1597 124.136 864.746 430.91
3456 0 133.423 13.9856 1866 122.89 863.712 430.372
3457 0 135.467 13.4055 1816 125.093 864.197 428.791
3458 0 138.36 13.8335 1914 124.136 863.454 424.386
3459 0 141.363 13.7801 1948 125.171 863.153 422.685
3460 0 145.204 12.8027 1859 128.564 862.588 418.226
3461 0 149.319 13.796 2060 127.369 861.987 415.953
3462 0 153.169 12.8551 1969 131.896 862 414.406
3463 0 159.345 13.3108 2121 131.656 861.763 410.031
3464 0 165.323 13.8275 2286 130.57 862.885 408.576
3465 0 167.382 12.9524 2168 135.195 861.992 404.003
3466 0 174.276 13.6049 2371 134.322 862.314 400.614
3467 0 180.291 14.7706 2663 130.687 862.367 400.456
3468 0 183.198 13.7665 2522 135.949 862.927 395.011
3469 0 190.282 14.9567 2846 133.047 860.981 396.695
3470 0 196.419 14.0771 2765 135.512 861.864 393.264
3471 0 203.397 12.9549 2635 138.757 862.356 390.046
3472 0 205.311 13.7158 2816 139.179 862.57 380.904
3473 0 212.372 13.6506 2899 138.526 861.802 385.406
3474 0 219.341 13.3308 2924 139.333 861.789 377.579
3475 0 227.34 12.5891 2862 139.717 863.005 371.134
3476 1 175.267 9.22594 1617 138.897 862.25 401.878
3477 0 182.287 9.91292 1807 136.289 862.1 399.191
3478 0 190.281 12.0611 2295 131.105 863.49 397.728
3479 0 195.354 10.6627 2083 136.713 862.795 392.613
3480 0 203.451 11.9734 2436 133.885 862.491 392.266
3481 0 210.31 11.2453 2365 135.358 862.176 390.304
3482 0 213.25 11.4185 2435 138.475 862.38 382.862
3483 0 224.174 11.6338 2608 134.402 863.017 375.927
3484 0 232.378 9.97943 2319 139.733 862.512 369.919
3485 0 238.279 10.9829 2617 141.644 862.97 369.386
3486 0 246.327 12.8204 3158 140.018 862.349 364.547
3487 1 53.1333 7.11418 378 113.111 862.918 463.807
3488 0 58.1167 8.70662 506 108.921 863.678 463.792
3489 0 62.3066 7.81619 487 113.086 863.903 467.992
3490 0 64.312 8.95634 576 110.672 863.87 466.139
3491 0 68.2282 10.6408 726 107.083 864.225 465.041
3492 0 70.2789 9.67573 680 110.154 864.096 465.168
3493 0 72.2575 11.2238 811 107.152 863.894 463.963
3494 0 73.191 9.0175 660 112.929 864.311 462.795
3495 0 76.2018 11.5745 882 106.516 864.23 462.653
3496 0 75.2362 8.97174 675 113.996 864.332 460.625
3497 0 81.139 10.9072 885 109.176 864.215 458.573
3498 0 83.2207 8.92806 743 114.306 863.719 456.871
3499 0 84.1934 9.14562 770 115.312 863.178 454.4
3500 0 89.2709 8.65904 773 117.109 863.611 452.417
3501 0 90.2397 9.26421 836 115.736 863.701 453.817
3502 0 92.1884 10.1531 936 113.912 863.403 454.429
3503 0 97.1354 11.3965 1107 111.778 863.35 453.382
3504 0 97.143 10.4073 1011 117.647 863.04 451.16
3505 0 97.4323 9.07297 884 123.294 863.285 442.279
3506 0 104.249 11.2519 1173 116.428 864.126 446.156
3507 0 105.087 9.96315 1047 120.405 863.798 447.318
3508 0 109.165 11.2673 1230 117.518 863.737 447.508
3509 0 112.24 10.7003 1201 121.44 863.258 441.522
3510 1 56.1805 8.93548 502 116.295 865.293 469.767
3511 0 63.126 11.0573 698 109.13 865.03 460.529
3512 0 64.1955 10.4524 671 111.611 864.042 452.143
3513 0 66.1572 10.8983 721 111.455 864.558 450.237
3514 0 67.2994 10.2081 687 114.477 864.546 450.093
3515 0 70.2707 11.2849 793 111.714 864.462 452.116
3516 0 71.2671 10.5098 749 114.953 864.748 451.525
3517 0 73.1808 11.5877 848 114.052 864.73 455.824
3518 0 75.1424 10.6065 797 117.484 865.026 450.348
3519 0 81.1697 11.7901 957 112.975 864.331 451.729
3520 0 78.1702 11.7308 917 115.807 864.722 454.202
3521 0 80.1295 11.1944 897 117.699 864.634 453.713
3522 0 82.1847 11.243 924 118.84 864.68 450.652
3523 0 86.1607 12.7088 1095 114.679 863.879 451.31
3524 0 89.284 12.9586 1157 114.927 863.813 451.365
3525 0 90.2085 12.5598 1133 117.079 864.285 448.926
3526 0 91.139 12.7498 1162 118.222 863.672 448.08
3527 0 96.2387 12.4274 1196 118.67 863.644 445.842
3528 0 99.3542 12.1887 1211 119.259 863.784 446.386
3529 0 101.166 13.0182 1317 118.409 863.604 449.25
3530 0 105.207 13.4021 1410 120.06 863.006 450.133
3531 0 106.268 12.3274 1310 124.309 863.682 446.531
3532 0 110.182 13.0058 1433 121.312 863.411 447.837
3533 0 113.251 12.4061 1405 123.611 863.601 442.182
3534 1 61.0285 10.7655 657 122.377 863.374 466.785
3535 0 65.174 11.4003 743 118.192 864.48 466.883
3536 0 67.2032 12.2018 820 116.107 864.82 464.211
3537 0 65.1098 11.0122 717 119.512 863.725 463.37
3538 0 71.1157 12.6414 899 113.753 864.039 462.497
3539 0 70.181 11.8551 832 117.153 864.099 460.34
3540 0 77.1459 12.4699 962 113.971 863.82 459.239
3541 0 77.0786 13.6744 1054 111.411 864.212 459.59
3542 0 80.1725 13.5832 1089 111.638 864.113 456.238
3543 0 81.1604 12.8881 1046 113.629 863.847 454.261
3544 0 87.0481 12.315 1072 112.867 862.882 457.4
3545 0 87.032 13.2365 1152 112.918 863.451 452.284
3546 0 91.0741 13.0004 1184 113.246 863.488 451.688
3547 0 89.0287 13.4114 1194 114.003 863.888 447.545
3548 0 95.066 12.8858 1225 113.723 863.678 445.723
3549 0 99.0438 13.5899 1346 111.26 863.63 448.86
3550 0 100.082 11.1608 1117 117.477 863.015 445.964
3551 0 103.118 13.5378 1396 111.961 863.433 443.151
3552 0 105.202 12.766 1343 114.455 865.138 441.424
3553 0 111.31 12.6673 1410 113.62 865.067 437.848
3554 0 114.22 12.2746 1402 114.278 864.684 439.25
3555 1 64.1023 10.1868 653 108.819 864.337 462.542
3556 0 63.1314 9.77326 617 108.877 864.867 461.82
3557 0 64.1167 10.2469 657 108.979 864.367 458.965
3558 0 70.2738 10.5587 742 106.02 864.21 460.926
3559 0 69.1793 9.71389 672 107.452 864.257 461.818
3560 0 73.0794 10.2491 749 101.041 865.486 460.634
3561 0 73.1246 11.118 813 101.827 864.87 455.123
3562 0 77.0548 9.77226 753 103.906 865.408 456.543
3563 0 79.0608 9.60021 759 104.787 865.387 455.623
3564 0 84.1021 10.4635 880 103.678 864.705 452.147
3565 0 87.1801 11.9752 1044 101.568 864.512 451.189
3566 0 89.2235 11.2751 1006 103.402 864.497 450.97
3567 0 91.0982 11.076 1009 105.192 865.108 450.386
3568 0 94.0629 10.3441 973 105.746 865.303 451.984
3569 0 97.0757 10.1261 983 108.789 865.231 445.207
3570 0 101.074 10.9029 1102 107.156 864.556 446.159
3571 0 103.19 11.067 1142 106.669 865.097 445.375
3572 0 106.037 11.0622 1173 109.815 864.404 444.841
3573 0 111.088 11.0723 1230 110.712 864.62 445.695
3574 0 114.107 12.0764 1378 109.924 864.309 445.327
3575 1 65.0273 9.84203 640 107.514 864.236 470.966
3576 0 65.0629 12.1267 789 104.127 866.676 468.063
3577 0 67.035 11.6059 778 103 866.148 467.661
3578 0 69.1414 11.8164 817 102.756 866.35 465.92
3579 0 72.0592 13.2114 952 100.618 866.39 465.496
3580 0 73.0783 12.1924 891 103.383 866.857 463.083
3581 0 75.1673 11.5476 868 105.85 865.518 460.926
3582 0 79.0849 12.417 982 104.416 865.798 460.715
3583 0 81.0904 12.1963 989 104.619 865.844 461.008
3584 0 85.0799 13.7165 1167 101.742 865.422 459.502
3585 0 89.182 13.0744 1166 102.056 865.369 458.937
3586 0 91.2253 14.2833 1303 100.421 865.219 456.13
3587 0 94.1139 14.3337 1349 100.396 865.172 457.514
3588 0 98.1907 14.6959 1443 98.8947 864.696 456.597
3589 0 99.1792 15.0435 1492 100.031 864.362 453.146
3590 0 101.199 13.4191 1358 104.001 864.525 450.828
3591 0 104.125 15.0204 1564 100.507 864.242 452.547
3592 0 107.25 13.9114 1492 102.914 866.066 450.126
3593 0 111.227 14.0614 1564 102.57 865.302 447.63
3594 0 114.111 14.223 1623 103.078 865.241 445.691
3595 0 116.176 13.2902 1544 106.169 864.327 442.231
3596 0 122.339 14.5824 1784 102.508 864.41 442.108
3597 1 62.1781 10.3895 646 107.817 865.28 468.367
3598 0 63.0911 9.77951 617 102.891 865.467 465.89
3599 0 69.0943 11.7521 812 98.3916 865.649 466.549
3600 0 70.0419 11.3075 792 102.572 865.977 458.99
3601 0 72.1519 10.8521 783 99.613 865.563 460.605
3602 0 73.0936 10.7533 786 101.025 865.555 461.285
3603 0 78.1518 12.3733 967 97.2306 865.844 459.725
3604 0 77.0756 11.0152 849 102.776 865.213 459.199
3605 0 82.0583 11.4065 936 102.704 865.529 456.266
3606 0 84.0908 12.6054 1060 101.976 865.759 455.984
3607 0 84.0645 12.657 1064 103.556 866.273 455.852
3608 0 86.1767 10.5133 906 108.962 865.746 454.131
3609 0 91.0907 12.7565 1162 105.441 865.203 452.742
3610 0 93.1968 12.0712 1125 108.852 865.342 450.023
3611 0 96.1635 12.5827 1210 109.475 865.096 449.524
3612 0 97.134 11.5099 1118 114.065 864.932 448.936
3613 0 104.281 12.8979 1345 104.389 865.312 448.1
3614 0 105.202 13.4693 1417 104.152 865.202 447.044
3615 0 108.155 14.7566 1596 101.552 865.568 442.706
3616 0 112.142 12.6535 1419 107.258 865.838 442.735
3617 0 116.136 13.8028 1603 105.378 865.558 443.631
3618 1 60.1393 10.8249 651 106.051 864.957 473.946
3619 0 63.0888 12.3952 782 102.593 865.078 472.16
3620 0 66.1166 12.5838 832 102.315 867.034 472.097
3621 0 66.077 12.319 814 103.398 866.776 470.741
3622 0 70.184 13.1512 923 101.157 867.441 468.866
3623 0 71.1084 12.8114 911 101.592 867.437 468.183
3624 0 75.0945 12.8771 967 101.394 867.482 467.024
3625 0 78.2724 14.2962 1119 98.2592 866.759 465.852
3626 0 79.1063 14.9293 1181 97.2574 866.998 464.732
3627 0 81.0912 13.3923 1086 100.623 866.817 462.5
3628 0 83.1484 13.4458 1118 100.824 867.061 460.451
3629 0 87.1778 12.9964 1133 100.741 866.016 459.737
3630 0 88.0999 12.2929 1083 100.806 866.524 461.201
3631 0 90.1612 11.7789 1062 102.206 865.934 454.216
3632 0 93.1206 11.5334 1074 102.457 865.808 450.346
3633 0 97.0908 11.6901 1135 101.54 865.509 451.063
3634 0 100.16 12.8394 1286 99.7449 865.214 447.525
3635 0 102.061 12.3652 1262 100.817 865.197 447.458
3636 0 107.117 11.9402 1279 100.955 865.518 443.926
3637 0 111.222 11.059 1230 104.355 865.487 437.74
3638 0 115.221 12.8796 1484 103.569 865.635 443.588
3639 1 61.1479 10.2211 625 104.072 865.867 472.686
3640 0 62.2756 11.2725 702 102.845 865.722 468.821
3641 0 64.2091 12.5527 806 99.9169 865.841 465.609
3642 0 66.0967 13.1474 869 98.2002 865.704 467.681
3643 0 71.1922 12.375 881 99.2883 865.51 466.161
3644 0 73.1627 11.9596 875 99.7806 865.483 466.175
3645 0 75.1581 13.4117 1008 98.4732 865.203 462.3
3646 0 80.1708 13.3216 1068 98.1245 864.898 463.395
3647 0 80.0961 12.5724 1007 101.134 865.182 461.194
3648 0 83.0939 12.0586 1002 101.734 865.267 454.342
3649 0 86.2178 12.8048 1104 101.26 865.096 452.609
3650 0 89.1418 14.2133 1267 98.6417 864.959 454.139
3651 0 91.1922 13.0603 1191 99.1948 864.624 453.978
3652 0 94.1909 11.551 1088 105.325 864.628 446.116
3653 0 100.323 15.7092 1576 94.5736 864.381 446.287
3654 0 101.123 13.6863 1384 99.8887 864.559 448.135
3655 0 104.153 12.9233 1346 101.081 864.964 449.69
3656 1 58.0761 13.2757 771 96.6355 865.45 473.017
3657 0 60.1098 12.6602 761 97.5677 864.075 478.255
3658 0 62.0848 13.0628 811 97.5857 864.037 476.703
3659 0 61.0297 13.4852 823 99.6962 864.509 474.112
3660 0 65.074 13.5538 882 99.2177 863.939 473.935
3661 0 67.0723 12.7773 857 101.606 864.295 473.859
3662 0 69.0726 12.2625 847 103.769 864.089 471.771
3663 0 72.0327 12.6748 913 103.13 864.183 471.482
3664 0 74.2233 12.7857 949 103.417 863.904 469.466
3665 0 77.1125 12.8384 990 104.139 864.183 467.106
3666 0 78.105 11.9967 937 106.581 863.917 468.06
3667 0 81.1943 14.065 1142 102.992 864.132 465.546
3668 0 85.1315 13.9431 1187 102.701 863.822 464.771
3669 0 89.0824 12.3369 1099 104.875 864.131 465.803
3670 0 90.0906 13.7084 1235 105.202 864.257 462.364
3671 0 93.074 12.9682 1207 106.921 864.641 463.402
3672 0 94.135 12.2271 1151 109.334 864.221 461.241
3673 0 97.2734 14.3102 1392 106.034 863.966 454.417
3674 0 101.214 11.9943 1214 110.568 863.783 458.226
3675 0 106.359 12.9562 1378 109.424 864.279 452.589
3676 0 109.325 12.7235 1391 109.336 864.097 451.584
3677 1 60.3022 11.4092 688 110.333 863.891 473.703
3678 0 62.1722 12.4332 773 110.155 864.082 473.488
3679 0 66.0682 13.5315 894 108.059 864.83 471.639
3680 0 70.0563 13.3892 938 107.741 864.914 472.997
3681 0 73.0332 13.0352 952 109.665 864.593 470.227
3682 0 74.151 12.6499 938 110.788 865.366 470.208
3683 0 77.1318 12.0962 933 112.496 864.612 465.777
3684 0 81.2025 13.9774 1135 102.542 864.107 466.807
3685 0 82.2274 11.906 979 109.469 864.767 464.016
3686 0 85.1714 13.4904 1149 106.46 864.473 462.599
3687 0 88.1766 12.8946 1137 109.224 864.031 461.237
3688 0 92.0865 13.9977 1289 108.133 863.823 460.437
3689 0 96.1869 13.8065 1328 108.306 864.09 460.649
3690 0 96.1606 13.1551 1265 107.994 863.259 454.255
3691 0 101.11 12.4715 1261 109.821 863.109 454.065
3692 0 103.199 11.7443 1212 111.967 863.134 451.389
3693 0 108.07 12.973 1402 108.902 862.862 450.852
3694 0 111.192 13.9398 1550 107.07 862.65 447.972
3695 1 64.1104 11.6986 750 105.093 863.004 473.353
3696 0 62.1182 11.1239 691 107.98 863.431 475.3
3697 0 63.125 11.4218 721 108.166 863.337 473.51
3698 0 65.108 11.7344 764 106.685 863.661 474.013
3699 0 69.1802 13.2986 920 103.227 863.643 472.771
3700 0 70.1033 11.4117 800 107.59 863.735 469.534
3701 0 74.1103 11.9686 887 105.463 863.327 469.505
3702 0 75.114 11.609 872 106.444 863.053 467.502
3703 0 80.0983 12.4847 1000 103.581 863.014 468.853
3704 0 82.0699 13.1595 1080 103.099 863.49 463.812
3705 0 85.1022 12.6436 1076 103.907 863.18 463.578
3706 0 88.0584 13.3434 1175 102.236 863.66 462.874
3707 0 92.1482 14.8131 1365 99.3546 864.086 461.048
3708 0 92.1105 12.561 1157 105.505 863.749 460.508
3709 0 95.0942 12.6401 1202 106.303 863.868 457.72
3710 0 100.093 13.3576 1337 104.519 864.277 454.605
3711 0 105.162 13.1702 1385 104.102 863.394 454.147
3712 0 106.176 11.349 1205 108.51 863.348 447.766
3713 1 58.1061 10.5669 614 102.342 863.964 477.292
3714 0 60.1035 11.6965 703 103.99 863.275 474.283
3715 0 63.1571 11.891 751 102.313 863.603 473.599
3716 0 63.0561 11.5929 731 104.484 864.26 473.327
3717 0 69.0746 13.2176 913 100.09 863.824 473.808
3718 0 66.0584 11.5352 762 106.194 863.833 469.32
3719 0 71.0483 12.6534 899 103.26 863.32 469.446
3720 0 71.0987 11.2801 802 107.059 862.974 467.621
3721 0 77.0979 13.3337 1028 101.609 863.621 466.367
3722 0 78.142 12.5029 977 104.621 863.216 465.469
3723 0 81.1367 13.1013 1063 102.867 863.616 467.005
3724 0 84.1727 13.401 1128 103.557 863.272 463.311
3725 0 85.1202 12.5352 1067 106.487 863.33 458.291
3726 0 90.1969 12.9827 1171 104.547 863.477 457.423
3727 0 92.1542 12.924 1191 106.38 863.285 455.915
3728 0 92.1754 10.4258 961 112.188 863.462 452.773
3729 1 49.1063 11.9333 586 109.449 863.077 475.775
3730 0 53.1867 11.6382 619 108.869 862.835 475.076
3731 0 51.0892 10.1979 521 111.862 862.691 475.273
3732 0 56.0661 12.735 714 105.72 862.688 474.821
3733 0 57.1865 11.9609 684 107.452 863.344 474.885
3734 0 59.095 13.0806 773 106.37 863.291 471.583
3735 0 61.1627 13.5704 830 104.083 863.098 470.824
3736 0 62.0694 11.8899 738 104.308 863.893 468.409
3737 0 65.2134 11.4394 746 104.69 863.942 470.177
3738 0 68.101 13.3919 912 101.236 863.417 466.477
3739 0 70.0285 13.0375 913 102.135 863.17 466.973
3740 0 73.1617 12.6569 926 102.654 863.797 464.147
3741 0 75.1675 12.971 975 102.938 863.822 460.784
3742 0 81.114 14.0296 1138 100.53 863.939 463.134
3743 0 82.1662 13.7404 1129 102.508 863.857 461.202
3744 0 85.0985 14.4891 1233 101.441 864.183 459.001
3745 0 84.1234 11.816 994 108.933 864.686 457.217
3746 0 90.1562 13.5432 1221 105.354 865.154 455.945
3747 0 93.1051 13.1572 1225 107.256 864.768 455.604
3748 0 94.1443 12.5021 1177 109.704 864.506 452.115
3749 1 53.1267 11.5761 615 104.62 864.823 476.626
3750 0 53.1268 11.049 587 106.405 864.998 476.298
3751 0 57.0668 12.757 728 102.871 865.474 473.661
3752 0 57.0546 13.1103 748 101.191 865.213 471.108
3753 0 59.1551 12.8983 763 101.654 865.156 470.716
3754 0 62.2013 13.7136 853 99.5674 865.334 470.815
3755 0 62.1786 12.3515 768 102.762 865.585 469.695
3756 0 62.098 12.593 782 103.593 864.813 469.332
3757 0 67.1602 13.6241 915 100.404 865.062 467.071
3758 0 71.2168 14.154 1008 97.7302 865.606 467.004
3759 0 72.2545 13.84 1000 98.867 865.108 465.427
3760 0 75.109 13.3406 1002 99.8034 865.134 464.991
3761 0 78.1743 12.4849 976 101.997 865.542 462.675
3762 0 78.2609 11.9217 933 104.977 866.008 463.369
3763 0 81.1981 12.3032 999 104.738 865.6 460.315
3764 0 84.2171 13.1327 1106 103.067 865.767 459.915
3765 0 84.1681 11.2513 947 105.337 865.485 456.026
3766 0 91.1873 12.6333 1152 100.889 866.375 457.438
3767 0 92.1782 12.2155 1126 102.702 865.657 454.446
3768 0 97.1376 12.7448 1238 102.795 866.13 454.922
3769 0 100.159 13.3488 1337 101.46 866.082 446.974
3770 0 103.295 12.382 1279 103.038 865.746 449.471
3771 0 108.251 13.4225 1453 101.523 865.922 448.541
3772 0 111.322 11.8934 1324 106.148 865.021 444.93
3773 1 60.1461 12.9185 777 106.34 865.233 471.422
3774 0 61.1777 11.7199 717 108.873 865.986 467.303
3775 0 63.3604 13.1944 836 103.312 865.815 468.201
3776 0 66.174 14.1596 937 100.625 865.307 468.096
3777 0 69.1643 14.227 984 100.423 865.591 466.804
3778 0 71.2622 13.0925 933 102.942 865.689 464.885
3779 0 72.2654 15.7337 1137 98.4389 865.376 461.89
3780 0 75.3337 13.9247 1049 102.812 865.876 459.759
3781 0 77.2685 13.7702 1064 104.37 864.904 458.294
3782 0 80.3791 12.4286 999 107.33 866.436 456.269
3783 0 83.1973 13.1014 1090 106.287 866.238 455.075
3784 0 87.3747 13.4593 1176 105.174 866.503 453.18
3785 0 89.226 13.4938 1204 105.462 866.182 451.458
3786 0 92.338 13.2232 1221 106.269 866.12 450.744
3787 0 93.1656 12.086 1126 109.552 866.364 450.69
3788 0 97.3312 12.2674 1194 109.007 865.896 447.092
3789 0 102.224 12.9812 1327 108.11 865.999 446.188
3790 0 106.536 13.9484 1486 106.579 865.63 442.452
3791 0 111.407 14.0655 1567 105.68 866.061 443.194
3792 1 56.2288 12.6448 711 109.568 866.286 465.786
3793 0 59.3241 13.3335 791 107.593 865.686 466.527
3794 0 61.379 13.4248 824 104.494 866.001 465.262
3795 0 61.329 13.4031 822 106.079 866.148 464.144
3796 0 62.2994 12.6486 788 109.652 866.203 461.461
3797 0 65.2207 13.7226 895 106.958 866.104 463.45
3798 0 68.325 14.4018 984 106.097 865.971 461.534
3799 0 70.2933 14.4822 1018 106.286 865.582 460.374
3800 0 73.4358 13.2905 976 108.415 865.889 459.921
3801 0 77.1534 13.0519 1007 109.017 865.234 457.265
3802 0 77.2754 12.9407 1000 111.175 865.008 456.999
3803 0 79.285 13.9749 1108 110.231 865.158 454.804
3804 0 82.2597 12.9954 1069 112.87 865.404 455.146
3805 0 86.2554 13.2398 1142 112.121 865.339 455.356
3806 0 88.296 13.5227 1194 112.258 865.556 451.25
3807 0 91.2625 14.6172 1334 110.156 865.7 449.93
3808 0 95.2145 14.6301 1393 109.983 865.024 451.772
3809 0 97.5294 13.1755 1285 114.215 865.235 449.718
3810 0 102.262 14.6486 1498 110.439 865.121 449.956
3811 0 105.467 14.5069 1530 112.571 865.314 448.09
3812 0 107.358 14.5402 1561 113.479 864.675 443.65
3813 0 110.191 13.5492 1493 115.281 864.414 447.672
3814 0 114.386 13.5332 1548 116.271 864.938 440.706
3815 0 119.248 13.7193 1636 116.237 865.472 440.722
3816 0 123.302 13.5359 1669 115.754 864.995 442.098
3817 0 126.19 13.0835 1651 118.007 865.19 436.982
3818 1 68.1716 11.7058 798 120.184 865.511 462.312
3819 0 74.251 14.424 1071 111.781 864.83 463.753
3820 0 73.1839 14.2654 1044 115.357 864.746 462.723
3821 0 74.2116 12.9764 963 118.574 865.315 462.065
3822 0 76.1633 13.1297 1000 118.651 865.688 459.868
3823 0 82.1 14.0317 1152 115.279 865.141 458.964
3824 0 82.1533 13.1462 1080 119.69 865.327 456.102
3825 0 84.1379 12.6102 1061 121.609 864.677 456.094
3826 0 88.0705 13.9774 1231 117.933 864.748 454.968
3827 0 91.12 13.356 1217 120.073 865.35 453.109
3828 0 93.0576 13.5293 1259 121.979 864.656 451.129
3829 0 97.0574 14.5687 1414 118.802 865.554 450.786
3830 0 100.095 13.1575 1317 122.65 865.567 450.983
3831 0 103.105 14.0343 1447 120.818 865.555 448.977
3832 0 105.145 14.0283 1475 122.682 864.923 445.675
3833 0 109.115 13.6095 1485 122.242 865.261 447.102
3834 0 113.149 13.7429 1555 123.701 865.314 443.211
3835 0 118.186 14.0626 1662 122.413 864.573 441.914
3836 0 124.192 14.6467 1819 120.472 864.544 438.058
3837 0 128.181 15.8447 2031 118.547 864.617 434.896
3838 0 133.245 15.1375 2017 121.627 864.313 429.779
3839 0 136.126 14.0237 1909 124.539 864.256 428.31
3840 0 144.256 14.6268 2110 121.557 864.594 428.668
3841 0 148.397 14.623 2170 123.213 864.675 424.405
3842 1 77.2952 10.8933 842 123.34 865.57 463.133
3843 0 82.1668 12.0121 987 124.135 865.286 456.15
3844 0 87.1909 11.9279 1040 119.508 865.918 456.208
3845 0 88.3197 11.7641 1039 124.195 864.822 452.143
3846 0 94.3642 13.5009 1274 118.203 864.792 452.897
3847 0 96.2836 14.0522 1353 117.576 864.617 450.777
3848 0 99.1549 12.5259 1242 120.404 864.209 444.929
3849 0 103.454 12.334 1276 121.63 864.404 443.915
3850 0 106.275 12.9193 1373 120.165 864.518 445.291
3851 0 108.352 12.7732 1384 121.434 864.857 440.501
3852 0 113.335 11.2146 1271 124.293 864.087 440.872
3853 0 119.263 13.1475 1568 118.494 864.492 440.149
3854 0 124.38 12.7432 1585 119.732 863.848 436.01
3855 0 127.112 12.2727 1560 121.223 864.621 434.272
3856 0 130.16 12.5384 1632 121.712 863.513 427.24
3857 1 72.1409 9.23194 666 114.188 865.056 454.009
3858 0 77.0973 10.1171 780 110.401 865.213 454.7
3859 0 78.1034 11.7408 917 106.153 865.012 451.326
3860 0 77.0511 9.88954 762 108.5 865.32 454.69
3861 0 87.0468 11.1549 971 105.217 865.261 456.8
3862 0 89.0586 11.5542 1029 108.325 865.501 456.313
3863 0 91.0552 11.806 1075 108.389 865.287 456.763
3864 0 94.0514 11.2492 1058 110.793 865.063 452.987
3865 0 98.0782 12.2759 1204 107.945 865.694 451.135
3866 0 100.069 11.8618 1187 110.233 865.771 448.292
3867 0 102.131 11.1328 1137 111.745 864.713 447.974
3868 0 106.151 10.909 1158 112.247 864.047 447.032
3869 0 108.114 11.2196 1213 112.588 863.689 445.297
3870 0 112.162 11.9113 1336 111.127 863.794 442.212
3871 0 116.126 10.5747 1228 113.485 864.061 443.217
3872 0 121.089 11.8838 1439 112.527 864.503 437.641
3873 0 122.129 11.6762 1426 114.03 863.835 437.154
3874 0 128.06 10.7919 1382 115.379 863.508 433.48
3875 1 72.1421 10.6734 770 108.068 863.908 462.788
3876 0 74.0569 11.5317 854 106.65 864.944 461.926
3877 0 74.043 10.4804 776 108.536 863.383 459.755
3878 0 80.0514 11.2178 898 106.916 865.503 458.671
3879 0 81.0707 12.5323 1016 104.861 865.351 457.732
3880 0 85.0844 13.8803 1181 102.135 863.304 458.739
3881 0 86.0918 10.5353 907 110.219 863.675 454.998
3882 0 89.0615 11.4415 1019 110.617 864.026 454.514
3883 0 88.1479 10.3122 909 114.431 864.262 452.906
3884 0 95.2215 11.8461 1128 110.874 863.917 453.263
3885 0 96.191 12.0905 1163 111.049 863.983 450.227
3886 0 100.151 11.6324 1165 112.523 864.344 450.784
3887 0 106.167 13.4411 1427 108.677 864.312 450.33
3888 0 108.149 12.8896 1394 111.374 863.499 446.753
3889 0 112.236 12.8123 1438 111.895 863.848 446
3890 0 115.455 12.6283 1458 112.443 864.019 444.175
3891 0 119.3 12.5733 1500 114.19 863.623 437.391
3892 0 123.41 12.6975 1567 115.747 863.763 437.164
3893 0 125.289 12.1878 1527 118.094 863.785 434.377
3894 0 131.321 13.4708 1769 114.666 864.908 434.006
3895 0 135.265 13.4329 1817 114.946 863.984 434.569
3896 0 138.41 12.1451 1681 118.349 864.044 432.334
3897 0 144.251 13.1992 1904 116.618 863.528 425.909
3898 0 148.361 13.602 2018 115.672 863.774 427.09
3899 0 151.312 13.2177 2000 116.534 863.861 422.437
3900 1 82.1709 9.8575 810 102.059 865.33 464.505
3901 0 85.1408 9.14955 779 104.715 865.116 464.257
3902 0 89.1567 12.1247 1081 98.8575 865.057 460.971
3903 0 88.0797 10.3883 915 103.819 864.831 458.885
3904 0 92.1252 11.7883 1086 102.086 865.087 460.048
3905 0 95.2446 10.7093 1020 103.956 865.414 458.667
3906 0 99.2144 10.1699 1009 105.459 864.772 456.276
3907 0 102.19 10.0695 1029 105.072 864.966 457.431
3908 0 104.125 11.5439 1202 102.863 864.945 454.285
3909 0 108.136 12.1421 1313 102.232 865.264 454.129
3910 0 110.102 10.6991 1178 106.866 864.631 449.45
3911 0 115.19 13.595 1566 99.8461 864.404 441.866
3912 0 117.168 13.5446 1587 101.572 864.371 442.098
3913 0 124.132 14.2993 1775 99.3296 863.87 436.965
3914 0 123.235 13.0401 1607 105.332 863.941 441.099
3915 0 126.182 12.1095 1528 109.046 864.226 437.745
3916 0 132.2 10.8699 1437 111.626 863.937 436.497
3917 0 135.259 11.6887 1581 110.169 863.639 439.292
3918 1 79.0994 10.3541 819 102.289 863.83 466.862
3919 0 82.0588 10.0172 822 102.826 864.266 465.29
3920 0 83.1239 11.922 991 100.907 863.968 462.214
3921 0 88.1091 12.8137 1129 98.4792 864.535 462.622
3922 0 89.0883 12.1004 1078 101.546 863.992 460.239
3923 0 90.0742 11.6348 1048 103.256 863.912 458.178
3924 0 94.0855 11.6915 1100 103.379 864.053 456.818
3925 0 98.0765 11.7051 1148 103.605 863.72 456.01
3926 0 101.112 12.2537 1239 102.632 864.018 456.353
3927 0 103.089 12.3292 1271 104.266 863.574 452.44
3928 0 104.108 10.9118 1136 108.458 863.2 450
3929 0 110.213 12.7662 1407 103.027 864.286 451.161
3930 0 113.053 11.7644 1330 106.402 863.598 447.314
3931 0 116.269 12.9527 1506 104.351 863.086 447.017
3932 0 119.085 12.0502 1435 106.581 862.976 447.776
3933 0 119.104 9.84854 1173 113.924 862.777 442.551
3934 0 125.177 11.6555 1459 110.254 862.697 444.054
3935 0 129.165 11.1717 1443 112.29 862.685 439.952
3936 0 132.151 10.2535 1355 114.903 862.638 439.901
3937 0 137.131 10.6905 1466 115.641 862.025 434.282
3938 1 75.1727 8.19446 616 112.31 862.24 468.976
3939 0 76.119 9.0122 686 112.146 861.889 461.646
3940 0 82.1755 12.1204 996 105.827 862.508 465.695
3941 0 83.1375 11.5231 958 108.361 861.99 461.206
3942 0 84.1671 11.4534 964 109.354 861.809 462.247
3943 0 88.1222 11.3479 1000 108.88 862.071 462.179
3944 0 90.1519 11.9909 1081 108.631 862.65 459.868
3945 0 94.1631 11.9155 1122 109.224 862.086 456.727
