time division length width area intensity CMx CMy
0 0 43.0204 13.9236 599 143.442 799.304 472.252
1 0 44.061 13.2317 583 145.966 800.033 472.123
2 0 46.0575 13.4614 620 144.669 800.021 471.515
3 0 47.0397 13.7969 649 143.154 800.208 471.068
4 0 48.0305 13.8037 663 142.817 800.253 470.873
5 0 49.121 14.0266 689 143.029 800.411 470.724
6 0 49.0629 13.2075 648 144.591 799.955 470.468
7 0 51.1269 12.8504 657 144.689 800.298 470.435
8 0 53.0407 13.2163 701 140.317 799.536 469.563
9 0 55.0572 13.2953 732 141.836 799.399 467.928
10 0 55.0706 14.9989 826 135.993 799.174 469.669
11 0 58.0744 14.137 821 137.538 799.945 469.145
12 0 60.0299 14.2596 856 137.159 799.064 467.277
13 0 60.0823 14.5467 874 141.722 797.923 463.334
14 0 63.1225 14.5748 920 139.982 797.972 464.792
15 0 65.0995 14.3319 933 141.318 797.884 464.835
16 0 67.0886 14.384 965 143.836 798.789 464.196
17 0 69.1577 14.5609 1007 142.415 798.636 463.802
18 0 72.1435 14.6375 1056 141.193 799.209 463.423
19 0 73.1285 15.2198 1113 140.127 798.137 462.271
20 0 78.1447 15.3945 1203 136.166 797.51 457.73
21 0 80.0945 14.3206 1147 139.625 798.137 458.812
22 1 41.0631 12.0546 495 136.802 797.925 479.554
23 0 43.0395 11.8031 508 138.681 797.657 479.053
24 0 44.062 12.2781 541 141.53 797.863 479.386
25 0 45.0216 12.9271 582 140.498 796.854 477.837
26 0 48.1366 13.0462 628 137.952 796.387 476.639
27 0 49.0362 14.9685 734 131.931 797.072 476.782
28 0 48.0183 13.0367 626 140.935 796.719 475.756
29 0 51.0389 14.2636 728 131.633 797.253 476.613
30 0 54.1073 14.3788 778 130.704 797.299 475.073
31 0 54.1005 13.7337 743 134.194 796.532 474.371
32 0 56.0163 13.1926 739 136.384 796.261 473.507
33 0 59.2234 14.4369 855 130.758 796.767 471.784
34 0 60.0614 14.019 842 132.777 796.698 470.007
35 0 64.1249 14.2222 912 132.697 796.94 470.05
36 0 65.0896 14.7335 959 132.447 797.584 468.24
37 0 68.1043 15.2267 1037 134.422 797.133 466.138
38 0 70.1561 13.9118 976 138.905 796.122 465.678
39 0 74.1226 14.8673 1102 134.893 796.31 464.908
40 0 74.116 14.4368 1070 138.237 796.009 464.408
41 0 78.0824 14.1901 1108 135.035 796.144 464.155
42 0 80.1515 13.9111 1115 137.155 795.641 462.391
43 0 84.0948 14.769 1242 134.705 795.971 460.62
44 0 86.0807 14.7071 1266 135.279 795.615 460.166
45 0 91.0678 14.3959 1311 136.041 795.699 457.881
46 0 92.1909 14.9689 1380 133.651 794.536 457.718
47 1 46.0326 11.0574 509 139.992 794.371 477.527
48 0 49.0477 11.601 569 128.757 795.787 475.302
49 0 51.0987 12.4857 638 124.078 795.406 471.886
50 0 52.0722 12.5787 655 128.505 795.101 470.925
51 0 54.0294 12.6228 682 126.698 795.276 475.355
52 0 55.0187 13.8135 760 127.674 795.536 473.588
53 0 58.0276 13.08 759 128.095 795.489 474.625
54 0 60.104 15.0905 907 122.585 795.119 472.582
55 0 64.1537 13.8418 888 124.252 795.181 472.038
56 0 66.0407 14.915 985 120.907 795.734 472.054
57 0 67.0802 13.9535 936 126.657 795.11 468.706
58 0 70.1622 13.2835 932 129.421 795.491 467.646
59 0 72.077 14.1931 1023 126.551 795.51 467.175
60 0 74.0686 14.068 1042 128.214 795.27 465.19
61 0 78.0928 13.9962 1093 126.29 795.117 465.142
62 0 81.1011 13.9086 1128 126.702 794.542 463.374
63 0 84.1373 14.512 1221 124.98 794.37 460.009
64 0 87.1282 13.3252 1161 127.337 794.043 460.786
65 0 91.2482 13.8304 1262 126.674 793.866 458.583
66 0 93.1545 13.6118 1268 127.586 793.761 453.16
67 0 99.1042 13.7128 1359 124.561 793.462 456.506
68 1 51.0324 12.3059 628 124.975 793.475 477.769
69 0 52.1238 12.3552 644 126.494 794.171 475.963
70 0 54.248 12.5535 681 119.794 793.943 477.217
71 0 55.2726 13.153 727 120.122 793.891 474.38
72 0 58.1371 13.6918 796 114.371 793.712 475.22
73 0 61.1012 12.913 789 113.454 793.665 474.205
74 0 64.0696 13.3449 855 112.732 794.116 471.373
75 0 66.1115 13.5226 894 112.201 793.642 471.619
76 0 68.1077 12.8033 872 121.32 793.923 471.198
77 0 71.131 13.0604 929 120.108 794.884 469.197
78 0 74.1714 13.1992 979 119.136 794.67 469.489
79 0 77.1562 13.7643 1062 116.163 794.886 466.202
80 0 79.0951 13.528 1070 116.579 794.788 465.62
81 0 81.0546 12.3744 1003 120.536 793.29 463.616
82 0 84.0913 13.0334 1096 117.996 793.138 463.754
83 0 89.2104 13.7428 1226 116.363 793.863 460.407
84 0 92.1554 13.2928 1225 118.779 793.675 460.021
85 0 95.1764 13.7219 1306 117.885 794.127 458.296
86 1 49.0941 12.9547 636 116.832 794.083 478.976
87 0 51.0126 12.6243 644 119.186 794.972 477.834
88 0 53.1024 14.6698 779 110.263 794.887 479.401
89 0 55.1082 12.1761 671 118.437 794.866 476.97
90 0 57.1471 12.9315 739 116.068 794.785 476.802
91 0 57.1323 12.8124 732 116.73 794.735 475.969
92 0 62.0792 13.6117 845 114.039 794.712 474.988
93 0 62.1018 13.1558 817 117.979 794.33 473.306
94 0 65.0668 13.2325 861 118.437 794.774 472.408
95 0 67.1481 13.567 911 118.42 794.347 472.631
96 0 70.1404 14.471 1015 119.088 794.067 469.854
97 0 72.1116 13.0215 939 122.377 795.198 471.033
98 0 74.134 13.3677 991 122.711 794.608 468.624
99 0 78.21 13.745 1075 121.651 794.587 466.528
100 0 80.1461 14.4237 1156 119.412 794.965 467.235
101 0 81.1644 12.9983 1055 126.465 793.4 463.769
102 0 86.0833 13.8471 1192 123.916 793.471 463.88
103 0 87.1017 13.6048 1185 126.582 793.306 460.848
104 0 92.1665 13.6818 1261 127.462 793.144 459.756
105 0 96.171 14.2143 1367 127.677 792.814 457.783
106 0 100.165 14.9254 1495 124.337 792.021 455.296
107 0 104.142 14.9508 1557 122.757 792.49 453.169
108 1 61.1666 12.6703 775 126.351 792.462 473.021
109 0 61.1448 12.7402 779 125.858 792.504 473.445
110 0 64.0948 13.4956 865 120.739 793.231 476.15
111 0 64.1102 12.7437 817 126.053 793.028 473.312
112 0 68.1083 13.3904 912 124.895 793.262 469.736
113 0 70.1767 14.1785 995 123.22 793.465 471.518
114 0 74.1178 14.8682 1102 121.445 793.342 466.779
115 0 76.1331 13.8704 1056 125.266 793.661 466.23
116 0 78.1488 14.37 1123 124.566 793.782 465.728
117 0 82.1683 15.3465 1261 122.3 793.806 465.225
118 0 82.1839 14.2242 1169 127.893 793.906 464.592
119 0 83.1417 14.6136 1215 129.548 793.364 461.993
120 0 89.2402 14.545 1298 128.552 793.086 459.868
121 0 90.1558 14.7966 1334 128.647 793.11 459.753
122 0 91.1502 13.9001 1267 133.337 793.615 457.24
123 0 98.0802 15.0489 1476 127.258 792.888 457.564
124 0 98.1164 13.9426 1368 132.605 793.884 453.77
125 0 103.135 14.7089 1517 125.719 794.132 454.523
126 0 103.135 14.7961 1526 157.883 793.123 454.455
127 0 109.201 13.9742 1526 128.299 792.528 448.746
128 0 115.153 13.9033 1601 127.572 793.711 448.404
129 0 118.205 13.0282 1540 131.448 794.064 442.282
130 0 125.269 15.3429 1922 122.855 793.685 443.871
131 0 126.359 13.43 1697 129.454 794.024 439.437
132 0 132.372 14.3686 1902 127.831 793.999 437.654
133 0 134.199 13.5247 1815 131.742 794.699 435.875
134 0 141.275 14.3408 2026 129.772 793.935 433.218
135 0 144.24 13.9698 2015 131.644 793.659 431.432
136 0 150.262 14.4348 2169 129.244 794.263 430.038
137 0 153.27 14.4451 2214 129.033 793.26 429.239
138 0 159.304 13.5088 2152 131.395 793.292 426.646
139 1 101.255 11.6735 1182 133.393 793.926 452.541
140 0 107.276 13.7403 1474 126.926 793.713 450.72
141 0 109.309 13.1919 1442 128.975 793.757 449.209
142 0 115.138 14.3566 1653 125.206 793.343 448.756
143 0 118.172 13.6157 1609 128.434 793.429 444.912
144 0 123.301 13.909 1715 127.251 793.008 441.9
145 0 127.118 14.6242 1859 123.948 793.162 438.268
146 0 130.278 13.3254 1736 129.638 794.002 437.971
147 0 137.153 14.3562 1969 128.153 793.276 434.186
148 1 70.0453 11.1214 779 130.878 794.199 468.017
149 0 72.1189 12.313 888 128.356 793.938 466.372
150 0 74.0918 13.2403 981 122.811 792.865 466.603
151 0 75.1823 13.3675 1005 124.003 793.398 465.228
152 0 76.1156 12.5598 956 128.235 792.486 462.956
153 0 80.0677 14.2255 1139 123.026 792.723 462.391
154 0 84.1008 13.7454 1156 123.355 793.562 461.875
155 0 85.174 12.269 1045 128.664 793.731 458.697
156 0 89.1163 14.4081 1284 122.193 793.056 458.94
157 0 91.2597 12.9849 1185 126.707 793.503 456.154
158 0 91.1696 12.559 1145 129.929 793.415 453.436
159 0 95.1774 14.0369 1336 125.062 793.222 453.588
160 0 98.2181 12.9711 1274 128.108 793.914 452.065
161 0 101.208 13.6155 1378 125.602 794.187 451.297
162 0 102.235 12.3344 1261 131.542 793.27 448.738
163 0 106.16 12.9051 1370 128.542 792.999 448.171
164 0 110.224 12.5562 1384 128.447 793.605 445.619
165 0 115.142 13.9133 1602 123.559 793.454 445.132
166 0 119.151 13.2437 1578 125.453 793.584 441.675
167 0 122.082 13.7366 1677 124.737 793.817 441.324
168 0 127.117 13.3892 1702 125.332 794.046 439.491
169 1 69.2108 10.2874 712 125.528 794.827 463.57
170 0 75.1782 12.477 938 122.092 793.458 463.216
171 0 76.1253 11.4154 869 124.406 794.481 463.954
172 0 78.1565 12.5773 983 122.052 794.164 462.169
173 0 81.1106 12.4398 1009 121.704 794.466 462.451
174 0 83.1501 12.5075 1040 124.758 794.001 458.97
175 0 84.2118 11.9936 1010 127.335 793.126 458.941
176 0 87.1155 12.7532 1111 125.73 792.932 457.522
177 0 90.1474 12.8789 1161 125.859 793.713 456.791
178 0 93.1941 12.4257 1158 126.435 793.181 455.136
179 0 96.1542 13.0831 1258 124.048 793.178 452.909
180 0 99.0707 13.3339 1321 121.375 792.74 450.228
181 0 102.104 13.5156 1380 121.001 792.657 448.869
182 0 104.094 12.4791 1299 124.248 792.758 446.655
183 0 107.118 13.6018 1457 120.32 793.196 444.957
184 0 108.218 12.3732 1339 123.91 793.072 443.647
185 0 111.153 11.0928 1233 127.227 793.312 441.247
186 1 56.1064 10.1058 567 117.115 794.55 470.37
187 0 57.2851 10.1073 579 119.188 794.363 467.838
188 0 58.0922 8.91686 518 108.236 793.759 465.266
189 0 59.0705 9.95421 588 112.85 792.291 462.007
190 0 64.0461 11.6947 749 115.099 791.932 468.308
191 0 67.0841 11.4185 766 115.279 792.232 466.715
192 0 68.0566 12.2545 834 115.109 792.186 465.504
193 0 70.0313 11.0522 774 117.481 792.34 466.809
194 0 73.0453 11.308 826 117.821 792.03 464.212
195 0 75.0472 12.9652 973 113.839 791.632 463.457
196 0 76.0986 11.7742 896 117.974 791.913 461.11
197 0 80.1026 12.4341 996 115.648 791.901 461.567
198 0 83.0975 12.6358 1050 115.473 792.273 458.238
199 0 86.258 13.9465 1203 112.113 791.956 454.529
200 0 87.0994 10.3904 905 121.629 792.325 453.245
201 0 92.2081 13.8166 1274 112.699 792.674 453.259
202 0 94.0643 12.4702 1173 115.039 791.565 454.515
203 1 50.061 10.0078 501 112.862 791.549 478.565
204 0 51.15 11.5151 589 112.188 792.202 473.883
205 0 54.2632 12.9185 701 109.014 793.425 474.807
206 0 55.0634 10.7694 593 114.364 794.83 474.418
207 0 55.1023 11.8507 653 113.303 794.568 473.38
208 0 57.1043 11.12 635 114.887 795.014 471.951
209 0 59.0436 12.3468 729 111.601 795.059 471.41
210 0 57.0224 10.8729 620 117.302 795.387 470.944
211 0 63.0447 12.8956 813 110.432 795.114 471.28
212 0 64.0815 12.4217 796 111.874 794.106 470.813
213 0 66.161 12.7719 845 111.755 792.179 467.863
214 0 69.1727 13.3868 926 109.487 792.206 469.964
215 0 71.0581 12.9049 917 111.807 792.227 468.249
216 0 75.1644 13.1977 992 111.494 792.576 466.662
217 0 73.1717 12.7508 933 115.117 793.607 464.077
218 0 77.2449 13.1659 1017 113.551 792.698 463.088
219 0 83.1589 14.9112 1240 108.194 792.39 462.439
220 0 82.0566 11.7114 961 118.507 794.279 459.927
221 0 86.0978 12.7181 1095 115.721 794.11 457.09
222 0 88.0863 11.5682 1019 118.858 793.718 455.145
223 0 91.1441 12.2114 1113 117.78 793.938 457.327
224 0 95.0823 12.5996 1198 115.899 794.225 456.262
225 1 50.1208 10.8338 543 109.72 793.436 477.952
226 0 52.1887 10.8261 565 111.958 793.053 478.074
227 0 52.0599 11.871 618 113.837 794.351 476.306
228 0 54.1014 12.033 651 113.547 793.424 474.611
229 0 52.1353 10.3385 539 119.668 793.215 473.718
230 0 56.172 11.6428 654 114.913 793.463 474.044
231 0 60.1332 12.3725 744 111.902 792.708 472.133
232 0 61.0841 11.3286 692 114.827 792.873 471.617
233 0 61.1342 11.7447 718 113.95 793.061 470.851
234 0 65.2119 11.7003 763 112.486 792.609 470.581
235 0 65.095 10.5384 686 114.739 792.554 469.758
236 0 71.1796 11.6606 830 109.701 792.612 470.007
237 0 71.2822 12.5136 892 110.368 793.149 465.572
238 0 75.1543 11.6161 873 110.312 792.891 464.588
239 0 77.1214 10.2436 790 112.959 793.062 464.565
240 0 81.0629 11.1518 904 109.623 792.627 461.933
241 0 84.0874 9.72798 818 112.944 791.914 462.403
242 1 44.0912 10.637 469 102.633 791.778 481.84
243 0 45.0544 11.7192 528 106.184 792.816 479.443
244 0 45.1376 10.6785 482 108.919 794.614 477.927
245 0 48.0992 11.4347 550 106.165 794.869 478.411
246 0 47.0705 10.6861 503 108.736 794.917 478.569
247 0 49.1378 11.3762 559 107.113 795.626 477.696
248 0 50.1234 10.3744 520 110.923 794.96 474.794
249 0 53.1291 11.5379 613 106.982 795.455 476.396
250 0 51.0809 12.3725 632 99.2405 794.878 474.489
251 0 51.214 9.7239 498 105.01 794.618 474.386
252 0 55.1154 10.0516 554 102.894 794.971 474.166
253 0 52.1539 8.74335 456 107.561 794.287 472.421
254 0 57.1819 10.93 625 102.427 793.533 472.053
255 0 60.0718 10.5707 635 103.594 793.976 471.335
256 0 60.1643 10.8702 654 101.862 794.297 473.671
257 0 62.1009 11.4169 709 102.12 793.33 468.838
258 0 64.1724 10.6744 685 103.524 793.495 468.453
259 0 66.197 10.6651 706 103.343 793.953 467.68
260 0 68.0969 10.9256 744 104.39 793.55 464.085
261 0 69.1913 10.0013 692 107.259 793.97 461.618
262 0 72.221 9.70632 701 111.364 794.556 462.583
263 0 75.1048 11.0379 829 109.078 793.854 460.951
264 0 80.1946 10.5992 850 111.499 793.884 461.239
265 0 84.133 11.779 991 109.89 793.999 458.079
266 0 86.197 11.4969 991 111.823 793.36 456.127
267 1 43.1499 9.01508 389 107.555 794.674 480.206
268 0 45.1631 10.7389 485 102.155 794.825 478.866
269 0 45.0852 9.27133 418 107.117 794.677 479.17
270 0 45.0279 8.99443 405 105.351 794.496 477.98
271 0 47.0496 9.54311 449 104.715 793.967 477.045
272 0 48.04 9.40882 452 103.715 793.845 479.619
273 0 50.041 8.57296 429 104.725 793.858 479.138
274 0 50.017 10.8363 542 102.952 794.098 475.574
275 0 53.0257 11.6359 617 101.963 793.511 473.716
276 0 55.0383 11.5919 638 102.35 793.792 473.371
277 0 58.0853 11.0527 642 103.073 794.061 472.481
278 0 62.0628 10.6827 663 102.52 793.906 472.852
279 0 62.1037 11.9639 743 100.852 794.381 471.017
280 0 65.0681 13.2938 865 98.6393 794.466 468.276
281 0 67.1792 12.5634 844 101.241 794.966 467.252
282 0 67.1069 10.7142 719 106.723 794.672 467.289
283 0 73.1237 13.9353 1019 99.4073 795.11 466.714
284 0 72.136 12.0606 870 106.77 794.447 463.08
285 0 77.0969 12.1017 933 110.845 795.256 464.092
286 0 78.0627 12.5156 977 111.646 794.94 462.52
287 0 84.0709 12.1088 1018 111.683 795.418 462.442
288 0 86.0532 13.2592 1141 109.362 794.741 462.019
289 0 89.1178 12.0627 1075 112.777 794.987 461.096
290 1 44.0261 9.26724 408 114.1 795.87 479.083
291 0 46.0805 10.7421 495 110.083 795.636 477.725
292 0 47.0634 11.1764 526 113.291 794.542 476.35
293 0 49.0249 11.9735 587 111.342 795.046 476.872
294 0 51.028 10.994 561 113.906 795.264 477.916
295 0 55.0201 13.7223 755 107.221 795.307 476.865
296 0 55.059 14.0213 772 107.578 794.683 475.523
297 0 55.036 12.4282 684 113.557 795.007 475.851
298 0 58.0806 12.19 708 113.312 794.566 475.804
299 0 58.0572 12.2465 711 114.893 794.561 474.533
300 0 62.0344 13.1701 817 112.687 794.174 473.584
301 0 62.0726 13.6131 845 112.956 794.645 472.312
302 0 66.0259 12.8586 849 114.172 794.423 472.783
303 0 65.0603 12.988 845 115.276 795.12 472.071
304 0 67.0468 13.3638 896 115.183 794.489 469.923
305 0 71.064 14.8739 1057 111.428 794.541 469.561
306 0 71.0446 12.9355 919 117.707 795.182 467.272
307 0 75.0546 13.79 1035 114.421 794.455 467.39
308 0 79.153 14.6552 1160 113.019 794.212 465.578
309 0 80.0873 14.0472 1125 115.64 794.107 463.818
310 0 84.0658 14.1318 1188 115.557 793.273 463.458
311 1 43.0144 11.7403 505 113.448 794.24 483.059
312 0 43.0208 11.1109 478 115.008 795.1 483.554
313 0 45.048 11.521 519 113.486 795.112 482.262
314 0 46.028 12.3403 568 113.887 794.879 479.287
315 0 48.0482 12.4666 599 114.098 794.596 481.621
316 0 49.0899 12.3243 605 115.236 794.084 480.251
317 0 48.0214 12.5153 601 115.75 794.639 479.047
318 0 51.0126 12.4479 635 114.813 793.487 480.293
319 0 52.0135 13.285 691 114.21 794.676 479.275
320 0 52.0225 12.0909 629 118.382 794.164 477.819
321 0 53.0599 13.0419 692 115.999 794.53 477.997
322 0 55.1071 13.1018 722 116.663 795.245 475.089
323 0 54.0266 11.809 638 120.317 794.528 476.053
324 0 57.0546 13.2329 755 116.626 794.768 475.205
325 0 61.0253 13.5354 826 114.846 794.891 473.429
326 0 63.1133 13.8323 873 112.592 795.226 474.798
327 0 65.0279 12.979 844 115.716 794.549 472.37
328 0 66.1201 13.1276 868 114.456 794.853 471.79
329 0 69.078 13.9552 964 113.013 794.459 467.849
330 0 71.0716 13.8874 987 113.322 794.709 468.37
331 0 73.0244 12.9957 949 115.956 794.925 468.129
332 0 76.0783 13.0261 991 115.809 794.518 465.613
333 0 78.1078 13.0205 1017 115.965 794.344 463.768
334 0 79.0616 12.193 964 118.718 794.167 461.288
335 0 84.1182 12.7796 1075 116.038 793.419 461.334
336 0 86.0996 12.7411 1097 117.103 793.776 459.16
337 1 43.0134 10.4154 448 112.569 794.489 483.158
338 0 45.0524 11.1648 503 112.746 794.966 480.95
339 0 46.0446 11.402 525 112.55 794.505 480.634
340 0 47.0131 11.9967 564 108.011 794.752 481.913
341 0 47.0394 12.3513 581 108.706 793.847 479.775
342 0 49.1868 11.9138 586 107.635 794.485 480.659
343 0 49.0375 11.1343 546 109.121 794.498 478.811
344 0 53.151 11.9283 634 106.95 794.445 477.495
345 0 53.1461 11.1391 592 108.306 794.966 477.921
346 0 58.1233 11.51 669 105.904 794.416 476.405
347 0 60.1023 12.1127 728 104.261 793.644 474.82
348 0 60.0777 13.083 786 103.704 794.121 473.158
349 0 65.1186 12.792 833 103.061 794.726 472.978
350 0 65.0901 11.9834 780 105.928 794.914 473.305
351 0 68.0433 11.8748 808 106.71 794.546 468.223
352 0 68.0433 11.8748 808 128.833 794.535 468.012
353 0 74.0903 13.2406 981 104.116 794.783 465.575
354 0 76.201 11.9946 914 106.969 794.676 467.933
355 0 79.087 11.7086 926 109.071 793.965 464.851
356 0 82.1855 11.9608 983 113.341 794.269 463.447
357 0 86.13 12.992 1119 111.756 794.159 459.034
358 1 45.0088 11.2645 507 107.746 796.081 482.406
359 0 46.0342 11.7956 543 108.077 795.442 481.354
360 0 49.0379 11.7664 577 107.132 796.27 482.671
361 0 49.024 11.8717 582 109.613 796.509 479.361
362 0 49.0357 12.0932 593 109.843 796.255 479.981
363 0 51.0368 12.4812 637 104.46 796.586 478.727
364 0 52.0985 10.9984 573 108.225 795.815 479.049
365 0 52.1682 10.5811 552 110.915 796.033 477.779
366 0 53.0621 12.0802 641 109.012 795.509 475.964
367 0 55.1341 11.2634 621 109.275 795.359 477.823
368 0 59.1511 12.3244 729 106.997 795.13 476.353
369 0 61.0627 12.5117 764 107.068 795.101 475.186
370 0 62.1499 11.1987 696 111.014 795.083 473.951
371 0 65.1594 12.385 807 109.254 795.057 472.589
372 0 67.178 12.7125 854 109.496 794.902 471.011
373 0 71.1298 12.442 885 109.567 794.858 470.373
374 0 72.1224 12.867 928 108.873 794.983 468.144
375 0 75.1345 12.8836 968 108.488 795.521 467.376
376 0 77.2312 12.2748 948 112.7 795.074 466.836
377 0 80.2038 12.7425 1022 112.204 794.858 465.023
378 0 83.1199 12.5481 1043 111.769 795.022 461.722
379 0 91.1845 14.7613 1346 105.056 794.192 460.422
380 1 42.0479 9.53675 401 110.983 795.773 483.279
381 0 44.1053 11.6539 514 104.128 795.212 482.588
382 0 46.0278 12.6663 583 100.532 795.12 480.813
383 0 47.143 11.4121 538 104.868 794.688 482.459
384 0 46.1272 11.013 508 107.169 795.071 482.321
385 0 48.0554 11.9654 575 105.852 794.586 479.882
386 0 49.1141 11.4835 564 106.55 795.454 479.775
387 0 51.2421 10.4211 534 108.433 796.144 478.848
388 0 54.0337 10.9191 590 103.136 795.576 479.354
389 0 54.0253 10.4581 565 106.016 795.12 477.411
390 0 55.0488 12.389 682 101.169 794.773 477.236
391 0 56.0496 10.5621 592 106.846 794.897 475.397
392 0 60.0485 11.8571 712 102.955 795.223 476.315
393 0 59.062 11.6826 690 105.11 794.984 474.193
394 0 62.1086 12.3976 770 103.6 794.905 473.448
395 0 64.1161 11.7755 755 104.758 794.721 474.792
396 0 64.0359 11.3999 730 108.168 794.867 471.33
397 0 68.0517 12.5052 851 106.472 795.435 470.996
398 0 69.0455 11.1955 773 110.671 794.796 470.181
399 0 75.064 13.0955 983 105.58 795.527 467.362
400 0 76.1226 13.2418 1008 105.948 795.842 466.582
401 0 78.0804 14.5491 1136 104.055 795.38 465.393
402 0 81.1048 12.9955 1054 109.787 794.821 464.562
403 0 83.1821 12.3344 1026 113.354 794.718 462.642
404 0 86.1603 12.6857 1093 112.193 794.769 461.712
405 1 45.0368 11.3463 511 108.307 795.129 482.8
406 0 48.1345 11.3848 548 108.978 795.557 481.1
407 0 47.3111 10.822 512 110.098 795.49 481.486
408 0 51.2098 12.5757 644 104.978 794.96 481.318
409 0 53.1091 11.6176 617 112.084 793.339 481.319
410 0 54.1802 12.6615 686 111.402 793.491 479.348
411 0 56.1553 13.2134 742 109.152 793.743 478.553
412 0 56.1767 12.1759 684 112.352 793.221 478.11
413 0 58.1107 12.6999 738 111.037 793.931 477.172
414 0 60.1131 13.1419 790 110.246 793.784 475.904
415 0 62.1814 13.6375 848 107.303 794.081 477.52
416 0 64.1656 13.4496 863 109.174 793.899 474.534
417 0 65.0587 12.8192 834 110.504 794.212 473.7
418 0 68.0848 12.881 877 109.466 794.244 473.537
419 0 68.111 14.0212 955 108.462 794.494 472.597
420 0 73.0632 13.5362 989 109.452 794.498 471.21
421 0 75.1603 13.6242 1024 108.83 795.346 467.906
422 0 77.1505 13.545 1045 110.879 795.293 466.916
423 0 77.1602 13.5692 1047 145.879 796.294 466.851
424 0 82.0492 12.2 1001 111.869 794.55 465.974
425 0 84.0923 13.9609 1174 108.819 794.302 464.643
426 0 87.1035 12.5138 1090 112.011 794.576 463.866
427 1 44.1228 10.6068 468 113.833 793.049 479.857
428 0 48.1046 12.161 585 109.556 792.725 480.162
429 0 50.071 12.5422 628 109.057 794.618 480.928
430 0 52.1282 14.0231 731 108.271 794.513 479.669
431 0 51.2565 11.7839 604 114.765 795.144 478.838
432 0 54.1709 13.1067 710 110.963 794.865 476.715
433 0 57.2365 12.4571 713 111.722 794.62 477.007
434 0 58.0691 12.9157 750 111.216 794.436 477.513
435 0 57.1007 12.3291 704 114.791 795.222 477.229
436 0 59.2183 12.9521 767 112.842 795.606 476.617
437 0 62.1117 13.0088 808 112.408 794.67 473.886
438 0 66.1299 13.7306 908 110.126 795.52 470.341
439 0 67.1396 13.1517 883 110.162 795.945 472.032
440 0 69.2416 13.6768 947 109.798 795.438 470.101
441 0 69.2245 12.64 875 113.263 794.871 469.125
442 0 72.2334 12.0443 870 114.972 794.98 467.863
443 0 77.1884 13.1367 1014 110.275 794.504 468.248
444 0 79.25 12.2902 974 111.604 794.6 465.293
445 0 82.2551 13.4581 1107 108.891 794.462 464.729
446 0 84.202 13.9783 1177 107.541 794.92 463.298
447 0 87.2071 12.2467 1068 112.071 793.169 463.049
448 1 43.0406 10.037 432 111.708 794.435 483.706
449 0 44.0319 11.8096 520 109.133 793.619 482.425
450 0 46.1474 11.4633 529 112.775 793.526 481.991
451 0 49.1423 12.8403 631 109.434 793.938 480.618
452 0 50.036 12.531 627 105.745 795.054 482.045
453 0 51.0461 12.2634 626 107.949 794.904 480.572
454 0 53.0671 11.9095 632 108.723 796.416 478.53
455 0 54.0926 11.7207 634 110.068 796.148 478.322
456 0 58.1496 12.6054 733 108.924 796.286 476.765
457 0 60.0718 13.1509 790 107.28 797.163 475.47
458 0 60.1304 12.9552 779 110.418 796.628 474.815
459 0 62.0526 11.6031 720 114.375 796.133 475.017
460 0 64.0344 12.6495 810 114.82 795.97 471.778
461 0 67.057 13.0933 878 114.139 795.869 470.443
462 0 71.1165 12.6272 898 114.726 796.19 470.418
463 0 75.1088 12.8747 967 114.21 796.077 469.599
464 0 74.0364 13.4934 999 115.829 794.365 468.621
465 0 78.2272 13.8059 1080 117.125 795.561 467.013
466 0 82.1838 13.6158 1119 119.55 796.16 465.068
467 0 83.1622 14.0208 1166 119.909 795.203 461.762
468 0 88.1312 13.0941 1154 121.618 794.757 463.439
469 0 90.1937 12.6838 1144 124.955 795.177 461.13
470 0 93.1541 13.4508 1253 123.748 795.047 460.018
471 0 96.1525 12.8858 1239 123.119 795.46 458.248
472 1 48.0385 11.5116 553 124.64 795.468 480.228
473 0 51.0918 11.5283 589 118.89 795.817 476.594
474 0 52.0413 11.8175 615 111.969 796.272 477.792
475 0 54.0519 10.8044 584 114.452 796.274 478.063
476 0 54.0398 10.7883 583 115.16 796.377 477.64
477 0 58.1324 10.6825 621 115.705 795.939 475.67
478 0 60.0511 12.173 731 112.993 796.067 473.773
479 0 61.0826 11.5417 705 113.943 795.596 475.048
480 0 62.0997 11.0951 689 117.27 795.08 472.569
481 0 67.0364 11.4565 768 115.919 795.422 471.264
482 0 68.0846 11.7648 801 116.242 794.795 470.569
483 0 71.1144 12.0088 854 116.999 794.5 468.142
484 0 74.1507 14.1738 1051 122.65 795.207 468.954
485 0 75.3124 13.132 989 129.114 794.973 467.926
486 0 80.1691 14.4944 1162 123.923 794.388 466.68
487 0 82.2066 13.8067 1135 126.386 795.497 465.826
488 0 86.2215 13.7321 1184 125.97 795.486 465.659
489 1 45.0635 12.1828 549 126.295 796.585 484.752
490 0 45.0463 12.92 582 126.177 796.729 483.637
491 0 45.0524 12.3634 557 128.838 796.908 482.968
492 0 48.0161 12.8707 618 120.248 796.657 483.294
493 0 48.0425 12.0934 581 124.398 795.63 480.604
494 0 49.058 12.9235 634 122.098 796.285 482.021
495 0 50.0513 11.8079 591 125.902 795.956 481.53
496 0 52.0286 13.6848 712 120.612 795.968 480.986
497 0 54.0782 13.2031 714 121.333 796.025 480.507
498 0 54.0662 12.7621 690 123.694 796.01 478.226
499 0 56.0833 12.6954 712 122.691 795.789 478.02
500 0 57.1721 11.0543 632 130.926 796.09 477.454
501 0 59.077 13.1693 778 127.386 795.907 475.455
502 0 62.1261 12.6195 784 129.514 795.707 474.894
503 0 64.0824 11.4696 735 128.118 796.004 472.552
504 0 68.0851 12.1025 824 126.914 795.808 470.269
505 0 69.0496 13.57 937 125.133 795.686 469.318
506 0 71.0533 13.2436 941 127.616 795.218 469.239
507 0 74.1251 12.5194 928 130.003 794.869 468.661
508 0 77.0505 13.4717 1038 127.76 794.914 467.303
509 0 82.074 14.2311 1168 125.439 795.779 465.278
510 0 82.1237 13.2605 1089 129.525 795.892 463.455
511 0 88.085 13.487 1188 128.422 795.701 462.017
512 0 89.1619 12.6175 1125 133.315 795.716 460.383
513 1 40.0109 9.84731 394 131.716 796.251 485.569
514 0 42.2242 11.4153 482 128.909 795.166 481.344
515 0 45.1906 11.9715 541 124.118 795.028 483.207
516 0 45.0324 10.5035 473 128.901 795.833 484.397
517 0 46.2096 12.2053 564 125.732 796.433 480.766
518 0 46.1414 10.2294 472 130.39 796.165 481.653
519 0 50.0563 11.7667 589 125.107 795.961 481.922
520 0 52.1064 11.7644 613 125.834 796.072 480.639
521 0 54.1517 12.8158 694 123.744 796.097 477.86
522 0 55.0318 11.5751 637 126.94 795.651 476.749
523 0 56.0559 12.0415 675 124.929 795.692 477.361
524 0 58.0482 11.4905 667 126.562 796.322 475.834
525 0 61.0473 12.6295 771 123.536 796.128 474.699
526 0 62.1748 12.3362 767 126.275 795.086 473.705
527 0 63.1391 11.7994 745 128.715 795.216 474.134
528 0 65.1618 12.9831 846 126.182 795.109 473.203
529 0 69.0794 12.9272 893 127.607 794.672 472.434
530 0 71.0869 13.4061 953 127.017 795.559 470.838
531 0 74.0873 13.4166 994 128.58 794.891 468.225
532 0 75.1346 12.9102 970 129.796 794.886 468.201
533 0 78.0336 12.7637 996 131.297 795.024 467.273
534 0 81.0694 12.7298 1032 132.466 795.198 466.085
535 0 83.1797 12.5151 1041 134.504 795.483 464.16
536 0 87.1761 12.1822 1062 134.635 795.387 464.435
537 0 91.0758 13.5601 1235 131.177 795.847 462.062
538 1 45.0364 11.2354 506 127.85 796.875 484.474
539 0 49.0314 11.9311 585 127.335 796.101 481.369
540 0 51.0483 12.0278 614 130.809 795.257 481.544
541 0 50.1044 12.5139 627 133.823 795.341 479.684
542 0 53.22 12.0443 641 135.342 795.045 478.345
543 0 56.1796 12.638 710 132.6 795.12 478.287
544 0 58.2568 14.1958 827 129.521 795.203 475.727
545 0 58.2067 13.4864 785 132.941 795.376 477.036
546 0 60.1375 11.5402 694 140.04 795.455 475.193
547 0 61.1384 12.8888 788 138.449 795.216 474.43
548 0 64.1978 13.5363 869 135.499 795.658 474.117
549 0 64.1402 13.1431 843 140.262 795.108 472.448
550 0 68.0794 13.9396 949 135.255 795.498 473.495
551 0 71.1079 14.71 1046 133.359 795.417 472.464
552 0 73.1762 13.0507 955 138.734 795.6 470.71
553 0 75.1072 13.6871 1028 138.4 796.137 469.283
554 0 77.1023 13.8258 1066 139.198 795.761 466.73
555 0 79.3163 13.1499 1043 139.296 795.611 466.23
556 0 82.1829 13.8715 1140 140.575 795.837 465.038
557 0 84.1568 14.2353 1198 139.516 795.606 463.014
558 0 87.0897 13.6067 1185 139.906 795.576 462.579
559 0 90.0736 13.6444 1229 139.285 795.916 461.178
560 0 92.1838 13.9178 1283 140.302 795.736 457.693
561 1 49.072 11.5748 568 135.183 794.102 481.746
562 0 49.1106 11.0363 542 136.441 794.247 480.443
563 0 52.1136 12.6646 660 130.397 795.279 479.723
564 0 51.0991 12.0354 615 127.182 794.579 481.423
565 0 54.0201 12.014 649 127.139 795.168 479.986
566 0 54.0408 11.2323 607 129.974 794.608 480.18
567 0 57.0137 12.0322 686 127.222 794.65 479.372
568 0 59.0789 11.1715 660 129.809 795.092 477.652
569 0 60.0347 11.5933 696 129.164 795.273 476.53
570 0 62.0509 12.1674 755 127.229 794.844 476.938
571 0 66.0916 11.8775 785 128.497 794.899 474.908
572 0 67.0795 11.5236 773 131.951 795.488 472.457
573 0 71.0265 11.4746 815 131.49 794.777 472.072
574 0 73.1497 12.577 920 128.825 794.227 470.522
575 0 76.0999 12.3522 940 129.041 795.697 468.078
576 0 78.1197 11.4568 895 131.838 795.114 466.598
577 0 81.0597 12.46 1010 134.077 794.356 465.394
578 1 41.0257 10.3594 425 128.92 795.511 485.718
579 0 42.037 10.9903 462 126.933 796.476 485.606
580 0 43.2488 11.9772 518 124.732 794.247 483.438
581 0 44.2507 11.819 523 125.631 794.526 480.943
582 0 44.0223 10.9944 484 127.75 795.595 482.32
583 0 44.0556 10.7364 473 128.04 794.879 484.074
584 0 48.0303 12.7628 613 119.592 795.654 484.096
585 0 48.108 11.4742 552 124.976 794.656 482.141
586 0 49.0754 12.2261 600 122.363 793.48 481.775
587 0 51.0443 12.7536 651 120.261 794.407 480.759
588 0 51.0823 11.4913 587 124.32 794.186 480.213
589 0 52.0905 11.384 593 123.943 794.184 481.273
590 0 54.1713 11.4636 621 124.317 794.356 479.325
591 0 56.0675 12.0034 673 123.395 794.522 477.137
592 0 59.1904 11.9107 705 122.18 795.072 478.634
593 0 60.1889 11.6134 699 123.544 794.884 478.82
594 0 62.1312 12.9243 803 121.584 794.946 475.05
595 0 62.1084 11.5282 716 126.68 794.828 475.212
596 0 67.1297 12.7216 854 123.998 795.936 473.082
597 0 69.1836 12.8643 890 124.21 795.229 472.064
598 0 72.0548 12.4766 899 126.522 794.615 470.97
599 0 73.0813 12.9034 943 128.139 795.024 468.594
600 0 77.1737 14.435 1114 123.058 794.935 468.333
601 0 77.1994 12.7851 987 129.672 794.956 467.508
602 0 79.259 13.4874 1069 129.108 794.44 466.403
603 0 83.3139 14.1033 1175 127.466 794.622 465.024
604 0 83.3739 12.6059 1051 134.179 794.852 460.669
605 0 86.2748 13.8163 1192 131.122 795.013 461.414
606 1 45.3775 10.5559 479 134.81 796.326 478.871
607 0 48.1783 11.1046 535 129.432 795.338 479.63
608 0 48.2878 11.5971 560 131.312 794.993 481.577
609 0 52.0987 11.8045 615 121.047 796.662 481.296
610 0 52.0393 11.7988 614 135.16 796.857 480.707
611 0 55.1033 12.4312 685 132.387 796.083 480.296
612 0 57.0873 12.6473 722 131.776 796.421 479.226
613 0 59.0243 12.6558 747 132.11 796.392 478.142
614 0 61.0148 12.5379 765 132.999 796.401 476.844
615 0 61.0651 13.6903 836 130.769 796.196 476.243
616 0 64.0499 13.4895 864 131.299 796.037 475.318
617 0 66.0724 13.0009 859 133.343 796.378 474.992
618 0 70.0505 13.2619 929 133.121 795.905 473.301
619 0 69.0782 13.0432 901 135.556 796.819 472.725
620 0 74.1434 13.9999 1038 132.242 796.38 469.482
621 0 74.0829 14.4433 1070 133.504 796.427 468.273
622 0 77.064 14.1052 1087 136.796 796.013 467.61
623 0 79.1243 13.8643 1097 138.145 795.751 467.404
624 0 83.0657 12.9416 1075 140.296 795.493 466.734
625 0 85.0648 13.2605 1128 140.692 795.935 464.309
626 0 87.17 12.6879 1106 143.382 794.908 463.968
627 0 90.0701 14.0779 1268 138.292 795.178 463.81
628 0 92.096 13.8225 1273 141.711 794.752 459.557
629 0 96.1291 13.1074 1260 143.118 794.481 459.038
630 1 48.06 11.7561 565 135.494 794.903 483.092
631 0 50.2306 11.706 588 138.061 795.206 482.6
632 0 51.0616 11.7505 600 137.39 795.138 481.767
633 0 54.0743 12.6678 685 134.726 796.175 480.79
634 0 53.0932 11.8471 629 139.954 795.946 480.455
635 0 55.0756 13.2908 732 134.889 796.087 479.73
636 0 55.1125 12.1932 672 141.496 796.606 477.417
637 0 58.0794 12.7067 738 137.202 796.736 477.32
638 0 63.0329 12.6125 795 137.244 794.472 478.011
639 0 66.1559 13.0601 864 133.322 796.519 476.272
640 0 66.1456 13.1074 867 135.783 796.675 474.325
641 0 69.0947 13.7348 949 135.344 795.942 473.318
642 0 71.162 13.7714 980 135.234 795.836 471.59
643 0 73.1509 13.1099 959 138.281 795.259 471.824
644 0 76.1292 13.5296 1030 137.415 795.629 470.979
645 0 78.0412 14.6974 1147 135.981 795.541 467.17
646 0 81.166 12.6777 1029 147.781 794.84 467.715
647 0 84.1079 13.5421 1139 146.916 795.011 464.745
648 0 87.1481 14.7565 1286 142.426 795.141 465.331
649 0 88.1296 13.4461 1185 148.374 794.989 462.727
650 0 91.0866 13.5695 1236 145.274 794.617 461.52
651 1 48.0578 10.966 527 140.233 795.032 484.429
652 0 48.0451 11.406 548 141.524 794.681 483.394
653 0 51.0418 11.7355 599 140.758 794.654 481.554
654 0 49.0256 11.5654 567 136.252 794.081 484.129
655 0 51.0476 11.7342 599 136.654 795.331 481.664
656 0 53.168 11.0593 588 131.82 794.588 478.549
657 0 53.0908 11.8288 628 134.303 795.495 482.49
658 0 55.0568 11.6062 639 134.714 795.479 481.54
659 0 57.0748 12.5449 716 131.693 795.432 479.751
660 0 61.0465 13.0392 796 128.308 795.288 477.803
661 0 64.1193 14.0831 903 124.279 795.266 476.928
662 0 64.0633 14.1423 906 125.93 795.007 475.157
663 0 66.0544 12.7319 841 128.397 794.792 476.086
664 0 67.0726 12.5387 841 129.411 794.612 473.9
665 0 70.1066 13.1657 923 126.943 794.039 471.692
666 0 73.0415 13.2664 969 125.662 795.152 471.698
667 0 75.1125 13.1669 989 128.02 794.916 468.323
668 0 78.0909 12.8184 1001 128.518 795.03 468.694
669 0 82.0834 13.1086 1076 127.832 795.166 466.17
670 0 82.2437 13.1317 1080 134.864 794.967 465.028
671 0 87.1442 13.5752 1183 128.866 795.127 459.737
672 0 88.0779 13.2723 1169 131.452 794.67 461.46
673 1 44.1683 9.96189 440 131.83 795.698 484.336
674 0 44.0991 12.2225 539 129.486 796.121 482
675 0 46.0701 14.0004 645 123.4 796.405 483.755
676 0 45.0387 11.7455 529 127.255 796.284 485.17
677 0 46.0627 11.5712 533 129.268 796.011 482.955
678 0 49.0393 12.2351 600 127.297 796.063 482.06
679 0 49.1281 11.1138 546 130.196 795.61 480.63
680 0 51.0547 11.1253 568 131.352 795.019 481.887
681 0 51.0522 11.6939 597 130.762 795.375 481.554
682 0 53.052 11.517 611 131.928 794.884 479.278
683 0 53.0683 12.3614 656 131.108 795.405 479.75
684 0 56.13 11.2418 631 133.647 795.922 478.268
685 0 59.1026 10.8794 643 134.611 795.677 477.331
686 0 60.0614 12.7037 763 130.725 795.486 476.313
687 0 63.0594 12.5596 792 131.322 795.87 474.601
688 0 65.0389 12.1773 792 132.548 794.348 475.01
689 0 69.0314 13.9357 962 128.477 793.689 472.786
690 0 72.0234 14.9674 1078 125.203 793.908 472.021
691 0 74.0362 12.764 945 132.636 793.772 470.466
692 0 77.0608 13.4569 1037 130.266 793.799 469.337
693 0 78.1029 13.3286 1041 136.349 794.246 465.781
694 0 82.1146 14.017 1151 133.144 793.783 465.823
695 0 84.1256 13.5036 1136 135.884 794.112 463.311
696 1 46.0257 10.6462 490 135.39 793.998 483.684
697 0 48.0377 10.5126 505 136.743 794.648 482.604
698 0 49.0305 11.9314 585 133.991 795.268 481.568
699 0 51.068 12.1211 619 124.953 795.078 481.913
700 0 50.0126 11.4771 574 130.761 793.24 480.204
701 0 51.0256 11.5824 591 130.403 793.455 479.772
702 0 55.1024 11.4514 631 128.805 793.588 478.555
703 0 55.0407 11.3007 622 130.14 793.802 476.931
704 0 59.0145 12.4037 732 126.117 793.918 476.086
705 0 62.083 12.5155 777 125.96 793.665 475.006
706 0 64.0493 11.9439 765 127.791 793.533 475.026
707 0 67.1549 13.1636 884 125.6 793.6 472.507
708 0 68.0748 14.249 970 124.71 793.505 470.141
709 0 71.157 13.3789 952 128.605 793.557 469.023
710 0 72.0891 12.9007 930 131.296 793.73 466.649
711 0 75.2028 12.8054 963 130.643 793.504 467.68
712 0 78.1296 13.2728 1037 128.983 793.488 465.372
713 0 81.1401 13.6924 1111 127.951 793.578 465.988
714 0 84.1297 13.4316 1130 129.248 794.066 463.488
715 1 44.1447 10.3523 457 129.138 793.584 483.838
716 0 45.2868 10.4887 475 129.912 794.72 481.269
717 0 47.1051 12.228 576 119.413 794.701 482.825
718 0 48.0706 12.8145 616 117.696 796.172 481.838
719 0 46.0461 11.6622 537 124.004 795.322 482.672
720 0 47.0404 10.863 511 125.859 796.337 481.241
721 0 51.0493 12.3802 632 120.631 796.263 479.707
722 0 53.041 10.7841 572 122.815 796.322 482.019
723 0 54.0441 11.4536 619 121.661 796.449 479.64
724 0 56.0524 11.5785 649 121.767 796.559 478.279
725 0 59.0625 12.9185 763 117.63 795.849 477.714
726 0 60.0414 12.125 728 120.115 795.67 476.596
727 0 64.1632 14.3696 922 112.291 796.007 475.732
728 0 64.0832 11.6723 748 120.13 796.036 475.401
729 0 68.0808 12.6908 864 125.365 795.244 471.317
730 0 69.1087 11.7207 810 127.658 796.026 471.054
731 0 74.1138 13.3983 993 122.039 795.81 472.091
732 0 74.0876 12.1613 901 127.174 795.56 469.452
733 0 79.0313 13.4377 1062 122.115 795.894 468.453
734 0 80.0807 12.837 1028 124.804 796 465.928
735 1 39.0468 11.4734 448 122.721 796.33 486.1
736 0 41.1781 11.3895 469 120.719 795.655 484.52
737 0 43.3344 12.1382 526 119.173 796.2 481.863
738 0 44.0208 11.222 494 121.393 796.022 485.346
739 0 47.0507 13.6236 641 115.337 795.554 483.415
740 0 46.0279 11.6668 537 117.46 794.778 484.289
741 0 47.1019 11.5707 545 118.921 793.943 481.987
742 0 49.039 12.2555 601 117.486 795.21 481.962
743 0 49.0533 11.8035 579 118.827 795.359 482.527
744 0 52.092 12.2668 639 116.958 795.674 481.477
745 0 53.079 11.0967 589 120.146 795.66 481.358
746 0 54.0525 12.0253 650 119.306 795.634 478.688
747 0 55.0664 10.8233 596 122.081 795.49 479.565
748 0 58.0911 12.0156 698 119.45 795.65 476.027
749 0 59.0245 11.5206 680 122.488 795.572 476.16
750 0 61.0429 12.4175 758 119.782 795.185 474.434
751 0 63.0165 12.1555 766 121.518 795.418 473.736
752 0 65.0193 12.2579 797 122.217 794.97 471.994
753 0 68.0612 13.5907 925 118.601 795.777 472.733
754 0 71.1906 12.9792 924 121.444 795.718 469.477
755 0 74.1701 12.4174 921 123.557 794.938 468.245
756 0 76.1608 12.3029 937 124.735 794.991 467.906
757 0 79.1403 12.4336 984 127.422 794.966 466.429
758 0 81.1632 11.8773 964 128.73 794.385 465.091
759 0 83.2269 10.5615 879 131.89 794.126 463.654
760 1 42.1044 10.9727 462 125.221 794.933 484.193
761 0 43.0342 11.2934 486 120.525 794.673 484.14
762 0 44.0433 12.0336 530 117.828 794.615 482.413
763 0 46.023 10.8641 500 117.54 795.062 482.632
764 0 44.1032 10.09 445 121.917 794.328 482.308
765 0 46.035 10.4051 479 121.42 794.42 481.718
766 0 48.1147 11.3063 544 118.368 794.149 480.809
767 0 50.0848 11.6203 582 117.28 793.704 480.62
768 0 50.0923 11.3191 567 120.256 794.143 479.607
769 0 54.0297 10.8459 586 119.396 793.785 479.531
770 0 54.0507 11.0267 596 119.253 794.248 479.02
771 0 58.0743 11.3475 659 117.357 793.953 474.944
772 0 60.0402 12.908 775 115.115 794.039 475.032
773 0 60.0394 12.0421 723 116.975 793.73 475.538
774 0 64.0387 12.5549 804 117.095 794.24 472.303
775 0 65.0528 12.3438 803 120.902 793.874 471.436
776 0 69.0468 14.3526 991 114.816 794.296 471.116
777 0 72.0467 13.7688 992 116.505 794.776 471.013
778 0 74.1064 12.8194 950 121.564 794.645 470.317
779 0 76.0581 13.7 1042 120.471 794.499 468.997
780 0 80.145 14.1618 1135 118.886 794.307 467.899
781 0 81.0697 13.2972 1078 123.011 794.378 466.645
782 0 84.0665 13.1919 1109 123.754 793.83 465.113
783 0 87.0218 13.7897 1200 122.343 794.372 463.883
784 1 45.02 10.1733 458 122.461 793.738 483.258
785 0 45.0434 11.7442 529 119.696 792.633 485.378
786 0 46.0952 12.0186 554 119.067 795.269 480.847
787 0 48.0261 11.3688 546 123.846 793.299 480.476
788 0 49.0192 12.2197 599 121.751 793.289 480.876
789 0 51.0859 12.2147 624 122.771 792.704 479.497
790 0 54.099 13.6601 739 117.164 794.263 479.391
791 0 55.052 11.916 656 122.846 793.509 478.904
792 0 57.0225 12.5389 715 121.361 794.161 477.106
793 0 60.0555 12.6383 759 120.256 793.644 476.447
794 0 63.0628 13.0663 824 118.652 793.675 475.984
795 0 64.0869 12.6859 813 120.878 794.119 474.478
796 0 67.1017 13.4721 904 118.196 793.544 471.604
797 0 70.1194 12.821 899 120.215 793.435 471.818
798 0 71.1651 12.197 868 121.698 794.271 469.575
799 0 73.1297 11.8967 870 121.436 794.414 469.414
800 0 78.1842 11.9334 933 118.3 793.84 469.189
801 1 38.0437 10.1462 386 115.518 792.979 488.591
802 0 40.02 12.6437 506 108.81 793.271 487.162
803 0 41.041 12.1342 498 110.098 793.271 486.139
804 0 43.0309 11.5266 496 110.444 793.351 485.159
805 0 43.0659 11.7494 506 110.887 793.666 485.47
806 0 46.1344 11.2497 519 112.25 794.05 485.083
807 0 47.1161 11.5672 545 113.76 793.233 484.567
808 0 47.0956 11.8482 558 114.127 793.333 482.756
809 0 47.1467 11.1567 526 116.34 793.791 483.637
810 0 47.1467 11.2203 529 130.108 793.802 483.556
811 0 52.2018 12.0494 629 112.347 793.203 481.203
812 0 54.1743 10.8908 590 114.051 793.264 480.569
813 0 55.1439 11.5153 635 112.712 793.301 479.532
814 0 57.1555 12.6672 724 112.638 793.12 477.974
815 0 60.0497 12.5396 753 112.475 793.278 476.947
816 0 60.1123 11.5617 695 116.01 793.391 475.745
817 0 63.1006 10.6655 673 119.493 792.969 474.955
818 0 67.0889 11.9394 801 119.443 793.784 473.4
819 0 70.2831 12.8053 900 117.438 793.908 471.71
820 1 35.014 11.3383 397 114.118 792.879 490.118
821 0 37.0528 10.6335 394 117.992 792.31 486.698
822 0 40.1377 10.5387 423 118.165 793.506 487.674
823 0 38.0638 11.8223 450 113.631 794.798 487.238
824 0 41.0631 10.9831 451 115.432 794.432 487.452
825 0 42.0655 12.0289 506 113.3 794.516 486.213
826 0 43.0569 12.0538 519 114.586 794.387 484.931
827 0 47.0669 12.7053 598 111.043 794.344 484.824
828 0 48.0719 12.2525 589 112.331 794.954 485.385
829 0 48.0542 11.9865 576 114.74 795.108 484.377
830 0 47.065 10.9636 516 119.986 795.512 484.262
831 0 51.0713 12.1986 623 115.369 794.905 484.547
832 0 49.057 11.5172 565 132.552 795.899 483.607
833 0 51.0576 11.5556 590 115.469 794.624 481.381
834 0 53.0755 11.267 598 116.008 794.878 480.465
835 0 55.0262 11.9761 659 114.144 794.909 479.718
836 0 57.0916 11.7706 672 112.457 794.494 479.503
837 0 58.1231 12.2155 710 111.686 794.649 479.106
838 0 62.1215 11.3487 705 112.945 795.343 477.329
839 0 64.1134 12.4935 801 111.32 794.966 476.461
840 0 64.4029 11.9094 767 113.103 794.935 475.679
841 0 67.0537 11.1552 748 113.73 794.824 473.985
842 0 70.171 12.0705 847 110.731 794.782 471.371
843 0 72.1657 12.3604 892 110.164 794.794 471.512
844 0 74.1881 11.7943 875 111.711 794.449 469.073
845 0 78.1039 13.9046 1086 105.889 794.705 469.797
846 0 80.198 12.5315 1005 110.063 794.87 466.403
847 1 39.0239 10.6601 416 112.752 795.012 486.399
848 0 41.0607 10.9107 448 116.982 795.183 486.203
849 0 41.1663 11.9029 490 111.049 794.873 479.318
850 0 43.1884 11.3688 491 103.756 794.745 481.527
851 0 43.0692 8.86946 382 110.136 794.788 481.626
852 0 45.0818 11.4237 515 105.045 794.728 479.151
853 0 47.0373 10.885 512 106.369 794.422 479.242
854 0 48.127 11.0125 530 106.392 794.458 476.996
855 0 50.087 11.3602 569 105.253 794.334 478.086
856 0 52.0497 11.9886 624 109.933 793.846 482.901
857 0 54.0786 12.4448 673 109.152 793.129 480.11
858 0 57.0562 12.1634 694 108.357 793.818 478.111
859 0 59.0527 12.4973 738 108.558 793.356 476.141
860 0 59.1253 12.7695 755 109.233 793.159 476.31
861 0 62.0432 12.0239 746 110.999 793.194 475.779
862 0 66.0366 12.5385 828 110.563 793.67 473.243
863 0 69.0705 13.6672 944 108.854 793.046 472.202
864 0 70.0365 12.4935 875 114.52 792.558 471.361
865 0 74.0355 13.3044 985 112.937 793.215 470.002
866 0 71.0587 12.4545 885 117.311 792.983 468.073
867 0 77.0675 12.807 987 114.978 793.294 469.119
868 0 81.0538 13.7933 1118 114.531 793.639 465.977
869 1 39.0571 10.8303 423 120.229 793.423 487.454
870 0 41.0146 11.4837 471 114.497 795.696 486.941
871 0 42.0258 12.1116 509 114.749 795.735 485.857
872 0 46.035 12.5991 580 112.421 795.762 485.516
873 0 46.0217 12.6462 582 113.187 795.811 484.375
874 0 47.115 11.2279 529 119.499 795.127 483.478
875 0 48.1094 11.9519 575 117.073 796.075 483.23
876 0 50.0284 11.4735 574 117.753 796.232 483.786
877 0 51.0315 11.8162 603 117.249 795.852 482.721
878 0 52.1809 11.9967 626 117.131 795.474 482.342
879 0 54.0525 13.3759 723 114.888 795.57 480.596
880 0 56.1322 12.6309 709 117.224 795.322 480.715
881 0 57.1747 12.7154 727 118.292 794.806 478.14
882 0 59.0966 12.8095 757 118.099 794.978 478.594
883 0 62.114 13.2659 824 114.512 794.381 477.394
884 0 64.1057 13.1034 840 116.227 794.39 475.036
885 0 65.0827 13.9207 906 115.382 794.108 474.957
886 0 67.1013 12.3992 832 116.456 794.593 474.596
887 0 70.077 12.7859 896 115.529 794.583 471.9
888 0 72.0376 13.5901 979 115.614 794.313 471.154
889 0 75.0611 13.4291 1008 117.227 794.499 469.019
890 0 78.0763 13.5893 1061 117.722 794.171 468.921
891 0 80.0867 14.1846 1136 123.475 794.444 466.188
892 1 42.0339 10.9436 460 125.617 795.511 487.617
893 0 45.0539 12.4518 561 121.422 795.225 486.162
894 0 44.0482 12.5771 554 124.17 795.166 485.462
895 0 46.0889 12.4759 575 119.706 795.122 484.226
896 0 46.0354 12.5556 578 120.308 795.19 484.152
897 0 47.0579 13.1327 618 119.379 795.055 483.693
898 0 49.0499 12.6606 621 122.504 794.826 480.702
899 0 52.0825 13.2866 692 118.88 795.432 481.488
900 0 53.0807 13.244 703 120.044 795.004 480.713
901 0 54.066 12.2443 662 124.118 794.775 479.53
902 0 57.1239 13.9346 796 121.305 794.715 478.42
903 0 59.0886 13.6236 805 121.663 795.201 478.727
904 0 60.0586 12.7043 763 124.737 795.169 479.071
905 0 61.1318 13.6263 833 125.851 795.396 475.424
906 0 64.0809 12.7807 819 126.637 795.436 476.396
907 0 67.1118 13.0528 876 128.489 795.08 474.59
908 0 68.0589 14.2083 967 128.374 794.867 472.013
909 0 71.1169 13.9348 991 127.756 794.509 469.158
910 0 74.072 15.1474 1122 123.759 794.395 469.632
911 0 77.1106 14.1874 1094 126.332 793.803 467.604
912 0 79.043 14.2075 1123 125.898 794.262 466.272
913 0 80.1086 12.9824 1040 129.484 793.788 465.18
914 0 82.068 14.293 1173 127.68 794.07 463.974
915 1 43.129 10.4106 449 126.924 794.281 483.878
916 0 44.0342 11.8317 521 123.284 793.754 481.363
917 0 46.0369 11.86 546 128.625 794.729 484.082
918 0 49.0789 14.1812 696 122.471 794.634 483.53
919 0 50.0438 12.549 628 128.624 795.576 482.454
920 0 50.0263 13.313 666 128.093 795.14 480.17
921 0 50.0263 13.373 669 142.798 795.129 480.129
922 0 51.0423 11.9705 611 127.139 794.36 480.547
923 0 56.119 13.7208 770 121.061 794.606 479.822
924 0 55.0276 13.2842 731 123.993 794.349 478.858
925 0 57.0416 13.1483 750 123.276 794.635 479.729
926 0 59.0327 12.6709 748 124.18 794.488 479.116
927 0 62.0668 13.4371 834 122.974 793.342 476.49
928 0 62.04 12.4113 770 127.86 793.462 475.047
929 0 66.0634 12.3669 817 127.84 794.425 475.315
930 0 67.0327 13.2473 888 127.086 793.851 474.211
931 0 71.0745 13.8868 987 124.944 793.334 472.438
932 0 73.0573 13.0446 953 127.322 793.693 470.699
933 0 77.1094 14.5119 1119 125.565 793.701 467.499
934 0 80.112 13.5685 1087 127.969 795.833 468.203
935 0 82.047 12.2491 1005 132.63 795.571 467.812
936 0 86.1691 12.87 1109 131.685 795.628 465.401
937 0 89.1204 13.3415 1189 129.379 795.276 464.773
938 0 93.2004 14.2596 1329 126.828 794.984 461.63
939 1 46.0074 11.9981 552 129.005 796.342 484.091
940 0 48.0285 12.9923 624 126.122 796.079 482.806
941 0 50.0705 13.1015 656 126.232 795.282 482.212
942 0 52.0531 13.2365 689 124.763 795.567 482.165
943 0 52.2929 13.5583 709 126.877 794.983 479.436
944 0 54.205 14.3529 778 124.443 794.625 478.751
945 0 54.2199 12.5046 678 131.386 795.33 479.437
946 0 58.1949 12.9908 756 129.992 795.13 477.319
947 0 59.1584 13.1004 775 129.706 795.057 477.485
948 0 60.1409 12.3543 743 133.303 795.401 476.055
949 0 63.1364 13.8114 872 128.635 795.183 474.252
950 0 66.1964 13.3844 886 128.849 795.168 474.723
951 0 69.0973 13.0685 903 130.906 794.98 471.7
952 0 69.1122 12.1831 842 133.644 795.075 471.817
953 0 74.0963 13.1855 977 129.855 795.025 470.792
954 1 36.0132 11.4125 411 129.482 796.633 486.672
955 0 39.0184 12.1738 475 124.931 796.194 487.815
956 0 40.0185 12.6941 508 117.762 795.781 488.094
957 0 40.0136 12.7707 511 118.301 796.133 487.536
958 0 42.0828 13.1408 553 116.881 796.646 486.02
959 0 43.0482 13.3106 573 116.541 795.892 485.99
960 0 42.0583 12.5064 526 120.186 795.675 485.559
961 0 44.0169 12.9723 571 119.996 795.741 484.277
962 0 45.0372 12.745 574 121.389 796.157 484.362
963 0 46.0501 11.0749 510 126.473 796.182 484.906
964 0 48.065 12.2334 588 123.378 795.923 481.689
965 0 51.0887 12.1162 619 122.036 795.968 482.816
966 0 52.0758 13.1347 684 120.329 795.627 481.731
967 0 51.0226 12.8766 657 124.113 795.568 479.712
968 0 52.048 11.7776 613 126.613 795.432 480.77
969 0 55.0815 12.7084 700 123.5 794.993 479.903
970 0 57.0343 12.8168 731 122.979 794.866 477.923
971 0 60.1141 12.3598 743 123.623 794.681 476.491
972 0 63.034 12.8185 808 121.048 794.891 475.787
973 0 62.0299 11.5912 719 125.554 795.004 476.232
974 0 65.0542 12.8508 836 122.89 795.154 472.947
975 0 68.0441 13.7999 939 119.9 795.482 473.185
976 0 72.0966 12.7468 919 122.606 794.827 470.388
977 0 73.1501 13.1784 964 121.807 795.719 468.422
978 0 77.0608 13.379 1031 120.501 795.307 468.291
979 0 79.1198 12.8792 1019 121.986 795.233 465.639
980 0 83.0972 13.6948 1138 123.598 794.704 465.228
981 0 86.1148 14.3529 1236 121.215 795.597 462.885
982 0 89.1804 13.9829 1247 122.342 795.328 462.172
983 1 43.0956 11.5557 498 119.699 795.584 484.687
984 0 43.0675 12.0741 520 116.985 795.25 484.144
985 0 44.0127 12.61 555 117.944 793.905 484.299
986 0 46.0256 10.9939 506 122.123 794.634 484.243
987 0 47.0579 11.9215 561 120.444 794.54 484.128
988 0 48.0614 12.9834 624 119.231 795.46 482.096
989 0 50.0589 12.5053 626 119.224 795.586 481.982
990 0 52.0152 11.3236 589 121.698 795.241 482.275
991 0 53.0297 13.3887 710 117.499 795.035 481.034
992 0 54.0212 12.4766 674 121.162 794.877 479.813
993 0 55.0364 11.8104 650 123.406 795.737 480.558
994 0 57.0193 12.8553 733 120.289 794.935 479.252
995 0 59.0739 11.7819 696 122.32 795.009 480.089
996 0 64.0568 13.3944 858 116.251 794.635 478.321
997 0 66.1208 13.9593 923 114.953 794.137 475.889
998 0 65.1123 13.3615 870 119.73 794.994 474.306
999 0 70.0422 13.1635 922 119.751 794.561 475.77
1000 0 71.0357 13.0498 927 121.51 795.292 474.397
1001 0 75.0415 14.1655 1063 118.674 794.283 470.797
1002 0 77.0511 14.6656 1130 119.365 794.542 468.276
1003 0 79.1222 14.6229 1157 120.413 796.063 467.446
1004 0 83.1222 13.7388 1142 121.576 795.13 467.086
1005 0 87.098 14.0646 1225 119.5 794.892 464.136
1006 0 91.0651 14.1327 1287 118.715 795.299 464.225
1007 0 93.2618 14.2931 1333 122.758 794.859 459.576
1008 1 48.0516 12.7779 614 119.927 794.943 484.049
1009 0 48.0328 12.4082 596 120.164 794.258 483.502
1010 0 50.0509 12.6871 635 120.417 794.732 483.657
1011 0 53.137 13.9827 743 120.265 793.634 480.925
1012 0 55.07 12.8745 709 121.787 793.953 482.464
1013 0 57.0548 13.0576 745 122.299 794.333 480.113
1014 0 57.2062 13.9495 798 122.361 794.048 477.652
1015 0 59.1166 13.3972 792 123.98 793.765 477.875
1016 0 61.1145 14.3174 875 120.072 793.993 477.995
1017 0 63.1355 13.7007 865 123.191 794.158 475.015
1018 0 65.161 13.7659 897 122.036 793.928 476.363
1019 0 67.0453 15.0197 1007 120.176 793.483 472.902
1020 0 69.0844 14.5474 1005 121.672 794.363 472.474
1021 0 69.0746 12.7254 879 127.196 793.868 472.524
1022 0 73.1473 13.7667 1007 123.592 793.572 471.173
1023 0 75.0968 13.396 1006 125.583 794.647 470.427
1024 0 77.2064 14.2216 1098 125.196 794.51 467.285
1025 0 81.1335 14.2604 1157 123.724 794.622 466.346
1026 0 82.1597 13.6807 1124 126.02 795.247 463.777
1027 1 43.0308 12.1541 523 122.533 795.774 485.738
1028 0 42.0317 11.7055 492 121.573 795.187 484.035
1029 0 43.0272 10.4353 449 115.612 794.343 480.849
1030 0 45.0176 12.173 548 119.887 793.998 485.347
1031 0 46.0332 12.7299 586 119.283 793.87 482.98
1032 0 48.0395 12.8228 616 118.146 794.242 483.11
1033 0 48.0295 12.3258 592 119.333 794.188 482.934
1034 0 50.0493 12.7075 636 118.47 794.637 480.491
1035 0 51.1175 12.0507 616 118.877 794.338 480.696
1036 0 52.0218 12.86 669 118.843 794.102 480.849
1037 0 54.0641 12.7441 689 117.509 794.205 480.93
1038 0 56.1171 12.5987 707 117.458 794.385 479.533
1039 0 59.04 12.0088 709 117.016 794.948 476.791
1040 0 62.0686 12.3734 768 115.638 794.444 475.736
1041 0 64.057 13.207 846 113.844 795.001 474.317
1042 0 67.0577 12.6756 850 114.432 794.472 473.204
1043 0 69.0761 12.6672 875 114.504 794.137 472.046
1044 0 71.1126 12.3466 878 116.369 794.931 472.067
1045 0 74.0882 12.6336 936 110.316 794.863 468.854
1046 0 74.0941 10.7566 797 115.936 794.625 466.731
1047 0 79.0379 12.766 1009 111.568 794.739 462.88
1048 0 84.1291 12.9206 1087 111.082 794.597 465.377
1049 0 84.2012 12.5295 1055 114.085 793.914 461.298
1050 0 86.11 12.995 1119 115.594 794.2 463.559
1051 0 90.1569 11.358 1024 122.291 794.594 463.61
1052 0 93.2428 11.8508 1105 119.874 794.107 461.229
1053 0 97.1169 12.3254 1197 118.727 794.2 459.13
1054 1 49.0119 11.8339 580 114.219 795.867 481.86
1055 0 50.0177 12.9954 650 113.206 795.72 481.411
1056 0 52.0631 12.6001 656 112.238 795.407 480.328
1057 0 53.1066 11.8818 631 112.792 795.349 481.604
1058 0 54.0555 12.4502 673 111.654 795.223 478.672
1059 0 56.1323 10.9741 616 113.856 795.106 480.713
1060 0 59.112 12.9246 764 109.8 794.541 477.277
1061 0 60.0502 11.5404 693 112.127 794.408 476.903
1062 0 64.135 12.3645 793 108.913 794.366 475.982
1063 0 66.2333 12.6674 839 108.145 794.691 475.089
1064 0 67.1411 11.7514 789 110.202 795.057 474.932
1065 0 71.0608 12.5386 891 108.877 794.431 473.007
1066 0 72.0971 12.0671 870 110.675 794.464 470.616
1067 0 75.1718 13.0235 979 110.05 794.32 468.194
1068 0 80.1792 13.4075 1075 109.954 794.057 467.333
1069 0 81.1073 14.3514 1164 112.284 793.661 466.207
1070 0 82.2377 12.0261 989 118.246 793.987 464.754
1071 0 86.2988 13.1752 1137 116.858 794.336 462.788
1072 0 89.3137 14.018 1252 116.813 794.1 460.169
1073 0 92.3416 14.0565 1298 117.683 794.325 458.141
1074 0 95.2404 13.7022 1305 119.041 794.32 458.002
1075 0 98.238 13.7116 1347 119.258 794.038 453.733
1076 0 101.174 13.284 1344 120.436 794.578 454.948
1077 0 105.23 13.9124 1464 121.446 794.464 451.321
1078 1 56.1523 14.0333 788 119.66 794.272 475.895
1079 0 58.0874 13.4108 779 121.804 794.312 474.77
1080 0 58.1541 12.828 746 123.524 794.135 475.193
1081 0 60.1985 13.3724 805 123.506 794.34 471.998
1082 0 64.2758 14.4067 926 119.353 794.65 471.684
1083 0 64.0846 13.0921 839 125.683 794.317 470.706
1084 0 67.1132 13.9168 934 123.488 794.171 468.456
1085 0 70.1381 13.8299 970 122.524 794.301 468.319
1086 0 72.1583 14.7731 1066 121.939 793.787 466.053
1087 0 74.0865 13.5382 1003 125.363 793.202 465.426
1088 0 77.0928 13.8794 1070 124.229 793.514 464.004
1089 0 80.235 14.7317 1182 121.393 793.266 464.729
1090 0 83.2132 14.2886 1189 123.558 794.118 462.14
1091 0 85.2771 13.9076 1186 125.218 793.915 461.058
1092 0 88.2763 14.5452 1284 123.801 794.018 458.778
1093 0 91.3518 15.1502 1384 122.45 793.954 456.553
1094 0 96.2953 15.5252 1495 120.889 794.294 455.444
1095 0 97.1902 14.5797 1417 123.769 793.337 454.08
1096 0 99.253 14.8409 1473 123.148 793.859 452.793
1097 0 105.235 15.28 1608 120.749 793.908 452.545
1098 0 109.234 15.4806 1691 119.102 793.322 450.614
1099 0 110.263 14.1662 1562 124.204 793.492 448.291
1100 1 56.16 12.4288 698 126.715 793.448 472.199
1101 0 60.2547 13.5093 814 123.654 793.779 472.047
1102 0 63.1225 14.1154 891 121.684 793.455 470.217
1103 0 65.182 12.7489 831 124.777 793.363 469.496
1104 0 67.1099 13.9175 934 123.045 793.782 467.165
1105 0 70.0949 14.9512 1048 119.477 793.818 467.161
1106 0 71.1276 13.9889 995 123.609 793.262 466.164
1107 0 72.0712 14.2082 1024 122.373 793.87 466.497
1108 0 76.0588 13.1477 1000 124.992 793.618 465.316
1109 0 79.037 14.1706 1120 122.55 794.053 464.725
1110 0 80.0925 13.9089 1114 124.921 793.461 462.242
1111 0 83.0593 13.1111 1089 126.2 794.185 462.102
1112 0 87.1427 14.1148 1230 123.185 794.973 460.696
1113 0 91.1558 14.6123 1332 119.926 794.524 461.501
1114 0 92.1213 14.3398 1321 122.152 794.788 460.634
1115 0 96.137 13.3975 1288 124.06 794.671 456.418
1116 0 101.15 14.8098 1498 119.188 794.815 457.046
1117 0 104.124 14.1465 1473 121.524 794.993 453.168
1118 1 54.0901 10.6119 574 117.357 795.235 477.936
1119 0 55.1556 11.2047 618 112.615 794.99 474.27
1120 0 56.1499 12.2173 686 115.977 795.717 475.458
1121 0 58.0943 11.2576 654 113.187 796.11 475.063
1122 0 61.1441 11.4974 703 109.748 796.085 474.93
1123 0 63.0624 11.338 715 109.115 794.866 471.545
1124 0 65.072 9.97357 649 108.895 794.39 474.589
1125 0 68.0528 11.8878 809 107.567 794.005 472.899
1126 0 72.1191 12.8399 926 107.395 793.874 470.083
1127 0 74.1294 12.2354 907 109.507 793.321 467.354
1128 0 76.0635 12.3975 943 110.468 793.381 465.22
1129 0 81.0978 12.787 1037 109.07 793.126 466.366
1130 0 81.0626 11.855 961 116.73 792.975 461.929
1131 0 85.092 11.7872 1003 114.336 793.237 461.818
1132 0 91.112 13.8291 1260 109.71 793.156 459.749
1133 1 48.0875 11.0424 531 105.537 792.495 480.305
1134 0 51.2325 11.3795 583 106.451 793.024 481.877
1135 0 51.0597 13.0827 668 104.979 793.485 479.84
1136 0 51.1045 10.9188 558 110.061 792.746 479.995
1137 0 53.0874 9.88935 525 109.002 793.636 479.549
1138 0 54.03 10.3091 557 110.39 793.864 476.932
1139 0 58.0703 12.416 721 105.366 793.318 475.175
1140 0 58.0775 11.2608 654 108.755 792.693 475.858
1141 0 61.0912 11.3601 694 108.621 793.052 475.012
1142 0 62.3026 11.4762 715 111.025 794.211 474.69
1143 0 64.1652 11.9847 769 108.896 793.752 474.345
1144 0 66.2942 11.63 771 108.298 793.288 475.215
1145 0 68.3046 11.9611 817 107.929 794.501 471.228
1146 0 70.1816 12.1542 853 107.797 794.101 469.098
1147 0 71.2789 10.508 749 111.439 792.562 468.852
1148 0 74.2561 11.6489 865 108.182 793.297 465.554
1149 0 78.1283 11.9931 937 106.66 792.314 465.943
1150 0 81.1989 11.4041 926 106.442 792.647 464.548
1151 0 82.1462 10.1648 835 108.853 792.932 463.949
1152 0 84.099 9.69096 815 111.083 792.883 457.924
1153 1 44.034 8.94763 394 103.19 792.475 483.162
1154 0 44.0896 9.52606 420 105.714 792.569 482.776
1155 0 47.1725 10.8538 512 97.373 794.049 481.568
1156 0 48.0951 9.21091 443 100.79 794.129 480.984
1157 0 49.1646 11.7157 576 95.6719 794.387 479.984
1158 0 50.1191 8.79903 441 101.517 794.086 479.828
1159 0 53.2101 10.2988 548 97.969 794.69 479.558
1160 0 54.2707 9.3052 505 100.214 794.416 477.386
1161 0 56.2647 9.70413 546 100.223 794.621 478.002
1162 0 57.1541 10.078 576 100.339 794.601 475.134
1163 0 56.1629 9.43683 530 101.87 795.157 475.57
1164 0 59.1722 8.97381 531 102.35 794.401 471.864
1165 0 62.2771 10.5175 655 99.0504 794.985 471.835
1166 0 65.1825 11.2454 733 97.5143 794.925 472.648
1167 0 67.1525 10.7814 724 99.5622 793.946 470.448
1168 0 69.1371 9.83554 680 107.831 793.931 469.016
1169 0 69.1327 9.41667 651 109.293 793.478 470.877
1170 0 72.1863 10.3344 746 108.529 793.322 468.34
1171 0 68.1482 9.14184 623 111.464 792.97 466.464
1172 0 74.1779 8.43918 626 111.693 793.45 466.134
1173 0 79.205 9.49435 752 110.584 793.479 462.557
1174 0 81.2144 9.93666 807 109.524 793.39 465.353
1175 0 86.1277 10.7747 928 107.029 793.93 462.078
1176 1 44.0702 9.46218 417 105.127 794.475 483.18
1177 0 45.0371 9.76972 440 105.08 793.652 482.611
1178 0 46.0053 9.84669 453 106.307 793.766 482.501
1179 0 47.097 9.9157 467 107.452 792.764 481.036
1180 0 50.1961 11.5746 581 104.525 793.019 479.398
1181 0 50.1166 9.71734 487 110.967 793.329 480.852
1182 0 52.0841 10.8862 567 109.892 793.205 478.728
1183 0 52.1607 10.3334 539 112.451 792.889 479.36
1184 0 54.0778 11.0212 596 109.857 792.727 478.609
1185 0 58.1377 11.7996 686 109.105 793.464 478.14
1186 0 58.1118 11.5295 670 111.149 793.53 476.643
1187 0 60.0594 11.089 666 112.222 793.372 474.89
1188 0 62.1914 12.1239 754 112.032 792.642 470.943
1189 0 65.1392 11.3603 740 113.385 792.828 471.618
1190 0 66.0593 12.625 834 111.052 793.381 470.452
1191 0 65.126 12.0228 783 115.066 793.48 470.123
1192 0 70.1386 12.9458 908 112.554 794.943 467.395
1193 0 73.1673 11.8495 867 114.426 794.262 465.582
1194 0 75.129 12.991 976 112.518 794.411 466.444
1195 0 76.1779 11.9851 913 117.484 794.968 466.013
1196 0 77.1602 12.5972 972 118.197 794.923 464.034
1197 0 80.1186 13.1929 1057 119.469 794.496 462.623
1198 0 82.2115 12.3949 1019 122.948 794.428 462.377
1199 0 84.1496 12.3946 1043 124.507 794.517 461.95
1200 0 90.2127 14.5434 1312 119.473 793.768 460.699
1201 0 92.1215 14.0684 1296 123.359 793.688 455.585
1202 0 94.1036 14.059 1323 123.101 793.831 456.807
1203 0 96.1096 13.8488 1331 124.322 794.11 457.53
1204 1 50.0415 11.8302 592 122.446 794.135 480.377
1205 0 54.0874 12.4798 675 125.043 793.587 478.89
1206 0 54.0697 13.3901 724 126.692 794.768 476.758
1207 0 55.232 13.9593 771 126.204 794.137 475.525
1208 0 57.2039 13.7753 788 127.457 794.194 475.234
1209 0 60.2236 13.948 840 128.112 794.148 473.595
1210 0 62.2839 14.3697 895 125.773 793.865 474.582
1211 0 64.1268 13.9567 895 127.794 793.727 473.56
1212 0 62.1042 14.057 873 130.955 793.136 473.354
1213 0 68.1787 14.6527 999 127.534 794.079 471.454
1214 0 69.276 14.5938 1011 128.813 793.59 468.796
1215 0 72.1472 15.1912 1096 126.121 793.426 469.863
1216 0 73.2252 13.3287 976 131.836 793.01 468.658
1217 0 76.1945 14.8961 1135 126.484 793.262 468.064
1218 0 78.1737 14.1864 1109 128.454 792.84 468.216
1219 0 80.0828 14.7972 1185 127.641 793.183 465.798
1220 0 83.1762 14.9322 1242 126.708 793.471 466.406
1221 0 87.2046 14.2538 1243 128.936 793.292 463.155
1222 0 89.2086 15.4581 1379 126.028 793.397 462.143
1223 1 45.0817 12.0892 545 128.677 793.549 483.917
1224 0 47.104 12.6104 594 127.497 793.148 481.468
1225 0 46.0449 12.4878 575 130.217 792.896 480.823
1226 0 49.0428 12.0711 592 128.855 793.657 480.588
1227 0 53.0556 13.3256 707 122.588 793.591 479.273
1228 0 53.1153 12.3881 658 126.006 792.976 479.351
1229 0 55.044 14.661 807 119.563 793.154 477.84
1230 0 57.1115 13.2373 756 123.153 792.993 475.75
1231 0 59.1366 13.1222 776 121.961 792.707 475.781
1232 0 60.1142 11.7776 708 124.853 792.62 474.301
1233 0 63.0915 13.742 867 119.209 792.942 475.057
1234 0 66.1628 14.3736 951 117.354 792.951 471.885
1235 0 67.1298 12.5429 842 123.449 793.113 470.495
1236 0 68.0646 13.0905 891 122.223 792.923 470.059
1237 0 73.1402 12.811 937 122.12 792.788 467.68
1238 0 74.1153 13.6274 1010 120.894 792.383 468.323
1239 0 79.1564 13.0375 1032 122.001 792.891 465.941
1240 0 78.2304 14.24 1114 117.417 792.659 466.565
1241 0 81.1231 13.8185 1121 118.868 792.401 461.64
1242 0 86.1436 13.3266 1148 122.497 792.47 460.936
1243 1 46.0231 10.9076 502 122.775 793.042 482.787
1244 0 46.0184 11.8431 545 122.253 792.185 479.391
1245 0 48.0312 12.8458 617 115.72 792.583 481.489
1246 0 50.1033 11.7158 587 114.63 794.276 481.482
1247 0 51.1191 12.1481 621 115.353 794.649 479.671
1248 0 53.0942 11.6585 619 115.995 794.215 478.551
1249 0 54.0286 12.4008 670 114.875 794.81 476.81
1250 0 55.0377 11.3922 627 117.743 794.574 476.99
1251 0 57.1624 11.1262 636 119.719 793.45 474.403
1252 0 61.0774 11.8047 721 117.004 793.098 477.451
1253 0 62.081 11.4045 708 118.758 793.722 476.34
1254 0 65.1217 13.0371 849 115.81 793.396 474.557
1255 0 68.0832 12.5141 852 118.043 793.867 472.799
1256 0 69.0559 13.1922 911 118.11 793.806 470.852
1257 0 72.1245 13.5044 974 117.552 794.005 469.157
1258 0 74.1164 13.101 971 120.428 793.807 468.618
1259 0 74.1174 12.6421 937 124.37 793.255 465.56
1260 0 80.0704 13.5381 1084 121.333 794.057 467.484
1261 0 82.144 14.2311 1169 121.652 793.706 463.948
1262 0 83.1739 14.1511 1177 124.58 793.061 463.043
1263 0 88.1161 14.2426 1255 123.924 793.212 462.163
1264 0 91.0544 14.9032 1357 126.124 793.85 460.101
1265 0 94.0718 14.2657 1342 128.845 793.968 458.922
1266 0 97.1987 14.7327 1432 128.418 793.809 457.847
1267 0 101.111 14.5483 1471 129.415 795.07 455.832
1268 0 101.226 14.4825 1466 130.333 794.058 454.376
1269 0 106.16 13.8564 1471 129.396 794.228 452.57
1270 0 107.291 13.9434 1496 129.311 793.66 452.78
1271 0 112.242 14.834 1665 126.05 793.792 449.144
1272 0 116.201 14.6298 1700 127.629 793.685 450.032
1273 0 120.209 13.9007 1671 129.773 792.873 447.94
1274 0 124.185 14.4059 1789 130.942 793.122 443.829
1275 1 64.0512 12.1465 778 132.458 793.913 473.293
1276 0 70.1314 13.603 954 127.618 793.46 470.726
1277 0 71.143 15.1666 1079 124.07 794.18 469.029
1278 0 73.1914 12.9797 950 131.319 793.554 467.145
1279 0 75.1783 11.772 885 136.977 793.416 467.903
1280 0 78.1443 13.1168 1025 133.068 794.1 466.682
1281 0 83.2287 13.8894 1156 130.711 793.817 463.571
1282 0 85.1794 12.4091 1057 135.197 793.706 462.137
1283 0 87.2212 13.3339 1163 129.48 794.046 460.19
1284 0 93.1416 13.7425 1280 126.238 795.256 460.888
1285 0 93.1718 13.0941 1220 130.399 795.068 456.309
1286 0 97.2259 13.1755 1281 130.021 795.161 455.257
1287 0 99.3187 13.8443 1375 129.245 794.763 453.422
1288 0 105.216 13.3345 1403 129.507 794.496 452.019
1289 1 54.1014 10.2955 557 132.828 795.982 477.235
1290 0 55.0281 11.6849 643 128.359 793.919 477.028
1291 0 58.0918 12.945 752 120.765 792.346 473.745
1292 0 57.0767 12.6146 720 120.535 792.956 474.097
1293 0 60.0797 12.3503 742 120.628 792.888 472.456
1294 0 63.0554 12.5128 789 119.484 792.885 472.991
1295 0 65.0548 11.8669 772 122.466 792.712 469.833
1296 0 68.1019 12.3198 839 124.033 793.125 468.162
1297 0 70.0634 12.0462 844 127.739 792.338 465.973
1298 0 72.1294 13.0599 942 125.386 792.752 462.95
1299 0 74.1414 12.3008 912 126.103 792.611 464.632
1300 0 79.051 12.4477 984 124.236 792.326 463.389
1301 0 80.0461 12.6552 1013 124.217 792.352 461.376
1302 0 84.0702 12.5371 1054 121.458 793.905 463.655
1303 0 86.1464 14.7888 1274 116.045 792.904 460.086
1304 0 87.1567 11.9096 1038 125.465 791.987 456.584
1305 0 93.0679 13.6137 1267 119.415 792.481 456.678
1306 1 48.0241 11.2235 539 119.08 791.785 477.577
1307 0 49.0353 9.74809 478 125.272 791.891 475.634
1308 0 52.0775 10.83 564 122.833 792.046 476.482
1309 0 53.0524 12.384 657 119.339 792.39 475.837
1310 0 54.1446 11.2476 609 122.865 792.429 474.97
1311 0 53.0517 10.4803 556 126.484 792.509 473.286
1312 0 57.0479 10.6577 608 124.291 791.885 472.862
1313 0 59.0277 11.8927 702 120.584 791.964 471.285
1314 0 62.0505 12.4737 774 117.876 791.541 470.066
1315 0 62.0763 10.6321 660 122.871 792.632 470.38
1316 0 65.0346 11.6092 755 118.95 792.772 467.615
1317 0 67.0588 10.9158 732 120.484 792.265 466.914
1318 0 69.1024 11.0561 764 119.641 792.322 467.335
1319 0 71.1015 11.4344 813 120.429 792.273 463.923
1320 0 74.1776 11.2568 835 119.993 792.113 463.606
1321 0 77.1193 11.372 877 120.904 791.983 462.197
1322 0 81.1367 11.8812 964 119.164 792.127 462.189
1323 0 84.0871 12.8081 1077 116.49 791.76 461.973
1324 0 87.0349 11.0875 965 117.324 791.999 462.48
1325 1 45.0234 10.439 470 110.983 791.951 479.651
1326 0 46.2264 10.838 501 112.333 794.8 475.543
1327 0 49.137 11.4781 564 104.732 792.257 479.144
1328 0 50.1323 11.709 587 105.065 792.693 478.521
1329 0 52.1157 11.7047 610 105.203 792.751 477.267
1330 0 55.2379 12.0388 665 104.689 793.274 476.869
1331 0 54.2296 12.318 668 106.219 792.707 474.993
1332 0 55.1082 10.8514 598 110.768 792.082 474.38
1333 0 58.062 11.6944 679 107.928 792.501 475.099
1334 0 57.0829 11.0366 630 110.544 792.076 473.03
1335 0 61.086 11.7703 719 109.115 792.733 472.273
1336 0 66.1549 12.1079 801 108.022 792.448 472.061
1337 0 66.1864 12.2533 811 108.864 792.247 471.713
1338 0 67.0534 11.8562 795 108.669 792.361 466.833
1339 0 70.0502 11.6916 819 109.176 792.498 467.237
1340 0 72.1199 12.5901 908 107.058 793.144 466.67
1341 0 75.159 13.5313 1017 105.08 793.225 466.07
1342 0 77.0755 11.8455 913 109.571 793.037 463.934
1343 0 81.2984 11.956 972 107.209 793.36 459.739
1344 0 83.2674 12.682 1056 106.593 792.865 455.553
1345 0 86.2713 12.4027 1070 107.898 793.109 455.498
1346 0 88.1193 11.7001 1031 114.058 792.078 455.331
1347 0 89.177 11.4043 1017 114.402 793.375 454.913
1348 1 47.0254 10.2072 480 105.035 792.781 476.823
1349 0 50.1442 10.9883 551 101.873 794.799 478.857
1350 0 50.0569 11.8066 591 111.562 794.831 477.393
1351 0 50.0604 11.2864 565 113.042 795.356 475.485
1352 0 56.073 12.6442 709 106.145 795.2 478.583
1353 0 55.1764 12.2335 675 109.911 794.676 475.957
1354 0 57.1123 12.0289 687 109.601 793.802 475.066
1355 0 58.2006 11.5978 675 111.32 793.945 474.105
1356 0 61.1414 12.1849 745 109.537 793.961 472.083
1357 0 63.294 12.434 787 109.811 794.056 470.292
1358 0 68.1772 13.8463 944 105.672 794.472 469.965
1359 0 68.1849 11.7915 804 112.357 794.391 466.942
1360 0 69.1699 13.0548 903 110.106 794.025 466.886
1361 0 72.186 12.6202 911 110.644 793.566 465.338
1362 0 75.2828 14.0802 1060 109.906 793.813 463.225
1363 0 76.1605 12.907 983 113.351 794.675 462.941
1364 0 78.2628 12.9691 1015 112.032 794.931 459.993
1365 0 80.1649 11.9753 960 116.634 794.477 458.599
1366 0 84.1814 13.4828 1135 113.406 794.081 456.47
1367 0 87.2663 12.5936 1099 117.196 794.532 454.383
1368 0 90.2964 13.3006 1201 115.821 794.451 452.884
1369 0 91.2551 12.9089 1178 117.706 794.094 449.894
1370 1 45.0822 9.02796 407 116.587 794.801 473.248
1371 0 49.3756 10.2075 504 112.228 793.883 471.224
1372 0 49.185 10.979 540 112.522 793.52 470.089
1373 0 53.0897 11.5842 615 112.862 795.829 474.878
1374 0 53.1015 11.4309 607 113.883 796.025 473.936
1375 0 54.0786 11.0765 599 116.701 795.269 472.466
1376 0 57.0591 12.7762 729 112.347 795.247 471.937
1377 0 57.1091 11.6619 666 117.245 795.159 471.048
1378 0 59.0576 12.3947 732 115.413 795.272 470.54
1379 0 59.126 11.6023 686 119.13 794.573 470.162
1380 0 62.069 12.6956 788 115.876 795.124 469.961
1381 0 64.0672 11.7533 753 118.806 794.752 468.341
1382 0 66.0676 12.5629 830 117.717 795.005 466.186
1383 0 70.0759 12.3009 862 116.845 794.536 467.281
1384 0 72.0688 14.2225 1025 112.807 794.153 463.181
1385 0 74.171 10.9477 812 122.326 794.932 463.218
1386 0 74.0918 12.525 928 119.232 794.95 460.526
1387 0 77.1192 12.9799 1001 117.501 794.13 462.374
1388 0 81.1789 11.7025 950 120.744 794.321 460.345
1389 0 85.2612 13.0423 1112 116.866 794.666 459.079
1390 0 86.1618 12.9756 1118 118.826 795.029 456.826
1391 0 87.1482 12.3583 1077 120.437 795.097 455.952
1392 0 91.1404 11.784 1074 122.055 794.746 452.908
1393 0 93.1447 11.7774 1097 122.958 794.485 453.485
1394 1 49.0434 9.58336 470 116.404 794.553 476.066
1395 0 51.0297 11.5031 587 117.46 794.365 478.845
1396 0 50.1481 10.1499 509 122.982 792.576 477.872
1397 0 54.0384 13.2498 716 114.303 794.36 477.689
1398 0 54.0384 13.2498 716 130.289 795.369 477.626
1399 0 57.0439 11.8505 676 119.324 794.047 475.055
1400 0 57.0659 12.3016 702 119.647 794.145 473.041
1401 0 59.0493 11.8545 700 119.719 794.544 473.871
1402 0 62.0643 12.3259 765 119.337 794.221 471.441
1403 0 64.0332 11.6502 746 121.382 794.513 470.137
1404 0 67.0435 12.8722 863 118.395 794.191 468.458
1405 0 68.0653 12.2823 836 120.901 794.316 469.22
1406 0 71.0199 12.1374 862 121.116 793.746 468.567
1407 0 70.0775 11.3018 792 126.39 793.956 466.044
1408 0 74.0419 12.5605 930 123.158 793.229 465.433
1409 0 77.2748 12.3844 957 124.21 793.339 459.176
1410 0 79.1159 13.4865 1067 123.056 792.108 463.344
1411 0 82.136 12.7106 1044 126.642 792.026 460.764
1412 0 86.2104 14.0354 1210 123.421 794.061 458.699
1413 0 87.1945 14.0376 1224 125.377 793.097 458.785
1414 0 91.2066 13.431 1225 127.304 793.006 454.645
1415 1 45.1106 10.1528 458 129.031 794.648 477.969
1416 0 48.1074 10.3518 498 129.068 794.161 478.416
1417 0 50.0991 12.6549 634 122.467 793.049 477.926
1418 0 50.0359 12.3911 620 125.953 794.245 475.253
1419 0 53.0322 12.5584 666 124.227 795.105 475.414
1420 0 54.0345 11.2891 610 128.81 794.764 475.179
1421 0 54.0283 11.9197 644 127.707 794.391 475.213
1422 0 57.0243 11.802 673 127.991 794.504 472.316
1423 0 59.0327 12.0781 713 125.701 794.826 473.935
1424 0 59.0768 12.1706 719 126.179 794.73 470.8
1425 0 62.0537 12.0702 749 128.194 795.246 467.729
1426 0 64.11 11.7922 756 127.876 795.313 470.377
1427 0 67.1521 13.0003 873 124.919 796.108 467.976
1428 0 67.0869 12.8043 859 126.662 795.709 466.682
1429 0 70.1074 13.2226 927 123.999 795.799 468.176
1430 0 72.0865 12.0827 871 127.606 795.506 465.503
1431 0 74.1082 12.8326 951 125.014 794.8 465.709
1432 0 75.1225 13.1252 986 124.586 795.637 463.423
1433 0 78.1297 13.4008 1047 125.059 794.205 458.661
1434 0 80.0954 12.9346 1036 126.394 794.361 458.784
1435 0 83.1228 12.5597 1044 126.894 794.945 458.826
1436 0 86.0554 14.0607 1210 123.104 794.309 458.489
1437 0 93.1259 16.6441 1550 113.795 794.221 452.457
1438 1 48.0361 10.1798 489 126.315 795.589 476.364
1439 0 50.0276 11.6736 584 121.526 795.055 476.041
1440 0 50.0222 10.7952 540 121.915 795.524 469.298
1441 0 53.1304 12.3658 657 122.377 793.167 471.686
1442 0 54.0445 12.3417 667 123.516 795.361 470.966
1443 0 58.0775 11.6568 677 124.69 795.319 470.264
1444 0 59.0889 13.3866 791 120.197 795.292 469.066
1445 0 60.0604 12.3043 739 123.996 794.877 469.526
1446 0 61.0727 12.8535 785 122.936 795.033 467.969
1447 0 63.0315 12.4224 783 124.598 795.183 467.943
1448 0 65.0793 14.1366 920 120.583 795.387 467.36
1449 0 66.1054 13.4028 886 123.089 795.063 468.33
1450 0 69.1785 14.4843 1002 120.055 794.834 465.518
1451 0 70.2475 15.1322 1063 119.236 794.981 465.006
1452 0 73.1719 14.0764 1030 122.632 795.805 463.552
1453 0 72.127 12.5057 902 128.115 794.861 462.283
1454 0 74.2108 11.912 884 130.95 794.82 459.157
1455 0 78.2448 11.9113 932 129.163 794.45 459.348
1456 0 80.1992 12.7682 1024 125.982 795.213 460.034
1457 0 84.2148 13.1925 1111 124.629 795.243 455.113
1458 0 85.1883 12.5721 1071 127.338 794.708 455.955
1459 0 87.1856 11.7909 1028 128.492 794.257 457.339
1460 0 92.2294 13.0327 1202 124.754 794.946 455.948
1461 0 95.2976 12.3298 1175 125.755 794.976 453.453
1462 0 99.3325 12.8659 1278 123.068 793.7 450.958
1463 1 48.076 10.941 526 122.926 794.823 474.221
1464 0 55.1503 12.203 673 115.779 795.371 475.352
1465 0 54.1335 11.9889 649 117.963 795.795 474.716
1466 0 56.0604 13.3249 747 114.932 795.602 473.126
1467 0 58.0908 12.8247 745 115.553 795.329 473.497
1468 0 58.1693 12.9622 754 116.928 795.107 473.371
1469 0 61.1803 13.3376 816 114.838 795.746 472.513
1470 0 62.2701 14.5816 908 112.811 795.373 470.987
1471 0 65.1549 14.596 951 111.731 794.89 470.761
1472 0 67.1292 13.1091 880 115.782 794.849 470.308
1473 0 68.0688 13.1338 894 115.678 795.199 469.833
1474 0 71.1849 14.7784 1052 111.122 794.608 468.558
1475 0 70.1207 13.7762 966 115.362 794.781 466.069
1476 0 72.0917 13.0251 939 117.539 795.711 467.055
1477 0 75.2484 13.7943 1038 115.884 795.229 465.154
1478 0 75.2434 12.546 944 119.654 794.517 465.653
1479 0 77.1468 11.9642 923 121.659 794.066 463.596
1480 0 82.1395 13.3066 1093 118.094 794.393 461.758
1481 0 83.1461 13.6146 1132 119.163 793.747 458.741
1482 0 86.1094 12.4609 1073 121.094 793.708 459.615
1483 0 89.1234 13.3074 1186 119.078 794.129 458.999
1484 0 93.1545 13.7943 1285 117.56 794.005 457.123
1485 0 96.1232 12.5464 1206 120.863 794.093 454.804
1486 0 99.1488 12.7586 1265 117.07 793.808 455.669
1487 1 53.1944 10.6778 568 118.394 795.29 475.548
1488 0 56.1215 11.2791 633 116.371 794.986 467.537
1489 0 58.1392 11.9885 697 114.818 795.347 472.848
1490 0 61.0939 11.4741 701 115.198 795.004 473.315
1491 0 62.1878 12.4783 776 110.589 795.32 472.072
1492 0 65.1452 11.8044 769 113.993 795.195 472.173
1493 0 68.0893 12.8214 873 113.808 795.577 469.316
1494 0 69.0921 12.8235 886 115.131 795.374 470.341
1495 0 71.0819 12.9147 918 116.106 794.783 468.126
1496 0 74.1473 12.2324 907 117.416 794.25 468.492
1497 0 75.2258 12.9477 974 116.658 794.267 466.936
1498 0 80.2725 13.4043 1076 115.192 794.592 463.249
1499 0 81.1324 12.4118 1007 117.718 793.537 463.725
1500 0 82.1959 13.334 1096 118.908 793.689 457.54
1501 0 85.1495 12.0377 1025 120.809 793.931 459.677
1502 0 90.3572 12.6166 1140 117.694 793.392 455.12
1503 0 93.2098 12.4772 1163 112.236 794.769 455.071
1504 0 94.0861 11.8296 1113 110.589 794.374 453.504
1505 0 95.0589 11.5087 1094 113.655 794.511 451.906
1506 1 49.0548 10.4373 512 111.764 795.025 474.326
1507 0 49.0833 11.3277 556 111.365 795.025 471.013
1508 0 51.0625 10.5557 539 112.59 795.024 472.191
1509 0 53.0499 10.2545 544 113.121 795.037 473.548
1510 0 52.028 11.1863 582 113.397 794.773 470.679
1511 0 56.0219 11.1563 625 113.13 795.149 475.208
1512 0 57.0419 11.9386 681 112.137 794.787 471.364
1513 0 60.0962 10.8326 651 112.439 795.296 472.512
1514 0 61.043 12.4666 761 108.643 795.214 471.13
1515 0 63.1379 12.2114 771 110.074 794.913 472.665
1516 0 65.0676 10.6351 692 112.711 794.738 472.061
1517 0 66.036 11.4332 755 111.075 795.336 471.981
1518 0 68.0423 12.1983 830 111.527 794.773 470.237
1519 0 70.0997 11.9829 840 113.855 793.952 467.42
1520 0 73.058 12.8528 939 112.885 793.734 468.094
1521 0 76.0765 12.7766 972 113.142 794.193 468.126
1522 0 77.0279 11.8399 912 117.28 794.069 464.312
1523 0 80.061 11.154 893 119.086 794.442 464.748
1524 1 42.0198 10.6378 447 113.277 794.664 486.53
1525 0 40.0153 9.97119 399 119.18 794.779 484.103
1526 0 45.0386 11.2792 508 111.52 794.476 484.675
1527 0 40.0716 9.48303 380 108.897 794.655 478.989
1528 0 44.073 11.2314 495 104.96 794.632 478.772
1529 0 45.0763 11.292 509 106.452 794.189 479.34
1530 0 45.0685 10.9167 492 109.502 794.093 478.701
1531 0 46.1424 10.8794 502 110.829 793.875 478.6
1532 0 48.2388 11.3394 547 110.148 793.973 477.239
1533 0 49.0669 10.394 510 113.573 793.763 477.949
1534 0 50.0852 10.6618 534 113 794.27 478.742
1535 0 52.0352 9.70497 505 115.75 794.457 475.81
1536 0 51.0366 9.1307 466 117.09 793.914 477.637
1537 0 55.0493 10.9902 605 113.046 793.795 475.476
1538 0 54.0887 10.8525 587 115.077 793.877 472.077
1539 0 57.1646 10.566 604 116.571 793.98 472.053
1540 0 60.1747 10.6523 641 117.534 793.112 470.718
1541 0 62.0704 11.4386 710 121.113 793.445 474.897
1542 0 66.1045 11.6331 769 120.449 794.022 474.945
1543 0 65.0942 10.4618 681 126.104 793.561 473.258
1544 0 67.1272 10.6216 713 127.272 793.673 471.59
1545 0 72.1074 13.1609 949 123.367 793.338 471.776
1546 0 74.0937 13.5369 1003 123.851 792.833 468.869
1547 0 75.1734 12.6508 951 127.568 792.679 468.258
1548 0 76.1542 11.6737 889 131.272 792.845 467.245
1549 0 79.1043 13.084 1035 128.4 792.234 465.096
1550 0 83.0952 14.0923 1171 125.231 792.488 464.269
1551 0 85.2002 13.4507 1146 126.494 792.525 464.679
1552 0 88.2367 14.3024 1262 125.027 792.098 461.3
1553 0 90.2822 13.5021 1219 131.044 792.158 461.358
1554 0 95.3117 14.1745 1351 128.863 791.261 456.984
1555 0 97.3297 12.3087 1198 130.505 791.36 455.406
1556 0 101.269 13.4593 1363 126.602 791.325 452.325
1557 1 52.0872 11.2504 586 129.775 791.79 478.503
1558 0 55.08 12.618 695 124.232 791.928 479.01
1559 0 56.0516 12.2566 687 123.339 793.096 477.811
1560 0 57.069 13.4223 766 119.756 792.607 476.061
1561 0 58.1039 12.7014 738 121.925 792.355 474.554
1562 0 62.1166 12.8951 801 120.864 792.116 474.247
1563 0 62.0553 12.1021 751 124.237 792.238 474.193
1564 0 66.1696 12.9667 858 123.162 791.787 471.003
1565 0 68.129 13.8267 942 121.328 792.298 471.489
1566 0 71.1404 13.4663 958 123.196 792.414 469.829
1567 0 73.2641 13.349 978 123.739 792.494 468.688
1568 0 74.1619 13.2952 986 124.601 792.39 468.037
1569 0 77.2098 12.6279 975 127.253 792.59 465.339
1570 0 82.1537 13.7912 1133 122.624 791.88 466.76
1571 0 84.285 13.051 1100 129.463 791.775 464.265
1572 0 85.2966 12.6148 1076 132.382 791.665 461.724
1573 0 90.2539 12.908 1165 131.384 791.232 460.372
1574 0 93.3191 11.9161 1112 134.112 791.531 459.324
1575 0 95.3102 12.4226 1184 127.874 791.895 457.069
1576 0 95.3102 12.4751 1189 150.695 792.881 457.013
1577 1 52.2081 11.8372 618 117.439 792.579 478.964
1578 0 51.2362 10.6565 546 114.132 791.874 476.608
1579 0 53.2157 10.4668 557 113.883 792.223 473.065
1580 0 55.1369 11.3536 626 111.46 792.088 472.059
1581 0 58.1214 10.3404 601 112.739 791.988 473.341
1582 0 56.1683 11.1629 627 114.601 791.962 469.392
1583 0 60.0605 11.8214 710 111.234 791.886 470.396
1584 0 61.2562 11.7049 717 113.109 791.218 470.068
1585 0 65.1506 11.9109 776 112.371 791.437 467.302
1586 0 66.2539 12.2559 812 112.467 791.698 466.889
1587 0 67.3039 11.4555 771 116.72 791.894 462.952
1588 0 71.13 11.725 834 115.914 790.695 465.721
1589 0 72.1899 10.5555 762 120.798 791.01 462.133
1590 0 75.1715 12.0657 907 118.025 791.388 462.265
1591 0 77.0695 10.7955 832 122.561 791.304 461.108
1592 0 81.0592 10.8933 883 123.657 790.937 460.855
1593 0 84.1298 10.7334 903 126.059 791.347 460.209
1594 0 84.2881 11.081 934 127.532 792.23 458.647
1595 0 90.2813 12.3171 1112 130.091 792.397 460.441
1596 1 47.154 10.5611 498 128.221 792.964 480.217
1597 0 50.1527 11.1459 559 126.914 792.626 479.005
1598 0 51.2744 11.8773 609 126.213 791.634 476.846
1599 0 54.1853 12.3096 667 125.247 791.957 476.942
1600 0 54.2026 11.8076 640 129.669 793.019 474.503
1601 0 57.3054 13.1401 753 125.309 791.663 475.073
1602 0 58.2213 11.6452 678 129.459 791.552 476.329
1603 0 61.2512 12.7834 783 127.593 791.114 473.564
1604 0 62.267 12.0449 750 130.383 791.301 473.043
1605 0 65.2378 12.8913 841 129.385 791.335 471.427
1606 0 66.244 12.8012 848 128.873 791.057 471.125
1607 0 69.2776 12.7025 880 128.895 791.61 470.733
1608 0 70.1864 12.88 904 128.931 791.961 470.72
1609 0 72.2673 13.2979 961 129.003 791.613 468.198
1610 0 76.2031 12.9785 989 128.907 792.133 467.031
1611 0 76.3849 11.8741 907 132.808 791.906 467.854
1612 0 79.2148 13.1036 1038 130.633 791.514 464.897
1613 0 83.2477 13.5739 1130 128.507 791.81 462.793
1614 0 85.3821 12.3796 1057 132.881 791.57 462.658
1615 0 89.3466 12.5354 1120 131.579 791.456 462.747
1616 0 90.221 12.2144 1102 133.201 791.87 460.745
1617 0 95.2207 14.2931 1361 126.547 791.604 458.12
1618 0 97.3362 13.4277 1307 129.46 792.044 455.956
1619 1 52.1364 11.7576 613 127.028 790.853 478.4
1620 0 54.0872 11.1856 605 118.369 792.569 474.871
1621 0 54.0487 10.2685 555 122.429 792.733 473.661
1622 0 57.0292 11.0119 628 119.018 792.368 474.084
1623 0 57.1187 12.1852 696 117.172 792.746 474.29
1624 0 61.0749 10.5608 645 120.302 792.397 471.774
1625 0 63.0772 11.8268 746 116.405 791.79 471.059
1626 0 64.0823 10.783 691 118.03 791.97 471.971
1627 0 66.0687 11.8664 784 114.159 792.034 471.585
1628 0 70.0294 12.152 851 112.912 792.269 471.733
1629 0 72.0274 11.5789 834 114.072 792.079 470.842
1630 0 75.0431 11.8065 886 114.519 792.16 469.151
1631 0 76.0245 10.8255 823 118.42 792.402 465.092
1632 0 79.0568 11.3463 897 116.798 791.911 464.603
1633 0 84.1527 12.4179 1045 112.167 792.342 463.232
1634 1 45.1546 10.5637 477 110.132 792.973 481.379
1635 0 45.0798 10.2707 463 109.808 793.445 481.935
1636 0 47.1581 10.5602 498 108.271 793.888 481.106
1637 0 49.103 12.2192 600 104.597 793.785 479.907
1638 0 49.026 11.4837 563 107.4 791.124 480.309
1639 0 52.0429 13.1046 682 101.985 790.576 478.975
1640 0 52.0456 11.3939 593 107.946 791.067 478.272
1641 0 54.0643 11.1904 605 107.678 790.674 478.512
1642 0 54.0884 10.3904 562 110.048 790.74 478.133
1643 0 56.0856 11.7677 660 107.659 790.305 474.282
1644 0 58.143 11.0761 644 107.966 790.354 476.854
1645 0 60.1117 10.73 645 109.028 789.829 474.109
1646 0 61.144 11.9554 731 110.202 790.908 473.561
1647 0 62.1076 11.8665 737 109.583 790.862 474.733
1648 0 65.1031 11.7199 763 111 790.668 473.358
1649 0 68.1967 12.9625 884 110.784 790.824 470.759
1650 0 69.1512 12.4654 862 112.65 790.751 470.327
1651 0 71.1741 11.9285 849 115.412 790.611 468.965
1652 0 73.0683 13.6995 1001 112.027 791.09 467.24
1653 0 75.0956 12.7038 954 113.959 790.84 466.693
1654 0 79.2091 13.0919 1037 113.842 790.492 465.782
1655 0 82.0985 13.3864 1099 111.674 790.291 465.328
1656 0 82.0911 13.1439 1079 114.205 790.605 461.028
1657 0 86.0811 13.4292 1156 113.311 790.349 462.307
1658 0 87.1482 12.7025 1107 115.947 790.324 460.346
1659 0 89.1236 12.7463 1136 117.576 790.573 457.819
1660 0 95.1861 14.3403 1365 112.693 790.799 455.311
1661 1 51.0325 11.3261 578 115.391 790.133 478.081
1662 0 53.0429 11.01 584 116.767 790.798 474.767
1663 0 53.0359 9.2956 493 107.884 791.039 475.189
1664 0 55.0666 10.5509 581 105.921 791.58 473.239
1665 0 56.0496 10.0804 565 109.405 791.028 472.71
1666 0 57.0787 9.53071 544 111.636 791.785 472.513
1667 0 59.0921 10.5598 624 109.117 792.489 472.311
1668 0 64.1802 11.5924 744 107.277 791.991 467.605
1669 0 64.0766 11.5643 741 107.821 791.933 470.406
1670 0 66.2469 11.8798 787 108.759 792.109 467.679
1671 0 68.1433 10.9475 746 110.601 791.078 466.828
1672 0 72.1758 12.1232 875 107.593 791.768 467.461
1673 0 74.1274 11.858 879 110.034 791.877 463.385
1674 0 77.1336 12.5756 970 108.465 791.792 463.97
1675 0 79.0804 11.8234 935 111.201 791.736 463.461
1676 0 82.2224 11.7121 963 113.507 791.262 459.726
1677 0 84.1143 12.5781 1058 112.92 791.88 457.967
1678 0 88.1707 12.9862 1145 112.805 791.798 457.295
1679 0 91.288 13.0138 1188 113.863 791.87 458.604
1680 0 94.1525 13.9561 1314 113.32 792.543 454.949
1681 0 97.1774 13.9539 1356 114.056 792.224 453.781
1682 0 99.15 12.9602 1285 117.867 791.686 450.56
1683 1 55.1719 11.147 615 121.805 792.179 477.758
1684 0 58.125 12.0086 698 118.414 791.908 477.619
1685 0 59.0586 12.6485 747 114.802 792.225 475.329
1686 0 59.1239 12.533 741 115.98 791.988 473.254
1687 0 60.1461 12.187 733 117.759 792.04 471.397
1688 0 65.1137 14.467 942 109.512 792.607 473.207
1689 0 67.1066 14.2162 954 110.126 792.079 472.027
1690 0 69.1127 13.3695 924 112.974 792.236 470.16
1691 0 72.1231 13.6711 986 111.295 792.822 470.217
1692 0 74.1655 14.2519 1057 111.358 792.575 466.719
1693 0 77.1994 13.8991 1073 111.743 792.363 468.066
1694 0 79.1424 13.4947 1068 113.968 791.87 466.443
1695 0 82.1418 13.4523 1105 113.694 792.237 464.892
1696 0 83.1706 13.2018 1098 116.093 792.656 462.906
1697 0 87.2446 13.3647 1166 117.433 792.25 462.001
1698 0 89.2106 13.2271 1180 117.921 793.158 460.614
1699 0 93.232 13.8794 1294 117.639 792.543 456.673
1700 0 92.2332 13.9755 1289 153.157 792.529 456.454
1701 0 100.185 13.2854 1331 115.667 793.031 457.076
1702 1 52.0318 10.7434 559 119.129 792.054 478.572
1703 0 57.0278 12.7482 727 114.274 789.96 475.444
1704 0 58.033 12.9581 752 112.851 790.057 473.735
1705 0 60.0437 12.1745 731 112.606 789.767 474.933
1706 0 62.0815 11.9037 739 113.637 789.687 473.299
1707 0 63.0725 13.0326 822 112.061 789.989 471.664
1708 0 66.129 13.7307 908 110.35 789.761 470.909
1709 0 66.162 12.152 804 114.587 789.801 469.65
1710 0 69.0347 12.8486 887 112.989 789.991 468.55
1711 0 72.079 12.9164 931 112.725 789.571 467.503
1712 0 74.0966 14.1437 1048 110.259 789.934 465.09
1713 0 75.0755 13.4265 1008 113.019 790.663 463.04
1714 0 79.1047 12.7932 1012 115.085 790.716 461.79
1715 0 82.1185 13.5049 1109 112.999 790.483 460.515
1716 0 84.0942 13.0449 1097 116.89 790.856 459.659
1717 0 87.2118 13.5876 1185 115.885 790.728 456.902
1718 0 87.1483 12.014 1047 119.598 790.541 452.815
1719 0 93.1182 12.3069 1146 120.226 789.791 454.218
1720 0 98.1929 12.7402 1251 119.24 789.905 453.659
1721 1 51.0964 10.2355 523 120.543 789.918 475.268
1722 0 53.0344 11.37 603 119.013 789.549 475.569
1723 0 53.1214 11.6149 617 119.439 789.789 470.553
1724 0 57.062 11.4787 655 119.16 789.895 471.569
1725 0 57.0856 11.8594 677 119.982 789.697 469.656
1726 0 62.0842 11.6133 721 121.025 789.503 470.602
1727 0 63.0553 11.5613 729 123.547 789.656 467.805
1728 0 65.0627 12.3419 803 123.366 789.908 467.959
1729 0 69.0747 12.928 893 122.01 790.501 465.819
1730 0 72.0929 12.4007 894 123.365 789.84 467.217
1731 0 73.1093 13.6781 1000 122.113 789.853 463.778
1732 0 77.0945 13.5159 1042 123.668 790.092 460.906
1733 0 79.1513 13.2657 1050 125.505 790.5 462.395
1734 0 84.2182 13.7381 1157 124.328 789.866 460.239
1735 0 87.1407 14.3561 1251 123.688 790.057 459.02
1736 0 89.2748 13.9345 1244 126.065 789.761 458.366
1737 0 90.2516 13.9388 1258 127.72 790.222 457.747
1738 0 94.1571 13.7642 1296 129.177 789.414 455.447
1739 0 97.1914 12.9229 1256 133.279 791.69 456.865
1740 0 99.2961 13.354 1326 129.543 790.311 450.912
1741 0 104.082 13.9986 1457 126.914 790.795 448.745
1742 0 108.102 13.6076 1471 127.309 791.104 449.311
1743 1 62.0691 11.3905 707 129.269 790.648 470.133
1744 0 61.0975 10.8679 664 126.264 790.995 463.125
1745 0 66.0455 11.7041 773 114.897 790.181 466.092
1746 0 67.1367 11.916 800 115.408 790.668 464.755
1747 0 69.0971 11.4621 792 115.463 790.426 465.665
1748 0 72.0814 11.6674 841 116.004 790.356 461.208
1749 0 72.173 10.1284 731 120.138 790.592 459.131
1750 0 77.1219 11.4105 880 116.418 789.993 460.406
1751 0 79.147 11.3965 902 116.601 789.553 458.838
1752 0 81.0632 11.5959 940 117.677 790.269 456.59
1753 0 84.1294 11.6844 983 117.551 790.465 457.953
1754 0 87.1743 12.194 1063 119.269 790.91 455.721
1755 0 92.2547 11.7176 1081 118.668 791.741 456.601
1756 0 94.1161 11.6771 1099 122.478 791.038 457.17
1757 0 97.152 11.6313 1130 122.247 791.472 459.309
1758 0 98.0757 11.0629 1085 126.289 791.547 456.335
1759 1 55.0287 10.1583 559 116.841 792.102 480.333
1760 0 56.0494 11.6326 652 114.808 791.979 478.506
1761 0 59.0133 12.0481 711 113.513 792.172 475.653
1762 0 60.0382 12.2755 737 112.813 790.45 473.244
1763 0 61.061 11.3821 695 115.426 789.901 472.619
1764 0 62.0488 11.5554 717 115.552 790.444 474.435
1765 0 65.0493 12.5597 817 113.69 790.394 473.159
1766 0 67.0438 12.1562 815 116.342 790.028 471.864
1767 0 67.0385 11.3964 764 120.088 789.724 469.537
1768 0 72.1409 12.5865 908 116.215 790.328 469.686
1769 0 72.0595 12.6978 915 117.193 789.333 468.057
1770 0 78.1439 13.7439 1074 112.441 789.725 466.399
1771 0 80.0888 12.8482 1029 113.711 790.317 466.592
1772 0 83.1613 12.6982 1056 114.616 789.974 464.788
1773 0 85.0591 11.5214 980 118 789.91 463.411
1774 0 90.1228 12.3942 1117 114.799 790.44 461.389
1775 1 47.0634 10.029 472 117.89 790.551 480.337
1776 0 49.0567 10.4369 512 117.047 790.424 480.191
1777 0 53.0729 12.1531 645 112.298 791.208 480.152
1778 0 53.1534 10.6108 564 111.956 791.505 468.865
1779 0 53.1837 11.7705 626 103.489 792.351 474.762
1780 0 54.2035 9.68572 525 108.95 791.39 472.417
1781 0 54.1439 8.27424 448 113.199 791.672 470.98
1782 0 56.203 9.10983 512 109.596 792.547 469.047
1783 0 60.1127 11.9276 717 104.42 791.351 471.427
1784 0 61.0828 10.5103 642 108.474 791.492 467.621
1785 0 62.1428 11.023 685 107.915 792.089 465.587
1786 0 64.0385 10.7904 691 109.224 791.262 465.909
1787 0 67.082 11.7468 788 107.358 791.614 464.28
1788 0 69.1646 12.3329 853 106.667 792.132 463.345
1789 0 71.2095 12.1894 868 105.933 791.644 463.294
1790 0 72.1722 10.8906 786 111.216 791.294 462.476
1791 0 73.1241 11.9796 876 113.554 791.863 460.874
1792 0 77.1563 11.548 891 114.747 791.015 461.105
1793 0 79.1949 11.4654 908 116.314 790.958 456.662
1794 0 84.177 12.6875 1068 113.595 790.935 457.669
1795 0 85.1506 11.5795 986 116.665 790.965 457.663
1796 0 88.1813 12.6671 1117 114.846 791.142 457.177
1797 0 94.2168 12.6198 1189 115.449 791.801 455.104
1798 1 49.108 9.46892 465 112.465 792.675 478.729
1799 0 51.1095 11.7591 601 110.918 792.532 478.323
1800 0 52.1431 11.6027 605 112.405 792.873 478.028
1801 0 51.1762 11.9196 610 113.256 793.357 477.767
1802 0 55.2163 11.2286 620 113.223 792.874 478.739
1803 0 58.1238 10.5292 612 115.989 792.534 475.74
1804 0 58.1139 11.2021 651 115.373 792.419 475.98
1805 0 60.0868 11.2837 678 116.183 791.631 473.776
1806 0 61.1096 11.6021 709 116.891 789.32 473.735
1807 0 65.053 13.0816 851 113.363 789.773 471.373
1808 0 66.1311 12.0972 800 116.818 790.531 469.955
1809 0 71.1434 14.1826 1009 109.291 790.535 470.172
1810 0 72.1377 12.7672 921 114.826 790.65 466.763
1811 0 74.1057 12.7521 945 114.532 790.207 467.147
1812 0 78.1293 12.7737 998 114.98 790.837 466.475
1813 0 78.0556 13.3495 1042 115.242 790.835 463.079
1814 0 83.0594 13.5445 1125 113.48 790.845 462.9
1815 0 85.0588 13.6494 1161 114.14 790.979 462.78
1816 0 89.1087 13.8932 1238 113.171 790.918 462.322
1817 0 90.1149 13.0722 1178 116.827 790.57 459.198
1818 0 93.0712 14.086 1311 112.982 791.28 457.699
1819 0 97.1072 13.7065 1331 112.277 791.036 457.089
1820 1 53.0291 11.4088 605 113.803 790.612 478.489
1821 0 57.088 11.421 652 113.836 791.072 477.38
1822 0 58.2105 13.1248 764 108.738 792.288 470.537
1823 0 59.1841 11.6079 687 114.789 793.301 471.501
1824 0 61.1099 12.2075 746 113.359 792.934 472.373
1825 0 62.2267 12.9526 806 111.512 792.587 473.958
1826 0 63.206 12.7203 804 114.639 792.637 469.709
1827 0 65.1949 12.3476 805 116.032 792.383 468.499
1828 0 70.1301 12.8048 898 113.265 792.66 469.872
1829 0 69.1694 13.4886 933 113.197 792.77 468.661
1830 0 73.1268 12.1296 887 116.165 792.975 466.209
1831 0 76.1519 14.7337 1122 109.34 792.253 465.235
1832 0 77.11 13.5132 1042 113.626 792.226 464.83
1833 0 81.1562 13.9731 1134 112.379 792.066 461.877
1834 0 81.125 12.1787 988 118.26 792.234 461.248
1835 0 86.167 13.7872 1188 113.565 791.727 459.502
1836 0 87.242 13.0671 1140 117.132 791.804 455.627
1837 0 91.2257 13.1103 1196 116.598 791.857 455.779
1838 0 95.1786 13.564 1291 116.234 792.431 453.636
1839 0 98.1336 13.0536 1281 117.422 792.223 454.122
1840 1 54.1027 11.4597 620 119.023 792.747 474.361
1841 0 55.1676 10.7491 593 122.192 793.228 471.929
1842 0 57.1641 11.4932 657 117.374 791.189 468.228
1843 0 60.2962 11.5596 697 107.122 791.971 470.65
1844 0 60.0989 12.6625 761 106.104 792.448 469.146
1845 0 63.1327 11.8164 746 108.633 792.29 470.056
1846 0 63.1342 11.135 703 112.055 791.92 469.917
1847 0 66.0601 12.7762 844 108.271 791.453 469.07
1848 0 68.1653 12.2496 835 109.843 791.956 465.049
1849 0 70.1996 11.0115 773 112.815 791.841 468.241
1850 0 71.1633 11.4806 817 111.448 791.689 468.013
1851 0 73.0791 11.6723 853 110.603 791.333 467.857
1852 0 76.0915 11.6833 889 114.345 791.089 463.827
1853 0 75.222 11.6056 873 116.523 791.18 461.901
1854 0 77.0786 12.364 953 115.031 791.349 462.846
1855 0 81.2495 11.9878 974 115.041 791.782 462.235
1856 0 84.1682 11.9641 1007 117.185 791.391 462.706
1857 0 88.3168 11.3002 998 118.893 791.893 460.383
1858 0 91.1732 13.0192 1187 115.571 792.136 458.639
1859 0 95.2925 11.7008 1115 118.077 791.623 458.129
1860 0 97.2327 11.2411 1093 120.791 791.578 454.658
1861 1 54.1176 10.3109 558 116.751 791.939 477.695
1862 0 54.0889 11.7399 635 114.435 791.469 474.964
1863 0 56.092 11.1424 625 115.246 790.349 475.021
1864 0 58.0972 11.7734 684 110.902 791.054 476.3
1865 0 61.0802 11.1984 684 112.944 791.376 474.525
1866 0 63.1067 11.5519 729 112.719 790.578 473.742
1867 0 64.1004 13.3384 855 109.819 790.448 472.174
1868 0 66.0732 13.4548 889 110.429 791.172 470.704
1869 0 69.0905 11.9843 828 112.992 790.447 471.535
1870 0 71.0733 12.4801 887 112.511 790.698 469.919
1871 0 73.0503 13.5386 989 110.566 790.961 466.634
1872 0 74.0593 11.7068 867 114.426 791.028 466.84
1873 0 78.138 13.5274 1057 110.27 790.66 466.123
1874 0 80.0923 12.598 1009 115.522 790.583 463.73
1875 0 84.1606 13.7238 1155 114.431 791.18 463.739
1876 0 88.1115 14.9924 1321 112.696 790.357 462.866
1877 0 89.4265 13.6201 1218 118.66 790.758 459.877
1878 0 93.1333 14.3558 1337 119.61 791.693 453.918
1879 1 50.2846 11.3156 569 119.179 791.687 475.837
1880 0 51.1676 11.1985 573 121.644 790.791 476.654
1881 0 53.1269 12.2725 652 119.747 790.676 477.285
1882 0 53.1142 12.2943 653 122.315 792.129 473.792
1883 0 55.1052 12.7937 705 123.557 792.238 470.806
1884 0 56.0264 13.1188 735 122.478 792.144 473.933
1885 0 59.2251 13.0519 773 122.397 790.079 475.697
1886 0 61.1296 13.136 803 122.273 790.762 474.935
1887 0 62.0416 13.2008 819 123.796 791.415 474.192
1888 0 64.1724 13.417 861 124.188 792.123 468.981
1889 0 66.1409 14.3935 952 121.58 792.27 468.999
1890 0 67.0947 14.5913 979 120.165 791.074 472.134
1891 0 69.1364 13.8277 956 122.523 790.858 470.851
1892 0 74.0814 14.5516 1078 120.063 791.494 468.778
1893 0 74.239 13.4969 1002 124.149 791.141 467.75
1894 0 77.1411 13.4948 1041 122.213 791.054 467.737
1895 0 79.12 14.7118 1164 120.266 790.766 465.511
1896 0 80.1863 13.4187 1076 124.975 790.809 462.854
1897 0 85.1171 14.1335 1203 121.59 790.719 462.09
1898 0 87.1529 12.7821 1114 125.24 791.101 461.075
1899 0 90.1924 13.7706 1242 123.196 791.264 458.672
1900 0 92.2029 14.1536 1305 122.488 791.097 456.518
1901 0 97.2507 14.1593 1377 121.844 791.46 454.221
1902 0 99.0951 12.4325 1232 119.92 791.627 456.481
1903 1 54.1272 10.2536 555 112.559 790.708 470.306
1904 0 56.2197 11.882 668 119.232 791.567 468.117
1905 0 57.0831 10.3884 593 113.401 791.524 467.99
1906 0 57.0425 11.0619 631 109.258 792.006 471.371
1907 0 57.1104 9.87561 564 112.906 791.417 469.573
1908 0 61.194 10.72 656 110.186 792.139 470.212
1909 0 64.0956 11.1864 717 110.004 791.923 468.997
1910 0 67.0939 11.7298 787 110.521 791.907 464.665
1911 0 67.1454 11.1996 752 112.299 791.713 464.957
1912 0 70.1072 11.6536 817 111.714 792.256 463.324
1913 0 73.0294 12.1321 886 110.948 791.992 462.753
1914 0 78.1365 11.4031 891 111.471 791.798 463.202
1915 0 78.1045 11.523 900 112.992 791.776 462.5
1916 0 82.1628 12.9864 1067 109.917 791.858 460.796
1917 0 83.1112 11.262 936 114.624 791.703 459.326
1918 0 88.0969 12.8608 1133 112.401 791.42 457.828
1919 0 89.3435 12.1441 1085 115.091 791.533 458.29
1920 0 94.1778 13.6232 1283 112.362 792.059 457.038
1921 0 97.3491 13.9601 1359 119.159 791.873 458.155
1922 1 52.2184 13.7691 719 113.542 792.221 478.631
1923 0 54.1448 12.208 661 115.973 792.581 479.029
1924 0 58.1885 13.5078 786 112.852 791.654 477.029
1925 0 59.2653 12.8912 764 117.69 791.669 475.907
1926 0 61.2412 15.9043 974 111.04 791.846 474.82
1927 0 61.1133 13.2541 810 119.549 792.109 473.083
1928 0 64.1944 13.0385 837 119.888 791.661 472.724
1929 0 66.1992 13.6255 902 118.51 791.328 471.868
1930 0 68.1647 12.9686 884 121.255 791.126 468.755
1931 0 68.1647 13.0566 890 158.285 791.169 468.82
1932 0 75.2809 13.7884 1038 122.693 790.697 467.108
1933 0 77.3327 14.1337 1093 123.241 791.019 465.586
1934 0 79.2904 13.6082 1079 126.571 791.347 464.884
1935 0 82.23 13.6325 1121 125.566 790.637 462.584
1936 0 84.2562 14.088 1187 124.811 791.036 460.789
1937 0 88.227 13.7826 1216 125.484 790.487 459.991
1938 0 88.0555 12.6625 1115 123.556 790.87 457.405
1939 0 93.1119 12.6514 1178 123.39 791.454 458.014
1940 0 94.0978 12.4232 1169 125.742 791.517 455.345
1941 0 98.1126 13.4335 1318 125.167 790.672 454.195
1942 1 53.3356 12.0745 644 128.104 790.87 472.536
1943 0 56.3325 12.6392 712 120.007 791.803 469.875
1944 0 57.2738 12.9029 739 123.671 791.601 469.763
1945 0 58.1598 13.738 799 124.935 790.62 473.921
1946 0 59.3566 13.6632 811 127.005 791.026 472.349
1947 0 59.1636 13.0824 774 129.469 791.415 473.461
1948 0 63.1662 13.5199 854 126.488 791.593 471.872
1949 0 65.2665 13.4985 881 125.523 791.036 473.343
1950 0 67.1834 13.1283 882 128.714 790.652 471.101
1951 0 67.1022 13.5316 908 130.138 790.944 468.506
1952 0 69.2467 15.2932 1059 125.332 791.046 467.524
1953 0 71.1245 13.3147 947 131.905 790.496 468.52
1954 0 72.1737 14.5482 1050 129.95 790.735 466.857
1955 0 78.1353 13.5534 1059 130.589 791.203 466.024
1956 0 79.1804 13.324 1055 132.381 789.853 464.825
1957 0 81.0694 13.7043 1111 132.734 790.917 462.314
1958 0 84.1277 13.3369 1122 133.354 790.48 463.167
1959 0 87.1706 13.812 1204 131.522 790.425 462.153
1960 0 89.1376 14.2813 1273 133.025 790.686 457.738
1961 0 92.1679 12.3579 1139 136.395 790.597 458.639
1962 0 95.1264 13.172 1253 135.16 791.042 454.12
1963 0 99.1151 14.0947 1397 131.642 790.933 455.195
1964 1 53.0299 11.4652 608 121.454 790.373 477.959
1965 0 54.209 12.3596 670 122.315 792.33 469.773
1966 0 54.2876 12.1391 659 128.866 791.466 472.974
1967 0 57.1795 12.417 710 128.323 791.041 474.242
1968 0 59.1459 12.2578 725 128.694 791.08 473.648
1969 0 62.1237 12.62 784 126.371 791.742 472.763
1970 0 62.1871 12.4463 774 127.379 791.187 471.903
1971 0 62.2627 12.64 787 128.295 791.379 470.559
1972 0 67.2951 13.9386 938 123.517 791.172 469.387
1973 0 68.2993 12.9577 885 125.971 791.56 469.502
1974 0 71.2178 13.9431 993 123.42 791.579 468.228
1975 0 74.2486 14.4649 1074 122.102 791.442 467.017
1976 0 75.2751 12.3015 926 129.382 791.848 465.125
1977 0 78.243 14.3144 1120 124.124 791.528 463.901
1978 0 80.3976 14.1049 1134 126.147 791.547 460.212
1979 0 84.3469 13.7527 1160 125.327 791.772 460.692
1980 0 86.1204 13.2605 1142 122.955 790.725 461.649
1981 0 89.1028 12.3677 1102 127.544 790.416 457.563
1982 1 49.0312 10.7482 527 121.342 790.562 480.152
1983 0 51.2566 12.5252 642 118.874 792.656 474.836
1984 0 51.0767 11.5708 591 120.071 792.648 476.058
1985 0 54.2535 12.0177 652 120.492 792.567 470.683
1986 0 54.0692 12.2621 663 118.217 791.131 478.303
1987 0 56.0742 10.7001 600 122.393 791.833 478.043
1988 0 58.1035 12.6154 733 117.933 790.506 476.66
1989 0 58.0524 11.0934 644 123.082 791.098 475.865
1990 0 59.0332 11.6545 688 122.423 791.247 475.215
1991 0 62.0813 12.1454 754 120.385 790.78 474.203
1992 0 64.1524 12.4235 797 120.4 790.36 474.023
1993 0 65.1412 11.3446 739 124.442 790.517 471.664
1994 0 68.0747 12.4422 847 122.995 790.697 470.316
1995 0 71.1163 12.6131 897 120.701 790.951 469.279
1996 0 74.0396 12.777 946 120.836 791.395 468.342
1997 0 76.039 13.6114 1035 118.88 791.216 467.025
1998 0 78.1157 13.9921 1093 117.188 790.403 468.492
1999 0 80.0821 13.5611 1086 119.076 790.576 466.216
2000 0 82.1446 13.5736 1115 121.069 790.552 460.752
2001 0 85.2321 14.4547 1232 118.244 790.136 461.009
2002 0 86.1392 12.5959 1085 123.36 790.222 461.303
2003 0 89.1106 12.8155 1142 123.603 790.189 458.362
2004 0 92.1504 13.3152 1227 122.021 789.848 458.154
2005 0 92.123 12.885 1187 123.168 790.217 455.783
2006 0 96.0854 13.1758 1266 122.136 790.464 454.472
2007 0 100.165 12.9685 1299 122.209 790.838 449.835
2008 0 101.064 11.5372 1166 127.173 790.683 447.208
2009 1 58.2464 12.5158 729 120.099 791.324 469.905
2010 0 60.2345 11.9201 718 123.481 791.139 467.565
2011 0 61.1392 14.099 862 117.719 791.705 468.541
2012 0 63.1764 12.6946 802 122.416 791.448 467.514
2013 0 64.1397 12.8158 822 122.648 791.349 466.058
2014 0 68.1186 13.1976 899 120.39 790.951 465.374
2015 0 68.1003 12.3054 838 124.61 790.366 465.558
2016 0 72.1576 13.4982 974 120.623 790.719 464.859
2017 0 73.1528 13.3419 976 123.526 790.952 462.536
2018 0 75.1757 13.5948 1022 124.524 791.245 459.474
2019 0 77.1788 13.2679 1024 125.853 791.354 459.497
2020 0 81.1279 13.9286 1130 124.393 790.816 458.685
2021 0 83.0926 13.7317 1141 123.715 791.273 458.983
2022 0 87.0444 14.0618 1224 122.944 790.115 457.917
2023 0 90.0859 13.698 1234 125.504 789.944 456.831
2024 0 92.1503 14.2702 1315 124.336 790.233 451.791
2025 0 98.1375 15.3458 1506 120.09 790.216 452.542
2026 0 97.107 13.5418 1315 126.294 790.282 450.277
2027 1 52.0453 10.2603 534 127.182 790.305 473.363
2028 0 55.0179 10.1058 556 126.415 790.315 473.385
2029 0 56.1984 12.0466 677 122.307 789.561 470.44
2030 0 58.0355 12.1305 704 123.104 790.028 468.776
2031 0 61.0299 11.9286 728 123.214 790.857 469.088
2032 0 61.023 12.3888 756 122.869 790.542 470.056
2033 0 63.0529 11.9741 755 125.019 790.597 466.946
2034 0 67.0241 12.6372 847 121.453 790.346 465.813
2035 0 67.088 11.552 775 117.209 790.431 464.692
2036 0 71.094 12.9828 923 113.78 790.385 463.808
2037 0 74.1148 12.7235 943 114.581 790.536 463.754
2038 0 76.0428 12.4272 945 116.476 791.147 461.665
2039 0 79.0657 12.205 965 116.56 790.454 461.049
2040 0 82.1475 11.3211 930 120.567 790.677 459.773
2041 0 83.1481 13.1693 1095 116.134 791.096 459.632
2042 0 86.1087 11.7178 1009 121.676 791.373 456.492
2043 0 90.1939 12.6727 1143 119.603 791.544 456.789
2044 0 92.1652 12.5318 1155 122.051 791.098 455.024
2045 0 93.0922 12.2244 1138 124.091 791.379 452.796
2046 0 98.1136 13.6271 1337 120.566 790.931 454.681
2047 0 100.133 13.2724 1329 123.408 790.536 450.313
2048 0 103.1 13.5596 1398 122.627 790.553 452.334
2049 0 108.121 13.8456 1497 126.095 790.371 451.375
2050 0 112.428 14.0001 1574 126.314 790.701 447.442
2051 0 113.218 14.0438 1590 127.687 791.448 444.887
2052 0 116.212 14.3014 1662 128.075 790.836 441.841
2053 0 121.19 13.7883 1671 129.987 791.053 441.75
2054 0 124.324 13.3442 1659 133.038 790.955 437.003
2055 0 130.316 13.7282 1789 131.07 790.666 435.705
2056 1 70.0775 11.7727 825 131.799 791.067 459.657
2057 0 73.116 12.0767 883 130.444 791.136 464.738
2058 0 75.2261 12.6419 951 129.003 791.188 462.611
2059 0 77.2228 14.3481 1108 124.124 790.314 461.274
2060 0 82.1825 13.8107 1135 123.417 790.414 461.429
2061 0 84.3323 14.0041 1181 125.08 790.905 462.163
2062 0 85.2294 13.2701 1131 130.504 790.94 460.497
2063 0 89.2022 14.1925 1266 128.242 790.92 458.527
2064 0 92.2647 14.3608 1325 127.313 791.252 458.674
2065 0 94.3202 13.9419 1315 129.782 791.385 457.351
2066 0 96.1474 14.6338 1407 128.603 791.397 455.887
2067 0 100.257 13.994 1403 130.146 791.894 454.292
2068 0 103.287 13.6222 1407 130.957 791.39 452.718
2069 0 106.283 13.5017 1435 133.747 791.387 449.74
2070 0 111.339 14.2717 1589 129.617 791.018 450.853
2071 0 113.263 13.9498 1580 131.839 791.165 448.531
2072 0 116.345 13.3053 1548 135.366 791.563 445.179
2073 1 63.1806 11.1427 704 131.553 791.266 470.254
2074 0 63.144 11.45 723 132.335 790.952 468.019
2075 0 67.0716 12.181 817 118.043 791.237 467.192
2076 0 69.0827 12.087 835 120.389 790.893 463.004
2077 0 70.0818 11.7006 820 122.888 790.491 463.056
2078 0 71.0553 11.2025 796 125.351 790.07 463.523
2079 0 76.0913 12.0513 917 122.387 790.525 463.059
2080 0 79.0493 11.4992 909 124.563 790.77 460.073
2081 0 80.1498 11.8902 953 125.452 790.142 459.508
2082 0 83.0498 11.0777 920 128.048 790.814 457.127
2083 0 82.0604 11.2844 926 130.979 790.427 453.125
2084 0 89.1472 11.6773 1041 127.226 790.886 453.695
2085 0 89.0846 11.4049 1016 131.336 790.816 449.676
2086 0 94.2205 11.2927 1064 130.119 791.083 451.721
2087 0 97.1296 11.4898 1116 129.871 791.068 450.974
2088 0 100.098 13.0871 1310 130.433 790.743 451.815
2089 0 103.17 12.0965 1248 132.783 790.478 450.476
2090 0 108.133 13.8071 1493 127.662 790.23 448.971
2091 0 111.164 12.72 1414 130.931 790.095 449.12
2092 1 58.0907 11.6886 679 128.337 789.568 473.577
2093 0 60.0409 10.7427 645 126.293 790.6 469.144
2094 0 60.1241 11.3099 680 126.141 790.55 466.475
2095 0 63.0836 11.8414 747 115.938 791.222 466.311
2096 0 68.0856 11.603 790 115.853 790.992 465.575
2097 0 67.1626 11.2265 754 119.679 790.938 464.755
2098 0 71.0941 11.8013 839 118.958 790.694 463.47
2099 0 74.2367 12.4871 927 118.222 790.844 461.893
2100 0 75.0801 11.9872 900 122.179 790.06 461.26
2101 0 78.114 13.5187 1056 119.08 790.56 461.421
2102 0 80.0475 12.705 1017 123.531 790.219 459.932
2103 0 82.1705 12.6931 1043 124.436 790.564 460.202
2104 0 85.076 13.4115 1141 123.804 790.864 461.07
2105 0 88.0812 13.6579 1203 124.857 790.619 458.872
2106 0 88.0671 13.2967 1171 128.768 789.703 455.225
2107 0 92.0824 13.868 1277 127.497 790.067 457.104
2108 0 94.0973 13.6561 1285 130.336 790.472 453.944
2109 0 97.1502 14.1225 1372 130.192 790.632 455.308
2110 0 100.203 13.782 1381 134.882 790.359 451.919
2111 0 102.089 12.6948 1296 137.367 790.59 451.481
2112 0 106.172 12.913 1371 135.565 790.52 452.133
2113 0 109.182 14.2423 1555 132.941 790.358 448.134
2114 0 112.228 12.9202 1450 136.268 791.157 448.455
2115 0 117.202 13.3103 1560 135.569 791.098 445.756
2116 0 120.352 14.0422 1690 134.3 791.141 442.243
2117 1 66.2707 10.6684 707 132.301 790.347 471.857
2118 0 70.2051 11.4949 807 134.398 790.435 466.502
2119 0 71.1139 12.5714 894 132.008 790.662 464.959
2120 0 75.1204 13.0058 977 129.816 790.292 458.471
2121 0 78.1645 12.6528 989 129.924 790.087 461.768
2122 0 78.1157 12.0846 944 133.166 789.879 463.405
2123 0 81.158 12.3463 1002 132.615 790.022 462.433
2124 0 84.1078 13.5184 1137 130.291 789.967 458.9
2125 0 87.1949 12.9824 1132 131.448 790.301 459.548
2126 0 91.0937 14.304 1303 127.89 790.181 457.14
2127 0 93.148 12.8398 1196 131.59 790.324 458.385
2128 0 94.2583 12.8159 1208 134.354 790.052 455.108
2129 0 98.142 13.2461 1300 133.445 789.715 454.202
2130 0 103.114 13.1408 1355 132.765 790.342 453.082
2131 0 104.129 12.811 1334 134.872 790.441 448.862
2132 0 108.272 13.0967 1418 134.633 790.042 446.657
2133 0 113.182 13.9333 1577 130.162 789.795 443.691
2134 0 115.283 12.9073 1488 131.676 790.964 443.787
2135 0 118.167 12.8463 1518 132.873 790.285 440.359
2136 0 123.206 12.6293 1556 133.468 789.965 437.496
2137 0 127.288 13.4341 1710 130.981 789.589 437.582
2138 1 68.1073 11.7462 800 124.296 790.045 466.528
2139 0 72.1094 12.1343 875 122.606 789.613 465.086
2140 0 73.0963 11.3002 826 121.367 790.016 464.186
2141 0 77.136 11.6936 902 120.833 790.186 463.226
2142 0 78.105 11.1773 873 122.34 790.283 463.836
2143 0 80.1054 10.0742 807 127.195 790.366 458.198
2144 0 86.1018 11.6838 1006 123.861 790.455 458.22
2145 0 88.2859 12.2217 1079 124.017 790.558 453.858
2146 0 91.1937 11.6126 1059 124.127 791.139 454.142
2147 0 93.0934 11.6872 1088 126.856 790.69 453.165
2148 0 97.1412 11.4987 1117 129.258 789.712 453.609
2149 0 102.287 13.1688 1347 129.875 790.385 450.805
2150 0 105.315 12.3629 1302 125.853 790.527 447.804
2151 0 109.407 13.363 1462 123.614 790.917 446.137
2152 1 60.1042 11.6964 703 121.899 790.845 470.728
2153 0 62.1616 12.7571 793 119.851 790.338 472.16
2154 0 63.0493 11.2293 708 121.209 789.544 472.339
2155 0 67.1989 11.9347 802 116.357 789.656 465.667
2156 0 65.1126 11.2574 733 120.846 790.79 468.363
2157 0 67.063 9.49854 637 124.352 789.934 466.116
2158 0 72.0668 11.1286 802 121.009 790.428 464.115
2159 0 73.0603 10.3066 753 122.603 790.509 463.331
2160 0 78.0689 12.3481 964 122.552 790.352 463.676
2161 0 81.1486 13.0255 1057 121.897 789.975 461.991
2162 0 83.1314 11.5841 963 125.673 790.913 462.984
2163 0 85.1195 11.9244 1015 125.628 790.72 461.288
2164 0 90.103 12.0973 1090 124.464 789.189 455.134
2165 0 92.049 11.6242 1070 123.759 789.828 455.331
2166 0 96.1257 11.9843 1152 118.986 790.082 455.604
2167 0 100.086 12.6291 1264 118.183 790.229 455.752
2168 1 56.2964 8.81051 496 118.597 790.792 472.744
2169 0 55.2124 8.82049 487 120.669 790.91 470.928
2170 0 56.1313 9.86971 554 117.04 790.993 470.106
2171 0 58.2581 11.0714 645 114.998 790.65 468.943
2172 0 60.3356 11.8835 717 111.886 790.619 470.357
2173 0 62.0755 11.9371 741 120.537 789.421 471.821
2174 0 65.0922 12.8894 839 118.402 788.858 469.567
2175 0 68.0887 12.9537 882 116.347 788.717 467.002
2176 0 69.0765 12.5947 870 119.147 789.697 468.398
2177 0 70.1564 11.7024 821 122.104 791.139 466.793
2178 0 75.2108 12.086 909 119.141 790.498 468.292
2179 0 75.1633 12.2932 924 120.519 790.827 464.462
2180 0 79.2472 12.3285 977 119.724 790.811 464.696
2181 0 81.1945 12.7964 1039 118.846 790.704 462.405
2182 0 83.1282 12.5589 1044 119.645 790.317 462.124
2183 0 87.1867 13.6259 1188 117.01 790.2 460.503
2184 0 89.1456 12.8217 1143 119.78 790.302 458.808
2185 0 93.3584 13.2179 1234 119.219 790.297 457.542
2186 0 95.2747 13.2144 1259 120.664 790.048 456.461
2187 0 100.229 14.1276 1416 117.155 789.947 457.278
2188 0 101.183 13.4411 1360 120.437 789.53 453.462
2189 0 107.275 14.1412 1517 117.864 789.989 452.775
2190 0 109.239 14.5461 1589 115.482 790.3 446.239
2191 0 112.222 13.5892 1525 118.227 790.536 442.605
2192 0 115.296 14.2762 1646 116.696 790.762 444.331
2193 0 119.133 13.934 1660 117.66 791.396 440.137
2194 0 121.197 13.3254 1615 120.43 791.696 440.795
2195 1 64.2647 10.8146 695 120.603 791.701 469.725
2196 0 66.462 11.8413 787 122.295 790.421 466.156
2197 0 68.1628 13.2184 901 117.171 791.605 466.555
2198 0 70.1468 13.486 946 117.169 792.056 465.953
2199 0 72.1966 14.1004 1018 116.028 791.134 465.476
2200 0 73.1506 12.9596 948 119.514 791.666 464.811
2201 0 75.1196 13.7647 1034 118.732 791.008 460.966
2202 0 76.2102 12.8329 978 120.916 790.119 462.545
2203 0 80.1042 13.0205 1043 119.984 791.03 460.438
2204 0 81.245 14.5732 1184 116.185 789.837 461.47
2205 0 84.2024 13.3488 1124 121.525 789.902 457.951
2206 0 86.2867 12.528 1081 124.626 789.82 456.969
2207 0 89.2653 13.1518 1174 123.934 790.304 452.608
2208 0 90.1846 13.7496 1240 123.595 790.421 447.868
2209 0 93.2507 13.512 1260 123.409 789.633 447.152
2210 0 95.2639 13.6778 1303 124.551 789.866 447.266
2211 0 99.3369 12.4123 1233 129.205 790.378 447.711
2212 0 101.284 13.1611 1333 128.404 790.044 443.908
2213 0 103.384 13.2613 1371 128.559 790.122 445.716
2214 0 106.253 12.7809 1358 131.025 789.697 446.63
2215 0 112.394 12.5274 1408 130.717 789.682 442.631
2216 0 115.256 12.8063 1476 130.776 789.569 440.645
2217 1 62.1658 10.9385 680 128.593 790.16 469.14
2218 0 63.2011 10.965 693 129.999 791.404 466.7
2219 0 67.06 12.541 841 127.986 791.686 465.467
2220 0 70.1483 11.7465 824 129.053 791.882 465.083
2221 0 70.0783 11.8724 832 131.851 791.204 462.195
2222 0 71.0867 11.7884 838 131.901 792.289 462.37
2223 0 76.1156 12.9408 985 128.261 790.997 461.899
2224 0 78.1735 13.4444 1051 126.461 791.661 462.437
2225 0 78.1995 12.7494 997 131.227 791.963 458.957
2226 0 80.108 13.2197 1059 130.595 792.031 458.788
2227 0 84.1035 13.2218 1112 130.356 791.408 456.129
2228 0 87.1247 14.4046 1255 127.596 791.213 455.965
2229 0 89.179 13.6131 1214 130.544 791.173 454.451
2230 0 91.3335 13.1387 1200 131.39 790.809 453.123
2231 0 96.195 13.8573 1333 128.719 790.551 452.779
2232 0 97.171 12.2773 1193 131.936 789.808 455.167
2233 0 98.1383 13.9089 1365 129.26 790.209 453.348
2234 0 101.232 13.7901 1396 130.429 791.056 447.888
2235 0 104.243 12.586 1312 132.836 790.77 448.841
2236 0 109.188 13.9393 1522 129.328 790.861 447.353
2237 0 111.19 13.7602 1530 131.565 790.927 444.605
2238 0 113.082 12.0444 1362 137.353 791.479 442.233
2239 1 68.0833 11.0306 751 124.41 790.321 467.045
2240 0 70.0878 12.2133 856 128.645 790.261 466.262
2241 0 72.1667 13.6767 987 127.28 790.41 463.152
2242 0 75.3215 13.4357 1012 127.576 790.699 463.418
2243 0 76.1156 13.7554 1047 127.274 790.765 464.826
2244 0 79.2424 14.2601 1130 127.311 790.36 463.097
2245 0 79.2424 14.1591 1122 143.552 789.371 462.971
2246 0 86.1966 13.9797 1205 127.333 790.761 460.951
2247 0 89.2707 14.4392 1289 126.389 790.458 461.102
2248 0 90.2061 13.5689 1224 130.874 790.368 458.511
2249 0 89.2329 12.9997 1160 134.945 790.622 455.737
2250 0 95.2096 13.7276 1307 131.05 790.684 455.17
2251 0 95.1491 12.1704 1158 132.281 789.928 454.351
2252 0 99.1485 12.9704 1286 128.062 790.386 456.571
2253 0 102.336 11.9509 1223 130.975 789.952 450.562
2254 0 107.154 13.1492 1409 126.886 790.084 451.067
2255 0 110.147 11.7661 1296 132.459 790.343 443.337
2256 0 113.241 12.3718 1401 131.341 790.163 443.601
2257 0 121.316 15.1835 1842 122.008 790.426 440.416
2258 0 121.24 12.0587 1462 133.179 790.125 445.455
2259 1 69.0647 11.0621 764 128.363 790.34 474.225
2260 0 69.0247 12.0971 835 132.523 789.743 470.283
2261 0 74.0831 13.0529 967 128.389 788.948 471.3
2262 0 74.0831 13.0934 970 142.946 787.949 471.104
2263 0 78.0863 13.4979 1054 128.009 788.08 472.997
2264 0 80.1138 12.7194 1019 133.584 788.347 472.15
2265 0 84.0626 14.965 1258 127.3 787.488 471.599
2266 0 84.0651 15.0479 1265 146.571 786.5 471.477
2267 0 87.0669 13.3001 1158 134.543 787.547 471.427
2268 0 91.1174 14.1685 1291 132.117 786.88 471.682
2269 0 93.1523 14.1918 1322 133.173 786.803 469.554
2270 0 97.1492 14.9049 1448 131.95 787.171 466.767
2271 0 99.1823 13.3592 1325 138.446 786.602 465.616
2272 0 102.203 13.9722 1428 136.772 787.1 465.122
2273 0 105.243 13.7872 1451 131.997 787.092 465.582
2274 0 109.238 13.3012 1453 133.509 787.108 461.525
2275 0 113.317 13.6255 1544 131.763 786.981 463.151
2276 0 116.298 13.6632 1589 133.252 786.901 457.424
2277 1 69.2546 12.8223 888 129.286 786.444 482.034
2278 0 72.258 14.3929 1040 125.745 786.322 480.224
2279 0 73.1575 15.1864 1111 128.179 785.671 478.664
2280 0 77.3041 14.0743 1088 129.262 785.305 479.911
2281 0 79.1788 13.5263 1071 130.956 785.167 476.465
2282 0 81.3163 12.5436 1020 133.22 785.278 474.286
2283 0 83.3062 14.0446 1170 130.336 784.812 473.628
2284 0 86.2157 13.2342 1141 131.498 783.998 470.911
2285 0 89.1688 13.267 1183 131.18 784.445 470.459
2286 0 92.1923 14.2203 1311 128.917 784.194 468.989
2287 0 94.3241 14.2911 1348 129.412 784.704 466.988
2288 0 96.1554 13.0518 1255 133.232 784.265 464.877
2289 0 101.293 14.6704 1486 127.246 783.834 463.419
2290 0 103.216 14.1063 1456 124.453 784.374 461.748
2291 0 107.274 13.0694 1402 127.247 784.899 458.083
2292 0 111.307 14.1321 1573 124.716 785.132 457.839
2293 0 114.424 13.616 1558 126.286 784.221 453.66
2294 0 118.27 12.4123 1468 128.876 784.954 454.376
2295 1 61.0693 10.1852 622 128.622 784.897 485.246
2296 0 64.2151 11.2279 721 124.465 785.083 484.012
2297 0 69.194 12.212 845 125.311 785.267 484.214
2298 0 70.0852 14.3825 1008 119.345 783.954 483.91
2299 0 73.1357 14.9585 1094 117.653 783.932 481.43
2300 0 74.2299 12.9867 964 122.97 784.124 480.25
2301 0 76.3995 12.7619 975 122.348 784.99 477.649
2302 0 80.2185 13.5006 1083 118.649 784.128 476.464
2303 0 82.1349 13.8187 1135 118.18 783.887 472.057
2304 0 84.1199 13.778 1159 118.533 783.758 470.399
2305 0 87.3875 13.9265 1217 117.297 784.611 470.093
2306 0 89.2475 13.2777 1185 119.125 784.162 468.586
2307 0 93.2906 14.5567 1358 115.094 783.726 466.753
2308 0 95.2069 13.5074 1286 118.468 783.753 459.216
2309 0 96.2126 14.9876 1442 115.008 783.565 460.611
2310 0 98.2467 14.1888 1394 118.057 783.936 458.484
2311 0 102.496 14.1567 1451 116.45 783.436 459.323
2312 0 105.228 13.6845 1440 118.177 783.969 454.967
2313 0 108.296 12.752 1381 121.127 783.867 453.476
2314 0 113.303 13.7949 1563 117.405 784.19 452.805
2315 0 116.267 13.4088 1559 119.203 784.405 451.977
2316 0 121.221 13.7352 1665 118.605 784.657 451.895
2317 0 127.485 14.5585 1856 115.371 784.88 450.588
2318 1 70.2128 11.2373 789 115.238 784.992 474.427
2319 0 72.191 9.7242 702 119.269 784.651 476.098
2320 0 73.172 12.7508 933 116.939 784.147 470.943
2321 0 75.2877 11.901 896 118.167 785.31 470.489
2322 0 78.1182 11.5594 903 120.704 785.117 467.352
2323 0 81.2514 12.3321 1002 119.987 785.536 465.502
2324 0 83.2983 13.4457 1120 118.04 784.713 469.345
2325 0 84.1823 13.0906 1102 117.82 784.938 471.337
2326 0 86.2361 12.6977 1095 120.896 784.92 465.647
2327 0 90.3665 13.2239 1195 119.062 785.117 463.792
2328 0 93.2158 11.8757 1107 121.659 784.914 461.409
2329 0 93.3832 12.1435 1134 122.487 784.854 458.996
2330 0 97.2051 11.9335 1160 123.835 784.8 456.102
2331 0 99.2599 12.2305 1214 122.375 785.138 457.536
2332 0 103.248 12.0584 1245 124.12 784.841 451.488
2333 0 109.204 12.6003 1376 119.597 785.409 452.809
2334 0 111.328 11.8838 1323 122.163 784.983 447.234
2335 0 118.391 12.6952 1503 119.464 784.834 448.621
2336 0 120.316 12.1846 1466 120.229 785.138 447.279
2337 1 69.2232 11.6579 807 116.218 785.191 473.669
2338 0 72.1722 12.0961 873 115.436 784.772 472.613
2339 0 73.2203 13.5891 995 111.715 785.131 471.984
2340 0 76.2198 12.9232 985 114.079 785.383 468.201
2341 0 78.193 12.904 1009 114.468 784.997 465.939
2342 0 82.1581 12.549 1031 115.179 785.043 465.127
2343 0 84.2068 12.6356 1064 116.655 785.445 462.259
2344 0 85.2981 11.8291 1009 119.858 785.367 461.863
2345 0 89.4002 12.8076 1145 117.407 784.911 458.702
2346 0 92.2013 13.0692 1205 116.802 785.704 453.738
2347 0 95.238 12.9045 1229 117.634 785.138 454.778
2348 0 95.1324 12.6981 1208 120.259 785.208 449.472
2349 0 101.271 13.4293 1360 118.029 786.088 450.526
2350 0 104.143 13.7503 1432 118.17 785.859 447.308
2351 0 108.371 13.38 1450 119.682 785.369 443.514
2352 0 112.209 14.464 1623 117.458 786.007 444.101
2353 0 114.278 13.9659 1596 119.961 786.298 441.486
2354 0 119.375 14.7769 1764 117.517 786.39 439.643
2355 0 121.174 14.6731 1778 118.385 786.448 439.017
2356 0 126.291 15.1397 1912 116.831 786.669 436.912
2357 0 129.292 14.2622 1844 119.97 786.815 432.381
2358 0 133.19 13.92 1854 120.951 787.323 433.28
2359 0 137.273 13.6152 1869 121.711 788.228 431.403
2360 0 139.25 11.8636 1652 126.778 787.624 427.151
2361 1 79.1405 11.4859 909 117.019 788.477 463.152
2362 0 82.2058 12.0551 991 118.199 787.724 456.304
2363 0 85.1118 13.1474 1119 110.803 788.554 457.902
2364 0 87.1138 11.5711 1008 116.317 789.312 457.318
2365 0 88.2627 11.4318 1009 118.358 789.087 454.384
2366 0 89.0764 11.2488 1002 121.276 789.016 452.531
2367 0 95.2729 12.7633 1216 116.632 788.802 452.188
2368 0 99.2455 13.5019 1340 116.453 788.287 451.428
2369 0 102.119 12.1231 1238 119.622 788.239 450.019
2370 0 104.143 12.2236 1273 119.802 788.839 446.243
2371 0 106.262 13.3256 1416 117.415 789.289 446.897
2372 0 111.127 12.8951 1433 117.526 789.281 445.024
2373 0 116.2 14.1652 1646 114.448 788.971 442.834
2374 0 118.099 13.6242 1609 116.333 789.192 443.64
2375 0 122.2 13.6252 1665 117.075 788.555 440.411
2376 0 126.188 13.7652 1737 118.037 788.249 438.765
2377 0 130.111 13.9726 1818 117.675 788.013 436.351
2378 0 137.14 14.5837 2000 116.59 789.298 429.991
2379 0 141.084 13.9916 1974 118.874 788.738 431.414
2380 1 77.0911 11.6875 901 113.607 788.294 465.612
2381 0 78.0723 10.5927 827 118.216 789.05 461.405
2382 0 84.0953 12.4621 1048 115.058 788.349 461.701
2383 0 85.0422 12.7584 1085 112.886 788.394 460.327
2384 0 87.1283 11.9249 1039 115.865 789.089 459.185
2385 0 92.1378 12.6224 1163 114.014 788.97 458.856
2386 0 93.094 12.0953 1126 117.53 788.693 454.781
2387 0 98.1619 11.7968 1158 118.352 788.32 454.932
2388 0 100.169 12.8583 1288 117.653 788.238 452.846
2389 0 103.195 12.7622 1317 119.714 788.292 451.737
2390 0 105.133 13.1168 1379 119.673 788.793 447.975
2391 0 110.23 13.5353 1492 116.951 789.486 449.225
2392 0 113.164 13.6616 1546 118.18 789.697 448.515
2393 0 117.235 12.3683 1450 122.554 789.066 447.327
2394 0 121.28 12.5578 1523 124.106 789.289 444.949
2395 0 127.163 13.9428 1773 120.271 788.772 437.701
2396 1 72.0959 12.2476 883 114.969 789.678 470.71
2397 0 74.0789 12.2437 907 116.675 789.132 468.777
2398 0 75.2048 12.3396 928 116.363 789.794 468.055
2399 0 79.1038 12.768 1010 116.286 789.02 463.519
2400 0 81.2524 11.5689 940 119.44 789.271 462.644
2401 0 86.1952 13.0634 1126 116.247 789.276 463.114
2402 0 88.1292 13.1738 1161 116.983 789.384 461.623
2403 0 90.2354 11.6473 1051 122.78 789.64 459.046
2404 0 94.2418 11.9692 1128 122.315 789.098 458.73
2405 0 96.2081 11.631 1119 123.732 789.726 456.083
2406 0 100.326 11.5723 1161 123.32 789.672 454.937
2407 0 104.373 13.5093 1410 119.607 789.487 453.402
2408 0 105.228 12.2686 1291 124.765 789.576 453
2409 0 111.362 13.9455 1553 119.739 790.203 450.464
2410 0 114.324 14.074 1609 119.303 790.586 448.077
2411 0 116.236 13.1284 1526 123.402 789.842 446.65
2412 0 120.224 13.8991 1671 122.169 789.403 445.458
2413 0 125.217 14.367 1799 121.141 789.825 443.481
2414 1 67.0815 10.8077 725 122.295 790.219 472.957
2415 0 71.1096 11.6721 830 120.606 790.235 471.018
2416 0 74.0791 11.7712 872 116.643 789.744 468.327
2417 0 78.2268 14.1128 1104 114.526 789.307 467.863
2418 0 80.2235 13.2754 1065 118.031 789.358 465.36
2419 0 83.2895 12.8828 1073 119.375 789.683 463.915
2420 0 86.2048 12.4587 1074 121.141 789.969 464.615
2421 0 87.1264 12.1318 1057 123.733 789.613 463.158
2422 0 92.183 13.8095 1273 118.582 789.553 460.29
2423 0 96.1436 13.2822 1277 119.846 790.066 460.471
2424 0 99.1358 14.0413 1392 119.103 789.505 458.11
2425 0 100.187 13.8142 1384 120.875 789.704 457.795
2426 0 104.279 13.6173 1420 122.43 790.225 453.935
2427 0 109.242 15.2964 1671 117.499 790.27 454.674
2428 0 110.292 13.2467 1461 124.985 789.665 453.155
2429 0 115.11 13.6304 1569 124.205 789.369 451.544
2430 1 65.0465 10.5463 686 130.198 789.517 473.462
2431 0 66.2814 13.5332 897 124.632 789.391 473.398
2432 0 69.1748 13.5454 937 127.411 789.84 471.632
2433 0 70.3081 13.5831 955 130.024 789.185 471.48
2434 0 72.2406 13.0951 946 130.397 789.082 472.004
2435 0 75.2794 14.1871 1068 128.8 789.004 468.553
2436 0 77.1249 14.1329 1090 128.621 789.312 466.18
2437 0 79.143 14.2527 1128 128.057 788.96 465.094
2438 0 80.0839 13.0738 1047 132.57 787.939 457.223
2439 0 80.0728 13.75 1101 132.433 788.435 454.711
2440 0 85.0847 13.6335 1160 131.544 788.199 455.966
2441 0 88.2203 14.1577 1249 129.948 788.887 455.615
2442 0 91.2101 13.4415 1226 132.01 789.291 453.954
2443 0 92.2042 12.6784 1169 134.29 789.658 456.29
2444 0 98.3794 12.9905 1278 131.613 789.741 456.877
2445 0 99.1971 14.3351 1422 130.372 789.671 453.018
2446 0 100.246 13.6364 1367 131.626 789.489 450.113
2447 0 104.202 13.8577 1444 130.858 789.557 446.678
2448 0 109.269 13.7184 1499 129.937 789.636 447.216
2449 0 111.309 14.042 1563 128.786 789.248 444.924
2450 0 113.258 13.2971 1506 132.612 789.102 444.139
2451 0 118.319 14.6131 1729 127.981 789.394 442.821
2452 0 122.269 14.6316 1789 127.7 788.617 441.487
2453 0 124.283 12.7692 1587 132.236 789.364 440.216
2454 1 67.2281 12.3758 832 128.103 789.657 468.769
2455 0 67.0881 12.5059 839 126.558 789.834 470.024
2456 0 69.0578 12.7574 881 126.373 788.915 468.128
2457 0 71.0484 12.78 908 125.08 788.801 468.131
2458 0 76.0572 15.1596 1153 117.54 789.458 465.384
2459 0 78.1215 13.287 1038 121.462 788.886 465.538
2460 0 82.0564 13.4542 1104 120.38 788.292 464.939
2461 0 85.1389 13.1197 1117 121.051 788.372 462.125
2462 0 88.0727 15.1693 1336 116.679 789.115 459.634
2463 0 91.0274 13.7431 1251 119.767 789.394 458.464
2464 0 93.1416 14.1934 1322 118.379 788.899 457.351
2465 0 94.1571 13.0208 1226 121.934 788.476 454.755
2466 0 100.138 13.4714 1349 119.728 789.556 453.978
2467 0 102.078 14.4203 1472 117.683 789.092 451.045
2468 0 105.093 14.0066 1472 117.776 789.037 451.145
2469 0 111.125 14.6772 1631 114.187 789.839 448.452
2470 0 113.155 13.6627 1546 115.91 789.45 449.352
2471 0 116.213 12.0468 1400 120.193 788.709 448.401
2472 1 65.0765 10.8334 705 116.267 789.291 464.125
2473 0 69.1143 12.4287 859 112.602 789.236 464.693
2474 0 71.1472 12.8185 912 106.803 789.531 463.214
2475 0 74.0644 13.1237 972 105.707 789.317 462.302
2476 0 76.09 12.4064 944 106.265 789.753 461.772
2477 0 79.1426 13.0397 1032 105.122 790.202 459.049
2478 0 83.1096 13.6807 1137 103.681 790.045 458.456
2479 0 84.1256 12.5883 1059 108.578 790.078 457.32
2480 0 86.048 12.9695 1116 109.459 789.914 452.541
2481 0 91.1176 14.816 1350 103.711 789.879 449.825
2482 0 93.2208 13.3983 1249 107.821 790.432 450.404
2483 0 96.0824 13.1346 1262 109.017 790.23 448.434
2484 0 99.1933 14.6986 1458 106.036 789.836 448.822
2485 0 103.132 14.0985 1454 106.973 790.213 448.431
2486 0 105.173 14.015 1474 107.004 789.883 448.879
2487 0 108.056 13.9743 1510 108.847 789.842 446.983
2488 0 112.162 13.8103 1549 111.602 789.988 442.329
2489 0 114.082 15.1471 1728 110.672 789.988 439.122
2490 0 119.151 14.6789 1749 111.456 790.214 439.152
2491 0 122.177 14.1352 1727 113.56 790.666 437.469
2492 1 67.0738 11.4053 765 115.127 790.111 467.601
2493 0 70.0318 13.294 931 114.403 789.76 468.082
2494 0 74.1147 13.4386 996 109.455 790.098 467.287
2495 0 75.0337 13.5539 1017 110.573 789.91 465.899
2496 0 78.1508 13.8834 1085 111.719 790.043 464.824
2497 0 77.0711 13.7406 1059 115.951 789.845 463.389
2498 0 81.1261 13.4729 1093 117.917 789.649 463.273
2499 0 86.0829 15.1598 1305 113.598 789.556 461.653
2500 0 88.0777 13.454 1185 118.763 789.608 461.552
2501 0 93.0813 14.1489 1317 118.168 789.833 458.604
2502 0 92.1225 13.4495 1239 122.838 789.73 457.28
2503 0 95.1428 14.494 1379 121.994 789.703 454.511
2504 0 99.0815 14.15 1402 122.901 789.71 456.118
2505 0 102.139 15.1851 1551 122.023 789.513 452.859
2506 0 106.184 14.795 1571 123.426 789.526 451.106
2507 0 110.268 16.2785 1795 119.836 789.244 450.724
2508 0 112.135 15.2227 1707 124.489 789.824 449.075
2509 0 114.199 14.8863 1700 125.972 790.065 448.536
2510 0 120.184 14.8355 1783 125.572 789.546 446.347
2511 0 123.207 14.6501 1805 126.198 790.002 444.202
2512 0 130.121 16.3079 2122 120.268 789.649 440.863
2513 1 69.0676 14.3193 989 124.413 788.944 470.158
2514 0 72.0754 14.5403 1048 125.904 789.217 467.762
2515 0 73.0565 13.9481 1019 128.946 789.381 464.592
2516 0 75.0726 14.1197 1060 128.765 788.945 453.193
2517 0 79.1127 15.0671 1192 124.522 788.47 454.772
2518 0 83.1534 15.4654 1286 124.031 788.914 453.027
2519 0 85.1341 14.5065 1235 126.428 789.061 454.699
2520 0 88.0902 15.0755 1328 125.822 789.046 452.776
2521 0 93.1117 15.5405 1447 123.209 789.341 453.582
2522 0 92.0919 14.3335 1320 128.414 789.072 454.08
2523 0 97.082 16.7178 1623 122.149 790.01 450.503
2524 0 101.172 16.2199 1641 123.422 789.346 451.321
2525 0 104.216 15.7078 1637 125.871 789.263 447.886
2526 0 106.082 15.0073 1592 128.362 789.58 447.175
2527 0 109.125 15.1569 1654 127.674 789.742 446.805
2528 0 114.054 16.0362 1829 124.65 790.054 445.297
2529 0 119.093 15.8364 1886 125.199 790.126 441.697
2530 0 124.103 16.4461 2041 124.398 790.407 438.958
2531 0 127.218 15.3752 1956 128.475 789.811 436.613
2532 0 131.135 15.6937 2058 127.819 790.075 433.626
2533 1 71.0338 12.8953 916 133.785 790.924 464.705
2534 0 73.0538 13.6612 998 132.027 790.215 464.647
2535 0 77.0908 15.8644 1223 126.076 790.094 459.835
2536 0 78.0458 15.0681 1176 129.186 791.004 460.598
2537 0 81.1197 15.1381 1228 129.241 790.657 457.968
2538 0 82.1216 15.0752 1238 130.846 790.433 456.444
2539 0 86.0945 14.4492 1244 131.194 790.173 457.246
2540 0 88.2455 14.471 1277 133.375 789.744 453.455
2541 0 91.1246 15.5062 1413 130.821 789.817 452.825
2542 0 95.1244 15.3694 1462 130.987 789.764 450.961
2543 0 98.0569 15.2565 1496 131.078 789.684 451.711
2544 0 101.093 15.1148 1528 132.158 790.026 449.065
2545 0 103.104 14.4805 1493 134.524 790.255 448.67
2546 0 107.114 15.2828 1637 131.638 790.375 446.56
2547 0 110.088 14.2976 1574 134.766 790.17 445.427
2548 0 114.096 14.8471 1694 133.166 790.666 443.218
2549 0 118.133 15.0085 1773 134.225 791.072 441.73
2550 0 124.104 14.931 1853 135.545 790.797 436.527
2551 0 129.16 15.655 2022 133.142 790.382 435.239
2552 1 72.0798 13.6793 986 135.008 790.565 463.967
2553 0 73.0502 12.8131 936 140.596 790.598 460.794
2554 0 77.1394 14.0914 1087 136.233 790.64 458.565
2555 0 81.0613 15.0873 1223 133.843 789.939 457.397
2556 0 83.0887 14.996 1246 134.653 790.414 455.766
2557 0 83.0722 15.011 1247 157.251 791.417 455.796
2558 0 90.1898 15.1902 1370 134.177 789.937 452.034
2559 0 92.2324 15.3742 1418 133.973 790.359 451.843
2560 0 96.0729 15.6027 1499 133.502 790.451 450.956
2561 0 99.071 15.6958 1555 133.432 791.013 449.09
2562 0 102.172 15.5228 1586 134.798 790.591 445.624
2563 0 104.104 15.3692 1600 136.489 790.248 444.536
2564 0 108.094 15.6901 1696 134.729 790.472 445.9
2565 0 112.103 15.2271 1707 136.48 790.988 441.559
2566 0 116.185 16.4651 1913 132.617 790.361 437.441
2567 0 119.113 15.4811 1844 136.121 790.275 438.597
2568 0 123.135 14.748 1816 138.075 789.943 438.384
2569 0 127.143 14.5585 1851 139.983 790.003 435.576
2570 0 133.223 15.0575 2006 136.995 790.39 432.789
2571 0 139.178 15.2755 2126 136.505 790.148 431.881
2572 0 143.087 14.1592 2026 138.818 790.607 430.523
2573 0 153.171 15.8189 2423 135.338 791.114 425.483
2574 1 80.0834 12.8616 1030 146.052 791.422 461.082
2575 0 85.1289 14.7189 1253 139.845 791.551 458.786
2576 0 87.0779 14.4468 1258 138.259 791.683 459.638
2577 0 90.0591 15.2566 1374 136.558 791.423 456.051
2578 0 93.2619 14.336 1337 139.641 790.796 453.399
2579 0 96.1198 15.231 1464 135.516 791.122 454.092
2580 0 100.119 15.3917 1541 136.414 790.666 448.816
2581 0 103.131 15.7858 1628 134.214 791.079 449.176
2582 0 108.096 15.0052 1622 136.041 790.228 445.827
2583 0 106.095 14.4587 1534 167.58 789.173 446.86
2584 0 113.273 14.6548 1660 135.992 791.291 442.397
2585 0 118.236 14.8516 1756 134.291 790.683 442.01
2586 0 120.257 13.3131 1601 139.702 790.683 439.608
2587 0 125.114 14.243 1782 136.597 790.848 434.816
2588 0 132.159 15.1333 2000 133.62 791.075 427.428
2589 0 136.113 14.7305 2005 135.128 790.505 425.427
2590 0 140.208 14.45 2026 136.034 790.53 424.039
2591 1 79.0412 11.5509 913 127.257 790.821 459.744
2592 0 82.1396 11.4683 942 127.227 790.048 457.982
2593 0 87.1747 12.561 1095 124.184 790.71 457.16
2594 0 89.1517 13.4602 1200 124.762 790.028 455.771
2595 0 91.0525 13.1243 1195 126.481 790.34 453.757
2596 0 93.0961 12.8255 1194 131.967 789.886 453
2597 0 97.0767 13.8447 1344 128.76 790.376 452.99
2598 0 99.1033 13.5919 1347 129.388 790.394 450.142
2599 0 105.191 13.3186 1401 129.543 790.964 448.325
2600 0 108.165 13.9879 1513 128.083 790.511 445.332
2601 0 112.245 15.3948 1728 123.844 791.136 443.378
2602 0 115.216 14.9371 1721 126.309 790.263 440.052
2603 0 118.224 13.1192 1551 129.123 790.85 441.899
2604 0 122.143 12.2397 1495 132.414 791.076 433.213
2605 0 127.21 13.1043 1667 128.193 791.242 433.803
2606 0 132.148 14.0221 1853 125.794 790.69 433.346
2607 1 67.0473 11.6485 781 125.95 791.627 465.529
2608 0 72.162 13.3727 965 122.795 791.648 460.792
2609 0 73.2562 13.4596 986 122.907 792.116 462.308
2610 0 75.1116 12.8475 965 126.777 792.325 456.534
2611 0 77.3205 13.8514 1071 124.757 791.989 457.785
2612 0 81.4553 12.5468 1022 127.324 791.547 456.576
2613 0 83.2756 13.6414 1136 125.428 791.888 452.199
2614 0 86.3826 13.9611 1206 124.609 791.833 452.433
2615 0 90.2083 13.3025 1200 126.278 791.63 453.063
2616 0 93.3772 14.8109 1383 123.427 791.766 452.291
2617 0 95.3155 12.3904 1181 130.746 791.92 451.716
2618 0 99.2598 12.704 1261 129.03 791.209 450.357
2619 0 105.275 15.2362 1604 123.29 791.156 445.431
2620 0 109.149 14.7779 1613 122.841 790.97 447.13
2621 0 111.269 13.1303 1461 128.793 790.828 445.596
2622 0 115.317 14.4299 1664 124.407 791.179 439.526
2623 0 118.387 13.6333 1614 127.074 790.664 440.403
2624 0 123.17 13.3799 1648 127.343 791.005 439.078
2625 0 126.215 13.1521 1660 128.473 791.037 437.998
2626 1 72.1658 12.5267 904 126.697 791.246 463.888
2627 0 73.0856 12.6701 926 127.754 791.423 463.113
2628 0 76.33 15.3151 1169 121.406 791.478 463.629
2629 0 77.1812 14.3299 1106 124.734 791.102 460.939
2630 0 80.1879 13.5182 1084 126.815 791.204 460.081
2631 0 84.0956 14.6976 1236 123.639 790.842 458.085
2632 0 87.1336 14.7704 1287 123.179 790.51 458.407
2633 0 86.0925 13.4506 1158 129.986 790.412 455.453
2634 0 90.0613 13.9683 1258 129.083 790.395 454.92
2635 0 93.0557 14.0561 1308 128.607 789.952 455.36
2636 0 96.1476 14.3425 1379 129.509 789.872 453.031
2637 0 98.1545 14.1002 1384 131.45 789.436 453.296
2638 0 101.114 13.9644 1412 131.981 789.237 451.417
2639 0 104.104 14.5816 1518 130.652 789.3 450.144
2640 0 109.052 14.9746 1633 129.832 789.239 449.094
2641 0 113.087 15.2449 1724 129.389 789.002 446.785
2642 0 116.083 14.7911 1717 131.013 789.493 446.943
2643 0 119.177 14.5918 1739 133.566 788.569 443.41
2644 0 123.226 15.3377 1890 131.574 788.583 441.905
2645 0 127.26 14.7337 1875 134.248 788.958 440.394
2646 0 131.236 14.5844 1914 135.702 788.665 438.009
2647 0 135.275 13.8089 1868 138.488 788.783 435.065
2648 0 141.287 15.196 2147 134.978 788.631 432.414
2649 0 145.354 14.7915 2150 136.681 788.905 429.399
2650 0 150.337 15.1526 2278 136.044 788.522 426.884
2651 0 156.429 14.5625 2278 138.165 788.794 423.915
2652 0 161.179 15.2067 2451 136.975 788.78 424.978
2653 0 166.354 15.0523 2504 138.897 787.73 422.62
2654 0 170.291 14.3108 2437 142.858 788.071 417.606
2655 0 178.318 15.1247 2697 140.014 788.701 416.466
2656 0 182.232 15.2114 2772 140.21 787.885 414.109
2657 0 191.433 15.7287 3011 138.161 787.964 410.318
2658 0 197.296 15.4742 3053 140.276 788.171 402.243
2659 0 204.239 15.0069 3065 140.735 787.731 402.013
2660 0 211.511 15.621 3304 140.299 787.612 395.889
2661 1 164.199 14.0987 2315 144.092 787.685 418.363
2662 0 170.27 14.2891 2433 143.43 788.226 413.44
2663 0 178.227 15.2222 2713 138.421 788.891 409.858
2664 1 127.166 11.4417 1455 141.878 788.553 431.305
2665 0 128.202 10.1949 1307 145.024 788.818 430.48
2666 0 136.151 11.2008 1525 141.572 788.563 429.174
2667 0 141.202 11.3879 1608 141.941 788.299 427.225
2668 0 145.111 11.0881 1609 143.915 788.334 429.811
2669 0 151.192 12.5602 1899 142.271 788.151 425.707
2670 0 155.236 11.7305 1821 144.934 788.824 422.884
2671 0 161.252 11.6836 1884 144.667 788.258 422.034
2672 0 166.168 13.5585 2253 140.892 788.005 417.678
2673 0 177.303 11.4155 2024 144.139 788.664 420.439
2674 0 174.252 12.1204 2112 145.445 788.093 414.734
2675 0 179.241 12.1679 2181 145.554 788.055 411.953
2676 0 186.354 13.7051 2554 142.323 788.278 408.962
2677 0 187.219 11.0566 2070 150.022 788.142 406.136
2678 0 196.169 11.8419 2323 148.244 787.707 402.182
2679 0 203.199 12.7117 2583 144.72 787.924 399.455
2680 0 208.328 11.1603 2325 148.723 787.853 395.527
2681 1 224.224 10.2576 2300 148.582 787.715 395.928
2682 0 225.177 10.9914 2475 146.639 787.649 393.974
2683 0 234.416 11.7654 2758 143.95 788.005 380.427
2684 0 242.301 11.1844 2710 144.272 788.523 378.572
2685 1 60.1017 9.18443 552 119.239 788.281 471.089
2686 0 60.1317 8.48139 510 118.049 787.516 469.122
2687 0 66.2022 10.2867 681 114.191 787.206 469.968
2688 0 67.0881 9.45025 634 116.268 787.371 468.711
2689 0 69.1473 10.9043 754 114.582 787.438 468.43
2690 0 70.1525 8.396 589 120.316 787.458 467.628
2691 0 71.0942 9.57884 681 119.843 787.241 464.026
2692 0 75.1671 10.0443 755 118.11 788.011 463.864
2693 0 78.0912 8.89985 695 118.902 787.588 462.529
2694 0 82.1612 10.7593 884 114.535 788.077 459.481
2695 0 88.2037 11.292 996 115.999 787.235 455.612
2696 0 87.3316 11.1071 970 117.889 787.741 456.843
2697 0 93.1904 11.0848 1033 117.598 788.625 455.228
2698 0 96.2522 11.9374 1149 115.308 787.96 422.251
2699 0 92.2252 9.92136 915 121.677 788.325 425.918
2700 1 113.302 16.1427 1829 93.2362 788.706 429.483
2701 1 54.1504 8.45793 458 106.666 787.843 470.548
2702 0 61.1871 11.5874 709 99.5515 789.461 450.188
2703 0 64.1742 11.235 721 100.409 789.784 450.942
2704 0 65.2956 12.5583 820 99.85 788.446 449.712
2705 0 67.3286 11.7335 790 101.743 788.862 451.892
2706 0 66.42 10.2529 681 106.524 788.518 450.593
2707 0 70.2662 11.428 803 103.361 789.214 452.392
2708 0 69.2314 12.0466 834 104.492 788.735 452.285
2709 0 72.1454 12.3916 894 104.743 788.681 452.23
2710 0 73.2185 12.1417 889 106.093 788.921 451.854
2711 0 73.0854 11.6165 849 108.075 789.947 453.649
2712 0 77.0958 12.5558 968 105.777 789.753 452.062
2713 0 77.165 13.3091 1027 105.255 789.18 453.675
2714 0 79.1063 12.6286 999 108.613 788.78 453.337
2715 0 79.1481 13.4305 1063 108.42 788.751 452.391
2716 0 82.1856 12.4596 1024 110.508 789.479 453.721
2717 0 83.1459 13.8431 1151 108.021 789.727 453.621
2718 0 84.1431 12.6214 1062 112.159 789.391 453.147
2719 0 86.2382 13.254 1143 111.319 789.706 450.535
2720 0 89.2017 12.9818 1158 112.481 789.605 450.142
2721 0 88.269 13.1077 1157 112.54 789.614 451.349
2722 0 93.2211 13.3983 1249 111.277 789.426 451.519
2723 0 93.3762 13.2368 1236 111.758 790.047 453.018
2724 0 96.4069 14.1795 1367 110.309 790.14 452.189
2725 0 99.3495 14.3534 1426 110.799 790.106 449.471
2726 0 102.273 13.8257 1414 111.264 789.839 449.869
2727 0 104.403 14.0417 1466 112.351 789.941 447.166
2728 0 106.422 15.166 1614 110.699 789.769 443.91
2729 0 109.275 14.9257 1631 111.138 789.851 447.882
2730 0 112.331 15.1872 1706 112.428 790.87 445.367
2731 0 114.262 14.738 1684 114.253 791.04 440.589
2732 0 117.346 15.0069 1761 113.953 790.515 439.202
2733 0 120.538 14.5431 1753 114.659 790.567 439.699
2734 0 124.376 14.7859 1839 114.115 790.575 437.534
2735 0 126.484 15.2035 1923 113.658 790.174 435.138
2736 0 131.24 14.7973 1942 113.921 790.334 434.331
2737 0 136.391 14.5391 1983 114.084 790.158 432.43
2738 1 76.2109 11.2582 858 110.762 790.633 463.634
2739 0 79.3633 13.2177 1049 107.619 790.743 461.44
2740 0 79.4878 12.1654 967 112.182 790.583 459.787
2741 0 82.3279 12.6081 1038 112.469 790.525 455.314
2742 0 85.4837 13.1721 1126 110.759 790.106 458.454
2743 0 89.3675 13.2934 1188 110.414 790.37 455.761
2744 0 91.4263 13.9785 1278 110.442 790.452 452.61
2745 0 93.3961 12.6237 1179 113.275 790.904 454.325
2746 0 95.4361 14.4599 1380 110.893 790.907 449.999
2747 0 98.3283 14.3906 1415 110.873 790.58 450.209
2748 0 100.359 13.4418 1349 114.342 790.867 446.239
2749 0 102.519 14.6705 1504 112.588 790.892 444.463
2750 0 107.399 13.5476 1455 113.287 790.786 446.463
2751 0 110.72 13.6109 1507 113.084 790.798 445.417
2752 0 113.486 14.2925 1622 113.553 791.514 439.616
2753 0 116.418 14.6713 1708 113.287 790.575 437.96
2754 0 121.29 13.8099 1675 115.325 791.19 437.2
2755 0 122.346 13.6171 1666 116.459 791.044 437.858
2756 0 127.531 13.8711 1769 117.376 790.716 432.718
2757 0 132.542 14.75 1955 115.752 790.656 430.22
2758 0 136.539 13.4906 1842 119.484 791.241 428.488
2759 0 141.613 14.8221 2099 116.07 791.097 427.493
2760 0 147.499 14.4814 2136 118.875 789.946 424.988
2761 0 149.34 14.3966 2150 119.84 790.176 421.586
2762 0 154.416 14.163 2187 120.577 790.503 417.846
2763 1 88.3537 11.171 987 117.736 790.616 454.868
2764 0 90.4165 12.0443 1089 117.85 790.399 452.232
2765 0 93.517 13.9868 1308 114.265 790.905 451.574
2766 0 97.4738 12.5675 1225 117.18 790.749 450.478
2767 0 98.592 12.9828 1280 116.949 790.489 451.455
2768 0 102.474 12.4812 1279 120.142 790.902 448.271
2769 0 107.583 13.3665 1438 117.665 790.703 447.498
2770 0 109.506 13.7618 1507 118.09 791.275 443.73
2771 0 112.24 12.2416 1374 120.774 791.192 444.487
2772 0 116.39 12.9392 1506 119.565 790.578 439.669
2773 0 121.406 12.487 1516 119.771 790.912 440.531
2774 0 126.421 13.5895 1718 117.19 791.196 437.864
2775 0 130.45 13.1161 1711 118.483 791.368 434.821
2776 0 132.307 12.8187 1696 120.397 791.193 431.502
2777 0 138.563 12.5069 1733 121.5 791.17 426.328
2778 0 145.381 14.0803 2047 116.237 791.307 429.56
2779 0 148.34 13.1657 1953 118.916 791.015 427.856
2780 0 152.372 12.4826 1902 121.342 791.232 423.091
2781 0 156.433 12.7083 1988 121.265 790.612 420.161
2782 0 162.544 12.3843 2013 122.752 790.518 414.47
2783 0 169.369 13.5149 2289 119.817 790.494 415.108
2784 0 175.476 13.9335 2445 118.433 790.306 412.804
2785 0 178.404 13.5647 2420 120.9 789.738 409.559
2786 0 184.41 13.8279 2550 120.871 789.916 409.293
2787 0 189.39 13.3112 2521 122.96 790.407 404.285
2788 0 195.434 13.2884 2597 124.428 789.769 397.761
2789 0 200.31 12.885 2581 125.573 789.861 397.896
2790 0 206.332 12.8385 2649 126.236 790.392 395.626
2791 0 211.328 12.5303 2648 127.243 789.869 388.924
2792 0 222.4 14.1367 3144 122.061 790.035 387.959
2793 0 228.569 12.9808 2967 126.542 789.833 379.87
2794 1 54.2063 10.4969 569 100.931 791.453 472.991
2795 0 56.1537 9.01098 506 104.486 790.543 472.419
2796 0 59.0823 10.0707 595 103.667 789.963 471.934
2797 0 60.0498 9.87513 593 105.794 789.553 471.565
2798 0 62.0748 11.5506 717 103.11 789.179 468.485
2799 0 63.1191 10.8367 684 107.373 788.857 469.096
2800 0 65.1408 11.0223 718 107.561 789.599 468.252
2801 0 69.2606 12.388 858 104.987 789.695 468.12
2802 0 71.053 11.3718 808 106.74 789.006 466.194
2803 0 80.18 16.9244 1357 95.1968 788.647 458.721
2804 0 81.1684 16.743 1359 97.5467 789.386 463.652
2805 0 79.2588 14.6608 1162 105.858 790.404 459.466
2806 0 80.1798 11.8109 947 114.273 790.504 460.533
2807 0 81.1593 11.8409 961 115.24 789.604 460.926
2808 1 30.0688 9.24545 278 97.5432 789.781 488.759
2809 0 33.118 9.60204 318 95.5094 789.717 487.384
2810 0 31.0476 9.11504 283 91.4558 788.495 485.784
2811 0 35.0548 9.52794 334 90.4641 788.518 485.416
2812 0 31.0408 9.50362 295 91.322 788.715 485.169
2813 0 31.1588 9.05042 282 93.9823 789.624 482.709
2814 0 29.072 6.32911 184 95.6359 790.147 477.832
2815 0 35.1334 9.02276 317 90.7035 790.069 485.221
2816 0 33.1317 9.71879 322 91.2826 790.357 481.901
2817 0 35.2238 9.22672 325 89.5323 790.298 479.652
2818 0 33.3097 6.84485 228 92.0175 791.232 484.298
2819 0 35.096 6.46798 227 93.7621 790.921 480.722
2820 0 37.1656 7.48004 278 93.5468 790.047 473.741
2821 0 37.0572 8.2575 306 91.8529 789.771 473.075
2822 0 37.1647 8.12599 302 89.7252 790.026 475.066
2823 0 37.3282 7.87608 294 88.9796 790.146 477.303
2824 0 35.2022 8.01085 282 90.7199 790.333 480.277
2825 0 35.1278 7.05995 248 92.6492 789.593 480.536
2826 0 36.1135 6.86724 248 94.2863 790.105 483.347
2827 0 37.1116 9.86216 366 90.276 789.869 483.77
2828 0 37.2983 8.12369 303 92.2079 789.785 475.62
2829 0 39.2877 7.66144 301 93.515 789.595 478.944
2830 0 38.2636 6.7427 258 96.8295 789.14 482.07
2831 0 40.1508 9.16545 368 93.913 789.473 482.399
2832 0 38.1089 8.31827 317 96.1167 788.927 480.637
2833 0 37.235 7.57353 282 96.3404 789.043 482.014
2834 0 39.1249 8.02559 314 94.7006 789.481 479.936
2835 0 38.1864 5.9969 229 99.0742 789.86 481.1
2836 0 41.1959 8.90865 367 95.7875 789.599 483.142
2837 0 38.0592 7.64599 291 99.8763 788.79 481.206
2838 0 43.2328 8.28074 358 98.4693 790.07 484.24
2839 0 39.1431 8.43061 330 100.315 789.139 481.358
