time division length width area intensity CMx CMy
0 0 50.0159 11.1165 556 129.23 344.915 469.924
1 0 50.0345 11.3921 570 130.695 345.832 468.744
2 0 52.0258 11.552 601 129.216 345.654 468.348
3 0 53.0224 10.4107 552 130.922 345.779 469.826
4 0 55.1348 9.7579 538 132.76 346.16 467.73
5 0 53.1918 10.4151 554 134.758 346.81 466.514
6 0 58.1455 11.5228 670 129.278 346.148 464.963
7 0 59.1562 11.5795 685 127.596 346.634 466.201
8 0 60.1886 10.5502 635 133.113 346.143 464.769
9 1 31.0233 9.83132 305 136.121 346.433 478.738
10 0 32.0171 10.5881 339 134.401 345.85 479.056
11 0 34.1001 11.5542 394 130.508 346.695 479.175
12 0 35.104 13.4742 473 124.015 345.649 478.474
13 0 35.0449 11.8134 414 129.954 345.464 476.923
14 0 31.0241 10.7336 333 131.748 344.868 479.784
15 0 35.0074 12.426 435 125.32 344.991 478.184
16 0 37.0276 11.0998 411 127.489 345.285 479.219
17 0 36.0298 12.795 461 124.601 345.033 478.362
18 0 37.0129 10.4558 387 131.649 345.548 479.791
19 0 39.0163 12.0463 470 126.285 344.115 478.183
20 0 40.0695 11.6548 467 126.889 343.589 478.976
21 0 40.0499 11.0362 442 130.434 344.086 477.695
22 0 41.0206 11.0432 453 130.461 344.159 478.422
23 0 43.0216 11.9242 513 127.973 343.48 476.32
24 0 47.0462 11.9457 562 126.553 343.988 477.043
25 0 46.0511 11.965 551 128.356 342.969 475.305
26 0 47.0297 11.4396 538 131.112 342.937 475.714
27 0 50.027 13.1129 656 125.553 342.758 474.361
28 0 51.0266 11.2098 572 131.785 342.455 475.647
29 0 53.0539 12.7606 677 128.911 342.832 473.108
30 0 55.0616 13.2397 729 128.18 343.158 472.709
31 0 56.0841 12.9627 727 129.685 342.217 473.125
32 0 58.0508 12.1618 706 133.018 341.79 471.793
33 0 59.0223 12.9273 763 131.153 342.427 470.509
34 0 61.0388 13.3685 816 129.822 342.419 470.485
35 0 64.0987 14.5089 930 125.983 342.329 469.316
36 0 65.0172 13.3811 870 130.252 342.949 468.037
37 0 70.0886 14.6957 1030 124.381 342.425 467.1
38 0 72.0414 14.1863 1022 126.88 341.445 465.519
39 0 74.0959 14.1843 1051 127.438 341.572 464.637
40 0 76.168 14.258 1086 132.422 340.75 463.173
41 0 81.0923 13.9101 1128 131.371 340.88 460.689
42 0 83.0946 14.0683 1169 131.567 340.784 460.064
43 0 88.1748 13.6887 1207 130.302 341.298 459.621
44 0 91.193 13.5756 1238 130.968 341.021 456.103
45 0 94.1424 15.041 1416 126.776 341.331 455.032
46 0 95.1995 13.8551 1319 130.055 340.568 454.413
47 1 49.084 12.4684 612 127.5 340.693 474.843
48 0 51.0786 13.5673 693 121.638 340.984 472.924
49 0 55.0403 13.5537 746 126.588 341.023 477.172
50 0 56.0829 13.48 756 128.009 341.063 474.856
51 0 58.05 13.2472 769 126.841 341.529 475.241
52 0 58.0823 14.1351 821 126.294 341.544 473.543
53 0 62.0454 13.7641 854 125.194 341.48 473.088
54 0 62.0432 12.8459 797 128.358 341.4 472.309
55 0 66.0625 13.8959 918 123.429 341.446 471.032
56 0 67.0846 13.8184 927 123.604 341.852 470.948
57 0 69.0933 13.6048 940 125.215 341.368 469.094
58 0 71.0455 13.6673 971 123.876 341.582 469.7
59 0 75.0296 13.5147 1014 123.734 342.131 468.387
60 0 75.0486 14.0975 1058 124.113 341.701 466.526
61 0 78.0595 13.131 1025 126.461 341.256 465.456
62 0 81.1529 14.2201 1154 122.762 340.726 464.235
63 0 83.1095 13.8973 1155 117.312 340.57 464.429
64 0 86.075 14.0343 1208 117.339 340.291 463.531
65 0 87.0696 14.1611 1233 117.981 340.431 462.6
66 0 89.0825 13.0104 1159 121.4 340.384 460.431
67 0 94.1923 13.6529 1286 118.649 339.809 458.811
68 0 98.0508 13.799 1353 118.691 339.875 456.935
69 0 99.2015 13.145 1304 122.899 339.298 454.304
70 0 104.167 12.7488 1328 121.213 339.515 453.588
71 1 54.0427 12.3606 668 117.563 339.24 478.105
72 0 54.059 11.7834 637 120.545 339.402 475.901
73 0 54.0445 11.8051 638 117.442 339.301 475.525
74 0 56.0409 12.9548 726 113.433 339.678 477.04
75 0 59.0841 13.2692 784 113.536 338.569 473.551
76 0 59.0648 11.7159 692 117.905 338.665 472.571
77 0 63.0519 13.7189 865 111.014 339.719 471.638
78 0 66.0466 13.2179 873 112.165 339.399 472.052
79 0 66.0179 12.1785 804 116.67 339.475 470.409
80 0 70.1105 12.5231 878 113.907 339.992 467.842
81 0 71.1074 11.6584 829 116.689 339.004 466.098
82 0 74.0522 13.6795 1013 111.755 339.024 467.36
83 0 77.1379 13.4694 1039 110.707 339.353 465.125
84 0 79.1053 11.7059 926 114.591 339.694 465.05
85 0 82.0534 12.1994 1001 112.624 340.224 463.39
86 0 83.041 13.1983 1096 111.231 339.878 462.391
87 0 87.0429 13.568 1181 110.566 339.76 460.849
88 0 89.106 13.2651 1182 111.287 340.113 459.076
89 0 92.0912 12.8134 1180 113.532 339.643 457.553
90 0 96.0511 13.7947 1325 114.288 339.37 456.956
91 0 97.0987 14.5728 1415 113.105 339.372 453.78
92 0 101.13 13.8831 1404 114.731 339.425 452.787
93 0 105.057 13.6783 1437 113.839 339.103 452.782
94 0 109.116 13.5178 1475 113.748 339.674 449.629
95 0 112.134 13.2787 1489 114.073 339.678 450.068
96 0 117.133 13.2926 1557 115.396 339.593 444.844
97 0 122.094 14.1531 1728 112.76 340.446 444.298
98 0 125.145 12.889 1613 115.786 339.815 442.686
99 0 132.302 13.3936 1772 115.09 338.961 435.54
100 0 138.228 13.7744 1904 113.698 339.503 434.201
101 1 69.0496 12.0493 832 116.28 338.832 465.484
102 0 73.0548 11.9499 873 109.869 338.88 466.196
103 0 74.0784 10.8129 801 111.834 338.859 466.271
104 0 77.028 12.3202 949 108.529 338.795 464.017
105 0 79.0898 10.1657 804 113.124 338.69 463.081
106 0 82.0739 11.4287 938 109.87 337.989 461.419
107 0 84.0724 10.9786 923 111.091 338.906 460.339
108 0 87.0505 12.039 1048 109.224 338.982 458.316
109 0 90.1287 12.116 1092 109.239 338.618 459.291
110 0 95.0566 13.1606 1251 107.377 338.534 454.986
111 0 95.0947 11.8093 1123 110.802 338.664 453.793
112 0 100.061 13.3218 1333 109.342 338.161 455.476
113 0 104.129 13.7234 1429 108.425 338.404 451.721
114 0 107.152 12.8976 1382 110.467 338.639 450.238
115 0 109.121 12.2983 1342 112.793 338.794 447.794
116 0 116.156 12.4573 1447 111.587 339.106 444.821
117 0 120.116 12.7627 1533 112.11 339.282 443.114
118 0 124.27 12.658 1573 113.318 339.425 442.748
119 1 69.1253 11.5877 801 107.085 339.467 469.75
120 0 69.0776 11.8707 820 109.861 339.194 468.724
121 0 71.1349 11.6539 829 108.934 339.064 468.721
122 0 73.0617 11.5108 841 110.629 339.694 466.306
123 0 77.106 11.9705 923 109.506 339.455 466.31
124 0 78.1294 12.2105 954 109.43 340.42 464.844
125 0 79.1733 11.9737 948 110.849 340.404 463.146
126 0 81.1367 11.4991 933 112.309 339.488 461.372
127 0 87.0657 13.4726 1173 107.77 338.991 461.302
128 0 89.0396 12.1294 1080 111.714 339.875 459.444
129 0 92.1451 12.6323 1164 111.686 340.079 456.292
130 0 96.0955 13.6947 1316 108.195 339.616 457.961
131 0 97.1175 11.3574 1103 115.67 339.691 453.156
132 0 101.049 13.0827 1322 112.015 339.594 452.059
133 0 106.13 13.1066 1391 111.358 340.439 452.285
134 1 58.0645 10.8328 629 107.555 339.914 477.816
135 0 58.1335 11.0607 643 107.804 339.336 475.908
136 0 57.1198 10.9769 627 109.349 338.616 474.762
137 0 59.1826 11.3547 672 107.028 339.722 476.911
138 0 61.2081 11.9919 734 107.383 339.772 474.53
139 0 64.0494 11.6473 746 106.064 338.662 474.743
140 0 65.0532 12.4052 807 105.74 338.368 472.602
141 0 68.0572 11.6814 795 107.291 338.487 472.014
142 0 69.0432 11.2828 779 109.411 338.285 470.279
143 0 72.112 12.439 897 106.862 338.659 469.371
144 0 73.1543 11.4826 840 110.083 338.44 467.51
145 0 74.0551 12.9903 962 107.36 338.732 464.267
146 0 78.2088 12.7224 995 107.966 340.041 464.142
147 0 80.0779 11.9758 959 110.839 339.357 462.675
148 0 84.1188 11.9355 1004 115.142 340.245 462.047
149 0 87.1096 11.6864 1018 114.473 339.971 461.666
150 0 89.131 11.2419 1002 116.039 339.636 459.881
151 0 89.1421 11.4873 1024 111.553 339.896 455.829
152 0 94.1553 12.0439 1134 114.063 339.026 458.061
153 0 96.0694 11.5541 1110 115.42 339.142 456.89
154 0 97.1805 11.1648 1085 117.211 339.732 453.898
155 0 102.182 11.9591 1222 114.403 339.033 451.429
156 0 103.15 11.0519 1140 115.8 338.698 449.614
157 0 107.293 11.7342 1259 114.221 338.682 446.356
158 0 110.295 10.9978 1213 115.739 338.5 447.721
159 0 115.267 11.8681 1368 111.591 338.198 447.197
160 0 121.25 11.6124 1408 113.269 338.858 442.163
161 1 59.0363 9.73978 575 107.972 339.146 472.483
162 0 64.0751 11.3305 726 104.124 338.752 472.877
163 0 66.1577 11.2459 744 105.804 337.57 469.277
164 0 67.1709 12.7734 858 102.334 339.149 469.303
165 0 70.1496 12.2453 859 104.959 338.81 469.14
166 0 71.0818 11.6204 826 106.5 338.918 465.979
167 0 73.1302 11.5684 846 107.716 339.545 464.306
168 0 75.1242 12.4194 933 106.295 340.149 465.714
169 0 80.2458 12.362 992 106.619 339.786 464.733
170 0 81.1703 11.7654 955 109.163 339.884 463.008
171 0 83.1493 11.2328 934 111.409 339.138 460.551
172 0 86.1359 11.5631 996 110.827 339.03 459.232
173 0 88.1275 11.177 985 111.45 339.404 458.128
174 0 91.206 11.2822 1029 111.202 339.383 455.766
175 0 96.1776 12.2586 1179 109.016 338.393 454.195
176 0 99.2221 12.2755 1218 109.622 338.315 452.559
177 1 53.0236 9.76924 518 111.054 339.012 477.631
178 0 54.1457 11.5614 626 107.516 337.819 475.112
179 0 56.0264 11.0841 621 106.396 339.274 475.295
180 0 57.0491 11.4288 652 105.831 338.732 472.506
181 0 58.0687 11.3314 658 106.073 338.319 472.945
182 0 60.0643 11.238 675 106.236 338.625 470.465
183 0 61.039 11.763 718 105.458 338.868 471.447
184 0 64.0431 12.2105 782 104.717 338.301 468.992
185 0 66.0472 12.8999 852 103.622 338.91 468.542
186 0 70.0764 13.471 944 100.999 338.611 467.727
187 0 71.0293 12.4033 881 104.715 339.16 465.662
188 0 74.0541 14.3949 1066 100.234 339.05 466.938
189 0 77.0813 13.635 1051 103.044 339.462 465.017
190 0 77.0162 12.361 952 106.936 338.846 464.101
191 0 81.0786 13.4931 1094 103.566 339.162 463.132
192 0 81.0683 11.4965 932 109.222 338.998 461.053
193 0 86.0828 12.2556 1055 106.513 339.103 461.939
194 0 89.0611 12.497 1113 106.596 338.862 459.354
195 0 93.0774 12.1297 1129 106.774 338.31 458.79
196 0 95.076 12.3375 1173 106.95 338.656 456.344
197 0 96.1142 12.2979 1182 107.939 338.307 452.849
198 1 51.1024 12.2303 625 103.634 338.891 477.987
199 0 52.1031 11.554 602 100.39 338.676 477.266
200 0 52.0922 11.2109 584 101.243 338.997 477.351
201 0 54.0589 12.1349 656 99.3674 339.114 477.389
202 0 57.03 12.1866 695 99.7396 339.056 476.489
203 0 56.0665 11.1297 624 104.425 339.519 474.261
204 0 57.1173 10.3296 590 105.475 339.985 474.037
205 0 59.2034 10.6413 630 105.173 340.492 474.897
206 0 61.0974 11.408 697 104.013 339.904 472.004
207 0 62.0369 11.9767 743 103.604 339.759 472.467
208 0 64.09 10.8129 693 105.835 340.055 469.339
209 0 68.0767 12.3684 842 101.272 340.488 469.605
210 0 69.1375 12.0195 831 103.165 340.799 469.747
211 0 72.0605 11.8095 851 105.571 340.746 467.204
212 0 74.1341 14.0421 1041 100.867 340.997 464.783
213 0 76.088 11.9993 913 106.309 339.723 464.193
214 0 77.1422 12.5353 967 106.731 339.767 461.075
215 0 81.1188 11.8345 960 108.647 339.964 462.971
216 0 85.1199 12.8877 1097 108.074 339.798 461.468
217 0 86.1147 12.9246 1113 109.426 340.455 458.487
218 1 45.0306 10.1264 456 112.829 340.18 477.967
219 0 48.3113 10.2253 494 111.17 338.02 475.83
220 0 47.032 9.9932 470 106.353 339.909 474.513
221 0 49.0719 11.8194 580 103.891 337.728 478.669
222 0 52.0824 12.173 634 103.416 337.35 477.942
223 0 53.0561 11.5727 614 106.174 337.404 478.943
224 0 53.0406 11.84 628 107.129 338.145 476.519
225 0 54.0604 11.3022 611 109.463 338.797 477.358
226 0 56.0945 11.1063 623 111.721 338.368 474.965
227 0 58.1222 12.4049 721 107.644 338.526 476.397
228 0 60.124 12.2414 736 108.726 337.787 473.947
229 0 60.08 12.3336 741 110.414 337.555 473.019
230 0 62.0947 10.2746 638 115.237 338.066 472
231 0 65.0669 13.4631 876 108.086 337.699 471.212
232 0 65.0555 11.7746 766 113.837 338.044 469.155
233 0 69.0666 12.0463 832 112.757 337.987 468.624
234 0 71.0863 11.6197 826 114.262 337.831 467.596
235 0 76.1213 12.6377 962 110.798 337.947 466.907
236 0 78.192 13.4541 1052 109.364 337.962 466.611
237 0 81.0786 12.642 1025 112.653 338.725 464.64
238 1 43.1192 11.1319 480 113.785 339.204 481.458
239 0 44.0542 11.1454 491 110.356 340.23 482.611
240 0 45.2591 11.8871 538 110.729 340.271 478.34
241 0 46.0598 11.3982 525 110.474 338.829 480.528
242 0 50.0397 12.3702 619 106.289 339.54 480.036
243 0 49.0521 10.9272 536 111.257 339.599 479.002
244 0 50.0279 10.9339 547 111.77 338.993 479.311
245 0 53.0586 12.3825 657 106.212 339.791 478.738
246 0 54.1303 11.8787 643 108.076 339.795 477.499
247 0 58.0467 13.179 765 104.239 340.497 476.103
248 0 57.0602 12.11 691 108.224 339.961 475.25
249 0 59.0704 11.9857 708 107.648 340.537 474.787
250 0 61.0725 12.084 738 107.649 340.144 473.587
251 0 63.1366 12.8293 810 106.052 339.638 471.127
252 0 67.1139 12.6948 852 104.648 340.167 469.765
253 0 68.0872 12.8365 874 105.042 339.515 469.305
254 0 68.1002 11.16 760 108.729 338.916 469.691
255 0 72.1337 11.7559 848 106.772 339.387 468.642
256 0 74.1362 12.0454 893 105.725 339.604 465.666
257 0 77.0692 11.5221 888 106.162 338.789 465.284
258 0 81.0867 13.4547 1091 101.109 338.968 464.814
259 0 81.1638 12.6288 1025 104.81 339.339 460.976
260 0 85.075 12.871 1095 104.32 338.974 460.971
261 1 44.0311 10.9922 484 108.267 340.184 480.103
262 0 45.0628 9.71978 438 110.998 340.495 479.733
263 0 47.0316 11.0989 522 107.33 339.766 480.006
264 0 47.0501 11.4559 539 104.33 339.909 478.937
265 0 49.1019 12.1584 597 101.663 340.369 478.183
266 0 52.0688 11.8113 615 102.485 339.963 479.003
267 0 53.0689 11.9656 635 102.131 340.706 478.715
268 0 53.1131 11.3155 601 104.027 340.935 477.013
269 0 57.0536 13.1631 751 99.502 340.445 476.802
270 0 58.1157 12.716 739 100.345 340.635 476.387
271 0 58.0511 12.1961 708 103.531 340.004 474.6
272 0 63.1779 12.7734 807 100.929 339.478 473.663
273 0 64.1368 13.8454 888 98.9414 339.857 473.724
274 0 68.1159 13.6532 930 99.7925 339.747 470.827
275 0 70.1082 12.8516 901 102.776 339.438 469.824
276 0 73.0911 12.8743 941 103.968 339.597 469.424
277 0 74.1142 12.98 962 105.99 339.465 466.977
278 0 79.1183 13.562 1073 105.116 339.218 465.314
279 0 79.1159 12.8798 1019 109.186 339.813 465.976
280 1 40.0421 10.439 418 110.665 340.644 484.048
281 0 42.0284 9.80291 412 110.733 341.318 483.857
282 0 44.1096 11.2674 497 106.298 340.658 482.097
283 0 45.0669 12.4482 561 106.863 340.766 483.383
284 0 44.0407 11.6256 512 111.797 340.225 481.877
285 0 47.0115 11.7843 554 111.004 340.603 480.635
286 0 50.0377 11.6712 584 111.137 340.202 481.356
287 0 49.0407 10.8481 532 114.692 340.506 479.964
288 0 52.0538 11.9492 622 111.376 339.822 479.338
289 0 54.0837 12.6286 683 110.165 340.206 478.36
290 0 53.0974 11.4695 609 114.97 340.427 475.048
291 0 57.0408 12.3946 707 110.909 340.45 477.208
292 0 54.0437 11.5647 625 115.938 339.32 475.819
293 0 57.0603 11.3739 649 114.299 339.67 475.233
294 0 61.1005 12.7495 779 109.743 339.593 475.118
295 0 59.1728 12.2015 722 112.686 340.019 473.406
296 0 61.2078 12.4167 760 111.989 339.375 472.674
297 0 66.2511 11.8338 784 111.335 339.862 472.376
298 0 65.1968 12.8074 835 110.726 339.411 470.054
299 0 68.1801 13.039 889 109.049 339.336 469.44
300 0 69.1078 12.0826 835 110.38 339.079 469.728
301 0 72.1495 12.7929 923 108.523 339.299 466.639
302 0 72.1025 12.2326 882 109.991 339.226 466.313
303 0 75.1749 11.5198 866 105.067 339.349 468.212
304 0 76.1461 11.2941 860 106.669 338.988 465.828
305 0 79.0788 12.5571 993 105.091 339.398 464.86
306 0 84.1184 12.0782 1016 105.401 339.915 464.031
307 0 87.0768 13.0919 1140 103.917 339.006 459.899
308 0 88.1074 11.9967 1057 107.766 338.847 459.068
309 0 92.0827 12.239 1127 107.29 338.892 458.624
310 1 49.0364 9.56432 469 109.166 338.367 480.433
311 0 51.0381 12.5593 641 103.382 338.75 477.793
312 0 51.1538 10.6932 547 108.885 338.682 476.393
313 0 54.0305 11.2899 610 111.108 340.605 475.059
314 0 57.0282 13.4495 767 106.854 340.025 473.46
315 0 59.026 13.079 772 108.826 339.788 473.319
316 0 61.0453 13.2361 808 108.728 339.202 472.193
317 0 62.0277 13.3489 828 109.149 339.821 471.873
318 0 64.1392 13.3927 859 105.079 338.757 471.614
319 0 66.1017 12.6774 838 107.709 339.753 471.458
320 0 69.0368 13.2973 918 106.282 339.405 470.809
321 0 69.0715 12.8562 888 108.944 339.636 469.527
322 0 72.2055 13.42 969 108.124 340.304 465.827
323 0 76.0449 14.0312 1067 106.747 339.594 466.854
324 0 77.1602 13.1026 1011 114.885 339.698 463.338
325 0 82.1421 13.0505 1072 113.175 339.867 465.812
326 0 84.0941 12.4622 1048 114.789 339.584 463.337
327 0 86.1425 13.9188 1199 112.741 339.002 461.965
328 0 88.1768 12.1687 1073 116.937 338.546 460.062
329 0 92.0884 13.3024 1225 111.402 338.541 460.757
330 0 93.091 12.4717 1161 114.263 338.835 457.668
331 0 98.1755 13.3944 1315 110.531 339.362 458.089
332 0 100.218 13.3808 1341 111.286 339.164 452.918
333 0 104.194 12.9854 1353 110.713 339.004 451.801
334 0 108.131 12.7346 1377 112.251 338.908 449.901
335 1 57.0641 12.2143 697 109.151 338.809 477.089
336 0 60.0638 13.0195 782 111.047 338.656 474.171
337 0 62.16 12.9665 806 106.161 339.512 474.423
338 0 63.1687 13.2502 837 106.99 339.631 472.345
339 0 64.1774 13.1666 845 107.875 339.492 472.486
340 0 68.1212 13.0796 891 107.957 339.907 471.919
341 0 70.131 13.4035 940 109.339 339.17 470.984
342 0 72.1327 13.6831 987 109.649 339.852 469.831
343 0 75.0974 13.9153 1045 109.044 339.899 470.067
344 0 78.1884 14.7081 1150 108.194 339.972 468.523
345 0 79.2566 14.207 1126 111.63 340.206 466.036
346 0 80.2364 13.3356 1070 115.309 339.825 465.051
347 0 87.168 14.0419 1224 112.73 339.098 463.556
348 0 87.1856 14.1996 1238 115.26 339.582 460.984
349 0 90.1669 13.9519 1258 116.85 340.302 461.46
350 0 94.1748 13.4112 1263 117.927 340.312 459.503
351 0 96.1993 13.1394 1264 120.823 339.971 457.081
352 0 96.1993 13.2018 1270 160.335 338.96 457.114
353 0 102.244 13.3895 1369 120.057 339.421 454.625
354 1 54.0316 10.79 583 116.938 338.612 480.791
355 0 54.0543 11.5069 622 117.502 339.315 478.596
356 0 55.0367 10.6293 585 121.764 337.938 476.26
357 0 56.0428 11.5091 645 114.637 340.299 478.04
358 0 58.0672 12.1583 706 111.949 341.353 477.582
359 0 58.0404 11.1302 646 115.319 340.96 476.926
360 0 60.1345 11.0087 662 116.588 341.479 473.929
361 0 64.0426 12.4605 798 111.519 341.261 473.208
362 0 68.0602 11.7984 803 111.597 342.134 474.088
363 0 67.0791 11.3746 763 114.662 342.287 472.295
364 0 70.1116 13.0934 918 111.243 341.513 469.378
365 0 74.0669 11.7731 872 113.499 341.75 471.477
366 0 76.0911 12.4325 946 111.592 341.174 469.574
367 0 79.0892 13.2761 1050 109.85 340.712 467.618
368 0 81.1289 12.1535 986 113.641 340.564 465.622
369 0 83.1045 12.5264 1041 113.144 340.405 463.566
370 0 85.1024 11.8211 1006 115.423 340.495 464.078
371 0 90.107 12.7182 1146 112.594 340.302 461.916
372 0 93.0717 13.6454 1270 110.105 340.758 457.385
373 0 95.1614 12.6417 1203 113.465 340.69 457.587
374 1 51.0202 10.9173 557 113.251 341.291 479.813
375 0 53.0401 11.6138 616 112.917 341.979 478.482
376 0 56.0236 12.0306 674 110.651 340.215 479.27
377 0 55.0889 11.4724 632 111.15 340.247 479.892
378 0 56.0461 10.1702 570 112.961 340.533 480.388
379 0 57.0848 11.0362 630 112.444 339.773 479.205
380 0 59.0914 10.5768 625 111.426 340.346 479.683
381 0 62.0441 11.9592 742 109.66 339.601 475.699
382 0 64.2298 11.5523 742 109.221 339.499 475.569
383 0 65.1141 11.2879 735 110.886 339.585 473.954
384 0 67.1767 10.852 729 111.251 340.723 470.797
385 0 69.1562 11.7415 812 109.966 340.268 468.966
386 0 74.0184 12.3078 911 107.108 339.771 470.387
387 0 76.2402 12.3688 943 106.13 340.359 470.843
388 0 79.0544 12.3586 977 106.13 339.924 468.18
389 0 81.0796 11.9759 971 108.488 339.615 465.197
390 0 83.0555 9.90904 823 112.187 339.068 468.55
391 1 42.1079 9.90313 417 112.808 339.964 483.854
392 0 46.1521 10.9204 504 106.81 341.782 482.964
393 0 48.1208 12.0946 582 105.204 340.997 482.311
394 0 50.0769 10.5238 527 114.18 339.268 481.357
395 0 51.1404 11.0089 563 113.245 339.092 481.02
396 0 53.3392 10.5176 561 113.988 340.772 479.879
397 0 54.0631 10.4877 567 115.533 339.739 479.071
398 0 56.101 11.4436 642 113.952 338.466 476.567
399 0 59.1171 11.9255 705 111.782 340.251 477.231
400 0 61.1859 11.2608 689 112.612 341.602 476.704
401 0 62.0708 10.778 669 113.659 339.895 477.786
402 0 63.1615 11.9376 754 112.653 340.065 475.402
403 0 64.2388 11.7063 752 113.106 340.338 472.346
404 0 68.1944 11.4819 783 113.239 340.46 471.968
405 0 70.3553 12.3232 867 111.061 340.225 472.55
406 0 71.1714 11.662 830 112.47 340.386 470.37
407 0 75.1832 11.9575 899 110.166 340.551 471.399
408 0 76.2395 12.1853 929 110.777 340.245 467.751
409 0 80.1559 12.0889 969 110.761 339.8 467.377
410 0 83.25 12.9249 1076 109.202 339.893 467.236
411 0 85.0782 12.7765 1087 111.145 338.574 464.564
412 1 46.0769 11.4157 526 109.759 338.426 483.968
413 0 47.3149 10.652 504 108.413 341.157 483.758
414 0 47.1669 9.51939 449 102.893 340.174 479.318
415 0 47.0365 11.034 519 107.197 341.277 482.287
416 0 48.0534 11.4456 550 106.596 341.173 482.345
417 0 52.1072 11.9369 622 107.58 341.531 481.805
418 0 51.071 11.5134 588 109.58 341.241 481.951
419 0 54.067 12.5955 681 108.581 341.655 480.673
420 0 55.1135 12.6648 698 109.335 341.652 479.115
421 0 57.0522 13.549 773 106.617 341.492 479.741
422 0 57.1365 11.7963 674 112.583 341.499 478.294
423 0 57.1365 11.9188 681 136.383 341.515 478.502
424 0 61.1199 11.1257 680 113.631 340.499 475.757
425 0 62.0857 11.3231 703 114 340.444 474.666
426 0 66.0849 12.4839 825 111.422 340.699 471.686
427 0 69.1171 12.7899 884 110.068 340.6 473.304
428 0 71.1603 12.3664 880 111.468 340.341 472.925
429 0 75.0621 14.0151 1052 107.48 340.703 470.781
430 0 77.1456 13.7402 1060 108.423 340.519 468.58
431 0 79.197 13.0939 1037 110.296 340.886 466.762
432 0 88.3401 12.5877 1112 108.359 340.73 466
433 0 86.1506 13.0585 1125 109.14 340.188 463.518
434 0 89.1794 13.8933 1239 107.794 339.886 461.449
435 1 48.2262 11.84 571 110.496 340.839 480.933
436 0 50.0076 11.5583 578 105.073 341.803 479.953
437 0 50.0305 11.473 574 107.39 341.763 478.713
438 0 52.1234 13.3146 694 101.098 341.454 481.246
439 0 54.1409 14.2591 772 99.5065 341.905 479.185
440 0 55.1107 13.0646 720 102.576 341.151 477.357
441 0 57.108 12.5026 714 103.382 340.892 478.462
442 0 58.1036 11.8926 691 106.245 340.973 477.298
443 0 59.1177 12.5682 743 104.261 340.394 474.682
444 0 61.1032 13.5017 825 102.349 340.675 473.229
445 0 65.0571 14.1875 923 100.152 340.572 472.309
446 0 69.1207 13.8454 957 98.9613 341.213 472.79
447 0 68.0812 12.9257 880 102.968 340.234 469.917
448 0 72.1351 13.9183 1004 100.497 341.6 469.756
449 0 74.132 13.2466 982 102.257 340.8 468.041
450 0 76.1278 13.5956 1035 102.106 340.75 466.355
451 0 80.0806 12.8995 1033 103.167 341.109 465.116
452 0 80.1124 12.2328 980 105.27 341.594 461.9
453 0 84.1119 13.3869 1126 102.761 340.955 461.639
454 0 85.0466 13.2045 1123 102.842 341.375 457.258
455 0 90.1937 12.839 1158 102.032 340.088 457.097
456 0 91.129 13.223 1205 101.875 340.483 453.193
457 0 95.1625 12.9463 1232 102.432 340.748 454.415
458 1 48.2127 8.37953 404 101.906 342.178 479.361
459 0 49.1179 10.485 515 99.2408 341.759 478.563
460 0 48.0126 9.66414 464 99.2974 340.948 475.183
461 0 51.0158 11.0162 562 97.484 340.633 477.32
462 0 53.0219 11.8819 630 101.61 341.348 480.619
463 0 54.0589 11.358 614 103.321 341.806 478.244
464 0 57.1263 11.9385 682 101.985 341.692 476.56
465 0 60.0675 12.436 747 99.5515 342.26 478.07
466 0 62.1093 12.156 755 99.7947 342.799 476.767
467 0 63.0994 11.1253 702 102.058 342.135 474.865
468 0 68.1578 13.5274 922 96.4111 341.349 472.188
469 0 68.0976 11.601 790 100.953 341.868 472.411
470 0 71.0551 12.5677 893 98.1758 341.822 470.988
471 0 73.0687 12.454 910 99.322 341.771 469.169
472 0 77.0389 12.0069 925 100.157 341.285 467.972
473 0 77.045 10.4874 808 104.02 342.038 468.324
474 0 81.0374 12.4881 1012 101.128 342.04 466.456
475 0 84.0977 11.8315 995 102.546 342.119 466.877
476 1 43.0689 10.2858 443 101.628 342.305 485.576
477 0 43.0156 10.5311 453 99.7285 341.932 484.466
478 0 46.0467 12.205 562 94.9769 342.548 484.459
479 0 46.0324 11.9264 549 96.7614 341.914 484.404
480 0 49.0952 11.549 567 96.6296 341.995 484.205
481 0 50.0849 11.5803 580 97.7172 341.898 483.195
482 0 51.0877 12.0381 615 98.0179 341.065 482.302
483 0 52.0775 11.8669 618 98.1003 341.358 480.377
484 0 54.0945 12.7924 692 96.159 341.88 478.366
485 0 55.1044 12.6306 696 96.4756 341.687 478.059
486 0 59.1085 13.4329 794 94.3123 341.107 477.807
487 0 60.0893 13.1637 791 95.2162 342.258 476.442
488 0 60.1337 12.1895 733 97.4693 342.075 475.686
489 0 63.1365 10.6911 675 99.7141 341.942 475.594
490 0 67.1804 14.1708 952 92.9527 342.111 472.755
491 0 68.0634 13.4287 914 94.7484 342.231 472.43
492 0 70.1128 13.1502 922 95.7711 342.126 470.275
493 0 74.1039 12.8333 951 96.4027 341.16 469.542
494 0 74.1142 11.8331 877 100.007 341.824 469.181
495 0 80.1455 13.5503 1086 94.8683 341.636 467.866
496 1 38.0452 11.0921 422 100.464 342.344 487.206
497 0 40.0548 10.8851 436 100.358 342.438 486.856
498 0 42.0256 11.8499 498 96.5863 342.536 486.046
499 0 42.0076 10.6409 447 99.5682 340.045 484.774
500 0 44.0203 12.3579 544 96.9743 340.046 484.289
501 0 44.0394 11.9211 525 102.164 339.954 483.566
502 0 46.0606 13.5474 624 98.3077 342.16 483.295
503 0 47.0357 12.3948 583 101.614 342.537 482.206
504 0 49.0343 11.7061 574 102.218 342.256 482.472
505 0 49.0467 12.2536 601 102.915 342.02 481.386
506 0 52.1006 12.9941 677 101.287 341.883 479.199
507 0 55.0847 13.3975 738 99.0352 341.759 479.77
508 0 56.0832 12.8737 722 100.619 341.801 480.158
509 0 58.1512 12.9146 751 100.35 342.422 478.495
510 0 59.167 12.6084 746 102.032 342.473 477.499
511 0 60.1089 13.6586 821 99.5786 342.261 476.214
512 0 59.1347 12.3785 732 104.082 342.288 475.351
513 0 61.0723 12.3624 755 102.38 341.868 475.987
514 0 65.0819 12.3076 801 102.13 341.926 474.412
515 0 68.0684 12.5462 854 101.17 341.552 470.939
516 0 69.0882 12.3755 855 102.999 341.034 469.518
517 0 71.1035 12.9811 923 101.315 341.845 466.627
518 0 72.0483 10.1876 734 107.845 341.683 471.076
519 0 76.0967 11.3277 862 105.802 341.429 468.317
520 1 38.0769 10.4263 397 106.542 340.242 485.673
521 0 40.0515 10.8111 433 105.166 340.693 486.145
522 0 41.0395 11.1113 456 107.138 339.904 485.325
523 0 42.1095 10.8289 456 108.914 339.395 482.634
524 0 44.0717 10.4602 461 110.377 342.009 484.39
525 0 43.0112 9.64865 415 113.882 341.836 483.689
526 0 45.0442 10.7006 482 111.651 340.606 483.782
527 0 46.0814 12.1524 560 110.098 339.262 480.879
528 0 49.0672 11.8205 580 108.788 339.041 482.35
529 0 50.0472 11.7289 587 110.925 338.99 479.155
530 0 53.0298 12.5213 664 108.892 339.718 478.67
531 0 55.0701 12.5295 690 108.512 339.404 478.987
532 0 54.0403 11.3064 611 112.124 339.244 479.18
533 0 58.1408 13.2093 768 107.758 339.352 477.023
534 0 58.0585 12.453 723 111.454 339.138 475.862
535 0 60.0834 12.4993 751 112.316 339.411 475.185
536 0 62.0895 13.0457 810 112.298 339.191 473.536
537 0 63.1979 13.1175 829 112.702 339.565 474.743
538 0 66.1044 12.9795 858 113.641 340.175 474.241
539 0 67.0629 12.9132 866 115.483 339.406 472.983
540 0 71.0886 12.6181 897 116.604 341.25 473.06
541 0 72.0819 13.2349 954 116.61 341.218 470.061
542 0 75.0773 12.8401 964 119.615 340.661 469.276
543 0 77.1078 12.904 995 119.502 340.871 468.074
544 0 79.0879 13.3522 1056 118.863 340.978 465.848
545 1 42.0411 10.6087 446 122.807 342.078 485.433
546 0 45.0455 11.9657 539 117.677 342.397 484.221
547 0 47.1552 12.5755 593 118.815 339.882 482.766
548 0 47.0882 12.466 587 114.186 339.358 482.942
549 0 49.0409 13.7844 676 110.41 339.234 482.281
550 0 50.0606 13.224 662 112.397 340.147 480.875
551 0 51.0663 12.6502 646 114.152 340.142 480.695
552 0 53.0753 12.2468 650 114.425 340.382 481.46
553 0 54.0716 12.5759 680 114.354 340.194 479.101
554 0 57.0707 12.7736 729 113.372 340.073 476.802
555 0 58.0394 12.6983 737 114.327 339.802 477.258
556 0 61.1021 12.52 765 114.361 340.103 477.788
557 0 61.0499 12.7437 778 115.761 340.058 475.18
558 0 64.1015 13.229 848 114.274 340.23 473.638
559 0 67.0482 14.333 961 110.404 340.624 474.109
560 0 68.065 12.9582 882 114.607 340.517 473.347
561 0 70.0498 12.4768 874 115.478 340.098 472.398
562 0 72.0791 12.3475 890 116.157 340.009 470.451
563 0 74.1863 12.2799 911 115.808 340.08 470.619
564 0 77.0469 13.7189 1057 111.956 340.24 467.488
565 0 78.0697 12.2583 957 117.376 341.004 468.618
566 0 82.1113 13.1894 1083 114.495 340.331 466.066
567 0 84.0896 13.1051 1102 114.071 340.139 465.386
568 0 86.1522 13.4529 1159 113.16 340.933 464.469
569 0 87.0935 12.9172 1125 116.013 340.414 461.3
570 0 90.1446 12.724 1147 114.664 340.211 463.554
571 0 91.1792 11.428 1042 114.814 340.573 458.246
572 0 94.0776 12.4472 1171 116.354 340.746 457.792
573 0 98.1229 13.4627 1321 114.534 340.269 456.464
574 0 101.121 13.3404 1349 111.054 339.936 456.225
575 0 103.096 11.756 1212 114.946 341.203 451.184
576 0 109.108 13.2163 1442 119.192 341.015 452.595
577 0 111.138 14.4595 1607 116.129 340.653 447.928
578 0 114.186 12.4796 1425 120.968 341.352 447.708
579 0 121.15 12.9261 1566 114.991 340.852 442.996
580 1 60.042 11.1755 671 108.797 341.073 476.031
581 0 62.0586 12.2626 761 114.661 341.338 477.569
582 0 62.0569 12.0696 749 114.881 341.3 475.147
583 0 66.0588 11.5503 763 115.695 341.404 475.392
584 0 67.0579 11.4677 769 117.835 342.217 474.753
585 0 70.1041 12.2532 859 117.107 341.558 472.487
586 0 74.0575 12.1122 897 116.555 340.783 471.905
587 0 78.1247 12.992 1015 114.78 341.647 469.543
588 0 79.0819 12.6704 1002 114.222 341.278 470.372
589 0 82.2314 13.2918 1093 114.581 341.167 467.213
590 0 85.1795 12.5969 1073 116.156 341.366 467.193
591 0 87.083 12.2986 1071 116.901 341.367 464.278
592 0 89.0979 12.0429 1073 115.458 341.513 459.963
593 0 93.1075 12.0828 1125 114.885 341.404 460.2
594 0 96.0807 11.4383 1099 119.688 340.551 459.868
595 0 101.057 12.5474 1268 122.433 340.277 457.058
596 1 53.0265 10.7305 569 113.248 342.473 480.292
597 0 55.0449 9.79201 539 111.885 341.97 481.373
598 0 58.0271 10.8398 629 111.857 341.909 479.65
599 0 58.1132 11.2711 655 116.021 340.759 480.551
600 0 60.0313 11.7106 703 115.147 340.9 478.515
601 0 64.1238 11.2439 721 114.872 340.885 479.173
602 0 64.0748 11.4866 736 115.711 340.077 476.007
603 0 68.1474 10.6827 728 115.538 340.177 477.069
604 0 70.1134 11.5242 808 114.322 340.509 475.245
605 0 73.1634 12.2739 898 112.225 340.702 474.488
606 0 75.093 11.7454 882 114.85 340.859 472.203
607 0 79.2565 12.0621 956 113.806 340.381 468.547
608 0 80.1294 11.1445 893 116.789 339.985 467.912
609 0 84.1288 12.469 1049 113.053 340.481 468.388
610 0 85.0501 11.1111 945 117.815 340.284 462.98
611 0 89.114 11.4797 1023 116.112 339.55 463.587
612 1 47.0184 11.3998 536 113.797 338.989 484.185
613 0 46.0634 10.6592 491 116.181 339.161 483.707
614 0 48.044 11.8433 569 112.627 342.134 483.974
615 0 51.0544 12.7315 650 114.272 341.662 484.042
616 0 51.0529 12.1247 619 116.603 341.527 482.952
617 0 54.0293 12.4562 673 115.007 341.911 481.741
618 0 55.0623 11.9501 658 116.191 341.313 480.322
619 0 56.0629 13.36 749 112.674 342.389 477.718
620 0 58.0986 12.0141 698 114.825 341.976 479.216
621 0 59.0605 13.4269 793 110.858 341.918 478.852
622 0 62.0844 12.0803 750 114.852 341.755 477.223
623 0 64.0894 12.7634 818 113.018 341.537 475.973
624 0 65.0467 12.3142 801 114.105 341.342 475.181
625 0 67.0998 12.2355 821 114.107 341.789 475.586
626 0 70.1026 13.038 914 112.292 340.986 472.872
627 0 70.1016 12.4106 870 114.299 341.521 471.529
628 0 72.2109 11.5356 833 116.517 340.432 472.204
629 0 76.2151 12.7665 973 113.621 340.057 468.669
630 0 79.224 12.6982 1006 113.593 340.24 467.784
631 0 84.271 14.9636 1261 106.92 340.351 466.408
632 0 84.2187 13.7262 1156 110.593 340.478 465.881
633 0 89.1933 13.0952 1168 112.301 340.836 463.028
634 0 91.2017 11.9406 1089 114.457 340.631 463.713
635 0 95.3884 13.4608 1284 110.255 340.772 459.752
636 1 49.0749 10.4942 515 112.132 341.924 483.264
637 0 49.1459 11.8016 580 110.234 341.566 481.184
638 0 51.0997 12.2114 624 100.971 341.812 483.304
639 0 52.0742 11.3684 592 102.625 342.176 482.321
640 0 53.0329 12.7657 677 100.443 342.549 481.188
641 0 56.0413 13.0975 734 99.4142 341.808 479.339
642 0 56.0441 12.0441 675 102.298 341.587 479.279
643 0 58.0233 11.5298 669 103.565 341.003 477.146
644 0 61.0175 11.7016 714 101.679 341.388 475.457
645 0 63.1002 12.805 808 99.7067 341.499 474.667
646 0 67.0653 12.6146 846 98.8783 340.813 475.634
647 0 67.1196 12.6044 846 100.066 341.035 474.259
648 0 71.106 11.3633 808 102.73 341.094 473.484
649 0 73.1434 11.8808 869 102.349 340.988 471.835
650 0 76.0389 12.967 986 99.2211 340.818 472.318
651 0 78.0798 12.4616 973 106.054 340.663 469.522
652 0 80.1059 13.0203 1043 106.189 340.72 466.999
653 1 40.076 11.1039 445 104.497 341.229 487.146
654 0 40.015 11.0209 441 105.528 341.642 486.594
655 0 43.0156 12.1119 521 102.749 342.215 486.073
656 0 42.0281 11.6351 489 104.849 342.313 485.53
657 0 44.0682 11.7318 517 104.186 342.201 485.155
658 0 47.0896 12.317 580 102.078 342.04 484.641
659 0 48.0883 12.2067 587 104.041 341.269 482.319
660 0 49.0289 12.2989 603 104.095 341.156 483.905
661 0 51.0546 12.614 644 104.2 340.988 483.174
662 0 53.0899 12.7708 678 104.032 340.777 481.454
663 0 55.0772 13.4357 740 102.685 341.195 481.647
664 0 56.1098 12.1726 683 106.114 340.892 477.635
665 0 57.0519 12.4623 711 103.428 340.823 480.703
666 0 59.0843 13.8108 816 101.811 341.001 478.903
667 0 61.0827 13.3262 814 104.918 340.725 476.356
668 0 61.1006 12.373 756 109.065 340.955 474.997
669 0 67.1319 13.6746 918 105.061 341.119 473.997
670 0 67.0934 12.6987 852 109.317 341.221 473.155
671 0 72.0782 13.2079 952 107.725 341.02 470.941
672 0 71.0907 13.2366 941 110.427 341.027 472.348
673 0 77.0918 15.0211 1158 105.384 340.642 470.377
674 0 78.0709 14.1666 1106 110.44 340.854 469.819
675 0 81.1168 14.1401 1147 110.189 341.535 468.683
676 0 84.1277 14.6325 1231 110.056 341.032 469.641
677 0 85.1311 13.027 1109 116.04 340.766 467.262
678 0 89.0987 13.7376 1224 115.207 341.189 465.481
679 0 92.1282 14.1976 1308 114.222 340.56 463.159
680 0 95.1283 14.3701 1367 113.778 339.986 464.004
681 0 99.137 15.1104 1498 112.781 340.709 460.37
682 1 52.0525 10.6623 555 123.243 340.978 482.732
683 0 54.1673 13.5875 736 116.542 339.704 481.048
684 0 54.0781 12.7223 688 113.052 341.315 481.741
685 0 56.1365 12.2736 689 113.412 341.019 479.747
686 0 57.0784 12.1587 694 113.817 340.83 480.135
687 0 61.0383 13.4178 819 109.621 340.792 479.458
688 0 63.1374 14.2388 899 107.394 340.634 478.603
689 0 64.1206 13.2407 849 110.846 340.161 477.868
690 0 66.0512 13.0808 864 112.348 340.148 475.248
691 0 67.1577 12.0463 809 115.038 339.169 475.387
692 0 69.1706 12.0138 831 115.606 339.024 474.282
693 0 71.1676 12.1966 868 115.151 339.103 470.565
694 0 75.0578 12.4837 937 113.583 338.88 471.827
695 0 77.2117 12.5111 966 115.173 339.016 468.996
696 0 81.0508 14.2503 1155 110.463 338.635 467.611
697 0 84.1069 14.2676 1200 109.687 339.375 468.212
698 0 85.1051 13.3717 1138 112.991 339.21 466.19
699 0 87.2274 12.5075 1091 116.174 339.288 464.423
700 0 92.1023 13.6153 1254 113.197 338.843 463.513
701 0 95.1308 13.5708 1291 113.727 339.029 460.009
702 0 97.2002 13.4465 1307 114.23 339.155 459.052
703 1 52.0558 12.4482 648 113.353 339.827 481.66
704 0 54.0353 13.2876 718 110.861 339.539 479.747
705 0 56.1023 12.1385 681 111.758 340.608 480.533
706 0 58.143 12.6069 733 109.879 341 479.228
707 0 59.0886 12.862 760 110.013 340.932 476.682
708 0 61.0742 13.5245 826 108.068 340.841 476.932
709 0 61.0614 12.5284 765 110.19 341.101 477.254
710 0 66.0801 13.9679 923 105.398 341.231 474.927
711 0 67.0611 13.182 884 107.771 340.994 473.545
712 0 69.0733 13.8838 959 106.331 341.033 472.603
713 0 69.1246 12.557 868 110.768 341.073 472.067
714 0 73.0907 14.5573 1064 104.998 341.576 470.592
715 0 75.0758 12.4674 936 110.406 340.79 467.326
716 0 78.0969 14.3668 1122 105.807 340.917 467.091
717 0 80.119 13.2678 1063 108.246 342.062 467.156
718 0 82.1086 12.727 1045 110.242 341.446 467.951
719 0 84.0963 12.1765 1024 113.017 340.719 466.606
720 0 88.0901 12.7256 1121 111.202 340.886 462.11
721 0 90.2281 12.9561 1169 111.114 340.74 461.881
722 0 94.0775 12.2665 1154 113.075 341.269 459.75
723 1 51.0783 11.6684 596 109.064 342.151 481.921
724 0 52.0216 11.0916 577 114.099 342.296 482.87
725 0 53.021 12.9006 684 110.667 341.547 479.364
726 0 55.115 12.5193 690 112.377 341.075 480.797
727 0 58.0917 13.2549 770 110.327 341.382 477.714
728 0 60.0444 12.0911 726 112.628 341.49 477.93
729 0 62.0493 12.893 800 111.824 340.998 475.298
730 0 65.0293 12.256 797 112.61 341.731 475.704
731 0 67.0353 12.7396 854 112.85 341.316 474.523
732 0 68.0526 12.8136 872 113.742 341.359 472.017
733 0 73.0781 13.1503 961 111.361 341.716 473.104
734 0 75.097 13.0365 979 111.557 341.593 472.963
735 0 77.0765 13.3634 1030 112.545 341.35 470.44
736 0 79.0523 13.8389 1094 113.079 341.144 467.002
737 0 82.1472 13.2567 1089 113.713 341.991 466.967
738 0 84.1309 11.9932 1009 117.708 341.474 464.841
739 0 89.0756 13.5727 1209 114.763 340.787 463.195
740 0 92.0611 13.5997 1252 113.903 340.486 464.426
741 0 92.1243 12.1141 1116 120.656 340.121 459.435
742 1 49.0252 11.4635 562 114.055 340.347 485.518
743 0 49.1639 11.3091 556 115.899 338.381 478.84
744 0 51.0439 11.6175 593 116.088 340.99 482.408
745 0 52.298 12.1611 636 115.56 341.197 481.675
746 0 55.1722 12.3613 682 115.309 341.192 481.348
747 0 54.2004 12.0294 652 117.791 341.156 481.252
748 0 55.3029 12.748 705 117.394 341.177 478.467
749 0 57.2554 12.2434 701 118.922 341.154 477.969
750 0 61.2611 13.32 816 114.919 340.575 476.433
751 0 63.2188 13.129 830 115.853 341.255 476.075
752 0 63.0983 13.0115 821 115.238 341.42 475.044
753 0 65.105 12.0114 782 116.91 341.591 475.643
754 0 68.0753 13.5144 920 113.671 341.473 473.702
755 0 71.1437 12.5661 894 116.218 340.963 471.69
756 0 71.1982 11.2643 802 119.501 341.348 474.212
757 0 76.1187 13.5578 1032 114.535 342.003 470.306
758 0 78.138 12.8235 1002 116.562 341.193 469.965
759 0 80.1769 12.435 997 118.644 340.994 466.808
760 0 84.1652 13.925 1172 114.414 340.946 466.235
761 0 84.0919 11.4874 966 120.546 340.87 463.493
762 1 44.0712 10.0519 443 116.657 341.059 485.573
763 0 45.0931 10.2455 462 111.392 341.522 482.647
764 0 46.0526 9.96686 459 113.298 341.667 482.275
765 0 50.0535 12.4267 622 112.386 341.387 484.32
766 0 51.0272 11.4253 583 114.213 341.859 483.062
767 0 54.0414 12.3979 670 112.207 341.767 481.318
768 0 54.072 12.7793 691 113.213 341.397 481.051
769 0 54.0264 11.7905 637 115.816 341.631 480.334
770 0 57.0384 12.9211 737 112.399 341.847 478.426
771 0 57.0452 11.6574 665 117.427 341.633 477.609
772 0 62.0583 13.6968 850 110.894 341.446 478.764
773 0 63.0359 13.5954 857 112.487 341.187 475.441
774 0 63.048 11.8798 749 117.756 341.925 475.374
775 0 66.0387 12.6138 833 115.672 341.788 475.636
776 0 67.1331 12.438 835 116.632 342.232 474.48
777 0 71.0484 12.9771 922 115.393 342.822 474.413
778 0 74.0458 13.3701 990 114.995 342.445 473.132
779 0 74.0872 12.3368 914 119.409 342.058 472.219
780 0 76.061 13.0027 989 117.986 341.681 468.73
781 0 80.1296 13.8526 1110 116.538 341.737 467.859
782 0 83.0525 13.5095 1122 116.757 341.172 468.612
783 0 86.1077 13.2857 1144 117.986 341.526 466.553
784 1 45.1096 11.3723 513 115.591 341.963 486.025
785 0 45.0244 12.4599 561 114.61 340.775 486.624
786 0 47.0451 12.5411 590 104.583 339.305 485.198
787 0 50.0394 13.3295 667 103.64 340.588 486.274
788 0 48.0342 11.7833 566 111.182 340.465 484.154
789 0 50.0998 13.3733 670 106.885 340.533 480.675
790 0 51.0404 12.6958 648 101.881 341.076 481.244
791 0 53.0416 12.8955 684 108.44 339.944 481.613
792 0 55.0349 12.0287 662 110.003 340.876 482.11
793 0 56.0696 13.2157 741 107.682 340.188 481.277
794 0 57.051 13.0585 745 109.15 340.421 480.113
795 0 59.0594 12.8007 756 110.69 341.288 480.44
796 0 62.0813 13.7078 851 108.147 340.892 477.907
797 0 63.0653 13.161 830 110.978 340.775 477.257
798 0 65.0873 14.35 934 107.825 340.711 477.14
799 0 65.0585 13.0652 850 113.354 340.889 475.384
800 0 69.1418 13.6965 947 110.774 339.988 474.848
801 0 70.0875 12.8126 898 114.394 339.801 473.371
802 0 72.1046 12.5096 902 116.565 340.241 473.307
803 0 75.1418 14.0801 1058 112.771 340.214 472.216
804 0 78.1858 13.3016 1040 115.181 340.005 470.924
805 0 80.1028 12.7961 1025 117.247 340.304 470.455
806 1 41.0295 10.529 432 122.155 341.44 488.245
807 0 42.0564 11.8888 500 120.362 339.954 487.74
808 0 45.1349 11.4767 518 119.432 340.66 485.349
809 0 46.155 13.0647 603 116.355 341.051 484.859
810 0 48.0497 12.9033 620 116.5 340.461 485.244
811 0 48.0169 12.9746 623 117.716 340.679 484.668
812 0 49.0694 13.0631 641 116.853 340.551 483.599
813 0 53.0636 13.5121 717 113.934 340.357 482.883
814 0 52.0961 12.8992 672 117.375 340.182 481.549
815 0 55.0261 13.5935 748 115.59 339.291 481.08
816 0 57.116 13.8315 790 114.61 339.423 479.392
817 0 60.0995 13.1781 792 114.468 339.064 480.754
818 0 62.0918 12.9003 801 114.895 339.598 478.099
819 0 62.0682 12.4863 775 117.208 339.738 478.36
820 0 66.0602 14.0175 926 112.127 339.394 477.513
821 0 68.0824 13.2633 903 113.774 338.951 474.889
822 0 71.0363 13.2608 942 113.017 338.931 474.119
823 0 72.0722 12.6124 909 114.983 338.925 472.497
824 0 75.0746 12.5875 945 114.194 338.665 472.926
825 0 79.0492 12.4985 988 113.935 338.902 469.097
826 0 81.0745 12.8647 1043 113.113 339.205 470.035
827 1 42.1172 11.1593 470 113.743 339.915 488.806
828 0 42.0743 11.7649 495 112.939 341.125 487.321
829 0 42.0615 12.4104 522 112.314 341.044 486.174
830 0 45.1437 12.7814 577 109.707 341.435 484.769
831 0 45.0618 11.34 511 113.992 340.904 485.624
832 0 47.0795 12.6382 595 110.941 340.81 485.41
833 0 50.08 13.8578 694 106.432 340.486 482.873
834 0 52.1094 13.2606 691 107.043 340.641 484.284
835 0 53.0469 12.3287 654 110.584 340.917 481.937
836 0 54.0629 13.3178 720 107 340.692 481.321
837 0 55.0522 13.4781 742 107.907 340.774 480.795
838 0 57.0691 12.7389 727 108.289 341.532 480.963
839 0 60.0811 12.1502 730 110.478 341.074 479.037
840 0 61.0851 13.5548 828 107.233 341.03 477.273
841 0 62.1693 13.2702 825 108.836 340.868 475.686
842 0 67.0894 13.4149 900 106.309 340.6 475.941
843 0 69.1188 12.9921 898 108.761 340.796 474.794
844 0 70.1282 13.019 913 108.193 340.708 474.774
845 0 73.1424 12.4415 910 110.152 340.723 472.173
846 0 75.0915 12.9842 975 109.642 341.152 471.334
847 0 78.0758 12.5775 982 110.185 340.554 471.484
848 0 79.0919 12.6688 1002 111.434 340.539 466.563
849 1 42.1527 12.3124 519 113.53 341.075 487.075
850 0 46.1052 13.6644 630 107.838 341.129 486.067
851 0 45.1666 12.5093 565 112.552 341.292 483.396
852 0 47.2229 11.9857 566 114.134 340.952 483.86
853 0 49.2397 12.429 612 114.784 340.603 482.807
854 0 48.0164 12.0167 577 118.742 340.809 483.426
855 0 49.0587 12.4748 612 117.974 340.966 481.19
856 0 53.1607 12.2271 650 116.908 340.997 481.394
857 0 55.0699 13.1651 725 115.509 340.297 479.479
858 0 56.1249 12.6147 708 117.314 340.987 481.017
859 0 57.1605 13.6458 780 116.206 340.427 478.133
860 0 62.1629 13.2877 826 116.109 340.13 476.729
861 0 62.1843 13.0419 811 118.202 340.006 475.989
862 0 65.1919 13.4679 878 117.412 340.711 475.461
863 0 67.262 13.3062 895 118.047 339.93 474.79
864 0 68.1326 12.8573 876 121.32 339.683 473.88
865 0 70.1264 12.6201 885 122.775 340.247 473.056
866 0 71.132 13.5242 962 120.847 339.788 472.943
867 0 75.1187 13.3788 1005 120.911 340.013 470.791
868 0 76.1277 12.5184 953 117.944 339.599 467.667
869 0 80.0968 12.9593 1038 117.367 339.239 467.558
870 0 83.0408 13.102 1088 117.42 339.957 467.626
871 0 86.1167 13.4701 1160 117.108 339.775 466.066
872 0 87.0925 12.9288 1126 120.008 339.555 466.451
873 0 90.0972 14.5288 1309 117.233 339.866 462.273
874 0 94.1327 13.5341 1274 120.509 339.133 459.66
875 0 96.3221 13.5794 1308 120.021 340.027 458.379
876 0 99.1593 14.1288 1401 118.373 340.094 455.94
877 0 104.217 14.4986 1511 116.298 339.674 456.251
878 0 105.154 13.466 1416 120.484 339.528 453.234
879 0 111.17 13.8077 1535 118.291 339.677 452.89
880 1 59.0938 12.5732 743 115.065 339.314 480.752
881 0 58.0567 12.3672 718 119.008 339.772 479.135
882 0 61.0414 13.2861 811 116.513 340.613 477.506
883 0 63.0731 13.0642 824 114.897 339.939 477.201
884 0 63.1077 13.0412 823 117.349 339.926 475.097
885 0 67.1371 14.1651 951 112.857 339.784 474.943
886 0 71.143 14.1405 1006 111.661 340.112 474.14
887 0 72.202 12.5897 909 116.374 339.938 473.648
888 0 76.1858 12.8764 981 115.061 339.619 471.202
889 0 78.0883 14.6629 1145 111.65 339.783 469.837
890 0 82.035 13.4577 1104 111.639 340.008 468.773
891 0 85.0695 13.8005 1174 110.44 340.469 466.859
892 0 88.1667 13.5652 1196 110.815 340.722 465.584
893 0 91.1511 13.3844 1220 111.56 340.176 465.524
894 0 95.1385 14.1163 1343 108.16 340.566 456.587
895 0 96.201 12.7338 1225 112.344 340.46 457.122
896 1 51.0557 11.3601 580 118.207 339.843 484.502
897 0 53.019 12.4295 659 118.994 340.589 482.411
898 0 54.0569 13.8373 748 111.896 340.119 481.186
899 0 57.0552 13.706 782 111.862 340.696 480.719
900 0 58.0821 12.7406 740 114.505 340.266 479.841
901 0 59.143 13.628 806 112.625 340.029 479.548
902 0 63.0732 13.7301 866 112.468 340.252 476.872
903 0 65.1285 14.5098 945 109.907 340.661 477.59
904 0 68.0732 13.9409 949 111.28 340.56 475.821
905 0 69.1396 14.449 999 109.934 340.894 475.681
906 0 72.1611 14.5369 1049 109.121 340.788 472.781
907 0 73.1392 13.6042 995 111.525 340.517 471.609
908 0 78.1097 14.1468 1105 107.332 340.396 470.368
909 0 81.0915 14.0705 1141 104.426 339.923 467.492
910 0 84.0771 13.0238 1095 106.833 340.026 467.953
911 0 88.106 13.1887 1162 106.122 339.507 463.522
912 0 90.0518 13.7143 1235 105.458 339.984 462.7
913 0 93.0903 12.9444 1205 107.204 339.898 461.71
914 1 50.0308 11.7528 588 104.134 340.563 482.138
915 0 52.0357 11.1654 581 105.317 340.158 482.41
916 0 54.0768 12.7226 688 100.882 340.31 481.033
917 0 56.0506 12.2925 689 101.559 340.781 480.562
918 0 59.0723 12.5439 741 101.719 340.1 478.76
919 0 59.1181 12.585 744 102.426 340.863 478.704
920 0 60.0756 12.2179 734 104.396 340.379 476.568
921 0 64.0649 13.1585 843 102.167 340.072 476.624
922 0 65.0563 13.4191 873 101.101 340.325 476.379
923 0 67.073 12.3298 827 104.198 340.577 474.181
924 0 70.0865 13.7544 964 100.957 340.216 473.766
925 0 71.1392 12.7637 908 104.076 340.517 472.345
926 0 74.0748 12.7439 944 104.654 340.293 470.588
927 0 77.0571 12.9255 996 104.167 339.409 471.105
928 0 78.0713 12.7319 994 105.122 339.487 471.359
929 0 80.106 12.5708 1007 106.629 340.236 468.521
930 0 85.1003 13.1139 1116 104.411 339.85 467.663
931 0 87.0876 12.7573 1111 106.131 339.555 464.716
932 0 90.097 13.4078 1208 105.28 339.935 464.609
933 0 92.0755 12.544 1155 107.94 340.019 464.595
934 0 94.1039 11.9974 1129 109.597 340.36 462.079
935 0 98.2128 13.3486 1311 107.639 340.153 459.809
936 1 54.0839 11.3157 612 106.846 340.809 482.915
937 0 55.1924 12.2118 674 107.788 340.951 477.46
938 0 59.1969 13.1595 779 104.276 340.745 474.036
939 0 60.1253 12.2411 736 105.764 341.061 478.418
940 0 63.1501 11.8923 751 106.526 340.944 478.457
941 0 61.1262 12.5969 770 108.009 339.935 476.851
942 0 66.1842 13.0847 866 104.826 339.871 475.169
943 0 69.2613 12.8932 893 105.103 339.579 472.576
944 0 70.2718 11.854 833 107.742 339.14 468.984
945 0 74.2926 12.9488 962 105.514 339.685 466.966
946 0 78.3246 12.1673 953 106.994 339.438 464.361
947 0 80.4116 13.2444 1065 104.715 339.391 465.088
948 0 81.3292 11.8777 966 107.786 339.743 464.342
949 0 85.4066 12.2473 1046 107.588 339.658 461.456
950 0 89.4107 12.5712 1124 106.667 339.617 460.276
951 0 92.4069 12.9103 1193 106.363 339.448 458.28
952 0 94.2758 12.7923 1206 107.109 339.386 456.277
953 0 99.4895 12.7853 1272 107.178 339.634 454.607
954 1 49.2082 11.238 553 107.646 340.649 476.371
955 0 53.1104 12.9541 688 102.416 341.218 481.922
956 0 55.0429 12.0633 664 104.253 341.52 480.604
957 0 55.0759 11.6748 643 105.389 341.518 479.807
958 0 58.0442 12.5422 728 104.349 342.117 477.853
959 0 63.0365 13.3891 844 101.992 341.244 479.217
960 0 63.0293 13.4541 848 105.55 340.922 476.239
961 0 64.1066 12.8848 826 108.488 341.369 474.626
962 0 66.1231 13.4446 889 107.742 341.371 474.343
963 0 68.289 12.3446 843 111.319 341.269 472.087
964 0 70.2153 12.4047 871 112.457 340.845 468.94
965 0 73.1886 12.9802 950 111.091 340.903 470.509
966 0 76.2504 13.4163 1023 112.566 340.576 464.401
967 0 78.1914 13.6076 1064 113.891 340.569 464.11
968 0 81.4339 13.1518 1071 115.627 340.376 462.711
969 0 83.3196 13.0942 1091 117.214 340.152 461.301
970 0 85.3743 13.962 1192 116.237 339.988 461.535
971 0 87.3743 12.4522 1088 120.927 339.733 458.642
972 0 93.5171 13.3131 1245 118.778 339.911 457.819
973 0 96.3508 14.4368 1391 117.058 340.01 456.433
974 0 98.2684 14.0635 1382 119.439 340.282 452.861
975 0 100.307 14.0868 1413 120.643 340.266 450.864
976 0 104.333 13.1597 1373 122.698 339.717 450.974
977 1 50.1567 12.0423 604 116.589 341.159 475.881
978 0 52.303 13.5748 710 112.635 340.782 476.231
979 0 55.0613 12.368 681 115.238 341.17 479.684
980 0 57.2265 12.8437 735 114.35 340.697 478.237
981 0 58.1181 13.9543 811 112.355 341.625 475.39
982 0 60.0988 13.4279 807 113.098 341.28 475.465
983 0 62.4571 13.2251 826 114.238 340.895 471.229
984 0 64.3005 13.4369 864 113.422 340.664 470.503
985 0 66.261 13.2808 880 113.843 340.155 469.826
986 0 69.282 13.1203 909 113.311 340.647 469.032
987 0 71.2606 12.7139 906 114.724 340.5 467.449
988 0 75.3685 14.4092 1086 110.053 341.113 466.463
989 0 74.2619 12.6848 942 115.128 341.197 464.316
990 0 78.3599 13.3487 1046 112.94 340.944 462.873
991 0 79.2959 12.8758 1021 114.094 340.879 462.412
992 0 84.3928 14.1718 1196 111.138 340.62 461.005
993 0 85.3357 13.3707 1141 114.201 341.41 459.746
994 0 86.3768 13.9273 1203 113.23 340.584 458.742
995 0 91.4327 13.9884 1279 112.441 340.805 457.002
996 0 92.2975 12.3405 1139 116.114 340.348 454.568
997 1 49.2089 12.0303 592 109.483 341.008 476.541
998 0 50.1609 11.8818 596 108.923 341.468 476.378
999 0 54.1178 12.5837 681 107.584 340.799 478.581
1000 0 55.1459 12.0408 664 108.767 340.919 478.307
1001 0 57.0984 12.8375 733 106.205 339.865 477.523
1002 0 58.1734 12.6518 736 108.538 340.164 473.898
1003 0 61.1587 13.2115 808 105.906 340.983 474.314
1004 0 64.1589 13.0146 835 106.321 340.354 473.692
1005 0 65.0499 11.8217 769 110.921 340.622 470.459
1006 0 67.0831 12.2087 819 109.774 341.05 470.823
1007 0 70.1214 12.1646 853 110.445 340.641 469.537
1008 0 74.1731 13.6033 1009 106.971 340.865 468.141
1009 0 76.2031 11.968 912 111.828 340.753 464.479
1010 0 78.2577 13.5833 1063 108.627 341.059 462.487
1011 0 79.3108 12.1799 966 112.972 340.434 462.203
1012 0 81.3158 12.3838 1007 112.895 340.406 461.449
1013 0 85.2876 13.4955 1151 110.718 340.815 459.622
1014 0 86.2662 12.4382 1073 114.014 340.542 457.489
1015 0 88.3553 12.5629 1110 115.354 340.231 455.854
1016 0 92.3509 13.9251 1286 111.691 340.449 454.512
1017 0 95.2312 13.9975 1333 111.629 340.63 452.095
1018 0 99.4472 13.9974 1392 111.772 340.42 449.399
1019 0 101.326 13.3431 1352 113.026 339.963 450.558
1020 1 54.1698 11.9439 647 104.991 341.943 475.683
1021 0 57.1676 10.303 589 108.458 341.248 474.256
1022 0 58.1742 11.8781 691 106.346 340.634 471.909
1023 0 57.105 11.4351 653 109.021 340.305 475.847
1024 0 62.0309 12.7356 790 105.866 340.153 474.199
1025 0 62.1059 12.3821 769 106.81 340 472.302
1026 0 67.083 12.8498 862 104.79 339.914 472.408
1027 0 67.1717 13.4729 905 105.232 340.046 468.641
1028 0 70.1082 12.1669 853 108.531 339.707 467.977
1029 0 74.0403 13.5332 1002 104.824 339.908 467.703
1030 0 75.1212 12.2069 917 107.349 340.222 468.504
1031 0 76.0719 12.2647 933 109.228 340.047 463.532
1032 0 80.0639 11.6157 930 110.413 340.93 466.173
1033 0 83.0466 12.5231 1040 108.938 340.812 464.426
1034 0 84.2203 11.9924 1010 111.672 340.96 461.204
1035 0 89.1025 12.6932 1131 110.376 340.824 461.038
1036 0 90.0818 11.9891 1080 113.189 340.534 457.07
1037 0 94.1276 12.2918 1157 111.33 340.956 455.438
1038 0 99.1419 12.7292 1262 110.395 341.06 451.05
1039 0 102.35 12.3693 1266 111.28 341.551 447.69
1040 0 107.235 11.638 1248 113.189 341.207 447.886
1041 1 54.0985 9.46422 512 105.549 342.729 477.146
1042 0 57.1436 11.0074 629 103.456 341.048 475.459
1043 0 58.0338 10.8902 632 103.372 339.538 471.256
1044 0 58.1392 11.0769 644 105.955 340.901 470.469
1045 0 59.089 9.96801 589 108.153 340.591 470.306
1046 0 63.1093 10.6799 674 106.32 340.23 470.485
1047 0 67.0645 10.7508 721 107.085 341.39 470.415
1048 0 68.03 10.3043 701 109.478 341.262 468.224
1049 0 70.1355 11.0073 772 108.896 340.592 471.479
1050 0 73.0222 11.8457 865 108.704 341.017 468.282
1051 0 75.1341 12.2714 922 108.603 341.233 469.691
1052 0 77.314 11.5115 890 112.321 340.635 465.239
1053 0 80.2099 12.1681 976 111.434 341.032 463.389
1054 0 82.141 11.7724 967 113.069 341.929 461.716
1055 0 84.2122 11.9816 1009 112.901 341.144 461.071
1056 0 87.1601 11.5649 1008 112.608 341.057 463.141
1057 0 89.2585 11.6516 1040 114.929 341.143 459.012
1058 0 93.3483 12.0088 1121 113.443 341.012 455.525
1059 0 96.4411 10.566 1019 116.606 340.683 457.767
1060 1 52.1281 9.57257 499 110.902 339.908 480.05
1061 0 54.2747 11.0364 599 107.608 339.114 477.476
1062 0 54.2472 11.1342 604 109.808 339.358 476.425
1063 0 57.023 11.1183 634 109.543 340.812 477.268
1064 0 59.1082 11.9273 705 106.095 339.352 476.559
1065 0 62.0432 12.4107 770 105.175 338.858 476.439
1066 0 65.1058 12.3645 805 105.605 339.17 473.395
1067 0 67.0737 12.1359 814 106.15 339.362 472.633
1068 0 69.0771 11.7695 813 108.638 339.203 471.661
1069 0 70.1131 11.6098 814 110.49 338.972 472.462
1070 0 73.1559 12.7126 930 108.576 339.226 470.243
1071 0 76.096 11.8929 905 111.482 339.621 469.081
1072 0 77.1264 12.4601 961 111.243 339.41 467.972
1073 0 80.1048 12.4337 996 112.157 339.725 466.031
1074 0 81.1374 11.992 973 115.159 339.81 463.881
1075 0 82.1176 11.4105 937 117.524 339.194 464.679
1076 0 86.1362 12.1087 1043 116.428 340.075 461.582
1077 0 88.1833 12.5421 1106 115.859 340.269 462.068
1078 0 92.0886 13.2264 1218 114.447 340.089 460.902
1079 0 97.1156 13.4067 1302 115.107 339.953 458.965
1080 0 100.193 12.6555 1268 116.782 339.795 458.149
1081 0 103.085 12.3879 1277 118.399 339.991 455.349
1082 0 105.106 13.2247 1390 117.235 340.265 454.293
1083 1 61.0756 11.101 678 119.732 338.94 475.813
1084 0 62.0984 12.7862 794 117.499 339.23 474.275
1085 0 63.0576 10.7362 677 120.267 339.329 474.6
1086 0 65.0481 12.6214 821 116.119 338.896 473.907
1087 0 67.0569 13.5556 909 113.776 338.631 470.864
1088 0 71.0771 13.0563 928 113.827 338.902 469.86
1089 0 70.1154 12.5507 880 116.662 338.741 470.076
1090 0 74.1892 13.1286 974 114.813 339.58 469.511
1091 0 76.2057 12.7943 975 114.742 339.224 467.524
1092 0 78.0952 13.0994 1023 113.951 339.288 466.526
1093 0 80.0704 12.514 1002 115.842 339.162 464.257
1094 0 83.1415 13.026 1083 114.102 339.533 463.024
1095 0 87.1079 13.2365 1153 112.868 338.677 460.686
1096 0 89.0879 12.8974 1149 113.082 339.076 459.689
1097 0 91.049 11.6531 1061 116.063 339.022 457.982
1098 0 95.0971 12.7343 1211 113.51 338.813 456.441
1099 0 98.1182 11.5881 1137 116.669 338.873 454.588
1100 1 51.0483 10.9308 558 113.824 338.156 480.599
1101 0 54.057 10.9144 590 112.153 339.22 479.892
1102 0 53.0437 10.8778 577 112.809 338.584 477.816
1103 0 54.074 12.5754 680 108.562 338.971 477.9
1104 0 58.0978 12.7027 738 111.728 339.221 475.626
1105 0 60.18 11.5653 696 114.006 339.181 475.125
1106 0 60.2091 11.7092 705 114.132 338.628 475.421
1107 0 63.1617 11.431 722 113.843 339.215 473.418
1108 0 64.1883 12.6035 809 111.457 339.042 473.251
1109 0 67.1612 12.5966 846 110.344 339.582 473.051
1110 0 66.1252 11.5538 764 115.309 338.823 470.819
1111 0 70.2409 13.4395 944 110.419 339.524 468.453
1112 0 73.3338 13.8272 1014 109.57 339.392 468.164
1113 0 76.387 11.4941 878 114.096 338.902 467.008
1114 0 76.2456 11.0957 846 116.787 339.161 464.691
1115 0 80.3033 12.0169 965 114.106 339.264 462.474
1116 0 83.395 12.6386 1054 112.643 339.464 462.777
1117 0 87.0817 11.6557 1015 106.281 339.841 463.487
1118 0 89.0899 11.5614 1030 107.868 339.687 458.525
1119 1 47.0517 12.0293 566 102.73 339.684 482.083
1120 0 46.2027 11.2764 521 106.058 341.248 478.488
1121 0 51.0693 13.4327 686 99.0306 341.726 480.554
1122 0 53.096 11.8653 630 101.411 342.013 479.644
1123 0 54.1009 12.2734 664 101.745 341.435 479.108
1124 0 55.1076 10.7426 592 105.742 341.361 477.204
1125 0 56.1458 11.4879 645 105.685 341.552 476.335
1126 0 59.0288 12.8581 759 102.519 341.074 475.134
1127 0 60.0732 11.3861 684 105.437 340.699 473.048
1128 0 63.0649 13.2245 834 105.397 341.267 471.355
1129 0 65.0499 13.7279 893 103.922 340.831 472.225
1130 0 67.0552 12.2884 824 107.421 340.665 470.239
1131 0 69.0426 13.1513 908 106.92 341.053 469.61
1132 0 70.0594 12.9176 905 107.823 340.985 469.336
1133 0 73.0527 11.964 874 110.468 340.836 467.638
1134 0 76.0351 13.8752 1055 106.48 341.06 465.73
1135 0 76.1273 12.0456 917 112.025 341.481 464.92
1136 0 80.0603 13.1276 1051 109.071 341.065 462.551
1137 0 83.1257 11.633 967 106.772 341.93 464.086
1138 0 86.0564 11.202 964 107.733 341.956 462.838
1139 1 46.0522 10.1624 468 108.553 342.233 482.56
1140 0 44.0533 9.64741 425 109.784 341.249 482.353
1141 0 47.09 11.7222 552 106.304 341.65 481.98
1142 0 49.1399 11.2332 552 106.351 341.652 480.676
1143 0 51.0612 12.0248 614 104.873 341.134 478.969
1144 0 54.1109 13.6756 740 99.8676 340.761 479.662
1145 0 53.0479 12.008 637 106.684 341.378 477.212
1146 0 56.0504 12.5066 701 105.198 341.384 476.154
1147 0 58.1167 12.8018 744 104.204 339.954 476.148
1148 0 60.0528 13.0885 786 104.76 340.522 474.207
1149 0 62.0584 12.037 747 107.501 339.71 475.501
1150 0 64.0565 13.8628 888 103.636 339.765 472.75
1151 0 65.084 14.3353 933 103.384 340.19 472.621
1152 0 68.0889 13.174 897 106.113 339.999 472.051
1153 0 68.0576 13.1212 893 107.409 340.469 471.476
1154 0 70.0593 13.3601 936 107.084 340.409 468.86
1155 0 74.0933 13.1456 974 107.439 339.915 470.259
1156 0 76.0675 13.2251 1006 107.34 339.859 466.784
1157 0 79.0992 13.6285 1078 106.372 340.322 465.41
1158 0 82.0953 13.3747 1098 105.819 339.884 465.634
1159 0 81.1172 12.1676 987 110.58 340.58 462.312
1160 0 84.1517 12.929 1088 109.47 340.312 461.017
1161 0 88.0517 12.7425 1122 110.806 340.414 460.242
1162 0 91.0737 12.726 1159 110.944 340.407 457.267
1163 1 48.0307 10.7223 515 109.713 341.567 478.732
1164 0 45.0949 9.69068 437 109.757 339.858 475.998
1165 0 48.0926 10.2926 495 107.438 340.747 473.646
1166 0 50.1338 11.0704 555 105.382 340.742 473.667
1167 0 52.1423 10.0494 524 100.66 339.166 472.09
1168 0 56.0994 11.9787 672 95.7827 339.219 474.808
1169 0 55.0591 11.4423 630 105.832 338.524 479.254
1170 0 57.0722 11.722 669 105.082 338.667 477.689
1171 0 60.0597 11.4053 685 104.277 337.972 476.909
1172 0 65.0616 13.5256 880 95.825 338.661 472.663
1173 0 64.0328 12.8216 821 99.3143 338.644 474.044
1174 0 65.0807 12.231 796 101.913 339.17 471.51
1175 0 67.0759 12.2697 823 100.286 340.618 471.944
1176 0 69.0577 12.0334 831 100.789 340.757 471.8
1177 0 73.0819 12.1918 891 100.453 340.875 468.136
1178 0 74.0603 10.1134 749 103.458 341.005 471.299
1179 0 79.1167 13.8277 1094 96.7815 340.137 466.388
1180 0 82.1635 12.8646 1057 98.9186 340.122 464.553
1181 0 83.2181 12.0887 1006 100.818 340.648 464.601
1182 0 87.1158 11.3642 990 101.641 340.431 462.966
1183 1 48.0624 12.0885 581 99.4578 340.532 481.401
1184 0 50.068 13.242 663 97.0905 340.179 480.561
1185 0 52.0575 13.5811 707 97.0283 340.653 480.683
1186 0 53.0534 12.0256 638 101.853 340.981 477.718
1187 0 54.1671 12.443 674 97.8605 340.869 478.957
1188 0 55.0641 12.9122 711 97.8523 339.965 479.941
1189 0 58.1424 14.5849 848 94.8691 340.149 474.858
1190 0 58.1627 11.1927 651 103.333 340.768 477.845
1191 0 58.1694 11.6556 678 104.273 340.823 476.09
1192 0 61.2108 12.2037 747 102.983 340.849 474.118
1193 0 63.0859 11.2386 709 105.484 340.394 474.417
1194 0 65.1303 11.8685 773 105.211 340.364 470.887
1195 0 67.1974 12.1136 814 104.846 340.964 471.666
1196 0 71.1169 12.7255 905 102.67 341.084 471.128
1197 0 72.096 12.7192 917 104.598 340.774 470.141
1198 0 72.1599 11.4884 829 109.159 341.069 466.075
1199 0 76.2282 11.7673 897 107.447 341.619 467.043
1200 0 79.1878 10.9234 865 109.821 341.378 467.578
1201 0 82.1296 12.0176 987 108.82 341.072 463.625
1202 0 86.0744 12.5124 1077 108.617 341.142 461.827
1203 0 87.0708 11.795 1027 112.602 341.134 459.522
1204 1 50.0078 11.8981 595 112.368 341.106 478.795
1205 0 52.0273 11.8207 615 107.333 340.468 475.286
1206 0 52.083 11.1361 580 101.624 340.719 475.529
1207 0 53.1453 11.6473 619 101.517 340.015 474.861
1208 0 54.2173 10.5686 573 104.405 340.108 474.225
1209 0 56.2031 12.0812 679 101.555 340.124 472.138
1210 0 60.1844 12.0962 728 101.35 339.909 473.158
1211 0 61.0627 12.8229 783 100.298 339.986 472
1212 0 64.1151 11.4326 733 103.094 339.595 473.143
1213 0 64.1564 11.7525 754 112.582 340.682 473.577
1214 0 66.1296 12.0823 799 110.196 340.521 472.541
1215 0 68.0611 11.7394 799 111.399 340.598 470.163
1216 0 71.1124 12.1498 864 107.925 340.331 470.721
1217 0 75.1844 12.2499 921 106.684 340.494 469.117
1218 0 76.0785 12.6186 960 107.393 339.983 466.101
1219 0 79.0934 12.3398 976 106.841 340.318 468.189
1220 0 81.1121 12.4026 1006 107.984 340.517 464.599
1221 0 80.1182 11.4456 917 112.038 340.52 462.639
1222 0 85.2353 11.697 997 106.523 340.398 461.778
1223 0 89.0971 12.5257 1116 101.855 339.75 459.858
1224 0 93.1093 11.8033 1099 102.718 339.318 458.765
1225 0 97.1224 11.851 1151 102.388 339.076 457.428
1226 1 51.0769 10.0633 514 98.9689 340.346 477.335
1227 0 53.1396 10.3689 551 99.4646 340.196 472.249
1228 0 54.11 11.1809 605 98.9521 339.577 471.01
1229 0 59.1515 11.5297 682 96.2595 339.196 477.984
1230 0 59.0678 11.5799 684 96.7442 339.17 476.023
1231 0 60.0579 12.5046 751 95.3968 338.78 474.357
1232 0 63.1173 12.754 805 93.0075 338.822 475.527
1233 0 63.1505 11.4013 720 97.2111 339.026 474.908
1234 0 67.1516 12.1814 818 95.2372 339.293 471.721
1235 0 68.1357 11.844 807 96.4721 339.463 469.783
1236 0 70.0599 10.8907 763 98.4391 339.216 469.982
1237 0 73.1272 13.0321 953 94.3127 339.23 468.578
1238 0 75.1342 11.9519 898 97.5323 338.896 466.651
1239 0 79.0731 12.8489 1016 96.3031 339.528 465.756
1240 0 80.0683 12.9639 1038 97.0434 338.969 464.801
1241 0 83.1311 12.5705 1045 98.7828 338.964 464.279
1242 0 85.1801 13.1016 1116 98.8799 338.998 462.291
1243 0 89.1417 12.8111 1142 99.7443 340.151 459.901
1244 0 90.1173 12.7944 1153 102.097 339.081 458.944
1245 0 94.1538 15.2835 1439 95.9416 339.532 456.52
1246 0 96.1721 13.4758 1296 101.234 339.516 455.369
1247 0 99.1853 12.4514 1235 106.126 340.072 453.876
1248 0 103.076 12.5053 1289 110.141 339.808 453.701
1249 0 105.14 13.4297 1412 108.428 339.753 452.752
1250 0 110.23 13.0001 1433 108.86 339.605 452.121
1251 0 110.256 13.0423 1438 111.195 338.527 447.132
1252 0 114.176 11.7888 1346 114.047 338.567 446.694
1253 0 119.149 12.2452 1459 112.858 339.116 441.834
1254 0 124.212 12.7524 1584 112.066 338.955 439.558
1255 0 123.237 12.1798 1501 138.155 337.963 440.779
1256 1 66.1143 9.40794 622 107.725 339.605 470.146
1257 0 68.1401 11.359 774 106.403 339.682 469.513
1258 0 73.118 12.3089 900 103.182 339.622 469.352
1259 0 74.0578 12.4767 924 102.952 339.312 467.924
1260 0 77.1175 12.0725 931 103.791 339.858 465.466
1261 0 79.1159 11.9192 943 104.591 339.655 465.714
1262 0 82.1732 11.5001 945 106.315 338.957 463.102
1263 0 86.1259 13.1203 1130 102.149 339.185 463.282
1264 0 88.0637 12.1503 1070 104.924 339.221 462.056
1265 0 91.1949 12.2595 1118 105.72 339.362 460.644
1266 0 92.201 11.2689 1039 108.49 339.294 459.638
1267 0 97.3166 12.855 1251 105.723 340.4 457.297
1268 0 100.334 12.9767 1302 106.917 339.472 454.865
1269 0 101.16 12.0107 1215 111.07 339.816 451.359
1270 0 107.152 13.5508 1452 107.261 339.211 451.5
1271 0 109.128 12.8381 1401 110.089 339.184 450.24
1272 0 112.306 11.8337 1329 114.494 339.011 447.493
1273 0 116.119 12.2632 1424 114.239 338.745 443.841
1274 0 119.201 11.4512 1365 116.837 338.99 442.173
1275 0 122.232 11.4045 1394 117.846 339.067 440.601
1276 0 126.191 12.6317 1594 116.502 338.782 434.963
1277 0 132.292 12.2532 1621 117.209 339.636 439.109
1278 0 136.252 13.5191 1842 115.893 339.116 435.34
1279 0 140.213 12.1814 1708 120.558 338.722 431.922
1280 0 145.464 12.2779 1786 121.489 339.141 430.306
1281 0 150.316 12.7465 1916 121.733 338.918 425.732
1282 0 158.403 14.4252 2285 117.869 339.021 424.432
1283 0 163.299 14.8623 2427 117.089 339.115 425.479
1284 0 167.342 14.4794 2423 119.375 340.014 420.653
1285 0 172.362 13.8894 2394 122.39 339.914 415.397
1286 0 178.385 13.4428 2398 124.083 340.093 414.85
1287 0 184.408 13.9636 2575 123.762 339.618 408.95
1288 0 189.265 12.8286 2428 125.941 339.359 411.08
1289 0 194.368 13.3664 2598 126.147 339.913 402.486
1290 0 202.265 13.9866 2829 125.253 339.084 401.095
1291 0 207.458 13.2219 2743 128.584 339.31 397.338
1292 0 215.407 13.4071 2888 127.85 339.638 392.716
1293 1 163.415 12.6488 2067 126.429 339.735 422.494
1294 0 168.341 12.5222 2108 128.468 339.578 414.657
1295 0 176.405 13.1969 2328 126.235 339.537 412.732
1296 0 181.302 12.7191 2306 127.902 340.066 409.771
1297 0 189.302 13.3543 2528 126.014 339.252 407.285
1298 0 195.328 13.4441 2626 126.841 339.572 401.846
1299 0 203.318 12.8174 2606 127.417 339.508 401.261
1300 0 209.377 12.5563 2629 128.909 339.188 394.621
1301 0 218.296 14.1459 3088 124.686 339.269 392.456
1302 0 225.447 13.6041 3067 126.979 339.796 386.277
1303 1 51.1233 9.58468 490 108.857 340.461 472.678
1304 0 54.1871 11.0358 598 107.077 338.072 473.911
1305 0 55.0823 11.274 621 110.907 340.081 479.831
1306 0 56.0451 11.7227 657 109.265 339.983 478.861
1307 0 59.1202 13.1258 776 105.336 340.161 476.795
1308 0 59.0243 11.9103 703 109.479 340.472 475.317
1309 0 63.0687 13.1127 827 105.719 340.418 475.083
1310 0 65.0873 13.7508 895 103.835 340.42 472.601
1311 0 66.0946 11.6651 771 109.864 340.464 472.545
1312 0 66.0516 11.9603 790 110.151 338.851 471.062
1313 0 69.033 11.7046 808 109.548 338.968 470.396
1314 0 74.1564 11.4758 851 107.396 340.169 469.313
1315 0 77.068 11.9375 920 105.907 341.32 467.199
1316 0 78.1167 11.8669 927 107.6 341.222 467.599
1317 1 40.0681 10.3324 414 108.251 338.413 485.824
1318 0 39.101 9.56498 374 111.521 338.131 485.955
1319 0 42.3178 12.1698 515 107.373 338.703 482.058
1320 0 41.0277 11.2119 460 108.08 337.646 484.27
1321 0 45.0605 10.2307 461 103.104 337.449 479.078
1322 0 44.0541 9.89693 436 105.89 337.736 482.787
1323 0 43.1624 10.2172 441 109.338 339.585 481.891
1324 0 45.1863 10.7333 485 105.322 337.748 477.515
1325 0 47.0801 10.0892 475 105.84 337.619 477.581
1326 0 55.1474 14.017 773 91.8913 338.391 473.96
1327 0 53.1754 13.1828 701 96.9501 337.408 476.655
1328 0 51.1145 11.2297 574 103.514 337.664 475.516
1329 0 53.087 10.511 558 105.154 338.609 476.192
1330 0 54.061 11.302 611 108.462 340.347 478.123
1331 0 57.0581 12.1981 696 105.751 339.542 476.902
1332 0 59.1722 10.7652 637 106.245 340.184 478.124
1333 0 62.1062 12.7846 794 102.902 340.593 475.055
1334 0 63.0812 12.0163 758 104.314 340.096 474.96
1335 0 66.1028 13.7816 911 100.023 340.684 474.539
1336 0 67.1373 14.0161 941 99.8778 340.175 473.593
1337 0 69.1044 13.3711 924 102.047 340.275 471.817
1338 0 68.1492 12.5313 854 106.582 339.678 469.963
1339 0 73.1579 12.7396 932 105.491 339.746 468.276
1340 0 74.1523 12.0967 897 106.949 340.391 467.317
1341 0 75.0634 12.6959 953 106.125 340.029 469.364
1342 0 79.1781 12.6424 1001 105.791 338.892 466.834
1343 0 82.2402 13.1931 1085 104.747 338.818 466.328
1344 0 85.2721 12.2901 1048 107.157 338.667 465.406
1345 0 87.292 12.6816 1107 107.117 339.012 462.639
1346 0 89.358 12.5898 1125 107.268 338.03 462.763
1347 0 92.2246 12.9141 1191 106.103 338.678 461.744
1348 0 95.1469 12.4229 1182 108.58 338.376 458.308
1349 0 98.2076 12.5958 1237 108.131 338.791 457.212
1350 1 53.0897 10.4163 553 107.544 338.134 475.535
1351 0 53.2438 9.71004 517 101.466 339.778 474.323
1352 0 55.2968 9.04211 500 104.774 339.43 473.452
1353 0 54.2125 10.0346 544 103.642 339.375 474.454
1354 0 60.2142 11.8244 712 98.9803 338.632 473.18
1355 0 60.2899 10.8974 657 100.991 338.699 471.962
1356 0 61.2825 11.4551 702 101.417 338.811 469.691
1357 0 64.2687 10.6273 683 102.876 338.794 467.037
1358 0 67.1164 10.6382 714 101.034 339.168 468.667
1359 0 68.1762 12.013 819 99.7937 339.156 465.167
1360 0 72.1231 10.6207 766 101.41 338.862 466.462
1361 0 74.1138 11.8062 875 99.6 338.531 465.567
1362 0 75.2343 10.5138 791 103.236 338.855 463.803
1363 0 80.2556 13.2826 1066 105.383 340.056 464.633
1364 0 82.2725 11.6078 955 109.26 339.981 465.29
1365 0 87.2124 12.6358 1102 103.698 339.563 464.401
1366 0 89.1518 11.7777 1050 105.897 339.347 463.17
1367 1 47.0753 10.2814 484 100.227 341.151 484.537
1368 0 48.1504 10.8203 521 101.787 339.566 479.263
1369 0 49.0912 11.4277 561 96.0392 338.205 482.415
1370 0 52.0487 10.9897 572 95.5472 338.378 482.479
1371 0 51.0493 12.0863 617 94.7147 339.494 481.898
1372 0 54.0546 11.5254 623 96.0225 338.952 478.225
1373 0 56.1354 12.1492 682 94.5073 338.622 479.72
1374 0 59.1327 12.9201 764 92.8181 339.116 478.041
1375 0 59.2269 11.4644 679 96.7526 338.337 477.592
1376 0 59.1499 11.0567 654 99.3899 338.394 475.992
1377 0 61.1819 11.6374 712 98.2163 338.674 474.427
1378 0 64.0975 11.5761 742 98.31 338.772 475.368
1379 0 64.095 11.4674 735 99.3537 338.193 474.418
1380 0 68.1287 12.036 820 97.4512 338.991 472.351
1381 0 71.1075 13.121 933 94.6077 340.178 470.874
1382 0 71.0819 11.6345 827 99.5719 340.557 471.216
1383 0 75.1546 11.9753 900 98.7733 340.049 470.287
1384 0 75.0862 12.186 915 99.5934 339.611 466.831
1385 0 78.1607 11.2333 878 100.654 340.607 468.147
1386 0 82.1518 12.4039 1019 98.578 340.48 464.09
1387 0 84.2378 10.6603 898 103.019 339.651 465.151
1388 0 88.2594 11.8741 1048 102.293 340.052 462.72
1389 0 92.3406 11.5984 1071 104.108 340.489 462.284
1390 1 49.1 10.5906 520 102.217 341.19 482.123
1391 0 50.1755 10.8619 545 102.246 341.411 481.78
1392 0 52.1566 11.0245 575 102.65 341.12 479.12
1393 0 55.1336 11.8439 653 98.4043 340.516 477.646
1394 0 56.1753 12.3364 693 98.5325 339.802 477.495
1395 0 59.1334 11.9391 706 98.0127 339.996 477.256
1396 0 61.1017 11.3908 696 98.8736 338.763 476.45
1397 0 63.1766 13.0903 827 95.2056 339.403 475.787
1398 0 65.125 11.1171 724 99.2956 339.442 474.855
1399 0 65.1499 11.6654 760 98.9382 339.093 473.286
1400 0 68.0942 12.0862 823 97.723 339.124 471.05
1401 0 72.0808 12.1253 874 96.6499 339.344 469.886
1402 0 72.2308 11.3525 820 96.2024 338.835 467.115
1403 0 76.1823 11.3543 865 96.3607 339.111 467.025
1404 0 76.2076 11.2325 856 97.4988 338.849 464.978
1405 0 80.2525 12.6102 1012 96.163 338.988 464.192
1406 0 82.2092 11.9938 986 97.5527 338.721 465.228
1407 0 86.28 12.4478 1074 97.1648 338.687 463.812
1408 0 87.2886 10.5856 924 102.219 338.389 461.457
1409 0 90.3266 12.1227 1095 100.942 338.836 456.416
1410 0 94.3448 11.6276 1097 103.056 338.845 455.886
1411 1 50.2008 11.3544 570 101.63 339.049 479.13
1412 0 53.2781 11.2054 597 104.441 339.441 475.764
1413 0 54.1348 10.6401 576 107.684 339.95 474.54
1414 0 56.3013 13.3922 754 100.756 339.086 473.521
1415 0 56.176 11.1079 624 107.596 339.123 473.643
1416 0 60.4152 11.5699 699 108.903 338.92 474.34
1417 0 60.1806 11.2827 679 110.831 338.171 472.29
1418 0 62.2252 10.7995 672 108.071 337.975 469.899
1419 0 63.1637 10.8607 686 108.525 338.644 469.948
1420 0 65.2919 11.3184 739 109.484 338.261 465.272
1421 0 68.2571 11.193 764 109.347 338.202 467.545
1422 0 70.3114 12.8144 901 106.469 338.281 465.487
1423 0 71.2 12.0646 859 109.874 338.482 465.596
1424 0 76.1696 12.3409 940 107.35 338.433 465.71
1425 0 75.3143 12.1093 912 110.177 339.184 465.103
1426 0 79.0842 11.924 943 111.312 339.013 465.076
1427 0 81.4583 12.9146 1052 109.984 339.935 459.587
1428 0 83.2555 12.2755 1022 111.273 339.592 463.999
1429 0 87.4116 13.4193 1173 110.715 339.573 458.077
1430 0 88.408 13.2454 1171 113.316 339.212 454.272
1431 0 92.4511 14.3968 1331 110.397 338.538 453.974
1432 0 94.442 13.2039 1247 114.359 339.398 452.518
1433 0 95.2847 14.1891 1352 113.741 338.032 451.573
1434 0 99.4655 12.9693 1290 118.404 338.198 446.644
1435 0 103.383 13.5612 1402 116.912 338.772 445.842
1436 0 106.36 13.4919 1435 117.353 338.544 444.083
1437 0 109.352 13.7172 1500 117.673 338.325 441.882
1438 1 58.2592 11.466 668 115.358 338.981 468.647
1439 0 60.2544 12.9119 778 113.55 338.582 466.801
1440 0 61.1224 13.2357 809 114.019 339.824 469.224
1441 0 63.1774 13.0268 823 115.181 338.903 468.774
1442 0 65.0771 12.3699 805 116.857 340.103 467.374
1443 0 68.0922 14.172 965 113.595 340.105 465.082
1444 0 72.1337 13.3918 966 113.524 340.224 464.587
1445 0 74.4351 14.3481 1068 112.516 339.579 462.538
1446 0 75.2595 13.686 1030 115.618 339.843 460.108
1447 0 78.1881 13.5826 1062 115.705 340.071 460.607
1448 0 78.1983 13.8238 1081 117.208 340.331 459.265
1449 0 83.4114 13.9909 1167 115.965 339.988 458.245
1450 0 85.3836 13.8317 1181 117.174 340.224 458.036
1451 0 90.2773 13.9348 1258 115.608 340.495 458.176
1452 0 91.2892 13.9447 1273 117.303 340.804 454.337
1453 0 91.364 13.386 1223 120.838 339.922 452.363
1454 0 97.4255 14.1749 1381 118.04 340.245 451.139
1455 0 100.429 14.0397 1410 118.113 339.828 451.655
1456 0 103.286 13.0996 1353 121.644 340.412 449.08
1457 0 106.327 13.8253 1470 120.173 340.688 446.767
1458 1 56.2224 12.4506 700 114.484 340.511 473.34
1459 0 56.1311 11.8116 663 121.097 339.021 470.894
1460 0 61.1239 12.6628 774 114.74 339.609 469.446
1461 0 64.1375 12.6447 811 113.555 339.507 471.39
1462 0 65.1438 13.1248 855 111.935 338.701 470.156
1463 0 67.0688 12.6586 849 115.836 339.815 470.396
1464 0 67.0566 11.2144 752 120.197 340.06 466.287
1465 0 72.1192 12.1466 876 115.878 339.723 464.712
1466 0 76.2168 13.0549 995 112.356 339.69 465.493
1467 0 78.107 13.3791 1045 113.059 339.463 464.282
1468 0 78.1538 13.1663 1029 115.051 339.307 461.644
1469 0 83.169 12.9135 1074 114.393 339.889 459.743
1470 0 86.3282 12.9853 1121 113.643 339.286 461.251
1471 0 88.3663 13.3082 1176 113.951 339.015 458.088
1472 0 90.3032 12.3805 1118 116.687 338.953 457.684
1473 0 94.3664 13.6913 1292 113.882 339.254 454.531
1474 0 96.4573 12.7725 1232 115.67 338.809 453.799
1475 0 100.284 12.6042 1264 115.774 339.357 450.432
1476 0 103.334 13.1031 1354 115.056 340.396 449.772
1477 0 107.401 12.7652 1371 115.726 339.941 449.472
1478 0 110.257 13.396 1477 116.313 339.866 445.693
1479 1 56.1326 10.2971 578 114.009 340.209 473.611
1480 0 58.1922 10.345 602 113.744 340.581 472.55
1481 0 62.1658 11.6945 727 108.6 340.139 471.773
1482 0 65.1957 12.0867 788 108.188 339.854 468.477
1483 0 69.1355 11.9476 826 107.613 340.157 468.075
1484 0 71.1949 12.1919 868 107.214 340.124 465.767
1485 0 74.1854 11.97 888 107.31 340.431 466.198
1486 0 76.1288 12.1899 928 107.046 339.787 465.518
1487 0 77.1885 12.2298 944 107.799 340.285 461.276
1488 0 80.0813 11.4634 918 109.578 340.305 463.034
1489 0 84.1807 13.471 1134 105.681 340.426 459.765
1490 0 87.1171 12.5922 1097 107.335 340.147 459.771
1491 0 89.0957 12.8626 1146 107.291 340.435 458.582
1492 0 91.1491 12.1669 1109 109.845 340.246 456.858
1493 0 96.0965 12.706 1221 110.364 340.415 452.846
1494 0 97.1339 11.5716 1124 113.703 339.066 452.515
1495 0 101.17 12.9682 1312 110.079 338.671 451.152
1496 0 104.17 12.278 1279 111.998 338.234 451.074
1497 0 107.218 11.3787 1220 114.729 338.507 448.761
1498 0 111.051 12.5528 1394 111.747 338.903 449.065
1499 0 114.14 11.7399 1340 114.286 337.837 445.418
1500 0 119.148 11.9264 1421 114.888 338.141 441.429
1501 1 68.064 10.593 721 110.069 337.957 471.193
1502 0 69.1452 11.3818 787 108.53 338.446 469.382
1503 0 73.1974 10.8201 792 114.241 340.293 463.912
1504 0 72.0746 11.1135 801 109.272 338.382 465.09
1505 0 76.112 12.3765 942 106.693 338.384 468.011
1506 0 79.0833 12.7208 1006 109.469 338.314 467.021
1507 0 77.0816 12.0651 930 114.084 338.639 463.712
1508 0 77.0415 11.2796 869 116.496 338.09 463.762
1509 0 80.049 12.23 979 114.834 338.013 465.915
1510 0 79.141 12.3451 977 117.397 337.775 464.806
1511 0 81.127 12.3263 1000 117.494 337.976 459.644
1512 0 86.0995 13.6005 1171 111.799 337.798 459.643
1513 0 90.0429 13.5047 1216 109.252 338.549 460.653
1514 0 90.1492 12.8676 1160 111.637 338.843 458.091
1515 0 93.2474 12.3221 1149 112.905 338.928 457.533
1516 0 95.1209 13.383 1273 111.395 338.678 453.449
1517 0 100.136 13.0522 1307 111.136 339.128 454.774
1518 0 103.141 13.2731 1369 111.461 338.774 450.962
1519 0 105.128 13.0222 1369 113.128 338.329 450.861
1520 0 105.223 12.2407 1288 116.406 338.148 449.068
1521 0 108.119 10.9416 1183 121.015 338.633 446.994
1522 1 61.1552 10.0891 617 109.553 339.287 467.658
1523 0 64.217 10.3555 665 112.702 339.268 467.477
1524 0 63.1464 11.1487 704 108.472 339.859 472.03
1525 0 66.1858 11.1958 741 108.985 340.239 470.135
1526 0 70.2544 12.3978 871 107.048 340.249 471.515
1527 0 69.1765 10.6394 736 113.885 340.655 469.288
1528 0 74.1246 12.533 929 109.845 340.564 468.592
1529 0 75.1648 12.16 914 113.363 340.113 467.299
1530 0 77.167 11.8444 914 115.226 340.195 468.858
1531 0 80.1492 11.8155 947 116.386 340.004 467.092
1532 0 79.0997 10.3793 821 122.183 340.086 464.398
1533 0 83.1204 11.9706 995 119.241 339.588 462.165
1534 0 88.1352 12.5489 1106 117.411 340.466 463.48
1535 0 90.1002 11.9977 1081 120.115 340.528 460.972
1536 0 91.1906 12.2381 1116 122.243 339.643 458.761
1537 1 50.056 10.4283 522 118.404 340.653 483.343
1538 0 49.0448 10.8676 533 117.116 340.944 483.049
1539 0 50.0511 11.728 587 114.293 337.899 483.17
1540 0 52.1231 11.3577 592 118.193 337.066 481.198
1541 0 53.1412 11.159 593 117.769 337.04 480.546
1542 0 54.0621 12.0602 652 115.874 337.488 479.463
1543 0 56.0903 10.8218 607 117.763 336.959 479.43
1544 0 58.0499 11.3868 661 117.321 337.186 478.315
1545 0 60.0866 11.7164 704 116.207 336.859 478.898
1546 0 61.0829 12.1147 740 116.915 336.382 477.216
1547 0 62.0903 12.7395 791 115.712 336.335 475.724
1548 0 61.1095 11.5039 703 120.32 336.523 475.04
1549 0 63.0478 12.3557 779 118.312 336.024 474.901
1550 0 67.0444 12.3649 829 116.441 336.46 473.253
1551 0 67.1037 12.1305 814 117.78 336.442 472.335
1552 0 68.0774 12.4123 845 117.224 336.375 469.594
1553 0 71.0582 12.6375 898 115.658 336.41 471.452
1554 0 74.1032 13.5757 1006 113.446 335.814 467.693
1555 0 76.1621 12.027 916 118.014 336.092 467.713
1556 0 79.0796 13.2651 1049 114.069 336.063 467.23
1557 0 81.0776 13.0616 1059 115.408 336.076 465.514
1558 0 84.0836 13.2606 1115 114.534 335.675 464.614
1559 0 87.1735 13.3871 1167 114.437 336.626 464.398
1560 0 89.0467 13.9253 1240 114.349 336.28 460.319
1561 0 92.103 13.2678 1222 116.999 336.101 459.963
1562 0 95.2741 12.9626 1235 118.687 335.769 460.325
1563 0 95.0845 12.9253 1229 118.333 336.197 458.093
1564 1 54.102 11.7556 636 120.258 335.278 477.459
1565 0 57.0271 11.9943 684 114.56 336.194 477.984
1566 0 57.0801 12.0182 686 109.324 336.313 475.163
1567 0 58.1125 11.7703 684 110.113 336.582 474.516
1568 0 62.0917 13.2385 822 104.86 336.571 475.409
1569 0 62.0827 11.5169 715 109.962 336.761 474.094
1570 0 66.1358 12.5197 828 106.641 336.198 472.372
1571 0 68.0811 13.3811 911 105.602 336.104 471.752
1572 0 68.1588 12.6469 862 107.827 336.466 471.597
1573 0 71.1199 11.7689 837 109.2 336.059 469.741
1574 0 74.1218 13.181 977 105.592 336.411 469.753
1575 0 76.15 12.4885 951 107.637 337.089 467.813
1576 0 76.15 12.4622 949 131.824 337.09 467.823
1577 0 80.1622 11.6888 937 110.586 337.815 465.001
1578 0 81.1093 12.1441 985 110.374 337.447 463.856
1579 0 86.0548 13.1079 1128 107.725 337.616 463.295
1580 0 89.0997 13.4905 1202 106.723 337.732 462.825
1581 0 89.077 11.5967 1033 111.721 338.645 458.203
1582 0 93.102 11.9761 1115 111.337 338.539 458.05
1583 0 94.1262 12.3557 1163 110.698 338.719 456.827
1584 0 98.1311 12.5342 1230 110.447 337.907 454.138
1585 0 101.149 11.8439 1198 111.469 338.161 455.87
1586 0 104.191 11.2005 1167 113.425 338.46 454.139
1587 1 55.0948 11.3441 625 107.211 339.448 477.472
1588 0 55.089 11.2727 621 107.717 338.05 476.221
1589 0 56.0392 10.3856 582 110.605 338.369 474.615
1590 0 58.1199 11.201 651 107.539 338.897 476.731
1591 0 62.1276 10.9774 682 107.974 338.701 475.095
1592 0 62.1046 11.8027 733 107.285 338.409 472.383
1593 0 64.0948 11.795 756 106.365 338.38 472.731
1594 0 65.1158 11.6869 761 107.795 338.867 472.176
1595 0 71.1271 11.6411 828 106.285 339.076 470.569
1596 0 72.1541 11.8219 853 107.05 339.219 466.836
1597 0 75.1064 12.5023 939 106.347 339.133 466.051
1598 0 77.1212 12.422 958 106.777 338.33 463.944
1599 0 80.0725 12.0266 963 107.574 338.588 464.29
1600 0 82.2358 11.6859 961 108.997 339.491 463.326
1601 0 85.1106 10.5275 896 111.464 338.286 464.337
1602 0 90.2319 12.0911 1091 108.513 338.246 460.25
1603 1 46.0353 9.14516 421 112.886 338.328 481.183
1604 0 47.0584 11.0926 522 108.596 338.339 479.78
1605 0 48.0997 10.3743 499 110.834 338.357 480.475
1606 0 47.0562 10.6043 499 111.333 337.87 479.06
1607 0 51.1496 12.3755 633 107.34 338.695 478.524
1608 0 53.0511 12.8744 683 107.271 339.108 477.433
1609 0 53.0682 11.1555 592 112.52 338.671 475.973
1610 0 55.1067 11.632 641 112.206 339.301 474.983
1611 0 56.1161 12.3494 693 111.059 338.909 476.482
1612 0 57.0962 12.5402 716 111.145 338.48 475.81
1613 0 58.0396 13.5769 788 109.511 338.778 473.876
1614 0 60.0409 13.0411 783 111.34 338.501 472.607
1615 0 65.0553 13.2349 861 109.894 338.358 472.985
1616 0 65.1286 13.3889 872 111.315 338.914 470.984
1617 0 65.0568 11.7436 764 117.039 338.607 470.007
1618 0 70.0563 13.3464 935 112.363 339.118 470.516
1619 0 72.1055 14.354 1035 110.665 338.385 467.346
1620 0 75.1082 14.4458 1085 111.705 338.313 466.194
1621 0 77.102 13.5405 1044 115.176 338.589 467.976
1622 0 78.0633 13.8349 1080 114.868 338.235 467.444
1623 0 79.1919 13.1832 1044 117.929 338.541 466.097
1624 0 81.1952 12.5131 1016 119.736 338.594 464.278
1625 0 82.0817 12.7312 1045 120.606 338.187 461.98
1626 0 86.096 13.032 1122 119.497 338.434 460.559
1627 0 90.0555 13.7915 1242 116.165 338.463 460.657
1628 0 92.1057 13.7885 1270 117.539 337.935 456.515
1629 0 94.1156 13.0584 1229 118.732 337.607 459.45
1630 0 97.1974 13.7452 1336 116.936 337.534 458.34
1631 0 101.166 14.9359 1511 113.308 337.877 455.219
1632 0 102.268 12.741 1303 119.404 337.296 451.794
1633 0 105.077 12.6955 1334 119.272 337.281 451.812
1634 0 110.203 13.6475 1504 116.12 337.465 449.454
1635 0 112.198 12.4245 1394 118.23 337.961 446.504
1636 1 63.1529 10.7833 681 118.623 339.267 468.883
1637 0 66.12 11.8875 786 114.865 336.992 470.673
1638 0 69.0414 12.3549 853 113.06 336.257 469.499
1639 0 70.0565 12.2473 858 113.865 335.599 469.319
1640 0 73.0472 12.4166 907 110.321 336.66 472.021
1641 0 76.1174 13.0325 992 110.822 336.333 467.476
1642 0 75.0369 11.0879 832 116.278 336.297 467.234
1643 0 82.0884 13.4245 1102 109.704 335.894 464.916
1644 0 85.149 12.4488 1060 111.084 336.075 464.855
1645 0 88.0838 13.4758 1187 109.299 335.564 462.896
1646 0 88.06 12.7413 1122 112.314 336.455 460.055
1647 0 93.1749 13.6088 1268 109.748 336.242 461.032
1648 0 95.1463 12.5071 1190 113.722 336.505 458.681
1649 0 97.1107 11.492 1116 116.645 337.057 456.957
1650 0 101.125 13.0829 1323 113.636 337.039 451.834
1651 0 106.193 13.2872 1411 113.039 337.008 452.836
1652 0 110.202 13.1758 1452 111.999 337.705 451.339
1653 0 113.231 12.7262 1441 113.485 337.56 446.357
1654 0 115.262 10.9663 1264 117.11 337.457 444.301
1655 1 60.2439 10.8393 653 114.544 337.828 469.305
1656 0 64.1229 12.5072 802 109.731 338.155 470.499
1657 0 64.1265 11.4773 736 112.404 337.988 470.486
1658 0 70.0617 13.7593 964 105.427 337.947 469.857
1659 0 69.1067 12.4445 860 110.84 338.03 468.706
1660 0 73.0895 12.7925 935 109.54 338.111 469.057
1661 0 74.0949 13.0643 968 110.528 337.892 468.293
1662 0 77.0993 12.1272 935 113.063 337.825 467.953
1663 0 79.1762 11.9859 949 114.562 337.695 467.025
1664 0 82.1015 12.4115 1019 113.365 338.001 465.401
1665 0 84.0734 11.8349 995 116.785 337.345 464.107
1666 0 86.1117 11.5315 993 119.756 337.555 461.779
1667 0 91.1377 11.6856 1065 118.489 338.211 460.857
1668 0 95.0938 12.0723 1148 117.024 337.687 459.735
1669 0 94.2127 12.3444 1163 120.386 337.801 457.586
1670 0 98.1529 12.5315 1230 119.732 338.038 457.877
1671 0 100.175 12.6878 1271 119.46 337.12 455.43
1672 0 104.133 13.0698 1361 118.924 337.756 452.482
1673 0 107.075 11.8795 1272 122.941 337.94 451.344
1674 0 111.134 11.8685 1319 122.729 337.744 449.622
1675 0 114.311 12.5185 1431 120.906 337.702 449.059
1676 1 64.0381 9.91598 635 124.586 337.871 473.326
1677 0 69.1251 11.443 791 121.273 335.77 467.794
1678 0 68.0351 11.2883 768 111.163 336.573 462.452
1679 0 71.0654 11.7216 833 106.285 337.887 465.838
1680 0 72.1219 10.8566 783 109.203 338.314 461.535
1681 0 75.0485 10.1135 759 109.708 338.055 460.958
1682 0 78.098 9.97465 779 110.433 337.511 459.941
1683 0 83.206 11.1771 930 106.794 337.315 459.832
1684 0 82.1914 10.4026 855 110.632 337.087 459.29
1685 0 86.1408 10.9008 939 110.459 337.006 456.741
1686 0 89.1549 11.5529 1030 109.583 336.655 453.824
1687 0 92.2145 11.0286 1017 111.591 336.789 453.196
1688 0 94.1047 11.1684 1051 112.475 337.322 450.308
1689 0 98.2787 11.2639 1107 111.951 336.79 451.288
1690 0 95.2046 9.98901 951 115.737 336.923 449.985
1691 0 104.113 11.1417 1160 111.549 337.328 447.485
1692 0 105.173 10.9914 1156 114.098 337.165 444.048
1693 0 109.12 12.1609 1327 110.393 337.125 447.433
1694 0 110.144 10.3773 1143 115.717 336.88 441.004
1695 0 112.118 10.8458 1216 115.267 337.147 435.764
1696 0 123.136 12.0111 1479 111.672 337.712 436.702
1697 0 128.204 12.8545 1648 115.211 337.397 437.87
1698 1 74.1697 10.7591 798 114.118 338.897 462.83
1699 0 74.164 11.488 852 110.005 338.075 461.712
1700 0 76.1585 11.8043 899 109.72 338.052 460.385
1701 0 78.1787 11.9086 931 109.067 338.623 463.625
1702 0 81.2744 11.6273 945 110.381 337.415 462.359
1703 0 86.2682 11.7656 1015 110.091 337.167 461.219
1704 0 86.1692 11.8024 1017 108.596 337.264 457.839
1705 0 90.1735 12.3207 1111 106.889 336.981 457.153
1706 0 93.1605 12.2155 1138 107.73 336.896 455.561
1707 0 94.3119 11.2605 1062 111.814 336.992 453.91
1708 0 99.2424 12.6559 1256 107.98 336.885 456.803
1709 0 99.1941 12.1882 1209 111.356 336.827 452.435
1710 0 101.434 12.205 1238 112.54 337.107 451.561
1711 0 105.291 12.9641 1365 110.234 336.581 454.254
1712 0 108.192 13.3466 1444 111.19 336.742 447.652
1713 0 112.199 13.1374 1474 112.201 337.589 448.248
1714 0 111.282 11.9157 1326 118.009 337.359 445.702
1715 0 116.193 12.1264 1409 116.569 337.361 447.243
1716 0 121.303 12.0854 1466 117.475 337.424 443.002
1717 0 125.175 13.1496 1646 113.081 337.303 441.327
1718 0 128.373 11.8794 1525 118.06 336.268 435.539
1719 1 72.1428 11.1584 805 111.128 335.668 465.918
1720 0 74.4772 11.0235 821 113.678 335.73 462.939
1721 0 80.2917 12.604 1012 108.706 336.378 458.642
1722 0 80.1064 11.622 931 110.966 335.46 461.518
1723 0 82.1395 11.6022 953 110.944 335.721 462.143
1724 0 86.1669 12.8588 1108 108.412 335.928 458.994
1725 0 89.1575 12.4835 1113 110.095 335.804 457.496
1726 0 93.1328 13.1425 1224 109.04 335.663 457.374
1727 0 94.1304 12.7801 1203 111.104 335.948 454.919
1728 0 97.0981 14.0168 1361 110.193 336.226 454.68
1729 0 100.139 13.6909 1371 111.115 336.892 453.64
1730 0 103.122 13.9058 1434 111.163 335.987 452.271
1731 0 105.091 13.6644 1436 112.97 336.029 450.709
1732 0 107.102 13.109 1404 115.787 336.211 448.374
1733 0 109.177 12.9423 1413 118.008 336.876 446.223
1734 0 111.378 13.1983 1470 118.938 337.014 443.874
1735 0 114.2 13.4764 1539 118.562 337.488 438.604
1736 0 120.164 13.6147 1636 116.969 337.035 436.825
1737 0 124.108 14.6565 1819 115.12 337.656 433.066
1738 0 128.078 13.8197 1770 117.406 336.938 430.089
1739 0 133.216 14.0149 1867 116.125 337.501 434.562
1740 0 138.254 13.3522 1846 118.288 337.141 428.926
1741 1 78.136 11.7871 921 119.236 337.975 457.912
1742 0 81.1784 12.2816 997 116.287 338.268 459.195
1743 0 82.1525 12.5498 1031 117.748 337.944 455.547
1744 0 82.1941 11.9108 979 118.846 337.139 453.556
1745 0 88.1633 13.2141 1165 114.043 336.762 451.708
1746 0 93.1669 13.449 1253 112.662 337.256 452.247
1747 0 94.1581 12.9357 1218 115.614 336.971 450.392
1748 0 93.1246 11.5222 1073 120.563 336.981 448.154
1749 0 99.1523 13.8474 1373 113.385 337.146 449.145
1750 0 104.205 13.176 1373 115.144 336.729 445.01
1751 0 105.186 12.4066 1305 117.091 336.208 443.602
1752 0 112.181 15.0739 1691 108.326 336.866 438.315
1753 0 110.238 12.092 1333 118.464 337.093 437.165
1754 0 115.269 12.0848 1393 117.325 336.952 439.175
1755 0 118.221 11.6392 1376 118.398 337.423 436.586
1756 0 126.382 13.7678 1740 111.998 336.689 438.395
1757 1 69.1141 10.9529 757 113.707 337.358 462.828
1758 0 70.1515 11.4039 800 114.551 337.84 466.377
1759 0 74.2651 12.0245 893 115.486 336.973 464.011
1760 0 77.3176 12.675 980 112.406 337.215 462.556
1761 0 76.3778 12.0978 924 115.055 337.795 462.468
1762 0 79.0872 12.7581 1009 113.052 337.492 461.161
1763 0 80.2131 11.7562 943 116.374 336.862 462.121
1764 0 83.1529 14.0825 1171 111.965 337.194 457.936
1765 0 86.2963 12.6888 1095 116.141 337.218 455.28
1766 0 88.0567 13.6162 1199 113.426 335.734 455.647
1767 0 89.0984 12.952 1154 117.016 335.412 452.885
1768 0 91.0668 12.6061 1148 118.099 336.24 452.516
1769 0 94.2085 13.1729 1241 117.649 336.019 452.031
1770 0 96.2922 13.5317 1303 118.35 336.309 448.117
1771 0 97.1421 12.8369 1247 122.472 336.816 447.412
1772 0 101.15 12.5161 1266 123.22 336.603 446.414
1773 0 105.216 12.7547 1342 121.905 336.401 446.077
1774 0 106.255 12.6959 1349 125.022 336.973 442.153
1775 0 108.202 12.4767 1350 126.405 337.43 440.427
1776 0 112.252 13.247 1487 124.301 337.085 438.979
1777 0 117.177 13.518 1584 122.326 337.539 439.795
1778 0 120.223 12.9676 1559 124.394 337.655 437.341
1779 0 126.13 13.3751 1687 122.605 337.32 434.625
1780 0 129.155 13.5263 1747 122.675 336.616 431.415
1781 0 134.175 13.937 1870 122.311 336.992 426.774
1782 0 139.125 13.5993 1892 122.634 337.297 427.517
1783 1 76.0773 10.1344 771 119.232 336.198 460.162
1784 0 80.1001 10.6367 852 119.947 336.046 457.984
1785 0 84.069 12.3351 1037 119.531 336.17 457.442
1786 0 80.0628 10.2295 819 119.824 335.89 452.305
1787 0 90.1186 11.3517 1023 116.159 336.196 452.788
1788 0 91.1141 12.5228 1141 114.417 336.586 452.011
1789 0 94.2301 12.6074 1188 112.883 336.207 449.544
1790 0 94.0524 11.4298 1075 117.997 335.963 448.283
1791 0 99.1108 12.5012 1239 115.354 336.886 446.148
1792 0 101.144 12.3982 1254 117.388 335.854 444.052
1793 0 107.124 13.3117 1426 114.717 335.778 444.194
1794 0 108.107 12.4506 1346 118.568 335.657 441.016
1795 0 113.155 12.7612 1444 117.604 335.806 440.033
1796 0 117.274 12.7138 1491 116.942 336.314 440.441
1797 0 118.343 12.4384 1472 118.569 336.958 438.731
1798 0 121.24 12.1659 1475 119.819 336.619 434.659
1799 0 122.3 11.6599 1426 120.855 336.568 435.355
1800 1 131.208 14.1988 1863 113.065 336.76 428.115
1801 0 133.211 11.8383 1577 119.583 337.328 429.168
1802 0 140.202 12.7245 1784 117.013 336.874 424.536
1803 0 144.404 12.1049 1748 119.443 336.893 424.141
1804 0 149.316 12.3697 1847 118.577 336.865 423.146
1805 0 155.373 12.4797 1939 118.27 336.494 420.388
1806 0 160.366 12.7209 2040 118.586 335.958 416.735
1807 0 167.396 13.692 2292 115.984 336.478 416.219
1808 1 96.1488 10.2133 982 110.707 337.283 449.608
1809 0 101.151 11.6262 1176 106.5 336.695 449.681
1810 0 103.304 11.5485 1193 110.648 337.488 447.52
1811 0 109.288 11.9592 1307 109.116 337.155 448.699
1812 0 109.368 10.7527 1176 113.847 337.591 444.763
1813 0 114.182 11.1489 1273 112.684 337.422 442.712
1814 0 118.232 9.9127 1172 116.107 337.417 439.823
1815 0 125.273 11.6625 1461 111.473 337.591 440.833
1816 0 126.164 10.4467 1318 116.283 337.587 436.269
1817 0 133.273 11.2551 1500 113.162 337.627 435.602
1818 1 70.2318 9.7107 682 103.295 339.094 471.403
1819 0 71.209 9.53531 679 104.644 338.672 469.11
1820 0 75.1764 9.88342 743 102.7 337.82 470.544
1821 0 75.0737 10.23 768 103.671 338.133 463.43
1822 0 79.1519 11.5221 912 100.587 338.348 466.261
1823 0 81.1135 12.0448 977 99.347 339.385 466.057
1824 0 82.2693 10.8668 894 103.504 338.88 461.092
1825 0 87.2973 12.0393 1051 102.01 338.843 462.647
1826 0 89.217 12.0717 1077 101.565 338.617 461.611
1827 0 90.1752 11.5996 1046 103.588 338.335 458.716
1828 0 92.1599 10.9592 1010 106.427 338.565 458.416
1829 0 96.1336 12.6283 1214 103.018 338.638 457.703
1830 0 99.1542 12.8184 1271 103.1 338.661 457.127
1831 0 101.185 11.7211 1186 105.211 337.97 455.841
1832 0 103.163 12.0779 1246 106.657 337.914 448.469
1833 0 107.268 11.2056 1202 107.985 337.938 448.385
1834 0 112.105 12.069 1353 105.578 338.237 449.934
1835 0 113.285 11.1224 1260 109.012 337.11 449.762
1836 0 115.288 11.3369 1307 110.207 337.443 445.8
1837 0 120.351 11.6908 1407 109.267 337.409 446.267
1838 0 124.246 12.0808 1501 108.952 337.891 443.317
1839 1 67.188 10.8948 732 109.168 338.169 469.175
1840 0 70.1181 11.0956 778 107.997 338.109 470.324
1841 0 68.2036 10.8352 739 112.035 337.578 464.323
1842 0 70.2521 11.9569 840 108.882 337.236 465.69
1843 0 72.2459 11.627 840 111.495 336.642 462.546
1844 0 75.1155 11.6487 875 110.712 337.161 462.325
1845 0 77.1975 11.5677 893 110.538 336.88 461.427
1846 0 80.1305 11.032 884 113.041 336.696 458.966
1847 0 82.2415 11.3446 933 112.312 335.994 458.915
1848 0 85.1569 12.8469 1094 108.896 336.473 458.613
1849 0 87.2232 11.8661 1035 112.039 336.394 456.674
1850 0 90.2663 13.0281 1176 109.945 336.234 454.621
1851 0 93.2111 12.5843 1173 111.557 336.025 453.862
1852 0 96.115 12.87 1237 112.438 336.564 454.024
1853 0 97.2729 12.2028 1187 115.247 336.479 453.384
1854 0 101.249 12.8199 1298 114.553 336.775 451.161
1855 0 101.155 12.7824 1293 115.626 336.439 453.169
1856 0 105.104 12.9396 1360 114.237 335.786 450.53
1857 0 109.182 13.3997 1463 112.722 336.157 446.748
1858 0 109.164 12.0828 1319 116.683 336.659 449.178
1859 0 112.197 12.5404 1407 116.948 336.223 445.065
1860 0 118.179 12.8703 1521 114.911 336.363 445.437
1861 0 122.422 13.0123 1593 115.018 336.591 439.154
1862 0 124.332 12.5712 1563 116.186 336.726 437.296
1863 1 71.2736 10.9999 784 110.89 336.801 466.323
1864 0 74.2576 10.3693 770 113.09 336.899 464.055
1865 0 73.2284 10.6243 778 113.249 337.281 463.797
1866 0 76.0847 10.7643 819 112.805 335.573 462.607
1867 0 82.0581 11.4797 942 108.359 335.563 463.666
1868 0 83.1216 11.2847 938 109.817 336.12 458.534
1869 0 84.0787 11.0967 933 111.15 335.823 457.996
1870 0 91.1191 10.9198 995 110.019 335.676 456.502
1871 0 91.1518 11.5302 1051 108.852 336.111 457.481
1872 0 95.1007 12.2502 1165 106.076 336.16 453.957
1873 0 100.175 11.1705 1119 107.835 336.496 450.851
1874 0 104.201 12.044 1255 106.853 336.41 447.273
1875 1 54.1411 10.2141 553 99.6691 338.407 474.658
1876 0 56.0606 12.0227 674 98.0564 337.769 475.013
1877 0 58.2022 12.1645 708 102.698 337.452 473.412
1878 0 59.08 12.0853 714 102.182 338.471 476.109
1879 0 61.0961 11.4737 701 103.867 338.21 476.311
1880 0 62.0828 13.627 846 99.8026 337.45 476.502
1881 0 63.1933 11.5677 731 105.542 337.986 473.866
1882 0 67.0799 12.254 822 102.723 337.633 473.307
1883 0 69.1222 12.4128 858 102.889 337.558 471.497
1884 0 71.0663 12.6502 899 101.844 337.583 471.259
1885 0 72.1338 11.9916 865 102.946 337.687 468.919
1886 0 74.1207 11.4003 845 104.443 337.743 467.398
1887 0 80.081 11.9379 956 102.024 337.877 468.839
1888 0 81.0904 13.7624 1116 101.092 337.819 465.214
1889 0 84.0532 12.504 1051 104.01 337.94 462.387
1890 0 87.0577 13.3704 1164 102 337.631 460.055
1891 0 88.079 12.2844 1082 106.305 337.369 459.679
1892 0 96.144 14.9463 1437 98.0682 337.619 453.85
1893 0 96.147 13.3026 1279 105.891 337.271 454.081
1894 0 98.0901 12.9371 1269 105.651 337.397 455.076
1895 0 103.123 12.9554 1336 106.54 337.311 453.073
1896 0 105.218 13.4768 1418 106.599 337.374 453.621
1897 1 56.057 12.184 683 109.676 337.884 480.152
1898 0 56.1102 13.0101 730 109.301 338.496 475.96
1899 0 60.3131 13.6952 826 106.305 337.925 475.223
1900 0 63.1004 13.6766 863 106.75 338.562 475.046
1901 0 62.052 12.699 788 111.273 338.838 473.5
1902 0 65.0582 13.1575 856 110.405 339.424 473.398
1903 0 68.0753 14.4252 982 107.264 338.173 472.808
1904 0 69.0611 12.9016 891 111.487 338.621 471.606
1905 0 71.0689 14.0146 996 108.983 338.699 469.671
1906 0 75.1454 15.0508 1131 105.553 338.708 467.678
1907 0 78.1396 13.4887 1054 109.817 338.093 466.464
1908 0 79.0947 13.0729 1034 111.218 338.563 466.286
1909 0 80.0711 14.0375 1124 109.838 338.315 464.323
1910 0 84.1588 14.5439 1224 108.6 338.225 463.703
1911 0 86.1194 14.7237 1268 108.39 338.073 462.488
1912 0 88.1407 15.0101 1323 108.624 338.445 461.415
1913 0 92.0986 15.3965 1418 106.821 338.188 460.367
1914 0 93.1126 14.4127 1342 109.945 338.13 458.106
1915 0 94.102 13.9742 1315 112.551 338.069 455.09
1916 0 99.1291 14.8998 1477 109.504 337.871 454.066
1917 0 101.058 15.5455 1571 107.736 337.713 448.875
1918 0 104.071 14.3172 1490 111.307 337.295 448.399
1919 0 106.21 13.4451 1428 114.503 337.565 446.763
1920 0 110.189 14.0213 1545 112.236 338.019 443.46
1921 0 114.172 13.0768 1493 114.354 337.772 442.474
1922 1 61.0713 11.6258 710 113.437 337.756 467.748
1923 0 64.0556 11.7242 751 113.403 337.992 466.519
1924 0 66.1957 12.8105 848 112.594 336.514 465.854
1925 0 68.1117 11.4077 777 115.435 336.396 466.269
1926 0 70.1211 12.8777 903 113.193 336.846 464.596
1927 0 75.1162 14.0715 1057 108.774 337.522 462.81
1928 0 77.1435 12.6129 973 112.293 336.942 460.993
1929 0 77.0583 12.536 966 113.782 336.703 461.306
1930 0 82.0969 13.2892 1091 110.723 336.495 460.868
1931 0 82.0969 13.277 1090 160.706 335.505 460.809
1932 0 88.0978 14.0299 1236 111.911 336.423 458.874
1933 0 90.0978 14.3178 1290 109.977 336.314 457.085
1934 0 91.0934 13.9637 1272 112.997 337.292 454.754
1935 0 94.1891 13.7914 1299 113.239 336.92 455.741
1936 0 98.1875 14.513 1425 110.559 337.224 452.527
1937 0 101.127 13.9528 1411 112.293 336.625 449.811
1938 0 103.193 13.0338 1345 115.287 336.835 449.071
1939 0 108.237 12.2694 1328 115.703 337.436 451.012
1940 1 54.0551 10.8038 584 118.387 338.308 473.139
1941 0 55.0361 12.1193 667 112.297 337.364 473.298
1942 0 58.0389 12.0436 699 116.021 337.396 472.359
1943 0 59.1054 12.8584 760 116.257 337.732 469.212
1944 0 61.1554 12.133 742 119.377 337.838 470.546
1945 0 65.0896 13.1818 858 113.62 337.6 469.691
1946 0 66.0622 12.2309 808 117.353 337.925 468.828
1947 0 69.0841 13.0565 902 116.62 338.431 466.144
1948 0 71.0954 12.8841 916 116.9 338.593 466.907
1949 0 70.0741 12.0729 846 120.963 337.777 466.382
1950 0 74.0941 13.0375 966 120.003 337.458 462.962
1951 0 78.0891 14.3298 1119 115.266 337.47 463.073
1952 0 78.0848 12.051 941 123.075 337.579 462.295
1953 0 81.0846 13.3194 1080 119.87 337.066 460.7
1954 0 86.1619 14.0201 1208 117.948 337.128 460.286
1955 0 87.1194 13.3839 1166 121.177 337.539 459.498
1956 0 88.077 13.0113 1146 123.174 336.192 457.763
1957 0 93.0436 14.0687 1309 120.774 337.341 455.371
1958 0 92.102 13.3765 1232 124.159 337.071 454.719
1959 0 99.1947 14.5572 1444 119.376 336.767 453.83
1960 0 101.308 12.7334 1290 124.557 337.229 452.343
1961 0 105.152 13.9417 1466 118.984 336.24 450.881
1962 1 53.0304 11.748 623 118.695 337.441 475.604
1963 0 56.0848 13.4439 754 119.741 336.588 478.963
1964 0 59.0432 15.1076 892 114.024 336.813 475.899
1965 0 60.057 13.9867 840 117.389 337.049 474.362
1966 0 62.0286 13.4293 833 118.256 336.532 475.233
1967 0 64.0305 13.6341 873 118.409 336.658 472.425
1968 0 68.0352 14.8012 1007 113.398 336.579 473.335
1969 0 67.0531 14.2126 953 116.386 337.416 471.284
1970 0 70.0342 14.8784 1042 114.18 336.885 470.434
1971 0 71.0371 13.4155 953 118.349 336.985 469.92
1972 0 74.0318 13.3321 987 119.037 336.806 467.822
1973 0 76.0919 13.8385 1053 116.726 337.128 465.924
1974 0 80.1287 13.678 1096 116.074 337.285 466.846
1975 0 83.1594 14.863 1236 111.937 337.092 465.311
1976 0 84.0875 12.9151 1086 113.793 337.632 462.445
1977 0 85.0947 12.1747 1036 115.869 337.282 462.512
1978 0 89.1749 13.2436 1181 112.422 337.054 461.527
1979 0 92.1768 12.8991 1189 113.6 337.411 458.171
1980 0 94.1013 11.9339 1123 115.282 336.882 454.9
1981 0 99.0774 12.8586 1274 112.057 336.917 456.098
1982 1 50.0447 11.7495 588 120.32 337.378 473.685
1983 0 54.0715 12.391 670 116.706 337.478 473.972
1984 0 57.1007 13.625 778 105.884 338.233 473.514
1985 0 57.0536 11.7609 671 112.268 338.079 471.235
1986 0 60.0798 12.3669 743 109.019 338.191 471.326
1987 0 63.1686 12.902 815 108.256 338.962 469.123
1988 0 66.0985 13.026 861 107.443 337.508 468.683
1989 0 69.1758 13.2272 915 105.872 338.23 469.616
1990 0 70.1111 13.3502 936 107.4 338.248 464.849
1991 0 67.1282 10.3235 693 115.029 337.645 459.615
1992 0 76.1414 13.2517 1009 107.603 337.5 462.269
1993 0 76.1658 12.5253 954 109.843 337.564 463.142
1994 0 80.2316 13.2367 1062 108.708 337.477 459.698
1995 0 82.0881 12.4866 1025 110.114 337.902 458.856
1996 0 84.0756 12.5958 1059 110.058 338.061 458.382
1997 0 91.2683 13.0056 1187 108.271 337.687 457.697
1998 1 48.1119 11.016 530 107.796 337.083 478.202
1999 0 48.096 11.2068 539 109.419 337.414 475.627
2000 0 51.188 13.0109 666 104.128 337.159 475.335
2001 0 52.1244 12.1056 631 107.591 336.483 472.363
2002 0 52.0636 11.9469 622 107.878 336.878 473.904
2003 0 56.1378 12.7365 715 112.211 337.248 476.19
2004 0 57.0847 12.8055 731 112.219 337.339 477.564
2005 0 57.0954 11.2443 642 116.919 337.475 475.969
2006 0 63.1293 12.118 765 113.984 337.787 475.65
2007 0 64.0993 14.3059 917 110.153 337.66 472.224
2008 0 66.0769 13.1362 868 113.712 337.679 470.863
2009 0 69.0759 12.6962 877 114.209 337.366 472.018
2010 0 71.1287 13.3701 951 113.973 337.118 469.109
2011 0 72.0706 11.4194 823 116.632 337.148 467.429
2012 0 78.2266 13.0646 1022 113.217 336.782 464.73
2013 0 79.1009 12.3007 973 114.899 336.182 467.263
2014 0 83.1034 12.3461 1026 117.678 335.726 464.272
2015 0 86.0553 12.8173 1103 117.712 335.213 463.441
2016 0 89.0836 13.2348 1179 116.105 335.449 462.447
2017 1 49.0088 11.855 581 117.797 335.635 481.714
2018 0 52.0494 13.7562 716 113.087 336.257 480.982
2019 0 53.1574 12.6041 670 115.47 336.582 479.452
2020 0 52.1773 12.7258 664 112.455 336.48 474.797
2021 0 55.0361 13.2277 728 110.202 336.731 475.041
2022 0 56.0833 11.9822 672 115.321 336.76 473.359
2023 0 61.118 12.7949 782 111.542 336.863 471.509
2024 0 62.069 12.5183 777 112.915 336.698 470.798
2025 0 63.0557 12.8458 810 112.367 336.626 470.288
2026 0 65.2595 12.5959 822 112.707 336.674 468.263
2027 0 66.0258 12.0407 795 114.119 337.029 465.925
2028 0 72.1161 13.3673 964 109.623 336.9 465.71
2029 0 74.1142 12.9395 959 110.818 336.274 464.122
2030 0 75.1314 12.9506 973 111.043 336.763 462.616
2031 0 80.0968 12.7221 1019 110.296 337.469 462.445
2032 0 82.1214 13.1513 1080 109.274 337.159 459.698
2033 0 85.0843 13.2574 1128 109.926 337.179 457.728
2034 0 87.1163 12.6957 1106 111.398 336.782 456.857
2035 0 92.0949 12.6391 1164 110.648 336.454 455.851
2036 1 45.017 10.5516 475 114.512 335.975 476.918
2037 0 46.0338 11.1223 512 114.389 336.52 476.719
2038 0 49.1368 12.1701 598 111.015 337.418 476.911
2039 0 51.1335 12.9074 660 116.118 337.168 477.317
2040 0 52.0514 12.6606 659 118.692 337.54 477.543
2041 0 53.0585 12.9103 685 117.764 337.855 476.647
2042 0 57.0689 13.8254 789 114.375 338.015 474.573
2043 0 58.1102 13.7497 799 115.035 338.138 474.411
2044 0 59.1406 12.5971 745 118.883 337.807 474.354
2045 0 63.1198 13.6566 862 114.172 338.003 472.687
2046 0 63.0812 12.9833 819 117.402 337.54 470.558
2047 0 66.1031 14.0387 928 113.863 337.211 470.232
2048 0 70.0786 12.7999 897 116.563 337.502 470.122
2049 0 71.0702 13.3389 948 115.835 337.168 467.899
2050 0 74.1158 13.8702 1028 113.677 337.287 466.582
2051 0 77.1854 14.0312 1083 113.736 337.968 465.235
2052 0 77.1454 13.3644 1031 116.498 337.61 463.413
2053 0 83.1214 13.5464 1126 115.327 337.739 462.535
2054 0 83.0872 13.2632 1102 117.307 337.528 459.419
2055 0 84.0675 13.6676 1149 117.318 337.16 460.733
2056 0 88.2462 13.5757 1198 117.508 337.156 458.641
2057 1 44.1652 11.0947 490 118.712 337.088 478.112
2058 0 44.1957 10.2951 455 120.134 336.567 471.785
2059 0 47.076 12.278 578 114.818 335.118 472.564
2060 0 45.0252 11.3492 511 120.061 335.27 475.838
2061 0 50.1123 11.6738 585 108.605 336.412 473.665
2062 0 51.1176 10.5834 541 112.205 336.562 474.732
2063 0 49.106 9.69332 476 117.118 336.597 473.382
2064 0 52.0569 10.5654 550 114.431 336.967 470.871
2065 0 54.0642 11.8008 638 112.693 337.071 470.132
2066 0 56.0843 10.3951 583 115.943 336.985 470.981
2067 0 59.0427 11.3308 669 113.895 337.321 470.163
2068 0 60.0849 10.9345 657 115.795 336.772 468.14
2069 0 61.0614 10.9562 669 117.901 337.058 465.996
2070 0 63.0209 11.4724 723 117.474 336.589 464.422
2071 0 68.0379 11.2143 763 117.383 336.967 463.733
2072 0 69.0482 11.3399 783 118.677 337.45 462.903
2073 0 69.0373 11.9645 826 118.591 337.029 460.856
2074 0 74.0541 11.1945 829 119.943 336.756 458.983
2075 0 79.0647 12.1926 964 117.325 337.407 461.635
2076 0 80.1178 12.8311 1028 125.38 337.589 462.922
2077 0 86.1033 13.2283 1139 122.522 337.214 463.061
2078 0 87.1719 11.6781 1018 128.662 336.962 460.884
2079 0 88.1795 11.8849 1048 127.598 337.274 458.872
2080 0 93.2112 12.1981 1137 125.073 337.478 458.731
2081 1 50.1965 9.84133 494 119.818 336.33 475.312
2082 0 52.1209 11.4733 598 114.283 337.035 474.112
2083 0 54.1142 13.0095 704 109.503 336.906 474.18
2084 0 55.0928 12.2158 673 112.808 337.343 472.762
2085 0 57.1336 11.9719 684 113.133 337.411 472.594
2086 0 59.0692 11.9521 706 112.817 337.516 473.585
2087 0 60.1265 11.8916 715 114.334 337.267 470.677
2088 0 63.1651 11.8103 746 113.654 337.48 471.257
2089 0 65.0895 11.031 718 117.109 337.01 470.951
2090 0 65.1014 12.0274 783 115.803 336.936 470.587
2091 0 68.0917 12.0132 818 115.925 336.702 467.48
2092 0 70.1298 12.1489 852 116.96 337.077 467.412
2093 0 73.1887 11.8461 867 118.965 336.93 467.288
2094 0 75.1547 12.268 922 119.205 336.762 467.798
2095 0 78.1915 11.8811 929 118.957 337.177 463.766
2096 0 79.1007 12.8823 1019 117.826 337.218 463.309
2097 0 82.1593 12.3054 1011 120.79 337.244 461.08
2098 0 85.172 12.8094 1091 122.021 337.048 460.908
2099 0 88.1966 12.3701 1091 121.979 337.174 458.902
2100 0 92.1323 12.9054 1189 120.575 336.334 457.924
2101 1 51.1463 11.7506 601 121.7 337.275 477.985
2102 0 53.0538 11.3658 603 124.348 336.887 477.501
2103 0 55.1364 13.8203 762 116.976 337.337 475.424
2104 0 58.2212 12.5212 729 119.827 337.764 476.793
2105 0 58.1559 11.9334 694 123.8 337.231 475.875
2106 0 61.1571 12.3943 758 122.397 336.394 473.034
2107 0 62.0908 12.675 787 123.062 336.7 472.292
2108 0 64.0953 12.8247 822 123.153 336.99 472.547
2109 0 64.1468 12.9079 828 124.279 337.216 470.184
2110 0 68.072 13.0597 889 121.57 337.268 469.118
2111 0 70.1041 12.9664 909 121.503 337.431 467.516
2112 0 71.2018 12.6542 901 123.277 337.312 468.319
2113 0 75.181 12.8623 967 122.056 337.187 465.346
2114 0 78.1842 13.238 1035 121.043 337.845 464.29
2115 0 79.1453 12.4202 983 123.881 337.648 462.365
2116 0 81.249 12.3078 1000 126.344 337.682 460.997
2117 0 82.1094 11.8135 970 132.22 337.351 459.53
2118 1 44.085 10.2302 451 123.31 337.623 480.35
2119 0 45.0763 11.8244 533 119.906 337.946 480.069
2120 0 46.1833 11.9307 551 121.557 337.459 478.294
2121 0 49.1145 11.9109 585 121.735 337.911 479.012
2122 0 50.117 11.8323 593 123.342 337.707 479.019
2123 0 51.0674 12.2387 625 123.515 337.686 475.493
2124 0 53.0471 11.9705 635 125.134 337.712 475.392
2125 0 55.2071 12.2448 676 125.411 338.087 476.673
2126 0 55.091 12.9422 713 123.993 337.809 474.752
2127 0 54.1115 11.8644 642 128.006 337.832 472.698
2128 0 60.0785 13.0829 786 122.211 337.579 472.328
2129 0 61.0653 12.937 790 122.316 336.965 472.014
2130 0 63.1251 13.3386 842 121.319 337.363 469.764
2131 0 63.058 12.2903 775 124.165 337.582 469.674
2132 0 67.0754 13.1941 885 121.798 337.035 468.79
2133 0 70.0732 13.3289 934 120.243 337.012 468.034
2134 0 71.1559 12.7467 907 122.752 337.738 465.731
2135 0 73.0721 12.9461 946 122.446 336.835 465.303
2136 0 76.0688 13.3037 1012 121.692 336.57 464.752
2137 0 77.1147 13.3438 1029 123.119 336.309 463.312
2138 0 80.0504 12.767 1022 124.748 336.684 463.032
2139 0 83.1053 12.5864 1046 124.883 336.188 459.914
2140 0 87.0952 13.3762 1165 121.877 336.487 459.847
2141 0 91.0797 14.0207 1277 119.74 336.444 461.309
2142 0 94.1063 14.1967 1336 120.016 336.54 458.598
2143 0 96.0678 12.9388 1243 123.158 336.788 459.417
2144 0 98.0989 13.6597 1340 122.888 336.773 456
2145 1 52.0819 11.3091 589 126.862 336.796 476.509
2146 0 57.1006 12.1715 695 121.563 337.663 475.965
2147 0 57.2393 12.5264 717 121.702 337.174 474.092
2148 0 59.1077 12.8579 760 113.155 336.38 473.996
2149 0 61.1966 11.651 713 115.749 336.989 473.146
2150 0 61.1598 11.2165 686 117.558 336.719 472.328
2151 0 64.1249 11.6491 747 117.048 337.352 470.345
2152 0 66.1307 12.2636 811 115.62 337.53 469.545
2153 0 69.1421 12.8142 886 113.481 337.314 470.748
2154 0 70.1258 12.6202 885 113.899 336.949 468.407
2155 0 76.0906 13.2737 1010 109.676 336.727 467.651
2156 0 75.0962 12.1577 913 114.568 337.752 467.365
2157 0 80.1221 12.6931 1017 112.056 336.612 463.883
2158 0 80.0749 11.8139 946 115.291 337.24 462.666
2159 0 85.0474 13.0163 1107 111.929 337.212 462.467
2160 0 88.0951 12.4979 1101 113.609 337.854 460.343
2161 0 89.1662 11.686 1042 113.084 336.937 455.58
2162 0 92.1808 11.4991 1060 116.611 337.697 460.732
2163 0 97.0892 12.3392 1198 114.788 337.435 458.334
2164 0 98.2119 11.5363 1133 112.601 336.487 447.971
2165 1 51.309 11.8498 608 105.696 336.76 472.035
2166 0 51.0947 10.2946 526 116.365 335.783 468.192
2167 0 56.0368 12.2063 684 112.45 334.444 472.142
2168 0 56.0901 11.428 641 116.395 334.396 469.839
2169 0 61.0546 12.4151 758 112.373 334.607 469.811
2170 0 61.0856 11.1319 680 116.485 334.493 470.987
2171 0 63.0285 12.3119 776 114.179 334.043 468.655
2172 0 63.0249 12.027 758 116.135 334.489 466.018
2173 0 65.0955 11.6444 758 117.165 335.311 468.007
2174 0 71.1013 13.3612 950 111.972 334.856 465.949
2175 0 74.1054 12.9815 962 112.465 334.726 465.442
2176 0 74.0543 12.2073 904 116.706 335.644 462.601
2177 0 77.1579 12.9086 996 114.693 335.467 463.756
2178 0 81.1464 12.1755 988 116.246 334.727 462.209
2179 0 81.1372 11.992 973 118.618 335.047 459.008
2180 0 85.0583 11.6391 990 119.646 334.889 458.386
2181 0 90.2183 13.2235 1193 115.604 335.056 456.868
2182 0 92.0857 12.5101 1152 116.719 334.564 457.503
2183 1 49.0221 10.9339 536 114.015 334.646 477.052
2184 0 48.0262 10.3693 498 116.538 334.944 475.508
2185 0 48.1108 10.1848 490 107.241 336.178 473.037
2186 0 51.1328 11.6755 597 103.598 335.874 473.576
2187 0 55.1012 12.5043 689 99.6386 335.904 473.935
2188 0 55.1024 12.2681 676 101.87 335.694 470.796
2189 0 56.2106 11.4035 641 104.959 336.061 472.874
2190 0 59.0653 12.3761 731 102.399 336.222 472.316
2191 0 60.086 10.9343 657 106.601 336.326 470.63
2192 0 61.07 12.3956 757 104.754 336.178 469.724
2193 0 65.098 12.7039 827 102.879 336.336 466.388
2194 0 66.0524 11.1578 737 106.761 336.796 465.335
2195 0 67.1169 12.1728 817 104.94 337.05 464.755
2196 0 71.0283 12.6288 897 103.74 336.666 463.556
2197 0 73.0983 11.9155 871 105.998 336.543 462.2
2198 0 77.1271 12.8878 994 103.327 336.875 462.486
2199 0 78.109 11.3559 887 107.936 336.015 461.928
2200 0 82.0928 13.1559 1080 103.399 336.73 460.545
2201 0 85.0842 12.6228 1074 105.146 336.118 457.257
2202 0 88.1647 12.885 1136 103.752 335.167 459.19
2203 0 92.1111 13.3751 1232 102.747 335.676 456.674
2204 0 95.16 12.9676 1234 104.923 335.546 455.384
2205 1 51.1225 10.7389 549 105.226 336.816 477.474
2206 0 53.2061 10.2056 543 106.681 336.381 474.836
2207 0 55.2286 10.701 591 107.25 336.562 470.69
2208 0 54.1795 10.9266 592 107.439 337.253 473.791
2209 0 58.111 11.891 691 104.397 336.553 472.334
2210 0 60.0835 13.3148 800 101.192 337.024 471.114
2211 0 60.1202 12.6081 758 104.507 337.534 469.397
2212 0 65.0682 12.6022 820 104.028 336.956 468.804
2213 0 67.0609 12.004 805 105.605 337.055 467.943
2214 0 66.0874 11.848 783 108.857 336.45 465.281
2215 0 71.1265 12.766 908 106.183 336.605 466.044
2216 0 71.1054 12.2494 871 108.861 336.193 465.586
2217 0 75.1129 13.4864 1013 106.361 336.294 463.147
2218 0 78.2347 12.9099 1010 108.1 337.238 461.806
2219 0 80.1227 12.3311 988 110.98 336.372 459.174
2220 0 83.17 14.0195 1166 107.303 336.63 459.301
2221 0 87.1584 12.9075 1125 111.133 336.106 459.155
2222 0 90.1231 13.1709 1187 111.729 337.207 456.242
2223 0 90.1042 12.0416 1085 116.557 335.993 455.37
2224 0 96.1485 13.6664 1314 111.519 336.282 450.568
2225 0 99.1618 12.9586 1285 114.207 336.792 449.97
2226 0 102.149 13.6663 1396 113.248 337.178 448.813
2227 1 54.071 10.0424 543 112.26 336.816 474.214
2228 0 55.037 10.5202 579 111.269 336.717 473.808
2229 0 56.076 10.0578 564 113.165 336.933 473.933
2230 0 60.0738 12.2017 733 106.509 336.079 470.352
2231 0 60.0596 11.3221 680 110.912 335.809 467.878
2232 0 63.0956 12.1879 769 108.501 336.122 468.957
2233 0 63.0271 10.6621 672 113.833 336.49 464.707
2234 0 67.1078 12.5619 843 109.612 337.036 465.597
2235 0 68.1137 12.7434 868 109.579 336.548 462.569
2236 0 74.0988 12.3214 913 109.645 336.932 465.143
2237 0 75.1091 12.7548 958 110.725 336.904 463.416
2238 0 76.1329 13.043 993 112.496 337.128 459.904
2239 0 78.0475 12.2105 953 114.813 337.323 459.243
2240 0 84.0992 13.496 1135 110.363 337.001 459.214
2241 0 87.2703 12.891 1125 113.174 336.196 456.82
2242 0 89.1634 12.8192 1143 114.736 336.611 456.842
2243 0 92.185 13.1583 1213 114.885 337.068 452.461
2244 0 97.1605 13.9254 1353 112.537 336.431 452.778
2245 1 51.0181 10.5453 538 119.409 336.697 476.281
2246 0 53.1027 11.4495 608 123.181 337.436 474.438
2247 0 55.0281 11.7031 644 123.163 336.62 472.202
2248 0 58.0877 11.672 678 115.639 337.047 478.19
2249 0 56.0417 11.2416 630 123.162 337.127 479.186
2250 0 60.1022 12.5786 756 119.454 337.313 476.918
2251 0 63.0712 12.5097 789 119.165 336.763 475.644
2252 0 66.0777 14.7705 976 111.784 337.293 473.172
2253 0 67.1287 14.0625 944 114.537 337.607 473.619
2254 0 69.0683 13.9282 962 115.61 337.527 471.986
2255 0 72.1774 13.924 1005 116.195 337.266 469.536
2256 0 72.1362 13.6686 986 118.228 337.172 468.86
2257 0 75.153 12.3748 930 121.476 337.334 468.503
2258 0 78.1416 13.4115 1048 119.636 337.076 469.656
2259 0 79.1775 12.7814 1012 122.518 337.199 467.97
2260 0 82.1207 13.7359 1128 119.579 337.607 467.057
2261 0 84.141 13.0733 1100 122.2 336.673 468.596
2262 0 87.1568 11.9555 1042 124.914 336.475 469.645
2263 0 91.129 13.2779 1210 123.369 335.492 468.749
2264 0 90.0444 12.7937 1152 128.701 335.621 467.569
2265 0 94.0966 12.9335 1217 128.49 334.07 467.298
2266 1 48.1167 10.5161 506 128.168 333.686 490.54
2267 0 48.1156 11.3685 547 129.161 333.821 490.062
2268 0 51.0799 12.1966 623 128.125 333.185 489.226
2269 0 54.2039 12.5452 680 124.938 332.951 489.379
2270 0 56.0216 13.6911 767 120.754 333.472 490.679
2271 0 56.0645 12.6461 709 126.952 333.52 489.041
2272 0 60.114 11.9273 717 124.656 334.285 490.806
2273 0 62.0675 13.9203 864 120.731 334.037 487.591
2274 0 64.0654 13.2209 847 123.554 333.829 486.727
2275 0 67.1005 14.0983 946 119.075 333.653 487.436
2276 0 67.1147 13.5142 907 122.52 333.436 484.551
2277 0 70.1994 13.3192 935 122.225 332.916 484.112
2278 0 72.2672 12.7444 921 124.122 332.929 481.977
2279 0 73.1097 12.9805 949 125.129 332.496 481.329
2280 0 75.1287 14.3487 1078 122.738 331.926 477.513
2281 0 77.1489 13.1564 1015 125.033 331.933 475.853
2282 0 82.196 15.2927 1257 118.068 331.816 475.933
2283 0 83.2032 13.9418 1160 122.856 331.19 475.95
2284 0 86.1981 14.049 1211 122.612 330.601 472.817
2285 0 88.1847 13.381 1180 125.274 330.609 468.909
2286 0 93.2434 13.7168 1279 123.44 330.23 469.103
2287 0 96.1307 16.2591 1563 116.505 330.583 467.111
2288 0 99.2588 14.2557 1415 122.255 330.09 466.371
2289 0 102.208 13.7465 1405 123.534 330.046 466.337
2290 0 103.095 12.9202 1332 126.392 330.447 465.073
2291 0 110.228 13.5265 1491 123.596 330.929 465.518
2292 0 115.236 15.0213 1731 120.448 331.013 461.192
2293 1 58.0579 11.3507 659 125.941 330.625 489.489
2294 0 61.0481 11.8595 724 125.483 331.141 485.215
2295 0 61.1221 11.9269 729 120.609 330.32 480.431
2296 0 68.0345 12.817 872 114.753 330.067 483.43
2297 0 69.1356 12.4538 861 115.922 330.353 482.835
2298 0 71.0676 12.8891 916 114.796 329.908 481.224
2299 0 73.1491 12.29 899 117.548 330.356 477.554
2300 0 76.068 11.4503 871 118.249 330.504 477.076
2301 0 81.1427 13.0881 1062 113.21 331.246 473.298
2302 0 83.1486 12.4957 1039 114.088 330.636 474.803
2303 0 85.108 12.8073 1090 113.261 330.381 474.437
2304 0 86.07 13.245 1140 114.591 330.067 468.617
2305 0 92.1862 13.4402 1239 112.114 330.525 470.023
2306 0 94.088 12.9666 1220 112.931 330.781 471.399
2307 0 97.0775 11.599 1126 112.278 329.996 469.553
2308 0 101.237 12.614 1277 112.41 330.166 466.435
2309 0 104.123 12.6677 1319 115.124 329.914 463.407
2310 0 110.243 14.0054 1544 111.593 330.165 459.574
2311 0 113.316 12.4519 1411 112.992 329.583 455.538
2312 0 118.219 13.2044 1561 114.732 329.951 453.448
2313 1 64.1312 11.2894 724 111.069 329.785 482.659
2314 0 67.1562 11.5849 778 109.914 330.238 483.339
2315 0 68.1029 11.8644 808 112.464 330.323 481.876
2316 0 70.137 11.7912 827 114.116 330.567 478.062
2317 0 73.413 11.4285 839 114.041 330.532 478.553
2318 0 77.3144 13.2188 1022 109.375 330.849 477.195
2319 0 78.1778 12.382 968 112.508 330.628 475.145
2320 0 82.2979 12.8071 1054 111.21 329.748 472.571
2321 0 84.4038 12.2388 1033 113.205 330.392 470.378
2322 0 87.4228 12.3423 1079 113.167 330.228 469.538
2323 0 88.2458 11.9212 1052 115.555 330.914 466.624
2324 0 92.3587 13.9023 1284 111.632 329.872 465.356
2325 0 92.393 12.4144 1147 116.881 330.419 464.361
2326 0 96.3656 13.0233 1255 115.499 330.246 460.688
2327 0 99.2915 12.8007 1271 116.064 330.279 461.411
2328 0 103.25 13.1817 1361 114.782 330.225 459.744
2329 0 108.344 13.3741 1449 113.958 330.013 455.081
2330 0 112.193 14.279 1602 112.132 330.097 448.883
2331 0 115.237 13.546 1561 114.429 330.405 453.593
2332 0 116.45 11.9622 1393 119.332 330.314 449.085
2333 0 121.416 11.72 1423 117.14 330.744 450.448
2334 0 127.33 13.1077 1669 113.73 330.436 446.044
2335 1 67.2581 10.1549 683 109.376 330.416 474.701
2336 0 67.2581 10.0954 679 138.607 329.38 474.795
2337 0 73.347 10.7707 790 109.43 331.004 473.813
2338 0 75.2489 12.04 906 109.99 330.419 471.704
2339 0 77.2882 12.227 945 110.697 330.948 467.334
2340 0 79.2751 10.4068 825 114.793 331.296 466.918
2341 0 83.627 11.7067 979 112.341 330.908 463.421
2342 0 86.3646 13.1999 1140 108.889 330.646 463.471
2343 0 88.3208 11.2091 990 114.814 331.121 462.121
2344 0 91.391 12.9881 1187 111.836 331.124 461.272
2345 0 92.4093 12.1849 1126 115.806 330.668 457.238
2346 0 94.4936 11.5881 1095 116.857 331.376 456.215
2347 0 101.588 13.7614 1398 110.938 330.726 454.129
2348 0 103.429 12.25 1267 114.407 330.899 454.751
2349 0 104.282 12.6484 1319 115.736 331.66 451.065
2350 0 108.355 13.0497 1414 115.115 331.425 447.958
2351 0 110.326 12.6353 1394 116.923 331.16 446.334
2352 0 115.339 13.9415 1608 113.988 331.745 445.53
2353 0 117.297 12.6261 1481 117.098 332.083 442.894
2354 0 122.461 12.3877 1517 117.287 332.175 443.011
2355 0 124.301 11.9951 1491 119.339 332.266 438.527
2356 0 129.445 12.7312 1648 118.112 332.442 435.895
2357 0 133.541 13.1645 1758 117.948 332.547 434.21
2358 1 73.2017 10.6555 780 112.387 333.153 466.358
2359 0 76.1178 11.3771 866 111.723 333.998 467.565
2360 0 79.2057 12.8526 1018 107.861 334.306 464.728
2361 0 81.0926 12.3316 1000 109.985 335.551 461.835
2362 0 83.1699 11.9274 992 112.475 334.939 459.209
2363 0 85.1231 12.7815 1088 111.166 335.233 459.73
2364 0 87.1755 11.3564 990 115.224 335.671 457.241
2365 0 89.1036 11.1668 995 117.251 335.46 453.814
2366 0 93.1569 12.1945 1136 114.191 335.067 453.792
2367 0 99.2887 13.5161 1342 109.989 334.756 451.53
2368 0 102.268 12.8974 1319 111.321 334.158 450.911
2369 0 105.257 11.4862 1209 113.983 334.162 450.654
2370 0 108.301 11.1356 1206 116.143 334.727 446.635
2371 0 113.235 11.878 1345 114.285 335.007 446.137
2372 1 60.1396 10.5255 633 109.603 335.047 469.637
2373 0 60.1566 11.4534 689 108.074 334.866 468.376
2374 0 65.1784 11.3688 741 106.91 334.795 472.962
2375 0 67.0791 11.4939 771 106.008 334.042 472.843
2376 0 68.1904 11.7025 798 106.604 334.35 471.508
2377 0 71.1869 12.3337 878 106.036 334.139 469.311
2378 0 73.1586 12.2337 895 106.832 335.268 464.992
2379 0 76.3235 12.3422 942 107.194 334.618 465.102
2380 0 77.1362 11.6806 901 110.139 334.12 465.326
2381 0 79.2541 11.7344 930 111.476 334.844 463.483
2382 0 83.0912 12.384 1029 111.915 334.534 464.079
2383 0 84.2785 11.2366 947 115.563 334.58 460.693
2384 0 86.2799 11.6366 1004 114.617 335.394 460.618
2385 0 90.3545 11.632 1051 116.056 335.414 455.412
2386 0 93.3987 12.452 1163 114.207 335.221 453.242
2387 0 97.2653 11.5046 1119 115.756 334.873 452.223
2388 0 98.2972 11.2821 1109 117.261 334.826 450.579
2389 0 103.432 11.9595 1237 115.745 334.644 447.019
2390 0 104.376 11.4681 1197 117.288 335.083 445.888
2391 0 108.308 10.6825 1157 117.416 335.026 446.857
2392 1 59.4348 10.3138 613 108.186 334.971 472.806
2393 0 59.4845 10.8095 643 109.202 334.258 470.361
2394 0 59.3597 10.2595 609 109.655 335.062 470.328
2395 0 63.2067 12.0873 764 105.851 334.901 471.971
2396 0 63.2281 9.78996 619 113.733 334.817 469.848
2397 0 68.1948 12.0537 822 106.712 334.09 470.893
2398 0 68.1737 11.0453 753 111.019 334.862 469.563
2399 0 71.1494 11.4548 815 109.893 334.148 468.093
2400 0 72.2902 10.9835 794 112.247 334.703 469.89
2401 0 75.2067 11.8208 889 111.849 334.74 465.388
2402 0 75.1698 10.8953 819 114.674 335.49 464.254
2403 0 80.4052 10.9694 882 113.379 335.65 464.978
2404 0 80.4669 11.6818 940 113.922 335.01 462.789
2405 0 84.2997 10.8185 912 115.588 335.664 461.008
2406 0 85.1985 10.9392 932 116.664 335.612 459.017
2407 0 89.2057 11.9835 1069 114.038 335.447 459.396
2408 0 92.2359 12.6523 1167 112.811 335.584 458.502
2409 0 95.2576 12.188 1161 114.996 336.071 454.686
2410 0 99.4081 12.7354 1266 113.201 336.385 454.616
2411 1 55.1638 10.7136 591 110.739 336.003 477.69
2412 0 57.2242 11.0618 633 110.532 335.517 476.886
2413 0 59.2187 10.1488 601 113.661 335.845 476.759
2414 0 59.2062 12.6338 748 111.829 335.643 471.67
2415 0 60.311 13.3475 805 111.087 335.978 471.841
2416 0 62.23 11.9396 743 114.262 336.009 471.619
2417 0 64.2756 12.073 776 114.125 334.869 470.637
2418 0 66.4684 11.6747 776 115.438 334.986 467.802
2419 0 70.1746 13.8227 970 109.648 335.233 466.569
2420 0 73.5614 12.8736 947 111.88 335.458 465.695
2421 0 76.5234 14.6622 1122 108.464 334.899 462.504
2422 0 75.3637 12.1013 912 118.27 334.831 463.514
2423 0 80.4596 13.0003 1046 118.632 335.291 462.398
2424 0 81.3789 11.342 923 122.257 334.806 460.04
2425 0 84.3136 13.2007 1113 110.212 335.052 459.159
2426 0 86.4026 11.9557 1033 114.01 335.552 456.837
2427 0 90.3615 12.1623 1099 114.103 335.542 455.335
2428 0 92.2356 13.3571 1232 111.696 334.994 453.719
2429 0 95.2411 12.3371 1175 117.611 334.598 455.605
2430 1 52.145 10.2023 532 112.34 334.141 476.9
2431 0 54.18 11.148 604 112.94 334.263 474.414
2432 0 54.2478 11.2078 608 113.031 334.842 473.541
2433 0 57.1795 13.5363 774 108.733 334.509 471.326
2434 0 59.1415 11.5317 682 113.05 334.091 473.384
2435 0 60.1325 13.1709 792 108.602 333.989 474.927
2436 0 61.0854 10.9846 671 115.156 335.331 474.489
2437 0 62.1604 11.6634 725 113.683 335.935 471.823
2438 0 66.1411 11.7627 778 112.035 335.643 472.784
2440 0 67.1735 11.0311 741 115.015 336.124 468.128
2441 0 69.0856 12.8536 888 111.275 335.858 466.332
2442 0 73.1747 13.7069 1003 108.178 336.494 468.476
2443 0 75.1133 11.4227 858 114.197 336.753 467.199
2444 0 77.1556 12.0795 932 113.972 337.032 464.898
2445 0 80.2221 13.3878 1074 111.396 337.002 463.768
2446 0 83.1447 12.7368 1059 116.14 336.495 457.969
2447 0 88.156 11.491 1013 118.444 336.682 460.877
2448 0 88.1014 13.0191 1147 116.638 336.259 460.917
2449 0 93.1763 12.8037 1193 117.194 335.754 455.841
2450 0 96.265 13.5667 1306 115.824 335.684 453.556
2451 0 98.2672 12.7713 1255 117.471 335.876 451.885
2452 0 101.262 12.7096 1287 117.514 335.141 451.117
2453 0 107.306 13.4475 1443 115.151 335.719 449.204
2454 0 110.276 14.5363 1603 112.729 335.672 443.9
2455 1 59.1099 10.472 619 112.864 337.507 474.48
2456 0 61.1677 11.3459 694 112.772 336.287 471.108
2457 0 64.1856 11.3265 727 113.479 335.999 469.889
2458 0 67.1834 12.6966 853 109.657 336.863 469.927
2459 0 68.1379 12.1812 830 111.727 336.404 467.611
2460 0 70.1092 14.0495 985 108.829 335.818 467.24
2461 0 75.1885 13.0073 978 109.796 335.752 464.9
2462 0 77.0912 12.7122 980 109.884 336.599 465.231
2463 0 80.2037 12.0693 968 111.323 336.721 461.6
2464 0 82.1789 12.2538 1007 110.256 336.095 462.569
2465 0 85.2379 12.6939 1082 109.633 335.648 460.263
2466 0 88.168 13.6104 1200 107.784 336.552 457.049
2467 0 91.2381 12.2536 1118 111.838 336.092 452.81
2468 1 51.0962 10.5683 540 108.217 337.246 475.478
2469 0 52.0183 11.5729 602 105.023 338.043 476.096
2470 0 53.1033 10.7714 572 107.734 337.285 470.685
2471 0 54.0549 10.6188 574 108.638 336.841 472.925
2472 0 55.0535 11.2799 621 104.881 337.084 473.414
2473 0 58.0704 11.6238 675 104.707 336.948 472.345
2474 0 60.09 11.6991 703 102.64 336.812 472.76
2475 0 63.0734 13.841 873 98.5441 336.685 471.112
2476 0 64.0942 10.7186 687 103.812 336.795 467.464
2477 0 66.0878 11.7873 779 102.182 337.329 468.587
2478 0 68.0888 12.234 833 101.247 337.3 466.83
2479 0 72.0498 12.1999 879 101.668 337.272 464.807
2480 0 74.0677 12.6506 937 101.399 337.079 464.547
2481 0 75.0614 11.8436 889 103.061 336.918 461.584
2482 0 79.1339 13.6478 1080 98.6287 337.347 462.694
2483 0 80.0881 13.6974 1097 99.8122 337.104 458.375
2484 0 81.0602 11.7444 952 105.176 336.901 459.112
2485 0 85.145 13.3654 1138 101.046 337.069 458.441
2486 0 86.1502 12.6523 1090 102.616 336.876 455.283
2487 0 89.1029 11.4138 1017 105.559 336.697 457.421
2488 0 91.108 12.8748 1173 103.299 336.626 453.418
2489 0 94.0906 13.0725 1230 102.721 336.808 455.033
2490 0 98.2192 12.4619 1224 105.475 336.848 450.336
2491 0 98.17 12.0403 1182 107.571 337.232 448.137
2492 0 100.133 12.014 1203 107.776 337.066 445.112
2493 0 106.372 12.1837 1296 107.471 336.461 441.906
2494 0 108.238 12.6388 1368 106.357 336.385 441.968
2495 0 110.138 12.5116 1378 107.226 335.999 438.634
2496 1 57.0542 9.56985 546 109.247 336.806 461.592
2497 0 59.1489 10.854 642 103.061 335.368 457.595
2498 0 63.0907 10.049 634 98.4479 335.618 459.751
2499 0 63.0618 10.7989 681 95.6094 335.167 456.913
2500 0 67.1188 10.906 732 95.9208 335.258 456.422
2501 0 67.0724 10.4216 699 97.9399 335.624 455.056
2502 0 73.0782 9.8251 718 98.695 335.55 457.24
2503 0 78.0918 11.6914 913 95.6616 335.414 453.364
2504 0 76.0943 11.4463 871 97.9334 335.626 449.476
2505 0 81.1701 10.9769 891 99.6409 335.612 451.901
2506 0 84.1057 11.3191 952 100.152 335.459 450.976
2507 0 87.1144 12.386 1079 98.6914 335.131 448.64
2508 0 91.1232 11.2046 1021 102.126 335.973 449.431
2509 0 94.1591 11.4381 1077 102.88 336.109 445.949
2510 0 97.1833 12.4404 1209 101.764 335.749 447.86
2511 0 103.272 13.3143 1375 105.227 336.201 449.276
2512 0 104.072 12.3376 1284 109.47 336.097 448.29
2513 0 107.217 12.7032 1362 109.03 335.451 446.957
2514 0 109.144 12.708 1387 110.25 335.676 444.306
2515 0 115.171 12.4597 1435 110.295 335.73 440.376
2516 0 117.187 11.52 1350 113.716 335.232 434.093
2517 1 64.0778 11.3456 727 108.985 334.433 463.576
2518 0 65.3461 11.2172 733 110.513 335.673 466.154
2519 0 69.3042 12.1926 845 107.862 335.852 465.846
2520 0 71.2465 12.1971 869 108.64 335.922 465.864
2521 0 75.1934 12.9001 970 106.746 335.977 463.494
2522 0 75.2645 11.8515 892 110.675 335.697 462.618
2523 0 77.238 11.717 905 112.118 336.509 461.139
2524 0 81.2919 12.9287 1051 109.074 335.687 459.77
2525 0 83.2373 12.2902 1023 111.106 335.588 455.953
2526 0 84.1682 12.2374 1030 111.735 335.955 457.34
2527 0 87.2146 14.0229 1223 108.73 335.886 453.056
2528 0 91.26 13.1821 1203 111.619 336.288 453.564
2529 0 93.3295 12.4184 1159 113.527 336.505 454.142
2530 0 97.5166 13.4234 1309 112.973 336.461 451.136
2531 0 101.356 14.4145 1461 111.496 335.64 446.175
2532 0 105.406 13.9271 1468 111.743 335.958 444.248
2533 0 107.483 13.6486 1467 112.725 336.599 441.736
2534 0 110.422 13.1406 1451 114.629 335.986 441.467
2535 0 113.354 14.5208 1646 111.734 335.902 438.809
2536 0 118.338 14.8473 1757 109.593 336.706 441.118
2537 0 119.438 14.2752 1705 112.828 336.393 436.635
2538 0 124.362 15.0046 1866 110.05 336.152 434.195
2539 0 127.251 14.656 1865 109.655 336.239 431.257
2540 0 131.169 14.6376 1920 109.382 335.881 433.823
2541 0 139.262 14.785 2059 108.491 335.829 429.166
2542 1 79.2391 12.8472 1018 110.538 336.478 459.674
2543 0 78.1627 10.9771 858 114.416 336.953 457.618
2544 0 84.2613 13.47 1135 103.252 336.9 460.65
2545 0 86.2661 12.8904 1112 105.469 337.001 458.793
2546 0 87.4186 12.8348 1122 106.37 337.018 456.739
2547 0 91.251 13.0519 1191 105.618 336.736 455.781
2548 0 93.2369 12.5165 1167 107.55 337.057 452.224
2549 0 94.4311 11.8817 1122 110.831 337.374 451.484
2550 0 98.1798 12.966 1273 107.693 337.077 452.891
2551 0 104.26 12.9676 1352 107.39 336.604 448.832
2552 0 106.331 13.2229 1406 107.732 337.079 444.876
2553 0 109.344 12.6208 1380 109.679 337.084 443.367
2554 0 113.378 13.6799 1551 106.911 336.889 441.01
2555 0 118.316 13.1766 1559 107.548 336.167 441.767
2556 0 120.415 13.5366 1630 109.294 336.487 437.613
2557 0 124.289 13.0422 1621 109.73 336.425 435.903
2558 0 127.4 13.7049 1746 108.434 336.109 433.869
2559 0 131.374 14.5082 1906 107.083 336.399 432.795
2560 0 135.463 14.6387 1983 107.488 336.543 427.936
2561 0 139.412 13.7793 1921 108.911 337.079 430.098
2562 0 142.338 12.667 1803 112.562 336.724 426.246
2563 0 147.323 14.2884 2105 108.352 336.315 425.603
2564 0 152.324 13.9046 2118 110.574 336.613 422.166
2565 0 155.259 13.0878 2032 113.15 337.05 416.932
2566 0 159.279 13.2849 2116 112.382 336.662 416.041
2567 0 166.189 14.3211 2380 110.206 336.448 408.61
2568 0 172.339 14.2742 2460 110.367 335.94 409.341
2569 0 175.197 13.4534 2357 113.381 335.967 405.245
2570 0 182.22 12.5782 2292 115.569 336.323 401.413
2571 0 188.283 13.5434 2550 113.577 335.984 401.01
2572 0 193.35 13.2609 2564 115.777 336.455 394.142
2573 0 201.272 14.2096 2860 113.44 336.93 390.034
2574 1 54.0799 8.94973 484 100.69 335.806 467.748
2575 0 56.0842 10.8587 609 95.3974 335.516 468.363
2576 0 57.0453 10.3427 590 92.0288 336.453 470.149
2577 0 57.058 8.71043 497 95.6076 336.35 465.928
2578 0 60.0506 9.59191 576 93.5694 335.752 466.082
2579 0 61.0739 9.41482 575 94.5391 336.085 462.471
2580 0 65.1019 10.1533 661 93.0575 335.79 463.483
2581 0 66.1296 10.918 722 93.2825 336.695 462.805
2582 0 70.2161 12.5185 879 94.2639 334.513 467.162
2583 0 72.1667 11.9861 865 99.5353 335.95 467.289
2584 0 74.1661 10.1529 753 107.745 335.182 464.629
2585 0 80.119 13.3052 1066 99.8199 334.814 459.677
2586 0 79.0946 11.9098 942 104.046 334.677 462.05
2587 0 79.0975 10.0509 795 108.41 334.797 461.751
2588 0 85.1218 12.5937 1072 102.826 335.094 459.849
2589 0 88.3595 9.64242 852 108.469 337.555 463.558
2590 0 88.4138 10.4961 928 105.226 337.421 460.389
2591 0 90.2431 10.782 973 107.651 337.069 458.755
2592 0 91.3357 10.7844 985 107.611 336.472 457.544
2593 0 95.3259 12.2003 1163 104.458 336.968 457.463
2594 0 98.237 11.2381 1104 107.498 336.524 453.388
2595 0 96.2866 12.3382 1188 105.198 336.705 451.861
2596 1 63.169 10.559 667 104.807 337.63 472.532
2597 0 63.132 11.0879 700 104.936 337.849 471.516
2598 0 62.1338 11.2338 698 105.934 337.808 471.444
2599 0 63.1645 12.792 808 103.9 338.307 469.89
2600 0 65.2425 11.7102 764 106.753 337.861 469.42
2601 0 66.2839 11.6167 770 107.422 338.374 467.339
2602 0 70.2022 11.5381 810 108.065 337.307 466.553
2603 0 72.2529 12.4424 899 106.396 337.257 466.482
2604 0 72.3185 13.2193 956 104.862 337.12 466.117
2605 0 75.3229 12.6787 955 106.984 337.639 463.719
2606 0 75.3262 12.7578 961 108.388 337.183 461.466
2607 0 78.3094 12.5528 983 108.129 337.433 460.365
2608 0 80.4838 12.313 991 108.284 337.59 460.399
2609 0 84.2527 12.9491 1091 107.054 337.966 458.883
2610 0 87.2296 14.7771 1289 102.644 338.386 459.367
2611 0 87.2294 12.2894 1072 110.035 337.847 456.373
2612 0 90.1912 12.5068 1128 110.025 337.26 454.93
2613 1 47.1979 11.6954 552 108.784 336.966 475.647
2614 0 52.2775 12.7206 665 106.344 337.144 474.248
2615 0 50.2502 11.4427 575 110.988 336.849 474.287
2616 0 54.2343 12.2432 664 105.078 336.997 475.273
2617 0 55.0894 13.1604 725 100.93 336.841 473.908
2618 0 55.0896 13.0333 718 102.313 336.249 472.813
2619 0 58.0769 13.1205 762 102.648 336.215 473.265
2620 0 59.1191 13.1091 775 102.297 335.862 473.661
2621 0 60.0849 12.7486 766 104.256 335.855 472.931
2622 0 63.2369 12.6825 802 104.102 336.118 471.933
2623 0 63.0791 13.1739 831 104.023 335.585 473.576
2624 0 64.0796 11.4545 734 108.537 336.025 471.007
2625 0 66.1453 12.019 795 108.122 336.146 469.325
2626 0 68.102 12.4225 846 106.67 335.757 469.026
2627 0 71.2103 13.0178 927 105.395 336.12 466.894
2628 0 75.1291 13.377 1005 104.809 336.185 465.079
2629 0 74.098 13.1448 974 107.51 335.746 463.888
2630 0 78.0762 13.0642 1020 106.435 335.726 466.533
2631 0 82.1094 12.5564 1031 107.674 335.326 463.324
2632 0 85.0543 13.6736 1163 105.16 335.026 462.455
2633 0 88.1759 13.9607 1231 104.702 335.068 460.906
2634 0 90.0656 15.089 1359 102.779 335.057 459.272
2635 0 93.1186 13.2197 1231 107.35 334.454 459.98
2636 0 97.0789 14.3389 1392 105.798 334.588 458.531
2637 0 100.073 14.5694 1458 105.927 334.083 457.795
2638 0 103.071 14.4367 1488 107.013 333.976 454.29
2639 0 105.074 14.6373 1538 106.821 333.865 455.724
2640 0 106.207 13.6055 1445 111.716 333.846 451.743
2641 0 114.112 14.591 1665 108.081 333.758 450.023
2642 1 64.0926 11.9359 765 111.752 334.545 472.125
2643 0 66.0929 11.5141 761 113.017 333.436 473.418
2644 0 66.0103 12.1042 799 112.9 332.678 469.776
2645 0 71.0477 13.9906 994 107.538 333.232 471.248
2646 0 72.0293 12.0229 866 114.634 333.159 468.449
2647 0 76.0684 13.0803 995 111.274 333.379 468.42
2648 0 78.0804 13.8703 1083 109.936 333.215 467.837
2649 0 81.0818 13.2335 1073 111.963 333.532 464.778
2650 0 84.0517 14.1342 1188 111.518 333.376 464.763
2651 0 84.1149 13.2913 1118 116.075 333.676 462.918
2652 0 88.1098 13.2675 1169 117.656 333.666 460.031
2653 0 91.2538 14.4761 1321 114.734 332.665 461.338
2654 0 94.2025 14.3202 1349 116.205 333.07 458.828
2655 0 96.2047 13.6896 1317 118.223 333.79 458.973
2656 0 98.3073 13.173 1295 121.135 333.181 456.485
2657 0 100.234 14.0871 1412 119.613 333.137 455.515
2658 0 103.195 14.3418 1480 119.362 333.355 456.23
2659 0 107.163 13.8388 1483 120.736 332.951 451.778
2660 0 110.122 13.1309 1446 121.417 332.725 450.932
2661 0 114.256 13.251 1514 122.273 332.513 447.263
2662 0 119.347 13.6074 1624 121.868 333.073 446.572
2663 1 67.0369 11.0238 739 120.365 333.355 473.985
2664 0 68.1875 11.659 795 118.528 333.164 468.731
2665 0 71.1584 12.9148 919 114.408 333.095 469.602
2666 0 74.1078 12.8057 949 116.932 332.945 468.831
2667 0 76.1165 12.3626 941 119.094 332.74 466.363
2668 0 79.1926 13.8144 1094 115.097 332.829 465.98
2669 0 79.1775 12.7435 1009 119.434 332.667 463.833
2670 0 85.0698 13.5771 1155 116.182 333.612 464.028
2671 0 84.2372 13.1533 1108 119.672 333.593 461.006
2672 0 89.1981 13.1841 1176 118.521 333.028 461.823
2673 0 91.2984 12.3551 1128 122.461 333.834 459.505
2674 0 94.2274 12.9156 1217 120.666 333.331 458.484
2675 0 97.1875 13.7466 1336 119.841 333.352 454.628
2676 0 99.1619 13.0695 1296 121.46 333.709 454.781
2677 0 102.294 12.8844 1318 122.19 333.62 454.656
2678 0 104.267 13.3599 1393 122.597 333.362 449.202
2679 1 56.2345 10.2962 579 119.993 333.067 475.734
2680 0 60.1712 11.4507 689 119.064 333.993 475.09
2681 0 61.1585 12.1978 746 119.83 333.403 472.962
2682 0 65.302 14.0118 915 114.282 333.591 473.649
2683 0 64.2944 11.5407 742 121.524 333.64 473.384
2684 0 64.1001 11.3728 729 120.202 333.779 472.679
2685 0 67.1835 11.5951 779 118.309 332.908 471.637
2686 0 69.1224 12.0077 830 117.707 333.32 470.742
2687 0 71.1283 11.9924 853 119.203 333.143 468.866
2688 0 74.1587 12.3249 914 118.83 333.377 468.259
2689 0 77.2313 12.974 1002 116.662 333.797 467.665
2690 0 78.291 13.6286 1067 115.639 333.788 465.644
2691 0 81.1641 11.8156 959 120.869 333.563 463.759
2692 0 83.1603 11.9047 990 121.688 334.269 463.39
2693 0 84.1871 12.0921 1018 121.725 333.987 461.999
2694 0 88.1696 12.941 1141 119.394 334.233 460.373
2695 0 92.219 13.3487 1231 118.603 333.7 460.221
2696 0 93.1963 13.0048 1212 120.507 333.781 459.886
2697 0 95.1204 12.6261 1201 120.365 334.407 458.863
2698 0 98.1543 12.3377 1211 122.398 334.246 454.156
2699 0 101.131 12.7459 1289 121.14 334.5 452.379
2700 0 102.287 12.7876 1308 122.989 334.397 448.641
2701 0 110.254 14.1311 1558 118.488 333.842 447.918
2702 1 60.0945 10.367 623 123.586 333.467 470.729
2703 0 61.1239 10.4051 636 122.143 333.726 468.879
2704 0 66.1104 12.0707 798 107.073 335.432 467.328
2705 0 64.2192 11.414 733 109.839 335.224 467.825
2706 0 68.3218 11.6068 793 108.058 334.926 464.745
2707 0 71.1639 11.7335 835 107.604 335.394 464.521
2708 0 73.1526 12.3031 900 106.709 334.909 462.772
2709 0 74.2414 11.9745 889 107.546 334.947 464.015
2710 0 76.2739 11.4194 871 110.03 334.814 460.379
2711 0 79.1146 11.4391 905 110.864 335.274 458.703
2712 0 83.1478 11.3172 941 110 335.21 460.173
2713 0 83.1991 12.1516 1011 109.893 334.892 454.805
2714 0 84.2344 11.7648 991 112.006 334.476 455.714
2715 0 86.2024 11.8674 1023 112.674 334.532 453.788
2716 0 91.1239 12.7738 1164 110.236 335.09 452.74
2717 0 93.2324 12.8603 1199 110.363 335.209 448.703
2718 0 98.1073 11.834 1161 113.692 335.004 448.315
2719 0 99.1917 13.3781 1327 110.127 335.114 445.867
2720 1 53.1372 11.0845 589 111.643 335.156 469.348
2721 0 57.1659 10.1809 582 115.448 335.261 469.292
2722 0 54.0959 11.5905 627 117.789 335.059 463.198
2723 0 56.0817 10.8057 606 109.657 335.622 467.094
2724 0 58.0528 11.0934 644 110.16 335.697 467.04
2725 0 64.1378 11.4129 732 116.534 336.228 473.589
2726 0 65.0723 9.88132 643 119.625 336.369 472.207
2727 0 68.0433 10.1259 689 118.631 336.379 468.495
2728 0 71.1063 12.2211 869 114.4 336.083 466.404
2729 0 73.0835 11.3706 831 116.828 336.006 465.841
2730 0 73.0906 11.6841 854 117.718 337.145 464.833
2731 0 76.1092 11.9039 906 120.164 337.723 461.177
2732 0 79.0661 12.6097 997 117.768 337.38 464.467
2733 0 83.0847 11.9998 997 119.777 337.309 461.202
2734 0 83.0826 12.4093 1031 120.116 337.313 460.7
2735 0 86.0903 11.7667 1013 122.294 336.917 456.862
2736 0 90.079 12.7999 1153 120.121 337.042 455.071
2737 0 95.1156 13.3101 1266 118.171 336.843 455.772
2738 0 99.0896 13.735 1361 115.921 336.963 454.483
2739 0 102.149 13.2062 1349 117.844 336.918 454.404
2740 0 106.101 12.9782 1377 117.372 336.411 451.637
2741 1 56.1991 10.6407 598 117.169 337.311 473.115
2742 0 57.137 10.5011 600 119.653 336.775 471.543
2743 0 61.0579 12.6601 773 118.878 337.131 473.595
2744 0 62.1508 13.0489 811 119.52 337.101 472.057
2745 0 69.1211 16.5941 1147 105.582 337.542 468.967
2746 0 67.0555 13.9437 935 116.489 337.498 471.357
2747 0 66.1187 11.5247 762 125.251 337.202 470.804
2748 0 72.0706 14.0002 1009 117.425 337.611 470.184
2749 0 72.1162 13.2564 956 122.219 337.529 467.402
2750 0 73.081 12.7803 934 124.004 337.41 467.259
2751 0 76.1779 13.114 999 123.417 337.39 465.334
2752 0 80.0744 13.1003 1049 122.874 337.972 465.675
2753 0 80.1536 13.1123 1051 124.52 337.029 463.573
2754 0 84.1445 14.5702 1226 120.345 337.638 460.892
2755 0 85.1096 13.1713 1121 125.86 337.506 461.173
2756 0 88.2858 13.0259 1150 125.867 337.025 460.497
2757 0 93.1249 14.1852 1321 122.707 337.225 458.61
2758 0 94.1708 13.2525 1248 126.096 337.888 457.248
2759 0 99.11 14.6605 1453 121.871 337.596 454.853
2760 1 56.0588 10.6852 599 123.579 336.534 478.179
2761 0 56.0262 10.9592 614 124.731 337.318 476.306
2762 0 60.219 12.4047 747 120.133 337.246 473.771
2763 0 63.3432 14.6346 927 113.621 336.265 470.16
2764 0 62.2874 14.1441 881 118.3 336.107 471.283
2765 0 63.2495 12.6641 801 123.348 336.567 470.191
2766 0 64.3357 12.2949 791 124.703 336.274 469.585
2767 0 68.2927 13.2664 906 122.177 335.845 468.417
2768 0 69.2205 12.9586 897 123.508 336.596 467.317
2769 0 72.2128 13.6818 988 119.891 336.759 468.198
2770 0 74.1173 12.4937 926 124.595 337.444 467.025
2771 0 77.1525 13.8427 1068 118.877 337.22 466.891
2772 0 80.1735 13.2338 1061 121.785 336.681 464.179
2773 0 83.148 14.5403 1209 119.17 336.974 460.911
2774 0 83.2104 13.1955 1098 122.782 337.186 459.172
2775 0 86.1917 13.2727 1144 122.986 337.279 457.434
2776 0 88.2474 12.7029 1121 125.165 337.085 456.838
2777 1 53.1422 11.0458 587 122.697 338.208 474.446
2778 0 54.0688 12.1697 658 119.719 338.023 474.752
2779 0 53.131 11.7446 624 120.739 337.404 473.41
2780 0 57.142 12.0752 690 120.41 337.987 472.699
2781 0 57.1057 11.54 659 118.463 337.564 473.825
2782 0 59.1789 12.082 715 117.959 337.544 471.877
2783 0 61.182 12.6181 772 116.417 337.491 470.649
2784 0 60.0715 11.1201 668 122.015 337.235 473.311
2785 0 65.0585 13.1266 854 115.1 335.915 473.635
2786 0 65.0898 13.0896 852 117.242 334.243 470.988
2787 0 69.065 12.814 885 117.331 334.687 471.2
2788 0 71.1033 12.6154 897 119.094 334.197 470.955
2789 0 71.0262 12.1364 862 122.919 334.231 467.587
2790 0 73.0764 12.4664 911 121.661 334.928 467.588
2791 0 78.0442 13.1592 1027 119.116 334.378 465.576
2792 0 79.0312 12.9443 1023 120.573 334.364 466.025
2793 0 82.0543 13.7226 1126 118.435 334.225 464.539
2794 0 84.1256 14.7042 1237 116.488 334.695 463.567
2795 0 85.1479 13.4002 1141 122.504 334.602 460.115
2796 0 89.0719 13.9775 1245 120.086 335.005 460.589
2797 0 93.12 13.6276 1269 120.807 334.954 459.653
2798 0 96.2076 13.5436 1303 121.661 335.15 456.698
2799 0 99.1122 13.742 1362 120.68 334.562 454.7
2800 1 52.2149 10.1695 531 122.582 336.927 474.849
2801 0 51.1226 10.1129 517 118.781 335.518 467.279
2802 0 52.1599 10.1802 531 119.117 335.083 467.354
2803 0 55.1827 10.8005 596 108.347 334.933 469.728
2804 0 55.1613 10.4965 579 110.463 335.508 469.883
2805 0 57.136 10.6238 607 109.667 335.265 467.614
2806 0 61.1582 11.8872 727 106.422 335.422 467.968
2807 0 62.063 11.0372 685 109.371 336.257 472.012
2808 0 65.0584 13.5878 884 101.89 335.695 470.432
2809 0 67.0435 11.5597 775 106.466 336.205 468.397
2810 0 70.0437 12.4636 873 104.557 336.029 467.804
2811 0 70.0408 12.3642 866 106.331 335.652 466.908
2812 0 73.0822 11.535 843 107.548 335.775 467.644
2813 0 76.0475 11.9925 912 107.262 336.099 464.45
2814 0 80.0684 12.5393 1004 105.424 335.353 464.103
2815 0 82.0969 12.4731 1024 106.581 335.756 460.395
2816 0 85.0536 12.4157 1056 106.143 335.829 461.773
2817 0 88.09 11.8969 1048 108.326 334.811 459.458
2818 0 92.1162 13.4287 1237 104.609 335.419 455.523
2819 1 51.1058 11.2316 574 106.084 334.502 477.739
2820 0 51.1186 11.2288 574 107.143 335.547 473.051
2821 0 51.1043 10.6449 544 109.261 335.827 473.108
2822 0 51.1523 10.7522 550 112.969 335.744 470.911
2823 0 50.0448 10.8703 544 114.768 335.447 469.869
2824 0 56.0652 10.8802 610 113.143 335.223 470.975
2825 0 59.1995 12.838 760 108.093 334.453 470.263
2826 0 58.0517 11.4553 665 113.564 335.099 469.08
2827 0 63.1047 12.4396 785 109.187 335.167 469.194
2828 0 63.1034 10.8394 684 115.241 335.395 467.082
2829 0 64.0258 11.8858 761 115.108 334.978 464.118
2830 0 69.1314 12.281 849 112.976 334.793 465.966
2831 0 70.1719 10.8163 759 113.469 334.999 464.347
2832 0 71.1311 12.8354 913 110.858 334.706 462.506
2833 0 74.2586 11.7428 872 114.711 334.63 462.25
2834 0 76.0787 11.8693 903 115.373 335.185 460.818
2835 0 77.0716 12.936 997 114.706 335.217 458.606
2836 0 82.0529 11.6876 959 118.225 334.776 458.045
2837 0 82.0844 11.3054 928 120.752 334.359 456.093
2838 0 86.0772 12.1519 1046 119.915 335.286 455.344
2839 1 47.0391 9.24763 435 125.706 334.156 473.655
2840 0 49.0231 10.5664 518 121.133 334.525 470.826
2841 0 47.1349 8.14684 384 123.938 335.844 471.513
2842 0 53.0634 10.5346 559 116.215 336.038 473.132
2843 0 50.0828 10.1831 510 120.776 335.761 468.649
2844 0 53.0363 10.0497 533 120.225 335.722 471
2845 0 60.0394 11.8256 710 125.304 335.342 474.769
2846 0 63.0694 14.0004 883 119.225 336.21 473.362
2847 0 64.0981 12.9489 830 123.187 336.108 472.473
2848 0 63.1514 11.6387 735 128.668 335.839 469.599
2849 0 67.1491 12.6733 851 124.8 336.135 470.328
2850 0 70.1781 12.6535 888 124.242 336.436 469.9
2851 0 71.1477 12.6076 897 126.042 335.788 466.061
2852 0 74.099 13.5764 1006 122.454 335.389 467.366
2853 0 76.1869 13.1256 1000 123.641 335.755 464.992
2854 0 80.1113 16.0527 1286 114.989 336.274 464.114
2855 0 82.1365 13.7089 1126 121.376 335.774 463.321
2856 0 84.2574 14.5032 1222 118.442 335.685 462.641
2857 0 88.1181 13.6294 1201 121.159 335.862 459.664
2858 0 91.171 13.9957 1276 119.733 335.444 458.591
2859 0 90.1103 12.7399 1148 118.543 335.466 456.659
2860 0 97.2367 13.5134 1314 114.839 335.354 454.531
2861 0 97.2579 12.9244 1257 118.148 334.869 452.738
2862 1 56.1909 10.7135 602 108.882 336.023 477.203
2863 0 55.3163 10.7563 595 111.642 335.661 472.813
2864 0 57.2466 13.4506 770 109.6 335.381 473.551
2865 0 60.3405 11.7997 712 111.065 335.086 472.503
2866 0 61.1964 10.5398 645 114.946 334.84 471.859
2867 0 64.1047 10.8884 698 113.153 335.473 471.951
2868 0 65.1098 12.1487 791 108.284 333.949 473.619
2869 0 66.2646 10.7599 713 112.926 334.377 470.818
2870 0 69.1646 12.8245 887 107.612 333.967 469.147
2871 0 69.1635 11.0174 762 111.714 333.545 469.919
2872 0 75.1595 12.5866 946 107.931 333.827 467.342
2873 0 76.1568 12.1329 924 109.034 333.528 466.835
2874 0 79.2528 13.0721 1036 107.76 334.124 465.433
2875 0 80.2617 12.0979 971 110.207 333.808 464.827
2876 0 82.3313 12.1582 1001 112.322 334.541 462.855
2877 0 85.1816 12.8197 1092 111.929 334.103 460.222
2878 0 88.2057 12.8336 1132 112.318 333.342 460.076
2879 0 91.132 12.8166 1168 112.765 334.312 460.841
2880 0 94.133 13.6509 1285 111.896 334.744 458.468
2881 0 94.1109 12.3578 1163 112.83 334.457 457.527
2882 0 97.2094 12.7971 1244 112.739 335.014 455.801
2883 0 101.17 14.2335 1440 109.142 334.07 453.809
2884 0 104.21 13.8855 1447 110.585 333.695 449.909
2885 0 109.306 14.0157 1532 109.871 333.446 448.364
2886 0 113.163 13.9975 1584 109.908 334.728 451.229
2887 1 65.0497 10.3767 675 114.769 335.16 475.119
2888 0 66.1002 12.6475 836 110.116 335.921 470.152
2889 0 68.0824 12.0589 821 114.671 335.754 468.166
2890 0 70.061 12.5748 881 114.672 335.915 466.833
2891 0 74.0561 13.0982 970 113.999 335.792 467.79
2892 0 78.0345 14.5448 1135 109.612 335.661 466.191
2893 0 79.0787 12.81 1013 115.4 335.525 463.304
2894 0 81.114 12.4516 1010 116.904 335.89 464.183
2895 0 85.1679 12.7513 1086 116.838 335.721 462.024
2896 0 88.1153 12.6198 1112 117.617 335.888 459.576
2897 0 89.1483 12.6419 1127 119.062 335.602 457.39
2898 0 94.2327 12.8618 1212 118.545 334.946 456.141
2899 0 98.2436 13.8228 1358 115.878 335.237 455.287
2900 0 99.1569 12.7676 1266 117.418 335.598 453.637
2901 0 105.14 12.859 1352 116.858 335.113 452.699
2902 0 105.191 12.9668 1364 117.699 334.962 451.605
2903 0 111.158 14.052 1562 112.695 335.401 448.02
2904 1 61.1772 10.821 662 117.186 335.669 474.051
2905 0 64.1019 12.4645 799 113.36 335.524 472.946
2906 0 65.2411 11.7717 768 116.451 333.897 471.492
2907 0 66.2427 12.9977 861 114.172 333.793 470.429
2908 0 67.1337 11.9463 802 118.212 334.065 470.036
2909 0 69.2261 12.3219 853 117.443 334.159 468.462
2910 0 73.1903 11.2447 823 119.456 334.163 466.826
2911 0 77.296 13.0925 1012 112.813 334.305 468.793
2912 0 78.221 13.0911 1024 114.807 334.232 465.411
2913 0 80.1371 13.2398 1061 115.409 333.751 464.059
2914 0 80.3282 12.3867 995 118.061 334.014 464.251
2915 0 84.1675 14.3048 1204 115.346 333.592 460.115
2916 0 87.1435 12.9556 1129 118.252 334.378 459.327
2917 0 91.137 13.4303 1224 117.142 334.332 458.188
2918 0 93.1597 12.763 1189 120.04 334.182 456.586
2919 0 98.2411 13.1615 1293 117.605 333.883 457.239
2920 0 99.4814 12.6657 1260 121.202 334.741 454.494
2921 0 101.243 11.8033 1195 124.759 333.989 451.15
2922 0 106.223 12.1348 1289 122.994 334.587 451.378
2923 1 60.3477 11.036 666 116.739 333.964 473.559
2924 0 62.3794 13.3057 830 109.667 334.764 473.382
2925 0 61.1076 12.3553 755 115.034 333.528 471.919
2926 0 65.2023 13.2664 865 112.692 333.113 470.135
2927 0 63.316 13.0931 829 116.603 333.616 467.265
2928 0 66.3082 12.3514 819 116.392 333.193 469.8
2929 0 67.2412 12.4923 840 117.317 333.5 465.963
2930 0 70.2165 12.3048 864 117.08 333.719 466.044
2931 0 72.3195 11.4907 831 118.856 333.706 464.668
2932 0 75.4282 13.1648 993 114.107 333.564 464.876
2933 0 76.3693 13.2907 1015 114.604 333.468 461.224
2934 0 79.4805 12.1162 963 116.624 333.486 462.195
2935 0 81.4188 12.8594 1047 115.357 334.263 461.344
2936 0 83.5453 13.4777 1126 112.539 334.156 460.164
2937 0 85.5458 13.034 1115 114.481 333.671 456.075
2938 0 88.6111 13.136 1164 112.613 333.807 456.87
2939 0 94.395 12.649 1194 111.796 334.2 457.034
2940 0 95.5083 12.1455 1160 113.921 334.266 449.749
2941 0 98.4574 12.1982 1201 110.573 333.83 451.888
2942 0 102.279 13.8933 1421 106.448 333.818 446.261
2943 0 102.317 12.5493 1284 109.984 333.994 440.698
2944 0 106.207 11.1857 1188 112.348 334.141 440.181
2945 0 110.157 12.2462 1349 107.43 334.161 439.191
2946 1 61.0648 10.4971 641 111.217 332.853 465.056
2947 0 61.1105 10.2601 627 112.711 333.115 466.791
2948 0 67.162 11.9264 801 110.755 333.528 469.414
2949 0 67.1363 12.0203 807 111.128 333.647 469.477
2950 0 70.2177 11.7919 828 111.458 333.658 467.896
2951 0 71.2907 12.0072 856 111.109 333.626 466.825
2952 0 74.2474 13.9399 1035 107.625 333.756 466.114
2953 0 75.3686 12.9497 976 109.962 334.269 466.927
2954 0 77.263 12.2568 947 112.549 334.815 463.535
2955 0 82.3274 13.1305 1081 110.55 334.564 461.307
2956 0 81.3837 13.1722 1072 112.21 334.277 460.582
2957 0 85.4423 13.3423 1140 110.919 334.752 460.69
2958 0 87.3535 13.0504 1140 113.01 334.298 458.72
2959 0 91.5116 13.6923 1253 112.459 334.293 457.704
2960 0 92.518 12.938 1197 114.956 334.634 456.779
2961 0 94.4506 12.5886 1189 117.632 334.74 454.398
2962 0 98.5704 14.4059 1420 112.629 334.722 456.132
2963 0 99.2121 12.942 1284 109.168 334.693 451.234
2964 0 99.1755 12.3115 1221 111.883 335.095 450.228
2965 0 102.378 12.0436 1233 113.358 334.779 446.058
2966 0 109.078 12.3673 1349 110.545 334.159 449.806
2967 1 59.0797 11.3406 670 105.064 334.918 473.603
2968 0 60.0886 11.2334 675 107.378 334.228 473.393
2969 0 61.1291 12.7599 780 107.858 332.931 474.586
2970 0 66.147 12.0187 795 107.171 332.546 473.333
2971 0 67.1773 13.1741 885 105.679 333.272 469.516
2972 0 70.142 12.1753 854 107.376 333.329 468.722
2973 0 71.1219 11.6982 832 108.347 332.968 468.894
2974 0 74.1221 12.1961 904 107.935 333.062 466.763
2975 0 74.1241 11.7101 868 110.259 333.273 464.406
2976 0 80.0951 12.7349 1020 107.567 333.054 463.937
2977 0 80.1949 12.1205 972 109.682 333.066 463.812
2978 0 81.2719 11.3077 919 109.893 334.128 457.613
2979 0 82.1768 11.9742 984 109.787 333.948 457.256
2980 0 86.238 12.8598 1109 108.19 334.173 456.902
2981 0 90.1983 13.0269 1175 108.095 334.236 455.783
2982 0 93.1059 12.3623 1151 111.889 334.2 453.089
2983 0 97.0971 12.7501 1238 111.521 333.769 453.17
2984 0 100.156 12.9697 1299 111.406 334.092 451.796
2985 0 102.103 13.1436 1342 111.548 334.421 449.094
2986 0 104.097 11.6815 1216 116.337 334.465 448.781
2987 0 108.268 12.3767 1340 114.579 334.057 448.563
2988 0 111.098 12.8175 1424 114.544 333.597 442.993
2989 0 116.153 12.914 1500 112.978 333.753 441.859
2990 1 63.0872 11.2226 708 109.203 333.366 470.148
2991 0 66.0977 11.9823 792 108.734 334.09 467.063
2992 0 69.078 12.3628 854 106.624 333.43 467.998
2993 0 69.0663 11.641 804 109.527 333.466 467.128
2994 0 71.0793 10.6219 755 113.077 333.045 462.216
2995 0 77.0838 12.1556 937 107.901 333.064 464.921
2996 0 76.1791 10.3047 785 113.713 333.804 462.089
2997 0 80.0571 12.2038 977 110.053 334.059 459.927
2998 0 82.0951 11.3649 933 112.281 333.692 459.531
2999 0 86.2332 11.6892 1008 111.905 333.593 457.755
3000 0 89.0914 13.301 1185 108.438 333.15 456.998
3001 0 91.1099 11.7111 1067 112.577 333.513 456.299
3002 0 93.1614 12.5481 1169 111.374 333.265 453.341
3003 0 96.2581 12.7054 1223 112.01 333.366 451.947
3004 0 98.2007 11.0895 1089 118.874 333.573 447.841
3005 0 103.157 12.098 1248 114.744 333.54 451.145
3006 0 107.188 11.8577 1271 114.473 333.172 446.79
3007 1 58.0608 9.66228 561 112.144 333.034 471.838
3008 0 62.0699 12.5181 777 114.634 332.713 474.185
3009 0 64.0681 11.878 761 115.775 333.925 473.723
3010 0 66.0814 12.6965 839 114.528 334.036 472.746
3011 0 68.0224 13.0692 889 114.506 335.187 472.359
3012 0 70.0666 12.6737 888 115.056 334.997 469.927
3013 0 71.07 12.9731 922 116.297 334.513 469.544
3014 0 76.1152 13.9394 1061 113 334.863 469.221
3015 0 77.1048 12.8267 989 117.616 334.624 467.979
3016 0 80.0516 14.1409 1132 115.392 334.693 466.252
3017 0 82.085 12.4992 1026 120.931 334.469 465.635
3018 0 85.0706 14.0589 1196 117.854 334.994 463.981
3019 0 87.1217 14.3018 1246 117.816 335.255 462.746
3020 0 92.1974 15.0004 1383 115.54 334.523 461.98
3021 0 92.1008 15.1247 1393 117.195 333.958 460.078
3022 0 96.1062 14.8794 1430 117.718 334.91 458.229
3023 0 99.1319 14.97 1484 118.156 334.596 458.743
3024 0 103.102 15.3052 1578 117.763 334.934 457.081
3025 0 104.117 14.4741 1507 122.065 334.161 453.637
3026 0 107.199 15.5505 1667 119.196 334.139 450.304
3027 0 112.24 14.9679 1680 116.432 334.189 446.555
3028 0 117.149 14.4176 1689 119.004 334.896 444.944
3029 0 121.389 14.8284 1800 118.891 334.356 442.167
3030 1 69.0688 13.016 899 114.335 334.002 468.215
3031 0 70.1751 10.8871 764 119.654 334.191 463.966
3032 0 72.0792 12.0562 869 112.116 334.931 464.035
3033 0 74.1326 12.653 938 112.189 334.943 462.351
3034 0 79.1597 12.658 1002 112.308 334.298 463.719
3035 0 82.2902 13.3916 1102 111.301 334.625 462.135
3036 0 85.1022 13.7952 1174 111.695 334.851 461.325
3037 0 87.1483 13.6319 1188 114.721 334.474 459.414
3038 0 88.1507 13.3862 1180 117.046 334.748 458.678
3039 0 92.1425 14.369 1324 116.782 335.144 458.155
3040 0 94.1194 14.0354 1321 119.61 334.514 451.491
3041 0 98.1136 14.7482 1447 118.472 334.918 450.585
3042 0 102.121 14.5219 1483 120.127 334.43 450.425
3043 0 105.319 14.2805 1504 123.628 335.309 450.612
3044 0 106.15 13.2171 1403 126.737 335.117 452.029
3045 0 110.196 13.8571 1527 126.274 334.745 441.259
3046 0 114.162 14.6984 1678 116.369 334.352 445.873
3047 1 64.0585 11.9266 764 124.198 334.779 468.86
3048 0 62.03 13.2033 819 127.939 334.631 469.579
3049 0 65.1291 13.8801 904 111.475 334.092 470.868
3050 0 66.131 15.1064 999 113.739 335.134 469.811
3051 0 65.1155 13.3916 872 127.563 335.104 470.017
3052 0 67.174 14.1573 951 124.598 334.419 468.728
3053 0 69.1936 14.4089 997 123.604 334.186 469.104
3054 0 71.2426 14.0787 1003 123.591 334.97 468.457
3055 0 71.2508 14.0209 999 123.925 334.765 467.358
3056 0 74.2258 13.9843 1038 122.422 334.99 465.809
3057 0 76.2408 13.3 1014 122.82 334.443 464.793
3058 0 80.2062 14.55 1167 116.325 334.494 461.965
3059 0 82.134 13.9528 1146 117.039 334.655 461.653
3060 0 84.2322 13.8071 1163 118.152 334.775 457.48
3061 0 86.1988 14.1765 1222 115.917 334.954 458.283
3062 0 87.2307 12.381 1080 122.781 334.504 455.588
3063 0 91.124 13.5749 1237 119.641 334.462 453.351
3064 0 95.2594 13.8569 1320 119.332 334.676 452.263
3065 0 99.1684 13.6737 1356 120.069 334.805 452.54
3066 0 99.2103 13.6679 1356 122.383 334.871 447.293
3067 0 105.223 14.36 1511 119.722 333.799 449.424
3068 0 106.223 14.3943 1529 121.529 334.15 445.57
3069 1 57.1212 10.6966 611 131.357 334.72 470.874
3070 0 60.1147 12.7257 765 124.571 335.204 471.702
3071 0 61.034 12.7798 780 129.429 335.903 472.127
3072 0 64.0185 14.3084 916 125.316 335.561 470.288
3073 0 62.1036 12.8173 796 133.373 335.281 469.401
3074 0 68.0568 14.1059 960 128.25 335.527 470.574
3075 0 69.0982 13.1697 910 133.563 335.348 470.942
3076 0 70.075 14.3132 1003 132.59 334.841 468.031
3077 0 71.1218 14.665 1043 133.221 335.173 466.733
3078 0 74.0607 14.7717 1094 131.345 334.761 467.399
3079 0 76.2399 13.8117 1053 135.258 333.792 465.105
3080 0 77.1247 13.5884 1048 137.552 334.237 463.539
3081 0 80.1533 13.7986 1106 136.704 334.753 462.373
3082 0 81.1197 13.5479 1099 138.52 334.475 461.512
3083 0 87.2534 14.0854 1229 135.458 334.311 460.469
3084 0 90.2391 14.2732 1288 135.89 334.418 456.52
3085 0 92.1284 14.5232 1338 134.8 334.454 456.874
3086 0 96.1923 14.9284 1436 133.831 334.808 453.936
3087 0 99.1047 13.8439 1372 136.724 333.818 454.147
3088 1 54.1105 12.0864 654 138.066 333.934 476.731
3089 0 58.0734 13.724 797 136.64 334.474 475.132
3090 0 59.0636 13.6124 804 136.685 334.772 473.627
3091 0 62.2271 14.0614 875 127.072 333.823 472.489
3092 0 62.1365 13.3255 828 130.952 334.458 471.316
3093 0 64.0939 13.3866 858 132.97 334.348 471.854
3094 0 65.1475 14.045 915 132.013 334.452 470.408
3095 0 69.1143 13.5428 936 133.083 333.754 469.019
3096 0 70.1329 13.8024 968 134.809 333.618 466.987
3097 0 72.2154 14.9137 1077 132.98 334.419 465.403
3098 0 74.2413 14.2239 1056 135.446 334.386 464.586
3099 0 77.1651 15.2919 1180 132.732 333.945 463.569
3100 0 77.3025 14.5662 1126 137.562 334.147 463.673
3101 0 80.1166 15.2028 1218 135.282 333.767 461.631
3102 0 82.1152 13.8586 1138 138.448 333.537 461.844
3103 0 85.1338 14.9294 1271 135.199 333.312 460.147
3104 0 89.2368 14.6576 1308 134.837 333.687 461.364
3105 0 91.1164 14.4979 1321 135.419 334.104 459.665
3106 0 93.2528 15.3347 1430 133.42 334.181 456.848
3107 0 96.1118 14.4831 1392 135.867 334.043 454.357
3108 0 100.082 13.9286 1394 136.496 334.146 452.796
3109 1 52.0391 12.0102 625 141.685 334.819 477.619
3110 0 56.0372 14.1513 793 133.975 334.762 475.137
3111 0 57.0702 14.0879 804 135.386 334.521 473.628
3112 0 60.1498 14.5969 878 131.243 334.835 471.795
3113 0 62.1259 15.1789 943 129.776 334.952 471.209
3114 0 63.2065 15.0617 952 131.447 335.774 470.915
3115 0 67.175 15.5713 1046 128.007 335.583 469.785
3116 0 68.0669 15.7051 1069 128.853 335.84 468.937
3117 0 71.1216 15.2415 1084 129.746 335.528 469.073
3118 0 72.1643 15.7003 1133 129.704 334.961 466.024
3119 0 74.1872 15.2317 1130 130.553 335.045 465.384
3120 0 79.167 16.4841 1305 125.74 335.312 465.19
3121 0 83.5216 16.3072 1362 124.607 335.306 464.935
3122 0 83.1756 16.399 1364 126.315 334.545 462.344
3123 0 87.2993 15.5786 1360 127.201 334.979 463.447
3124 0 88.1882 16.5215 1457 125.741 334.828 461.072
3125 0 95.4084 17.074 1629 121.599 335.156 457.756
3126 0 95.2353 15.845 1509 127.201 335.058 457.904
3127 0 99.138 15.312 1518 127.41 335.279 456.536
3128 0 104.247 17.612 1836 119.463 335.23 454.615
3129 0 107.565 16.2786 1751 123.585 334.582 452.766
3130 0 113.311 16.6533 1887 121.112 335.213 450.461
3131 1 60.0884 13.7963 829 132.094 335.884 474.799
3132 0 62.1425 14.6277 909 128.491 335.419 475.6
3133 0 65.1586 15.0095 978 126.98 336.055 473.179
3134 0 68.2505 15.5017 1058 124.484 335.684 471.932
3135 0 71.1864 16.3093 1161 122.269 335.994 470.161
3136 0 73.1814 15.769 1154 124.148 335.413 469.587
3137 0 76.1523 15.8367 1206 124.341 336.199 468.032
3138 0 77.3183 15.7013 1214 125.545 336.082 468.48
3139 0 79.4313 14.7549 1172 128.318 336.055 465.357
3140 0 84.3229 15.9506 1345 124.343 336.196 463.478
3141 0 88.1383 15.6345 1378 125.464 336.675 462.755
3142 0 91.2482 15.9674 1457 125.057 336.216 461.692
3143 0 92.1954 15.2611 1407 127.539 336.331 460.915
3144 0 97.2028 15.4934 1506 126.473 336.592 459.255
3145 0 98.2077 15.2738 1500 129.216 336.231 456.459
3146 0 103.458 14.721 1523 129.081 335.815 456.311
3147 1 53.2347 11.9659 637 133.518 336.253 478.695
3148 0 56.2042 15.1412 851 125.524 336.128 476.246
3149 0 58.2626 14.9667 872 126.627 336.323 475.867
3150 0 60.3515 15.3766 928 126.295 336.45 475.35
3151 0 62.2459 14.6998 915 128.189 336.126 474.846
3152 0 63.165 14.2484 900 130.506 335.891 472.013
3153 0 68.2432 15.562 1062 124.779 335.453 471.377
3154 0 71.277 15.7554 1123 124.166 335.851 469.148
3155 0 73.1405 18.526 1355 115.889 335.627 465.774
3156 0 76.3423 14.1337 1079 128.423 335.734 467.444
3157 0 78.4035 15.1014 1184 127.094 335.698 465.248
3158 0 81.425 14.8603 1210 127.797 335.912 463.405
3159 0 84.2202 14.3671 1210 129.124 335.85 462.331
3160 0 88.2439 15.5138 1369 125.572 335.774 459.05
3161 0 90.2312 15.9479 1439 124.452 335.471 459.99
3162 0 93.2699 14.7314 1374 127.368 335.766 457.149
3163 0 96.3581 14.3423 1382 127.391 335.528 459.331
3164 1 50.227 12.9412 650 134.674 335.348 477.537
3165 0 53.2331 13.4127 714 133.541 335.283 477.188
3166 0 57.2476 14.7779 846 129.15 335.723 475.436
3167 0 61.3384 13.9228 854 129.828 335.61 474.814
3168 0 60.3273 14.4048 869 129.673 335.542 473.486
3169 0 64.2406 14.1344 908 130.459 335.791 472.236
3170 0 65.2301 13.6593 891 132.559 335.256 471.506
3171 0 68.2257 15.1116 1031 127.759 335.18 471.059
3172 0 69.3916 14.3533 996 129.954 335.362 470.362
3173 0 71.1688 14.4445 1028 131.553 334.83 468.83
3174 0 75.2673 14.4286 1086 131.046 334.959 467.099
3175 0 78.3003 14.2528 1116 131.418 335.347 466.58
3176 0 79.1736 13.9314 1103 132.768 335.645 466.02
3177 0 81.2362 14.5748 1184 132.565 334.851 463.438
3178 0 86.149 14.9741 1290 129.973 335.053 463
3179 0 89.1761 15.3404 1368 129.557 334.94 461.762
3180 0 90.1724 14.9048 1344 131.981 333.92 459.7
3181 0 92.1935 14.4479 1332 134.67 334.498 458.549
3182 0 96.1785 15.7104 1511 131.05 334.289 455.834
3183 0 101.208 15.2656 1545 131.131 334.329 454.353
3184 0 105.153 16.2525 1709 128.217 334.288 453.498
3185 0 108.254 15.7777 1708 129.885 333.809 449.255
3186 1 61.2537 12.489 765 131.203 334.469 472.544
3187 0 64.1513 13.6085 873 126.801 333.707 472.068
3188 0 67.1582 12.8056 860 129.774 334.353 471.193
3189 0 67.1289 13.5113 907 130.351 333.68 469.11
3190 0 72.195 14.2254 1027 126.345 333.292 467.768
3191 0 75.1426 14.3194 1076 126.611 333.955 465.147
3192 0 77.2247 13.506 1043 128.949 333.723 464.657
3193 0 81.1032 14.7096 1193 125.956 333.593 463.766
3194 0 80.1126 13.6308 1092 130.94 333.683 463.456
3195 0 90.2637 18.6011 1679 112.722 334.135 454.373
3196 0 88.2268 14.7121 1298 128.209 333.659 456.721
3197 0 89.224 13.7071 1223 131.221 334.035 458.654
3198 0 93.2823 13.9469 1301 130.895 333.94 456.189
3199 0 98.2636 15.9673 1569 123.656 333.806 452.187
3200 0 101.174 14.1242 1429 130.64 334.454 452.972
3201 0 102.245 14.8369 1517 130.28 334.107 449.222
3202 0 106.256 13.9851 1486 132.403 333.674 449.386
3203 0 111.292 14.4755 1611 131.025 334.024 447.561
3204 1 63.1877 12.2967 777 122.326 334.299 474.638
3205 0 66.1275 11.4476 757 126.819 333.617 471.188
3206 0 68.178 12.8341 875 123.695 334.375 469.584
3207 0 72.2217 13.8601 1001 120.128 334.072 469.378
3208 0 71.1666 11.4801 817 128.694 334.856 466.217
3209 0 75.2039 13.3504 1004 123.491 334.976 466.345
3210 0 79.1236 13.6116 1077 123.549 334.726 464.027
3211 0 80.2918 11.7073 940 128.839 334.946 463.195
3212 0 83.1323 12.438 1034 128.215 335.375 462.141
3213 0 88.0955 12.827 1130 123.541 334.428 460.212
3214 0 89.1187 12.5338 1117 127.174 335.054 456.555
3215 0 94.271 14.3735 1355 123.689 334.653 459.258
3216 0 98.1984 14.9799 1471 122.899 334.614 455.472
3217 0 100.233 13.0695 1310 128.762 334.713 455.547
3218 0 103.255 13.7815 1423 130.181 334.323 451.673
3219 0 105.179 13.7195 1443 134.305 334.303 449.188
3220 0 108.258 14.059 1522 132.8 334.186 447.238
3221 0 114.141 14.1228 1612 132.442 333.647 445.536
3222 0 117.163 13.989 1639 130.871 333.507 443.723
3223 1 64.0815 9.97168 639 132.171 334.576 471.48
3224 0 68.1025 12.0847 823 126.566 335.566 468.674
3225 0 70.1445 11.6759 819 130.625 335.259 467.64
3226 0 73.1278 13.0593 955 125.217 335.002 467.462
3227 0 76.1096 12.7579 971 126.745 334.497 466.567
3228 0 78.0706 13.9489 1089 123.218 335.011 463.603
3229 0 80.0411 13.5555 1085 126.66 334.947 461.934
3230 0 83.0896 13.335 1108 127.463 335.167 460.373
3231 0 85.0627 14.119 1201 126.279 334.963 459.803
3232 0 88.0342 13.6197 1199 126.325 334.892 459.174
3233 0 90.1082 12.5849 1134 128.685 334.405 458.422
3234 0 91.206 13.0035 1186 128.529 334.75 458.366
3235 0 94.1414 11.982 1128 131.962 334.221 457.289
3236 0 99.2147 14.3023 1419 125.519 334.555 455.513
3237 0 101.174 13.8573 1402 127.974 334.763 451.484
3238 0 103.188 14.0714 1452 127.121 334.8 452.509
3239 0 108.247 12.9427 1401 130.001 334.832 449.217
3240 0 112.164 14.1311 1585 125.421 334.515 449.092
3241 0 114.176 13.7244 1567 127.437 334.489 445.285
3242 0 118.078 13.8891 1640 128.513 334.441 439.321
3243 0 122.261 12.7432 1558 130.426 334.295 439.676
3244 0 123.176 12.4375 1532 129.762 334.811 431.266
3245 1 74.1084 9.95839 738 123.663 334.23 461.43
3246 0 75.1679 10.9887 826 122.834 334.05 457.163
3247 0 78.1039 11.0494 863 129.732 334.736 462.192
3248 0 81.0859 11.2227 910 128.668 334.759 461.534
3249 0 84.0706 12.0613 1014 126.082 334.386 459.674
3250 0 88.1528 12.2741 1082 126.546 334.445 458.898
3251 0 89.2004 12.0291 1073 128.534 334.048 457.655
3252 0 93.2347 12.2594 1143 127.536 334.843 455.569
3253 0 96.2329 13.4985 1299 124.459 334.252 453.255
3254 0 101.355 14.3061 1450 120.998 333.964 448.826
3255 0 102.311 13.0191 1332 126.417 334.476 449.8
3256 0 104.196 12.7356 1327 125.643 334.852 449.126
3257 0 105.144 12.8015 1346 126.816 334.195 446.182
3258 0 106.171 12.1879 1294 129.56 334.781 441.175
3259 0 107.109 11.9131 1276 130.583 334.79 435.814
3260 0 116.234 11.2446 1307 129.891 334.663 438.324
3261 0 117.129 11.3977 1335 129.389 334.697 434.864
3262 0 122.158 12.2792 1500 128.053 333.474 431.991
3263 1 66.0765 10.1852 673 121.572 334.267 462.458
3264 0 71.0726 10.229 727 120.209 334.576 459.893
3265 0 70.0499 10.7495 753 118.563 335.567 459.032
3266 0 75.2346 12.2018 918 117.341 334.608 460.38
3267 0 75.1201 11.009 827 119.121 334.667 457.276
3268 0 77.1411 11.4336 882 119.21 334.539 455.194
3269 0 81.0788 11.1127 901 117.858 335.661 457.262
3270 0 83.2056 11.754 978 116.102 335.469 452.424
3271 0 85.2264 10.5014 895 117.101 334.798 452.985
3272 0 86.1627 10.5846 912 116 335.171 450.857
3273 0 92.2344 12.1972 1125 112.27 333.619 447.452
3274 0 92.0695 10.3943 957 110.69 334.617 445.985
3275 0 97.2849 12.2424 1191 108.982 334.469 449.997
3276 0 99.1905 11.3116 1122 113.446 334.492 448.357
3277 0 101.228 11.0148 1115 113.33 334.807 449.675
3278 0 104.237 11.0709 1154 114.159 334.74 444.251
3279 0 106.233 12.3972 1317 111.831 335.268 444.768
3280 0 111.289 12.4002 1380 113.404 335.08 443.588
3281 0 111.111 10.521 1169 109.321 334.601 443.277
3282 0 114.125 12.3899 1414 107.496 335.016 442.573
3283 0 117.254 11.9825 1405 105.941 334.715 439.311
3284 0 122.295 12.1428 1485 107.985 334.558 436.797
3285 0 126.355 12.2195 1544 107.63 334.06 433.376
3286 0 127.395 11.8294 1507 113.836 334.511 427.603
3287 0 130.336 11.854 1545 115.403 334.804 423.15
3288 0 134.394 12.1359 1631 113.494 334.284 421.445
3289 0 139.279 11.8109 1645 112.306 334.083 421.061
3290 0 142.491 10.9621 1562 114.865 333.782 416.109
3291 0 148.464 13.1951 1959 110.535 333.481 413.276
3292 0 149.388 11.6609 1742 115.164 333.706 410.947
3293 0 156.373 12.7388 1992 113.196 333.623 408.601
3294 0 161.36 12.7727 2061 113.121 334.123 408.533
3295 0 167.464 13.7641 2305 109.881 333.736 406.296
3296 0 170.49 12.9627 2210 113.195 333.739 402.249
3297 0 175.379 13.7987 2420 111.489 334.811 401.331
3298 0 176.493 11.9325 2106 117.794 334.587 397.646
3299 0 183.256 14.2697 2615 112.385 334.689 399.106
3300 0 185.438 13.4061 2486 117.287 335.128 393.116
3301 0 190.289 13.1327 2499 121.526 335.22 394.782
3302 0 195.397 13.5212 2642 121.285 334.556 387.92
3303 0 200.449 12.8212 2570 124.457 334.55 386.404
3304 0 208.478 13.541 2823 122.575 334.878 384.196
3305 0 213.46 14.0589 3001 121.799 334.69 381.786
3306 0 218.488 13.0579 2853 124.929 334.145 375.417
3307 0 227.662 14.2229 3238 122.641 334.59 377.307
3308 0 232.5 14.7484 3429 123.248 334.43 367.734
3309 0 241.395 14.963 3612 126.687 334.114 367.449
3310 1 54.0304 9.12449 493 107.197 335.621 460.325
3311 0 57.0926 10.6844 610 104.805 336.338 465.254
3312 0 58.092 10.8621 631 108.349 336.317 467.334
3313 0 58.1982 11.1687 650 111.886 335.598 468.103
3314 0 60.3082 11.0764 668 112.189 336.427 468.522
3315 0 64.291 11.5257 741 110.636 335.821 470.072
3316 0 63.1788 9.29109 587 114.906 336.324 470.136
3317 0 63.1354 11.1665 705 112.313 335.782 466.363
3318 0 65.1242 11.1019 723 112.311 336.248 464.754
3319 1 107.912 11.287 1218 89.7414 336.131 452.259
3320 0 103.303 13.6394 1409 86.049 335.705 450.534
3321 0 111.246 9.71722 1081 96.7854 336.724 451.659
3322 0 102.358 12.7982 1310 94.2313 336.598 453.709
3323 0 93.4518 13.087 1223 99.0114 335.838 454.16
3324 0 88.1422 14.0795 1241 100.96 336.52 454.932
3325 0 91.1041 12.9303 1178 104.548 335.863 450.727
3326 0 88.0665 13.7396 1210 107.279 335.81 452.35
3327 0 84.0756 8.96812 754 120.973 335.845 449.895
3328 0 84.0993 9.23908 777 117.801 336.65 451.381
3329 1 58.3689 13.3804 781 85.9398 335.512 467.761
3330 0 59.2211 14.3023 847 84.7473 335.165 468.237
3331 0 60.1881 15.3186 922 83.5098 334.627 465.811
3332 0 59.383 12.9667 770 91.7675 334.394 467.935
3333 0 58.3003 11.2178 654 98.5994 335.104 466.783
3334 0 59.2564 12.7581 756 95.3307 335.049 467.62
3335 0 56.1909 9.94822 559 108.791 335.737 465.358
3336 0 59.148 10.6513 630 107.213 335.206 466.527
3337 0 59.1472 11.3446 671 106.489 336.046 465.724
3338 0 61.1141 12.6976 776 104.481 335.349 464.343
3339 0 61.243 11.8218 724 107.609 335.507 462.753
3340 0 64.0868 10.2517 657 111.05 335.119 462.721
3341 0 67.1358 11.6778 784 108.031 335.24 463.922
3342 0 67.2853 12.1572 818 109.079 335.123 462.878
3343 0 69.1864 12.488 864 108.611 334.91 462.186
3344 0 71.2384 13.518 963 107.099 334.05 462.201
3345 0 72.2073 12.0763 872 108.759 333.96 464.384
3346 0 75.3101 12.1498 915 108.361 333.895 463.311
3347 0 77.2658 11.4022 881 110.489 334.073 461.969
3348 0 79.4182 11.5843 920 109.092 333.863 460.382
3349 0 80.2574 13.7184 1101 105.76 334.22 457.277
3350 0 82.2476 11.6356 957 111.445 333.941 457.001
3351 0 86.2836 13.3977 1156 106.684 334.444 458.258
3352 0 90.282 12.3391 1114 109.175 334.785 459.772
3353 0 90.2641 13.106 1183 109.888 334.362 455.189
3354 0 92.2633 12.9521 1195 111.438 333.9 451.128
3355 0 96.1701 12.2387 1177 111.691 334.346 454.48
3356 0 98.369 12.5649 1236 112.543 334.628 450.176
3357 0 101.235 12.6636 1282 113.428 334.87 449.466
3358 1 56.3522 11.6766 658 106.84 334.404 473.97
3359 0 56.0549 11.1676 626 108.845 335.505 474.099
3360 0 58.0462 12.2833 713 105.826 334.038 473.951
3361 0 58.1003 10.9294 635 112.057 334.282 474.597
3362 0 62.1336 11.8937 739 107.838 334.484 474.559
3363 0 63.1399 11.9259 753 107.651 334.445 474.351
3364 0 65.0767 12.3086 801 107.589 334.368 473.07
3365 0 66.0996 11.9214 788 108.443 334.768 473.176
3366 0 70.0662 12.7736 895 106.257 333.987 471.174
3367 0 71.1256 12.2319 870 109.229 335.402 467.94
3368 0 76.1567 12.8682 980 106.16 335.418 467.233
3369 0 78.1061 12.8927 1007 106.668 335.24 464.947
3370 0 80.1698 12.5608 1007 108.046 334.666 463.931
3371 0 83.1559 12.675 1054 106.748 335.158 465.494
3372 0 83.1545 11.3884 947 111.426 334.806 462.437
3373 0 85.2381 12.1073 1032 112.259 335.17 459.743
3374 0 90.1528 12.7561 1150 110.258 334.845 458.004
3375 1 47.1232 11.0137 519 109.784 335.222 479.813
3376 0 49.1276 10.5847 520 109.338 335.075 482.017
3377 0 51.1742 11.5488 591 108.86 334.876 478.75
3378 0 48.1405 11.8819 572 110.949 335.678 476.827
3379 0 53.1494 11.1949 595 111.351 334.958 478.025
3380 0 55.0877 11.8538 653 109.711 335.006 477.874
3381 0 55.1026 11.8688 654 110.381 334.631 478.405
3382 0 57.1999 12.6923 726 109.231 336.079 477.672
3383 0 59.21 12.7174 753 110.216 335.656 475.908
3384 0 61.1631 12.3931 758 112.843 335.319 473.646
3385 0 65.1577 12.3853 807 113.532 335.709 472.67
3386 0 66.1541 13.1058 867 112.737 335.46 473.315
3387 0 68.2264 13.1327 896 113.657 335.285 471.916
3388 0 71.2104 12.6246 899 115.256 335.537 470.838
3389 0 71.1451 12.7486 907 117.163 335.57 470.427
3390 0 72.2103 11.4942 830 122.625 335.229 468.422
3391 0 78.2233 12.5155 979 119.686 335.313 466.852
3392 0 80.2203 12.1914 978 121.182 335.655 466.552
3393 0 82.2641 13.1771 1084 120.547 335.205 463.444
3394 0 85.2642 13.8511 1181 119.151 334.69 463.381
3395 0 87.2705 12.7764 1115 123.211 335.577 463.609
3396 0 92.0879 13.6391 1256 120.732 335.432 459.889
3397 0 96.2215 14.529 1398 117.717 335.198 458.204
3398 0 98.1866 12.6799 1245 124.736 335.157 457.171
3399 1 52.0484 10.9706 571 123.096 336.401 479.949
3400 0 54.08 11.3905 616 122.625 335.523 479.14
3401 0 56.0971 11.6227 652 122.856 335.137 478.563
3402 0 56.1205 12.8295 720 120.939 336.051 475.149
3403 0 59.0856 12.795 756 121 335.966 474.25
3404 0 62.0421 12.9428 803 120.152 335.113 475.575
3405 0 64.0406 12.6795 812 121.262 336.403 473.876
3406 0 65.0897 12.3522 804 122.883 336.051 472.397
3407 0 67.0599 12.1086 812 122.814 336.115 470.32
3408 0 70.13 12.6479 887 121.281 335.228 468.785
3409 0 73.083 13.3136 973 118.984 335.539 469.381
3410 0 75.0967 12.7569 958 120.959 336.262 468.213
3411 0 78.1016 13.3416 1042 119.782 335.736 466.88
3412 0 80.0839 13.5233 1083 119.125 336.167 467.64
3413 0 83.1308 12.4382 1034 123.187 336.212 463.316
3414 0 86.2143 15.0323 1296 115.717 335.968 462.562
3415 0 87.1424 13.3001 1159 122.388 335.106 460.869
3416 0 90.1132 13.3499 1203 122.608 335.188 460.057
3417 0 92.2123 13.2195 1219 122.568 335.056 459.34
3418 0 92.2624 12.4753 1151 126.698 334.56 457.035
3419 0 99.1334 13.0027 1289 123.643 334.795 456.859
3420 0 98.1724 13.0587 1282 125.042 334.587 455.175
3421 0 102.175 12.6841 1296 126.068 335.021 453.797
3422 0 107.104 13.725 1470 125.503 334.264 451.634
3423 0 109.122 13.9844 1526 126.702 334.459 450.382
3424 0 112.307 14.0418 1577 127.439 334.533 448.276
3425 0 117.332 14.1905 1665 126.139 334.644 446.98
3426 1 48.0486 10.6351 511 131.151 335.718 479.188
3427 0 53.0299 12.0121 637 124.7 335.237 478.424
3428 0 52.0062 12.2485 637 125.829 335.732 477.192
3429 0 55.021 12.3044 677 129.139 332.521 477.467
3430 0 59.0482 10.8555 641 133.658 333.014 475.551
3431 0 60.1693 11.6505 701 131.639 332.509 474.876
3432 0 62.0453 12.926 802 128.863 332.118 474.59
3433 0 62.1129 12.0748 750 132.841 332.659 473.369
3434 0 67.0308 14.1726 950 124.8 331.974 473.157
3435 0 68.0736 12.4718 849 131.237 332.578 471.359
3436 0 69.1256 11.8046 816 132.636 332.495 472.676
3437 0 70.0586 11.7473 823 134.836 333.132 470.672
3438 0 74.0965 12.0653 894 133.265 333.346 469.609
3439 0 77.1531 13.6611 1054 128.895 332.162 467.03
3440 0 78.0728 13.9869 1092 126.93 331.866 468.845
3441 0 79.082 13.3785 1058 130.916 332.271 464.932
3442 0 83.1129 13.1027 1089 129.997 332.395 464.437
3443 0 88.0642 12.8316 1130 129.132 332.692 462.188
3444 0 89.1391 12.4973 1114 130.735 333.219 459.2
3445 0 93.1078 13.8442 1289 125.351 334.15 459.14
3446 0 98.1911 13.3311 1309 125.251 333.987 457.073
3447 0 101.137 13.4075 1356 124.7 333.795 455.914
3448 0 105.23 14.0264 1476 122.171 332.961 453.721
3449 1 56.117 11.9572 671 119.516 332.607 478.863
3450 0 56.183 11.8363 665 120.365 332.845 471.412
3451 0 57.1566 11.2148 641 111.872 334.838 472.002
3452 0 59.2158 11.3821 674 108.754 334.858 471.797
3453 0 60.0803 10.4194 626 111.965 335.891 473.845
3454 0 62.0609 11.811 733 108.469 335.426 471.262
3455 0 64.0809 11.7664 754 107.91 335.42 470.341
3456 0 66.1365 12.5952 833 105.541 335.043 468.951
3457 0 67.1421 11.7214 787 107.892 335.517 466.915
3458 0 68.1082 11.4524 780 108.427 334.728 467.708
3459 0 72.1591 12.0567 870 106.409 334.293 465.941
3460 0 72.2738 10.5294 761 111.562 334.318 466.293
3461 0 77.1012 11.7638 907 107.571 333.695 463.329
3462 0 79.1174 11.4134 903 108.575 333.65 462.679
3463 0 83.1625 13.0948 1089 105.268 333.073 460.561
3464 0 84.1326 11.4224 961 109.738 334.091 462.482
3465 0 86.172 11.3378 977 110.793 333.262 459.296
3466 0 91.2445 11.6171 1060 109.925 333.579 457.792
3467 1 46.1014 10.7806 497 108.694 334.217 480.03
3468 0 50.0639 11.3655 569 109.861 334.629 480.578
3469 0 51.1195 12.5393 641 107.484 332.995 480.669
3470 0 50.0923 11.5986 581 113.265 334.003 477.718
3471 0 52.0851 11.846 617 113.086 334.684 478.611
3472 0 54.1183 11.6412 630 113.905 334.746 477.348
3473 0 55.0997 11.579 638 114.734 333.87 476.527
3474 0 59.1349 13.7144 811 108.43 333.634 476.3
3475 0 58.0916 11.9466 694 115.804 334.597 474.488
3476 0 61.1463 12.6582 774 112.884 334.133 474.894
3477 0 63.1524 11.8919 751 115.176 333.722 473.87
3478 0 64.1274 13.2549 850 112.116 334.982 473.206
3479 0 65.0769 11.8475 771 117.903 334.233 471.607
3480 0 67.0767 13.2833 891 115.113 334.158 470.651
3481 0 71.117 13.4145 954 114.083 333.616 469.775
3482 0 73.1685 14.2548 1043 112.367 333.884 470.311
3483 0 76.0712 12.9615 986 115.606 334.329 468.758
3484 0 78.1438 14.6269 1143 112.183 333.999 467.135
3485 0 80.1449 12.2403 981 119.912 334.634 465.649
3486 0 83.121 14.124 1174 114.964 333.834 464.888
3487 0 85.1101 13.2299 1126 118.197 333.544 465.234
3488 0 89.2037 13.1273 1171 118.298 333.888 463.075
3489 0 90.1832 12.6409 1140 122.541 333.665 462.296
3490 1 50.0705 11.7834 590 121.685 334.027 483.478
3491 0 48.0853 11.2508 541 128.201 334.688 482.401
3492 0 51.0512 11.9684 611 124.984 334.282 480.866
3493 0 51.0895 11.7441 600 119.118 333.482 478.552
3494 0 52.0778 11.118 579 123.207 334.016 475.883
3495 0 55.0597 13.222 728 115.989 333.891 476.111
3496 0 56.0401 12.7766 716 119.33 334.13 474.859
3497 0 58.0472 10.8532 630 123.406 334.219 476.402
3498 0 59.0914 10.543 623 124.49 333.876 475.148
3499 0 63.0421 12.4679 786 119.788 333.939 473.378
3500 0 63.0505 11.2608 710 123.579 334.669 474.169
3501 0 64.033 12.5873 806 122.604 334.39 470.778
3502 0 66.0623 10.5961 700 126.903 334.223 471.354
3503 0 69.0694 11.7563 812 125.053 334.344 469.671
3504 0 70.0908 11.8703 832 127.388 334.135 465.846
3505 0 74.0657 13.002 963 123.02 334.36 465.637
3506 0 75.1043 12.4094 932 126.348 334.786 463.332
3507 0 78.1048 12.0991 945 127.174 334.679 462.378
3508 0 81.0715 13.0009 1054 124.696 334.722 462.645
3509 0 81.1202 11.4398 928 131.331 334.336 460.55
3510 0 86.2699 12.5536 1083 127.994 334.22 457.141
3511 0 89.312 12.0253 1074 128.592 334.579 457.926
3512 0 91.3266 12.187 1113 130.021 334.044 455.853
3513 1 47.0322 13.0549 614 123.396 334.909 481.832
3514 0 48.1455 12.0468 580 124.633 334.857 480.221
3515 0 49.2092 12.1319 597 126.106 334.526 479.739
3516 0 51.0727 12.9619 662 122.835 335.431 477.9
3517 0 53.0409 12.7826 678 125.372 335.221 478.33
3518 0 54.0533 14.1897 767 121.904 335.55 476.447
3519 0 55.1185 13.3893 738 123.972 334.474 475.936
3520 0 58.1378 12.7112 739 125.321 334.877 476.235
3521 0 60.1459 12.8022 770 124.24 335.136 473.539
3522 0 63.1596 12.8088 809 122.172 335.302 472.099
3523 0 63.1662 12.8233 810 123.156 334.578 470.664
3524 0 66.1258 13.565 897 120.11 334.625 469.408
3525 0 70.1771 12.7249 893 121.222 335.088 469.031
3526 0 71.1632 13.5042 961 120.273 334.543 466.402
3527 0 74.1861 12.3338 915 122.102 334.685 467.358
3528 0 75.063 12.9624 973 120.626 334.818 465.873
3529 0 75.1354 11.4593 861 124.971 335.257 462.829
3530 0 81.2443 12.1239 985 118.797 333.832 456.866
3531 0 82.1486 13.4512 1105 116.321 334.544 459.357
3532 0 85.2 12.5235 1067 119.741 334.114 456.369
3533 0 88.1517 12.5466 1106 119.392 334.639 455.369
3534 0 93.2251 12.5288 1168 118.101 334.283 454.311
3535 0 95.132 12.9925 1236 117.707 333.977 451.33
3536 0 99.1784 12.5229 1242 119.081 334.432 449.425
3537 1 52.1262 12.0477 628 117.033 334.863 474.371
3538 0 54.2589 12.8458 697 125.719 335.11 475.432
3539 0 57.1427 14.14 808 120.986 333.882 475.884
3540 0 59.0789 13.9813 826 122.538 333.533 474.136
3541 0 61.1162 13.3353 815 124.584 333.948 473.222
3542 0 63.1434 13.113 828 126.098 333.826 471.36
3543 0 65.1117 13.9606 909 124.195 333.602 471.015
3544 0 68.0333 13.4493 915 126.953 333.372 468.776
3545 0 69.1755 13.3429 923 127.988 333.975 468.775
3546 0 72.1134 14.6852 1059 124.737 333.941 467.072
3547 0 76.0769 14.998 1141 123.768 334.297 468.441
3548 0 78.088 14.5861 1139 126.621 333.959 467.068
3549 0 81.0531 14.1512 1147 129.479 333.976 464.322
3550 0 84.1787 14.3623 1209 129.083 333.505 462.552
3551 0 88.2311 14.5867 1287 128.773 333.897 461.041
3552 0 90.2496 15.0361 1357 128.808 334.483 458.724
3553 0 94.1889 15.0124 1414 129.234 334.499 455.716
3554 1 52.35 13.1805 690 130.119 335.036 477.68
3555 0 51.2428 10.9284 560 132.832 334.038 472.309
3556 0 54.1786 12.7726 692 128.042 334.662 464.605
3557 0 56.1378 12.5406 704 126.749 334.371 464.091
3558 0 57.1511 10.7434 614 124.614 335.181 473.292
3559 0 59.0755 11.7138 692 122.337 335.798 473.195
3560 0 60.0718 11.8858 714 123.704 335.849 470.342
3561 0 62.1084 11.2384 698 123.325 335.254 471.638
3562 0 65.2409 12.0017 783 122.077 335.805 468.291
3563 0 66.0853 10.9555 724 124.392 335.772 469.079
3564 0 69.0962 11.7228 810 122.343 334.975 468.004
3565 0 72.168 12.4432 898 121.002 334.606 465.46
3566 0 75.2428 11.4828 864 123.118 334.352 464.304
3567 0 78.217 12.4398 973 120.37 334.941 463.634
3568 0 79.1279 12.5114 990 121.676 335.131 460.343
3569 0 82.1634 12.2561 1007 122.593 335.255 459.061
3570 0 84.1422 11.8014 993 123.479 334.936 458.049
3571 0 90.1909 13.0612 1178 120.332 335.082 455.722
3572 0 92.2617 11.6191 1072 123.194 335.243 454.962
3573 0 97.2143 12.0353 1170 121.57 335.583 453.784
3574 1 47.1276 9.80318 462 124.636 335.645 477.838
3575 0 50.0886 11.9788 600 123.68 335.327 475.217
3576 0 51.1297 13.0648 668 121.407 335.958 475.512
3577 0 53.1115 12.6714 673 119.513 336.186 477
3578 0 55.0994 12.904 711 119.541 335.876 476.495
3579 0 58.0212 13.3399 774 117.018 335.576 477.581
3580 0 58.0653 12.572 730 121.415 336.345 475.668
3581 0 58.0975 12.7028 738 121.316 335.298 474.401
3582 0 60.0557 12.5217 752 121.961 334.678 474.195
3583 0 64.0721 13.0322 835 118.069 334.165 469.418
3584 0 68.0685 12.8106 872 116.612 333.959 471.485
3585 0 69.1264 13.2077 913 116.729 334.301 468.382
3586 0 72.07 14.3055 1031 113.38 334.268 467.846
3587 0 74.0799 13.3909 992 116.56 334.386 465.6
3588 0 78.1243 13.4145 1048 115.1 333.997 465.334
3589 0 76.1295 14.2389 1084 115.944 333.715 464.183
3590 0 79.1055 13.6653 1081 117.798 333.798 462.579
3591 0 83.1136 14.0892 1171 117.02 333.509 461.153
3592 0 86.1042 14.2618 1228 115.783 334.511 461.011
3593 0 89.1167 14.6325 1304 114.748 333.984 460.67
3594 0 92.0679 13.3814 1232 118.742 334.126 458.385
3595 0 95.0492 14.8239 1409 115.083 333.663 458.579
3596 0 99.0916 13.977 1385 115.816 333.903 456.49
3597 1 51.0116 11.2131 572 122.946 333.776 479.935
3598 0 54.0381 13.0278 704 119.246 334.273 477.288
3599 0 54.0773 14.1834 767 116.06 334.274 475.355
3600 0 56.0332 13.0458 731 118.68 334.235 474.85
3601 0 60.0814 14.7633 887 113.432 334.215 472.587
3602 0 59.0747 12.645 747 120.898 333.988 473.53
3603 0 63.0637 14.0493 886 116.719 334.343 472.854
3604 0 65.0668 14.293 930 117.496 333.838 469.978
3605 0 67.1024 13.9041 933 119.025 334.205 468.702
3606 0 71.1123 15.3982 1095 114.075 334.435 469.266
3607 0 72.1081 13.4104 967 121.438 335.072 467.504
3608 0 73.3099 14.1454 1037 120.109 335.148 466.689
3609 0 76.1157 15.1217 1151 118.051 334.665 466.844
3610 0 76.1253 15.0804 1148 154.39 333.657 466.748
3611 0 81.1225 13.6584 1108 123.561 334.612 464.503
3612 0 83.2175 13.7111 1141 123.726 334.284 464.59
3613 0 87.2897 13.5297 1181 117.038 334.574 462.647
3614 0 90.2193 14.2763 1288 114.196 334.376 461.102
3615 0 92.1702 12.4769 1150 113.724 334.918 457.981
3616 1 50.1053 13.5914 681 108.808 334.809 479.396
3617 0 51.0371 14.1857 724 112.71 335.283 479.641
3618 0 53.013 12.7516 676 113.775 335.337 480.355
3619 0 54.0857 13.6635 739 111.892 334.691 479.342
3620 0 58.0429 14.3342 832 108.091 335.562 478.547
3621 0 57.0394 12.6754 723 113.813 335.35 476.976
3622 0 60.0384 14.6906 882 109.489 336.156 473.72
3623 0 62.0673 13.5015 838 112.484 336.154 474.342
3624 0 65.0757 13.4612 876 112.17 336.001 474.261
3625 0 64.0337 13.4148 859 115.359 335.485 471.034
3626 0 68.0331 14.8163 1008 111.207 335.592 472.723
3627 0 69.0527 13.83 955 114.199 335.441 470.306
3628 0 73.0315 13.638 996 113.441 335.958 470.821
3629 0 76.0578 13.5949 1034 113.277 335.001 468.563
3630 0 79.0426 14.5618 1151 110.959 335.354 466.901
3631 0 81.1025 14.8208 1202 109.432 335.915 465.874
3632 0 83.0947 13.0454 1084 114.032 336.232 464.468
3633 0 87.1306 14.2545 1242 110.742 335.967 464.754
3634 0 91.0817 13.8667 1263 111.87 335.952 462.12
3635 1 46.0082 12.3239 567 117.57 336.123 481.037
3636 0 51.0751 12.3544 631 115.222 336.691 480.113
3637 0 51.0808 12.8032 654 113.243 336.379 478.758
3638 0 54.1538 12.8154 694 112.514 336.17 477.663
3639 0 56.1482 13.0013 730 111.937 335.715 478.615
3640 0 59.1043 13.2647 784 110.562 335.765 476.654
3641 0 59.1247 14.1565 837 109.72 335.976 474.608
3642 0 62.117 13.7644 855 110.267 336.034 475.237
3643 0 64.0829 14.1223 905 111.365 335.82 473.801
3644 0 67.0616 14.2854 958 108.957 335.617 475.524
3645 0 67.1259 13.795 926 112.815 335.602 472.018
3646 0 70.1077 13.6932 960 113.249 335.169 472.629
3647 0 72.1563 13.2074 953 114.619 335.451 473.455
3648 0 72.1578 13.1102 946 117.116 335.717 470.244
3649 0 78.1859 15.4248 1206 109.627 335.599 469.057
3650 0 78.2372 13.8425 1083 114.815 335.322 469.018
3651 0 82.1934 14.916 1226 112.98 334.659 467.697
3652 0 88.2369 14.2911 1261 113.327 335.026 467.124
3653 1 43.0988 10.6268 458 120.694 335.216 485.941
3654 0 46.0713 13.1318 605 115.821 335.162 484.443
3655 0 48.1036 11.8078 568 107.169 334.699 484.053
3656 0 48.0807 12.8118 616 108.037 334.433 485.154
3657 0 49.0718 13.6331 669 107.774 334.291 482.291
3658 0 51.0684 13.1588 672 108.107 334.131 483.406
3659 0 53.0725 13.7736 731 106.807 334.12 481.703
3660 0 53.1226 12.7064 675 110.584 334.276 481.03
3661 0 56.1171 13.3293 748 108.914 334.737 479.735
3662 0 59.132 13.732 812 107.325 334.507 479.033
3663 0 60.0747 12.7342 765 110.382 334.548 478.889
3664 0 63.075 13.1114 827 108.791 334.281 477.914
3665 0 64.0933 12.9655 831 109.616 334.456 477.912
3666 0 67.0592 13.3166 893 108.796 334.358 474.814
3667 0 71.0439 13.4705 957 107.366 334.632 475.403
3668 0 72.0311 14.0078 1009 105.972 334.069 475.354
3669 0 74.089 13.1329 973 109.275 334.33 471.334
3670 0 78.0482 14.7985 1155 105.35 334.507 472.103
3671 1 39.0089 13.279 518 110.867 334.429 488.11
3672 0 40.0501 12.4594 499 111.946 333.946 488.675
3673 0 41.0213 13.1395 539 112.673 333.367 487.334
3674 0 43.0477 13.1017 564 108.766 333.66 486.053
3675 0 44.1187 12.5117 552 112.792 333.989 487.505
3676 0 46.0777 14.4321 665 108.871 333.91 485.257
3677 0 48.0299 13.0335 626 109.69 333.981 483.337
3678 0 48.0614 13.3163 640 110.564 334.369 482.944
3679 0 50.0297 12.6125 631 112.781 333.743 479.629
3680 0 50.0417 13.3888 670 112.478 333.912 480.428
3681 0 55.0403 13.7717 758 110.409 333.707 478.951
3682 0 54.0536 13.1721 712 114.635 334.576 476.042
3683 0 57.0702 12.4233 709 115.886 333.931 477.106
3684 0 59.0973 14.1969 839 112.946 333.578 474.666
3685 0 61.105 13.8778 848 114.562 334.258 473.389
3686 0 64.1669 14.0883 904 114.577 334.022 473.037
3687 0 65.0381 14.0379 913 116.555 333.631 471.415
3688 0 66.06 13.4877 891 119.505 333.438 472.688
3689 0 69.0744 13.7822 952 118.557 333.599 472.879
3690 0 72.0869 14.968 1079 116.204 332.953 469.55
3691 0 74.1794 13.7909 1023 120.208 332.91 469.121
3692 0 76.0929 13.8252 1052 121.525 332.977 467.899
3693 0 77.1108 13.3963 1033 124.066 332.688 467.307
3694 1 41.0737 13.0741 537 129.737 332.291 486.365
3695 0 44.0393 12.9203 569 128.585 332.141 485.018
3696 0 45.1011 13.6804 617 126.853 332.478 484.327
3697 0 45.0448 14.7409 664 130.726 332.733 483.556
3698 0 47.0686 14.2558 671 130.842 332.842 484.52
3699 0 50.0778 14.4176 722 130.409 332.907 483.557
3700 0 49.1574 14.1383 695 133.837 333.017 483.099
3701 0 52.0988 16.0848 838 127.844 332.617 481.852
3702 0 52.132 13.7344 716 134.31 332.504 482.05
3703 0 55.0971 14.6287 806 132.734 331.97 479.199
3704 0 55.0627 13.8569 763 135.189 332.65 480.246
3705 0 58.0895 14.6154 849 133.161 332.386 479.053
3706 0 61.1696 14.3372 877 132.268 332.777 478.659
3707 0 63.1493 15.3604 970 131.725 333.175 476.494
3708 0 64.131 15.1097 969 133.847 332.979 476.576
3709 0 67.1706 15.1703 1019 132.951 333.159 476.488
3710 0 68.0819 15.0407 1024 135.285 333.665 474.475
3711 0 71.1902 15.4094 1097 134.226 332.798 472.768
3712 0 72.183 14.2554 1029 138.474 333.066 472.399
3713 0 74.0873 16.1566 1197 133.645 332.992 471.536
3714 0 77.1984 15.8941 1227 134.596 332.469 468.063
3715 0 81.1293 15.0377 1220 136.126 332.768 469.597
3716 0 82.2253 14.8251 1219 137.918 332.827 466.655
3717 0 86.2413 14.6565 1264 139.132 332.234 467.461
3718 0 87.2552 16.0105 1397 137.988 332.423 463.94
3719 0 90.1891 14.1702 1278 143.505 332.006 462.43
3720 1 43.0669 13.9086 599 146.097 331.745 484.142
3721 0 46.0696 14.1959 654 144.261 332.297 483.797
3722 0 51.1049 15.0671 770 138.926 332.055 483.714
3723 0 50.173 14.9483 750 142.012 332.561 483.155
3724 0 53.1561 13.9213 740 144.139 332.318 482.22
3725 0 58.2455 15.572 907 137.327 332.401 481.237
3726 0 57.3118 14.5171 832 143.377 332.718 479.447
3727 0 60.1564 14.8945 896 143.381 332.768 478.348
3728 0 61.2607 14.4628 886 145.992 333.019 477.479
3729 0 65.1512 15.0419 980 144.303 332.981 474.692
3730 0 66.2227 15.312 1014 145.329 332.759 473.406
3731 0 68.1063 15.9457 1086 142.766 332.978 473.044
3732 0 70.1542 16.4352 1153 143.042 333.003 470.649
3733 0 74.1781 16.2447 1205 142.454 333.631 469.453
3734 0 75.1391 15.4247 1159 146.166 333.477 468.446
3735 0 79.063 16.4046 1297 141.877 333.039 467.028
3736 0 83.0853 16.5733 1377 139.714 333.459 466.438
3737 0 83.1082 14.9083 1239 148.227 333.73 463.662
3738 0 90.0845 19.6593 1771 128.932 333.27 460.101
3739 0 92.0854 17.3535 1598 136.459 333.159 459.245
3740 0 94.1322 15.9457 1501 140.845 333.865 460.927
3741 0 96.041 15.7016 1508 142.908 333.859 457.684
3742 0 99.1072 15.5185 1538 143.495 333.839 455.449
3743 1 53.0908 14.7107 781 145.307 333.665 477.567
3744 0 54.036 14.1942 767 148.785 333.922 476.512
3745 0 57.1183 14.4087 823 147.424 334.038 474.233
3746 0 59.1027 15.3123 905 143.952 334.713 473.924
3747 0 61.0546 16.952 1035 138.9 334.458 472.806
3748 0 65.0807 15.8572 1032 140.938 334.66 471.772
3749 0 65.0521 16.4637 1071 141.412 334.705 468.881
3750 0 67.1082 15.5719 1045 143.967 335.033 468.766
3751 0 71.0945 15.2754 1086 144.037 334.999 467.624
3752 0 72.0491 15.0453 1084 145.801 334.979 465.562
3753 0 73.0318 15.4727 1130 144.41 334.814 465.165
3754 0 77.1434 16.5277 1275 139.716 334.987 464.532
3755 0 78.0412 15.9019 1241 143.011 335.431 463.122
3756 0 82.1432 15.6556 1286 143.372 334.551 462.918
3757 0 82.0852 15.4108 1265 145.359 334.856 462.994
3758 0 86.0331 15.2035 1308 145.711 335.331 460.085
3759 0 87.0593 15.7019 1367 145.353 334.815 458.031
3760 0 91.0915 16.0717 1464 143.039 334.823 457.258
3761 0 96.0911 16.9735 1631 138.943 335.273 454.159
3762 0 97.1983 15.2575 1483 146.025 335.568 452.927
3763 0 101.158 16.0244 1621 142.992 335.146 452.489
3764 0 105.114 15.878 1669 142.887 335.299 450.193
3765 0 110.07 15.3448 1689 143.175 335.267 447.729
3766 0 116.189 16.06 1866 139.69 335.705 446.618
3767 1 56.0659 12.1464 681 147.53 335.222 472.52
3768 0 56.1538 13.089 735 147.241 335.61 470.061
3769 0 57.2838 11.2946 647 153.997 335.73 469.423
3770 0 60.1843 12.8439 773 147.741 335.538 468.009
3771 0 64.1754 13.7124 880 143.537 335.861 467.02
3772 0 66.2272 14.8126 981 140.452 335.103 465.536
3773 0 68.127 13.8858 946 141.842 334.95 467.26
3774 0 70.1989 13.8891 975 141.898 335.511 464.271
3775 0 72.323 13.6471 987 143.398 335.692 462.217
3776 0 74.1988 13.8547 1028 142.921 335.104 460.553
3777 0 78.2523 14.3382 1122 139.331 335.357 460.379
3778 0 80.2109 13.3648 1072 143.07 335.582 457.455
3779 0 78.2717 13.6576 1069 144.48 335.199 457.202
3780 0 85.2032 12.57 1071 145.01 335.803 454.974
3781 0 88.223 13.6359 1203 142.353 334.745 452.525
3782 0 91.231 14.9291 1362 138.253 336.437 450.554
3783 0 92.3547 12.8093 1183 144.254 336.27 452.828
3784 0 98.3536 14.0005 1377 140.398 336.591 450.524
3785 0 99.2469 14.1264 1402 141.862 336.324 447.34
3786 0 101.22 13.8707 1404 144.321 336.276 444.528
3787 0 108.315 14.6517 1587 140.922 336.485 442.897
3788 0 110.381 15.6458 1727 138.426 336.16 441.658
3789 0 114.492 14.3155 1639 144.862 336.206 437.643
3790 0 118.431 14.2277 1685 145.971 335.837 436.617
3791 0 121.55 13.986 1700 147.903 336.225 434.394
3792 0 125.397 13.8121 1732 149.623 336.35 431.568
3793 0 130.362 14.0916 1837 148.932 335.642 428.737
3794 0 137.428 14.815 2036 145.915 335.803 427.256
3795 0 138.476 14.0602 1947 150.469 335.913 423.548
3796 0 143.375 13.51 1937 153.747 336.006 418.36
3797 0 149.485 13.4595 2012 152.511 335.711 414.431
3798 0 155.494 13.6597 2124 152.665 335.542 415.858
3799 0 161.409 14.0574 2269 151.504 335.203 411.43
3800 0 163.542 15.1215 2473 149.869 335.43 408.26
3801 0 166.517 12.9536 2157 158.035 334.643 402.433
3802 0 173.533 12.9082 2240 156.567 334.371 400.058
3803 0 181.567 14.5842 2648 151.699 334.505 396.356
3804 0 186.593 15.0113 2801 151.03 334.726 394.335
3805 0 194.571 13.3062 2589 156.684 334.621 388.57
3806 0 202.542 14.002 2836 153.697 334.937 385.251
3807 0 209.559 13.5857 2847 154.646 334.994 381.478
3808 0 218.684 13.8419 3027 154.941 334.173 376.365
3809 1 163.546 9.59365 1569 160.392 334.897 407.376
3810 0 171.597 10.9151 1873 155.692 334.573 405.966
3811 0 174.672 12.6809 2215 154.321 334.813 399.903
3812 0 180.673 11.2081 2025 159.633 334.234 396.384
3813 0 186.47 10.5057 1959 159.364 333.665 390.664
3814 0 187.563 11.2976 2119 159.637 334.23 389.895
3815 0 193.682 15.1795 2940 146.852 334.84 391.052
3816 0 200.658 12.0005 2408 157.414 334.348 390.482
3817 0 199.569 5.19621 1037 174.601 334.83 394.801
3818 0 199.764 6.34249 1267 172.012 334.777 388.594
3819 0 199.683 4.40698 880 175.045 334.232 394.653
3820 1 239.686 12.3078 2950 155.528 333.865 362.724
3821 0 243.756 11.1792 2725 159.036 334.328 361.099
3822 0 252.794 13.6791 3458 149.784 334.619 350.767
3823 1 35.1593 7.4518 262 114.943 333.954 481.435
3824 0 36.1639 6.80236 246 115.11 333.756 482.207
3825 0 37.2487 8.93991 333 109.213 333.033 480.165
3826 0 39.1701 9.19069 360 105.392 333.186 480.008
3827 0 40.0478 7.74076 310 105.587 336.903 481.948
3828 0 37.0397 4.72466 175 113.543 336.183 480.583
3829 0 39.1129 7.08206 277 110.184 337.325 480.856
3830 0 40.0749 7.71056 309 108.204 337.162 479.812
3831 1 84.4145 7.14332 603 117.844 336.163 456.652
3832 0 84.4781 7.17345 606 118.124 335.634 457.772
3833 0 84.6413 8.34108 706 116.732 335.839 453.919
3834 1 180.699 6.76263 1222 125.356 335.414 414.399
3835 0 180.031 8.39858 1512 125.056 334.307 407.515
3836 1 59.2507 5.29951 314 109.15 336.038 480.806
3837 0 58.3564 6.95725 406 109.539 335.401 471.99
3838 0 58.2803 7.66982 447 108.725 335.237 472.183
3839 0 58.2217 9.10314 530 106.228 335.328 472.177
3840 0 57.2616 6.32186 362 110.738 336.064 474.724
3841 0 60.1604 8.64355 520 107.637 335.646 471.292
3842 0 64.1648 8.75869 562 107.539 335.833 469.701
3843 0 65.2741 8.426 550 107.738 335.809 469.456
3844 0 66.2386 7.74473 513 109.674 336.423 467.177
3845 0 78.4361 11.6655 915 99.9432 335.037 465.546
3846 0 79.2487 12.0633 956 99.7981 335.223 464.275
3847 0 81.2752 11.9963 975 100.424 334.907 462.385
3848 0 83.2223 11.8598 987 101.96 334.544 461.711
3849 1 44.1778 10.2993 455 101.319 336.492 482.556
3850 0 44.1703 9.91617 438 103.651 336.411 483.836
3851 0 48.1099 10.7878 519 103.206 335.705 480.655
3852 0 49.294 11.0358 544 103.972 334.504 475.259
3853 0 49.3597 11.5479 570 104.053 335.095 473.5
3854 0 50.138 10.8899 546 104.817 333.462 481.416
3855 0 50.1931 10.5194 528 107.79 334.504 479.15
3856 0 53.1196 10.6929 568 106.551 333.396 481.319
3857 0 54.1757 11.4073 618 106.1 333.642 479.662
3858 0 56.1019 11.4791 644 107.748 333.854 478.557
3859 0 57.1635 11.7383 671 108.943 333.867 476.458
3860 0 57.1493 10.8138 618 113.909 333.762 476.186
3861 0 59.1382 12.7329 753 109.598 334.254 475.457
3862 0 62.1113 11.8175 734 112.106 334.237 475.862
3863 0 63.2034 11.55 730 114.329 334.023 475.123
3864 0 64.0956 11.4828 736 115.749 333.802 473.753
3865 0 66.1161 10.9202 722 116.805 334.877 473.501
3866 0 66.1585 11.4271 756 117.671 334.769 470.21
3867 0 69.0908 12.2158 844 115.226 334.341 472.249
3868 0 71.2329 12.1433 865 115.695 334.171 468.569
3869 0 74.111 12.7511 945 113.926 333.988 469.494
3870 0 73.1018 10.9026 797 120 333.947 469.203
3871 0 77.1618 12.4543 961 116.348 334.185 468.606
3872 0 77.2965 10.919 844 121.096 334.428 467.774
3873 0 81.2723 11.16 907 114.531 334.754 461.105
3874 0 83.2683 11.2047 933 115.136 334.441 458.347
3875 0 86.2714 11.9738 1033 113.114 335.036 456.926
3876 0 88.2638 10.6952 944 115.977 334.371 456.197
3877 0 93.3807 11.3728 1062 115.016 333.704 454.949
3878 0 93.3247 11.4761 1071 115.864 334.465 451.208
3879 1 53.3614 11.3565 606 116.17 335.206 470.238
3880 0 52.2057 10.8992 569 122.431 334.265 469.146
3881 0 56.1666 12.3205 692 118.659 334.406 466.731
3882 0 58.2214 12.504 728 117.651 335.162 467.935
3883 0 59.2278 12.0889 716 117.095 334.666 469.394
3884 0 61.1922 12.2238 748 115.048 334.404 470.441
3885 0 65.299 12.8333 838 112.086 334.335 469.206
3886 0 66.0818 12.6359 835 113.81 334.601 466.583
3887 0 67.3833 12.3473 832 114.728 334.525 466.029
3888 0 68.1525 12.5747 857 114.455 333.966 465.952
3889 0 74.251 12.3635 918 112.856 335.193 465.549
3890 0 73.2975 10.7643 789 116.744 335.138 465.279
3891 0 76.2081 11.9672 912 114.121 334.072 461.076
3892 0 80.1966 14.4146 1156 107.594 334.439 462.644
3893 0 82.1971 12.6282 1038 112.137 334.51 460.706
3894 0 85.1617 12.4469 1060 112.444 335.468 459.294
3895 0 87.223 12.577 1097 111.836 334.523 459.858
3896 0 89.2663 11.6505 1040 115.216 334.386 455.451
3897 0 93.413 12.707 1187 111.887 333.883 456.816
3898 0 96.4293 13.5643 1308 110.096 334.222 454.872
3899 0 98.3324 12.6916 1248 112.83 333.91 450.279
3900 0 105.307 13.5318 1425 108.876 334.345 451.888
3901 1 57.0702 11.7925 673 107.731 334.062 474.747
3902 0 57.1026 10.9277 624 111.463 334.612 475.473
3903 0 60.369 12.5892 760 109.232 333.405 470.105
3904 0 62.1406 14.0649 874 105.779 333.773 472.005
3905 0 63.3283 13.5642 859 108.297 334.106 468.906
3906 0 65.251 12.2144 797 112.162 333.772 469.13
3907 0 67.1556 13.4762 905 108.943 333.965 469.042
3908 0 69.1333 12.6712 876 111.249 333.982 467.793
3909 0 72.236 13.359 965 109.442 334.578 467.323
3910 0 75.1778 13.0491 981 110.008 333.963 465.321
3911 0 78.1939 14.0676 1100 107.795 333.965 464.193
3912 0 80.126 13.2292 1060 111.011 333.985 462.349
3913 0 83.3114 13.0835 1090 110.902 333.614 462.596
3914 0 84.2485 13.4958 1137 111.046 333.435 460.359
3915 0 86.1897 13.0874 1128 113.296 333.742 458.436
3916 0 88.2228 13.2619 1170 113.619 333.331 454.671
3917 0 93.4132 14.4947 1354 109.833 332.979 456.653
3918 0 95.3212 13.187 1257 113.815 332.862 455.006
3919 0 97.4013 13.5316 1318 112.68 333.21 452.814
3920 0 100.299 13.719 1376 107.797 333.85 452.395
3921 0 104.39 13.7945 1440 108.785 333.913 452.691
3922 0 107.197 13.1534 1410 114.179 333.377 447.384
3923 0 110.239 13.4435 1482 112.967 333.207 445.557
3924 0 113.344 13.5605 1537 112.565 333.106 445.394
3925 1 63.2594 11.3027 715 111.385 333.278 472.522
3926 0 64.2645 13.4444 864 106.704 333.863 473.538
3927 0 66.2628 11.9222 790 110.939 333.561 471.525
3928 0 71.3494 12.7401 909 107.991 333.605 472.047
3929 0 72.2027 12.7419 920 109.395 334.417 469.837
3930 0 74.3316 13.3321 991 109.638 333.791 469.241
3931 0 77.1951 13.2521 1023 109.437 333.408 468.087
3932 0 81.2393 14.008 1138 107.756 333.28 468.079
3933 0 83.1739 13.0209 1083 111.875 333.439 465.509
3934 0 86.134 14.0827 1213 110.122 333.245 465.034
3935 0 88.1266 13.3104 1173 113.507 333.263 463.269
3936 0 93.1001 14.8442 1382 110.389 333.357 461.847
3937 0 94.0431 13.6746 1286 114.96 332.84 460.673
3938 0 97.064 13.929 1352 115.856 332.91 456.795
3939 0 101.187 15.1007 1528 113.823 332.718 454.789
3940 0 102.1 12.9873 1326 121.184 333.146 453.708
3941 0 106.114 13.4102 1423 118.779 333.034 453.071
3942 0 109.126 14.2313 1553 117.751 332.534 451.578
3943 0 111.117 12.4373 1382 122.853 332.66 451.131
3944 0 114.181 13.8727 1584 121.601 333.206 446.681
3945 0 119.143 13.4796 1606 122.577 332.539 445.296
