time division length width area intensity CMx CMy
0 0 29.0087 10.5141 305 144.344 649.351 477.561
1 0 32.0137 11.214 359 141.646 648.76 475.986
2 0 29.0222 11.6462 338 145.547 649.491 477.089
3 0 30.0301 12.0879 363 141.928 649.107 476.388
4 0 31.0148 11.8653 368 144.622 648.541 477.065
5 0 31.0187 10.8644 337 137.748 648.849 478.448
6 0 30.0101 11.5295 346 132.191 648.017 478.003
7 0 30.036 10.2877 309 135.984 649.023 479.398
8 0 32.044 10.6416 341 133.9 648.507 480.455
9 0 30.037 10.7867 324 136.59 648.392 479.802
10 0 34.0161 11.6709 397 129.894 647.388 479.297
11 0 34.1176 11.6948 399 129.982 649.772 480.887
12 0 34.0616 10.6572 363 136.135 648.545 479.466
13 0 35.0484 10.4712 367 131.937 647.392 479.24
14 0 38.0332 11.1481 424 128.672 646.576 479.712
15 0 37.0214 11.6419 431 131.849 647.601 478.671
16 0 42.0396 12.6547 532 121.62 648.297 479.235
17 0 42.0428 12.7251 535 123.318 647.581 479.028
18 0 42.0384 11.5371 485 128.062 648.181 479.616
19 0 45.0906 13.2178 596 120.25 647.367 478.378
20 0 46.054 12.963 597 122.256 646.953 477.436
21 0 46.0478 13.1168 604 122.682 646.977 478.324
22 0 48.0715 13.9376 670 119.797 647.042 478.443
23 0 45.1634 12.0673 545 130.47 647.394 477.806
24 0 49.0615 13.9621 685 121.185 647.05 477.088
25 0 50.0586 13.8038 691 122.781 645.826 476.331
26 0 51.0353 13.2653 677 126.114 645.821 474.477
27 0 53.0233 12.7114 674 125.102 645.958 476.015
28 0 53.0295 13.9733 741 123.532 645.232 475.381
29 0 55.1106 12.7199 701 126.305 645.984 474.549
30 0 55.1096 13.0467 719 126.911 646.349 473.885
31 0 57.0214 12.241 698 128.626 645.169 472.255
32 0 58.0712 12.5535 729 129.427 644.953 470.621
33 0 61.0369 12.1074 739 127.893 645.522 473.003
34 0 64.0496 12.5372 803 126.709 645.552 471.243
35 0 66.0827 13.4831 891 124.443 645.874 470.214
36 0 68.0671 12.9284 880 126.22 646.392 469.536
37 0 71.0863 13.4906 959 123.774 645.372 468.407
38 0 70.1045 11.5827 812 130.792 644.458 466.978
39 0 75.0901 13.5704 1019 124.828 644.254 463.574
40 0 78.0463 12.2235 954 127.935 644.209 464.7
41 0 82.1396 12.917 1061 132.806 643.94 462.164
42 1 41.0388 10.551 433 134.841 644.7 481.083
43 0 43.0374 12.8493 553 126.121 645.651 480.656
44 0 43.0466 11.8476 510 127.316 644.102 479.808
45 0 45.0557 11.7188 528 128.678 644.758 479.557
46 0 45.0714 11.271 508 130.561 644.053 479.012
47 0 47.0705 12.1095 570 127.577 643.919 478.525
48 0 49.0576 11.5375 566 128.284 644.095 478.155
49 0 49.1065 11.6482 572 128.309 643.757 478.292
50 0 52.0878 12.5749 655 125.841 643.84 476.391
51 0 53.0306 12.6531 671 125.377 644.396 475.984
52 0 53.0636 11.326 601 130.085 644.263 476.389
53 0 56.1323 13.1297 737 125.848 644.448 475.052
54 0 58.1001 13.0809 760 123.43 643.603 473.513
55 0 59.0497 11.9222 704 125.808 643.688 474.717
56 0 60.0887 12.6147 758 122.694 644.578 474.573
57 0 62.1442 12.3744 769 124.394 643.926 471.342
58 0 65.041 12.9303 841 121.472 643.845 472.476
59 0 67.25 14.0521 945 119.855 644.118 468.876
60 0 69.2502 12.8953 893 122.877 643.703 468.299
61 0 72.1914 13.1595 950 121.42 643.376 468.438
62 0 73.0589 12.6473 924 123.027 642.748 467.892
63 0 77.1128 13.3441 1029 119.633 642.672 466.608
64 0 80.1374 14.001 1122 117.504 642.481 464.111
65 0 84.0905 14.4844 1218 116.399 642.547 462.23
66 0 86.0971 12.7182 1095 118.849 642.858 463.547
67 0 89.107 13.9607 1244 114.738 642.326 458.37
68 1 44.0455 10.807 476 118.574 642.416 482.401
69 0 45.0383 12.7669 575 113.129 641.791 480.816
70 0 47.036 12.6286 594 109.709 641.931 480.495
71 0 47.0187 12.6971 597 109.343 642.211 480.164
72 0 49.0222 11.4846 563 112.515 642.533 478.336
73 0 50.0676 12.2834 615 110.377 642.332 477.265
74 0 51.082 12.1569 621 110.71 643.164 477.892
75 0 52.0705 11.9645 623 111.413 642.547 477.125
76 0 56.1277 14.1285 793 105.885 642.806 476.48
77 0 58.0745 12.6389 734 109.46 643.576 474.772
78 0 59.0788 13.0673 772 108.927 643.456 473.414
79 0 61.0828 11.6563 712 112.206 643.437 472.242
80 0 63.0496 11.8002 744 111.368 643.552 471.759
81 0 65.0867 11.815 769 117.419 642.683 470.723
82 0 68.0998 12.6579 862 114.416 642.589 468.448
83 0 71.0657 12.9176 918 112.078 643.269 468.316
84 0 74.0558 13.6114 1008 110.247 642.997 467.438
85 0 76.0903 13.5497 1031 110.129 643.685 465.698
86 0 76.164 12.46 949 112.4 643.327 464.896
87 0 81.0509 14.0529 1139 108.074 643.427 464.756
88 0 83.0968 13.3218 1107 109.25 643.557 461.902
89 0 86.1579 13.3708 1152 104.994 642.848 459.737
90 0 87.1929 12.6501 1103 106.686 642.69 460.659
91 0 92.0791 13.2712 1222 104.161 642.709 459.282
92 1 46.1069 11.9505 551 107.04 643.26 479.748
93 0 47.1016 11.4858 541 107.15 642.967 479.577
94 0 47.0338 11.6512 548 100.923 642.369 482.069
95 0 48.0115 9.89346 475 105.975 642.253 479.208
96 0 51.0842 11.7453 600 100.942 642.108 479.837
97 0 52.0717 9.52534 496 104.625 643.067 479.046
98 0 54.0585 10.6921 578 101.9 643.017 477.457
99 0 56.0463 12.9 723 97.8589 643.024 476.441
100 0 55.0521 10.6808 588 103.196 643.071 475.611
101 0 59.21 11.5014 681 102.228 642.056 472.348
102 0 62.0764 11.7114 727 100.785 642.177 473.891
103 0 63.135 11.8793 750 99.3213 642.196 474.337
104 0 66.0425 12.4768 824 100.022 642.069 470.311
105 0 68.0993 12.3937 844 100.815 641.909 471.406
106 0 70.0778 12.0009 841 101.627 641.333 470.235
107 0 72.0401 11.8545 854 103.338 641.995 468.471
108 0 72.0419 11.5072 829 105.096 642.382 468.797
109 0 75.1992 12.5267 942 104.178 642.111 466.283
110 0 77.0383 11.7734 907 106.297 641.731 466.149
111 0 80.0677 13.1763 1055 104.334 641.996 463.686
112 0 81.0703 11.1385 903 110.288 641.343 463.89
113 0 85.1134 13.6524 1162 106.376 641.339 460.845
114 0 87.0849 12.505 1089 108.882 641.332 458.406
115 0 88.0641 12.5477 1105 110.076 642.264 459.183
116 0 93.089 12.3967 1154 110.064 642.347 458.51
117 0 96.0315 12.1314 1165 111.512 642.215 454.957
118 0 100.098 13.7265 1374 108.945 642.424 455.273
119 1 52.0295 10.84 564 110.548 641.947 476.887
120 0 55.1541 12.4379 686 106.522 641.02 472.895
121 0 58.1419 11.6783 679 107.321 641.352 473.103
122 0 54.0301 10.5497 570 108.749 642.323 474.909
123 0 60.0493 12.8062 769 103.992 642.105 473.313
124 0 62.0828 11.7907 732 107.399 642.761 471.475
125 0 63.0892 12.3001 776 106.969 642.822 470.17
126 0 63.0892 12.3318 778 121.739 642.807 470.226
127 0 68.0374 11.7729 801 109.946 641.619 470.513
128 0 72.0827 13.1932 951 107.676 642.51 469.7
129 0 77.132 13.6649 1054 110.696 642.679 466.855
130 0 77.1302 12.3817 955 114.373 642.035 467.976
131 0 80.1673 13.4095 1075 112.346 642.491 464.358
132 0 83.1026 12.9478 1076 113.594 642.327 464.024
133 0 84.1568 12.8926 1085 114.914 643.136 462.232
134 0 89.1125 13.9599 1244 111.498 642.06 462.06
135 0 90.1741 13.2743 1197 114.355 642.11 458.972
136 0 92.1464 13.077 1205 114.717 642.414 457.34
137 0 96.0577 12.6174 1212 115.265 641.395 456.87
138 1 49.0526 12.0687 592 108.172 642.189 481.441
139 0 49.0271 11.1367 546 110.584 641.982 480.016
140 0 51.0613 11.9073 608 110.183 641.641 478.737
141 0 54.0575 12.0242 650 106.372 642.229 480.754
142 0 53.0572 12.119 643 108.801 641.837 477.746
143 0 55.092 11.4899 633 109.79 642.221 477.139
144 0 56.0425 12.1693 682 109.163 641.88 474.875
145 0 58.0656 13.2436 769 106.023 641.878 476.486
146 0 61.0427 12.4175 758 108.492 642.219 474.434
147 0 63.0524 12.7989 807 109.093 641.385 474.131
148 0 65.0736 11.8481 771 111.958 642.113 473.052
149 0 66.1141 11.7827 779 114.291 642.092 470.529
150 0 69.079 11.4941 794 115.205 641.841 470.417
151 0 72.086 12.929 932 112.726 642.285 468.686
152 0 73.2302 13.4234 983 113.169 641.268 468.137
153 0 76.0308 13.0736 994 115.89 641.375 465.141
154 0 79.0572 13.7748 1089 114.643 642.197 465.551
155 0 79.0554 11.7386 928 121.057 641.504 464.069
156 0 86.0836 13.4753 1160 115.392 641.162 462.878
157 0 87.1173 13.3269 1161 117.116 641.233 460.201
158 0 92.0927 12.4874 1150 119.616 641.228 458.665
159 0 92.0911 12.8568 1184 119.4 640.789 457.018
160 1 51.0564 11.8888 607 116.998 641.779 478.33
161 0 50.2411 11.6439 585 118.858 641.65 477.554
162 0 52.0187 11.6689 607 116.013 640.381 478.132
163 0 55.0512 12.007 661 113.233 640.582 477.808
164 0 56.0369 12.9914 728 111.427 641.041 474.523
165 0 58.0344 12.8717 747 112.201 640.73 472.835
166 0 61.1535 12.2152 747 113.074 640.727 472.809
167 0 64.1146 13.1171 841 111.719 641.219 472.576
168 0 66.0358 13.0687 863 112.793 641.75 471.435
169 0 68.0806 13.3078 906 113.486 641.641 469.864
170 0 69.1093 13.0229 900 115.903 641.89 469.677
171 0 73.0718 13.7126 1002 114.156 641.21 466.922
172 0 74.0647 12.6376 936 118.721 641.113 468.349
173 0 78.0735 13.9228 1087 115.362 641.632 467.59
174 0 78.1127 12.3796 967 121.034 641.491 465.074
175 0 83.1023 13.1284 1091 118.544 640.596 463.548
176 1 43.0295 9.66779 416 126.002 640.161 482.762
177 0 44.0203 10.6769 470 124.353 641.196 483.206
178 0 46.0782 12.1316 559 116.465 641.145 480.05
179 0 46.0335 11.2092 516 121.766 641.736 481.574
180 0 47.0638 11.2188 528 121.269 641.559 482.116
181 0 49.0127 11.0992 544 121.447 641.208 480.441
182 0 50.0755 11.8221 592 119.716 641.255 479.404
183 0 52.0114 13.0356 678 118.044 641.299 478.409
184 0 53.0696 12.0973 642 120.375 640.833 478.204
185 0 54.0972 10.9063 590 123.295 641.454 478.239
186 0 53.0657 10.9864 583 124.895 641.374 476.434
187 0 57.0236 11.5391 658 121.289 642.109 478.24
188 0 60.0746 13.3667 803 116.8 641.966 475.303
189 0 62.1818 12.3991 771 119.179 642.407 474.268
190 0 63.1215 12.3254 778 119.968 641.703 472.424
191 0 64.0482 11.6475 746 122.322 642.021 472.765
192 0 68.0876 12.4839 850 119.982 642.175 471.232
193 0 69.1894 11.996 830 122.923 642.22 469.245
194 0 72.0991 13.3705 964 120.217 642.08 467.397
195 0 75.1094 13.4604 1011 118.941 641.65 467.725
196 0 77.0287 12.7096 979 123.71 642.237 465.236
197 0 78.0945 12.5873 983 125.372 641.61 465.457
198 0 81.0526 13.5221 1096 123.512 642.678 464.333
199 0 85.1043 13.3248 1134 124.287 642.432 461.856
200 1 43.0417 11.1287 479 122.952 643.021 481.666
201 0 45.0398 11.7896 531 121.326 643.023 482.525
202 0 46.0802 12.9123 595 119.22 641.928 481.281
203 0 47.1199 13.264 625 119.77 641.278 478.493
204 0 49.0223 12.1577 596 124.136 642.3 480.638
205 0 49.0387 12.6839 622 124.997 642.844 479.934
206 0 51.0297 13.404 684 122.061 642.634 480.42
207 0 51.0151 13.5646 692 123.039 642.468 478.094
208 0 52.1132 12.5688 655 124.159 643.038 477.908
209 0 53.0063 12.2627 650 124.36 643.392 477.585
210 0 55.0151 13.2691 730 121.738 643.463 476.642
211 0 56.0487 12.953 726 123.182 643.596 475.037
212 0 58.0415 13.8522 804 119.889 643.828 474.954
213 0 61.1028 13.5346 827 119.123 642.843 473.641
214 0 60.0732 14.0495 844 119.509 642.81 472.922
215 0 64.0446 14.2401 912 117.121 642.803 472.185
216 0 64.0527 13.6606 875 120.389 643.065 470.657
217 0 67.0495 14.0195 940 117.891 643.277 470.863
218 0 69.0314 14.2689 985 117.335 642.554 467.93
219 0 72.0509 14.1844 1022 117.073 642.262 469.315
220 0 75.2455 14.353 1080 116.896 642.672 467.398
221 0 75.029 14.3544 1077 118.105 642.771 465.448
222 0 78.0929 14.3291 1119 112.573 642.247 464.784
223 0 80.0803 14.6353 1172 112.287 642.486 463.642
224 0 84.1552 14.5921 1228 111.679 642.885 461.35
225 0 86.1354 13.5368 1166 114.787 643.553 462.275
226 0 89.0349 13.5003 1202 114.948 643.072 460.606
227 1 47.0675 12.2802 578 118.391 643.586 480.597
228 0 49.0951 12.5471 616 117.453 642.685 479.028
229 0 52.205 13.5236 706 115.734 641.931 476.309
230 0 51.1565 12.2956 629 120.227 641.96 477.534
231 0 55.0502 12.8792 709 118.532 641.726 476.989
232 0 56.1274 13.4337 754 118.211 642.102 475.171
233 0 57.0895 12.9446 739 120.525 642.146 475.456
234 0 61.0281 12.5024 763 120.01 642.083 474.533
235 0 62.1126 12.3968 770 120.76 642.149 473.348
236 0 63.1398 12.4486 786 120.326 641.779 471.388
237 0 66.1026 12.7075 840 118.987 642.124 472.088
238 0 67.0893 12.938 868 119.786 641.982 470.916
239 0 70.0784 13.014 912 119.277 642.345 470.35
240 0 72.0561 13.5866 979 119.221 641.797 469.03
241 0 75.0595 13.003 976 119.74 640.917 468.396
242 0 76.0617 14.0412 1068 119.054 641.248 464.469
243 0 78.1286 12.8634 1005 122.387 641.42 465.178
244 0 82.0489 12.8704 1056 121.635 641.325 463.926
245 0 84.0862 13.4624 1132 115.956 641.403 463.958
246 0 87.1369 12.1992 1063 120.45 641.523 461.439
247 0 90.066 12.0134 1082 125.446 642.221 460.745
248 0 92.3086 12.859 1187 123.312 641.609 458.514
249 0 95.1668 11.422 1087 127.531 642.11 456.043
250 1 49.1969 13.2732 653 116.026 642.084 479.228
251 0 51.0534 12.34 630 118.521 641.811 478.911
252 0 52.0397 11.7987 614 120.513 642.129 477.347
253 0 54.0306 12.3078 665 119.358 641.502 477.278
254 0 56.0637 12.3609 693 118.825 640.753 476.449
255 0 59.063 13.3078 786 116.511 641.257 474.611
256 0 60.0909 12.8971 775 117.785 641.677 473.569
257 0 61.0488 11.7119 715 123.327 640.815 473.136
258 0 64.0699 12.3615 792 120.073 640.729 473.516
259 0 65.0656 11.2195 730 124.633 641.186 472.248
260 0 66.088 11.8478 783 125.037 640.831 470.193
261 0 69.1245 12.6873 877 122.953 641.294 468.886
262 0 73.1024 13.5426 990 122.214 641.718 466.337
263 0 74.1035 12.8604 953 123.988 641.234 467.43
264 0 78.0692 13.8595 1082 121.971 641.613 465.423
265 0 81.1305 12.9791 1053 125.681 641.711 464.156
266 0 85.1688 13.6435 1162 124.25 641.49 462.037
267 0 87.3065 13.6874 1195 124.854 642.201 461.654
268 0 92.242 13.3887 1235 129.594 642.462 459.42
269 0 95.3735 13.4314 1281 129.774 642.36 456.688
270 0 99.3628 13.2846 1320 127.772 642.796 458.701
271 0 101.256 11.7228 1187 128.85 641.682 454.033
272 0 103.3 12.6428 1306 127.257 640.982 450.943
273 1 54.1049 10.073 545 122.53 641.514 478.516
274 0 58.0851 11.6381 676 118.799 641.405 475.954
275 0 58.0237 12.0985 702 119.02 640.846 475.67
276 0 60.1168 12.0599 725 121.617 640.441 473.341
277 0 65.0994 13.994 911 118.498 641.952 472.03
278 0 65.0613 13.2183 860 118.9 640.374 471.43
279 0 66.1227 12.6885 839 120.308 640.688 472.813
280 0 69.0659 11.6845 807 124.16 640.986 469.428
281 0 69.0427 11.8043 815 123.831 641.476 468.586
282 0 72.04 12.2571 883 122.062 641.35 468.81
283 0 73.0658 12.1534 888 123.68 641.706 466.664
284 0 77.0542 12.6015 971 122.033 641.16 466.114
285 0 80.2246 12.5149 1004 121.526 641.721 463.197
286 0 83.0692 12.941 1075 120.48 641.394 463.712
287 0 85.1131 12.689 1080 121.565 641.972 461.732
288 0 89.1835 15.0028 1338 113.765 641.329 460.16
289 0 92.0719 13.0116 1198 118.62 641.707 458.062
290 0 94.1616 12.7441 1200 118.311 641.888 459.198
291 0 96.1395 12.5547 1207 119.558 642.423 457.602
292 0 101.249 12.2668 1242 120.09 641.332 455.789
293 0 102.142 13.1287 1341 119.183 641.582 450.136
294 0 107.248 13.52 1450 117.431 642.252 452.101
295 0 110.157 13.4899 1486 117.744 641.66 449.931
296 1 55.1116 9.68943 534 124.693 641.903 475.14
297 0 60.1513 11.5209 693 118.214 642.737 474.115
298 0 61.1183 10.2752 628 112.682 642.433 471.111
299 0 63.1285 10.5341 665 109.171 642.183 470.689
300 0 64.0489 10.7886 691 109.405 642.122 471.428
301 0 64.0737 9.78561 627 112.628 642.45 469.36
302 0 69.0715 12.6825 876 106.047 642.233 467.452
303 0 69.1292 11.37 786 109.496 643.216 467.457
304 0 72.1094 11.6074 837 110.229 642.671 463.99
305 0 75.0668 12.8819 967 107.004 642.953 464.202
306 0 76.1357 10.652 811 112.33 642.98 461.689
307 0 80.0857 11.3379 908 109.246 642.347 463.961
308 0 83.0966 11.7935 980 109.116 642.146 459.519
309 0 86.1772 11.72 1010 109.926 641.975 457.85
310 0 89.114 13.7128 1222 114.126 640.755 461.073
311 0 93.0804 13.4722 1254 113.48 641.11 457.484
312 0 95.098 13.1023 1246 115.251 641.795 455.156
313 1 50.0777 12.0413 603 113.194 641.491 480.846
314 0 50.0383 11.0515 553 116.268 641.237 479.137
315 0 51.2591 12.0369 617 115.062 641.702 476.987
316 0 53.1174 11.6723 620 108.187 640.598 480.002
317 0 54.1589 11.2078 607 108.328 641.237 480.128
318 0 55.0237 12.5582 691 106.729 640.35 478.31
319 0 57.0556 11.5326 658 107.895 642.606 477.166
320 0 57.0533 11.3403 647 108.479 642.417 475.623
321 0 59.043 11.8727 701 108.094 642.746 474.826
322 0 64.1194 12.5703 806 105.081 643.368 473.95
323 0 64.1146 11.6354 746 108.129 642.744 472.815
324 0 66.0726 10.6095 701 110.682 643.003 472.812
325 0 69.1665 11.8988 823 109.022 643.107 470.31
326 0 72.0991 12.8573 927 106.708 643.158 469.511
327 0 75.0901 11.1333 836 111.715 642.727 469.695
328 0 78.1336 12.5554 981 110.295 642.907 466.279
329 0 80.1361 11.5179 923 112.93 642.564 467.095
330 0 82.0765 12.7198 1044 111.873 642.687 464.382
331 0 85.1009 12.6203 1074 114.21 642.8 462.356
332 0 87.132 12.4179 1082 113.963 642.606 463.38
333 0 90.1067 11.9858 1080 117.508 642.081 460.275
334 0 93.1312 12.1656 1133 117.626 642.349 457.4
335 0 97.2545 13.0174 1266 116.549 642.208 458.482
336 1 52.0652 11.2551 586 117.974 641.526 479.377
337 0 53.0374 10.6717 566 118.373 641.83 480.034
338 0 56.0555 12.4876 700 111.811 641.799 478.164
339 0 58.0788 12.9479 752 110.838 642.918 477.315
340 0 59.0223 13.4017 791 110.284 643.262 476.874
341 0 59.0389 12.3308 728 114.663 642.589 475.854
342 0 62.0461 13.087 812 111.399 643.224 475.272
343 0 63.0915 12.7117 802 112.466 643.262 473.806
344 0 66.1117 12.4184 821 113.644 643.245 472.155
345 0 68.0691 12.6195 859 113.063 643.654 472.292
346 0 72.1069 13.6741 986 109.902 643.118 470.797
347 0 73.1295 12.977 949 113.231 642.468 468.934
348 0 74.1143 13.3038 986 114.436 643.029 468.05
349 0 78.1257 13.6575 1067 113.007 643.62 466.65
350 0 80.0978 13.2713 1063 114.492 643.678 465.429
351 0 83.12 12.488 1038 116.157 643.368 466.007
352 0 82.1203 12.5426 1030 155.27 643.375 465.877
353 0 88.1044 14.165 1248 112.67 643.447 464.572
354 0 93.1181 14.8628 1384 110.903 642.934 457.824
355 0 93.124 13.2726 1236 116.981 642.875 458.576
356 0 95.083 12.4733 1186 121.816 641.723 456.339
357 0 99.3135 12.7878 1270 119.959 641.761 458.261
358 0 103.168 12.8237 1323 118.641 642.345 457.15
359 1 60.1374 12.089 727 116.15 642.264 478.241
360 0 61.0698 12.8541 785 116.451 642.594 476.055
361 0 61.2205 11.4831 703 117.883 642.804 475.986
362 0 64.1004 12.6988 814 114.697 643.079 474.686
363 0 66.0469 12.4306 821 115.637 643.286 473.359
364 0 69.1694 14.3127 990 110.788 642.641 472.27
365 0 70.1308 12.5622 881 117.529 642.848 468.871
366 0 73.146 13.1518 962 115.392 642.482 467.956
367 0 75.1363 14.5469 1093 112.502 642.336 466.973
368 0 78.1225 13.2996 1039 116.181 642.275 464.636
369 0 80.1176 13.1681 1055 115.926 642.09 465.402
370 0 84.1723 13.805 1162 114.361 642.355 463.838
371 0 85.195 12.3012 1048 119.61 642.464 463.993
372 0 89.2137 12.5205 1117 118.515 642.188 462.722
373 0 91.1877 11.9424 1089 121.306 642.216 458.623
374 0 94.1361 12.4076 1168 118.386 642.21 460.766
375 0 98.1375 11.8405 1162 120.336 642.803 458.62
376 1 50.023 10.1353 507 119.696 642.215 481.803
377 0 50.0894 10.7208 537 118.857 642.164 479.834
378 0 53.1066 12.0324 639 112.8 642.507 477.851
379 0 53.1482 11.5714 615 116.468 642.185 476.472
380 0 56.0507 12.4352 697 105.567 643.159 478.37
381 0 57.0523 11.4632 654 108.804 642.45 477.107
382 0 57.0395 10.8697 620 111.379 642.453 475.208
383 0 60.0981 11.032 663 110.459 643.409 475.053
384 0 62.0678 12.8086 795 106.972 643.463 474.214
385 0 62.051 11.5711 718 110.575 642.993 472.666
386 0 65.1252 10.7332 699 110.17 643.931 475.814
387 0 67.1198 10.742 721 111.594 644.24 470.158
388 0 70.1632 12.3569 867 107.965 643.885 468.824
389 0 73.1391 11.6764 854 110.004 643.533 468.251
390 0 75.1236 11.5543 868 110.783 642.962 467.172
391 0 78.0488 12.5691 981 109.126 643.173 467.06
392 0 81.0722 11.977 971 112.002 643.566 463.832
393 0 82.0615 11.9544 981 113.525 643.375 463.133
394 1 44.1304 10.9222 482 111.241 643.631 482.78
395 0 46.1834 12.4504 575 108.197 643.369 482.143
396 0 45.1144 11.5263 520 112.546 643.648 481.354
397 0 49.0742 12.0226 590 113.488 644.702 480.932
398 0 50.0197 11.7754 589 115.57 643.547 480.677
399 0 50.0361 11.9913 600 115.505 644.398 479.652
400 0 52.0786 12.3467 643 113.984 644.76 479.387
401 0 54.037 12.3434 667 113.615 644.625 478.834
402 0 55.04 11.5371 635 117.076 644.014 477.967
403 0 58.072 12.2951 714 114.534 643.632 476.962
404 0 58.0417 11.4056 662 116.488 644.163 477.52
405 0 60.037 11.5929 696 117.111 643.585 476.149
406 0 61.04 11.7628 718 117.909 643.971 474.251
407 0 65.0322 12.686 825 114.107 644.001 474.692
408 0 66.0416 12.053 796 116.832 643.793 473.4
409 0 66.0695 11.3971 753 119.165 643.287 471.792
410 0 69.0397 11.2834 779 118.986 643.42 470.085
411 0 72.0666 10.9898 792 119.182 643.658 469.516
412 0 72.0677 10.7538 775 121.715 643.05 466.952
413 0 76.0706 11.463 872 117.794 643.93 469.935
414 0 78.0617 11.3244 884 119.024 643.593 465.484
415 0 80.1618 12.6494 1014 114.621 643.129 463.259
416 1 38.0425 10.1203 385 112.577 643.943 484.374
417 0 41.0741 10.3228 424 111.542 644.061 485.219
418 0 40.2413 10.3625 417 113.564 642.444 480.592
419 0 44.0376 11.1041 489 110.031 644.468 482.247
420 0 44.0668 11.5279 508 109.697 644.457 482.146
421 0 47.1216 12.0539 568 108.06 644.25 481.025
422 0 49.2121 11.6435 573 109.777 644.264 480.154
423 0 47.2039 11.3974 538 128.781 644.316 481.117
424 0 52.1796 11.6904 610 109.556 643.156 479.636
425 0 51.116 11.6598 596 111.228 643.233 479.718
426 0 54.0936 11.4986 622 112.24 643.518 477.785
427 0 56.1586 12.8921 724 108.178 643.293 478.695
428 0 57.1325 11.9897 685 112.185 642.988 476.047
429 0 60.104 13.2936 799 109.771 643.426 476.119
430 0 61.0606 12.9707 792 111.149 643.418 475.838
431 0 62.1113 12.2361 760 114.143 643.828 474.758
432 0 66.151 12.5622 831 112.96 643.899 473.007
433 0 68.0552 12.2401 833 114.729 643.325 472.705
434 0 69.0936 12.8811 890 115.526 643.038 471.418
435 0 70.1436 12.9734 910 116.855 644.056 470.024
436 0 74.2118 13.1246 974 117.749 644.275 469.192
437 0 77.1693 13.7749 1063 117.89 643.665 467.738
438 0 79.1884 12.1104 959 124.252 643.541 465.863
439 0 80.1883 12.1963 978 124.797 643.695 462.951
440 1 43.1921 11.6456 503 119.089 643.92 484.024
441 0 42.0367 12.6318 531 119.407 643.723 481.52
442 0 43.0731 11.4224 492 123.303 643.6 482.049
443 0 45.0173 12.3952 558 120.378 643.457 480.018
444 0 48.0218 11.6405 559 120.698 643.617 481.426
445 0 49.0759 12.5112 614 119.415 643.506 480.086
446 0 49.0398 12.9894 637 118.08 644.077 480.422
447 0 51.1548 12.7261 651 119.264 642.704 480.558
448 0 53.0536 12.7418 676 118.374 643.726 480.642
449 0 54.1814 12.2551 664 118.785 642.774 480.559
450 0 56.0575 12.7726 716 117.01 643.073 478.177
451 0 58.1203 12.7666 742 116.482 643.42 477.16
452 0 61.0716 13.3286 814 109.29 643.646 475.806
453 0 62.0361 13.3148 826 110.334 643.172 475.443
454 0 63.0781 12.2864 775 113.622 643.565 473.335
455 0 66.0856 11.6667 771 114.607 643.629 473.434
456 0 67.1374 12.2584 823 117.53 644.079 471.055
457 0 72.3288 12.9547 937 114.16 644.283 470.949
458 0 75.3105 12.9066 972 114.829 643.667 467.635
459 0 76.2905 12.4655 951 118.774 643.217 463.356
460 0 80.3191 12.3258 990 117.12 642.879 465.512
461 0 81.364 12.3765 1007 118.473 642.582 462.529
462 0 84.2032 12.553 1057 118.867 642.789 461.727
463 1 42.2442 11.2915 477 113.652 642.862 482.78
464 0 42.0159 12.1859 512 113.426 643.803 483.609
465 0 43.0191 12.692 546 112.504 644.793 483.269
466 0 46.1528 12.2853 567 113.801 644.399 484.716
467 0 47.0918 11.5731 545 114.96 643.695 482.793
468 0 49.0576 11.4151 560 114.554 643.205 483.741
469 0 48.0584 11.5068 553 116.743 643.722 481.022
470 0 52.098 12.7068 662 112.218 643.699 480.076
471 0 53.0677 11.8339 628 115.008 643.438 478.817
472 0 55.0614 12.1682 670 114.152 643.066 477.055
473 0 59.0713 12.5103 739 112.235 643.501 476.817
474 0 59.0264 12.2826 725 112.981 643.659 478.025
475 0 62.0901 11.8376 735 113.784 643.865 476.475
476 0 65.1548 12.5701 819 112.342 643.974 475.114
477 0 68.054 12.3872 843 112.675 643.585 471.752
478 0 69.1441 11.4833 794 115.159 644.013 473.879
479 0 71.0743 11.9734 851 114.533 643.585 470.002
480 0 74.1016 10.904 808 116.213 643.219 469.642
481 0 77.1251 11.2544 868 116.857 643.255 466.477
482 1 42.0147 11.7816 495 110.624 642.679 484.541
483 0 43.0211 12.1336 522 108.734 642.613 483.914
484 0 42.1105 12.2535 516 109.341 643.01 483.905
485 0 45.1509 12.5357 566 107.438 642.784 481.859
486 0 47.0802 11.7459 553 109.425 642.439 482.855
487 0 48.0995 11.1852 538 110.197 643.398 482.89
488 0 49.1527 11.6779 574 110.568 643.402 481.643
489 0 51.1863 12.9918 665 107.672 643.326 480.104
490 0 51.0418 12.1665 621 109.258 644.158 479.596
491 0 53.0419 11.5757 614 109.778 644.871 478.752
492 0 58.048 12.214 709 107.783 644.351 478.164
493 0 60.0809 13.4485 808 105.99 643.908 477.048
494 0 58.0413 11.3712 660 112.339 643.932 478.391
495 0 60.1663 13.0638 786 109.584 643.574 477.597
496 0 62.13 12.6348 785 111.775 643.759 473.721
497 0 64.0845 11.8281 758 114.141 643.84 473.456
498 0 67.0421 11.0975 744 116.63 644.247 471.716
499 0 70.0705 12.3019 862 114.462 644.374 470.242
500 0 73.0253 12.393 905 117.555 644.346 468.966
501 0 76.0494 12.8732 979 118.114 644.229 468.449
502 0 79.0499 12.8273 1014 119.425 644.606 469.122
503 0 82.0549 12.1626 998 120.305 644.954 467.553
504 1 41.0367 10.0398 412 121.58 645.306 486.245
505 0 41.0177 11.5072 472 116.589 645.413 486.203
506 0 42.083 12.1902 513 121.281 644.914 485.715
507 0 41.0432 11.1833 459 126.488 644.88 483.059
508 0 44.0666 11.3691 501 124.168 644.882 484.788
509 0 45.0452 11.8326 533 123.33 645.6 483.068
510 0 47.1495 12.6194 595 121.212 645.585 481.697
511 0 49.0832 12.7539 626 119.503 645.337 481.901
512 0 50.1116 11.9334 598 122.595 645.423 481.007
513 0 52.0665 12.9834 676 119.589 645.087 479.389
514 0 51.0486 11.2442 574 125.348 645.289 479.65
515 0 53.1088 11.0339 586 126.119 644.939 479.509
516 0 57.1495 12.651 723 120.407 644.607 478.575
517 0 55.0601 11.3512 625 125.224 645.366 476.611
518 0 57.0732 11.4239 652 123.718 644.883 476.356
519 0 60.1069 12.511 752 120.906 644.758 473.863
520 0 61.0773 11.7228 716 122.647 644.87 473.543
521 0 64.0335 12.9151 827 119.489 645.024 473.004
522 0 67.1382 13.1073 880 119.101 644.606 471.115
523 0 69.0193 11.9822 827 121.021 644.41 472.169
524 0 69.0663 11.2211 775 123.542 644.972 468.879
525 0 70.0761 11.1165 779 123.736 644.804 468.411
526 0 73.0601 12.6608 925 119.891 644.034 467.935
527 0 76.1742 12.117 923 119.894 644.062 467.491
528 0 78.1065 10.793 843 122.195 643.796 467.648
529 0 80.092 11.4493 917 121.695 643.648 465.979
530 0 82.2569 10.7468 884 123.393 644.303 463.365
531 1 43.0796 11.7457 506 116.984 643.838 483.379
532 0 43.0925 13.9003 599 112.925 643.337 481.411
533 0 43.1165 9.97298 430 116.681 643.47 479.914
534 0 45.0385 11.7011 527 116.732 642.545 482.736
535 0 49.073 12.2063 599 115.159 642.663 481.538
536 0 48.0288 11.9512 574 117.118 642.371 479.951
537 0 50.069 12.5227 627 115.3 642.908 479.278
538 0 51.0607 12.3774 632 115.603 643.641 478.913
539 0 53.0604 12.4764 662 114.917 642.896 477.684
540 0 55.0241 13.5395 745 113.264 642.387 476.145
541 0 58.0543 12.7122 738 113.836 642.477 477.347
542 0 59.0342 13.3651 789 114.441 642.052 475.877
543 0 61.0824 13.5718 829 113.843 642.384 474.913
544 0 64.043 14.6152 936 111.245 642.345 472.404
545 0 63.0913 12.791 807 112.734 643.565 475.021
546 0 65.1484 13.2467 863 112.68 643.907 472.172
547 0 69.1096 13.0373 901 112.417 644.095 472.84
548 0 71.1106 13.1907 938 113.758 643.979 469.417
549 0 72.0539 11.9494 861 117.684 642.987 469.984
550 0 76.0447 12.7557 970 116.125 643.861 466.303
551 0 77.1156 13.2788 1024 116.118 643.644 468.181
552 0 80.0251 11.8713 950 119.259 643.664 464.06
553 0 86.052 13.5267 1164 115.014 643.353 462.865
554 0 89.0586 13.901 1238 114.377 643.4 460.68
555 1 46.0232 11.9288 549 116.648 642.985 483.865
556 0 48.0679 12.1287 583 114.705 643.631 483.374
557 0 47.0157 11.996 564 117.899 643.401 481.582
558 0 52.0854 12.7867 666 113.254 644.512 482.125
559 0 52.0874 13.151 685 113.639 645.025 480.958
560 0 53.0992 13.7667 731 113.427 644.659 480.244
561 0 54.1132 13.0652 707 115.3 644.448 479.557
562 0 56.0543 13.6118 763 113.24 644.159 477.997
563 0 59.125 14.4271 853 110.902 644.266 477.448
564 0 61.1124 13.6634 835 112.636 644.419 475.679
565 0 62.0913 13.4641 836 113.681 644.977 476.914
566 0 63.0826 12.9196 815 117.361 644.323 474.348
567 0 65.0744 12.7546 830 117.694 643.482 473.766
568 0 70.0636 13.973 979 113.81 644.718 472.329
569 0 72.0895 13.6081 981 116.112 643.905 470.958
570 0 73.06 14.0022 1023 115.743 643.849 471.339
571 0 76.0893 14.483 1102 115.797 644.142 469.339
572 0 78.1124 13.7878 1077 118.319 644.331 467.072
573 0 82.1281 13.4911 1108 120.559 643.918 467.307
574 0 84.1128 14.9085 1254 118.787 643.384 466.103
575 0 86.2286 15.227 1313 118.962 644.374 463.501
576 0 88.2212 13.3641 1179 123.272 643.846 465.08
577 0 91.2151 14.0766 1284 122.992 642.985 460.355
578 0 95.1635 13.8709 1320 123.398 643.699 459.101
579 0 97.1468 13.8759 1348 124.535 643.323 455.318
580 1 50.111 11.9136 597 121.015 643.221 480.894
581 0 49.1076 11.9737 588 122.765 643.008 480.252
582 0 55.1326 14.2384 785 114.943 642.763 480.102
583 0 51.0115 13.1539 671 118.568 643.446 480.493
584 0 55.0686 13.7828 759 115.468 644.486 481.009
585 0 57.0763 14.3317 818 114.33 643.699 478.438
586 0 58.0662 13.2952 772 117.108 642.459 477.758
587 0 62.0408 12.9753 805 116.111 643.194 477.802
588 0 61.0576 13.2662 810 117.096 643.093 475.541
589 0 63.0321 12.8982 813 118.502 642.958 475.833
590 0 66.0703 13.2586 876 117.219 643.091 473.094
591 0 69.0639 14.3345 990 114.589 643.096 472.546
592 0 71.1151 14.1742 1008 114.457 643.361 472.061
593 0 72.0497 13.4213 967 116.183 644.051 471.606
594 0 75.1034 14.7264 1106 113.076 644.165 470.411
595 0 77.0738 13.1562 1014 117.637 643.878 469.215
596 0 80.0488 13.6542 1093 116.221 644.886 468.258
597 0 81.0637 13.8533 1123 116.44 644.265 464.65
598 0 85.0281 14.7481 1254 113.227 643.754 461.958
599 0 88.0815 14.1346 1245 115.463 643.957 459.955
600 0 91.0336 13.4346 1223 115.05 644.272 462.89
601 0 95.0697 12.9905 1235 116.396 644.13 460.352
602 0 100.125 13.7628 1378 119.612 643.562 458.633
603 1 54.035 13.3062 719 114.677 643.058 479.929
604 0 55.0569 12.0603 664 114.34 642.979 480.226
605 0 56.0523 13.309 746 110.677 644.028 479.716
606 0 57.0324 13.0277 743 112.529 644.377 478.319
607 0 60.0276 12.0278 722 113.953 643.988 476.669
608 0 61.0651 12.4294 759 114.448 643.668 476.173
609 0 63.0575 12.4014 782 114.458 644.098 475.464
610 0 68.0359 11.6997 796 115.005 643.996 475.636
611 0 68.1522 12.1933 831 115.03 642.575 470.91
612 0 73.0846 12.8892 942 113.485 643.481 470.557
613 0 73.0821 12.2875 898 116.527 643.572 471.349
614 0 79.0985 13.401 1060 113.555 642.886 467.219
615 0 82.0458 13.3462 1095 113.72 642.682 467.075
616 0 82.174 13.6174 1119 115.372 642.478 465.531
617 0 88.1262 12.3913 1092 118.345 642.905 462.439
618 1 45.0246 10.8385 488 117.766 642.387 484.234
619 0 46.0477 12.3785 570 114.456 643.642 484.647
620 0 45.0995 11.6853 527 118.235 643.222 484.268
621 0 47.0453 11.9672 563 116.327 643.426 485.124
622 0 49.0603 11.8833 583 119.12 642.931 481.504
623 0 51.0387 11.5403 589 119.104 642.941 483.177
624 0 53.0391 11.9912 636 118.332 642.637 482.159
625 0 53.0494 11.8192 627 119.491 643.099 482.169
626 0 55.0298 12.1389 668 118.831 642.278 482.316
627 0 58.0399 11.6127 674 121.082 643.089 479.883
628 0 62.051 13.7951 856 116.18 642.113 478.766
629 0 60.072 11.8358 711 123.945 641.968 476.782
630 0 62.0462 12.3779 768 123.913 641.905 476.223
631 0 64.0258 11.8077 756 126.079 642.098 475.218
632 0 67.043 12.3055 825 124.653 642.233 472.945
633 0 70.105 12.3244 864 125.326 642.688 472.266
634 0 73.0962 14.392 1052 119.127 642.419 472.304
635 0 75.1285 12.5651 944 125.654 642.764 469.139
636 0 77.0635 13.1061 1010 126.325 643.192 467.547
637 0 79.1016 12.0225 951 128.85 643.253 466.369
638 0 82.0468 13.2485 1087 126.229 642.522 466.287
639 0 85.1096 12.5838 1071 129.222 643.095 465.053
640 0 88.0206 12.0654 1062 131.148 643.551 463.965
641 0 91.1337 13.5515 1235 127.555 642.954 461.393
642 0 93.0937 12.7076 1183 129.557 642.883 459.91
643 0 97.1964 12.9634 1260 128.638 642.365 458.296
644 1 53.1164 10.1475 539 129.135 643.672 481.282
645 0 57.1472 13.194 754 121.818 643.71 478.566
646 0 58.0525 11.7997 685 124.655 642.266 478.928
647 0 58.1229 12.0262 699 118.431 643.566 477.475
648 0 58.0178 12.8237 744 117.774 643.552 476.21
649 0 61.1311 12.7595 780 118.468 644.017 475.341
650 0 62.1435 12.2298 760 119.351 643.828 476.586
651 0 65.1412 12.3424 804 119.612 643.739 474.261
652 0 67.0595 12.4815 837 119.675 643.577 474.824
653 0 69.1584 13.5197 935 118.118 644.017 472.417
654 0 73.0982 13.092 957 119.276 644.258 472.134
655 0 74.0786 13.3507 989 120.495 644.736 469.348
656 0 77.147 14.0122 1081 118.715 644.717 469.796
657 0 79.0861 12.8594 1017 122.525 644.516 468.925
658 0 81.0728 12.902 1046 123.268 644.061 466.442
659 0 83.1906 12.0086 999 125.469 643.392 465.454
660 0 85.1739 12.0577 1027 124.759 643.189 465.076
661 0 91.1434 13.8902 1266 119.261 643.134 462.66
662 0 94.1026 13.8041 1299 119.831 642.851 461.556
663 1 48.0365 11.2206 539 124.239 643.464 480.9
664 0 48.1048 11.1631 537 120.35 642.521 479.691
665 0 51.0306 12.1104 618 115.227 643.451 481.207
666 0 53.0605 11.9675 635 113.135 642.255 480.58
667 0 56.0391 12.0095 673 113.536 642.037 479.195
668 0 57.0333 12.1157 691 114.224 643.702 479.304
669 0 59.1822 11.6758 691 114.586 643.832 478.46
670 0 60.1523 12.352 743 114.389 643.902 476.953
671 0 62.076 13.999 869 110.601 643.829 475.708
672 0 64.0839 12.7333 816 113.294 643.815 475.672
673 0 67.1125 12.8888 865 111.936 643.457 473.487
674 0 68.068 12.2378 833 114.457 643.681 471.658
675 0 70.0779 12.3434 865 113.727 644.171 471.197
676 0 73.0652 13.2074 965 112.087 643.637 469.946
677 0 75.1206 13.5915 1021 111.593 643.454 469.217
678 0 79.1866 13.7144 1086 110.882 643.73 468.655
679 0 81.0652 13.9887 1134 110.631 643.084 465.86
680 0 86.0907 13.4161 1155 111.982 642.803 464.919
681 1 45.0394 11.8785 535 111.292 643.428 486.316
682 0 43.0372 10.7814 464 115.004 642.894 487.026
683 0 46.0411 11.9241 549 106.894 642.647 483.641
684 0 46.075 11.5464 532 114.667 642.831 485.079
685 0 49.1074 12.5643 617 110.72 642.603 484.199
686 0 50.2432 12.9371 650 111.258 642.612 482.242
687 0 54.0971 14.0488 760 107.146 642.926 482.384
688 0 55.0306 13.3744 736 108.796 642.573 481.938
689 0 55.092 12.7242 701 111.653 642.275 481.09
690 0 56.0668 13.1629 738 110.801 642.401 480.188
691 0 59.0568 13.106 774 110.274 643.389 478.893
692 0 61.1081 14.5807 891 107.359 643.146 478.699
693 0 64.0858 13.9969 897 107.697 643.258 477.941
694 0 65.0437 14.0521 914 108.702 643.018 475.025
695 0 67.0768 13.4175 900 110.521 643.252 474.621
696 0 69.1767 13.7185 949 110.567 642.79 473.269
697 0 71.0965 13.3481 949 112.07 643.574 473.327
698 0 75.0891 14.4628 1086 109.408 643.292 471.824
699 0 77.1373 14.3251 1105 111.622 643.256 469.372
700 0 79.2262 13.8212 1095 114.066 642.708 468.867
701 0 82.057 14.2096 1166 114.038 642.927 467.564
702 0 82.0655 12.6972 1042 118.304 642.994 465.741
703 0 85.0351 13.1475 1118 118.082 643.222 465.29
704 0 91.1978 14.0683 1283 117.206 643.089 463.111
705 0 91.1801 14.4878 1321 118.681 642.882 461.076
706 0 96.0503 15.4398 1483 116.147 642.75 459.091
707 1 49.2145 12.4963 615 122.442 642.803 481.42
708 0 49.2051 12.5597 618 124.576 642.752 480.968
709 0 53.0615 12.0992 642 114.637 642.23 479.338
710 0 52.1692 11.1177 580 126.162 643.5 480.353
711 0 57.2977 14.1018 808 119.162 642.688 479.026
712 0 59.1256 14.1056 834 120.758 642.912 476.934
713 0 60.0991 14.4761 870 121.005 642.725 477.621
714 0 62.1784 14.2332 885 123.216 643.196 475.615
715 0 65.1406 14.722 959 123.079 642.352 472.565
716 0 67.1701 13.4733 905 126.941 642.603 472.746
717 0 68.2069 13.3418 910 128.019 643.728 472.318
718 0 70.16 13.7258 963 129.197 643.103 470.895
719 0 75.0979 15.4731 1162 123.267 643.241 468.792
720 0 75.1263 14.1495 1063 129.268 643.294 466.779
721 0 77.146 13.7272 1059 121.639 643.304 469.584
722 0 80.0778 13.362 1070 122.734 643.194 467.424
723 0 84.1917 13.8612 1167 128.134 643.558 466.109
724 0 87.1097 14.4186 1256 127.149 643.639 465.013
725 0 88.1771 14.2667 1258 129.137 642.986 463.319
726 0 92.1229 14.1116 1300 122.508 642.372 459.447
727 0 95.0646 13.5171 1285 124.17 643.296 460.924
728 0 100.138 13.2817 1330 125.031 643.249 458.705
729 0 100.097 13.387 1340 128.769 642.432 457.157
730 0 105.109 14.2803 1501 125.314 642.957 454.898
731 1 53.0617 13.2676 704 121.068 642.199 479.321
732 0 53.1621 12.0951 643 128.054 642.263 476.635
733 0 59.0487 13.5481 800 121.798 643.96 477.889
734 0 59.0704 14.0341 829 124.286 643.291 476.63
735 0 61.0414 13.155 803 127.676 643.106 476.243
736 0 64.1548 13.2804 852 127.451 643.539 474.12
737 0 67.0842 13.8334 928 124.707 643.739 473.938
738 0 67.0718 12.2406 821 130.228 643.122 472.609
739 0 69.1576 11.9582 827 132.134 643.039 471.952
740 0 73.1329 11.4859 840 132.177 643.276 471.219
741 0 77.1216 13.6149 1050 126.281 642.507 466.642
742 0 77.1974 12.6429 976 129.79 643.212 468.199
743 0 83.1406 13.3268 1108 126.033 643.08 466.016
744 0 84.1317 13.7404 1156 126.233 643.495 464.283
745 0 86.1112 12.4258 1070 129.185 643.433 463.2
746 0 89.2103 12.2071 1089 128.77 643.325 461.38
747 0 91.1321 11.6095 1058 129.93 643.2 459.718
748 0 96.1191 12.8903 1239 124.324 643.313 457.948
749 0 100.192 12.4661 1249 123.499 643.689 457.011
750 0 104.164 10.829 1128 127.135 643.282 453.263
751 1 53.0594 11.7604 624 115.139 643.83 479.245
752 0 53.0598 9.85681 523 123.545 644.549 475.407
753 0 57.0829 12.6483 722 115.107 644.733 478.14
754 0 59.0979 11.5909 685 118.813 644.577 475.982
755 0 61.1289 11.6966 715 119.375 644.295 473.434
756 0 62.0939 12.0463 748 120.295 644.487 473.015
757 0 68.0839 12.4112 845 117.115 645.367 473.785
758 0 70.1273 13.1618 923 116.475 644.516 471.297
759 0 72.0779 13.6103 981 115.887 644.309 468.898
760 0 74.0697 12.7042 941 119.217 644.302 468.348
761 0 74.1308 12.1272 899 122.125 644.119 464.999
762 0 79.1059 11.8449 937 123.34 644.128 466.777
763 0 81.1107 12.822 1040 120.835 644.217 464.575
764 0 83.2192 12.9057 1074 122.066 644.574 464.078
765 0 86.0921 12.5679 1082 122.905 643.792 462.735
766 0 87.0998 11.6303 1013 126.487 643.408 459.447
767 0 92.0827 12.1413 1118 123.912 643.49 459.864
768 0 93.2132 11.9833 1117 125.573 643.771 457.856
769 0 98.2336 12.4092 1219 124.346 643.408 457.281
770 0 101.178 12.0579 1220 125.768 643.788 453.729
771 0 104.127 12.5231 1304 125.027 643.318 452.45
772 1 57.0581 10.8486 619 124.302 644.582 477.076
773 0 58.1102 11.0308 641 124.295 644.42 473.254
774 0 60.1067 11.1302 669 123.274 641.915 475.592
775 0 59.0424 10.3993 614 126.492 641.427 475.456
776 0 63.0227 11.1706 704 122.105 642.043 474.348
777 0 62.0472 11.185 694 124.497 642.658 471.291
778 0 67.0413 11.3512 761 122.032 642.397 471.338
779 0 70.0565 13.0181 912 118.285 642.166 470.663
780 0 71.0506 11.1188 790 124.054 641.961 468.147
781 0 73.0799 10.6732 780 124.85 641.967 469.858
782 0 76.0151 11.6293 884 122.609 641.493 468.753
783 0 79.0599 11.2573 890 123.71 642.053 465.746
784 0 82.0397 13.2009 1083 117.844 641.93 464.739
785 0 82.0844 12.146 997 122.261 640.787 464.181
786 0 86.121 12.7263 1096 120.242 641.453 463.187
787 0 87.2218 12.9211 1127 122.057 642.394 459.473
788 0 91.142 12.4202 1132 122.977 642.25 460.035
789 0 93.189 12.3942 1155 123.79 641.61 458.319
790 0 96.2383 12.8535 1237 122.258 643.01 457.24
791 0 97.0982 11.7098 1137 113.8 642.555 456.529
792 0 101.133 11.8161 1195 113.212 643.09 455.887
793 0 105.381 10.8179 1140 114.752 642.532 454.542
794 0 109.131 12.343 1347 111.068 642.638 452.37
795 0 110.081 11.5824 1275 114.357 643.132 451.583
796 0 113.095 11.4771 1298 114.171 642.633 448.182
797 0 117.148 11.2422 1317 115.383 642.403 445.935
798 0 120.086 11.2586 1352 116.055 642.532 442.738
799 0 123.059 10.889 1340 117.639 642.632 438.995
800 0 130.291 11.4819 1496 117.184 642.437 437.148
801 0 135.083 12.5478 1695 116.753 642.562 434.755
802 0 137.205 11.3334 1555 121.632 642.904 430.929
803 0 143.327 12.3424 1769 119.415 642.995 428.267
804 0 146.372 10.4596 1531 126.001 642.762 422.073
805 0 154.227 13.4931 2081 118.508 642.915 418.366
806 0 159.374 11.8463 1888 121.529 643.38 423.943
807 0 164.309 12.9573 2129 121.121 642.257 417.398
808 0 170.371 12.7134 2166 120.819 642.371 416.307
809 0 174.361 12.8699 2244 121.572 642.79 414.634
810 0 180.305 13.7988 2488 119.32 642.252 413.164
811 0 184.205 12.8389 2365 123.786 642.283 408.276
812 0 191.386 12.4565 2384 125.014 642.091 402.648
813 0 195.444 12.1979 2384 129.016 641.942 396.152
814 0 204.494 13.8928 2841 126.971 641.67 399.117
815 1 42.205 9.73819 411 109.949 641.798 484.825
816 0 44.3091 10.7201 475 109.947 642.137 474.312
817 0 43.2853 10.5117 455 113.996 643.106 479.789
818 0 45.037 11.5239 519 110.189 644.709 482.867
819 0 46.0673 12.0693 556 109.252 642.469 483.036
820 0 47.1726 11.1505 526 112.333 643.011 482.97
821 1 57.3693 13.6833 785 99.6344 642.87 478.611
822 0 59.357 14.9772 889 97.6378 642.766 477.632
823 0 57.2467 14.9354 855 99.5006 642.524 475.124
824 0 54.1254 10.4018 563 116.648 643.147 479.435
825 0 58.2474 11.537 672 113.423 643.064 476.975
826 0 58.3995 12.2604 716 114.602 642.557 476.941
827 0 62.2728 13.2321 824 110.212 642.521 472.621
828 0 61.4501 12.1888 749 115.692 643.242 474.494
829 0 64.3051 11.1811 719 118.191 643.334 475.05
830 0 65.2391 11.4655 748 115.451 643.496 473.536
831 0 71.3225 14.3012 1020 109.901 643.116 471.078
832 0 68.1703 10.9872 749 110.769 643.039 471.903
833 0 70.2152 9.3712 658 114.131 642.909 471.702
834 1 37.0329 9.77509 362 108.392 644.398 487.445
835 0 37.0473 10.3921 385 108.621 644.179 488.299
836 0 38.2347 10.9325 418 106.663 641.39 486.455
837 0 36.003 9.72142 350 110.923 644.049 488.763
838 0 38.104 10.6813 407 110.757 644.828 487.337
839 0 40.1974 10.5479 424 110.693 644.493 487.453
840 0 40.0951 10.9989 441 110.458 644.517 487.016
841 0 43.0989 12.0189 518 107.046 644.208 485.909
842 0 44.0801 11.9782 528 107.892 643.828 483.782
843 0 45.0567 12.1181 546 108.784 644.055 484.888
844 0 47.2661 12.8634 608 105.837 643.941 481.589
845 0 46.2923 10.5849 490 113.416 644.294 482.884
846 0 49.1336 11.947 587 110.298 644.612 481.431
847 0 51.2154 11.7152 600 111.87 643.708 479.435
848 0 53.268 12.0147 640 111.848 643.867 479.694
849 0 55.2176 12.9669 716 109.392 644.061 479.758
850 0 55.11 13.0829 721 111.316 644.257 479.714
851 0 58.1547 12.6559 736 112.128 644.482 478.588
852 0 57.2026 12.9714 742 113.48 644.481 478.6
853 0 60.1708 13.9436 839 111.853 644.018 477.323
854 0 61.2876 13.4774 826 114.763 643.72 475.62
855 0 63.2341 13.1258 830 115.982 643.748 476.281
856 0 65.1606 14.518 946 112.445 643.807 475.137
857 0 66.1827 13.6592 904 116.033 643.293 474.29
858 0 69.2052 13.7706 953 115.21 643.962 473.857
859 0 70.1463 13.3435 936 117.759 643.465 472.222
860 0 73.121 14.6196 1069 114.444 643.237 469.665
861 0 73.1966 13.5799 994 118.767 643.351 470.016
862 0 76.161 13.3402 1016 120.036 644.018 469.537
863 0 80.146 13.5503 1086 118.616 643.291 468.368
864 0 81.1795 12.5647 1020 123.857 642.972 466.051
865 0 85.1607 12.8111 1091 122.769 643.598 464.708
866 0 85.1711 12.8682 1096 123.427 643.165 462.938
867 1 42.2087 11.1114 469 120.194 644.556 485.45
868 0 43.0478 10.8949 469 123.655 644.687 484.224
869 0 47.1585 12.2353 577 121.224 644.126 481.367
870 0 47.0586 13.4301 632 110.921 644.766 483.824
871 0 49.0657 12.0043 589 113.638 644.43 483.908
872 0 51.1405 12.5341 641 111.239 644.326 484.345
873 0 49.0397 11.4805 563 116.254 644.446 483.4
874 0 52.0334 13.6643 711 111.169 643.608 480.968
875 0 53.0182 13.0521 692 111.575 644.65 479.425
876 0 54.0901 12.4237 672 113.188 644.829 478.768
877 0 57.034 13.1676 751 109.799 644.366 478.27
878 0 58.0977 12.9953 755 109.808 644.057 478.466
879 0 60.1125 13.5745 816 107.026 644.052 479.061
880 0 62.0663 12.0516 748 109.979 643.969 476.294
881 0 63.1397 12.2427 773 109.715 643.519 473.92
882 0 68.0828 12.9254 880 106.347 643.727 473.973
883 0 68.079 12.1036 824 108.782 643.038 472.044
884 0 71.0618 11.5955 824 109.512 643.008 471.631
885 0 74.0769 13.324 987 105.717 642.788 470.88
886 0 75.0888 11.4131 857 111.559 643.168 468.716
887 0 78.0677 11.5797 904 109.65 643.079 469.802
888 0 81.0632 12.0647 978 110.022 642.798 465.302
889 1 40.0138 10.6713 427 107.356 643.253 486.803
890 0 41.0932 11.4617 471 108.722 643.406 485.168
891 0 43.0258 11.5745 498 109.735 643.91 486.41
892 0 44.0584 12.0522 531 110.648 644.281 484.458
893 0 46.0344 12.621 581 109.747 643.993 482.943
894 0 48.0622 12.9624 623 109.018 643.896 483.154
895 0 49.0437 12.4787 612 110.222 643.882 482.603
896 0 51.0932 13.3873 684 109.617 644.265 480.744
897 0 51.0229 11.5634 590 114.973 643.9 480.97
898 0 53.1219 12.7443 677 112.514 643.365 480.377
899 0 56.0566 14.1286 792 109.018 643.74 478.545
900 0 56.0128 12.8721 721 112.312 643.065 480.054
901 0 59.0832 12.2539 724 113.746 642.924 477.913
902 0 59.0438 13.1597 777 113.459 643.032 477.717
903 0 62.028 14.0582 872 111.255 643.806 476.478
904 0 63.1457 13.4292 848 113.733 643.75 475.396
905 0 66.0632 13.472 890 113.967 643.958 474.331
906 0 67.0635 13.9569 936 112.97 643.902 473.327
907 0 70.1773 13.7651 966 114.375 643.376 472.063
908 0 73.1929 13.8128 1011 114.743 643.401 471.891
909 0 73.1153 12.3504 903 119.543 642.935 469.467
910 0 77.094 13.3992 1033 117.206 643.056 470.257
911 0 81.131 13.1269 1065 117.512 642.322 467.725
912 0 84.0956 12.5928 1059 119.375 642.782 466.128
913 1 45.0356 12.1682 548 114.834 643.051 485.358
914 0 46.0308 11.7747 542 112.493 642.935 484.231
915 0 45.0788 11.8459 534 115.287 642.466 482.208
916 0 48.0316 11.43 549 114.745 642.321 483.313
917 0 51.0292 13.2669 677 109.727 642.764 483.4
918 0 52.0079 12.825 667 112.414 642.24 480.549
919 0 52.0373 11.9722 623 116.183 643.056 481.326
920 0 56.068 13.8047 774 110.733 642.672 479.07
921 0 56.068 13.769 772 133.631 641.675 479.032
922 0 57.0627 12.8105 731 115.434 643.044 477.282
923 0 57.0324 11.9055 679 118.125 643.113 477.988
924 0 58.0644 11.6595 677 119.428 642.891 476.281
925 0 62.0306 12.1553 754 116.57 643.107 476.611
926 0 66.076 13.3483 882 115.091 642.406 472.831
927 0 69.0848 13.563 937 114.924 641.569 472.064
928 0 71.1233 13.4555 957 116.798 641.396 470.9
929 0 70.0429 12.2782 860 122.035 642.778 471.61
930 0 74.0654 11.8679 879 122.588 642.357 471.791
931 0 76.0784 12.5923 958 121.829 642.148 469.771
932 0 81.0579 14.2121 1152 117.609 642.284 467.051
933 0 81.1344 12.7689 1036 122.32 642.276 466.409
934 0 84.0844 11.8809 999 125.549 642.752 464.914
935 0 90.0855 13.4761 1214 122.059 642.632 463.426
936 1 49.0197 12.0564 591 119.558 642.841 482.995
937 0 51.0476 11.9888 612 119.134 642.588 481.583
938 0 53.0251 12.4281 659 117.042 642.349 481.209
939 0 54.0268 12.3457 667 112.124 643.144 479.355
940 0 54.017 13.2366 715 111.008 643.08 479.811
941 0 56.0509 11.8999 667 114.249 642.289 479.73
942 0 58.0333 12.2516 711 113.11 642.565 478.471
943 0 60.1213 12.6577 761 112.731 642.515 477.7
944 0 61.0469 13.3012 812 112.371 642.323 473.847
945 0 64.0515 12.6305 809 114.549 642.841 475.073
946 0 66.0581 13.5487 895 113.106 642.831 471.245
947 0 68.0617 11.4161 777 118.402 642.668 471.366
948 0 72.0589 13.8498 998 112.414 643.134 469.698
949 0 74.052 12.8558 952 114.892 642.958 468.71
950 0 77.0432 13.434 1035 114.414 642.902 468.12
951 0 79.0633 12.7113 1005 117.382 642.857 467.418
952 0 82.074 12.5253 1028 117.428 642.703 466.182
953 0 83.0672 11.569 961 120.848 642.712 464.541
954 0 87.0631 12.6345 1100 117.496 643.167 462.224
955 0 90.1712 12.942 1167 118.219 643.573 460.713
956 1 44.0471 12.1915 537 114.609 642.79 483.013
957 0 48.0607 11.6311 559 115.021 643.297 483.152
958 0 48.042 12.3017 591 115.594 643.858 483.267
959 0 48.0317 12.3252 592 120.149 643.294 481.422
960 0 49.1037 11.8525 582 120.796 642.699 483.132
961 0 53.1366 12.6278 671 118.844 642.526 478.788
962 0 51.049 10.4018 531 125.64 643.394 481.925
963 0 56.1011 12.7805 717 120.137 643.483 481.05
964 0 55.0074 12.871 708 122.076 643.205 477.455
965 0 57.0711 12.2829 701 124.738 643.34 477.538
966 0 59.0429 13.7358 811 122.581 643.746 475.165
967 0 61.0538 13.2178 807 125.172 643.662 475.565
968 0 63.0655 13.9538 880 125.47 644.016 475.257
969 0 64.1097 13.6797 877 127.372 643.658 474.537
970 0 68.0546 13.6361 928 127.556 643.518 472.209
971 0 71.0762 14.2523 1013 125.77 643.206 472.607
972 0 74.0524 13.0988 970 130.182 643.411 470.154
973 0 75.1143 14.1784 1065 129.799 643.327 469.939
974 0 74.1294 12.3703 917 137.714 643.539 467.619
975 0 82.1925 14.2227 1169 129.878 643.859 467.512
976 0 82.199 13.5646 1115 133.843 642.985 465.877
977 1 42.0337 11.7287 493 131.03 644.57 485.799
978 0 46.0582 13.179 607 126.277 643.754 484.644
979 0 44.0509 11.1462 491 128.163 643.764 485.397
980 0 47.046 12.6684 596 122.819 643.45 485.111
981 0 47.1048 13.056 615 123.356 644.964 482.94
982 0 47.023 11.5901 545 128.196 644.073 484.272
983 0 49.0191 12.8929 632 125.301 643.815 482.407
984 0 52.0474 12.8152 667 123.811 643.61 481.7
985 0 53.0097 12.6958 673 123.84 642.951 482.327
986 0 54.072 12.7792 691 124.178 643.373 480.771
987 0 55.0753 12.1652 670 126.203 643.276 479.74
988 0 58.0544 13.1945 766 122.392 643.813 479.291
989 0 58.064 12.7962 743 123.634 644.49 476.359
990 0 60.0591 12.4877 750 124.62 643.787 476.875
991 0 61.0865 11.541 705 127.017 643.867 477.13
992 0 63.0524 12.8306 809 124.145 643.488 474.151
993 0 67.029 12.9795 870 121.66 644.238 474.978
994 0 70.0951 12.5116 877 121.564 643.79 471.956
995 0 73.0976 14.1044 1031 117.254 643.926 470.639
996 0 74.1002 13.0904 970 120.048 643.057 471.41
997 0 75.116 12.727 956 121.179 643.185 471.156
998 0 78.195 13.2361 1035 119.879 643.472 467.911
999 0 81.3052 13.9106 1131 119.144 642.996 465.945
1000 1 43.0183 12.2971 529 123.064 643.495 484.66
1001 0 45.0217 13.1492 592 120.157 642.904 483.706
1002 0 47.0096 13.6993 644 117.315 642.86 483.27
1003 0 48.0251 13.2223 635 116.674 643.883 482.085
1004 0 48.076 13.0627 628 118.455 643.232 482.217
1005 0 51.0181 13.6422 696 116.042 643.124 481.537
1006 0 52.0444 12.6238 657 118.551 643.508 480.196
1007 0 52.0257 13.0897 681 118.04 643.021 479.087
1008 0 56.0548 13.915 780 114.749 642.717 479.695
1009 0 58.0721 13.0872 760 111.321 642.918 475.237
1010 0 58.1351 13.6234 792 111.004 643.909 476.896
1011 0 60.0593 12.9705 779 113.48 643.191 474.832
1012 0 66.0225 12.9501 855 113.495 643.319 474.812
1013 0 64.0608 12.0354 771 118.633 643.272 472.117
1014 0 69.0322 12.9215 892 114.471 643.188 473.011
1015 0 72.0501 13.8792 1000 113.754 643.037 470.831
1016 0 73.0774 13.0547 954 116.49 643.206 470.518
1017 0 78.1531 12.6419 988 117.408 643.447 469.388
1018 0 78.1219 12.5829 983 121.547 643.159 465.488
1019 0 84.1082 13.6015 1144 119.119 642.789 464.961
1020 1 43.0532 11.5903 499 126.423 643.816 483.715
1021 0 45.0992 13.2375 597 122.626 643.298 483.4
1022 0 44.0527 12.5986 555 125.416 643.429 484.514
1023 0 47.0962 12.0392 567 127.053 644.55 482.684
1024 0 48.0287 12.555 603 126.846 644.104 482.786
1025 0 50.0553 14.6838 735 121.465 643.959 480.801
1026 0 52.048 14.7364 767 121.552 644.185 479.898
1027 0 53.0359 13.3871 710 126.066 643.834 479.552
1028 0 55.0427 12.9899 715 126.941 643.571 477.853
1029 0 55.0453 12.6441 696 129.501 643.928 478.468
1030 0 58.0491 12.5239 727 128.728 644.124 476.931
1031 0 60.0277 13.9436 837 125.382 643.971 476.19
1032 0 60.0284 13.0272 782 129.508 644.329 476.194
1033 0 63.0655 12.7169 802 128.845 644.19 475.813
1034 0 64.1251 12.9746 832 129.407 644.494 474.357
1035 0 68.0268 14.7736 1005 124.624 644.071 472.367
1036 0 69.0379 13.3115 919 129.194 642.876 471.622
1037 0 72.0338 14.632 1054 126.007 643.45 470.856
1038 0 75.0985 14.5542 1093 125.959 643.082 467.622
1039 0 78.0469 13.8891 1084 128.244 643.637 466.894
1040 0 79.0533 13.5225 1069 129.398 643.2 465.476
1041 0 83.1422 14.9022 1239 125.027 643.764 464.902
1042 0 86.0598 15.1523 1304 124.951 643.52 463.969
1043 0 90.0795 15.1533 1365 123.777 642.481 459.829
1044 0 92.2385 14.1806 1308 125.865 643.158 458.676
1045 0 96.1808 13.9321 1340 124.054 642.886 458.81
1046 1 47.0137 11.1244 523 122.124 644.071 481.61
1047 0 52.0269 12.3974 645 118.057 644.195 481.278
1048 0 52.0567 13.0819 681 120.236 643.899 479.498
1049 0 54.0952 12.8847 697 119.366 643.783 480.129
1050 0 56.0513 13.8801 778 117.896 643.928 477.729
1051 0 58.0491 12.7478 740 121.296 644.097 477.184
1052 0 60.1097 12.5105 752 122.59 643.88 473.976
1053 0 62.0933 13.0932 813 120.465 643.83 476.459
1054 0 66.0713 13.8638 916 117.51 644.781 475.128
1055 0 67.1506 12.3007 826 122.644 643.992 472.292
1056 0 71.1391 13.087 931 119.591 643.737 471.398
1057 0 72.1012 12.1218 874 124.324 643.835 469.535
1058 0 76.2257 13.1976 1006 120.5 643.561 467.66
1059 0 77.2585 11.9728 925 124.498 643.481 468.71
1060 0 80.1624 13.5226 1084 120.872 642.88 467.067
1061 0 84.2712 12.9819 1094 122.884 642.785 462.654
1062 0 86.3413 12.439 1074 123.96 642.176 460.467
1063 0 91.3628 13.8349 1264 120.177 642.703 459.616
1064 1 45.1529 11.1178 502 118.319 642.556 482.819
1065 0 46.1896 11.9507 552 116.433 643.674 479.875
1066 0 49.1718 13.5444 666 110.875 644.242 479.065
1067 0 50.1 12.0559 604 114.891 644.343 480.199
1068 0 49.1324 11.8863 584 115.911 642.182 479.988
1069 0 53.0276 12.2766 651 113.849 643.187 479.006
1070 0 55.0907 12.071 665 113.119 642.164 479.083
1071 0 57.0441 11.9907 684 114.366 642.896 477.694
1072 0 58.0642 12.9684 753 112.15 642.614 476.088
1073 0 60.0986 12.4961 751 114.111 643.212 475.695
1074 0 61.026 11.5033 702 116.973 643.68 476.892
1075 0 65.068 13.5704 883 110.954 642.356 472.762
1076 0 66.0444 12.6884 838 114.61 643.029 472.422
1077 0 69.1659 13.0122 900 114.114 643.14 471.639
1078 0 71.0818 13.8713 986 112.347 642.889 471.991
1079 0 75.1093 12.3154 925 116.455 642.857 469.823
1080 0 76.0903 13.3788 1018 114.088 642.8 467.062
1081 0 79.1087 13.0201 1030 114.921 643.049 464.429
1082 0 81.0812 11.7413 952 118.18 643.288 465.121
1083 1 42.0988 11.7343 494 115.364 643.152 486.344
1084 0 40.0188 10.2452 410 122.08 642.32 484.2
1085 0 45.0275 11.5707 521 114.196 642.499 484.464
1086 0 47.0121 12.4436 585 112.487 643.467 485.082
1087 0 46.0176 12.5387 577 114.298 643.438 483.262
1088 0 50.0451 11.9093 596 115.141 644.326 481.121
1089 0 50.0994 13.7327 688 110.996 644.243 479.796
1090 0 52.0534 13.4477 700 111.427 644.037 481.416
1091 0 51.0919 11.1172 568 118.271 644.87 478.563
1092 0 54.0316 12.6963 686 113.481 643.883 479.3
1093 0 56.0427 12.1158 679 115.105 644.057 476.37
1094 0 57.0529 12.5497 716 114.782 644.891 476.088
1095 0 60.049 12.5897 756 113.831 643.335 475.042
1096 0 62.0573 12.8591 798 112.585 644.474 475.043
1097 0 64.0578 12.2858 787 114.76 644.358 474.042
1098 0 64.0328 12.4467 797 115.216 643.817 472.567
1099 0 68.0539 12.4019 844 115.114 643.815 471.128
1100 0 71.1046 12.1089 861 114.488 643.784 471.551
1101 0 72.0405 13.3675 963 113.01 644.223 469.168
1102 0 75.1182 12.3405 927 114.491 643.832 467.765
1103 0 79.2101 14.0386 1112 110.363 643.665 466.948
1104 0 81.1154 12.2172 991 116.329 644.029 463.879
1105 0 82.1067 12.228 1004 118.346 643.898 466.464
1106 0 86.1588 13.6376 1175 115.415 643.429 463.148
1107 0 86.0958 11.2665 970 120.5 643.896 462.927
1108 1 47.0103 12.2314 575 116.32 644.282 484.235
1109 0 48.0353 11.7414 564 117.812 644.154 483.668
1110 0 49.1121 12.278 603 117.159 642.866 482.493
1111 0 52.075 12.0211 626 117.299 644.586 481.685
1112 0 53.0627 12.7208 675 117.384 644.234 479.896
1113 0 53.1446 12.9646 689 116.633 643.823 478.501
1114 0 55.0477 13.0977 721 117.069 644.011 478.829
1115 0 57.0572 13.4952 770 115.482 643.82 477.362
1116 0 61.0877 13.4724 823 114.606 643.801 476.267
1117 0 64.1222 12.8349 823 115.815 644.134 476.03
1118 0 65.0299 12.5173 814 117.66 641.932 475.205
1119 0 67.0921 13.1908 885 115.799 642.338 474.144
1120 0 68.2034 11.5243 786 120.785 642.364 472.435
1121 0 71.0771 13.4924 959 116.245 642.784 471.167
1122 0 74.0559 12.8146 949 117.233 643.158 468.286
1123 0 77.0701 13.5461 1044 114.968 642.596 469.316
1124 0 80.0862 12.6364 1012 118.049 642.73 466.136
1125 0 83.112 12.9825 1079 117.951 643.22 466.131
1126 0 87.1214 12.6261 1100 119.457 642.975 463.271
1127 1 42.0463 10.8214 455 124.132 642.222 484.56
1128 0 44.0171 10.2915 453 125.185 642.216 484.587
1129 0 47.0173 13.5907 639 115.308 642.077 483.546
1130 0 46.0519 12.4642 574 120.15 641.915 483.476
1131 0 49.1064 13.7864 677 119.36 643.588 482.981
1132 0 51.2645 13.0305 668 121.96 643.112 482.328
1133 0 51.2559 12.9156 662 123.899 643.165 482.066
1134 0 54.0489 13.4508 727 118.541 643.897 481.696
1135 0 54.0517 12.562 679 124.147 644.451 479.227
1136 0 56.0985 13.4228 753 121.243 643.855 479.023
1137 0 58.0942 13.9429 810 119.991 644.653 478.92
1138 0 59.0631 12.7321 752 123.851 644.769 477.1
1139 0 62.0841 14.5609 904 119.576 644.47 476.155
1140 0 63.0663 13.8267 872 123.261 643.62 476.27
1141 0 65.046 13.6211 886 124.455 643.784 476.17
1142 0 68.1409 13.8536 944 123.089 644.018 473.877
1143 0 69.1702 13.6909 947 124.22 643.502 472.505
1144 0 72.2031 14.5562 1051 121.115 643.01 471.696
1145 0 73.1073 13.4323 982 126.392 644.014 470.106
1146 0 76.0851 13.866 1055 124.331 643.71 470.135
1147 0 78.0477 14.8371 1158 121.765 642.014 468.765
1148 0 82.2884 13.635 1122 124.351 642.497 466.771
1149 0 84.2446 13.2115 1113 125.376 641.606 465.659
1150 0 87.2604 13.6946 1195 124.179 641.739 465.144
1151 0 88.2746 13.6166 1202 124.278 642.141 459.965
1152 0 92.1391 12.416 1144 120.757 641.671 460.948
1153 0 96.1011 11.696 1124 122.082 641.94 456.911
1154 0 100.194 12.9749 1300 119.337 641.809 453.235
1155 1 50.0598 12.4851 625 120.138 641.4 478.482
1156 0 54.0555 12.2467 662 120.122 641.554 478.767
1157 0 57.0569 13.1273 749 112.619 641.363 479.112
1158 0 57.0894 12.0688 689 114.962 641.338 479.266
1159 0 60.1183 12.8081 770 112.583 642.212 477.555
1160 0 60.0695 11.7531 706 116.61 641.868 474.446
1161 0 65.1629 12.9828 846 112.716 641.886 474.648
1162 0 65.1033 11.6123 756 118.09 642.164 472.57
1163 0 68.0849 12.9544 882 114.828 642.94 470.834
1164 0 72.0782 12.0286 867 115.789 642.368 471.351
1165 0 74.054 11.4106 845 116.438 642.805 472.608
1166 0 78.0688 13.2575 1035 112.665 642.697 465.973
1167 0 79.12 11.7922 933 117.076 641.671 465.617
1168 0 83.1289 12.4145 1032 115.683 642.271 463.509
1169 0 86.1526 12.002 1034 116.751 642.131 462.872
1170 0 89.1074 12.6252 1125 116.183 642.024 462.532
1171 1 42.1768 10.7168 452 117.325 640.604 485.533
1172 0 44.2078 12.0114 531 115.998 641.904 481.077
1173 0 47.1146 11.7798 555 115.295 641.771 480.852
1174 0 49.1992 11.4026 561 115.848 642.021 479.531
1175 0 50.0716 11.9829 600 114.148 642.062 480.028
1176 0 50.1037 11.9352 598 115.097 642.249 480.997
1177 0 52.0894 12.1906 635 115.411 642.235 480.647
1178 0 57.1063 12.4154 709 112.275 642.391 479.32
1179 0 57.1059 12.6081 720 114.29 641.446 477.743
1180 0 60.0924 12.7304 765 113.416 641.686 476.316
1181 0 61.165 12.1311 742 115.753 642.085 476.566
1182 0 65.0901 12.2906 800 115.178 641.895 473.99
1183 0 66.0919 13.1786 871 114.819 641.702 472.032
1184 0 68.1695 12.6303 861 116.259 641.569 470.963
1185 0 69.0909 12.3171 851 118.679 642.139 472.098
1186 0 73.0584 12.7159 929 117.853 642.223 469.144
1187 0 73.0944 12.436 909 120.784 642.157 467.173
1188 0 80.096 12.1979 977 118.937 641.596 467.483
1189 0 79.1081 12.3881 980 120.802 641.669 465.085
1190 0 85.0512 12.5454 1067 120.226 642.261 463.068
1191 0 87.1262 13.1648 1147 120.221 642.272 460.531
1192 1 45.0184 11.5286 519 125.227 641.948 481.557
1193 0 47.0394 12.5852 592 126.434 641.292 480.231
1194 0 48.106 12.3061 592 124.432 643.066 479.534
1195 0 49.0094 12.2426 600 121.5 644.057 481.578
1196 0 52.0802 13.2104 688 119.092 644.125 480.51
1197 0 53.0652 12.7579 677 122.728 643.61 479.725
1198 0 53.0686 12.644 671 124.508 644.06 478.96
1199 0 56.0543 13.3264 747 122.063 644.462 477.637
1200 0 56.0996 13.3334 748 124.235 644.159 477.44
1201 0 58.0467 13.4202 779 123.665 644.024 477.534
1202 0 60.0843 13.0816 786 125.478 644.009 474.412
1203 0 63.0815 13.3003 839 124.318 643.924 475.119
1204 0 65.0562 12.3585 804 127.832 643.556 474.123
1205 0 63.1035 12.2497 773 129.652 643.539 473.366
1206 0 67.106 13.501 906 126.895 643.977 472.731
1207 0 70.2455 13.7802 968 126.893 643.424 470.314
1208 0 72.2316 13.5398 978 127.627 643.448 469.417
1209 0 74.1252 13.4232 995 129.571 643.47 468.611
1210 0 78.1671 13.9445 1090 127.697 642.518 466.983
1211 0 79.0577 13.4838 1066 130.944 642.419 466.184
1212 0 83.2127 14.1926 1181 129.563 641.953 463.765
1213 0 85.2107 13.4373 1145 132.282 642.664 465.492
1214 0 90.1426 13.8004 1244 130.999 642.259 462.434
1215 0 92.1052 13.8429 1275 131.133 642.453 461.745
1216 1 45.0928 11.9753 540 137.9 642.024 481.97
1217 0 51.1397 13.3751 684 132.094 643.738 478.251
1218 0 51.2368 13.6425 699 133.033 642.71 478.132
1219 0 55.1261 14.2038 783 128.648 642.273 479.889
1220 0 56.0692 13.2515 743 132.735 642.394 478.773
1221 0 57.075 14.3846 821 128.893 642.339 478.471
1222 0 59.1085 13.822 817 130.946 642.37 476.949
1223 0 62.1438 13.9354 866 129.709 642.782 476.202
1224 0 61.0949 13.0453 797 133.103 642.257 474.748
1225 0 65.0677 14.0315 913 129.788 642.176 472.923
1226 0 66.0957 11.5439 763 135.393 643.041 474.737
1227 0 71.1685 14.824 1055 117.75 642.327 465.74
1228 0 71.111 13.0641 929 125.952 641.749 465.72
1229 0 72.1894 12.9936 938 126.509 641.958 466.744
1230 0 75.1194 13.2323 994 126.456 642.732 467.936
1231 0 78.1018 13.572 1060 128.082 642.272 466.4
1232 0 80.0772 12.5254 1003 127.808 642.607 466.896
1233 0 81.1001 13.5265 1097 128.73 642.63 462.643
1234 0 86.0676 13.6521 1175 125.375 642.797 462.685
1235 1 45.2124 10.8377 490 122.971 641.647 479.992
1236 0 48.2899 11.9901 579 119.003 641.53 477.596
1237 0 48.1942 11.0802 534 124.987 641.891 479.796
1238 0 51.1097 12.5612 642 123.889 642.57 478.878
1239 0 50.0699 12.2429 613 118.909 643.718 480.786
1240 0 53.051 11.4795 609 120.102 643.059 478.305
1241 0 56.0769 11.7695 660 118.048 642.808 477.08
1242 0 56.0457 12.4541 698 117.749 642.987 476.395
1243 0 59.0558 12.8015 756 116.189 643.436 476.755
1244 0 63.084 13.1095 827 114.883 642.663 474.409
1245 0 64.1539 12.7974 821 115.298 642.905 474.049
1246 0 65.1296 12.5135 815 117.465 643.006 471.178
1247 0 68.0425 11.7133 797 120.006 643.484 470.496
1248 0 69.067 12.7413 880 118.32 643.144 472.22
1249 0 73.1247 13.8667 1014 116.623 643.32 469.339
1250 0 74.237 12.945 961 119.929 642.986 467.947
1251 0 77.1102 12.9166 996 119.483 641.924 468.346
1252 0 80.1709 13.4463 1078 120.637 641.921 466.236
1253 0 82.1408 13.5012 1109 126.454 642.594 462.735
1254 0 86.1643 13.7876 1188 120.182 642.12 460.961
1255 0 86.2059 12.7601 1100 124.655 642.565 461.46
1256 0 89.2949 13.1026 1170 129.409 642.387 457.856
1257 0 94.13 13.1626 1239 127.915 642.549 456.717
1258 0 96.2276 12.9589 1247 128.043 642.154 456.776
1259 0 100.182 12.1678 1219 127.177 641.829 455.029
1260 0 104.177 12.8436 1338 126.535 642.651 451.531
1261 1 56.0236 11.0489 619 125.554 643.318 476.798
1262 0 57.0799 12.0533 688 125.172 642.331 472.996
1263 0 59.0322 12.0443 711 126.677 642.488 475.089
1264 0 63.1254 13.0851 826 121.389 642.547 476.561
1265 0 65.098 12.3199 802 125.579 642.702 472.833
1266 0 66.0997 13.7973 912 121.062 642.696 473.091
1267 0 70.1846 14.0059 983 121.563 643.25 467.349
1268 0 71.3217 12.8853 919 124.942 642.329 468.665
1269 0 73.2984 13.0835 959 124.736 642.68 469.053
1270 0 77.1668 13.4125 1035 122.524 642.094 468.082
1271 0 77.1589 12.2863 948 128.213 642.207 465.957
1272 0 80.1626 13.7346 1101 124.978 641.952 464.502
1273 0 81.2958 13.3217 1083 126.786 641.843 463.181
1274 0 87.1991 13.7043 1195 123.198 641.988 462.404
1275 0 89.1837 13.1975 1177 123.723 642.269 460.726
1276 0 94.2885 14.6571 1382 120.344 641.713 455.156
1277 0 96.2161 13.6152 1310 125.065 642.448 455.441
1278 1 51.0595 11.4964 587 120.629 641.097 478.705
1279 0 52.0729 11.5607 602 124.663 642.309 480.272
1280 0 54.0462 12.3228 666 122.827 643.812 479.213
1281 0 54.0299 12.8447 694 123.947 643.693 476.526
1282 0 58.0888 12.171 707 123.883 643.778 477.306
1283 0 57.0236 11.2585 642 128.646 643.808 476.417
1284 0 60.0379 11.2262 674 128.464 644.651 476.079
1285 0 62.0861 12.5954 782 125.93 644.297 473.272
1286 0 65.0257 12.472 811 126.041 644.492 473.667
1287 0 67.091 13.0122 873 125.536 644.049 472.67
1288 0 66.0758 11.4263 755 132.06 643.854 470.93
1289 0 69.0836 12.4632 861 129.416 644.25 471.374
1290 0 72.0348 12.9937 936 128.221 643.482 470.276
1291 0 75.0478 12.7252 955 129.259 643.741 467.998
1292 0 78.0688 13.5521 1058 126.547 644.018 467.819
1293 0 78.1222 13.1717 1029 129.701 643.915 466.933
1294 0 80.0466 13.1423 1052 129.676 643.87 466.176
1295 0 84.0656 12.8828 1083 130.912 643.817 462.302
1296 0 86.0599 12.5726 1082 131.09 644.416 462.834
1297 0 90.0715 12.8232 1155 129.636 643.586 462.081
1298 0 90.1376 13.1688 1187 123.752 643.718 460.485
1299 0 95.0544 12.3613 1175 130.626 643.757 458.921
1300 0 98.0552 11.7383 1151 132.884 643.549 457.896
1301 1 54.0343 11.9554 646 126.325 643.666 479.339
1302 0 55.0749 11.8021 650 126.317 644.311 479.534
1303 0 56.077 12.5363 703 126.677 644.293 475.684
1304 0 56.0592 12.683 711 123.678 643.262 475.917
1305 0 59.1265 14.0715 832 119.202 643.589 475.15
1306 0 59.0907 13.6908 809 121.534 643.424 473.917
1307 0 60.0829 12.9155 776 125.332 643.446 472.916
1308 0 63.1124 14.5296 917 119.903 643.747 473.416
1309 0 64.1224 13.6146 873 122.755 643.842 472.549
1310 0 67.0914 14.7262 988 119.927 643.741 469.685
1311 0 69.0966 14.0094 968 120.969 643.565 471.626
1312 0 71.0509 13.8492 984 122.858 642.962 468.16
1313 0 73.0912 15.036 1099 118.486 643.018 469.104
1314 0 74.1161 13.8162 1024 123.286 642.438 464.895
1315 0 78.1067 13.8657 1083 122.517 643.597 466.671
1316 0 79.0842 13.454 1064 124.362 643.573 462.752
1317 0 82.0871 13.8024 1133 123.092 643.064 462.409
1318 0 86.1193 14.2941 1231 121.729 642.99 459.9
1319 0 88.0604 14.4333 1271 121.355 642.92 458.921
1320 0 91.194 13.5426 1235 123.896 642.811 459.177
1321 0 93.1668 14.1574 1319 123.51 642.755 457.842
1322 0 96.1206 14.2217 1367 124.018 642.867 455.841
1323 0 99.1247 14.0026 1388 125.191 642.294 452.743
1324 0 105.168 14.7192 1548 120.764 642.61 452.349
1325 0 107.086 15.044 1611 120.701 642.452 449.036
1326 1 58.1819 11.4125 664 127.261 643.099 474.322
1327 0 59.2145 12.3281 730 121.607 642.377 474.223
1328 0 61.1542 11.3811 696 120.711 642.23 469.688
1329 0 60.0701 10.6542 640 116 642.666 469.57
1330 0 65.0467 11.8069 768 112.807 643.18 469.299
1331 0 68.0869 12.7043 865 109.912 642.534 469.544
1332 0 69.1324 12.194 843 113.199 641.912 466.737
1333 0 74.087 12.7148 942 111.179 642.378 466.643
1334 0 74.1018 13.6974 1015 109.951 641.957 464.392
1335 0 76.1066 12.7716 972 112.79 642.38 464.224
1336 0 80.0439 13.1053 1049 112.906 641.965 461.198
1337 0 83.0816 11.3383 942 116.794 642.144 461.985
1338 0 86.1153 12.5065 1077 114.211 641.656 459.235
1339 0 89.0942 12.1444 1082 115.695 641.749 457.93
1340 0 91.1425 11.3668 1036 118.092 642.314 456.595
1341 0 94.2012 11.5922 1092 117.972 642.319 452.994
1342 0 96.0833 11.3756 1093 119.564 642.563 453.777
1343 0 101.142 11.558 1169 119.464 642.456 450.858
1344 1 54.1357 10.0488 544 122.881 643.108 478.838
1345 0 57.076 11.6161 663 119.762 643.531 476.32
1346 0 59.1632 11.1218 658 110.804 641.766 472.129
1347 0 62.0756 9.98783 620 111.458 641.084 474.956
1348 0 63.0732 11.3994 719 110.697 641.063 471.042
1349 0 64.0383 10.8529 695 111.524 642.138 473.203
1350 0 66.1044 10.7406 710 111.759 641.772 472.632
1351 0 71.109 11.7285 834 109.314 643.71 469.448
1352 0 71.1018 9.57781 681 114.492 643.562 469.153
1353 0 75.0778 11.215 842 111.007 643.113 467.018
1354 0 77.0858 9.80726 756 114.208 642.444 464.083
1355 0 82.1339 11.0916 911 110.077 642.65 464.605
1356 0 83.0492 10.5359 875 112.227 642.871 461.592
1357 1 45.0741 8.63024 389 111.895 643.55 481.057
1358 0 46.0294 10.6019 488 107.256 644.102 480.936
1359 0 48.036 10.9085 524 109.086 643.945 479.391
1360 0 48.0648 9.84088 473 111.977 643.586 477.96
1361 0 51.0332 12.2861 627 104.447 643.072 476.888
1362 0 51.091 11.3327 579 108.33 643.356 476.563
1363 0 49.0498 9.27629 455 114.719 642.892 476.462
1364 0 52.0271 10.3216 537 113.233 643.803 476.534
1365 0 56.0858 10.7157 601 111.581 643.216 474.973
1366 0 57.0734 9.09355 519 115.044 643.017 474.63
1367 0 59.0533 10.3127 609 112.512 641.775 476.496
1368 0 59.1563 9.60169 568 114.798 640.824 472.879
1369 0 64.0383 10.9622 702 111.993 640.476 470.58
1370 0 64.0673 10.9416 701 113.3 640.847 469.882
1371 0 66.0825 11.0317 729 112.794 641.73 472.073
1372 0 67.0324 9.81615 658 117.394 641.164 470.375
1373 0 74.0754 12.4468 922 110.777 640.99 468.638
1374 0 77.0321 12.735 981 110.287 641.415 468.135
1375 0 76.0382 12.5595 955 113.588 640.562 466.76
1376 0 80.0383 11.1447 892 116.941 640.545 465.718
1377 0 82.1378 11.0668 909 118.34 640.707 463.936
1378 0 84.0775 12.3576 1039 116.919 640.843 464.289
1379 0 88.0759 11.7058 1031 121.035 639.964 463.333
1380 0 89.1065 11.75 1047 123.065 640.545 460.384
1381 0 92.0963 12.1177 1116 122.639 640.143 459.167
1382 1 48.0199 10.5165 505 121.663 640.485 481.212
1383 0 50.0584 10.8673 544 120.597 640.09 479.237
1384 0 52.0832 11.904 620 112.568 640.474 479.121
1385 0 54.0298 11.8638 641 111.777 641.064 478.814
1386 0 53.0582 11.2895 599 120.018 643.381 479.564
1387 0 55.081 12.9627 714 116.727 642.66 477.796
1388 0 56.0866 11.8745 666 121.228 643.395 477.698
1389 0 59.1062 12.909 763 118.242 643.727 475.544
1390 0 61.1201 12.3036 752 118.013 644.005 476.585
1391 0 63.0757 11.7161 739 119.947 644.181 474.317
1392 0 67.0769 12.3888 831 117.729 643.795 473.322
1393 0 69.089 12.8385 887 116.892 643.505 471.381
1394 0 69.1706 12.8812 891 118.893 642.722 470.425
1395 0 71.2174 13.1709 938 117.556 642.784 469.626
1396 0 73.1974 12.3502 904 120.657 641.648 467.136
1397 0 77.0837 13.3362 1028 117.13 642.362 466.273
1398 0 77.0837 13.401 1033 141.984 643.351 466.171
1399 0 82.2486 14.8574 1222 113.802 642.036 461.126
1400 0 85.1555 13.6926 1166 115.946 642.08 458.808
1401 0 87.1002 13.3984 1167 115.971 642.35 458.626
1402 0 88.1045 14.0855 1241 115.319 642.086 455.919
1403 0 90.1675 13.4195 1210 117.418 642.252 454.517
1404 0 94.0914 12.4879 1175 119.833 642.071 453.28
1405 0 98.1866 12.741 1251 119.647 642.049 450.124
1406 0 102.17 13.869 1417 115.619 641.705 447.934
1407 0 106.167 14.204 1508 113.714 641.578 445.046
1408 1 56.1244 10.1026 567 116.891 640.31 472.148
1409 0 57.0892 9.61653 549 119.219 640.304 469.811
1410 0 61.0461 10.877 664 116.867 640.143 466.188
1411 0 65.1282 11.6232 757 112.432 639.824 469.757
1412 0 66.0222 11.7385 775 112.525 640.837 469.657
1413 0 69.0526 12.0488 832 110.639 641.078 466.519
1414 0 71.1039 10.2526 729 113.671 640.353 467.096
1415 0 73.0654 10.1279 740 112.526 640.553 466.226
1416 0 76.0908 11.92 907 109.045 641.022 463.691
1417 0 85.0462 13.4515 1144 101.121 640.191 459.279
1418 0 87.1094 13.0296 1135 102.563 639.825 456.468
1419 0 83.128 10.538 876 107.154 641.822 448.61
1420 0 85.171 11.9524 1018 104.526 640.945 453.171
1421 0 88.1518 10.6181 936 107.962 641.768 455.33
1422 0 91.0911 11.3732 1036 113.059 642.395 456.963
1423 0 93.164 10.8411 1010 115.128 642.636 452.915
1424 1 50.0742 10.3846 520 110.458 643.562 474.573
1425 0 52.1284 10.7427 560 108.818 644.071 474.141
1426 0 54.1321 11.1025 601 106.779 644.102 474.261
1427 0 55.1215 11.4474 631 105.242 644.732 472.106
1428 0 54.0196 9.40399 508 111.102 643.411 476.128
1429 0 56.0908 10.2334 574 109.92 643.453 474.756
1430 0 63.1462 13.255 837 100.029 644.127 467.356
1431 0 68.1866 12.7738 871 97.1699 643.351 463.165
1432 0 72.4287 14.8284 1074 90.8324 644.161 460.122
1433 0 75.1308 12.2985 924 97.7478 642.904 461.167
1434 0 71.1362 12.9048 918 100.358 643.001 460.6
1435 0 70.2078 11.1811 785 106.819 643.659 463.599
1436 0 72.087 10.5983 764 106.933 643.45 465.915
1437 0 75.1297 12.2322 919 104.505 643.075 461.905
1438 0 76.2221 10.5875 807 109.296 643.696 461.926
1439 0 79.1292 10.7925 854 109.457 643.191 458.486
1440 0 82.162 10.6984 879 109.23 643.685 458.882
1441 0 85.1148 12.1835 1037 107.015 642.382 457.614
1442 0 87.1598 11.2208 978 110.094 642.919 458.568
1443 0 89.202 11.8831 1060 110.459 642.77 452.415
1444 0 91.0855 11.4618 1044 110.693 643.111 452.323
1445 0 96.1056 12.0701 1160 110.426 642.71 452.437
1446 0 101.16 13.5034 1366 106.379 642.978 451.275
1447 0 104.141 13.837 1441 105.344 643.09 449.266
1448 0 107.122 12.7798 1369 108.683 643.118 446.543
1449 0 108.159 11.8437 1281 112.974 642.809 442.674
1450 0 113.145 13.8053 1562 108.706 643.143 446.15
1451 0 116.147 13.1386 1526 110.597 643.174 445.102
1452 0 119.189 13.4492 1603 111.247 643.485 438.7
1453 0 123.301 12.5465 1547 114.488 642.759 438.754
1454 0 125.211 11.9558 1497 117.449 642.984 435.083
1455 0 130.171 12.2685 1597 116.001 642.885 438.138
1456 0 136.213 13.4642 1834 113.646 642.803 436.408
1457 0 139.113 12.5006 1739 115.908 642.811 435.407
1458 0 145.228 12.9038 1874 115.007 642.172 432.787
1459 0 150.191 14.7212 2211 109.237 641.526 422.95
1460 0 157.199 14.2431 2239 110.862 642.139 424.765
1461 1 87.2074 10.6298 927 111.73 641.987 458.422
1462 0 93.1722 12.0851 1126 108.376 641.84 458.493
1463 0 95.0984 12.7762 1215 108.308 642.393 457.286
1464 0 99.2216 13.2632 1316 106.96 642.334 456.464
1465 0 101.121 12.7373 1288 109.373 642.65 454.29
1466 0 105.113 12.91 1357 108.052 642.497 450.624
1467 0 107.224 11.2754 1209 110.302 642.723 448.034
1468 0 111.242 11.1379 1239 111.256 642.692 447.293
1469 0 114.184 11.5603 1320 111.833 643.376 444.986
1470 0 119.214 12.2553 1461 110.83 642.905 441.756
1471 0 123.258 11.8938 1466 110.773 642.913 443.772
1472 0 124.262 11.5482 1435 112.776 643.141 437.291
1473 1 65.1057 10.3831 676 107.041 644.18 472.822
1474 0 66.0948 11.0145 728 105.688 644.058 470.045
1475 0 70.0865 11.2004 785 100.577 643.817 466.576
1476 0 69.1169 9.23074 638 104.022 644.513 465.097
1477 0 71.0953 9.95846 708 103.106 644.435 467.003
1478 0 74.1091 9.68842 718 105.109 643.61 465.437
1479 0 77.1927 10.545 814 103.076 642.914 463.088
1480 0 79.0818 10.7989 854 102.735 643.458 462.774
1481 0 81.1165 10.7253 870 104.659 642.872 460.017
1482 0 83.1361 10.6211 883 105.41 642.664 458.785
1483 0 89.0828 10.9 971 104.449 643.214 457.9
1484 0 91.1013 10.6804 973 105.547 643.121 455.615
1485 0 93.1054 12.5234 1166 106.939 643.109 455.881
1486 0 96.0826 10.8969 1047 110.261 643.203 456.96
1487 0 101.334 11.8617 1202 104.354 642.973 449.533
1488 0 104.138 10.8414 1129 106.978 643.036 448.852
1489 1 59.0565 11.2604 665 106.353 644.398 475.811
1490 0 61.1688 12.6698 775 104.227 643.421 472.572
1491 0 61.0997 12.0459 736 107.334 641.549 474.64
1492 0 63.1012 12.8365 810 105.516 641.156 474.358
1493 0 65.0864 13.582 884 106.423 641.424 473.247
1494 0 66.0764 12.2737 811 110.518 641.507 473.755
1495 0 67.0316 11.7258 786 113.69 641.187 471.574
1496 0 72.0862 12.6099 909 110.263 640.809 470.347
1497 0 73.0444 13.6492 997 109.398 641.094 468.532
1498 0 75.0706 12.8279 963 111.837 641.523 468.297
1499 0 80.0696 13.6631 1094 109.276 640.442 468.356
1500 0 80.0719 13.5128 1082 111.53 640.836 465.845
1501 0 84.0736 13.8688 1166 109.994 641.266 465.1
1502 0 87.0521 13.4287 1169 110.814 640.964 465.127
1503 0 90.0784 14.232 1282 107.64 642.182 462.277
1504 0 91.1033 13.8085 1258 105.24 641.898 461.941
1505 1 44.1188 9.97306 440 116.182 641.493 481.191
1506 0 45.0318 9.23792 416 118.892 641.589 483.089
1507 0 46.0631 11.2672 519 114.231 641.867 478.353
1508 0 46.0924 11.3251 522 114.456 641.18 479.797
1509 0 49.0797 12.6529 621 116.85 641.443 481.068
1510 0 48.0382 12.2403 588 113.774 641.298 482.793
1511 0 49.0603 10.7623 528 117.258 641.267 481.642
1512 0 51.0105 12.5268 639 112.606 640.92 479.831
1513 0 53.0529 12.7985 679 110.065 641.711 479.647
1514 0 53.042 10.9536 581 113.606 641.353 481.034
1515 0 56.0504 12.346 692 110.406 641.342 479.686
1516 0 55.0676 10.5144 579 115.192 641.278 478.815
1517 0 59.0665 11.6648 689 111.385 641.922 479.427
1518 0 61.1069 12.1917 745 110.804 641.529 477.732
1519 0 62.0258 13.4299 833 109.696 641.151 475.043
1520 0 63.0673 13.2874 838 110.819 640.862 474.919
1521 0 64.1848 12.0589 774 115.116 641.276 475.558
1522 0 68.0828 12.7051 865 113.335 641.109 475.438
1523 0 68.0602 11.9012 810 117.86 640.963 474.672
1524 0 70.1414 13.9147 976 115.953 640.994 472.2
1525 0 71.0645 13.0163 925 119.771 641.236 472.408
1526 0 75.1137 13.5395 1017 118.617 641.188 472.105
1527 0 76.0649 13.0415 992 123.085 641.633 471.353
1528 0 79.1 12.9077 1021 124.173 641.587 469.745
1529 0 80.0608 13.7645 1102 124.201 641.216 469.716
1530 0 81.0944 13.1945 1070 127.661 641.325 467.404
1531 0 85.0921 13.4795 1147 126.229 641.092 468.211
1532 0 86.0819 13.4407 1157 129.067 641.158 463.781
1533 1 47.0281 12.1629 572 135.031 640.687 483.327
1534 0 48.0693 12.6276 607 134.104 641.718 484.384
1535 0 49.0403 12.0717 592 136.649 641.914 483.049
1536 0 53.2496 12.6198 672 134.618 642.036 481.531
1537 0 53.2004 12.9134 687 134.939 642.001 481.035
1538 0 56.1298 14.0745 790 131.349 642.235 479.238
1539 0 57.2192 13.9639 799 131.901 642.319 480.568
1540 0 58.1642 13.7542 800 133.228 641.556 478.579
1541 0 60.2496 14.0416 846 132.258 641.206 478.53
1542 0 62.1009 13.9128 864 132.865 641.654 478.322
1543 0 64.0698 13.5165 866 133.83 641.076 477.665
1544 0 66.0468 14.2323 940 132.881 641.197 476.067
1545 0 69.0889 14.9228 1031 130.863 640.729 474.964
1546 0 70.0665 14.2579 999 133.356 640.445 473.292
1547 0 72.1065 13.9932 1009 133.634 640.314 473.276
1548 0 73.2171 13.5487 992 135.678 640.087 468.852
1549 0 75.1299 13.8028 1037 134.596 639.6 468.745
1550 0 78.2751 14.3213 1121 132.855 640.038 466.195
1551 0 78.2123 13.425 1050 135.225 639.916 466.032
1552 0 81.233 14.3415 1165 132.894 639.861 463.888
1553 0 83.3143 13.8992 1158 134.578 639.983 461.417
1554 0 88.2446 14.4938 1279 130.156 639.497 463.083
1555 0 90.4359 13.6229 1232 132.588 639.765 462.879
1556 0 91.355 13.5406 1237 133.146 639.694 460.508
1557 0 94.3351 13.7595 1298 132.055 639.693 455.585
1558 0 99.3045 13.9571 1386 130.204 638.936 454.993
1559 0 100.454 13.5883 1365 132.443 640.072 450.303
1560 0 106.397 14.7279 1567 127.161 639.678 450.948
1561 0 109.22 14.3747 1570 128.457 639.368 448.344
1562 1 60.1144 12.942 778 128.697 638.968 471.465
1563 0 64.1649 13.8238 887 124.339 639.14 471.035
1564 0 67.1297 13.4069 900 128.562 638.853 470.728
1565 0 68.1564 12.3099 839 132.163 639.565 469.931
1566 0 68.1726 12.7764 871 131.723 639.698 468.311
1567 0 74.181 14.0198 1040 126.559 639.602 466.203
1568 0 75.2763 13.2445 997 129.917 639.202 465.847
1569 0 76.1509 13.5258 1030 130.546 639.51 463.847
1570 0 81.2743 13.1653 1070 130.007 638.876 463.105
1571 0 82.3054 13.3284 1097 130.609 638.875 462.517
1572 0 86.2167 14.6723 1265 127.849 638.955 460.173
1573 0 89.261 13.8358 1235 130.175 638.656 460.224
1574 0 90.2442 13.8181 1247 132.246 638.903 458.033
1575 0 95.312 14.185 1352 130.462 639.487 457.078
1576 0 95.312 14.1116 1345 154.755 640.486 457.234
1577 0 100.399 14.5719 1463 133.954 640.085 451.76
1578 0 102.378 14.5246 1487 134.484 639.655 453.921
1579 0 107.277 15.0732 1617 133.655 639.746 449.157
1580 0 115.286 17.7038 2041 123.658 639.746 443.723
1581 0 117.122 16.6407 1949 128.731 639.749 446.321
1582 0 120.376 14.9033 1794 135.743 639.666 444.069
1583 0 123.384 14.8075 1827 136.854 639.82 442.438
1584 0 126.294 14.8701 1878 137.587 639.167 440.349
1585 0 131.427 14.2361 1871 140.637 639.296 437.749
1586 0 137.403 16.1205 2215 134.449 639.57 433.942
1587 0 140.347 14.1222 1982 143.01 639.854 434.452
1588 0 147.384 16.0872 2371 138.176 638.722 430.51
1589 0 152.321 15.5133 2363 139.687 638.993 430.198
1590 0 158.339 15.7131 2488 136.595 639.412 428.144
1591 0 163.544 15.5248 2539 137.112 639.279 425.758
1592 0 168.304 15.1987 2558 140.991 638.986 422.636
1593 0 173.473 14.9361 2591 143.205 639.062 418.169
1594 0 181.298 15.0801 2734 141.271 639.638 417.41
1595 1 96.4626 14.078 1358 142.762 639.798 456.136
1596 0 99.1519 14.6543 1453 141.563 640.103 454.021
1597 0 102.211 16.4366 1680 136.188 640.09 449.302
1598 0 103.34 14.2636 1474 145.242 639.341 449.11
1599 0 107.277 14.8961 1598 143.194 639.768 446.775
1600 0 110.117 13.8308 1523 145.942 640.561 447.403
1601 0 116.162 14.2817 1659 143.963 639.463 443.633
1602 0 123.399 16.8478 2079 133.439 639.608 439.797
1603 0 126.277 17.3112 2186 133.755 639.037 437.771
1604 0 130.482 14.9369 1949 141.836 639.173 436.647
1605 0 134.271 17.8147 2392 133.117 639.365 432.957
1606 0 136.413 13.3419 1820 148.765 639.096 428.846
1607 0 141.272 13.4563 1901 148.518 639.58 428.275
1608 0 146.323 13.6274 1994 148.422 640.006 425.731
1609 0 151.496 13.5185 2048 149.302 639.542 420.026
1610 0 158.258 14.0151 2218 147.225 640.153 418.105
1611 0 164.288 14.2433 2340 146.836 640.005 416.06
1612 0 169.302 14.4121 2440 146.32 639.451 413.144
1613 0 175.39 14.8184 2599 144.8 639.704 412.163
1614 0 182.351 14.7408 2688 145.192 639.428 408.261
1615 1 104.23 11.3787 1186 134.364 639.196 452.231
1616 0 106.184 10.4724 1112 138.116 639.653 449.059
1617 0 109.126 10.7216 1170 128.4 639.936 445.548
1618 0 110.1 8.6921 957 133.841 640.486 443.138
1619 0 116.166 10.7863 1253 127.998 639.888 442.663
1620 0 120.154 10.9026 1310 128.503 639.702 438.969
1621 0 123.155 10.028 1235 130.1 639.994 436.36
1622 0 125.216 8.37755 1049 134.041 639.674 431.357
1623 1 142.249 16.7945 2389 109.998 640.094 415.982
1624 0 144.325 16.4975 2381 113.563 640.129 419.099
1625 0 149.304 14.5877 2178 119.292 639.802 420.335
1626 0 149.318 11.9276 1781 129.302 639.983 417.237
1627 0 153.265 9.68911 1485 133.477 639.675 420.633
1628 0 158.244 11.1284 1761 131.789 639.426 415.043
1629 1 94.3195 8.36518 789 116.081 640.274 448.316
1630 0 100.513 9.9987 1005 118.828 639.154 451.004
1631 0 98.2118 7.53474 740 122.288 639.253 449.339
1632 0 102.288 7.86996 805 117.637 638.779 451.157
1633 0 106.299 9.20043 978 116.038 639.187 445.499
1634 0 109.245 7.25894 793 120.89 639.37 441.317
1635 0 113.199 7.00538 793 119.711 639.899 442.759
1636 0 118.26 7.94857 940 118.823 640.633 435.914
1637 0 121.229 7.77868 943 118.033 640.526 436.637
1638 0 126.18 7.79043 983 118.666 640.275 433.294
1639 0 130.263 8.96647 1168 116.17 639.558 434.134
1640 0 138.288 8.32318 1151 117.851 640.063 433.355
1641 0 138.252 8.04331 1112 120.18 639.747 427.916
1642 0 144.18 7.69873 1110 120.786 639.859 427.288
1643 0 148.172 10.4406 1547 116.149 639.257 424.121
1644 0 152.238 8.41444 1281 120.674 639.315 425.02
1645 0 157.261 8.24745 1297 122.66 638.769 415.603
1646 0 164.345 9.35835 1538 121.36 640.155 412.354
1647 0 167.438 9.30491 1558 123.181 639.951 409.368
1648 0 174.273 10.3344 1801 121.773 639.901 409.047
1649 0 180.227 9.51021 1714 123.845 639.828 410.835
1650 0 186.467 9.48159 1768 124.516 640.163 405.346
1651 0 192.455 9.65938 1859 125.358 639.969 402.256
1652 0 198.347 10.4867 2080 123.825 640.572 398.533
1653 0 204.365 10.7944 2206 124.791 640.228 395.218
1654 1 155.186 8.9248 1385 118.559 640.409 430.318
1655 0 160.249 9.26061 1484 121.633 640.528 421.209
1656 0 163.166 9.0889 1483 124.701 640.418 419.888
1657 0 169.324 10.6895 1810 121.736 639.825 416.617
1658 0 176.351 10.8533 1914 121.381 639.376 415.403
1659 0 180.347 11.062 1995 123.536 639.621 409.748
1660 0 185.484 10.6154 1969 126.706 639.962 407.205
1661 0 191.474 10.5758 2025 127.926 639.682 403.199
1662 0 196.416 11.3789 2235 124.86 639.392 404.447
1663 0 204.424 11.2218 2294 125.673 639.263 399.992
1664 1 50.0559 10.8878 545 108.061 637.653 478.978
1665 0 51.206 10.5456 540 110.554 638.167 480.648
1666 0 51.1348 8.89804 455 112.026 637.38 475.077
1667 0 53.0667 10.2513 544 109.415 638.006 473.688
1668 0 56.0811 10.6275 596 115.314 637.976 477.431
1669 0 57.1099 11.3115 646 115.24 637.926 476.099
1670 0 57.1253 10.3982 594 119.495 638.192 475.983
1671 0 64.0728 13.313 853 107.441 637.267 472.819
1672 0 64.0753 12.1576 779 112.715 638.082 473.285
1673 0 66.1788 12.5871 833 112.418 638.583 474.353
1674 0 67.0722 11.7336 787 115.798 638.302 473.572
1675 0 68.1291 10.4361 711 120.172 638.308 472.972
1676 0 69.1855 11.2885 781 118.625 637.892 472.656
1677 0 71.2331 11.6098 827 118.42 638.479 470.509
1678 0 74.1757 11.4997 853 118.6 638.577 468.678
1679 0 75.163 12.4263 934 116.92 638.639 468.554
1680 0 74.1399 11.9369 885 119.577 639.353 466.564
1681 0 78.1972 12.8521 1005 113.903 638.569 469.25
1682 0 80.1248 11.8939 953 118.464 637.944 465.039
1683 0 82.1677 11.8051 970 118.643 637.913 464.826
1684 0 87.2098 12.7279 1110 115.709 637.818 464.192
1685 0 88.1231 12.4825 1100 118.089 637.877 460.904
1686 0 93.1748 12.117 1129 118.528 638.045 459.552
1687 0 95.2776 13.0671 1245 115.422 638.236 457.142
1688 0 99.236 14.2791 1417 110.824 638.291 459.032
1689 0 99.1267 13.2658 1315 114.008 637.7 457.482
1690 1 56.0503 10.5798 593 117.417 638.015 480.17
1691 0 59.2413 10.5163 623 107.583 640.172 470.892
1692 0 58.4076 9.39946 549 111.772 640.231 470.073
1693 0 61.1708 10.4135 637 104.493 640.98 472.17
1694 0 60.2667 9.45795 570 108.053 640.435 470.03
1695 0 64.1805 10.4081 668 106.141 640.816 470.193
1696 0 64.1594 9.38288 602 109.352 641.169 470.096
1697 0 66.2318 9.79891 649 109.666 640.664 468.61
1698 0 68.2926 10.9382 747 107.415 641.545 468.249
1699 0 69.2505 10.5414 730 109.255 641.052 468.926
1700 0 69.2557 10.4973 727 132.587 640.052 469.047
1701 0 72.2157 10.1501 733 111.052 641.82 465.495
1702 0 75.2127 10.4105 783 111.057 640.9 463.089
1703 0 77.1974 10.5573 815 111.363 640.322 463.953
1704 0 79.2571 11.5699 917 107.107 640.47 463.285
1705 0 80.174 12.5976 1010 104.748 640.214 463.035
1706 0 82.163 12.9377 1063 105.403 640.058 458.314
1707 0 83.2723 11.2042 933 110.644 640.287 458.092
1708 0 87.3545 12.0429 1052 107.813 640.212 458.682
1709 0 88.173 11.3187 998 110.473 640.16 456.418
1710 0 91.1195 12.7635 1163 108.193 640.291 455.132
1711 0 96.24 13.0195 1253 107.658 639.694 453.787
1712 0 95.1948 11.8914 1132 113.524 639.933 452.425
1713 0 102.241 13.165 1346 109.917 640.733 451.319
1714 0 104.343 12.2769 1281 111.996 640.433 452.372
1715 0 106.29 12.1272 1289 111.192 640.293 452.728
1716 0 110.394 11.4137 1260 114.41 640.49 450.086
1717 1 58.2342 10.784 628 107.274 641.057 475.151
1718 0 59.0827 12.2879 726 108.007 641.336 478.736
1719 0 60.101 12.6953 763 108.125 640.447 476.1
1720 0 61.1011 12.4384 760 109.837 640.601 475.805
1721 0 63.1177 14.1165 891 106.413 641.074 475.015
1722 0 65.121 13.0833 852 108.559 640.465 474.897
1723 0 66.0819 13.68 904 109.472 640.749 472.984
1724 0 69.1739 13.6757 946 108.8 640.804 472.255
1725 0 70.135 12.7611 895 112.37 640.58 470.305
1726 0 73.2854 12.8539 942 112.652 640.523 469.881
1727 0 75.1521 13.2265 994 112.9 640.439 467.918
1728 0 76.1286 12.7153 968 116.464 640.764 467.693
1729 0 80.1883 14.0544 1127 111.894 641.265 467.325
1730 0 82.114 13.7492 1129 113.718 640.363 464.787
1731 0 86.1858 14.5036 1250 111.202 640.25 462.598
1732 0 87.1528 15.1229 1318 111.48 640.268 462.244
1733 0 90.1516 12.723 1147 117.219 640.78 460.243
1734 0 94.1992 13.5458 1276 114.365 639.989 460.121
1735 0 94.176 13.6553 1286 116.011 640.177 457.215
1736 0 98.3234 13.3437 1312 116.739 639.788 456.043
1737 0 100.291 13.1617 1320 117.645 640.273 455.655
1738 0 103.296 13.1757 1361 118.428 639.431 451.144
1739 1 56.152 11.9141 669 116.912 640.468 471.868
1740 0 60.1698 12.9799 781 112.154 640.147 471.821
1741 0 61.1227 12.4504 761 113.607 640.992 475.223
1742 0 63.1595 12.6663 800 111.868 641.178 476.181
1743 0 64.1443 13.7191 880 110.551 640.793 472.688
1744 0 67.1645 12.9086 867 110.699 640.234 472.579
1745 0 69.0546 12.8449 887 110.864 640.239 470.404
1746 0 69.1099 11.6192 803 114.699 640.623 468.767
1747 0 72.0588 12.4759 899 112.893 640.372 466.841
1748 0 72.1497 12.3216 889 114.027 640.269 466.297
1749 0 75.0666 12.1759 914 114.042 640.492 465.27
1750 0 78.0766 12.8848 1006 112.893 639.996 463.242
1751 0 80.1985 12.2072 979 114.566 639.408 462.991
1752 0 85.1358 13.5078 1150 111.884 640.128 460.655
1753 0 87.1968 12.9019 1125 114.571 640.265 457.964
1754 0 89.128 13.5984 1212 114.211 640.096 455.897
1755 0 93.0925 13.1482 1224 114.953 640.465 455.292
1756 0 95.1218 12.1213 1153 117.341 639.872 452.862
1757 0 99.1487 13.0511 1294 114.462 640.073 454.097
1758 0 99.2784 11.2613 1118 120.524 640.119 450.584
1759 1 53.0726 10.1182 537 115.907 640.119 477.354
1760 0 57.155 11.81 675 115.439 639.933 475.523
1761 0 60.1521 12.751 767 111.081 639.948 475.668
1762 0 60.1078 11.9286 717 110.035 640.4 475.219
1763 0 63.0688 12.6846 800 108.025 639.652 475.51
1764 0 64.0717 11.6432 746 110.816 640.202 474.19
1765 0 67.031 11.3231 759 110.851 640.431 472.845
1766 0 70.1148 13.0643 916 107.984 640.271 470.472
1767 0 70.0552 11.4481 802 112.757 639.734 471.931
1768 0 73.1482 12.5362 917 110.041 640.397 471.04
1769 0 76.1988 11.8506 903 112.435 639.392 468.07
1770 0 80.0826 13.7483 1101 107.636 639.714 466.372
1771 0 81.1514 12.1625 987 111.947 640.172 465.968
1772 0 83.0977 13.4781 1120 110.39 639.881 461.809
1773 0 86.1509 12.954 1116 112.152 639.729 463.739
1774 0 90.2176 13.0351 1176 111.674 640.23 462.325
1775 0 90.1258 12.5602 1132 115.404 640.538 459.489
1776 0 94.1855 12.8895 1214 113.714 640.277 458.845
1777 0 96.1378 12.9294 1243 114.62 640.061 458.831
1778 0 101.138 13.002 1315 114.376 640.116 455.504
1779 0 101.077 12.1096 1224 118.08 639.778 452.479
1780 0 103.085 11.3013 1165 119.159 639.125 455.604
1781 0 111.271 12.4291 1383 116.484 639.508 451.659
1782 0 112.236 10.9857 1233 120.461 639.929 448.457
1783 0 120.182 13.5628 1630 114.048 639.028 447.06
1784 0 123.155 12.4072 1528 118.182 638.897 444.08
1785 1 64.1127 11.3394 727 120.472 639.854 471.021
1786 0 68.0894 13.7026 933 116.487 638.922 470.239
1787 0 69.1367 13.0177 900 117.281 639.178 470.604
1788 0 72.056 14.9606 1078 113.135 639.558 467.882
1789 0 73.1007 13.543 990 116.861 639.227 467.855
1790 0 78.0682 14.2055 1109 115.339 639.056 466.634
1791 0 80.2594 14.6276 1174 115.22 640.006 464.081
1792 0 81.1415 14.8752 1207 116.029 639.063 462.614
1793 0 84.0633 14.2274 1196 118.54 639.1 460.918
1794 0 87.0486 15.095 1314 116.979 639.152 461.188
1795 0 88.1161 14.2085 1252 120.618 639.107 460.133
1796 0 90.078 13.8547 1248 122.658 639.035 457.514
1797 0 95.0379 14.4469 1373 121.133 639.712 457.488
1798 0 95.0488 13.6877 1301 121.502 639.693 455.149
1799 0 99.0858 13.9374 1381 120.185 639.876 452.083
1800 0 102.164 14.0558 1436 121.936 640.162 451.76
1801 0 106.052 14.9266 1583 120.164 640.625 448.291
1802 0 109.071 14.0368 1531 124.1 640.159 448.581
1803 0 116.239 14.8056 1721 122.784 640.24 445.482
1804 0 119.222 14.125 1684 124.567 640.069 443.325
1805 1 67.0609 11.8698 796 123.974 639.721 469.744
1806 0 69.0958 12.9386 894 122.897 639.224 467.464
1807 0 71.0995 13.1787 937 117.521 639.553 466.596
1808 0 72.0956 12.0673 870 118.595 640.084 467.31
1809 0 77.0636 12.3534 952 117.234 640.163 465.028
1810 0 79.1493 12.7733 1011 116.883 640.11 464.144
1811 0 82.1399 12.4422 1022 117.906 639.642 462.607
1812 0 86.058 12.4451 1071 116.619 640.272 462.086
1813 0 90.0532 14.4914 1305 111.772 640.172 459.434
1814 0 93.1438 13.0443 1215 114.571 640.177 458.545
1815 0 96.0766 13.458 1293 113.488 640.281 456.599
1816 0 99.0762 12.7377 1262 116.49 640.147 453.762
1817 0 102.141 14.1079 1441 114.069 639.733 451.994
1818 0 105.115 12.3104 1294 120.539 640.395 447.247
1819 0 106.267 13.3155 1415 121.688 639.936 447.438
1820 0 112.288 14.4449 1622 118.803 639.937 446.711
1821 0 115.388 13.5976 1569 122.518 639.872 442.215
1822 0 120.315 14.6283 1760 119.202 639.545 440.223
1823 0 126.383 15.6983 1984 113.983 640.472 430.272
1824 0 127.478 12.9277 1648 121.635 640.047 435.351
1825 1 63.2137 11.8803 751 111.099 639.945 469.326
1826 0 66.0879 11.7722 778 109.702 640.161 468.186
1827 0 68.2088 11.5088 785 109.266 640.721 469.499
1828 0 69.1724 11.5508 799 110.168 640.66 467.464
1829 0 73.132 11.5681 846 110.162 640.845 467.284
1830 0 75.0839 12.6791 952 109 641.084 463.445
1831 0 77.105 11.9966 925 110.357 640.251 466.609
1832 0 79.2592 12.6925 1006 110.356 640.221 464.584
1833 0 83.1287 14.4234 1199 107.711 640.239 463.264
1834 0 81.1916 12.3658 1004 123.539 639.953 461.729
1835 0 88.2037 13.2761 1171 111.133 639.959 456.161
1836 0 89.229 12.664 1130 114.157 640.174 456.535
1837 0 95.2237 14.0511 1338 109.698 640.28 454.059
1838 0 97.1834 13.1813 1281 113.72 640.742 453.797
1839 0 99.1814 11.847 1175 119.73 640.475 453.501
1840 0 102.277 11.1755 1143 122.136 640.511 452.4
1841 0 107.252 11.9439 1281 121.041 641.172 449.006
1842 1 59.2944 11.4682 680 113.124 640.806 474.171
1843 0 61.0857 11.4102 697 114.958 640.759 474.204
1844 0 63.0793 10.4947 662 117.64 641.005 472.958
1845 0 66.101 11.8455 783 115.428 640.65 471.713
1846 0 64.1218 10.5424 676 121.058 640.632 470.447
1847 0 70.1225 12.0646 846 117.394 640.171 468.104
1848 0 75.0615 11.9769 899 116.483 640.611 467.774
1849 0 76.1647 12.5911 959 116.684 640.364 464.523
1850 0 80.1606 12.8741 1032 114.265 640.104 463.706
1851 0 81.126 11.7595 954 118.004 640.013 462.009
1852 0 86.3189 13.6239 1176 112.52 640.461 463.304
1853 0 88.1586 11.6608 1028 118.76 640.512 460.168
1854 0 91.3645 12.4118 1134 119.095 639.886 454.101
1855 1 51.2312 11.575 593 112.954 640.202 475.015
1856 0 50.2955 10.7167 539 116.907 640.263 473.223
1857 0 52.2174 11.9117 622 116.336 640.349 474.161
1858 0 54.1133 11.5868 627 117.499 640.872 475.885
1859 0 56.4249 11.4666 647 118.445 640.131 472.675
1860 0 57.3439 11.8408 679 117.956 640.026 473.819
1861 0 60.2483 12.0003 723 117.881 640.145 471.862
1862 0 61.2975 12.8064 785 116.389 640.106 469.995
1863 0 64.3334 13.0725 841 117.219 639.843 469.957
1864 0 65.1368 11.5756 754 114.176 640.016 470.093
1865 0 68.1188 13.0801 891 110.476 640.255 469.964
1866 0 70.2358 12.3299 866 110.361 639.124 467.053
1867 0 72.2334 13.0411 942 111.467 639.211 464.462
1868 0 74.2585 12.1872 905 113.519 639.686 462.412
1869 0 77.402 12.5061 968 113.277 639.334 461.669
1870 0 79.2665 12.9058 1023 112.734 639.176 461.621
1871 0 81.2624 12.1089 984 115.5 639.634 460.082
1872 0 84.3291 13.5778 1145 110.491 639.658 459.069
1873 0 86.2376 12.1409 1047 113.737 639.317 459.579
1874 0 88.1931 12.4273 1096 114.13 639.146 456.805
1875 0 93.3456 12.9733 1211 111.656 639.659 458.689
1876 0 96.3663 13.0128 1254 113.118 639.144 453.207
1877 0 97.4746 13.1829 1285 112.877 639.064 453.53
1878 0 101.335 12.1774 1234 115.499 639.601 451.545
1879 0 103.127 12.3537 1274 116.528 639.351 448.291
1880 0 107.423 12.6136 1355 115.993 638.618 450.782
1881 1 60.1455 10.4746 630 112.333 639.275 474.065
1882 0 63.114 12.5012 789 110.878 638.648 473.411
1883 0 63.1151 11.9781 756 109.847 639.173 468.583
1884 0 64.1021 10.3585 664 112.25 639.548 465.953
1885 0 67.1673 11.4044 766 111.497 639.642 465.08
1886 0 71.1207 12.0078 854 109.34 639.945 464.152
1887 0 74.1315 12.4509 923 108.587 640.064 463.354
1888 0 74.218 11.5875 860 111.823 639.764 459.936
1889 0 78.2343 10.7625 842 114.011 639.66 459.512
1890 0 80.1346 12.3542 990 109.663 639.177 461.974
1891 0 81.1994 10.1232 822 116.493 638.768 460.706
1892 0 85.1227 11.1839 952 114.849 639.358 460.478
1893 0 88.1799 11.9302 1052 113.892 638.94 459.576
1894 0 90.181 10.4789 945 117.098 638.898 457.832
1895 0 94.2759 11.4982 1084 115.304 638.594 457.229
1896 0 96.1713 11.074 1065 117.01 638.662 453.485
1897 0 100.173 11.6598 1168 116.153 638.714 450.984
1898 0 104.227 11.9451 1245 115.824 639.07 448.178
1899 0 105.193 11.2745 1186 116.337 639.168 453.589
1900 1 60.0236 10.5292 632 117.896 638.654 471.646
1901 0 61.1076 9.40962 575 114.626 639.661 467.805
1902 0 63.1718 11.2234 709 112.324 640.515 467.079
1903 0 65.2447 11.8477 773 115.671 638.924 470.083
1904 0 67.1545 12.4638 837 114.122 639.612 468.969
1905 0 69.1641 12.9836 898 112.11 639.466 468.612
1906 0 72.1963 11.6626 842 110.572 639.514 468.998
1907 0 74.1635 12.7961 949 108.111 638.856 467.473
1908 0 74.2414 11.1663 829 111.778 639.469 466.309
1909 0 77.1539 11.6391 898 110.587 639.253 464.328
1910 0 81.2402 11.8045 959 108.819 639.478 463.419
1911 0 82.2874 12.6386 1040 108.2 639.422 460.796
1912 0 84.3502 11.3811 960 110.177 639.641 461.111
1913 0 87.2578 12.6751 1106 107.954 639.389 459.495
1914 0 89.1482 12.0922 1078 108.719 639.339 458.281
1915 0 92.154 12.4791 1150 108.238 639.368 456.578
1916 0 94.1884 11.4027 1074 110.32 639.6 455.64
1917 0 96.2418 11.1386 1072 111.66 639.619 445.173
1918 0 99.3503 11.9879 1191 109.881 639.444 450.544
1919 0 103.242 11.3326 1170 109.88 639.24 454.684
1920 0 107.217 12.9271 1386 107.312 639.79 446.374
1921 0 110.296 11.7321 1294 109.43 639.651 449.028
1922 0 112.228 10.9955 1234 111.65 639.209 444.843
1923 0 117.326 12.6741 1487 108.804 639.73 436.922
1924 0 120.243 13.1234 1578 107.084 639.077 440.024
1925 0 124.142 11.5996 1440 110.112 638.485 437.064
1926 0 130.267 12.1366 1581 108.013 639.081 436.579
1927 0 132.165 11.2133 1482 109.665 639.525 433.127
1928 1 73.048 10.719 783 104.321 638.732 460.959
1929 0 74.1285 10.6842 792 104.145 638.378 462.558
1930 0 75.0359 10.7282 805 105.82 638.103 456.838
1931 0 75.0359 10.8615 815 125.555 638.102 456.869
1932 0 82.0524 12.2605 1006 105.503 638.515 460.493
1933 0 85.2004 11.9953 1022 106.77 638.665 459.689
1934 0 89.0724 10.9125 972 109.327 638.843 458.831
1935 0 89.1451 11.0831 988 111.123 638.73 454.376
1936 0 93.1646 10.3902 968 110.862 639.494 456.529
1937 0 96.1864 11.8104 1136 109.721 639.058 452.275
1938 0 100.19 12.6759 1270 108.35 639.162 451.628
1939 0 105.138 12.9259 1359 108.166 639.614 450.721
1940 0 106.262 11.0764 1177 113.287 639.594 448.013
1941 0 110.284 11.7152 1292 111.851 638.9 448.657
1942 0 113.327 11.736 1330 112.079 639.604 445.9
1943 1 63.2172 10.978 694 106.942 639.638 468.732
1944 0 66.2298 11.7319 777 106.698 640.06 462.749
1945 0 66.0464 9.08453 600 103.4 640.983 462.698
1946 0 69.3193 10.0838 699 100.753 641.096 463.545
1947 0 71.1181 11.4317 813 98.8721 641.571 462.086
1948 0 72.0899 10.3898 749 112.264 642.283 468.579
1949 0 74.0399 10.6834 791 113.143 641.173 467.952
1950 0 76.0533 11.5577 879 111.633 641.124 466.684
1951 0 82.1314 12.2852 1009 109.873 641.589 463.834
1952 0 83.1512 12.3991 1031 111.641 641.49 461.181
1953 0 85.0722 13.1535 1119 111.607 641.027 460.215
1954 0 89.0976 13.0643 1164 111.46 641.162 459.522
1955 0 91.1161 12.4237 1132 113.588 641.576 459.44
1956 0 92.112 12.4305 1145 115.044 640.044 456.342
1957 0 96.1431 12.1798 1171 114.696 640.917 458.88
1958 0 98.0515 12.5342 1229 115.163 640.36 455.933
1959 0 102.118 12.603 1287 115.23 640.119 454.317
1960 0 104.144 11.9258 1242 117.698 640.595 454.095
1961 0 110.201 12.5498 1383 115.937 640.236 448.507
1962 0 112.141 12.6002 1413 115.987 640.337 448.094
1963 0 117.278 12.2785 1440 117.86 639.881 443.453
1964 0 120.162 11.9422 1435 115.707 640.936 445.094
1965 1 64.0409 10.8837 697 115.174 641.864 470.122
1966 0 67.1309 12.2 819 113.477 640.17 468.606
1967 0 66.0924 11.2116 741 112.873 640.355 462.744
1968 0 72.023 13.2041 951 110.521 638.783 467.557
1969 0 76.0231 12.6014 958 110.204 639.346 466.688
1970 0 75.0547 12.3643 928 112.658 638.85 464.784
1971 0 79.0924 12.4411 984 111.523 639.111 463.933
1972 0 81.1072 12.9705 1052 110.89 638.819 462.787
1973 0 84.1135 13.1608 1107 109.422 639.279 464.095
1974 0 87.0874 11.4598 998 113.476 639.463 461.006
1975 0 89.1652 13.5703 1210 109.421 639.131 459.987
1976 0 91.0358 12.4017 1129 112.563 639.562 457.721
1977 0 96.1192 14.3572 1380 107.419 639.117 456.533
1978 0 98.0686 13.4192 1316 109.091 639.188 453.989
1979 0 100.09 13.4779 1349 110.165 639.468 453.682
1980 0 103.111 14.3826 1483 109.765 638.983 451.161
1981 0 102.147 12.668 1294 116.335 639.291 450.778
1982 1 61.0676 12.5926 769 110.956 639.377 475.362
1983 0 60.0368 11.1432 669 114.643 639.622 473.33
1984 0 62.0897 12.1759 756 110.595 640.528 471.755
1985 0 63.034 11.4541 722 106.654 639.729 474.481
1986 0 67.0543 12.6166 846 102.604 640.193 471.216
1987 0 69.0934 10.8404 749 103.764 641.411 469.356
1988 0 69.1318 11.1815 773 105.31 639.996 463.705
1989 0 71.0981 10.4644 744 109.93 640.106 467.844
1990 0 75.0396 11.9803 899 107.159 640.434 465.88
1991 0 79.0364 12.45 984 103.564 639.898 466.578
1992 0 78.0737 10.9128 852 109.349 639.563 465.086
1993 0 82.0839 11.4517 940 107.401 639.703 464.271
1994 0 85.1037 11.3744 968 108.673 639.919 462.424
1995 0 88.1057 11.8721 1046 106.271 640.08 461.392
1996 0 92.1632 12.2826 1132 106.386 641.299 456.34
1997 0 93.1684 11.9998 1118 107.943 641.163 455.402
1998 0 99.0824 12.1111 1200 107.844 640.385 454.951
1999 0 102.161 12.6565 1293 107.199 640.392 453.173
2000 1 57.1194 11.7998 674 107.248 640.773 473.598
2001 0 61.1796 11.4581 701 106.552 638.703 470.97
2002 0 62.1273 11.8144 734 106.474 639.181 466.511
2003 0 63.1604 12.5078 790 106.541 640.376 472.694
2004 0 65.105 13.7317 894 103.931 640.183 471.542
2005 0 66.0661 12.7751 844 106.722 640.36 470.014
2006 0 68.0459 12.4916 850 107.309 640.451 468.358
2007 0 71.082 13.0272 926 106.41 640.556 468.173
2008 0 71.1264 12.4708 887 108.769 640.578 467.218
2009 0 73.1186 11.6797 854 110.013 640.158 466.631
2010 0 77.2725 13.2259 1022 106.506 639.93 466.138
2011 0 78.1244 12.1985 953 110.226 640.19 463.063
2012 0 84.1961 13.6586 1150 106.783 639.956 462.281
2013 0 85.1259 12.0645 1027 111.417 639.848 462.776
2014 0 87.1205 11.8227 1030 112.277 639.754 456.128
2015 0 90.1629 12.0338 1085 112.452 639.463 454.569
2016 0 92.1703 11.5655 1066 114.835 639.115 457.508
2017 0 95.1196 11.6695 1110 114.362 639.893 453.658
2018 0 98.114 12.6485 1241 113.348 639.794 451.376
2019 0 102.168 13.0765 1336 112.879 640.021 453.373
2020 1 55.1404 10.1559 560 113.15 638.391 472.63
2021 0 57.1211 11.1868 639 110.629 638.335 471.383
2022 0 59.1335 11.5671 684 112.113 638.659 470.301
2023 0 62.13 11.0575 687 112.86 640.603 471.646
2024 0 63.1202 12.8643 812 108.986 640.464 469.885
2025 0 66.1958 12.463 825 108.593 640.559 469.722
2026 0 68.1119 12.1565 828 108.941 640.471 468.356
2027 0 72.1207 12.6871 915 106.468 640.821 467.756
2028 0 75.2119 13.0963 985 105.115 640.702 466.255
2029 0 76.1595 12.6839 966 106.009 640.023 466.213
2030 0 76.2282 12.6462 964 107.541 640.584 464.38
2031 0 80.1294 12.5297 1004 106.835 641.311 464.077
2032 0 82.1392 12.3692 1016 107.767 640.821 461.003
2033 0 85.1242 14.473 1232 103.649 640.81 459.165
2034 0 87.1065 12.5823 1096 108.142 640.447 459.666
2035 0 89.1364 11.8695 1058 110.379 640.154 455.869
2036 0 92.1831 12.2148 1126 109.405 640.052 454.825
2037 0 95.2362 12.9363 1232 108.202 640.195 453.887
2038 0 96.1665 12.6447 1216 109.581 640.724 453.467
2039 0 99.1852 11.4332 1134 113.305 639.86 451.939
2040 0 103.117 12.2385 1262 112.97 640.19 450.32
2041 1 58.1758 10.0729 586 108.693 641.07 472.08
2042 0 59.1073 10.3202 610 109.5 641.205 469.228
2043 0 62.1631 10.4242 648 107.872 641.148 470.205
2044 0 64.0749 11.549 740 108.245 640.947 470.147
2045 0 66.1588 11.9561 791 107.317 641.11 469.081
2046 0 69.0538 12.1499 839 106.454 640.54 468
2047 0 73.1272 13.1962 965 104.135 640.426 465.58
2048 0 74.2035 12.4927 927 107.799 640.102 464.189
2049 0 77.0635 12.2756 946 109.397 640.039 464.264
2050 0 78.1391 12.1322 948 109.805 640.199 463.828
2051 0 81.2057 12.4252 1009 109.893 641.035 457.536
2052 0 84.1561 12.6788 1067 109.709 640.554 455.428
2053 0 83.1324 11.2231 933 116.175 640.825 457.581
2054 0 87.1364 12.0845 1053 115.102 640.748 455.267
2055 0 92.2305 12.8266 1183 114.769 639.912 458.842
2056 0 96.2481 12.4989 1203 116.567 639.775 457.917
2057 0 95.3167 11.9391 1138 120.526 639.807 455.511
2058 0 99.087 12.2418 1213 118.406 639.865 454.543
2059 0 101.094 12.1373 1227 121.719 639.435 453.677
2060 1 58.0303 10.6841 620 112.358 639.66 469.956
2061 0 58.0223 9.54805 554 119.406 639.249 472.5
2062 0 61.119 10.4059 636 114.151 640.234 475.057
2063 0 62.1257 11.1548 693 114.19 640.237 473.88
2064 0 63.0611 9.72073 613 116.811 640.55 473.212
2065 0 66.1593 10.0817 667 116.756 640.723 472.018
2066 0 68.2138 10.7603 734 116.134 640.612 469.244
2067 0 71.1451 11.5117 819 114.966 640.899 467.158
2068 0 72.0727 10.8779 784 116.619 640.614 467.249
2069 0 75.1031 11.0115 827 117.769 640.718 463.503
2070 0 79.1906 11.9964 950 113.737 640.055 464.9
2071 0 80.1465 10.3685 831 117.408 640.35 463.538
2072 0 82.1631 10.6982 879 118.421 640.698 460.477
2073 0 86.1361 11.5283 993 115.033 640.09 461.435
2074 0 89.1599 10.913 973 115.707 639.947 460.016
2075 0 90.2261 10.4626 944 116.793 640.309 459.142
2076 0 93.1774 12.5352 1168 113.39 639.907 454.151
2077 0 94.1374 10.1129 952 120.003 639.722 452.855
2078 0 97.191 10.6594 1036 118.356 639.387 454.58
2079 0 99.1918 11.2409 1115 117.566 639.703 452.442
2080 0 106.232 13.8941 1476 110.458 639.679 445.178
2081 0 107.281 12.6583 1358 115.149 638.998 446.661
2082 1 60.0728 8.97245 539 117.685 640.579 472.082
2083 0 66.1551 9.94633 658 114.883 639.43 469.556
2084 0 66.203 11.2835 747 110.782 639.293 466.819
2085 0 67.1233 10.4435 701 114.923 641.021 464.709
2086 0 68.1706 11.5446 787 112.867 641.278 467.055
2087 0 69.1167 11.5746 800 113.516 641.255 466.091
2088 0 73.0666 12.9882 949 109.932 641.164 464.542
2089 0 73.1501 10.745 786 116.274 640.718 462.874
2090 0 77.2308 11.4721 886 113.282 640.769 462.685
2091 0 78.1584 13.1272 1026 110.428 640.61 461.321
2092 0 81.1125 11.4162 926 115.054 640.984 458.532
2093 0 82.0817 11.318 929 115.554 641.038 459.933
2094 0 86.0798 12.2328 1053 112.548 640.512 457.022
2095 0 88.1277 12.3003 1084 113.099 640.994 456.078
2096 0 89.0518 11.4091 1016 116.5 640.76 453.846
2097 0 94.1516 11.7576 1107 115.502 640.63 454.561
2098 0 96.0856 10.9069 1048 117.43 640.688 453.753
2099 0 99.1611 11.1737 1108 117.09 640.57 452.242
2100 0 102.146 11.8556 1211 115.825 639.654 449.742
2101 1 57.0604 10.6028 605 116.817 640.782 472.378
2102 0 57.0681 10.8467 619 115.848 640.443 473.792
2103 0 58.3031 10.4969 612 111.773 639.049 470.575
2104 0 61.2081 11.6324 712 111.654 639.292 468.087
2105 0 64.0872 11.4375 733 115.33 638.221 470.965
2106 0 65.27 12.4406 812 113.702 638.95 468.626
2107 0 67.2234 13.1799 886 112.563 639.198 466.479
2108 0 68.1228 12.8738 877 114.617 639.694 465.743
2109 0 69.1317 11.8036 816 117.478 640.1 465.002
2110 0 73.1197 13.2933 972 113.263 639.814 465.446
2111 0 75.1629 12.6791 953 114.401 639.927 462.898
2112 0 76.11 13.5987 1035 113.507 639.715 463.19
2113 0 79.13 12.372 979 116.279 639.54 462.575
2114 0 83.1854 13.1754 1096 114.234 640.329 463.177
2115 0 82.1448 12.6484 1039 117.852 640.219 459.884
2116 0 88.1867 13.2786 1171 115.274 640.156 459.126
2117 0 89.0566 12.6773 1129 117.589 640.182 458.476
2118 0 93.1325 13.4003 1248 115.208 639.822 455.147
2119 0 96.1683 12.7589 1227 117.124 640.309 455.535
2120 0 99.1862 13.3184 1321 116.139 640.242 451.768
2121 0 101.103 12.9076 1305 118.498 640.082 451.926
2122 1 55.1651 9.75254 538 115.007 639.788 471.745
2123 0 57.2304 11.6546 667 111.64 639.654 467.208
2124 0 61.1598 9.97387 610 110.077 638.907 465.407
2125 0 61.1626 11.5266 705 107.661 639.217 467.53
2126 0 62.1318 10.7513 668 112.57 640.623 471.916
2127 0 67.1219 12.6933 852 106.322 640.606 472.631
2128 0 67.0889 12.312 826 109.499 640.155 468.49
2129 0 70.1909 12.5657 882 109.141 639.575 468.643
2130 0 72.1373 11.8524 855 111.91 640.193 466.974
2131 0 74.2432 12.3917 920 110.386 640.447 467.674
2132 0 75.1688 11.5739 870 114.874 639.955 465.956
2133 0 77.2035 12.4865 964 112.983 639.689 463.45
2134 0 82.1968 12.3241 1013 112.55 640.761 461.282
2135 0 83.0739 11.9532 993 115.363 639.871 460.861
2136 0 86.201 13.0393 1124 112.536 639.514 460.108
2137 0 89.1043 13.6582 1217 111.403 639.279 460.675
2138 0 92.1072 13.0283 1200 113.842 639.638 458.76
2139 0 93.177 12.8572 1198 115.155 639.194 459.227
2140 0 96.1886 12.278 1181 117.078 639.304 457.38
2141 0 101.151 13.6825 1384 113.303 639.14 454.182
2142 0 104.193 13.5998 1417 113.018 639.283 456.052
2143 0 106.174 13.2801 1410 115.432 639.486 451.913
2144 0 111.156 14.6821 1632 111.844 639.458 451.327
2145 0 114.304 13.3417 1525 116.427 638.917 448.191
2146 0 116.186 13.2976 1545 116.643 639.251 445.402
2147 0 120.412 13.3043 1602 117.73 639.135 444.633
2148 1 67.1378 12.3924 832 116.145 639.016 468.808
2149 0 70.0831 12.8419 900 115.706 639.586 469.127
2150 0 73.2621 14.0318 1028 112.391 639.091 466.427
2151 0 73.3018 12.8783 944 116.387 639.402 467.104
2152 0 76.2994 12.4772 952 118.268 639.759 463.532
2153 0 78.2419 12.6786 992 118.55 639.179 462.252
2154 0 80.4462 13.4624 1083 116.552 638.716 461.392
2155 0 82.2667 12.6661 1042 120.419 638.825 458.056
2156 0 87.2059 14.8958 1299 113.089 639.701 460.52
2157 0 88.2997 13.7713 1216 117.552 638.883 458.028
2158 0 89.2731 12.9154 1153 121.342 639.548 457.316
2159 0 94.3193 13.73 1295 118.605 639.496 455.254
2160 0 95.1365 13.7802 1311 119.537 640.035 451.745
2161 0 99.2332 13.5539 1345 119.037 639.295 449.549
2162 0 100.287 14.3389 1438 118.978 639.799 448.499
2163 0 104.133 13.9821 1456 119.591 639.457 448.558
2164 0 106.163 13.6488 1449 121.213 639.025 446.388
2165 0 110.213 14.6534 1615 118.051 639.191 443.786
2166 0 114.193 15.3161 1749 116.359 638.916 442.931
2167 0 117.197 13.8314 1621 121.002 638.553 441.312
2168 0 119.202 13.926 1660 121.884 638.619 439.759
2169 0 122.14 14.5079 1772 120.618 638.737 437.798
2170 0 127.315 13.6512 1738 123.423 638.731 436.534
2171 0 132.281 14.2424 1884 121.886 638.203 434.033
2172 1 75.1999 9.60108 722 127.727 638.503 461.824
2173 0 79.1668 11.381 901 121.23 638.948 466.118
2174 0 80.1524 12.3764 992 122.24 638.334 464.773
2175 0 82.1284 12.9066 1060 120.809 638.011 462.616
2176 0 86.1692 13.5315 1166 119.184 639.022 463.075
2177 0 90.1734 13.3521 1204 120.257 638.816 462.478
2178 0 91.3756 12.5198 1144 122.635 637.923 461.764
2179 0 94.3726 12.3023 1161 124.419 638.376 457.357
2180 0 97.2717 13.7964 1342 120.081 638.475 456.54
2181 0 100.263 12.4273 1246 124.092 638.592 454.793
2182 0 104.315 14.0439 1465 119.42 638.189 452.319
2183 0 106.31 12.52 1331 121.282 638.338 455.406
2184 0 109.255 12.3289 1347 122.06 638.177 451.533
2185 0 113.281 12.8794 1459 119.78 638.448 447.121
2186 0 118.282 13.7553 1627 115.926 638.273 446.337
2187 0 120.321 13.0235 1567 117.302 638.176 442.154
2188 0 130.248 15.0866 1965 108.496 637.893 430.755
2189 0 129.163 12.2094 1577 119.367 638.71 432.65
2190 1 70.1168 11.8374 830 110.667 639.749 468.898
2191 0 72.1379 12.4761 900 112.046 639.997 469.817
2192 0 72.1691 12.249 884 114.864 639.805 469.132
2193 0 77.0981 12.1663 938 112.936 639.905 469.243
2194 0 78.1656 11.6803 913 115.011 640.323 468.304
2195 0 81.2058 12.0681 980 113.961 640.37 464.613
2196 0 84.0992 13.4008 1127 111.244 639.964 463.797
2197 0 85.1342 13.6138 1159 110.363 639.995 466.062
2198 0 90.1119 12.2847 1107 111.229 639.756 462.396
2199 0 92.1512 12.078 1113 113.109 639.022 458.639
2200 0 94.2525 12.3286 1162 111.295 639.454 456.348
2201 0 98.076 11.7868 1156 114.167 638.89 457.3
2202 0 101.087 12.5239 1266 112.149 637.716 456.395
2203 0 102.127 11.6913 1194 115.233 638.58 453.794
2204 0 106.127 12.2777 1303 114.031 638.856 452.705
2205 0 111.133 12.1386 1349 112.761 639.165 448.616
2206 0 114.098 13.2606 1513 111.065 638.855 447.406
2207 1 63.1944 11.6624 737 118.737 639.003 471.217
2208 0 66.1851 14.0364 929 113.702 639.553 471.069
2209 0 66.1157 12.221 808 113.64 639.114 471.91
2210 0 69.1063 12.9945 898 112.227 639.366 470.667
2211 0 72.1932 12.425 897 113.008 640.133 469.012
2212 0 76.1061 13.4155 1021 110.854 639.842 465.91
2213 0 79.2014 12.4619 987 113.257 639.784 466.057
2214 0 82.0791 13.6454 1120 111.379 639.395 462.829
2215 0 81.176 13.4646 1093 113.469 639.475 462.059
2216 0 84.1739 12.4029 1044 116.948 639.178 460.247
2217 0 89.1094 14.0838 1255 113.873 639.283 458.91
2218 0 91.1199 13.6194 1241 115.801 640.181 457.682
2219 0 92.236 12.3596 1140 119.178 639.532 459.072
2220 0 96.1523 13.0106 1251 118.096 639.629 455.791
2221 0 99.1264 13.2154 1310 118.202 639.221 454.057
2222 0 102.121 13.4448 1373 117.599 640.293 454.824
2223 0 105.202 12.9465 1362 120.423 638.977 449.499
2224 0 109.173 13.3733 1460 118.646 639.61 451.973
2225 0 112.167 13.0074 1459 120.661 639.943 448.767
2226 0 116.183 13.3238 1548 120.153 640.15 449.872
2227 0 119.292 13.9489 1664 118.989 639.478 447.882
2228 1 65.1118 13.9453 908 117.662 639.814 472.758
2229 0 66.1345 14.4856 958 117.029 639.822 469.391
2230 0 67.079 13.5363 908 120.477 639.562 467.217
2231 0 71.1237 14.9458 1063 117.868 639.055 468.526
2232 0 71.1213 13.9621 993 121.119 639.185 469.588
2233 0 77.1319 14.728 1136 118.148 639.424 468.554
2234 0 78.0304 13.8536 1081 122.361 639.886 468.501
2235 0 81.1086 14.7703 1198 119.539 639.382 466.712
2236 0 83.0361 13.6808 1136 123.704 639.464 465.914
2237 0 86.1147 15.2123 1310 121.049 639.553 462.618
2238 0 88.1378 14.8177 1306 121.727 639.7 463.534
2239 0 90.058 13.991 1260 125.271 639.862 459.236
2240 0 93.1217 14.3253 1334 124.667 639.522 458.486
2241 0 99.1611 15.4294 1530 121.199 638.879 457.433
2242 0 98.227 15.2606 1499 122.963 639.107 456.545
2243 0 103.106 14.7712 1523 124.389 639.532 454.879
2244 0 107.113 15.2549 1634 123.204 639.516 451.226
2245 0 109.173 14.4817 1581 127.156 639.111 445.485
2246 0 112.116 14.6009 1637 126.134 639.64 445.904
2247 0 119.181 14.0543 1675 127.823 639.337 443.949
2248 1 61.1352 12.4315 760 127.647 639.51 470.845
2249 0 67.1042 12.8755 864 125.391 639.582 469.137
2250 0 69.0757 13.6372 942 123.41 640.004 470.124
2251 0 71.0842 14.2085 1010 124.108 639.093 468.681
2252 0 73.1399 13.0572 955 128.105 639.846 465.639
2253 0 74.2427 14.1428 1050 126.422 640.119 463.923
2254 0 79.2434 13.2251 1048 126.253 640.044 466.48
2255 0 83.2552 13.0082 1083 127.765 639.865 458.114
2256 0 85.2021 12.6405 1077 128.753 639.747 460.603
2257 0 87.1938 12.26 1069 129.283 640.05 459.826
2258 0 92.2674 13.5801 1253 126.736 639.738 459.439
2259 0 93.1855 13.8219 1288 127.283 639.754 455.663
2260 0 97.2548 12.5444 1220 129.728 640.268 458.413
2261 0 101.324 13.6295 1381 126.771 639.306 457.083
2262 0 99.3048 12.0437 1196 158.892 638.197 453.646
2263 0 106.287 13.981 1486 128.173 638.359 453.075
2264 0 111.183 13.4822 1499 129.47 638.703 454.69
2265 0 114.307 13.42 1534 131.332 637.795 451.997
2266 0 116.362 12.6502 1472 133.533 637.679 451.597
2267 0 122.437 13.95 1708 129.827 637.635 450.841
2268 1 64.1005 11.872 761 131.746 637.193 481.993
2269 0 65.0277 11.3798 740 134.862 636.984 482.157
2270 0 70.0814 13.784 966 127.763 637.389 481.198
2271 0 71.1436 12.791 910 132.641 636.886 478.731
2272 0 75.2091 13.1633 990 130.437 637.312 476.69
2273 0 79.2711 13.4097 1063 129.064 637.14 474.879
2274 0 81.314 13.4786 1096 130.888 636.953 472.11
2275 0 85.3371 12.8432 1096 131.836 636.699 471.172
2276 0 88.3416 13.7987 1219 128.868 636.427 471.013
2277 0 90.3522 14.4988 1310 128.058 635.803 468.947
2278 0 94.3641 13.4691 1271 130.84 635.802 467.948
2279 0 95.3156 12.6317 1204 134.811 635.28 467.225
2280 0 98.2868 12.9417 1272 136.763 634.625 462.11
2281 0 101.389 13.828 1402 133.261 634.682 462.997
2282 1 55.3603 11.0187 610 126.552 635.541 488.939
2283 0 56.1997 11.815 664 129.322 634.699 485.926
2284 0 58.1157 12.1998 709 128.162 634.398 484.169
2285 0 59.1259 12.5157 740 128.359 634.549 481.411
2286 0 63.2229 12.796 809 125.566 634.215 480.797
2287 0 63.2616 12.0452 762 128.219 634.516 478.579
2288 0 67.2123 12.8102 861 125.132 634.184 478.814
2289 0 69.2282 12.3071 852 126.66 633.495 477.541
2290 0 69.1887 11.4325 791 128.905 633.954 477.439
2291 0 73.1581 11.769 861 127.577 634.365 478.128
2292 0 77.1983 13.3034 1027 123.172 634.663 478.009
2293 0 76.2522 11.58 883 130.31 633.547 474.682
2294 0 81.1289 13.3615 1084 123.931 634.22 475.596
2295 0 84.1639 12.44 1047 126.346 634.554 475.579
2296 0 86.3022 12.4678 1076 128.293 634.581 469.435
2297 0 89.3212 13.5802 1213 125.176 634.747 469.988
2298 0 91.2048 12.7625 1164 127.555 634.088 469.102
2299 0 94.1521 12.9153 1216 126 633.956 468.83
2300 0 97.2331 13.5345 1316 125.554 634.125 466.39
2301 0 101.155 13.6227 1378 124.96 634.954 462.486
2302 0 104.261 13.0729 1363 127.648 634.355 459.904
2303 0 107.198 13.4144 1438 127.094 633.889 458.472
2304 0 111.135 13.5781 1509 126.825 633.776 456.672
2305 0 112.218 12.2351 1373 132.33 634.476 454.173
2306 0 117.227 13.3587 1566 130.125 633.955 453.536
2307 0 122.203 13.4858 1648 130.692 633.511 452.634
2308 0 123.306 13.7544 1696 131.92 633.653 450.526
2309 0 127.279 12.5001 1591 135.711 633.27 448.121
2310 0 133.208 14.1583 1886 132.473 633.636 445.539
2311 0 136.218 13.1921 1797 136.345 633.031 442.116
2312 0 141.178 13.2953 1877 137.267 633.519 436.711
2313 0 143.256 13.5981 1948 137.089 633.505 438.931
2314 0 147.241 12.8361 1890 140.446 633.382 433.051
2315 0 156.288 14.4669 2261 133.69 633.548 438.82
2316 0 158.222 14.4227 2282 137.71 633.653 431.677
2317 0 164.324 13.4733 2214 139.575 633.551 432.213
2318 0 171.345 14.8297 2541 138.301 633.688 412.963
2319 1 101.119 11.0859 1121 129.449 634.141 457.275
2320 0 103.25 11.3705 1174 129.267 633.708 458.627
2321 0 106.158 10.8894 1156 123.149 634.445 462.215
2322 0 105.173 10.0977 1062 125.585 634.513 459.626
2323 0 111.135 10.7077 1190 123.65 635.037 458.326
2324 0 116.175 9.99351 1161 122.773 634.226 460.18
2325 1 131.278 14.8083 1944 104.784 634.659 437.89
2326 0 133.174 14.5824 1942 111.019 634.72 442.243
2327 0 130.258 13.788 1796 117.46 634.692 441.117
2328 0 135.116 12.9074 1744 118.709 634.684 439.788
2329 1 78.0503 9.87824 771 115.58 633.735 473.947
2330 0 81.0854 10.8528 880 113.875 633.769 473.081
2331 0 84.1115 9.51118 800 115.931 635.518 470.945
2332 0 88.1786 11.1365 982 113.939 635.335 467.825
2333 0 89.2058 11.0419 985 120.466 634.144 465.179
2334 0 93.1674 9.76737 910 122.327 633.966 465.732
2335 0 95.1807 10.2016 971 122.693 633.622 462.005
2336 0 98.2262 11.0561 1086 120.775 634.071 456.861
2337 0 102.236 9.59545 981 124.236 634.549 456.579
2338 0 105.23 10.3488 1089 121.681 634.31 458.214
2339 0 108.141 10.1441 1097 117.88 634.995 455.795
2340 0 110.182 11.3812 1254 115.14 635.637 453.286
2341 0 115.199 10.5035 1210 116.805 635.112 453.043
2342 0 117.188 10.8458 1271 117.487 634.892 449.445
2343 0 120.147 10.92 1312 118.054 635.098 446.061
2344 0 124.281 9.736 1210 121.166 635.182 446.614
2345 0 127.217 10.9105 1388 119.031 634.642 441.105
2346 0 131.15 10.385 1362 119.656 635.544 438.711
2347 0 134.484 10.1202 1361 121.37 634.788 435.015
2348 0 139.299 9.77756 1362 122.068 634.956 432.709
2349 1 75.0656 10.9904 825 113.225 636.674 467.89
2350 0 75.0583 7.26102 545 112.703 636.141 464.978
2351 0 80.1851 10.6628 855 108.109 635.487 466.391
2352 0 82.1847 10.8536 892 108.697 636.26 464.335
2353 0 83.2046 9.45862 787 113.084 636.494 459.211
2354 0 86.1466 9.99459 861 113.631 636.59 462.977
2355 0 90.1587 12.0565 1087 110.817 636.656 461.502
2356 0 93.1234 11.3398 1056 114.725 637.255 459.27
2357 0 94.0607 11.4182 1074 115.016 637.431 460.679
2358 0 98.1466 12.4915 1226 113.082 637.804 457.272
2359 0 98.1077 11.4874 1127 119.179 638.652 453.984
2360 0 102.095 13.5364 1382 113.426 638.006 454.101
2361 0 105.089 12.3895 1302 116.294 638.65 452.814
2362 0 107.077 12.1222 1298 119.524 638.148 451.039
2363 0 110.139 12.6749 1396 117.779 638.337 452.213
2364 0 113.106 12.5634 1421 119.102 638.601 449.461
2365 0 113.137 11.6319 1316 122.631 638.728 445.574
2366 0 119.174 12.293 1465 120.843 638.414 440.793
2367 0 121.126 12.5572 1521 120.074 637.863 443.371
2368 0 125.192 12.4848 1563 119.558 637.335 443.358
2369 0 130.165 13.3139 1733 118.655 637.262 441.602
2370 0 134.264 13.1309 1763 121.11 637.954 439.951
2371 0 140.294 13.5572 1902 119.253 637.161 436.293
2372 1 77.107 10.7643 830 117.666 636.518 469.469
2373 0 78.0948 11.1659 872 118.369 636.281 467.142
2374 0 81.0802 10.7301 870 118.1 636.697 463.164
2375 0 84.037 13.3275 1120 115.03 638.552 464.128
2376 0 86.1508 13.8942 1197 114.028 638.683 462.231
2377 0 88.1113 13.7326 1210 115.131 638.34 461.07
2378 0 91.065 13.2543 1207 116.282 639.307 461.815
2379 0 93.0267 12.62 1174 117.865 638.52 460.317
2380 0 96.0451 13.4312 1290 114.573 638.111 460.694
2381 0 98.0457 13.1775 1292 116.584 638.843 457.028
2382 0 101.068 12.6351 1277 116.874 638.402 456.24
2383 0 104.053 14.2908 1487 113.612 638.353 453.722
2384 0 107.181 13.8457 1484 114.882 638.922 453.163
2385 0 109.07 14.5778 1590 114.76 639.043 451.949
2386 0 111.077 13.9992 1555 116.018 638.632 450.866
2387 0 114.137 14.1146 1611 116.279 638.3 448.776
2388 0 120.068 14.2252 1708 114.062 638.066 447.268
2389 0 123.093 14.6069 1798 113.741 637.959 444.334
2390 0 126.155 13.3566 1685 115.559 638.57 441.06
2391 0 129.106 13.3998 1730 113.841 638.401 440.138
2392 1 75.0878 12.6519 950 114.431 637.982 466.366
2393 0 77.0836 12.8821 993 113.593 636.844 467.209
2394 0 79.1129 13.841 1095 113.426 637.358 464.965
2395 0 81.1755 14.1915 1152 112.81 636.871 466.04
2396 0 85.0832 14.0216 1193 112.641 637.29 463.516
2397 0 87.093 13.1009 1141 115.84 636.843 461.92
2398 0 91.2021 14.0786 1284 112.546 637.562 461.535
2399 0 91.2021 14.0348 1280 145.775 639.562 461.591
2400 0 95.086 14.103 1341 110.716 637.286 461.408
2401 0 97.1176 13.8801 1348 112.179 637.244 460.164
2402 0 97.1537 12.8559 1249 117.068 637.275 457.507
2403 0 103.166 14.0841 1453 113.976 637.577 456.191
2404 0 104.223 13.5863 1416 116.098 637.073 454.839
2405 0 111.201 15.0718 1676 110.64 637.658 452.757
2406 0 110.261 13.5769 1497 116.546 637.606 451.426
2407 0 117.175 14.8155 1736 113.646 637.331 448.838
2408 0 119.098 12.6114 1502 117.997 637.598 447.376
2409 0 123.168 13.3638 1646 116.67 638.344 442.921
2410 0 129.14 14.5501 1879 112.578 638.702 443.366
2411 1 66.0958 12.2247 808 117.071 638.062 471.298
2412 0 67.1737 13.3832 899 113.573 637.794 470.315
2413 0 70.1109 13.7354 963 114.429 638.152 466.355
2414 0 73.1613 13.3267 975 115.163 638.228 465.989
2415 0 76.092 13.4705 1025 114.209 638.425 465.248
2416 0 77.1387 12.8859 994 116.491 638.58 463.35
2417 0 80.0965 12.2602 982 117.34 637.552 461.935
2418 0 84.2441 13.1523 1108 114.083 637.743 461.663
2419 0 87.0883 13.2165 1151 113.792 638.102 460.854
2420 0 89.072 14.1459 1260 110.775 638.435 460.748
2421 0 93.1354 13.8723 1292 112.168 638.029 458.038
2422 0 95.1798 13.9315 1326 111.468 637.952 457.715
2423 0 99.0982 14.2384 1411 110.159 638.638 456.611
2424 0 103.135 13.5357 1396 111.544 637.951 452.499
2425 0 106.202 13.4083 1424 111.502 638.179 452.188
2426 0 110.333 12.562 1386 113.559 638.766 449.42
2427 0 113.217 12.9397 1465 112.939 638.747 447.45
2428 1 63.0832 12.8719 812 115.701 638.244 469.139
2429 0 65.1338 13.3571 870 114.586 638.03 468.532
2430 0 69.1448 14.4769 1001 111.532 638.088 467.337
2431 0 72.1413 13.6122 982 114.813 638.011 466.232
2432 0 71.1394 13.2838 945 117.242 638.169 465.483
2433 0 75.0439 12.566 943 118.986 637.667 464.128
2434 0 77.0384 13.8502 1067 117.751 637.475 461.12
2435 0 81.1024 14.0316 1138 116.395 637.49 462.756
2436 0 84.1211 14.0868 1185 118.216 637.873 459.556
2437 0 86.1066 13.5646 1168 120.231 637.631 458.896
2438 0 92.1757 15.1341 1395 115.913 637.351 456.77
2439 0 92.1761 14.5482 1341 121.036 637.836 452.262
2440 0 96.239 14.6095 1406 122.251 637.503 452.059
2441 0 99.2206 14.1201 1401 124.181 637.971 453.2
2442 0 103.142 15.1054 1558 123.234 638.269 450.369
2443 0 104.082 14.4021 1499 127.963 638.59 448.293
2444 1 56.1198 12.7941 718 132.437 638.726 471.408
2445 0 60.2215 12.7031 765 132.358 638.596 471.246
2446 0 61.2377 13.864 849 132.352 638.25 469.087
2447 0 63.085 13.9336 879 133.686 638.526 467.709
2448 0 66.1892 15.365 1017 129.053 638.302 466.917
2449 0 69.1641 14.3861 995 131.929 637.738 465.066
2450 0 71.1962 13.9333 992 135.096 637.658 464.232
2451 0 74.0698 14.1893 1051 134.644 637.819 462.622
2452 0 77.0915 14.139 1090 136.281 637.093 461.856
2453 0 77.0391 14.7847 1139 136.081 637.594 459.909
2454 0 82.1065 15.3094 1257 133.654 637.724 459.656
2455 0 85.0698 14.5175 1235 136.445 638.706 457.115
2456 0 87.0862 14.6062 1272 137.8 637.965 457.164
2457 0 89.0387 13.8479 1233 142.084 637.893 454.85
2458 0 93.1407 14.9559 1393 138.821 638.379 453.518
2459 0 94.1439 14.8921 1402 141.016 637.865 451.128
2460 0 97.0967 15.397 1495 142.028 637.324 449.453
2461 0 102.132 15.8129 1615 138.68 637.357 448.637
2462 0 104.092 14.3718 1496 144.175 638.095 447.158
2463 0 109.089 15.5927 1701 138.707 638.482 446.885
2464 0 116.126 15.5263 1803 138.47 637.933 441.397
2465 0 117.118 14.9251 1748 141.108 637.495 442.851
2466 0 124.1 15.1571 1881 140.499 638.517 440.671
2467 0 128.17 15.6667 2008 139.733 638.198 435.969
2468 0 133.188 15.0389 2003 141.983 638.242 435.209
2469 1 76.0589 14.068 1070 141.886 639.078 459.925
2470 0 80.0902 14.0467 1125 140.723 638.539 459.58
2471 0 79.1356 13.698 1084 146.073 637.988 456.645
2472 0 84.1528 13.7488 1157 140.649 638.175 456.136
2473 0 86.1568 13.3362 1149 143.305 638.044 453.265
2474 0 89.0794 13.9314 1241 140.274 637.787 451.521
2475 0 94.1085 14.1007 1327 138.582 637.535 448.514
2476 0 94.094 12.4662 1173 143.788 637.809 446.17
2477 0 101.155 13.2568 1341 140.094 638.107 443.55
2478 0 102.116 12.7698 1304 140.902 637.969 443.85
2479 0 108.261 14.5297 1573 134.705 638.046 443.146
2480 0 112.241 13.7918 1548 137.266 637.873 438.817
2481 0 116.098 15.3146 1778 131.714 637.746 432.78
2482 0 117.202 13.481 1580 139.295 638.21 433.422
2483 0 122.308 13.3924 1638 139.164 638.038 432.556
2484 0 127.378 14.2568 1816 136.957 637.77 429.483
2485 0 130.196 14.2401 1854 136.641 638.102 426.69
2486 0 136.239 13.1901 1797 138.874 637.731 422.131
2487 0 142.362 14.0206 1996 135.248 637.67 423.039
2488 1 81.1709 11.2479 913 128.549 637.112 457.738
2489 0 83.3299 12.3125 1026 126.673 637.302 460.105
2490 0 84.1496 11.0993 934 120.101 638.946 459.075
2491 0 88.0883 11.216 988 120.545 639.329 455.172
2492 0 88.1946 10.6696 941 123.52 639.254 454.141
2493 0 94.1382 11.1326 1048 121.925 639.029 454.087
2494 0 96.1476 10.5359 1013 124.652 638.633 451.07
2495 0 98.1355 11.0867 1088 123.457 638.429 447.554
2496 0 101.048 11.0541 1117 123.329 638.407 445.021
2497 0 105.14 12.1172 1274 121.626 638.326 445.449
2498 0 113.241 14.2881 1618 113.145 638.27 437.576
2499 0 113.22 11.5527 1308 124.766 638.19 436.388
2500 0 116.135 11.3833 1322 126.054 638.107 439.003
2501 0 120.169 11.7668 1414 125.036 638.475 431.984
2502 0 123.196 12.2 1503 123.482 638.422 435.765
2503 0 127.164 12.1732 1548 126.886 638.284 426.967
2504 0 132.231 12.6748 1676 125.199 638.198 428.31
2505 0 134.244 11.5089 1545 130.027 638.084 420.362
2506 0 140.332 10.9811 1541 128.982 637.99 422.152
2507 0 143.205 11.0681 1585 129.239 637.372 417.976
2508 0 152.305 11.9563 1821 127.108 637.752 413.969
2509 1 87.1559 9.00685 785 121.325 638.65 449.746
2510 0 91.2241 10.4578 954 117.316 638.591 452.937
2511 0 89.1774 8.45506 754 124.237 638.859 449.07
2512 0 97.1471 10.8392 1053 118.614 638.512 448.368
2513 0 101.162 9.80604 992 122.079 637.895 446.241
2514 0 102.247 10.6507 1089 121.21 638.349 447.636
2515 0 104.252 10.5322 1098 121.292 638.818 441.803
2516 0 108.118 10.2758 1111 124.182 638.578 440.533
2517 0 112.24 11.8852 1334 120.166 638 442.836
2518 0 112.111 9.93654 1114 127.979 638.182 435.753
2519 0 118.188 11.4817 1357 124.035 638.374 438.657
2520 0 123.143 11.4745 1413 125.391 638.405 435.012
2521 0 125.195 10.927 1368 127.498 638.548 435.315
2522 0 130.29 12.2649 1598 125.568 638.124 430.912
2523 0 135.22 13.8367 1871 121.324 638.98 431.342
2524 0 137.249 12.3935 1701 128.138 638.369 428.981
2525 0 142.334 12.8431 1828 127.577 638.397 426.316
2526 0 146.465 13.1362 1924 129.567 638.68 426.205
2527 0 150.467 13.4248 2020 130.435 638.721 423.079
2528 0 157.418 12.3303 1941 133.998 638.917 420.005
2529 1 89.4331 10.3988 930 130.924 639.651 452.942
2530 0 92.2427 10.6458 982 121.634 639.08 451.954
2531 0 94.1073 10.0417 945 123.563 638.046 448.858
2532 0 99.2444 11.1341 1105 120.729 638.351 447.716
2533 0 100.193 11.1984 1122 122.857 638.984 445.065
2534 0 104.259 10.7808 1124 123.896 638.14 445.328
2535 0 108.294 11.4134 1236 124.445 638.76 442.146
2536 0 109.372 10.99 1202 126.134 639.245 440.191
2537 0 113.187 10.5224 1191 132.222 639.207 442.704
2538 0 115.306 10.2163 1178 134.384 638.893 439.958
2539 0 121.413 11.0615 1343 131.814 638.507 438.353
2540 0 124.717 11.3456 1415 132.838 638.077 430.042
2541 0 128.472 10.6872 1373 135.716 638.15 427.442
2542 0 133.405 12.031 1605 131.888 638.108 427.032
2543 0 136.477 12.2658 1674 131.901 637.959 424.658
2544 1 79.2438 9.46446 750 122.46 638.525 458.681
2545 0 79.2576 9.6773 767 125.628 638.512 456.771
2546 0 84.2732 9.51666 802 124.613 639.006 455.181
2547 0 84.2001 10.2613 864 124.715 638.888 452.671
2548 0 88.2008 11.3945 1005 120.779 639.199 456.659
2549 0 90.2587 11.0793 1000 123.229 639.246 453.002
2550 0 92.2199 10.7569 992 125.534 639.113 448.935
2551 0 97.0671 11.6208 1128 124.035 640.105 449.788
2552 0 99.2541 11.0424 1096 126.269 640.6 446.174
2553 0 101.248 10.5582 1069 128.196 640.505 443.032
2554 0 105.386 11.3298 1194 125.217 640.472 442.5
2555 0 106.374 10.5571 1123 128.766 639.725 440.176
2556 0 110.286 12.0142 1325 125.21 640.183 439.224
2557 0 114.345 12.2874 1405 124.09 640.022 438.452
2558 0 118.406 11.4268 1353 126.555 639.738 437.585
2559 0 120.346 12.0403 1449 127.529 639.867 432.611
2560 0 127.37 14.2655 1817 119.289 640.025 428.962
2561 0 126.229 11.289 1425 129.658 640.641 431.379
2562 0 131.287 11.4254 1500 129.124 640.089 426.531
2563 0 135.174 12.4062 1677 126.116 639.793 426.036
2564 0 139.302 11.1197 1549 124.877 639.954 425.977
2565 0 143.302 10.8791 1559 127.654 640.419 422.05
2566 0 149.221 11.2987 1686 129.403 639.709 420.621
2567 1 87.173 11.0241 961 118.39 640.09 453.791
2568 0 87.173 10.9896 958 129.018 639.101 453.646
2569 0 94.2778 12.5798 1186 119.099 637.95 447.083
2570 0 97.2944 12.9812 1263 118.099 638.215 445.215
2571 0 99.1054 13.4201 1330 119.184 637.402 446.848
2572 0 103.166 13.5025 1393 119.168 638.057 445.192
2573 0 103.146 12.6714 1307 122.66 638.873 444.735
2574 0 108.123 13.5864 1469 120.174 639.052 442.17
2575 0 112.149 13.6872 1535 119.842 639.067 441.833
2576 0 115.172 12.7549 1469 120.84 639.137 438.392
2577 0 117.15 12.3773 1450 122.254 638.483 431.497
2578 0 120.178 13.1055 1575 120.029 637.913 433.41
2579 0 124.118 12.0611 1497 123.39 638.223 431.259
2580 0 127.353 11.8568 1510 125.504 638.959 428.458
2581 0 131.482 14.6255 1923 118.711 639.652 428.462
2582 0 133.344 13.4764 1797 119.329 638.484 423.433
2583 0 133.345 13.4238 1790 137.443 637.503 423.49
2584 1 73.1078 8.84995 647 116.159 640.216 452.87
2585 0 80.0923 11.8988 953 108.019 640.685 460.147
2586 0 80.0629 11.9031 953 109.604 640.674 458.332
2587 0 82.1188 12.4454 1022 108.871 640.872 456.03
2588 0 85.0834 11.5416 982 111.83 641.163 457.148
2589 0 86.1561 12.4541 1073 111.59 640.7 453.633
2590 0 90.1787 12.575 1134 112.339 640.794 451.395
2591 0 92.214 11.3974 1051 116.788 640.787 450.926
2592 0 96.1299 12.868 1237 112.503 640.17 450.374
2593 0 98.1492 12.6644 1243 115.086 640.65 446.923
2594 0 99.1775 14.227 1411 112.127 639.989 446.432
2595 0 101.142 13.8716 1403 114.4 640.352 444.404
2596 0 102.192 11.5078 1176 122.396 639.904 443.593
2597 0 108.263 13.4395 1455 115.81 640.154 442.752
2598 0 108.256 12.4704 1350 121.145 639.912 439.668
2599 0 111.209 12.2112 1358 122.587 640.445 440.682
2600 0 113.291 13.4962 1529 122.031 640.073 436.37
2601 0 116.168 12.7746 1484 124.094 640.646 439.595
2602 0 119.17 13.5185 1611 123.337 639.672 436.98
2603 0 121.267 13.0044 1577 124.888 640.243 436.075
2604 0 124.152 13.3385 1656 124.176 640.254 432.35
2605 0 125.189 12.6049 1578 125.677 640.625 431.65
2606 0 131.263 11.9379 1567 126.429 639.964 426.777
2607 0 135.311 12.2459 1657 123.561 640.347 427.263
2608 1 79.2167 10.4523 828 118.79 640.165 451.541
2609 0 80.2398 10.2817 825 118.328 640.678 451.525
2610 0 82.2404 10.4936 863 118.394 640.954 449.754
2611 0 86.1644 11.7566 1013 115.478 640.948 449.714
2612 0 89.1862 12.4571 1111 113.086 640.355 449.269
2613 0 90.3003 11.8161 1067 115.255 640.774 445.992
2614 0 93.2458 11.8504 1105 115.246 640.722 444.83
2615 0 95.4147 12.2203 1166 114.22 640.654 446.372
2616 0 98.1669 11.5518 1134 114.782 640.905 445.789
2617 0 101.241 12.248 1240 114.711 641.241 443.161
2618 0 104.119 12.8987 1343 113.647 640.773 439.982
2619 0 105.108 12.2635 1289 115.946 640.588 441.379
2620 0 110.138 12.9383 1425 112.698 640.109 438.284
2621 0 111.233 12.766 1420 115.091 640.053 434.887
2622 0 113.255 11.8582 1343 116.888 640.541 436.226
2623 0 121.274 15.4609 1875 106.703 639.657 427.148
2624 0 122.233 13.6787 1672 112.836 640.042 428.785
2625 0 123.193 14.0755 1734 113.495 639.962 427.719
2626 0 128.223 13.6169 1746 114.563 639.808 423.888
2627 0 134.224 12.6431 1697 116.721 640.1 422.419
2628 0 137.127 12.7838 1753 116.663 640.03 425.113
2629 0 144.211 12.8908 1859 117.348 639.769 420.1
2630 0 147.243 12.7476 1877 118.054 639.737 413.52
2631 0 158.183 12.3401 1952 116.714 639.234 417.172
2632 0 165.268 15.9983 2644 106.607 638.816 407.82
2633 0 165.308 14.8208 2450 111.822 638.913 409.567
2634 1 92.2115 10.2699 947 111.713 638.9 449.427
2635 0 96.2512 10.6908 1029 113.104 638.457 448.055
2636 0 100.421 11.1431 1119 111.408 638.477 449.028
2637 0 101.23 10.5503 1068 113.717 638.077 444.577
2638 0 106.288 11.6759 1241 111.5 637.829 442.672
2639 0 110.27 12.7415 1405 105.712 637.604 440.441
2640 0 111.237 11.0485 1229 112.195 637.799 437.815
2641 0 118.259 11.923 1410 109.53 637.474 442.378
2642 0 120.358 10.9091 1313 111.711 638.132 442.092
2643 0 124.301 10.6355 1322 112.645 637.182 439.486
2644 0 129.315 12.5507 1623 108.431 636.975 436.277
2645 0 131.319 11.4226 1500 112.635 637.481 432.337
2646 0 139.235 12.2024 1699 111.323 637.244 431.431
2647 0 140.501 11.9501 1679 113.596 637.694 428.646
2648 1 79.225 9.69391 768 114.242 637.154 458.842
2649 0 84.1951 12.8749 1084 105.049 637.31 458.745
2650 0 85.1535 11.4264 973 109.207 636.6 459.255
2651 0 90.1141 12.1069 1091 108.224 636.896 457.378
2652 0 92.14 12.1771 1122 109.35 637.039 457.449
2653 0 95.1183 13.7303 1306 106.606 636.083 457.073
2654 0 96.2127 13.5533 1304 108.535 636.492 451.703
2655 0 99.1144 13.661 1354 109.552 637.222 451.135
2656 0 102.205 13.874 1418 109.867 636.621 450.293
2657 0 105.267 13.6415 1436 111.561 636.486 448.579
2658 0 106.158 12.6321 1341 115.695 636.884 448.618
2659 0 110.156 13.5989 1498 113.28 636.579 448.475
2660 0 115.312 13.6846 1578 113.591 636.969 443.383
2661 0 116.319 13.5575 1577 115.209 636.474 441.763
2662 0 120.177 12.7312 1530 117.744 636.53 440.916
2663 0 124.157 13.6521 1695 115.184 637.273 442.212
2664 0 126.353 12.8291 1621 119.833 636.95 431.121
2665 0 131.383 13.8602 1821 115.808 637.389 434.731
2666 0 134.406 13.0574 1755 118.271 637.016 428.011
2667 1 72.3062 9.84701 712 115.399 637.157 453.892
2668 0 73.2243 9.65526 707 116.465 637.283 454.917
2669 0 78.2262 12.6556 990 113.991 637.442 462.41
2670 0 81.1263 12.3881 1005 114.398 638.057 462.859
2671 0 84.2117 12.9317 1089 113.513 637.766 461.979
2672 0 85.1882 12.5839 1072 116.01 637.477 460.073
2673 0 89.251 13.1651 1175 113.752 638.159 460.967
2674 0 90.1634 12.3553 1114 117.434 638.24 458.54
2675 0 93.0721 12.4635 1160 118.204 638.25 456.175
2676 0 95.1312 12.8349 1221 117.433 638.479 455.399
2677 0 98.1839 12.334 1211 119.51 638.282 452.521
2678 0 99.2588 12.3113 1222 120.93 637.808 452.284
2679 0 102.239 12.2067 1248 120.819 637.926 450.94
2680 0 105.072 12.2106 1283 120.81 638.138 448.159
2681 0 109.332 13.2166 1445 117.947 637.858 448.527
2682 0 111.205 12.3826 1377 120.537 637.842 447.052
2683 0 116.315 12.5091 1455 117.223 637.909 446.64
2684 0 117.125 12.0469 1411 114.85 638.546 440.588
2685 0 121.119 11.8644 1437 115.743 637.755 436.873
2686 0 126.154 12.1836 1537 115.762 638.081 436.476
2687 0 130.22 11.2502 1465 118.396 637.784 436.362
2688 1 76.1828 10.4486 796 114.776 638.602 463.415
2689 0 76.0453 11.2959 859 117.12 639.107 461.737
2690 0 81.1008 11.8988 965 115.537 639.196 463.541
2691 0 83.1243 11.5009 956 117.818 638.799 460.988
2692 0 86.1066 12.7633 1099 116.015 639.338 459.097
2693 0 87.1121 10.894 949 119.928 638.985 456.643
2694 0 93.1667 11.3238 1055 119.303 639.171 455.598
2695 0 95.2081 11.165 1063 120.612 638.592 454.314
2696 0 96.2035 11.7251 1128 121.49 638.741 451.801
2697 0 98.0971 12.0085 1178 121.402 639.152 449.99
2698 0 101.173 11.8411 1198 122.609 638.82 448.586
2699 0 104.155 11.7997 1229 122.845 639.115 449.125
2700 0 106.344 11.8577 1261 124.546 639.024 446.915
2701 0 110.15 12.2378 1348 124.594 638.503 444.589
2702 0 111.173 12.2332 1360 126.069 638.612 442.48
2703 0 112.132 11.9056 1335 127.164 638.761 440.842
2704 0 118.11 12.3613 1460 125.558 638.477 440.225
2705 0 119.074 12.6308 1504 126.412 638.584 435.687
2706 0 123.098 12.3723 1523 127.204 638.382 435.342
2707 0 126.08 12.2144 1540 127.166 638.599 431.644
2708 0 131.16 12.2446 1606 126.636 638.083 431.414
2709 0 137.248 13.013 1786 120.605 638.006 430.374
2710 0 141.221 13.2275 1868 119.209 637.769 427.826
2711 1 79.1586 10.0431 795 119.265 638.865 459.585
2712 0 81.2187 11.4382 929 118.691 638.816 454.307
2713 0 84.2318 12.0145 1012 119.494 638.393 459.608
2714 0 85.2677 10.3673 884 125.895 637.919 457.751
2715 0 91.171 11.8349 1079 121.462 637.939 455.316
2716 0 92.1909 11.6931 1078 123.35 638.467 454.855
2717 0 96.1884 12.6523 1217 121.399 638.5 454.71
2718 0 97.2248 11.7768 1145 123.898 638.231 454.801
2719 0 101.282 13.9117 1409 119.711 638.093 451.062
2720 0 103.231 14.5402 1501 119.254 637.921 449.225
2721 0 106.212 13.426 1426 123.081 637.997 446.58
2722 0 108.252 13.5332 1465 123.623 637.732 444.766
2723 0 111.223 13.1897 1467 124.29 638.44 444.952
2724 0 115.391 12.8866 1487 126.184 638.26 440.658
2725 0 117.278 13.8475 1624 123.471 638.263 441.153
2726 0 119.273 13.9176 1660 124.17 637.984 437.913
2727 0 122.12 12.8971 1575 122.109 638.175 435.775
2728 0 124.108 13.8428 1718 120.846 638.021 436.122
2729 0 127.29 11.7841 1500 124.9 637.869 437.387
2730 0 132.279 13.0558 1727 122.096 638.856 431.86
2731 0 135.2 12.3595 1671 123.905 639.106 429.005
2732 0 141.333 14.0165 1981 119.073 638.501 428.153
2733 0 141.164 12.2836 1734 125.107 638.447 423.106
2734 0 148.276 13.6165 2019 121.155 638.483 423.763
2735 0 153.365 14.1753 2174 119.414 638.179 423.157
2736 0 156.271 13.1567 2056 123.445 638.306 417.232
2737 0 162.234 14.9229 2421 118.543 638.159 415.879
2738 0 166.21 13.7537 2286 121.938 638.641 411.533
2739 0 171.246 14.1259 2419 120.554 638.596 409.125
2740 0 175.232 14.2269 2493 120.891 638.678 403.165
2741 0 179.154 15.3443 2749 117.475 638.616 403.632
2742 0 183.19 13.9255 2551 121.181 638.243 404.305
2743 0 187.228 11.5314 2159 127.111 638.57 402.378
2744 0 195.275 13.4579 2628 122.303 638.619 396.849
2745 0 202.243 14.2205 2876 119.393 639.04 394.405
2746 0 207.31 13.0384 2703 122.204 638.959 388.952
2747 1 45.0427 7.10436 320 108.638 637.738 468.547
2748 0 54.2763 10.1886 553 103.081 639.504 471.024
2749 0 55.1422 10.1737 561 103.711 638.289 472.674
2750 0 56.1583 9.27735 521 104.39 638.793 471.964
2751 0 59.3371 11.0723 657 99.9208 638.842 471.181
2752 0 59.1288 9.52159 563 103.078 639.794 469.86
2753 0 64.1767 10.923 701 99.806 638.355 472.559
2754 0 63.2594 9.99061 632 104.941 638.983 467.816
2755 0 68.3611 13.5896 929 95.3907 639.041 467.554
2756 0 67.1393 10.7687 723 103.046 638.616 469.426
2757 0 69.1848 11.4765 794 102.113 638.44 465.989
2758 0 73.4597 11.8568 871 100.033 639.199 466.327
2759 0 74.5268 11.043 823 102.079 638.996 465.126
2760 0 77.3108 12.9995 1005 98.2308 638.073 463.349
2761 0 78.2348 11.7083 916 101.611 638.186 458.94
2762 0 79.275 12.526 993 100.27 638.621 459.209
2763 0 83.2805 12.1397 1011 100.157 638.45 458.762
2764 0 84.2713 12.5191 1055 102.466 637.953 429.729
2765 0 89.381 12.7544 1140 100.802 638.451 429.539
2766 0 92.2286 12.7076 1172 101.157 638.293 430.003
2767 0 91.3124 13.9302 1272 98.7303 638.149 435.083
2768 0 91.3904 11.3797 1040 102.236 638.379 443.823
2769 0 96.3599 12.0382 1160 100.418 638.655 453.434
2770 0 100.423 12.3976 1245 99.0313 639.578 453.802
2771 0 102.362 11.3225 1159 101.71 639.267 446.526
2772 0 103.392 11.0356 1141 103.103 638.827 442.746
2773 0 107.198 12.3883 1328 99.6205 638.688 446.395
2774 0 109.264 10.9643 1198 102.178 638.783 446.013
2775 0 113.309 12.0467 1365 99.9245 638.963 445.674
2776 0 115.233 12.9564 1493 99.1929 638.875 443.914
2777 0 118.175 12.2277 1445 101.507 639.06 441.293
2778 0 122.224 12.1498 1485 101.788 638.844 437.209
2779 0 126.276 11.3957 1439 101.168 638.57 441.855
2780 0 130.201 12.6574 1648 99.449 638.806 437.032
2781 0 136.317 12.0748 1646 99.9976 638.257 433.798
2782 1 82.1216 11.3734 934 99.242 638.382 458.157
2783 0 85.3266 12.3525 1054 98.5038 637.835 458.68
2784 0 85.2326 11.3337 966 101.062 638.697 457.669
2785 0 86.1524 10.7484 926 102.87 638.308 454.747
2786 0 91.1559 10.4875 956 102.439 638.495 451.758
2787 0 92.1242 12.0055 1106 99.3101 639.424 454.429
2788 0 97.2261 13.1446 1278 97.6479 639.001 450.73
2789 0 100.173 11.8995 1192 100.408 639.223 449.433
2790 0 102.122 13.2488 1353 97.8736 639.974 447.416
2791 0 105.225 13.1433 1383 98.0029 639.317 445.49
2792 0 109.158 12.6422 1380 99.0725 639.304 443.284
2793 0 113.18 13.0323 1475 98.2834 639.092 444.216
2794 0 114.384 11.4352 1308 102.711 639.499 441.164
2795 0 117.097 13.7407 1609 97.8639 639.003 441.784
2796 0 119.16 12.6637 1509 101.285 639.332 435.51
2797 0 124.148 13.2744 1648 99.6129 639.129 435.127
2798 0 130.381 12.732 1660 99.862 638.99 433.598
2799 0 133.151 11.8813 1582 101.128 638.427 433.111
2800 0 139.247 13.2714 1848 98.7614 639.127 429.857
2801 0 141.219 13.1781 1861 99.8431 638.951 427.023
2802 0 146.289 12.2839 1797 101.829 638.377 425.223
2803 0 149.234 13.1069 1956 101.126 637.386 418.406
2804 0 155.453 12.9686 2016 101.546 637.908 420.526
2805 0 161.372 13.0506 2106 101.59 637.833 419.905
2806 0 163.19 12.2985 2007 104.778 637.932 413.076
2807 0 172.329 11.7392 2023 106.652 638.298 413.416
2808 0 175.429 12.5635 2204 106.945 637.868 411.392
2809 0 182.244 13.1197 2391 106.594 638.202 408.507
2810 0 185.306 14.4626 2680 105.128 637.998 405.307
2811 0 190.301 12.6168 2401 109.116 637.71 401.849
2812 0 196.5 12.4733 2451 109.607 638.07 399.488
2813 0 201.309 13.8096 2780 107.166 638.275 398.612
2814 0 208.561 13.6507 2847 107.947 637.948 394.2
2815 0 216.455 12.7786 2766 108.866 638.206 388.108
2816 0 226.577 12.7065 2879 108.488 638.282 388.484
2817 0 233.558 14.0008 3270 106.286 637.562 382.176
2818 1 177.599 12.5395 2227 108.475 638.235 410.743
2819 0 184.466 12.36 2280 109.238 637.869 406.722
2820 0 191.74 13.8156 2649 107.239 638.031 403.1
2821 0 195.544 11.358 2221 112.239 638.287 406.775
2822 0 204.61 14.3052 2927 107.531 638.13 398.605
2823 0 210.498 13.7103 2886 109.82 637.622 393.41
2824 0 218.682 13.2156 2890 111.271 637.353 393.271
2825 0 223.393 12.5608 2806 113.742 636.599 389.405
2826 0 232.519 13.3925 3114 111.68 637.225 390.547
2827 0 241.476 14.0552 3394 110.585 637.217 385.065
2828 0 248.469 14.2835 3549 112.03 637.579 376.842
2829 0 256.396 15.1913 3895 110.309 637.184 378.681
2830 0 265.6 14.7327 3913 111.163 637.167 373.618
2831 0 274.494 14.9184 4095 111.207 637.543 365.986
2832 0 280.504 12.6986 3562 115.627 637.29 367.726
2833 1 77.1102 8.41652 649 111.663 637.499 462.165
2834 0 78.0544 8.59657 671 107.364 637.988 466.773
2835 0 80.1602 10.741 861 104.714 638.394 464.402
2836 0 79.1597 12.1021 958 104.595 637.918 462.411
2837 0 82.0864 13.4492 1104 100.477 637.537 462.13
2838 0 81.357 11.5294 938 105.686 638.007 460.36
2839 0 86.2428 12.7315 1098 102.703 637.275 458.289
2840 0 91.2601 13.5656 1238 99.9338 637.558 458.719
2841 0 94.3772 14.05 1326 99.4819 638.088 454.827
2842 0 98.3414 13.8497 1362 99.7584 638.38 452.805
2843 0 100.519 13.2214 1329 101.065 638.168 451.545
2844 0 105.435 13.2594 1398 100.839 638.228 449.348
2845 0 106.487 12.4522 1326 102.756 637.416 444.358
2846 0 111.434 13.1557 1466 101.38 637.736 444.865
2847 1 62.2978 10.6585 664 104.523 637.434 466.706
2848 0 67.2037 13.1094 881 99.1328 637.998 461.764
2849 0 69.373 12.786 887 100.298 638.321 462.625
2850 0 74.1642 15.0612 1117 93.6491 638.262 453.88
2851 0 74.4378 13.8505 1031 97.6974 637.771 458.12
2852 0 77.274 13.8209 1068 97.8811 637.326 458.237
2853 0 77.2911 13.6626 1056 99.5085 637.852 457.283
2854 0 80.2921 14.2355 1143 99.0455 638.207 456.219
2855 0 79.1382 13.8618 1097 101.109 637.788 456.793
2856 0 84.3541 15.4942 1307 97.4277 637.803 454.778
2857 0 86.684 13.705 1188 102.996 637.912 453.34
2858 0 88.3209 14.0397 1240 103.031 637.685 451.404
2859 0 90.5154 15.0803 1365 101.824 637.635 449.549
2860 0 92.3342 14.4367 1333 104.204 637.617 448.046
2861 0 97.3368 14.9173 1452 102.826 637.211 448.665
2862 0 99.4715 13.5014 1343 106.559 637.746 448.497
2863 0 103.393 13.1343 1358 107.351 637.526 447.383
2864 0 105.269 13.7837 1451 108.081 637.078 443.959
2865 0 109.499 13.8267 1514 107.592 637.099 444.367
2866 0 110.496 13.7651 1521 108.73 636.665 441.88
2867 0 116.383 14.2117 1654 108.046 637.129 440.208
2868 0 118.447 13.1451 1557 111.028 637.197 440.676
2869 0 124.378 14.2549 1773 108.743 637.587 438.669
2870 0 125.354 14.806 1856 109.225 637.123 435.513
2871 0 130.516 13.9141 1816 111.645 636.882 433.827
2872 0 135.431 14.4059 1951 110.233 637.026 434.063
2873 0 138.396 14.9354 2067 110.865 636.537 425.022
2874 0 144.331 14.7924 2135 110.346 636.92 426.154
2875 0 149.397 14.2908 2135 112.761 636.49 421.716
2876 0 153.221 14.2866 2189 115.147 637.063 421.868
2877 1 84.2013 12.4226 1046 118.118 636.857 451.838
2878 0 89.1931 12.557 1120 118.808 636.125 449.176
2879 0 92.1447 12.9796 1196 117.104 636.697 448.998
2880 0 96.267 13.8261 1331 115.44 636.914 447.089
2881 0 98.3695 13.6526 1343 116.82 636.439 445.232
2882 0 99.168 12.8973 1279 120.185 637.163 442.278
2883 0 105.414 13.2999 1402 118.168 637.01 441.425
2884 0 108.19 14.9829 1621 114.209 636.703 439.427
2885 0 107.214 11.9294 1279 122.883 636.489 437.626
2886 0 114.293 13.9204 1591 116.749 636.919 437.402
2887 0 116.39 12.4668 1451 121.841 636.675 429.606
2888 0 121.323 13.5506 1644 118.464 636.908 426.039
2889 0 127.167 13.4862 1715 118.345 636.858 427.9
2890 0 127.271 12.6266 1607 121.615 636.799 429.895
2891 0 135.232 13.5545 1833 118.706 636.742 430.725
2892 0 140.143 13.2293 1854 120.241 636.975 429.208
2893 0 146.154 14.5121 2121 116.66 636.71 425.166
2894 0 149.312 14.4061 2151 118.139 637.114 424.691
2895 0 153.208 14.0789 2157 120.045 636.872 420.284
2896 0 158.25 14.7741 2338 119.292 636.945 414.259
2897 0 163.35 14.1292 2308 121.246 636.891 414.614
2898 0 165.228 12.976 2144 126.409 636.509 408.134
2899 0 172.381 13.8066 2380 123.065 636.945 413.465
2900 0 177.22 13.6836 2425 124.285 637.246 409.89
2901 0 184.188 13.6545 2515 126.903 637.011 404.846
2902 0 189.119 13.3514 2525 128.156 636.879 401.699
2903 0 195.127 15.103 2947 121.516 637.509 399.515
2904 0 196.193 13.2064 2591 126.664 636.826 399.617
2905 1 20.0656 2.34232 47 86.3617 637.255 490.17
2906 0 17.0263 2.81916 48 88.75 637.375 487.25
2907 0 17.0018 6.29344 107 82.0467 639.701 487.766
2908 0 20.0328 5.29132 106 85.2924 639.217 487.83
2909 1 241.49 12.8162 3095 124.605 637.001 381.052
2910 0 250.231 13.1239 3284 123.428 636.92 376.096
2911 1 174.35 12.0792 2106 122.859 637.209 410.01
2912 0 184.247 13.6719 2519 119.961 637.068 405.373
2913 0 190.41 14.4058 2743 119.789 637.221 402.696
2914 0 197.388 13.476 2660 121.934 637.429 400.74
2915 0 206.315 13.6587 2818 122.332 636.867 388.151
2916 0 215.413 13.8478 2983 120.652 637.803 391.053
2917 0 221.511 14.8571 3291 119.18 637.628 378.237
2918 0 228.44 14.0825 3217 121.562 637.428 380.958
2919 0 234.54 13.196 3095 123.927 636.94 378.676
2920 1 175.262 12.0848 2118 118.897 637.539 405.324
2921 0 179.327 12.0227 2156 119.791 636.766 408.421
2922 0 181.402 11.0307 2001 124.513 637.456 398.391
2923 0 190.308 13.2154 2515 118.276 637.325 402.126
2924 0 197.288 13.5741 2678 118.649 637.694 394.65
2925 0 203.34 13.8192 2810 118.484 636.993 390.274
2926 0 210.33 13.5692 2854 119.346 636.556 385.649
2927 0 218.424 13.6249 2976 119.378 636.978 383.107
2928 0 225.478 13.7929 3110 119.053 636.11 382.984
2929 0 232.414 15.2271 3539 116.936 636.572 378.229
2930 0 239.502 12.7598 3056 124.102 636.696 373.198
2931 0 248.373 14.4702 3594 120.479 636.675 368.471
2932 0 256.512 14.1397 3627 123.261 636.435 361.47
2933 0 264.675 14.4177 3816 123.755 636.26 357.318
2934 1 204.448 10.9514 2239 125.826 636.316 391.456
2935 0 213.465 13.2528 2829 121.124 636.886 390.661
2936 0 217.537 13.0368 2836 124.266 636.708 382.916
2937 0 220.517 11.3642 2506 130.889 636.114 377.465
2938 0 229.574 13.6296 3129 126.098 636.346 374.191
2939 0 238.523 12.7535 3042 128.178 636.602 360.896
2940 0 247.593 12.3025 3046 129.142 636.697 360.56
2941 0 255.805 15.1092 3865 123.068 636.694 360.144
2942 0 261.694 15.136 3961 124.911 636.739 363.107
2943 0 271.734 13.9364 3787 127.863 636.632 352.214
2944 0 271.591 10.9171 2965 135.1 636.842 355.85
2945 1 214.377 6.79177 1456 122.365 637.609 415.19
2946 0 211.239 10.2585 2167 128.286 636.402 375.14
2947 0 218.222 11.2088 2446 124.06 636.434 366.233
2948 0 227.488 12.1633 2767 120.85 636.489 374.488
2949 0 235.512 13.3624 3147 117.329 636.776 374.157
2950 0 242.331 12.6686 3070 120.419 636.728 370.522
2951 0 248.327 12.5842 3125 122.257 636.595 362.081
2952 0 255.323 12.2003 3115 125.421 636.661 356.669
2953 0 260.376 12.4397 3239 126.033 636.993 351.896
2954 0 267.364 13.7977 3689 123.321 636.382 354.88
2955 1 283.525 19.1306 5424 107.544 636.087 326.5
2956 0 291.457 19.1212 5573 109.316 636.248 328.468
2957 1 23.042 6.46646 149 84.1678 634.765 485.886
2958 0 20.0318 3.8938 78 86.2051 634.808 483.744
2959 0 19.0076 3.05141 58 86.5172 634.655 482.741
2960 0 19.0541 2.78155 53 92.1698 635.509 486.736
2961 0 23.0328 4.34164 100 89.55 634.86 487.1
2962 0 24.0024 5.49945 132 89.0379 635.773 486.258
2963 0 20.0366 5.14059 103 88.835 635.282 485.641
2964 0 15.0034 1.79959 27 92.8518 636.889 486.148
2965 0 22.0044 3.40841 75 90.0667 636.36 485
2966 0 24.0262 2.747 66 90.3182 636.894 485.106
2967 0 20.0019 3.64965 73 86.8493 638.356 487.712
2968 0 14.0009 1.35705 19 88.8421 637.684 484.895
2969 0 21.0216 3.56775 75 84.32 638.147 486.4
2970 0 23.0322 5.38377 124 82.6129 637.911 485.629
2971 0 19.0061 2.36766 45 86.8222 638.689 485.689
2972 0 20.0526 2.94226 59 86.5763 638.678 483.424
2973 0 25.0377 3.39487 85 92.4235 639.588 482.118
2974 0 23.1076 5.62585 130 91.6846 639.892 482.969
2975 0 19.0642 5.19298 99 93.2525 639.99 484.758
2976 0 24.0202 6.4529 155 87.129 639.781 483.555
2977 0 27.035 5.58535 151 89.9139 639.013 485.874
2978 0 26.0039 4.49932 117 91.3162 639.598 485.214
2979 0 26.0156 5.45826 142 93.3944 638.669 489.401
2980 0 27.0283 5.10576 138 94.1522 639.804 486.065
2981 0 220.282 15.7525 3470 104.384 637.497 388.254
2982 0 224.345 14.6159 3279 108.386 635.956 376.046
2983 0 233.333 15.3643 3585 107.085 635.614 374.145
2984 0 241.208 15.5094 3741 108.108 636.128 368.329
2985 0 248.347 15.4381 3834 108.231 636.353 363.623
2986 0 255.307 16.0708 4103 107.295 636.274 362.984
2987 0 262.517 15.1304 3972 111.314 636.021 352.164
2988 0 270.263 15.1556 4096 112.042 635.634 348.054
2989 0 276.347 13.5301 3739 117.171 636.03 343.951
2990 0 288.611 16.2918 4702 110.478 635.479 343.501
2991 0 293.449 14.793 4341 114.575 635.462 342.613
2992 0 300.323 14.8074 4447 115.818 635.479 333.443
2993 0 311.376 16.7418 5213 112.045 635.659 327.538
2994 0 320.403 15.3307 4912 116.648 635.335 323.755
2995 0 328.488 15.9976 5255 114.834 635.131 321.994
2996 0 335.478 15.7894 5297 118.933 636.126 313.887
2997 0 344.444 14.9662 5155 120.714 635.963 316.048
2998 0 357.646 16.0829 5752 118.121 635.528 307.518
2999 1 290.551 10.9344 3177 127.432 635.49 351.316
3000 0 301.633 13.5231 4079 122.677 635.392 329.106
3001 0 310.546 16.0814 4994 114.78 635.946 328.537
3002 0 317.508 15.6626 4973 117.488 635.763 324.675
3003 0 324.542 15.8008 5128 118.4 636.169 321.094
3004 0 333.645 15.8792 5298 118.761 636.335 318.211
3005 0 342.694 16.0931 5515 118.343 636.259 311.237
3006 0 350.611 15.6812 5498 120.096 635.717 306.23
3007 0 361.565 17.0066 6149 116.609 635.695 268.717
3008 0 372.693 17.2018 6411 115.642 636.276 271.541
3009 1 296.472 11.0871 3287 126.433 636.004 326.202
