time division length width area intensity CMx CMy
0 0 37.0542 11.1458 413 138.286 117.351 476.705
1 0 37.0226 11.3444 420 139.019 118.157 476.079
2 0 38.1053 10.9958 419 139.888 118.088 475.115
3 0 37.0834 11.164 414 141.488 118.176 474.715
4 0 39.1109 10.841 424 141.078 118.663 473.925
5 0 42.0348 12.9416 544 132.654 119.024 474.233
6 0 41.0273 10.8952 447 140.51 118.68 474.371
7 0 42.1024 11.567 487 139.158 119.187 473.862
8 0 44.0568 11.6895 515 136.965 118.483 473.839
9 0 44.0896 10.9096 481 139.632 118.345 473.274
10 0 46.0658 13.9366 642 131.235 117.888 471.967
11 0 46.0507 11.5308 531 138.038 118.751 472.734
12 0 48.0691 12.3156 592 134.551 117.905 472.478
13 0 49.0877 12.6305 620 133.437 117.676 471.827
14 0 49.0657 12.9011 633 133.758 117.393 472.836
15 0 52.1041 12.5326 653 132.858 117.328 472.519
16 0 54.0842 13.4605 728 129.047 117.64 471.749
17 0 54.1971 12.8236 695 131.758 117.327 471.18
18 0 55.0612 13.821 761 129.509 117.958 470.405
19 0 57.0655 12.4594 711 129.793 116.759 471.025
20 0 58.0766 13.5339 786 128.142 116.392 469.486
21 0 59.1177 13.0587 772 129.181 117.009 469.518
22 0 63.0789 13.3959 845 126.13 116.948 468.916
23 0 63.1034 12.7093 802 130.625 116.355 468.216
24 0 68.1688 13.8333 943 126.139 116.141 466.98
25 0 68.0824 13.4249 914 129.204 115.33 467.685
26 0 69.0552 13.4675 930 130.212 115.034 464.969
27 0 71.0736 12.6067 896 131.277 115.167 465.625
28 0 73.155 12.6034 922 132.491 114.823 463.725
29 0 77.0745 13.6751 1054 134.272 114.991 460.609
30 0 76.0773 13.368 1017 136.679 115.181 460.381
31 0 80.0984 12.984 1040 136.141 114.491 460.387
32 0 84.0902 14.2942 1202 131.007 114.178 458.307
33 0 87.1657 14.9141 1300 127.948 114.732 454.966
34 0 89.0938 12.9975 1158 131.559 114.651 457.532
35 1 47.0218 12.1008 569 129.592 115.125 478.116
36 0 51.0434 12.46 636 127.431 114.772 476.83
37 0 50.088 11.7393 588 130.068 114.233 476.656
38 0 53.1039 13.4265 713 126.337 113.551 474.948
39 0 54.0416 12.3609 668 131.467 114.644 472.701
40 0 55.0195 12.541 690 131.106 114.258 473.088
41 0 57.0516 13.0058 742 128.174 114.023 472.757
42 0 57.1202 12.4124 709 131.269 113.795 471.691
43 0 60.0827 12.9988 781 128.58 114.359 470.403
44 0 64.0946 13.09 839 121.669 114.211 470.937
45 0 65.1084 14.0074 912 121.295 114.331 468.788
46 0 69.1659 14.8339 1026 118.711 113.471 467.053
47 0 71.1051 14.0918 1002 121.855 113.393 466.135
48 0 72.0535 12.8654 927 125.379 113.49 466.521
49 0 75.0544 14.1098 1059 122.241 113.233 465.037
50 0 80.0769 14.7109 1178 119.467 112.801 462.817
51 0 82.0851 13.8393 1136 121.878 113.639 462.35
52 0 83.0548 13.449 1117 125.506 113.668 461.137
53 0 88.2499 13.9377 1230 124.028 113.49 459.167
54 0 92.2027 14.2295 1312 122.466 113.013 456.612
55 1 45.0634 11.6502 525 127.939 113.242 479.371
56 0 47.0559 12.1133 570 127.821 113.986 478.782
57 0 47.0477 11.839 557 127.566 113.449 477.147
58 0 49.0721 12.6752 622 125.254 113.921 476.325
59 0 53.0553 13.6084 722 120.183 114.096 476.461
60 0 54.0452 13.3037 719 121.615 113.655 476.146
61 0 56.0591 12.2549 687 123.849 112.785 475.598
62 0 59.0255 12.6217 745 123.827 112.317 474.31
63 0 61.0505 13.6117 831 121.371 112.77 473.202
64 0 62.0482 12.9254 802 123.368 112.268 471.744
65 0 66.105 14.008 926 119.417 112.42 470.906
66 0 68.0867 13.5562 923 120.736 112.351 470.741
67 0 69.0664 13.5522 936 122.2 111.494 468.597
68 0 72.0834 14.0532 1013 121.75 111.924 466.65
69 0 74.0305 12.3057 911 125.721 111.418 466.714
70 0 79.04 14.0182 1108 120.924 111.369 464.823
71 0 82.1022 14.3723 1180 120.432 111.436 464.071
72 0 86.06 14.6642 1262 119.64 111.513 462.058
73 0 88.0392 14.5503 1281 120.913 111.564 459.336
74 0 90.1366 14.1452 1275 121.357 112.308 460.283
75 0 95.1224 14.4866 1378 119.646 111.669 458.365
76 0 96.0735 13.448 1292 123.813 111.936 456.327
77 1 52.0727 10.6966 557 122.898 113.153 477.531
78 0 55.0417 13.2808 731 115.512 113.364 477.212
79 0 54.0663 11.6709 631 118.414 112.861 472.58
80 0 56.0419 11.9018 667 118.391 112.511 475.69
81 0 59.1108 12.2313 723 117.809 111.726 475.733
82 0 61.0496 12.0066 733 118.201 111.598 474.806
83 0 62.045 11.9752 743 118.427 112.268 473.6
84 0 63.058 11.9097 751 120.398 111.851 473.354
85 0 65.0824 13.1526 856 117.764 112.509 470.659
86 0 67.0815 13.0587 876 119.49 112.451 469.993
87 0 68.0408 11.1698 760 126.532 112.537 471.418
88 0 71.0658 12.2703 872 123.54 112.7 470.474
89 0 74.1161 13.29 985 123.249 112.208 466.596
90 0 77.1208 12.837 990 123.81 112.477 464.837
91 0 80.237 13.2233 1061 124.317 111.81 463.164
92 0 85.1756 14.2412 1213 120.895 112.376 462.605
93 0 85.1065 13.5242 1151 125.191 111.99 461.302
94 0 90.2155 13.8114 1246 123.606 112.218 458.596
95 1 46.0723 10.6572 491 124.613 112.244 480.833
96 0 45.0509 10.2995 464 123.278 112.75 480.213
97 0 49.0207 12.1173 594 114.636 113.291 477.362
98 0 50.1068 12.7328 638 113.853 112.998 480.95
99 0 51.0542 11.3409 579 117.157 112.653 481.297
100 0 53.1151 11.315 601 118.534 113.022 479.151
101 0 54.0192 12.7547 689 116.682 111.313 477.901
102 0 56.0549 12.8089 718 116.719 111.415 477.602
103 0 55.0432 12.2994 677 120.093 111.352 475.446
104 0 60.0187 11.9629 718 118.935 111.453 476.008
105 0 62.0836 12.4026 770 119.923 111.252 473.694
106 0 65.0824 13.6289 887 116.717 110.672 474.103
107 0 66.0495 13.3233 880 119.195 111.269 473.734
108 0 67.0417 12.6638 849 123.771 111.468 471.227
109 0 69.2222 12.8138 887 124.834 111.603 471.276
110 0 72.0813 13.5264 975 123.235 111.242 469.904
111 0 75.0557 13.8964 1043 121.08 111.703 468.617
112 0 75.0604 12.7364 956 126.841 111.438 467.226
113 0 81.0704 14.0125 1136 121.753 111.197 465.508
114 0 83.0632 13.3994 1113 123.116 111.279 464.849
115 0 87.0714 14.1838 1235 119.938 111.519 462.276
116 0 87.1369 13.496 1176 123.25 111.794 459.796
117 0 89.1045 13.4561 1199 123.42 111.88 460.999
118 0 93.0377 12.941 1204 125.264 111.885 457.797
119 1 51.0348 10.0128 511 127.726 112.035 478.313
120 0 52.0172 11.6884 608 121.225 111.395 479.081
121 0 54.059 12.8748 696 118.226 111.228 477.902
122 0 53.1078 12.0886 642 116.671 111.621 479.199
123 0 56.065 12.5033 701 115.412 111.28 476.792
124 0 57.0429 11.9559 682 117.062 112.798 476.378
125 0 61.0541 13.4307 820 113.001 112.974 474.238
126 0 63.1874 13.1513 831 113.209 112.125 473.402
127 0 64.1078 12.3542 792 116.6 111.66 471.595
128 0 68.1038 12.246 834 115.331 112.578 471.869
129 0 69.0396 13.5285 934 112.679 112.805 471.11
130 0 70.1351 13.0463 915 115.096 112.422 469.431
131 0 71.1049 12.0526 857 118.04 112.6 469.197
132 0 73.1019 11.2035 819 121.017 112.328 467.067
133 0 80.1504 13.9113 1115 112.895 112.944 466.914
134 0 80.1193 12.8309 1028 118.466 112.189 464.716
135 0 85.1692 13.0094 1108 116.27 111.829 464.521
136 0 87.1326 13.9672 1217 114.582 112.32 462.166
137 0 90.1449 13.3563 1204 116.38 111.365 460.509
138 1 46.0999 11.1931 516 116.333 111.516 482.11
139 0 45.0371 12.4786 562 110.472 111.294 481.214
140 0 48.0896 13.4956 649 106.481 111.33 479.565
141 0 48.0122 12.3302 592 110.113 111.897 479.512
142 0 50.0629 12.3445 618 111.026 112.142 480.351
143 0 50.0588 11.1469 558 114.832 111.608 478.495
144 0 52.0482 12.0465 627 112.544 111.308 477.045
145 0 54.0565 13.2084 714 109.664 111.905 477.541
146 0 58.0632 13.4681 782 107.432 112.229 475.006
147 0 58.0496 12.0759 701 110.902 111.322 474.698
148 0 59.0789 12.1025 715 109.919 111.883 474.505
149 0 62.2175 11.7973 734 110.681 111.892 475.076
150 0 62.1077 12.8808 800 108.728 111.57 472.311
151 0 65.1871 12.6405 824 109.063 112.033 470.721
152 0 69.1005 12.7495 881 107.698 111.109 471.152
153 0 71.1102 13.8517 985 105.722 111.005 468.585
154 0 72.0717 13.0148 938 108.61 111.781 468.499
155 0 74.2183 13.6624 1014 106.742 111.279 467.643
156 0 77.2497 13.2169 1021 106.814 110.867 465.374
157 0 80.0764 13.5745 1087 106.474 110.959 463.173
158 0 82.1552 13.5475 1113 105.996 110.91 462.199
159 0 84.0977 12.6401 1063 108.531 110.68 462.174
160 0 88.1995 13.6735 1206 106.632 111.121 459.993
161 0 91.1317 13.497 1230 107.01 111.569 457.954
162 0 93.1348 13.0027 1211 109.306 110.721 458.677
163 0 96.2309 13.0208 1253 109.7 110.618 455.765
164 0 99.0879 12.1407 1203 111.35 111.103 454.126
165 1 50.1545 11.1256 558 108.652 111.799 479.391
166 0 53.0564 12.0061 637 108.392 111.499 476.678
167 0 55.1468 12.5302 691 112.33 111.313 476.085
168 0 55.0387 12.8092 705 108.828 112.641 475.33
169 0 57.1314 12.305 703 109.999 112.317 474.639
170 0 57.0298 11.9937 684 112.145 112.572 474.86
171 0 60.133 12.489 751 110.189 111.822 472.427
172 0 62.1151 12.4929 776 110.473 111.767 472.691
173 0 65.0415 13.2685 863 108.65 112.17 470.144
174 0 69.0732 13.8404 956 107.456 112.207 470.565
175 0 71.1166 13.1615 936 110.634 111.364 468.541
176 0 71.0836 12 853 115.103 111.284 467.394
177 0 75.0422 13.1926 990 112.509 112.074 466.588
178 0 76.1221 12.5588 956 114.918 111.719 467.209
179 0 80.072 12.9633 1038 115.469 111.825 462.79
180 0 82.0749 14.1578 1162 114.028 111.641 460.705
181 0 85.0984 14.5949 1242 113.141 111.119 460.033
182 1 42.0319 9.75449 410 117.127 112.62 480.541
183 0 47.0674 12.1315 571 111.52 112.391 480.776
184 0 47.0785 12.1499 572 112.385 111.809 482.61
185 0 49.1021 12.4435 611 113.792 112.615 480.36
186 0 50.0165 12.176 609 114.791 112.335 480.202
187 0 51.0505 12.4387 635 115.943 112.646 479.567
188 0 52.0387 12.875 670 116.955 112.355 476.915
189 0 53.1192 11.7848 626 120.256 112.717 477.16
190 0 58.1859 12.4085 722 117.205 111.918 476.267
191 0 58.0437 12.3528 717 118.427 112.137 476.326
192 0 61.0433 13.7444 839 116.713 112.364 473.435
193 0 61.0448 12.3843 756 122.127 112.37 473.787
194 0 65.0363 13.0081 846 120.209 112.131 473.408
195 0 67.0842 13.7141 920 119.415 111.636 472.03
196 0 69.0809 13.752 950 121.603 112.083 470.496
197 0 71.1535 14.6444 1042 119.483 111.833 469.32
198 0 73.1557 13.5465 991 123.997 111.734 468.431
199 0 75.1933 13.3922 1007 125.63 111.757 465.941
200 0 78.1358 13.1182 1025 126.604 111.928 465.721
201 0 79.1108 14.7262 1165 123.851 111.867 463.442
202 0 85.0599 13.5552 1153 126.18 109.939 463.31
203 0 86.059 12.9911 1118 129.255 109.936 463.072
204 1 46.0293 11.5361 531 124.07 111.731 481.676
205 0 48.0492 11.9461 574 124.909 111.889 478.707
206 0 50.0544 12.1268 607 124.776 109.988 480.04
207 0 52.0265 12.7435 663 124.176 109.958 478.751
208 0 52.0347 13.2219 688 122.933 110.379 477.544
209 0 55.0301 12.9202 711 121.44 110.661 477.594
210 0 57.079 12.5966 719 122.492 110.924 477.056
211 0 58.0928 12.7038 738 122.351 110.649 475.539
212 0 59.0626 11.7841 696 125.059 111.105 475.348
213 0 63.0437 12.7531 804 121.282 110.05 474.655
214 0 63.0353 12.7706 805 123.231 109.991 472.83
215 0 62.0867 12.0477 748 127.333 110.066 471.775
216 0 66.1614 12.4544 824 125.822 110.318 469.409
217 0 68.0344 12.2732 835 125.553 111.108 469.828
218 0 72.0953 12.9828 936 120.522 110.714 470.02
219 0 75.0443 12.979 974 120.057 110.128 467.813
220 0 77.0549 12.8999 994 119.039 110.86 466.312
221 0 78.1415 12.2598 958 120.471 111.421 465.167
222 0 81.1072 12.8965 1046 118.451 110.231 460.816
223 0 86.2226 12.8968 1112 118.667 110.751 463.844
224 1 45.0846 12.0884 545 116.077 110.833 479.589
225 0 47.0496 11.6048 546 115.372 111.526 480.864
226 0 50.0938 11.2788 565 115.832 110.873 479.823
227 0 50.0744 11.0835 555 110.447 113.332 480.182
228 0 51.0448 11.5977 592 108.41 112.515 478.595
229 0 53.1113 11.6359 618 108.217 112.142 476.353
230 0 54.0957 11.8678 642 106.869 112.737 477.318
231 0 56.0736 11.9129 668 105.56 112.102 476.352
232 0 59.1183 11.384 673 105.667 112.272 474.056
233 0 61.1762 11.5404 706 103.331 112.224 474.973
234 0 64.1335 11.3513 728 103.473 112.148 473.518
235 0 64.1661 12.1248 778 102.878 112.251 471.798
236 0 67.1121 11.1604 749 102.778 112.368 473.134
237 0 70.1193 11.3663 797 102.624 112.723 469.913
238 0 73.1803 12.3531 904 106.676 112.329 466.847
239 0 74.1819 11.7414 871 108.173 112.676 466.497
240 0 77.1737 11.4417 883 109.114 112.234 466.186
241 0 78.202 10.7414 840 109.771 111.279 464.217
242 1 42.0302 10.8969 458 102.587 112.483 483.924
243 0 43.0509 11.9393 514 100.984 112.755 483.586
244 0 42.119 10.4703 441 105.608 112.098 483.054
245 0 43.0282 10.8766 468 104.064 112.594 482.455
246 0 46.0686 11.0053 507 103.193 112.909 481.081
247 0 48.0811 12.3333 593 100.597 113.747 479.917
248 0 50.0468 12.7681 639 99.687 113.031 480.227
249 0 51.0596 12.1818 622 100.783 113.627 478.886
250 0 51.0542 11.6935 597 103.767 111.886 477.637
251 0 55.0301 12.6476 696 99.9943 112.826 477.178
252 0 55.0679 11.6402 641 104.443 112.159 477.833
253 0 57.105 11.8904 679 104.518 111.426 476.869
254 0 56.0458 12.0437 675 105.729 110.043 475.821
255 0 60.1823 11.5316 694 105.914 110.601 476.892
256 0 63.0582 11.8303 746 105.718 111.819 475.273
257 0 62.0593 12.0369 747 107.138 111.71 472.926
258 0 64.0417 11.5394 739 108.394 112.084 472.403
259 0 66.0548 12.0355 795 107.481 112.424 471.918
260 0 68.0871 11.7937 803 107.818 111.609 471.717
261 0 71.0673 12.4389 884 107.535 112.462 470.136
262 0 72.0538 12.7266 917 107.847 112.157 469.514
263 0 74.1005 11.5249 854 111.57 111.758 469.395
264 0 77.1381 12.1341 936 110.716 112.048 466.282
265 0 78.0993 12.8938 1007 109.937 112.22 466.495
266 0 82.0709 12.3674 1015 110.802 111.863 464.082
267 0 85.1131 12.4893 1063 111.003 112.655 465.167
268 0 88.0699 12.1154 1067 111.518 112.867 464.739
269 0 94.0666 13.2778 1249 109.04 112.587 460.85
270 0 94.1017 13.0816 1231 110.225 112.751 457.045
271 0 99.1298 13.7698 1365 109.979 111.485 456.157
272 1 52.0719 10.8312 564 114.95 111.947 480.729
273 0 55.018 11.9234 656 113.226 111.668 479.277
274 0 56.2848 12.5433 706 112.902 112.333 475.912
275 0 55.049 11.517 634 116.375 111.472 478.317
276 0 59.0345 13.8902 820 110.552 111.638 477.337
277 0 58.0556 11.5407 670 116.099 111.976 477.393
278 0 61.0677 11.6428 711 115.664 111.745 476.111
279 0 64.0423 12.1638 779 114.827 112.155 474.366
280 0 66.0602 12.095 799 114.827 112.35 471.787
281 0 69.0816 13.3321 921 111.127 112.735 471.467
282 0 69.0924 12.201 843 114.536 112.474 471.929
283 0 74.0641 13.0833 969 111.655 112.803 470.623
284 0 75.1489 12.8811 968 113.621 112.293 468.661
285 0 77.116 13.5769 1047 111.788 112.623 467.01
286 0 80.0639 12.515 1002 114.909 112.333 466.979
287 0 83.1083 12.6221 1049 114.707 112.707 466.37
288 0 85.0584 12.8147 1090 114.298 112.148 464.564
289 0 89.1542 13.5159 1205 113.3 112.505 461.37
290 0 92.1324 13.079 1205 114.909 112.715 460.14
291 0 95.1273 12.7934 1217 116.659 112.765 459.825
292 0 94.1572 11.4808 1081 123.504 111.747 451.739
293 0 101.255 12.8685 1303 119.416 111.999 456.378
294 1 55.1205 11.6835 644 121.202 112.18 478.592
295 0 56.0921 11.9981 673 121.409 111.581 477.184
296 0 59.2059 12.617 747 118.945 111.987 475.021
297 0 59.293 12.9358 767 119.778 112.319 474.701
298 0 63.2465 14.0403 888 115.396 112.01 474.331
299 0 62.0675 13.0181 808 116.29 112.109 472.665
300 0 65.0834 13.1063 853 115.914 111.882 472.249
301 0 67.1989 13.5716 912 115.039 112.181 469.514
302 0 69.0785 13.3327 921 116.847 112.16 471.123
303 0 73.0827 14.5862 1066 114.103 112.991 468.469
304 0 74.1029 14.6013 1082 115.181 111.994 469.517
305 0 76.1359 13.6072 1036 117.537 112.528 467.781
306 0 81.2348 13.9103 1130 116.473 112.814 464.809
307 0 80.2703 12.9064 1036 121.318 111.969 462.263
308 0 84.2212 14.3076 1205 116.354 111.978 462.583
309 0 87.3145 13.6289 1190 118.86 111.789 459.931
310 0 92.2208 14.6605 1352 115.885 110.965 459.353
311 0 95.2209 13.642 1299 119.791 111.219 457.939
312 0 97.2986 13.3404 1298 121.792 111.925 456.055
313 1 49.0292 11.9317 585 113.024 111.747 480.251
314 0 50.0819 12.5195 627 110.348 110.279 478.367
315 0 54.1119 13.7493 744 106.636 110.923 477.671
316 0 52.0308 11.916 620 110.585 110.405 476.861
317 0 55.0192 11.2506 619 110.763 111.019 476.835
318 0 56.0453 11.7762 660 109.653 110.039 477.77
319 0 56.0197 11.6209 651 111.131 110.551 477.982
320 0 59.038 12.3649 730 108.574 110.245 476.673
321 0 62.0665 12.1966 757 109.39 110.33 475.268
322 0 64.0491 12.4123 795 108.415 111.088 473.829
323 0 67.1199 11.4422 768 109.716 110.398 472.969
324 0 69.0939 11.4771 793 110.078 110.607 471.702
325 0 69.1228 11.9208 824 110.365 110.899 469.78
326 0 73.061 12.2363 894 108.888 110.872 470.172
327 0 75.0795 12.2004 916 110.496 110.422 467.653
328 0 80.0513 12.0673 966 109.863 110.608 467.067
329 0 83.0287 13.393 1112 108.127 110.274 465.482
330 0 85.0999 13.1845 1122 109.431 110.449 464.991
331 0 86.0473 12.9696 1116 113.47 110.764 462.399
332 0 91.0457 13.96 1271 111.548 110.431 460.336
333 0 94.0677 14.075 1324 111.184 110.393 458.817
334 0 97.0873 13.9359 1353 112.883 110.154 456.536
335 0 100.069 13.4307 1344 115.135 109.818 457.708
336 1 56.0664 13.0203 730 114.093 110.036 477.685
337 0 57.0658 11.3203 646 114.18 109.776 477.658
338 0 59.0404 12.2458 723 115.858 109.88 476.49
339 0 60.091 12.1316 729 117.51 109.846 476.785
340 0 61.0455 11.9255 728 118.753 110.29 476.139
341 0 63.1419 13.5093 853 116.027 109.66 472.734
342 0 66.103 12.8739 851 117.304 110.354 472.828
343 0 68.1306 12.0357 820 119.194 110.385 472.046
344 0 71.1379 13.4809 959 115.167 110.545 471.395
345 0 73.0394 12.3632 903 117.506 111.013 470.371
346 0 76.0226 13.5354 1029 114.635 110.534 468.841
347 0 78.0576 13.3747 1044 115.58 109.864 467.344
348 0 81.088 12.5789 1020 118.002 110.585 466.647
349 0 82.1031 13.3613 1097 117.112 111.252 466.352
350 0 84.0422 12.6365 1062 119.126 111.287 465.387
351 0 86.1874 12.6237 1088 119.398 112.117 464.324
352 0 86.1874 12.6585 1091 155.527 112.123 464.353
353 0 92.1442 13.2727 1223 118.544 112.196 460.755
354 0 95.086 13.3774 1272 112.27 111.653 460.609
355 0 99.1474 12.2041 1210 115.903 111.4 458.172
356 0 103.288 13.3123 1375 113.349 111.544 456.266
357 1 53.1746 10.9451 582 111.998 111.28 479.856
358 0 55.0447 13.0803 720 108.328 112.039 479.804
359 0 57.0219 12.5215 714 109.982 112.217 478.842
360 0 59.1749 13.4854 798 112.15 112.219 478.405
361 0 59.1957 13.0415 772 113.501 112.301 478.504
362 0 62.1831 13.0421 811 113.747 112.904 475.974
363 0 63.0883 13.3939 845 114.084 113.082 473.871
364 0 65.1904 13.3609 871 119.502 112.565 474.328
365 0 66.4936 12.317 819 123.497 112.807 472.342
366 0 70.2588 12.5109 879 120.885 112.405 472.923
367 0 73.5283 12.7298 936 120.931 112.187 470.391
368 0 74.2787 12.4396 924 120.169 112.206 470.741
369 0 77.0506 12.4723 961 115.373 112.272 466.803
370 0 79.1283 11.5382 913 116.804 112.234 468.1
371 0 80.098 11.798 945 116.688 112.414 466.65
372 0 83.0687 11.1594 927 118.447 112.358 464.327
373 0 89.0836 13.4256 1196 111.015 112.348 465.054
374 0 90.0557 12.6033 1135 114.174 112.623 461.858
375 0 92.1263 12.5371 1155 115.664 113.272 459.113
376 0 96.1481 12.0647 1160 114.604 113.274 461.134
377 0 100.076 12.4605 1247 114.385 113.291 456.112
378 1 52.0795 11.2136 584 111.204 114.144 478.495
379 0 54.1786 11.0929 601 110.561 113.353 479.446
380 0 56.1255 12.4186 697 107.621 113.836 476.057
381 0 57.026 13.5903 775 103.604 112.617 478.978
382 0 59.0692 12.2737 725 106.32 112.361 478.083
383 0 60.0771 12.6338 759 106.032 112.336 477.478
384 0 63.0554 12.7666 805 105.733 112.581 474.44
385 0 64.1327 13.9398 894 103.139 111.97 473.34
386 0 68.0644 13.0612 889 103.29 112.715 473.024
387 0 68.1303 12.5935 858 104.227 113.092 471.999
388 0 70.0594 11.2333 787 106.648 112.693 470.814
389 0 71.0356 11.9799 851 106.062 112.645 468.193
390 0 73.1287 11.2951 826 107.431 112.323 467.596
391 0 78.0421 12.7367 994 103.825 112.54 469.026
392 0 81.1236 12.3515 1002 105.377 112.98 465.335
393 0 84.0622 12.1934 1025 105.702 112.727 463.395
394 1 41.0352 10.4301 428 108.005 113 485.238
395 0 44.0839 11.342 500 106.116 113.12 483.498
396 0 46.2079 11.0804 512 106.814 113.748 483.225
397 0 48.0402 12.3647 594 102.912 112.158 482.956
398 0 48.0701 11.296 543 107.186 111.589 481.856
399 0 50.1412 11.1286 558 108.163 113.009 481.228
400 0 51.0414 11.187 571 107.874 112.995 480.389
401 0 54.0481 12.5444 678 104.025 112.625 480.077
402 0 56.0414 11.4023 639 107.349 111.79 479.742
403 0 55.0725 10.7313 591 108.951 111.658 477.876
404 0 59.1116 11.8251 699 106.459 112.019 476.306
405 0 62.0584 11.2314 697 108.069 111.393 476.026
406 0 64.0634 12.035 771 106.974 111.961 474.449
407 0 66.122 12.9458 856 104.848 111.834 472.824
408 0 67.1329 10.6952 718 109.182 111.517 474.191
409 0 71.0552 12.1596 864 106.545 111.093 471.839
410 0 75.1587 10.9901 826 108.018 111.253 471.694
411 0 76.1133 11.207 853 107.81 111.46 470.068
412 0 79.1318 11.8916 941 106.994 111.055 467.842
413 0 83.1764 12.0948 1006 105.461 111.846 468.847
414 0 86.1553 13.1391 1132 105.042 111.533 464.817
415 1 46.0543 11.291 520 109.015 111.413 482.981
416 0 47.0782 9.98339 470 107.351 111.438 480.583
417 0 47.048 11.4777 540 105.246 112.531 477.198
418 0 50.1294 9.59516 481 105.532 112.881 477.21
419 0 52.0961 10.8069 563 103.353 113.034 474.963
420 0 54.0626 11.3387 613 101.377 113.243 475.219
421 0 54.1659 10.0801 546 103.758 112.945 475.429
422 0 58.075 11.6746 678 100.898 112.972 474.301
423 0 60.1387 12.3548 743 99.249 112.783 474.354
424 0 59.0586 10.1594 600 104.648 112.325 471.308
425 0 64.0431 11.9451 765 101.895 112.158 471.437
426 0 65.2038 12.2539 799 100.448 112.681 470.807
427 0 66.0417 9.90284 654 106.521 112.439 469.057
428 0 68.1065 10.0578 685 105.74 112.203 469.844
429 0 74.0826 11.3522 841 101.127 112.404 467.181
430 0 76.1386 12.0832 920 100.665 112.325 464.846
431 0 78.0576 11.12 868 103.282 112.805 465.702
432 0 81.1048 10.5173 853 108.842 112.586 462.245
433 1 43.0148 11.0892 477 111.805 114.008 484.956
434 0 46.0966 11.6277 536 111.856 113.618 483.207
435 0 48.0751 12.2725 590 108.28 114.756 485.376
436 0 49.0345 12.0935 593 112.686 115.16 482.897
437 0 50.0258 12.3336 617 111.776 113.895 483.739
438 0 52.0977 12.9564 675 111.564 112.268 481.67
439 0 52.1759 12.3812 646 114.943 112.611 480.402
440 0 54.1269 11.7502 636 116.22 112.277 480.266
441 0 58.2106 13.245 771 111.966 112.307 478.694
442 0 57.2704 13.6196 780 113.944 112.36 476.635
443 0 60.2158 13.2523 798 112.624 112.098 478.41
444 0 61.2528 12.7341 780 115.441 112.306 476.478
445 0 64.2664 14.1287 908 111.587 112.193 475.372
446 0 66.1683 13.4052 887 111.636 112.779 474.877
447 0 68.3038 12.503 854 113.986 112.119 472.732
448 0 70.2063 13.2752 932 111.027 113.291 473.392
449 0 73.1815 13.7057 1003 109.909 112.468 470.161
450 0 74.2085 12.6266 937 111.904 112.639 470.893
451 0 78.1959 13.4022 1048 109.912 112.966 468.889
452 0 80.1213 12.3812 992 111.961 113.524 467.025
453 0 82.1909 12.325 1013 112.337 113.003 466.007
454 0 84.1443 12.2646 1032 112.195 113.493 464.736
455 0 90.3513 12.7281 1150 110.138 113.225 462.434
456 1 44.0786 11.1846 493 110.69 114.13 483.404
457 0 48.1787 11.4573 552 107.647 113.591 482.188
458 0 48.1967 12.3038 593 109.376 113.595 478.049
459 0 49.081 11.5523 567 104.959 112.564 479.889
460 0 49.1107 12.3802 608 104.975 112.074 477.594
461 0 50.0649 11.8047 591 106.565 111.883 478.102
462 0 52.0892 12.229 637 104.881 112.086 478.193
463 0 54.0244 13.9011 751 101.86 112.377 476.662
464 0 55.1489 13.1281 724 104.856 112.409 474.981
465 0 56.0815 11.6616 654 105.602 113.697 475.703
466 0 61.1032 13.6163 832 101.793 114.311 474.095
467 0 63.1711 12.7907 808 103.205 113.501 472.887
468 0 64.1051 12.7291 816 105.183 113.097 471.453
469 0 67.0902 13.0123 873 104.396 113.435 470.907
470 0 66.0835 13.2408 875 105.763 113.394 470.637
471 0 70.1136 13.1501 922 105.489 113.201 468.568
472 0 73.1284 13.4558 984 104.909 112.629 466.717
473 0 73.1139 12.2275 894 109.918 113.377 466.909
474 0 77.1095 12.787 986 107.584 113.454 467.061
475 0 80.098 13.059 1046 106.012 114.12 468.918
476 0 80.1111 12.9695 1039 107.274 114.257 467.501
477 0 84.1028 13.5786 1142 106.585 114.045 465.226
478 0 89.0921 14.3559 1279 102.754 114.016 465.152
479 0 89.0397 12.4664 1110 108.841 113.626 463.241
480 1 46.0324 10.5578 486 110.179 113.319 485.103
481 0 49.0503 13.2517 650 105.162 113.497 483.131
482 0 51.0362 12.5793 642 107.327 113.639 480.799
483 0 51.0408 13.0092 664 109.75 113.083 481.306
484 0 55.0995 13.3214 734 108.128 113.826 480.131
485 0 58.0844 14.5478 845 103.375 113.724 479.413
486 0 58.0825 14.5483 845 104.096 112.88 478.696
487 0 60.0593 13.3868 804 105.235 114.225 478.418
488 0 63.0537 13.7502 867 103.122 114.296 476.513
489 0 64.0945 13.0432 836 104.86 114.215 476.368
490 0 66.1713 13.722 908 104.202 114.34 473.046
491 0 67.1581 11.8675 797 107.602 114.345 471.918
492 0 72.1381 13.5296 976 103.648 114.348 471.2
493 0 74.0938 13.1725 976 104.519 113.356 470.166
494 0 76.1319 14.685 1118 101.67 113.986 466.995
495 0 80.1193 14.3536 1150 102.566 113.707 466.134
496 0 82.0575 14.0755 1155 103.61 113.863 465.745
497 0 84.1382 13.1213 1104 106.365 113.891 464.62
498 0 87.1233 13.6588 1190 105.709 113.594 464.013
499 0 91.2214 14.4045 1314 103.758 113.476 461.715
500 0 94.1009 12.901 1214 110.417 113.943 460.035
501 1 47.0452 10.9044 513 115.07 114.474 481.984
502 0 50.0593 11.7461 588 113.808 114.318 482.546
503 0 52.12 13.2579 691 110.896 114.783 478.975
504 0 52.0262 13.1088 682 110.535 113.996 480.296
505 0 55.2435 13.703 757 108.454 114.169 477.663
506 0 55.1573 13.2893 733 110.658 113.899 478.302
507 0 58.0557 12.7808 742 110.624 113.699 478.407
508 0 60.1225 12.0421 724 113.695 113.693 477.416
509 0 63.0747 13.2858 838 109.973 114.416 474.955
510 0 64.0845 12.3431 791 111.845 114.583 472.43
511 0 66.0813 12.6057 833 111.474 114.468 471.697
512 0 66.09 12.3014 813 114.525 114.387 470.285
513 0 72.0577 13.4753 971 110.019 114.112 472.389
514 0 74.1488 12.394 919 114.706 114.354 471.375
515 0 75.1274 12.2725 922 116.646 114.111 469.108
516 0 79.113 12.5517 993 117.04 113.734 467.555
517 0 80.1332 13.515 1083 115.085 114.481 465.452
518 0 85.1682 13.0917 1115 115.609 114.059 464.266
519 0 87.1655 13.8587 1208 115.026 113.858 462.745
520 0 89.0608 13.4178 1195 116.884 113.886 461.66
521 0 91.0878 12.8338 1169 119.483 114.051 460.932
522 0 91.1503 12.1338 1106 122.632 113.609 457.871
523 0 96.1574 12.2403 1177 121.878 112.27 456.963
524 0 100.159 11.8112 1183 121.988 112.897 457.076
525 1 57.0267 11.784 672 119.772 112.293 477.47
526 0 57.2022 11.6429 666 120.866 112.366 478.73
527 0 59.0342 12.0269 710 116.539 111.761 474.832
528 0 61.0958 11.6211 710 115.176 113.368 478.821
529 0 61.0469 10.8114 660 119.445 113.17 476.324
530 0 64.0589 11.3489 727 117.475 113.985 476.351
531 0 66.0938 12.8151 847 113.898 113.593 473.679
532 0 69.1001 12.6338 873 114.063 113.942 472.364
533 0 71.0679 11.3976 810 116.648 114.085 472.511
534 0 73.1353 11.8 863 117.781 114.019 469.999
535 0 75.0575 12.1107 909 117.92 113.702 469.019
536 0 77.0568 13.2629 1022 115.693 113.75 467.538
537 0 80.0445 12.2557 981 117.199 113.965 468.407
538 0 85.173 12.7505 1086 115.697 114.779 464.984
539 0 86.0644 12.9206 1112 115.683 113.787 463.36
540 0 90.115 12.0291 1084 117.98 112.987 463.787
541 1 48.021 11.3908 547 118.064 114.066 482.132
542 0 49.0365 12.0726 592 117.812 113.26 481.767
543 0 51.1581 12.6471 647 116.411 111.998 479.499
544 0 52.1404 11.9869 625 118.845 112.539 478.334
545 0 54.2292 12.5209 679 118.035 113.267 477.8
546 0 57.1428 12.6875 725 115.71 112.888 478.217
547 0 58.0577 12.367 718 118.366 112.447 476.833
548 0 61.1099 12.5021 764 111.453 113.626 477.432
549 0 62.0318 14.1379 877 108.222 113.189 476.008
550 0 65.0583 13.0498 849 110.45 114.164 474.794
551 0 64.1064 11.9177 764 115.931 114.245 474.466
552 0 70.0377 13.7926 966 110.052 113.9 472.495
553 0 71.0953 12.7575 907 114.501 113.906 471.273
554 0 73.0491 12.5395 916 116.761 114.199 470.509
555 0 76.0635 12.9234 983 115.011 114.026 470.663
556 0 79.0692 13.6589 1080 115.133 114.239 468.242
557 0 84.0588 14.0021 1177 113.686 113.972 465.796
558 0 86.0951 13.8335 1191 115.338 113.988 464.812
559 1 42.0302 11.7297 493 120.047 114.795 485.994
560 0 45.0682 12.2259 551 116.143 114.474 485.289
561 0 47.057 13.0693 615 116.234 113.891 485.681
562 0 46.1453 12.7857 590 122.4 114.603 483.89
563 0 49.0252 12.8505 630 122.363 114.641 483.262
564 0 48.0596 12.859 618 123.982 114.243 481.851
565 0 53.0558 13.6272 723 120.773 114.925 482.062
566 0 53.0164 13.7882 731 121.633 114.446 482.32
567 0 52.0755 13.3652 696 127.105 114.207 481.832
568 0 55.024 14.1029 776 124.418 114.851 481.26
569 0 56.0872 13.4433 754 127.785 114.293 479.243
570 0 59.0289 13.756 812 125.581 114.049 479.696
571 0 59.1038 13.857 819 127.449 113.031 477.482
572 0 62.0617 14.0344 871 125.952 113.237 477.706
573 0 62.0967 13.8655 861 128.934 112.837 476.6
574 0 65.1271 13.5888 885 128.244 112.287 476.634
575 0 67.1203 13.8408 929 127.266 113.375 474.944
576 0 69.053 12.8307 886 130.274 112.63 473.56
577 0 74.1779 14.29 1060 123.925 112.323 471.231
578 0 78.2137 15.1892 1188 120.768 113.2 470.961
579 0 79.1557 14.9705 1185 121.851 112.653 469.565
580 0 81.1996 14.1134 1146 125.649 112.743 467.161
581 0 86.0863 14.4158 1241 123.303 112.591 466.193
582 0 87.1577 13.9861 1219 125.105 112.134 464.011
583 0 91.0607 13.8589 1262 122.836 112.173 463.348
584 0 96.0893 15.0901 1450 119.194 114.214 461.333
585 0 98.1418 13.9594 1370 123.096 113.545 459.579
586 0 101.101 14.4608 1462 121.479 112.902 457.035
587 1 52.061 12.4277 647 128.005 114.062 482.105
588 0 55.0774 12.8909 710 124.759 112.361 481.621
589 0 56.0544 13.1123 735 122.536 112.57 480.442
590 0 58.0861 13.0152 756 117.606 113.665 476.71
591 0 60.054 12.7052 763 117.334 113.714 476.181
592 0 61.0686 11.8391 723 120.289 114.011 475.613
593 0 64.1029 13.5095 866 115.344 113.923 473.365
594 0 67.0479 13.7215 920 114.09 113.965 471.784
595 0 66.0317 13.1301 867 117.152 113.899 471.636
596 0 72.076 13.6939 987 113.552 114.838 470.073
597 0 74.0906 12.4712 924 115.444 114.35 469.551
598 0 77.144 14.3239 1105 110.61 114.251 466.983
599 0 77.1051 12.8656 992 115.498 114.431 465.875
600 0 82.1138 14.4068 1183 114.936 114.043 467.688
601 0 83.1647 13.9362 1159 114.947 114.353 465.933
602 0 86.1378 13.9195 1199 113.339 113.746 465.257
603 0 88.1613 12.738 1123 116.322 113.589 465.02
604 0 90.1274 12.7819 1152 115.872 113.911 464.267
605 0 94.169 12.9342 1218 119.318 113.797 460.287
606 0 98.1861 13.3522 1311 116.234 114.353 458.681
607 0 100.206 13.602 1363 115.979 113.832 454.532
608 0 102.289 12.8264 1312 117.565 113.513 455.73
609 1 52.1034 11.554 602 114.528 114.492 481.176
610 0 55.1044 11.5236 635 113.865 114.231 479.721
611 0 59.2233 13.39 793 109.247 113.295 478.009
612 0 63.0594 13.0353 822 109.42 113.858 476.769
613 0 63.0796 13.8397 873 109.074 113.827 476.521
614 0 64.1101 13.1025 840 112.017 113.933 473.995
615 0 67.1217 13.4532 903 110.731 113.68 473.845
616 0 68.0858 12.0143 818 115.831 113.364 473.176
617 0 71.0745 13.9994 995 110.928 113.796 472.939
618 0 73.0694 13.3298 974 114.063 113.469 471.469
619 0 76.1394 13.5016 1028 113.992 114.422 470.156
620 0 81.1103 13.9933 1135 111.842 113.929 468.032
621 0 84.1187 14.0159 1179 111.475 114.055 467.497
622 0 85.1443 14.4226 1228 112.47 113.546 464.752
623 0 89.2762 14.4159 1287 112.162 113.36 463.934
624 0 92.0889 14.0516 1294 111.248 112.396 464.231
625 0 93.1517 14.3637 1338 111.658 113.159 461.078
626 0 95.1085 11.8391 1126 117.095 112.303 461.414
627 1 52.0343 11.7999 614 115.531 112.95 481.671
628 0 54.0396 13.7862 745 109.601 111.911 481.91
629 0 56.1906 13.2406 744 110.595 111.915 480.812
630 0 57.0778 14.0335 801 107.976 111.536 480.335
631 0 59.1306 13.4279 794 108.798 112.063 479.712
632 0 61.1232 13.121 802 109.41 112.292 478.317
633 0 64.1615 13.1543 844 110.787 112.77 476.659
634 0 67.0893 15.2781 1025 106.648 112.457 475.055
635 0 66.0509 12.99 858 113.766 112.901 474.524
636 0 70.0781 14.0415 984 110.983 113.398 474.564
637 0 75.0719 13.6003 1021 111.581 113.524 472.63
638 0 75.0905 13.7035 1029 113.175 112.874 472.569
639 0 78.0418 14.2103 1109 111.974 113.348 471.129
640 0 79.15 14.0493 1112 115.066 113.761 469.204
641 0 83.1512 13.3131 1107 117.545 113.078 468.587
642 0 87.1984 14.9429 1303 113.027 113.017 465.757
643 0 90.2185 13.2235 1193 118.563 112.24 464.975
644 1 47.0568 11.8793 559 121.665 112.546 486.106
645 0 48.1666 12.4568 600 118.195 112.683 484.13
646 0 49.1475 13.3476 656 115.468 112.223 484.05
647 0 51.1824 12.9732 664 111.411 113.544 485.227
648 0 51.0454 11.4212 583 116.19 113.643 484.981
649 0 53.121 12.1609 646 115.576 112.785 483.714
650 0 54.2293 12.6869 688 114.696 112.59 482.574
651 0 56.2238 12.3257 693 116.019 112.584 481.903
652 0 59.0299 11.6212 686 124.727 112.611 480.399
653 0 63.0669 13.3509 842 119.627 113.279 479.473
654 0 63.1372 12.4966 789 122.605 114.019 478.144
655 0 66.1951 11.9495 791 124.961 113.843 475.729
656 0 68.0719 13.0303 887 121.796 113.89 475.944
657 0 72.2143 13.2245 955 118.834 114.194 475.484
658 0 72.1591 13.1792 951 121.749 114.036 472.475
659 0 74.4191 13.3165 991 120.591 113.323 473.501
660 0 77.2992 13.5836 1050 121.147 113.027 470.309
661 0 79.1977 13.2453 1049 121.848 112.979 471.23
662 0 82.2374 13.838 1138 121.611 112.654 469.142
663 0 85.2312 14.5135 1237 119.403 113.06 466.883
664 0 87.1631 13.9738 1218 120.666 112.852 465.266
665 0 91.2924 13.506 1233 119.575 112.747 464.623
666 0 93.2344 13.3856 1248 120.139 113.006 464.314
667 1 46.2386 11.5488 534 121.732 112.788 486.685
668 0 48.1452 11.8392 570 120.188 112.886 485.674
669 0 51.1658 12.5865 644 118.152 113.154 484.393
670 0 53.0736 13.095 695 116.978 113.329 484.547
671 0 54.2584 12.8091 695 117.965 113.37 483.381
672 0 56.0845 14.4068 808 115.229 113.298 480.646
673 0 57.0808 13.2794 758 117.526 112.941 481.201
674 0 61.114 13.9575 853 115.581 113.271 481.283
675 0 62.0634 13.2284 821 118.262 113.884 480.597
676 0 65.1671 13.6418 889 116.664 113.377 480.215
677 0 65.1954 13.4212 875 119.818 113.162 478.039
678 0 67.0989 13.6217 914 121.326 113.445 475.72
679 0 68.0915 13.4672 917 121.274 112.945 475.624
680 0 71.0566 13.06 928 122.862 112.417 475.077
681 0 75.0905 14.4892 1088 118.506 112.895 474.494
682 0 77.213 13.4174 1036 121.961 112.339 474.549
683 0 79.1232 14.054 1112 122.225 112.871 472.077
684 0 82.1468 13.5854 1116 124.11 113.084 470.044
685 0 84.3491 14.2859 1205 122.908 112.816 467.667
686 0 86.2392 12.79 1103 127.731 112.57 467.559
687 0 90.2856 14.7753 1334 122.54 113.074 465.631
688 0 94.2684 14.2784 1346 122.803 112.563 466.111
689 0 98.2032 15.4883 1521 120.295 112.389 463.484
690 0 102.199 15.4698 1581 120.402 112.55 461.875
691 0 105.396 14.1562 1492 123.8 112.579 461.534
692 0 107.251 13.8926 1490 125.844 112.583 458.343
693 1 50.0903 13.1762 660 129.788 112.961 482.809
694 0 53.1183 13.4417 714 128.395 112.885 481.641
695 0 58.06 15.9318 925 120.988 112.998 480.078
696 0 58.1349 14.948 869 125.868 112.489 479.115
697 0 62.063 15.1137 938 124.066 113.291 478.269
698 0 66.1903 16.6036 1099 119.678 113.13 476.009
699 0 65.0831 14.6121 951 127.028 113.136 475.416
700 0 70.1641 16.6752 1170 120.563 112.672 472.97
701 0 71.1402 15.5468 1106 125.311 112.716 471.55
702 0 75.1956 15.9052 1196 123.002 112.972 471.779
703 0 77.0871 16.0468 1237 123.681 113.006 468.604
704 0 80.1626 16.0299 1285 124.289 112.906 467.689
705 0 83.0841 16.2366 1349 123.921 112.877 467.554
706 0 85.0844 15.0086 1277 127.9 112.652 466.411
707 0 89.3353 15.0109 1341 127.849 112.607 465.453
708 0 92.1615 15.1256 1394 128.358 112.65 463.111
709 0 97.323 15.8852 1546 125.227 112.466 461.696
710 0 100.204 15.9874 1602 125.37 112.503 458.456
711 1 50.1107 13.5101 677 133.806 112.965 481.145
712 0 54.1571 14.0332 760 130.095 113.07 481.904
713 0 57.1192 14.9337 853 129.304 113.055 479.972
714 0 59.1743 14.6516 867 130.21 113.527 478.641
715 0 61.0953 15.1239 924 128.926 112.746 477.054
716 0 63.2308 15.1508 958 128.355 112.986 477.032
717 0 64.1473 14.95 959 130.096 114.151 475.888
718 0 66.1949 15.0163 994 131.079 113.478 474.681
719 0 71.3332 15.6449 1116 128.007 113.633 472.821
720 0 72.2278 15.9911 1155 128.526 113.616 471.626
721 0 76.1395 16.2465 1237 127.29 113.459 469.919
722 0 80.1905 16.5356 1326 125.391 113.459 469.782
723 0 80.1491 15.4836 1241 129.777 113.741 466.871
724 0 83.149 15.9352 1325 128.618 113.694 467.1
725 0 85.1652 14.9122 1270 132.028 112.929 464.006
726 0 90.2765 15.663 1414 128.365 112.922 463.278
727 0 93.24 14.3501 1338 131.025 113.329 461.976
728 1 48.1906 13.3636 644 129.262 113.728 482.941
729 0 47.18 13.1624 621 130.908 112.884 482.821
730 0 51.143 13.5698 694 129.863 113.425 482.14
731 0 53.1924 13.8742 738 129.57 113.52 482.127
732 0 57.2253 13.9973 801 128.749 113.302 480.718
733 0 59.2338 15.2447 903 126.755 113.596 478.083
734 0 61.0952 14.6493 895 127.44 113.477 478.583
735 0 65.1752 14.6375 954 127.177 113.264 477.615
736 0 67.3321 16.2478 1094 123.431 113.229 475.757
737 0 69.2212 15.0965 1045 127.105 114 474.795
738 0 71.1602 14.9241 1062 128.761 113.348 474.525
739 0 73.4344 14.9249 1096 130.995 112.953 472.461
740 0 76.2418 15.4902 1181 129.665 112.701 471.875
741 0 80.1408 15.2482 1222 131.073 112.137 470.062
742 0 83.2198 15.7895 1314 129.931 112.819 468.795
743 0 83.2487 14.2465 1186 135.01 112.84 468.246
744 0 86.1474 14.6261 1260 135.305 113.135 465.759
745 0 91.085 14.9311 1360 134.737 113.178 463.679
746 0 95.1045 14.8363 1411 137.394 113.146 461.425
747 1 48.1384 12.0486 580 141.186 113.54 486.114
748 0 52.1301 13.1018 683 135.72 113.824 485.305
749 0 53.054 13.3449 708 135.993 113.75 484.124
750 0 55.067 14.0193 772 134.102 113.434 483.12
751 0 58.0752 14.1024 819 133.665 113.926 481.862
752 0 59.1551 13.9126 823 136.16 113.931 480.288
753 0 62.113 14.6024 907 132.906 114.012 479.427
754 0 64.1438 14.1869 910 136.578 114.022 477.674
755 0 65.1643 14.1642 923 137.713 113.512 474.863
756 0 69.288 14.115 978 138.22 113.875 474.739
757 0 70.2866 13.9714 982 139.793 114.542 473.368
758 0 73.3255 14.797 1085 138.836 113.746 470.857
759 0 76.2545 14.4647 1103 139.672 113.542 469.765
760 0 77.257 14.7171 1137 141.02 113.629 468.179
761 0 80.4245 15.2068 1223 138.246 113.581 468.717
762 0 84.4207 15.7781 1332 137.331 113.528 466.887
763 0 86.4105 15.1718 1311 140.328 113.668 463.844
764 0 89.5011 14.4914 1297 142.121 113.9 464.106
765 0 91.2911 13.6377 1245 146.182 113.283 461.398
766 0 96.3578 15.0377 1449 140.199 113.219 460.466
767 1 48.2185 12.2152 589 143.834 113.531 482.414
768 0 51.277 13.8659 711 140.934 114.053 481.08
769 0 53.3882 14.1604 756 141.411 113.451 479.463
770 0 54.4522 12.9288 704 144.94 113.797 479.462
771 0 55.3506 13.7306 760 145.408 113.467 477.753
772 0 58.6339 14.4285 846 142.446 113.578 476.793
773 0 60.6722 13.5152 820 143.941 113.438 477.207
774 0 64.4054 12.7784 823 145.465 113.932 475.504
775 0 64.5233 13.7005 884 143.847 113.595 475.61
776 0 65.6146 14.2194 933 142.826 114.071 473.015
777 0 66.4149 13.5813 902 144.957 114.619 473.79
778 0 70.4438 13.8408 975 143.218 114.35 472.488
779 0 70.4727 13.7074 966 146.067 114.043 470.349
780 0 73.4204 13.7428 1009 145.316 113.8 469.37
781 0 76.3943 14.8309 1133 142.181 113.838 468.136
782 0 77.3867 14.266 1104 145.39 113.169 467.762
783 0 82.3766 15.1742 1250 140.326 113.71 467.659
784 0 85.3842 15.2839 1305 139.293 113.572 465.385
785 0 87.322 14.0629 1228 144.638 112.464 465.105
786 0 91.1632 14.4247 1315 142.542 113.059 462.992
787 0 92.2761 13.7956 1273 145.425 113.04 460.95
788 0 96.4634 13.6632 1318 144.47 112.633 458.662
789 0 101.227 14.0872 1426 141.67 111.745 458.257
790 0 105.425 14.1049 1487 140.337 113.172 454.401
791 1 54.1882 10.1498 550 135.162 112.456 479.704
792 0 57.0874 11.1233 635 136.537 113.957 478.63
793 0 59.0496 11.7867 696 134.136 112.894 478.718
794 0 60.0373 11.6428 699 134.561 113.044 478.597
795 0 62.1116 11.914 740 135.591 113.42 477
796 0 65.1151 10.9038 710 135.183 112.962 477.163
797 0 67.0564 10.9758 736 137.675 112.764 473.643
798 0 68.1372 10.9045 743 138.63 112.954 471.494
799 0 73.15 11.4286 836 135.251 113.138 471.292
800 0 76.254 10.7535 820 136.551 112.645 470.28
801 0 79.1291 10.7672 852 136.704 112.16 469.35
802 0 80.1695 10.2283 820 140.009 112.701 465.984
803 0 82.1157 9.69364 796 141.373 112.619 463.877
804 1 47.123 10.2922 485 121.375 113.109 485.548
805 0 49.1965 10.7122 527 119.628 113.359 485.455
806 0 49.1277 9.87223 485 123.664 113.755 483.662
807 0 50.507 10.4342 527 123.353 112.706 484.042
808 0 50.2659 10.524 529 122.807 112.856 481.474
809 0 52.1197 9.05607 472 126.299 113.218 480.979
810 0 54.2486 9.862 535 125.364 112.71 479.125
811 0 58.1616 9.64554 561 123.818 112.856 480.941
812 0 60.3115 10.9432 660 121.332 112.588 477.683
813 0 61.2401 9.30762 570 125.511 112.586 476.835
814 0 64.2034 10.8717 698 123.4 112.145 474.494
815 0 66.2166 9.09138 602 133.309 112.332 473.329
816 0 69.1911 11.3165 783 127.48 112.423 473.484
817 0 73.1956 11.3531 831 125.676 111.776 471.6
818 0 75.2385 10.4069 783 128.4 112.303 471.626
819 0 78.1796 10.9619 857 129.394 112.436 467.765
820 0 82.126 10.1917 837 132.409 111.996 466.449
821 0 83.2719 8.85052 737 134.186 111.567 467.083
822 0 88.285 11.2024 989 129.268 111.957 465.71
823 0 88.4024 10.9386 967 136.226 111.665 464.402
824 0 89.4932 11.9562 1070 135.815 111.426 461.525
825 0 93.5428 10.5406 986 138.542 111.386 464.156
826 0 95.5545 10.2664 981 142.525 111.284 458.502
827 1 47.137 9.03749 426 127.155 112.27 485.228
828 0 48.1666 8.94812 431 127.671 112.828 486.309
829 0 58.2663 8.95886 522 122.72 112.862 487.096
830 0 57.152 11.3907 651 123.989 112.916 481.641
831 0 58.2681 11.018 642 121.148 112.322 481.393
832 0 58.1575 10.6263 618 123.536 112.366 481.511
833 0 60.249 11.0707 667 123.054 112.204 480.763
834 0 63.3022 11.5162 729 122.665 112.187 478.033
835 0 65.1448 11.6203 757 122.877 112.363 477.221
836 0 66.2986 11.6141 770 121.019 112.006 477.332
837 0 68.1564 11.8844 810 121.01 112.305 476.041
838 0 72.1111 12.1757 878 120.317 113.12 475.416
839 0 73.2954 12.6338 926 120.896 112.757 475.314
840 0 74.1688 11.4064 846 125.158 112.903 474.892
841 0 78.373 13.155 1031 121.275 112.784 472.349
842 0 78.3131 11.4413 896 130.407 112.667 470.533
843 0 82.3045 12.0285 990 128.521 112.894 471.366
844 0 82.3105 12.0398 991 129.075 112.103 467.181
845 0 87.2084 13.1524 1147 126.433 111.858 464.959
846 0 90.3335 12.2435 1106 130.455 112.25 462.608
847 0 91.3889 12.5945 1151 131.18 111.43 459.381
848 0 96.2412 12.105 1165 131.826 111.486 459.576
849 0 99.2738 11.977 1189 132.858 111.783 457.553
850 0 105.241 12.4666 1312 129.877 112.405 459.909
851 1 54.0275 12.142 656 128.675 114.066 484.099
852 0 54.1079 10.9041 590 140.815 113.797 483.527
853 0 57.0663 11.7758 672 137.714 113.503 482.696
854 0 56.0589 11.8804 666 138.928 113.342 482.255
855 0 59.0836 12.5246 740 136.249 113.222 480.643
856 0 61.0935 12.5709 768 135.408 113.453 480.224
857 0 63.0931 12.6955 801 136.373 112.855 479.144
858 0 61.05 11.9246 728 141.687 113.999 479.173
859 0 66.0207 12.7081 839 138.536 113.61 476.586
860 0 68.1069 12.9796 884 135.905 112.769 476.597
861 0 71.0245 13.8966 987 133.084 113.363 475.635
862 0 73.1065 13.2546 969 138.188 114.143 472.606
863 0 76.1943 13.4393 1024 134.929 113.352 474.065
864 0 78.0894 14.0224 1095 134.961 112.97 471.669
865 0 79.0676 13.7351 1086 137.52 113.331 470.765
866 0 83.0906 13.6718 1136 135.857 112.872 470.755
867 0 86.0856 14.1719 1220 134.724 112.872 468.995
868 0 86.063 13.8503 1192 138.481 113.153 466.446
869 0 91.1074 14.7848 1347 136.137 113.062 464.431
870 0 94.1355 13.4806 1269 140.229 113.694 463.015
871 1 50.0932 12.7363 638 138.674 113.422 485.036
872 0 49.0421 11.9285 585 141.846 113.316 486.115
873 0 50.0253 12.7735 639 133.894 114.045 484.211
874 0 52.0308 13.3959 697 131.099 111.971 483.838
875 0 56.0333 14.3843 806 125.351 114.122 482.074
876 0 56.0351 13.4737 755 128.801 114.244 483.168
877 0 58.0241 13.0291 756 130.44 113.874 481.376
878 0 61.1665 13.079 800 129.661 113.579 480.942
879 0 63.0531 14.7336 929 124.862 113.568 479.956
880 0 65.1563 13.6441 889 129.336 113.372 478.279
881 0 67.071 13.3292 894 130.7 112.902 477.054
882 0 69.0712 13.1024 905 132.55 112.933 476.275
883 0 72.1334 14.0712 1015 128.81 112.268 475.63
884 0 74.0802 13.3504 989 132.178 112.308 474.484
885 0 76.0529 13.7141 1043 131.918 112.155 471.956
886 0 79.103 14.0829 1114 131.321 112.6 471.183
887 0 80.0912 13.4097 1074 133.936 112.385 470.538
888 0 85.1144 14.4511 1230 127.788 111.962 467.176
889 0 87.0668 13.9089 1211 129.917 112.301 466.011
890 0 90.0639 13.7014 1234 131.641 112.061 464.767
891 0 93.0598 13.8621 1290 132.226 112.667 463.264
892 0 96.0859 13.7481 1321 133.257 112.977 463.454
893 0 101.174 14.6184 1479 131.937 112.275 459.346
894 0 104.335 13.1596 1373 142.305 111.681 454.141
896 0 104.082 12.9129 1344 143.438 111.6 452.452
897 0 109.226 14.5845 1593 136.188 111.953 450.638
898 0 114.182 13.8375 1580 137.928 111.735 449.702
899 1 57.0619 13.0034 742 130.837 112.151 476.732
900 0 59.0173 13.064 771 129.182 112.42 476.104
901 0 60.0681 12.4192 746 129.655 111.992 475.642
902 0 67.0262 13.7111 919 126.181 111.702 472.003
903 0 68.1273 12.4766 850 130.472 112.035 470.44
904 0 71.1381 12.6093 897 130.202 112.011 470.522
905 0 73.1637 13.4493 984 129.248 112.349 466.459
906 0 76.1024 13.2979 1012 126.86 112.415 468.909
907 0 77.0487 13.0048 1002 130.08 112.099 465.384
908 0 82.1098 14.0422 1153 125.794 112.23 464.103
909 0 84.1311 14.204 1195 128.173 111.586 461.439
910 0 88.103 13.9042 1225 129.454 111.664 460.127
911 0 92.2676 13.4717 1243 127.706 111.138 459.745
912 0 97.0908 13.9457 1354 127.651 111.593 456.64
913 1 45.1597 11.1604 504 123.7 111.415 482.869
914 0 47.1829 11.8263 558 129.296 111.762 482.158
915 0 49.1058 11.9945 589 128.638 111.669 480.676
916 0 51.1627 13.1737 674 121.702 111.831 484.174
917 0 52.1241 12.8539 670 123.655 112.413 482.273
918 0 53.0702 13.5104 717 123.448 111.739 481.529
919 0 55.0499 12.4614 686 125.134 112.388 482.388
920 0 58.0779 13.3614 776 122.577 112.024 480.814
921 0 60.0493 13.3224 800 122.699 111.634 480.334
922 0 62.0533 13.8268 858 120.495 111.777 479.486
923 0 65.0397 14.0068 911 119.679 112.058 477.633
924 0 66.1538 13.6047 900 121.003 111.827 476.542
925 0 67.1041 12.9053 866 123.464 112.196 475.932
926 0 69.0838 12.6947 877 118.961 113.201 472.765
927 0 73.2059 13.1 959 117.62 112.271 471.62
928 0 74.1033 12.5905 933 119.091 112.128 471.061
929 0 78.1263 12.7102 993 117.376 113.169 470.553
930 0 79.1268 13.5352 1071 116.341 112.768 468.302
931 0 83.1681 13.5389 1126 117.13 112.397 466.398
932 0 87.1333 12.4981 1089 118.275 112.714 466.349
933 0 88.0649 13.0131 1146 121.686 113.153 464.293
934 1 49.0304 12.8696 631 118.16 114.063 485.978
935 0 49.1742 12.2625 603 121.254 113.655 483.695
936 0 50.1195 12.6099 632 122.074 114.079 484.616
937 0 53.0992 12.6556 672 119.818 113.854 484.717
938 0 52.0681 11.6962 609 120.263 113.7 482.386
939 0 55.1543 12.1296 669 119.372 114.087 481.939
940 0 56.0684 11.9319 669 121.393 113.873 481.75
941 0 59.0747 12.6619 748 118.139 112.971 480.408
942 0 62.041 13.1687 817 114.853 113.255 479.163
943 0 64.09 13.0598 837 115.62 112.984 476.879
944 0 66.1473 12.4117 821 116.287 112.577 477.164
945 0 69.3343 12.8796 893 116.489 113.059 475.346
946 0 71.2641 13.1483 937 114.899 112.839 474.896
947 0 74.1391 12.5844 933 116.658 112.517 472.525
948 0 77.172 12.673 978 118.184 113.017 470.727
949 0 80.1773 12.4973 1002 117.856 112.978 469.859
950 0 82.1185 12.2262 1004 120.731 112.712 468.678
951 0 85.1319 12.1459 1034 121.121 112.596 466.964
952 0 86.2065 11.426 985 122.322 112.64 466.543
953 0 91.123 12.8617 1172 120.076 112.756 463.855
954 0 93.135 13.0671 1217 118.555 113.304 461.996
955 1 48.0627 11.8179 568 115.22 114.577 484.41
956 0 52.0652 11.6201 605 114.402 113.403 483.676
957 0 52.1049 12.187 635 114.082 113.085 480.589
958 0 54.0914 12.9596 701 107.867 113.787 482.825
959 0 54.0902 12.3867 670 111.178 113.075 481.248
960 0 57.0757 13.1054 748 109.406 112.872 480.789
961 0 61.1823 13.1574 805 109.231 113.815 478.421
962 0 62.0716 12.3728 768 111.618 113.784 478.911
963 0 65.2926 13.6309 890 107.622 113.88 476.89
964 0 67.0581 14.4502 969 106.042 113.322 475.285
965 0 69.031 14.24 983 107.098 113.399 474.913
966 0 71.1338 12.6522 900 112.048 113.038 473.448
967 0 72.0979 12.9269 932 112.977 112.813 473.209
968 0 74.1341 12.3155 913 115.51 112.846 470.673
969 0 78.1592 13.4469 1051 112.353 112.391 468.782
970 0 80.2658 12.7078 1020 115.157 112.09 467.139
971 0 84.3107 13.2723 1119 115.948 111.769 465.691
972 0 87.3808 13.3325 1165 118.968 111.918 463.468
973 0 90.1149 13.6714 1232 119.121 111.961 461.855
974 0 95.184 13.5842 1293 119.226 112.155 459.969
975 1 48.1334 13.3795 644 114.107 112.503 481.915
976 0 49.114 12.3183 605 117.428 111.737 481.96
977 0 51.1158 12.1098 619 120.935 112.785 479.754
978 0 54.2895 13.7596 747 117.62 112.403 479.616
979 0 55.1599 14.2495 786 116.934 112.19 480.392
980 0 56.0966 14.4037 808 119.097 111.807 477.006
981 0 57.2065 13.3202 762 122.005 112.625 475.161
982 0 60.1852 13.3754 805 121.732 112.557 474.898
983 0 62.2252 14.6243 910 120.154 112.049 473.458
984 0 63.1826 13.0099 822 124.602 111.833 472.408
985 0 66.4339 13.8483 920 122.4 111.329 471.59
986 0 66.2974 14.1333 937 123.191 111.747 470.953
987 0 71.112 14.3998 1024 121.77 111.649 469.725
988 0 72.1225 14.0455 1013 124.732 112.16 467.971
989 0 75.3042 14.5543 1096 123.182 112.446 466.97
990 0 78.3177 13.2792 1040 126.27 112.122 465.808
991 0 80.1179 13.7048 1098 126.934 112.106 462.921
992 0 83.3056 14.7529 1229 123.932 111.758 462.067
993 0 86.3381 13.9336 1203 127.087 112.637 462.105
994 0 90.5049 15.2588 1381 123.502 111.917 459.042
995 0 92.3576 15.4833 1430 123.992 112.049 459.58
996 0 95.3208 15.6104 1488 124.464 111.679 456.003
997 0 97.2265 14.7182 1431 128.469 111.863 455.344
998 0 98.3295 13.8209 1359 132.974 112.311 450.828
999 0 103.298 14.5986 1508 130.582 111.867 451.527
1000 0 105.226 14.2265 1497 132.27 112.813 450.889
1001 0 110.484 14.3731 1588 130.329 111.776 449.895
1002 0 113.194 14.7446 1669 129.742 112.152 447.362
1003 0 117.27 14.4965 1700 129.796 113.147 445.332
1004 0 122.289 15.488 1894 127.097 112.657 442.471
1005 0 125.519 14.7946 1857 128.486 112.516 441.541
1006 0 131.279 15.1357 1987 127.962 112.937 436.237
1007 0 135.383 14.2263 1926 130.694 112.417 436.874
1008 1 69.4041 11.9013 826 134.863 112.165 470.289
1009 0 72.2237 14.0812 1017 128.374 112.148 465.787
1010 0 73.2612 13.6361 999 127.928 112.639 466.303
1011 0 76.1722 13.7846 1050 127.191 112.166 463.767
1012 0 81.2858 14.8365 1206 122.472 112.069 462.133
1013 0 84.2722 13.9785 1178 124.755 112.515 459.587
1014 0 86.1821 13.8428 1193 124.934 112.35 459.485
1015 0 88.2345 13.8608 1223 125.416 112.157 458.191
1016 0 91.3576 13.6497 1247 126.888 112.497 452.98
1017 0 95.2091 13.9272 1326 126.369 112.741 455.596
1018 0 98.2029 14.1035 1385 126.632 112.763 454.096
1019 0 103.371 13.4371 1389 128.108 112.203 452.415
1020 1 54.0748 11.3362 613 122.24 113.605 478.114
1021 0 51.1374 11.4593 586 122.879 113.56 475.392
1022 0 55.1704 10.8391 598 119.502 112.911 473.513
1023 0 59.1654 11.2397 665 112.812 113.502 475.394
1024 0 61.1097 13.0585 798 110.569 113.733 478.405
1025 0 62.0988 12.5123 777 112.884 113.562 476.463
1026 0 63.0611 11.9725 755 113.526 113.465 476.147
1027 0 66.1013 11.9816 792 114.177 113.247 473.23
1028 0 68.1375 12.8857 878 111.476 112.785 474.13
1029 0 67.0245 10.2798 689 118.827 112.877 470.887
1030 0 73.0659 12.3998 906 111.993 112.533 470.709
1031 0 75.0973 12.4771 937 112.2 112.565 468.204
1032 0 78.1203 11.3031 883 114.564 113.732 468.116
1033 0 80.1056 11.7844 944 112.94 113.606 465.353
1034 0 84.2852 11.8408 998 111.702 113.347 465.057
1035 0 87.1062 12.0657 1051 112.593 113.265 462.104
1036 0 90.083 11.9112 1073 111.665 112.998 461.612
1037 1 47.0452 9.90537 466 106.657 114.326 483.459
1038 0 48.0364 11.4913 552 102.897 114.362 481.576
1039 0 50.066 10.4063 521 104.687 114.727 481.562
1040 0 54.0639 11.9673 647 99.7589 114.185 479.606
1041 0 55.0753 12.5646 692 98.2197 114.929 479.54
1042 0 56.0604 11.006 617 101.99 114.308 477.569
1043 0 60.0945 11.8314 711 98.9269 113.477 477.622
1044 0 59.1528 8.72317 516 106.539 114.574 477.209
1045 0 61.0443 10.7954 659 102.487 114.486 476.106
1046 0 63.0536 10.3721 654 103.365 114.251 474.378
1047 0 67.1108 11.0861 744 101.488 114.305 474.054
1048 0 68.0637 10.9456 745 102.874 114.095 472.164
1049 0 70.1267 9.4258 661 105.595 113.513 471.995
1050 0 70.0738 10.7458 753 104.677 113.874 469.511
1051 0 75.1237 11.0884 833 103.947 113.945 467.636
1052 0 77.0684 10.7697 830 104.573 113.43 465.466
1053 0 82.1386 12.6372 1038 99.9981 113.598 468.495
1054 0 84.0848 11.2149 943 104.151 114.522 464.393
1055 0 87.2044 11.3756 992 104.068 113.693 464.751
1056 1 44.0808 9.39185 414 108.017 114.278 481.667
1057 0 47.0554 9.73321 458 107.197 114.384 482.229
1058 0 50.0177 10.3963 520 105.079 114.252 480.567
1059 0 49.1368 10.7659 529 101.599 113.934 480.637
1060 0 51.2039 10.3898 532 103.632 113.363 483.303
1061 0 53.1137 10.5999 563 103.055 113.288 481.993
1062 0 54.0357 10.9557 592 101.821 111.99 481.062
1063 0 54.0784 9.85605 533 105.769 112.246 479.869
1064 0 56.0772 10.6104 595 104.005 113.032 478.188
1065 0 56.0694 9.86279 553 107.118 112.356 475.812
1066 0 60.0506 11.2239 674 103.966 112.598 475.632
1067 0 64.1347 11.6785 749 102.238 112.769 475.332
1068 0 69.1266 12.0648 834 101.456 112.23 472.508
1069 0 69.1231 11.2408 777 104.788 112.134 473.019
1070 0 73.2322 11.2519 824 104.609 112.392 472.869
1071 0 74.1626 11.4478 849 106.395 112.881 471.082
1072 0 76.1188 11.1011 845 108.509 112.592 469.172
1073 0 79.1242 11.5515 914 108.605 112.86 466.624
1074 1 43.0748 12.0024 517 105.356 112.855 486.315
1075 0 46.0629 10.985 506 108.128 113.166 486.374
1076 0 47.1551 11.6848 551 108.702 114.733 484.265
1077 0 47.0566 12.0918 569 110.993 114.705 484.851
1078 0 47.1192 12.288 579 112.691 114.541 484.332
1079 0 49.0709 12.3902 608 113.132 114.36 483.896
1080 0 50.0277 12.1333 607 116.311 112.886 483.888
1081 0 50.0865 11.4003 571 120.706 112.657 483.483
1082 0 53.0715 12.2476 650 119.777 112.962 481.695
1083 0 53.0556 11.8366 628 122.916 112.774 482.146
1084 0 57.1365 10.9212 624 124.127 112.987 481.684
1085 0 58.0446 11.6807 678 123.473 113.311 479.357
1086 0 58.1103 11.3405 659 125.554 112.768 480.31
1087 0 60.1288 12.0076 722 124.752 112.001 478.381
1088 0 61.0526 12.006 733 126.232 112.295 478.263
1089 0 64.0494 13.1305 841 123.288 112.169 478.012
1090 0 66.0491 12.6421 835 126.186 113.002 475.905
1091 0 67.2146 13.4197 902 125.165 112.635 474.297
1092 0 68.1275 12.1097 825 130.319 112.676 473.825
1093 0 72.1174 12.341 890 128.101 112.64 472.512
1094 0 72.084 12.4854 900 130.249 113.012 471.87
1095 0 74.0233 13.3607 989 127.443 112.154 470.945
1096 0 78.0662 13.2452 1034 126.855 112.504 469.573
1097 0 82.4724 12.8407 1059 125.14 113.337 462.109
1098 0 85.1804 13.3247 1135 124.643 113.035 464.834
1099 0 87.192 12.6502 1103 126.429 113.083 465.768
1100 0 89.1397 13.2825 1184 124.159 113.207 463.432
1101 0 94.1515 13.0747 1231 124.084 113.434 462.429
1102 1 50.0445 11.7695 589 122.767 113.423 484.526
1103 0 51.0568 12.5938 643 121.809 113.257 481.235
1104 0 52.106 12.4938 651 123.346 113.631 480.693
1105 0 56.1458 13.7677 773 116.226 113.728 479.752
1106 0 56.0597 12.8256 719 119.074 113.277 480.366
1107 0 59.1366 12.6318 747 117.963 113.791 478.596
1108 0 59.1593 12.1198 717 120.538 113.466 477.633
1109 0 64.1722 12.8716 826 116.363 113.707 476.61
1110 0 66.1652 13.5419 896 113.852 112.961 474.439
1111 0 67.1157 12.918 867 115.645 113.404 471.769
1112 0 71.2684 13.4983 962 113.203 113.196 471.212
1113 0 72.1234 13.6017 981 113.293 112.764 470.458
1114 0 75.1653 13.3306 1002 112.799 112.992 467.603
1115 0 77.1163 13.0712 1008 114.135 112.843 467.273
1116 0 79.1878 13.588 1076 113.206 112.921 467.583
1117 0 83.1912 13.4509 1119 113.391 113.193 464.926
1118 0 87.3385 13.316 1163 113.598 113.049 463.624
1119 0 89.1563 13.1006 1168 114.551 113.256 462.784
1120 0 90.141 12.1144 1092 118.451 113.141 458.201
1121 1 50.1668 11.2226 563 113.112 113.821 483.366
1122 0 53.1573 12.0585 641 117.842 112.139 476.376
1123 0 52.0563 9.68182 504 118.98 112.78 474.143
1124 0 55.0287 11.921 656 115.492 113.773 476.688
1125 0 57.1175 11.6602 666 116.465 114.335 475.269
1126 0 58.0308 12.3555 717 114.948 114.049 475.396
1127 0 60.1131 11.8277 711 116.482 113.466 474.526
1128 0 62.0637 11.6977 726 117.715 113.461 473.536
1129 0 64.0838 11.7658 754 117.349 113.214 472.94
1130 0 64.1057 11.1534 715 120.895 113.175 471.642
1131 0 67.0843 11.3141 759 118.256 113.465 471.98
1132 0 71.1732 12.8981 918 114.113 113.216 471.111
1133 0 72.1077 12.5229 903 115.833 113.23 470.666
1134 0 74.138 13.1646 976 113.617 113.397 470.764
1135 0 77.1311 13.8595 1069 114.003 113.749 467.397
1136 0 80.1395 12.1538 974 116.931 113.49 468.833
1137 0 80.1717 12.1988 978 118.338 114.153 465.771
1138 0 86.1477 13.059 1125 115.606 114.343 463.412
1139 0 89.1642 12.9424 1154 115.945 113.999 462.003
1140 0 91.1757 13.2272 1206 115.127 113.197 462.131
1141 0 95.1136 13.7309 1306 113.669 113.477 461.388
1142 0 98.0766 12.8165 1257 116.344 113.278 456.587
1143 1 54.0622 9.41507 509 112.44 113.196 481.762
1144 0 56.0798 11.8046 662 108.752 111.881 478.437
1145 0 59.16 11.2745 667 109.529 112.478 477.06
1146 0 60.1317 11.375 684 107.911 113.817 473.981
1147 0 63.1726 11.8881 751 107.895 112.213 477.47
1148 0 67.1321 14.2555 957 101.621 112.619 475.791
1149 0 66.2072 12.8385 850 107.865 111.795 472.125
1150 0 68.1051 12.6422 861 107.778 111.94 472.338
1151 0 72.0981 13.8006 995 104.878 112.366 470.091
1152 0 75.1252 12.6456 950 107.136 112.311 469.711
1153 0 75.1863 12.7151 956 108.026 112.717 468.66
1154 0 76.1201 12.7693 972 108.658 112.711 466.854
1155 0 82.1174 12.9083 1060 107.916 112.184 467.213
1156 0 83.1335 13.3761 1112 107.578 112.171 467.265
1157 0 87.2091 13.4848 1176 107.964 112.652 464.311
1158 0 88.1723 12.5209 1104 111.212 112.218 463.673
1159 0 91.1457 13.0341 1188 111.389 112.824 459.599
1160 0 95.2612 13.1533 1253 112.007 112.543 456.986
1161 0 98.0915 12.7126 1247 113.781 112.677 457.413
1162 1 50.0567 10.7678 539 110.265 113.429 479.349
1163 0 52.1272 10.6279 554 110.139 114.034 480.029
1164 0 54.1719 11.4081 618 116.413 113.183 480.451
1165 0 56.0823 13.2484 743 108.576 113.942 478.373
1166 0 58.1682 12.8421 747 109.802 113.542 479.696
1167 0 60.157 12.1848 733 112.854 112.662 477.397
1168 0 59.1329 11.3135 669 115.094 113.526 475.8
1169 0 61.111 12.1255 741 113.964 113.335 474.803
1170 0 65.1076 12.4409 810 112.599 112.983 474.015
1171 0 67.1272 11.575 777 114.704 112.445 473.758
1172 0 68.118 12.1701 829 113.235 113.283 472.229
1173 0 72.1183 11.703 844 114.442 113.244 471.495
1174 0 73.1357 12.5657 919 114.225 112.83 470.243
1175 0 77.173 12.6599 977 112.603 112.911 469.842
1176 0 76.164 11.9479 910 116.885 113.358 467.956
1177 0 79.1109 10.8076 855 119.618 113.657 466.598
1178 0 83.0992 12.0338 1000 115.782 113.655 464.847
1179 0 87.1551 13.6653 1191 110.995 112.759 463.646
1180 0 89.1595 12.573 1121 114.74 112.714 460.07
1181 1 48.0427 10.8237 520 114.887 113.987 482.19
1182 0 50.0652 10.9258 547 112.333 113.881 481.963
1183 0 49.1465 10.194 501 117.2 113.347 480.986
1184 0 53.0529 11.2718 598 113.003 113.253 480.273
1185 0 54.0891 11.3332 613 114.912 111.352 477.504
1186 0 55.0642 11.4412 630 114.356 111.294 478.584
1187 0 57.0321 11.6952 667 114.415 111.369 477.757
1188 0 59.0715 12.7134 751 116.803 110.173 475.731
1189 0 59.0898 12.2695 725 119.081 110.379 476.703
1190 0 62.0754 12.8392 797 117.639 111.006 473.084
1191 0 65.0604 13.1109 853 116.654 110.932 472.927
1192 0 65.0329 13.3778 870 116.32 111.18 472.236
1193 0 69.0907 11.8974 822 120.325 110.639 472.095
1194 0 71.1303 13.4964 960 115.916 110.725 468.876
1195 0 72.1147 11.759 848 122.006 111.225 470.254
1196 0 76.191 12.4293 947 119.665 111.346 466.724
1197 0 76.1072 12.9291 984 120.636 111.016 466.135
1198 0 80.0883 12.686 1016 120.912 111.362 463.605
1199 0 82.0976 12.1684 999 121.211 111.992 463.532
1200 0 86.2001 12.5754 1084 120.446 111.756 462.739
1201 0 89.2593 13.1639 1175 117.734 111.827 460.546
1202 1 49.2511 10.9236 538 124.654 111.84 479.015
1203 0 49.4655 10.4517 517 126.292 112.468 475.596
1204 0 51.3429 10.8876 559 117.939 111.447 470.329
1205 0 50.2125 9.79836 492 119.972 111.325 472.36
1206 0 55.2093 11.393 629 114.03 112.496 472.006
1207 0 56.328 10.066 567 117.862 111.84 472.116
1208 0 57.1748 11.2287 642 115.042 111.632 469.836
1209 0 59.1379 9.72303 575 118.494 111.953 470.821
1210 0 61.2243 10.976 672 116.655 111.792 468.031
1211 0 62.2598 10.8095 673 116.944 111.773 468.407
1212 0 67.1621 11.0181 740 115.75 111.432 467.566
1213 0 69.1574 11.0183 762 116.043 112.163 467.486
1214 0 72.1607 11.1695 806 115.562 111.756 465.555
1215 0 70.3222 9.64134 678 121.332 111.889 463.236
1216 0 75.2013 10.5716 795 117.767 111.662 463.543
1217 0 77.2753 11.9702 925 114.318 111.991 463.197
1218 0 81.1632 12.481 1013 113.561 111.438 462.814
1219 0 81.1317 10.4028 844 120.015 111.608 459.166
1220 0 88.1464 11.3788 1003 114.127 111.405 454.669
1221 0 90.1767 11.8101 1065 114.054 111.221 454.042
1222 0 94.4897 11.2393 1062 114.795 111.297 455.097
1223 0 95.323 11.3928 1086 115.144 111.604 453.9
1224 0 100.161 11.8209 1184 116.907 111.656 453.421
1225 0 105.173 12.6648 1332 112.688 112.204 454.372
1226 1 56.221 11.1169 625 111.336 112.755 477.746
1227 0 58.1414 11.902 692 108.896 112.686 475.718
1228 0 57.1199 11.7997 674 107.193 112.858 477.69
1229 0 59.1443 11.4635 678 108.383 113.096 476.413
1230 0 62.1945 11.6248 723 107.053 112.82 475.617
1231 0 63.2246 12.2579 775 106.157 112.379 474.463
1232 0 63.1409 11.1022 701 110.091 112.297 471.456
1233 0 66.0833 11.8789 785 107.718 112.47 471.121
1234 0 68.1342 12.1378 827 107.49 112.591 470.62
1235 0 72.1231 12.0904 872 107.135 112.622 469.761
1236 0 73.1811 12.1889 892 108.13 112.377 469.645
1237 0 73.2433 11.141 816 111.636 112.254 469.297
1238 0 78.119 12.3401 964 109.617 111.729 465.771
1239 0 81.1466 11.6826 948 111.293 112.44 464.793
1240 0 83.1232 12.0664 1003 110.443 111.88 463.591
1241 0 87.1812 12.8124 1117 108.572 111.551 461.563
1242 0 90.1172 12.4726 1124 109.707 111.854 461.788
1243 0 92.2233 12.9794 1197 109.631 112.108 457.93
1244 1 49.0869 9.69709 476 111.485 112.256 481.172
1245 0 50.0436 10.9504 548 110.85 112.401 478.819
1246 0 52.318 10.1112 529 113.282 110.854 476.96
1247 0 55.1931 11.5413 637 110.008 111.333 475.35
1248 0 55.0681 11.4041 628 106.081 112.973 477.634
1249 0 56.1094 10.4261 585 108.862 113.304 476.121
1250 0 61.0812 11.5911 708 104.763 112.886 474.541
1251 0 61.0904 10.7873 659 107.85 111.862 474.083
1252 0 63.1201 10.5513 666 108.728 111.7 472.724
1253 0 64.1351 11.6161 745 107.264 112.365 471.863
1254 0 68.0869 11.4266 778 107.071 112.166 470.519
1255 0 70.0927 11.1138 779 107.979 112.718 470.579
1256 0 73.1888 13.0075 952 104.501 112.4 469.232
1257 0 76.1091 12.6792 965 104.931 112.625 468.191
1258 0 77.1349 12.6272 974 105.792 112.357 467.166
1259 0 80.1363 12.1418 973 108.094 111.712 464.855
1260 0 85.1088 13.8999 1183 102.479 112.492 465.375
1261 0 87.2112 11.6269 1014 103.676 111.99 457.425
1262 0 91.246 13.0636 1192 100.068 111.39 457.987
1263 0 92.1108 12.8432 1183 101.981 111.67 456.118
1264 0 97.2437 13.0188 1266 101.933 111.632 453.809
1265 1 50.1041 9.95926 499 101.679 112.549 479.868
1266 0 51.1389 11.283 577 100.867 110.53 478.289
1267 0 52.1503 10.1246 528 108.136 111.161 477.47
1268 0 53.1004 11.5253 612 99.3203 111.453 474.355
1269 0 57.0425 11.7281 669 105.701 112.952 479.994
1270 0 58.0764 11.3816 661 108.964 112.439 478.607
1271 0 60.0884 10.7342 645 106.958 112.575 479.85
1272 0 60.1356 10.5761 636 109.821 112.313 476.643
1273 0 60.1222 11.0442 664 110.111 112.065 475.506
1274 0 64.0811 11.423 732 107.534 112.358 475.316
1275 0 64.255 11.9835 770 107.891 112.543 471.716
1276 0 69.2655 12.5604 870 104.567 112.302 471.355
1277 0 71.1481 11.8204 841 105.436 113.102 471.241
1278 0 73.1272 11.8834 869 105.619 112.312 470.284
1279 0 75.129 12.2855 923 105.705 112.077 468.361
1280 0 77.088 12.116 934 104.501 112.695 466.849
1281 0 79.1275 11.8037 934 104.686 112.49 466.726
1282 0 82.0588 12.1864 1000 104.414 112.74 463.928
1283 0 82.1205 10.0219 823 108.453 112.591 464.129
1284 0 87.2914 11.1122 970 103.692 113.087 458.432
1285 0 92.1589 12.294 1133 101.693 112.899 455.688
1286 0 94.2362 11.885 1120 102.102 113.058 456.145
1287 0 97.1891 12.3779 1203 102.148 112.624 454.298
1288 0 103.125 12.9163 1332 103.092 112.27 453.947
1289 0 105.186 11.627 1223 105.052 112.513 451.032
1290 1 58.0601 10.3858 603 101.106 111.72 475.461
1291 0 60.0506 11.4403 687 106.124 113.163 472.285
1292 0 61.0422 12.8436 784 107.429 113.922 473.686
1293 0 65.0947 13.1501 856 105.179 113.68 473.736
1294 0 67.1381 12.2136 820 107.545 113.606 472.149
1295 0 70.1882 12.21 857 108.134 113.574 470.291
1296 0 71.0854 12.6749 901 106.916 114.103 467.809
1297 0 73.0954 11.7518 859 110.652 113.359 467.098
1298 0 74.1444 13.5007 1001 106.872 113.674 466.731
1299 0 79.1405 14.2784 1130 103.674 113.351 465.662
1300 0 80.1683 12.6359 1013 108.295 113.099 466.235
1301 0 84.2198 13.2629 1117 106.444 112.962 465.094
1302 0 86.076 12.9769 1117 108.133 113.521 461.571
1303 0 90.2285 14.2416 1285 105.005 113.38 460.675
1304 0 92.1545 12.8154 1181 109.307 112.45 459.256
1305 0 97.165 12.6795 1232 108.989 112.865 457.901
1306 0 100.167 13.767 1379 106.805 112.611 455.524
1307 0 103.252 12.9585 1338 109.354 112.576 453.711
1308 0 107.108 13.8738 1486 107.134 112.979 452.066
1309 1 52.0234 10.303 536 113.524 113.582 476.073
1310 0 54.1119 10.7924 584 101.923 112.539 473.033
1311 0 54.0891 10.7415 581 100.107 113.179 470.979
1312 0 56.1528 10.0618 565 101.63 112.55 468.956
1313 0 56.0858 9.55679 536 103.532 112.627 470.041
1314 0 60.1179 9.63107 579 102.413 112.364 470.159
1315 0 59.0799 10.0542 594 103.712 112.981 465.441
1316 0 62.0923 10.42 647 103.012 113.379 468.202
1317 0 65.1627 10.5121 685 102.985 112.923 466.746
1318 0 67.1082 10.4607 702 102.808 112.822 466.614
1319 0 71.1365 10.9086 776 101.83 112.668 465.534
1320 0 71.1575 9.65465 687 106.012 112.354 463.194
1321 0 75.2721 11.2658 848 103.335 112.403 462.084
1322 0 78.226 11.4923 899 103.617 112.492 461.095
1323 0 82.2349 12.6832 1043 101.822 111.989 458.559
1324 0 86.4001 11.7245 1013 104.681 112.422 459.032
1325 0 87.2473 12.7339 1111 105.056 112.388 457.51
1326 0 93.2349 12.8064 1194 105.593 113.002 458.572
1327 0 94.3119 12.5435 1183 110.035 112.264 457.615
1328 0 96.203 12.6191 1214 110.84 112.582 457.522
1329 0 100.188 12.9456 1297 109.834 112.746 456.325
1330 0 105.168 12.3992 1304 113.11 113.13 451.337
1331 1 57.0788 11.0549 631 112.098 113.07 474.696
1332 0 62.1133 12.2679 762 107.988 112.627 475.261
1333 0 65.0651 12.6642 824 107.648 113.147 475.523
1334 0 65.237 12.8302 837 104.712 112.827 472.965
1335 0 64.142 11.8331 759 109.26 113.246 471.427
1336 0 68.2495 12.3957 846 106.733 112.755 471.428
1337 0 68.155 12.7503 869 108.154 112.75 468.98
1338 0 72.1299 12.4082 895 107.86 112.39 470.461
1339 0 72.2069 11.5363 833 112.113 112.378 467.814
1340 0 75.2702 11.7975 888 111.148 113.025 467.403
1341 0 77.1438 12.2369 944 109.131 113.21 467.136
1342 0 80.2106 13.2526 1063 107.619 112.984 462.886
1343 0 81.1644 13.1215 1065 108.699 113.063 462.562
1344 0 85.0367 12.6769 1078 109.716 112.809 462.766
1345 0 88.1089 14.1643 1248 105.862 112.99 461.474
1346 0 91.0869 12.9437 1179 109.564 112.11 460.617
1347 0 91.0926 11.889 1083 112.783 112.744 458.29
1348 0 97.1321 13.4765 1309 108.139 112.335 458.62
1349 0 98.0771 13.0102 1276 110.087 112.917 455.77
1350 0 99.1196 12.8027 1269 111.7 112.985 450.437
1351 0 105.115 13.1189 1379 110.662 113.323 450.739
1352 0 107.183 13.2577 1421 110.643 112.661 451.211
1353 0 110.199 13.1217 1446 111.362 112.122 452.165
1354 0 114.164 12.6309 1442 113.503 111.4 447.635
1355 0 118.256 13.4538 1591 110.343 112.163 446.208
1356 0 119.197 12.7856 1524 113.639 112.339 440.568
1357 0 125.133 13.5696 1698 109.432 112.215 439.088
1358 1 66.0701 10.5797 699 111.844 113.029 472.886
1359 0 68.1978 11.452 781 111.225 111.154 467.609
1360 0 70.1215 13.063 916 108.004 109.784 468.697
1361 0 72.1153 12.3136 888 109.38 109.485 468.502
1362 0 72.116 11.9668 863 104.067 111.344 469.285
1363 0 74.1445 11.0865 822 106.111 110.659 467.726
1364 0 77.0939 12.621 973 102.227 111.595 467.687
1365 0 80.0469 12.705 1017 101.093 110.928 467.741
1366 0 79.0746 11.4449 905 105.208 109.901 464.662
1367 0 84.0673 11.693 983 104.211 110.41 465.247
1368 0 86.18 11.8705 1023 104.532 110.489 461.554
1369 0 89.1699 12.2799 1095 103.205 110.13 460.121
1370 0 90.1063 11.7084 1055 104.645 110.583 458.765
1371 0 92.0791 10.7299 988 106.67 111.653 456.713
1372 0 96.0981 12.3311 1185 104.284 111.085 458.68
1373 0 98.0857 12.9071 1266 103.58 110.825 456.325
1374 0 102.123 12.0051 1226 105.546 111.305 453.108
1375 0 104.165 11.549 1203 107.887 110.471 452.462
1376 0 109.165 12.6597 1382 104.938 110.538 451.49
1377 0 110.123 10.8242 1192 109.89 110.737 449.755
1378 1 62.0706 11.0036 683 108.126 110.382 474.127
1379 0 64.0719 11.5964 743 106.856 109.415 473.725
1380 0 67.0273 10.906 731 109.45 109.814 472.045
1381 0 69.1035 12.1267 838 106.053 109.635 471.087
1382 0 70.0958 11.47 804 108.705 110.133 470.553
1383 0 73.1045 11.5041 841 109.461 109.735 469.753
1384 0 75.1652 12.5457 943 107.502 109.51 468.821
1385 0 77.1159 11.9042 918 111.254 110.385 467.304
1386 0 80.1305 12.8915 1033 109.401 110.546 466.632
1387 0 81.0525 11.4494 928 113.815 109.82 463.773
1388 0 86.1608 12.4186 1070 111.395 110.122 464.121
1389 0 88.1936 14.1734 1250 108.185 110.745 463.723
1390 0 92.1841 14.3083 1319 108.407 110.953 460.582
1391 0 93.1804 13.4363 1252 110.815 111.188 462.018
1392 0 96.1889 12.9017 1241 114.693 110.912 455.74
1393 0 97.307 13.3289 1297 114.699 111.039 457.375
1394 0 101.477 13.9243 1413 114.271 110.375 454.88
1395 0 106.488 13.7481 1464 114.51 110.443 453.78
1396 0 110.297 13.5544 1495 115.747 109.37 453.824
1397 1 58.1403 10.4919 610 119.238 109.515 476.392
1398 0 62.2197 11.138 693 112.017 110.167 477.065
1399 0 62.2381 12.3236 767 109.166 109.86 474.565
1400 0 64.0789 12.2349 784 104.074 110.087 473.427
1401 0 65.1042 11.8733 773 104.988 110.493 472.145
1402 0 68.104 11.7321 799 104.479 110.108 472.309
1403 0 72.0864 12.818 924 100.418 110.502 471.542
1404 0 73.1274 12.0475 881 103.007 109.958 470.096
1405 0 72.0794 12.07 870 105.309 110.144 465.817
1406 0 78.0897 14.2016 1109 99.0018 109.674 465.635
1407 0 78.2203 12.0685 944 105.91 109.787 463.908
1408 0 81.1669 12.0369 977 105.187 109.675 463.373
1409 0 84.1186 12.1614 1023 105.195 110.384 461.701
1410 0 86.1369 12.515 1078 104.747 110.388 461.691
1411 0 90.1812 12.3529 1114 105.386 110.039 458.222
1412 0 93.1618 13.1062 1221 103.334 110.842 457.649
1413 0 94.3887 10.9865 1037 110.01 111.139 454.582
1414 0 98.1694 12.4275 1220 106.811 110.1 453.734
1415 0 101.29 12.2026 1236 111.743 111.021 451.863
1416 1 54.1985 10.7014 580 104.995 112.443 474.128
1417 0 55.0737 12.5468 691 102.414 110.229 475.203
1418 0 57.0932 12.3833 707 105.437 109.934 474.751
1419 0 58.1869 11.0678 644 107.179 110.446 472.343
1420 0 59.1667 11.7972 698 105.857 110.344 472.861
1421 0 62.0838 12.1932 757 104.732 110.287 473.192
1422 0 64.0631 12.0194 770 103.062 111.555 472.714
1423 0 65.0811 12.5075 814 103.667 111.736 471.214
1424 0 66.1509 10.6272 703 106.098 111.724 468.64
1425 0 70.1345 13.745 964 97.9948 112.391 469.385
1426 0 70.0543 11.6053 813 104.935 112.444 467.82
1427 0 73.0609 11.9763 875 104.448 113.233 465.626
1428 0 73.082 12.397 906 104.714 112.944 465.179
1429 0 77.0676 11.6781 900 106.49 112.941 463.648
1430 0 79.1366 11.6634 923 106.839 112.719 461.086
1431 0 84.1177 13.0056 1094 102.837 111.81 458.073
1432 0 85.1791 12.6792 1080 104.655 112.55 454.714
1433 0 87.2062 12.7514 1112 106.296 111.325 455.408
1434 0 90.0853 12.6658 1141 106.914 111.465 453.763
1435 0 95.2109 11.7844 1122 108.614 112.023 452.709
1436 0 96.1418 11.5246 1108 110.061 111.846 454.538
1437 1 53.2029 11.8227 629 103.603 112.3 472.027
1438 0 56.1282 11.4025 640 106.528 113.144 474.7
1439 0 56.1085 11.5669 649 108.601 112.445 471.284
1440 0 59.1533 13.1861 780 103.681 113.055 471.438
1441 0 58.1379 11.1459 648 110.134 111.617 472.458
1442 0 61.1952 11.6512 713 109.069 112.466 470.422
1443 0 64.1169 12.8671 825 107.458 112.444 466.446
1444 0 65.1696 11.4931 749 110.697 112.585 467.262
1445 0 69.1261 12.7593 882 107.705 112.144 466.327
1446 0 72.2103 12.3944 895 108.592 112.568 464.342
1447 0 73.1804 13.3506 977 107.862 112.664 462.763
1448 0 74.2318 12.2993 913 111.774 112.802 460.848
1449 0 77.1711 13.0619 1008 109.235 112.334 464.356
1450 0 79.0618 13.4705 1065 109.333 111.604 461.885
1451 0 83.068 13.6033 1130 108.265 111.666 462.572
1452 0 86.1526 11.9439 1029 109.903 112.416 459.926
1453 0 89.0833 13.1562 1172 108.065 111.48 457.526
1454 0 91.2122 13.3096 1214 108.759 111.792 456.403
1455 0 93.1624 12.4621 1161 111.894 111.427 457.5
1456 1 54.0555 10.1007 546 108.203 111.89 477.048
1457 0 55.0448 11.1182 612 107.116 113.863 476.575
1458 0 55.0799 11.4924 633 107.627 113.12 475.504
1459 0 59.1367 11.5495 683 106.167 112.818 475.873
1460 0 60.1025 12.2125 734 107.824 113.54 475.614
1461 0 60.1015 11.3475 682 110.526 113.405 472.718
1462 0 64.106 13.1657 844 106.005 113.062 473.164
1463 0 64.1311 12.6772 813 108.399 113.284 472.49
1464 0 66.1233 11.5088 761 111.396 113.129 470.214
1465 0 70.268 12.552 882 108.042 113.465 470.306
1466 0 72.174 12.4837 901 108.887 113.315 468.461
1467 0 73.1305 12.6623 926 109.03 113.1 466.587
1468 0 77.1527 12.0281 928 108.874 112.922 467.48
1469 0 78.196 11.9827 937 109.465 113.482 465.616
1470 0 80.1867 11.4608 919 110.859 113.249 465.768
1471 0 84.132 12.6111 1061 108.249 112.769 461.74
1472 0 87.1853 12.5824 1097 108.382 112.768 461.822
1473 0 90.1408 12.303 1109 107.745 113.17 459.659
1474 1 44.0929 10.3645 457 107.118 113.683 480.048
1475 0 45.1145 11.3267 511 106.8 113.781 480.648
1476 0 47.0569 11.263 530 105.951 114.743 481.838
1477 0 49.1097 11.9936 589 106.328 114.092 481.452
1478 0 48.0708 12.2528 589 108.674 113.171 480.416
1479 0 50.0926 11.6584 584 109.658 112.432 481.188
1480 0 51.0826 11.7065 598 111.388 113.425 477.751
1481 0 51.1376 11.0877 567 113.132 112.991 479.757
1482 0 52.1717 11.788 615 113.98 112.707 478.106
1483 0 55.1138 11.4853 633 113.186 113.077 479.025
1484 0 57.0859 12.2973 702 111.722 112.917 476.896
1485 0 58.2071 11.9745 697 112.887 113.199 476.875
1486 0 59.0888 11.4912 679 114.283 112.758 476.047
1487 0 61.0762 11.5266 704 113.889 113.31 474.479
1488 0 63.1397 11.8626 749 113.669 113.183 475.063
1489 0 67.0958 12.4747 837 111.327 113.323 474.03
1490 0 68.1628 13.1157 894 111.085 112.912 472.604
1491 0 69.1054 12.7486 881 112.857 113.326 472.342
1492 0 72.0712 12.7929 922 115.428 113.158 469.831
1493 0 75.1411 12.6429 950 118.712 113.34 469.721
1494 0 76.1326 12.5308 954 120.677 113.417 468.597
1495 0 80.2436 12.973 1041 118.905 113.063 468.432
1496 0 81.1901 13.3637 1085 119.829 112.56 465.048
1497 0 84.1871 12.3416 1039 123.078 112.863 464.545
1498 0 87.2251 12.1869 1063 122.929 113.213 464.457
1499 1 50.0398 12.0904 605 121.836 112.542 481.124
1500 0 49.032 10.8908 534 125.041 113.037 481.498
1501 0 52.0644 12.0044 625 115.638 113.312 480.818
1502 0 51.1147 11.9731 612 117.243 112.884 479.141
1503 0 52.056 12.0255 626 115.486 113.173 479.324
1504 0 54.0308 12.2153 660 112.37 113.071 478.568
1505 0 54.0438 12.2123 660 115.176 113.095 478.636
1506 0 52.0493 11.566 602 122.14 113.111 479.515
1507 0 55.0567 12.8958 710 117.844 113.404 478.118
1508 0 56.0597 11.1845 627 122.4 112.801 479.343
1509 0 56.1039 11.9599 671 122.852 112.835 478.912
1510 0 57.0708 11.1791 638 127.06 112.552 477.29
1511 0 59.0856 11.5933 685 123.091 112.778 476.869
1512 0 62.1583 12.5164 778 117.985 112.513 475.792
1513 0 64.1503 11.6445 747 118.861 113.179 474.284
1514 0 66.0314 12.388 818 115.971 112.852 474.471
1515 0 67.1828 11.3868 765 117.784 112.835 473.244
1516 0 70.1916 11.8675 833 115.218 112.245 473.809
1517 0 72.0565 11.6714 841 112.157 112.956 471.073
1518 0 75.1067 12.1827 915 109.844 112.477 471.369
1519 0 77.161 12.3897 956 109.614 112.14 468.089
1520 0 78.1103 10.9205 853 113.284 111.952 468.006
1521 0 81.1368 11.8812 964 111.79 112.233 468.241
1522 0 81.0673 10.6701 865 115.418 111.779 466.921
1523 1 45.0247 11.2827 508 112.061 112.228 483.323
1524 0 46.0083 10.8459 499 108.499 111.982 482.906
1525 0 47.009 10.9128 513 108.635 112.111 481.914
1526 0 50.0415 11.8302 592 111.485 112.287 482.725
1527 0 51.1034 11.7996 603 109.781 113.161 482.065
1528 0 52.0427 11.798 614 111.161 113.031 480.355
1529 0 53.0804 12.434 660 111.255 112.573 479.623
1530 0 55.081 12.5996 694 111.307 112.484 478.28
1531 0 56.0626 12.0579 676 114.296 112.226 476.652
1532 0 57.0666 12.4416 710 113.825 112.504 477.762
1533 0 59.0425 12.5333 740 115.693 112.047 476.273
1534 0 61.0987 13.0772 799 114.82 112.582 476.308
1535 0 61.1127 12.3051 752 118.907 112.988 475.802
1536 0 63.0678 11.9078 751 121.298 112.32 470.33
1537 0 63.1629 11.8741 750 124.144 112.313 472.292
1538 0 68.0971 12.4087 845 121.641 112.622 472.951
1539 0 70.0905 12.969 909 121.564 112.546 470.668
1540 0 73.221 13.0017 952 121.442 110.273 470.52
1541 0 73.0885 13.1211 959 123.458 111.025 470.057
1542 0 78.0929 13.1382 1026 122.839 111.808 468.216
1543 0 81.0943 12.7259 1032 124.301 111.448 467.485
1544 0 84.0706 13.8931 1168 121.987 111.651 465.83
1545 0 86.0583 12.8982 1110 125.625 111.195 464.638
1546 0 90.1373 13.546 1221 122.951 110.862 463.278
1547 1 46.0389 11.5772 533 129.189 111.109 483.589
1548 0 48.0611 11.9431 574 129.855 111.563 482.267
1549 0 51.0757 12.2367 625 129.918 110.952 481.941
1550 0 50.0774 10.9031 546 127.383 111.342 482.388
1551 0 52.0775 12.1166 631 123.165 111.317 481.296
1552 0 53.0632 11.7596 624 124.83 110.878 479.378
1553 0 55.091 12.6518 697 122.615 110.826 477.803
1554 0 57.1079 12.0124 686 124.073 110.267 478.417
1555 0 58.1763 11.6199 676 125.098 110.467 476.938
1556 0 62.0911 13.2386 822 119.791 110.394 474.925
1557 0 64.0978 12.8866 826 121.309 110.414 474.567
1558 0 65.0586 12.4964 813 123.571 109.606 472.925
1559 0 68.1075 12.5096 852 123.533 110.626 472.242
1560 0 69.1007 13.0245 900 123.007 110.373 471.019
1561 0 71.1734 12.2096 869 126.589 110.267 469.354
1562 0 75.1313 12.3118 925 124.714 110.105 470.032
1563 0 77.0945 12.4393 959 122.652 109.77 466.535
1564 0 80.0375 12.7565 1021 122.053 109.304 464.838
1565 0 82.0862 12.1701 999 124.1 109.94 463.871
1566 0 85.1392 13.0962 1115 120.987 110.183 463.605
1567 0 89.0967 13.9736 1245 119.711 110.351 460.777
1568 0 91.1281 12.433 1133 125.218 110.219 460.394
1569 0 93.1737 14.1027 1314 122.384 110.611 459.327
1570 0 99.2023 13.911 1380 120.659 109.972 458.017
1571 0 100.169 13.018 1304 124.87 109.436 459.564
1572 0 104.074 14.211 1479 122.598 109.457 455.506
1573 0 106.238 13.4132 1425 125.013 109.436 450.618
1574 1 55.2266 10.9911 607 120.634 110.583 477.613
1575 0 56.1154 11.4942 645 121.13 110.622 479.254
1576 0 59.2438 12.3051 729 119.125 110.772 476.583
1577 0 62.2013 12.7972 796 117.312 111.693 475.057
1578 0 63.1468 12.273 775 119.205 111.139 476.063
1579 0 64.2043 12.0241 772 119.99 111.301 475.258
1580 0 67.1274 11.8283 794 119.997 111.145 472.228
1581 0 71.1975 12.1493 865 117.94 111.161 473.185
1582 0 72.1189 12.8815 929 116.454 111.047 472.843
1583 0 74.2268 12.6369 938 118.263 111.022 468.06
1584 0 78.0826 13.2552 1035 115.659 110.329 467.532
1585 0 79.1841 12.5657 995 117.849 110.482 466.618
1586 0 81.1338 12.8676 1044 117.528 110.894 465.465
1587 0 83.1035 11.8527 985 120.207 110.96 462.705
1588 0 86.1842 11.6379 1003 120.286 109.913 464.298
1589 0 90.2301 12.3351 1113 118.65 110.098 460.96
1590 0 91.1441 11.8603 1081 120.327 110.498 460.617
1591 0 95.1624 12.9988 1237 117.421 110.493 458.842
1592 0 95.1549 12.2957 1170 119.891 110.283 456.957
1593 0 101.118 13.4595 1361 115.503 110.384 456.689
1594 0 102.157 12.8332 1311 117.968 110.735 453.132
1595 0 110.118 12.6954 1398 116.862 111.019 452.189
1596 0 113.21 12.7992 1449 116.357 111.072 449.157
1597 0 115.128 12.6554 1457 117.986 110.805 445.363
1598 1 64.1195 11.4318 733 114.638 111.186 474.855
1599 0 63.0652 11.4802 724 116.385 111.414 471.83
1600 0 69.0257 12.1259 837 112.434 112.207 470.622
1601 0 69.0676 12.0896 835 113.309 111.004 469.802
1602 0 76.1174 12.8486 978 109.063 111.089 470.945
1603 0 78.1023 13.2006 1031 109.114 110.504 467.463
1604 0 79.1473 13.6707 1082 108.766 110.64 467.351
1605 0 82.0935 13.375 1098 109.591 110.574 466.517
1606 0 84.1396 13.1329 1105 110.42 110.541 466.137
1607 0 86.1386 13.4435 1158 110.959 110.892 462.864
1608 0 90.1078 13.7058 1235 109.232 111.328 463.478
1609 0 91.0814 12.2967 1120 114.354 110.927 459.76
1610 0 93.1293 12.2947 1145 114.286 111.617 459.769
1611 0 97.1019 13.079 1270 112.669 111.387 458.764
1612 0 99.1537 13.1412 1303 113.312 110.168 460.062
1613 0 103.163 12.805 1321 113.638 111.081 456.232
1614 0 105.174 12.1228 1275 116.924 110.733 452.355
1615 0 110.162 12.2275 1347 116.416 110.51 453.777
1616 0 110.131 12.912 1422 116.061 110.297 453.344
1617 0 116.157 12.7242 1478 116.289 110.019 450.03
1618 0 119.176 13.3165 1587 114.269 110.469 450.977
1619 0 124.135 14.0815 1748 112.011 109.757 447.114
1620 0 127.154 12.4023 1577 116.855 109.677 445.054
1621 0 130.177 13.7428 1789 114.71 110.057 440.884
1622 0 133.163 13.4421 1790 115.607 109.791 439.45
1623 0 138.146 12.9573 1790 117.012 110.912 436.337
1624 0 142.239 12.1486 1728 118.606 110.862 434.209
1625 0 145.245 12.8128 1861 118.051 110.607 430.258
1626 0 152.214 13.2773 2021 116.392 110.855 429.428
1627 0 157.223 13.2869 2089 115.98 110.629 427.639
1628 0 162.288 13.248 2150 115.54 110.195 426.241
1629 0 167.312 12.4797 2088 117.057 109.78 420.011
1630 1 91.1164 12.5005 1139 112.744 110.795 458.369
1631 0 93.1044 12.921 1203 112.566 111.018 457.065
1632 0 95.1615 12.8834 1226 115.216 109.493 458.233
1633 0 99.1641 12.0911 1199 117.639 109.786 456.522
1634 0 103.328 12.7845 1321 116.462 109.715 455.091
1635 0 106.19 13.4664 1430 114.899 109.941 455.212
1636 0 109.311 12.2861 1343 116.961 110.105 453.448
1637 0 112.206 12.6909 1424 116.046 109.589 450.389
1638 0 115.227 11.4904 1324 119.37 109.554 450.097
1639 0 118.292 13.2807 1571 115.547 108.954 446.739
1640 0 125.277 13.1309 1645 115.315 109.611 444.225
1641 1 64.1391 9.68208 621 111.039 108.469 468.874
1642 0 64.0547 10.4286 668 113.093 109.204 467.033
1643 0 69.1096 10.8957 753 109.377 108.149 468.513
1644 0 72.2056 11.3288 818 107.344 108.26 466.156
1645 0 74.0708 11.9885 888 105.846 107.69 464.488
1646 0 74.0761 10.5162 779 110.48 108.778 463.715
1647 0 80.0704 11.6522 933 107.415 108.74 462.67
1648 0 83.0623 11.9669 994 106.807 108.393 458.803
1649 0 84.0871 11.8686 998 107.571 108.851 457.324
1650 0 87.1057 11.4918 1001 109.928 108.839 454.242
1651 0 90.0964 12.2202 1101 108.111 108.723 454.109
1652 0 93.1563 11.529 1074 109.35 109.394 454.307
1653 0 98.2808 13.3393 1311 105.647 109.045 450.752
1654 0 97.1893 10.495 1020 115.106 108.857 446.468
1655 0 102.294 12.1024 1238 110.901 108.72 445.771
1656 0 108.159 13.2767 1436 107.818 109.035 446.638
1657 0 110.172 11.5092 1268 111.616 109.218 446.835
1658 0 114.129 12.5385 1431 108.739 109.79 444.488
1659 0 118.206 12.2498 1448 109.8 109.254 442.238
1660 0 122.309 11.5608 1414 111.91 109.3 441.282
1661 1 68.095 12.042 820 102.367 110.766 474.038
1662 0 70.1471 11.7467 824 102.55 110.786 469.869
1663 0 71.0952 10.7884 767 105.228 110.668 468.828
1664 0 74.0818 11.6088 860 102.608 110.948 468.666
1665 0 77.108 12.9818 1001 100.431 110.31 468.624
1666 0 80.1201 12.007 962 103.333 110.512 468.542
1667 0 82.1037 12.9592 1064 103.478 111.134 466.277
1668 0 84.105 12.9362 1088 103.35 110.578 466.51
1669 0 85.1126 12.6186 1074 106.395 110.61 464.799
1670 0 89.0943 13.8729 1236 102.811 110.695 465.862
1671 0 93.098 13.5341 1260 104.233 109.667 462.129
1672 0 97.1412 13.9591 1356 102.876 110.425 461.206
1673 0 99.1195 12.9137 1280 105.667 110.692 458.975
1674 0 100.143 12.7119 1273 107.912 110.44 457.179
1675 0 104.103 12.9488 1348 108.478 110.261 454.42
1676 0 107.111 13.3226 1427 107.964 109.89 454.964
1677 0 112.142 12.8676 1443 109.219 110.461 454.974
1678 0 115.154 14.3199 1649 106.71 110.133 451.237
1679 1 65.0502 10.7917 702 105.588 111.003 476.791
1680 0 67.141 12.0195 807 105.105 111.581 472.654
1681 0 68.0517 12.4023 844 104.48 111.267 472.386
1682 0 72.0609 13.3776 964 103.627 110.814 471.538
1683 0 72.0438 12.2148 880 107.833 110.712 469.932
1684 0 78.0909 13.5099 1055 103.913 110.756 468.385
1685 0 79.1345 12.9274 1023 106.604 110.406 465.975
1686 0 81.0836 12.8756 1044 107.169 110.312 465.797
1687 0 84.1271 13.2181 1112 107.032 110.3 464.211
1688 0 85.063 13.8015 1174 105.793 110.743 464.237
1689 0 87.1546 13.8145 1204 106.533 110.429 463.408
1690 0 91.0696 12.9901 1183 107.991 110.367 460.911
1691 0 92.1158 12.8968 1188 109.045 110.946 458.027
1692 0 98.0995 14.6892 1441 104.298 110.82 456.984
1693 0 99.1302 13.3259 1321 109.32 110.603 454.873
1694 0 101.124 12.7368 1288 111.095 110.087 451.782
1695 0 103.12 11.6951 1206 113.537 110.514 453.168
1696 1 58.0448 11.2844 655 109.763 111.649 476.892
1697 0 59.0533 10.8885 643 110.442 111.132 473.771
1698 0 61.1196 12.3037 752 106.277 110.395 473.027
1699 0 61.08 11.1493 681 102.026 111.377 474.289
1700 0 65.1203 11.7782 767 107.814 111.06 475.825
1701 0 68.0797 12.7204 866 105.65 111.633 474.261
1702 0 70.0433 13.0205 912 104.749 111.158 472.401
1703 0 71.1946 11.4756 817 109.502 110.657 471.375
1704 0 72.1249 11.0364 796 108.24 110.903 471.024
1705 0 76.0879 12.9456 985 103.798 110.458 468.345
1706 0 78.1339 12.133 948 105.47 110.437 470.287
1707 0 79.1466 12.559 994 106.377 110.651 466.782
1708 0 84.1597 13.5338 1139 104.055 110.39 465.82
1709 0 86.1432 13.0016 1120 105.51 110.396 465.01
1710 0 88.1178 12.3244 1086 107.079 110.628 464.489
1711 0 89.1585 12.1918 1087 108.978 109.797 462.689
1712 0 92.2335 12.5985 1162 108.968 110.005 459.097
1713 0 97.1237 13.0864 1271 107.064 110.898 461.728
1714 0 99.2286 13.3228 1322 107.469 110.703 459.337
1715 0 101.212 12.6071 1276 107.57 110.582 457.691
1716 0 105.208 13.1644 1385 105.438 110.699 455.189
1717 1 58.2272 11.7299 683 103.654 110.877 477.851
1718 0 63.1226 12.151 767 100.665 110.379 478.647
1719 0 62.1285 11.267 700 99.7329 109.589 475.703
1720 0 64.168 12.3894 795 98.4088 109.707 474.151
1721 0 66.1937 12.1915 807 98.9306 110.333 475.553
1722 0 67.1684 12.0443 809 101.148 109.713 473.161
1723 0 71.1797 13.0515 929 98.9333 109.882 472.271
1724 0 73.0835 12.6704 926 97.6004 109.96 471.772
1725 0 74.1063 12.4011 919 99.889 109.716 469.152
1726 0 76.1153 12.2446 932 100.183 109.448 468.12
1727 0 79.1551 13.1135 1038 100.613 109.765 466.481
1728 0 81.1975 12.328 1001 103.828 110.035 467.991
1729 0 83.1668 14.1403 1176 99.7134 110.458 463.357
1730 0 84.1419 12.2888 1034 104.758 109.644 461.979
1731 0 90.315 13.5526 1224 101.244 109.611 461.495
1732 0 91.2383 11.8371 1080 107.859 109.585 458.068
1733 0 96.2994 12.0665 1162 109.511 109.868 459.176
1734 1 50.135 9.67387 485 107.348 109.548 482.404
1735 0 53.0523 10.6499 565 108.671 108.735 482.271
1736 0 55.1779 10.9102 602 112.166 108.259 479.066
1737 0 57.1315 12.655 723 110.574 109.257 480.192
1738 0 60.1629 14.7433 887 108.869 108.679 477.979
1739 0 61.1878 13.8917 850 113.051 109.156 476.841
1740 0 63.2166 12.9555 819 115.521 108.972 476.419
1741 0 64.1924 13.5374 869 115.188 109.281 474.893
1742 0 67.2778 13.4963 908 113.988 109.674 475.906
1743 0 68.2234 13.4265 916 115.15 109.417 473.672
1744 0 70.248 13.2815 933 116.124 108.691 472.423
1745 0 73.2136 12.8938 944 116.934 108.5 471.591
1746 0 76.1922 13.4397 1024 114.783 108.969 468.939
1747 0 78.2653 13.5053 1057 114.74 108.729 467.468
1748 0 81.2755 14.7892 1202 111.721 108.655 467.151
1749 0 83.2691 14.207 1183 112.947 108.922 466.44
1750 0 84.4527 12.5396 1059 115.213 108.11 465.428
1751 0 90.4039 14.7339 1332 108.7 107.689 461.507
1752 0 91.2635 14.0582 1283 110.009 108.528 459.811
1753 0 94.1506 13.882 1307 109.697 108.401 459.021
1754 1 49.0153 11.9963 588 117.252 107.423 480.469
1755 0 52.0285 12.6277 657 115.881 107.904 477.683
1756 0 53.0232 11.8816 630 117.459 107.346 478.33
1757 0 56.0361 12.7596 715 114.892 107.755 476.796
1758 0 57.057 11.6725 666 119.389 107.854 475.703
1759 0 58.0294 12.6315 733 117.854 107.817 476.596
1760 0 61.0172 12.9799 792 116.713 108.049 475.277
1761 0 62.146 13.597 845 115.988 108.551 474.436
1762 0 64.0411 13.585 870 115.798 108.308 473.12
1763 0 66.0497 13.1265 867 118.306 107.722 472.822
1764 0 66.0375 12.9018 852 120.065 108.175 472.44
1765 0 68.0615 13.5466 922 118.254 108.459 470.361
1766 0 70.0345 12.7937 896 120.828 108.326 471.21
1767 0 72.0535 12.8238 924 121.488 107.864 468.113
1768 0 75.0621 13.8286 1038 118.137 108.679 467.75
1769 0 77.1102 13.9152 1073 117.927 107.76 465.846
1770 0 80.1184 12.8435 1029 120.058 108.151 465.186
1771 0 85.104 14.9934 1276 115.279 108.892 463.214
1772 0 85.1778 13.4777 1148 121.52 108.909 460.726
1773 0 89.2321 15.0394 1342 117.007 108.612 459.598
1774 0 91.1808 14.1806 1293 120.516 109.199 456.915
1775 0 95.4333 13.8317 1320 121.2 109.536 455.429
1776 1 52.1377 11.5847 604 124.371 109.546 477.962
1777 0 55.101 13.3392 735 121.011 109.978 476.414
1778 0 56.1004 12.4776 700 122.991 109.751 475.313
1779 0 57.1497 12.721 727 124.161 109.946 472.274
1780 0 59.1335 13.1736 779 123.501 109.232 472.073
1781 0 63.2166 13.7148 867 120.506 109.657 471.727
1782 0 64.2068 14.9828 962 119.519 110.098 466.49
1783 0 64.0615 13.2841 851 121.757 109.075 471.142
1784 0 68.1379 14.2065 968 118.114 108.65 469.036
1785 0 70.1097 13.6358 956 119.166 109.422 470.085
1786 0 73.1598 14.3385 1049 117.669 108.739 466.078
1787 0 75.1901 13.4193 1009 119.991 109.038 465.833
1788 0 80.1718 13.6831 1097 117.726 109.498 465.599
1789 0 79.1818 14.372 1138 116.864 109.1 461.57
1790 0 82.1462 12.9038 1060 119.93 109.092 462.603
1791 0 85.1246 12.9575 1103 120.163 110.124 457.575
1792 0 90.1656 13.453 1213 116.852 109.061 458.18
1793 0 92.0965 15.4403 1422 111.522 108.883 456.277
1794 1 48.0813 11.7717 566 119.057 108.581 479.125
1795 0 50.0329 13.0314 652 115.595 108.531 479.129
1796 0 52.1374 12.7548 665 117.556 109.543 476.771
1797 0 54.1608 12.9245 700 117.631 110.317 476.141
1798 0 55.1916 13.0274 719 116.535 110.181 476.021
1799 0 56.1215 13.3104 747 115.153 110.145 473.92
1800 0 60.2061 13.1216 790 113.295 110.458 474.739
1801 0 59.0786 12.695 750 115.68 111.009 473.565
1802 0 61.0573 13.9705 853 110.191 110.763 471.897
1803 0 64.1316 12.5367 804 112.623 110.869 473.464
1804 0 66.0512 14.4282 953 108.005 110.699 471.127
1805 0 67.109 13.6047 913 110.673 110.124 469.234
1806 0 69.0703 13.6383 942 109.498 109.61 468.362
1807 0 72.124 14.6415 1056 106.245 109.93 466.663
1808 0 73.1001 12.9548 947 109.743 110.57 466.096
1809 0 76.1143 12.4155 945 110.261 110.583 465.012
1810 0 78.1392 13.9367 1089 106.317 110.619 463.616
1811 0 81.1464 13.4448 1091 107.449 110.214 462.708
1812 0 84.1603 12.8683 1083 108.362 110.668 459.7
1813 0 86.1005 14.0998 1214 105.611 110.633 458.139
1814 0 87.0969 12.7559 1111 109.131 110.496 458.053
1815 0 90.112 12.6953 1144 106.763 110.21 453.904
1816 0 93.1735 12.5465 1169 108.4 110.177 452.769
1817 0 97.1522 13.4737 1309 106.442 109.852 449.803
1818 0 102.158 13.6063 1390 105.035 110.365 449.673
1819 0 104.273 13.3784 1395 106.398 109.977 446.983
1820 0 108.232 12.9074 1397 107.205 109.939 445.97
1821 1 62.1225 12.1856 757 107.23 110.277 467.768
1822 0 63.1338 12.6398 798 107.372 110.004 467.128
1823 0 66.1154 12.2513 810 108.206 110.816 465.074
1824 0 68.1032 11.9671 815 109.612 110.24 463.96
1825 0 70.1107 11.4533 803 105.142 110.243 464.588
1826 0 73.0523 12.7169 929 102.604 110.182 462.071
1827 0 75.045 11.5131 864 105.816 110.132 462.264
1828 0 78.1707 12.1273 948 104.583 110.079 459.172
1829 0 82.1782 12.6676 1041 103.882 110.3 459.752
1830 0 83.1192 11.7061 973 107.633 110.525 459.076
1831 0 87.116 12.4317 1083 106.117 109.73 455.298
1832 0 91.105 12.8753 1173 104.422 109.695 455.646
1833 0 95.0604 14.212 1351 108.303 109.735 455.871
1834 0 96.1163 13.4108 1289 111.849 110.17 455.808
1835 0 96.0605 11.7842 1132 111.981 109.458 450.248
1836 0 101.092 12.5726 1271 114.762 109.928 453.258
1837 0 106.109 13.0055 1380 113.433 110.231 450.838
1838 0 109.112 13.0417 1423 113.501 110.499 447.464
1839 0 111.144 12.2364 1360 113.562 109.947 442.044
1840 0 117.101 12.5533 1470 112.608 109.967 442.248
1841 0 121.14 12.4896 1513 111.81 110.67 440.353
1842 0 126.145 14.2218 1794 108.005 110.219 436.201
1843 1 70.1405 10.3079 723 111.686 109.698 464.361
1844 0 74.029 12.7653 945 106.159 110.462 463.439
1845 0 76.0882 11.9072 906 103.096 109.877 462.566
1846 0 79.0576 10.6252 840 105.265 109.396 463.425
1847 0 82.1442 10.9442 899 105.65 108.86 459.167
1848 0 83.0968 10.5058 873 107.52 109.245 457.477
1849 0 88.0956 12.1005 1066 103.058 109.338 457.83
1850 0 90.1438 12.2804 1107 103.501 109.163 455.612
1851 0 94.0938 12.7639 1201 102.236 108.971 454.843
1852 0 96.1495 12.7198 1223 103.472 109.493 451.34
1853 0 101.203 12.0846 1223 104.709 110.068 452.246
1854 0 105.1 13.9486 1466 104.626 110.204 452.653
1855 0 106.103 12.2805 1303 109.319 109.924 450.087
1856 1 58.101 9.27695 539 109.419 110.759 476.236
1857 0 59.0439 9.48446 560 109.566 110.898 475.209
1858 0 63.0837 11.5719 730 103.06 110.911 473.408
1859 0 66.0343 11.0851 732 104.794 110.247 473.883
1860 0 68.2036 12.3014 839 102.247 110.366 470.639
1861 0 69.1451 12.1194 838 102.389 110.525 467.999
1862 0 67.0445 10.6198 712 108.101 110.368 468.369
1863 0 74.0897 12.4444 922 102.062 110.534 468.246
1864 0 75.1542 11.1504 838 105.511 110.742 464.915
1865 0 77.0796 11.7671 907 103.327 110.969 465.864
1866 0 78.1352 10.5714 826 106.622 110.087 462.757
1867 0 82.1035 11.4855 943 104.161 109.946 464.683
1868 0 84.1004 11.1058 934 106.059 110.505 460.187
1869 0 88.1462 11.0725 976 106.674 110.181 458.723
1870 0 92.1188 11.8325 1090 105.473 110.111 457.391
1871 0 93.0976 10.8488 1010 107.404 110.487 458.996
1872 0 98.1264 12.331 1210 102.837 110.369 454.665
1873 0 101.141 11.1824 1131 105.807 109.989 453.028
1874 0 102.118 11.5651 1181 105.771 109.72 451.091
1875 0 105.189 11.5031 1210 106.297 110.355 450.983
1876 0 110.11 12.7781 1407 103.308 109.627 451.252
1877 0 114.147 11.1173 1269 107.005 110.137 447.928
1878 0 117.092 13.9975 1639 101.727 110.531 443.195
1879 0 122.188 12.2679 1499 104.803 109.715 442.984
1880 1 66.1081 9.98365 660 109.039 108.865 470.535
1881 0 69.0341 11.516 795 103.569 110.167 470.683
1882 0 74.0473 11.8033 874 104.382 109.358 467.302
1883 0 73.0686 12.2351 894 103.649 109.577 466.143
1884 0 77.0375 13.2273 1019 99.1874 109.219 464.941
1885 0 80.0944 12.1107 970 101.087 110.255 464.985
1886 0 82.1009 12.1314 996 102.028 107.912 464.899
1887 0 85.1301 12.6865 1080 101.443 108.184 464.701
1888 0 87.0372 12.7072 1106 101.795 108.416 462.363
1889 0 91.1382 12.0915 1102 102.941 107.985 462.125
1890 0 95.0915 13.1452 1250 100.214 107.669 459.318
1891 0 95.0757 12.6636 1204 103.073 107.571 455.146
1892 0 99.1463 14.292 1417 99.9929 108.362 454.215
1893 0 102.113 14.0236 1432 102.372 107.795 453.392
1894 0 105.099 14.0154 1473 103.386 108.045 453.915
1895 0 108.232 14.0161 1517 103.695 108.107 449.348
1896 0 111.196 12.5724 1398 106.567 108.477 448.994
1897 0 114.121 13.1089 1496 105.603 108.404 448.698
1898 0 119.17 13.1157 1563 102.929 110.24 445.086
1899 1 66.1358 12.807 847 102.358 110.97 471.987
1900 0 65.1229 9.99649 651 105.853 110.395 471.73
1901 0 68.1582 11.7814 803 101.613 110.873 467.717
1902 0 71.0842 10.1992 725 102.237 111.81 469.006
1903 0 73.036 12.1036 884 99.1448 110.074 469.801
1904 0 75.1465 11.1249 836 101.388 111 463.531
1905 0 77.0997 11.1414 859 101.992 110.886 465.49
1906 0 82.1716 11.0014 904 101.893 111.208 463.754
1907 0 83.1451 11.7385 976 99.8002 110.457 463.533
1908 0 86.0766 11.5246 992 101.317 110.139 464.044
1909 0 89.0879 12.28 1094 100.858 109.812 464.034
1910 0 89.1257 11.1191 991 105.063 109.58 461.771
1911 0 93.1168 12.6508 1178 102.633 109.506 459.969
1912 0 94.1565 11.6508 1097 106.169 109.141 456.877
1913 0 97.2669 12.0699 1174 105.107 108.889 457.091
1914 0 99.111 11.5931 1149 106.364 108.699 457.005
1915 0 104.277 12.2942 1282 105.445 108.732 454.111
1916 0 103.235 11.9146 1230 108.972 109.095 450.415
1917 0 109.232 12.5696 1373 107.4 108.831 450.313
1918 0 111.218 12.9925 1445 107.628 108.563 448.99
1919 0 114.139 12.8702 1469 109.743 108.532 446.954
1920 0 118.252 13.6657 1616 108.435 109.223 446.389
1921 0 122.228 12.6976 1552 111.235 108.957 445.806
1922 0 128.242 13.6695 1753 109.631 108.665 440.985
1923 0 129.346 12.2849 1589 114.3 108.977 441.142
1924 1 74.1565 10.1542 753 111.688 108.375 469.058
1925 0 76.1964 11.6147 885 107.788 108.246 469.327
1926 0 83.0705 13.326 1107 109.544 108.144 464.16
1927 0 80.0487 11.9177 954 116.708 107.864 461.149
1928 0 85.0681 12.778 1087 114.417 107.726 461.511
1929 0 86.1447 13.071 1126 114.226 107.439 461.636
1930 0 91.0885 13.9535 1271 112.36 107.555 460.563
1931 0 92.0463 13.5801 1250 115.982 107.41 458.688
1932 0 94.0926 12.6259 1188 121.981 107.763 459.879
1933 0 97.1096 13.562 1317 119.643 108.131 458.976
1934 0 99.3013 13.1519 1306 122.686 109.91 456.832
1935 0 102.311 12.5304 1282 125.291 109.461 452.841
1936 0 105.058 14.0779 1479 120.328 108.35 451.97
1937 0 110.069 13.3553 1470 121.162 107.567 450.979
1938 0 111.104 12.7358 1415 124.551 107.644 449.249
1939 0 112.134 13.1896 1479 124.614 108.422 445.814
1940 0 119.12 13.1128 1562 124.304 108.453 445.183
1941 0 121.103 13.1706 1595 124.182 107.638 443.188
1942 0 125.176 13.3572 1672 124.292 107.846 442.426
1943 0 128.106 13.3484 1710 126.48 108.084 441.999
1944 0 131.108 11.9672 1569 131.569 108.162 437.398
1945 0 137.204 13.7023 1880 123.871 108.203 435.985
1946 1 73.1461 11.0601 809 121.722 108.412 469.607
1947 0 76.1242 12.322 938 121.459 109.269 467.345
1948 0 79.0363 12.4626 985 121.015 109.142 466.239
1949 0 80.0735 12.7008 1017 120.207 108.729 463.633
1950 0 84.1523 12.7269 1071 120.358 108.288 464.713
1951 0 86.1194 12.9936 1119 120.335 108.521 462.242
1952 0 88.1771 13.3254 1175 120.039 108.607 461.552
1953 0 92.1676 13.3778 1233 120.732 108.121 459.146
1954 0 95.0923 13.734 1306 119.375 108.187 458.252
1955 0 99.1154 14.5588 1443 117.189 108.823 457.292
1956 0 102.148 14.3322 1464 117.365 107.416 456.331
1957 0 101.083 13.85 1400 120.957 108.468 454.251
1958 0 106.1 14.4392 1532 119.693 108.132 451.928
1959 0 107.12 14.1337 1514 121.093 108.008 450.526
1960 0 109.096 13.5753 1481 123.637 108.525 448.918
1961 0 113.203 13.3301 1509 122.632 108.398 448.494
1962 0 117.079 14.0418 1644 120.114 108.859 445.334
1963 0 122.134 14.0255 1713 119.778 108.717 443.223
1964 0 125.166 14.9561 1872 116.076 108.877 441.968
1965 0 128.166 13.5684 1739 120.869 108.951 440.276
1966 0 132.192 12.6256 1669 125.5 108.44 433.685
1967 1 75.1289 11.4337 859 114.243 109.1 463.779
1968 0 79.1204 13.2709 1050 119.495 110.939 465.976
1969 0 81.0807 13.3201 1080 119.806 111.816 464.369
1970 0 82.1028 13.8241 1135 117.895 111.065 461.227
1971 0 85.0547 14.379 1223 116.219 111.2 460.713
1972 0 89.0804 13.673 1218 118.562 111.015 460.012
1973 0 91.0783 13.5268 1232 119.677 111.249 457.891
1974 0 94.0644 14.2349 1339 117.399 111.248 458.056
1975 0 97.1827 14.0766 1368 117.937 110.919 456.998
1976 0 99.1035 14.9238 1479 116.584 111.187 455.84
1977 0 102.077 13.9895 1428 119.777 110.824 454.853
1978 0 102.077 13.0882 1336 123.822 110.696 451.289
1979 0 107.249 12.8579 1379 124.129 110.799 450.426
1980 0 109.18 13.2534 1447 123.115 110.281 448.373
1981 0 112.189 13.7357 1541 123.097 110.038 445.634
1982 0 114.176 12.8399 1466 124.728 110.752 443.746
1983 0 118.171 12.9728 1533 125.946 110.276 440.901
1984 0 125.139 14.0963 1764 119.959 109.872 445.363
1985 0 129.224 14.6412 1892 117.993 109.8 437.341
1986 0 133.144 14.09 1876 118.424 109.985 437.468
1987 0 138.247 13.881 1919 118.848 110.762 432.726
1988 0 142.298 13.9917 1991 117.813 109.298 433.134
1989 1 77.1051 11.1406 859 117.758 109.328 464.388
1990 0 80.2653 12.4462 999 120.268 110.484 457.479
1991 0 84.0762 13.4164 1128 119.759 110.849 461.202
1992 0 87.0369 13.6953 1192 119.413 110.325 460.017
1993 0 90.0584 12.714 1145 121.64 110.635 460.352
1994 0 93.0916 12.9013 1201 121.916 110.637 457.596
1995 0 96.1453 13.6252 1310 119.402 110.853 457.112
1996 0 98.1204 13.7382 1348 120.626 110.993 453.311
1997 0 102.199 13.777 1408 120.646 110.681 454.055
1998 0 106.493 13.3154 1418 123.715 109.688 449.752
1999 0 109.379 14.4543 1581 120.798 109.634 446.099
2000 0 111.323 13.9145 1549 122.788 109.216 445.617
2001 0 116.382 15.157 1764 118.644 108.629 442.093
2002 0 121.599 14.9261 1815 119.015 108.699 440.587
2003 0 120.473 13.5466 1632 123.4 108.934 440.765
2004 0 127.166 13.3604 1699 117.285 109.112 442.249
2005 1 68.1855 10.3248 704 123.879 109.514 462.953
2006 0 71.2858 12.527 893 117.524 109.438 463.956
2007 0 73.2544 12.8047 938 119.05 109.704 461.375
2008 0 78.2481 13.9556 1092 116.606 109.884 463.166
2009 0 81.2108 12.8677 1045 119.043 109.404 462.664
2010 0 83.1782 14.2105 1182 115.824 109.357 462.186
2011 0 85.308 13.2227 1128 119.529 109.402 457.473
2012 0 87.3513 13.9208 1216 118.803 109.142 455.278
2013 0 91.2813 13.3105 1215 119.496 109.046 454.526
2014 0 93.3161 14.617 1364 116.422 108.565 452.104
2015 0 93.1769 12.8036 1193 119.843 108.542 451.93
2016 0 97.1743 13.7279 1334 116.665 108.534 451.469
2017 0 98.2026 13.3194 1308 118.967 108.979 450.31
2018 0 101.235 13.1574 1332 119.7 109.454 447.727
2019 0 107.202 13.8151 1481 116.954 109.65 445.284
2020 0 112.192 13.9225 1562 116.026 109.093 443.87
2021 0 114.315 13.8127 1579 116.315 109.258 443.492
2022 0 121.221 14.5685 1766 113.03 109.191 439.836
2023 0 125.218 14.8221 1856 111.591 109.168 438.443
2024 1 69.2267 11.4407 792 120.009 108.442 469.024
2025 0 73.185 13.2677 971 114.783 108.578 465.59
2026 0 75.1034 13.6079 1022 110.644 109.154 463.43
2027 0 77.1734 13.9945 1080 110.183 108.769 461.905
2028 0 81.1847 13.6356 1107 109.858 108.724 461.767
2029 0 83.1946 13.198 1098 111.005 108.042 460.614
2030 0 87.2213 13.5288 1180 109.423 108.514 459.371
2031 0 88.1525 14.1459 1247 108.651 109.309 456.994
2032 0 92.2779 13.6544 1260 108.633 108.955 457.113
2033 0 96.0902 14.143 1359 107.745 109.629 452.687
2034 0 98.1256 14.2878 1402 108.322 109.202 450.827
2035 0 97.1103 12.872 1250 112.55 108.831 450.463
2036 0 103.16 13.736 1417 109.658 108.674 447.838
2037 0 105.116 13.8514 1456 109.566 108.896 447.808
2038 0 112.105 14.2099 1593 107.556 109.334 448.096
2039 0 113.149 13.8047 1562 109.978 108.495 444.335
2040 0 118.317 14.833 1755 108.011 108.748 444.72
2041 0 124.203 13.9932 1738 109.61 109.144 442.486
2042 0 126.362 13.0499 1649 113.183 109.284 440.696
2043 1 71.1401 11.0205 784 113.612 109.029 467.472
2044 0 73.136 11.5538 845 109.987 109.085 466.961
2045 0 78.1375 11.3134 884 104.395 110.227 468.661
2046 0 77.1039 11.3872 878 105.544 109.479 467.872
2047 0 79.065 11.1554 882 107.357 109.232 463.137
2048 0 82.0725 11.4898 943 107.639 109.523 462.228
2049 0 86.2742 11.9155 1028 107.621 109.2 461.149
2050 0 89.1356 12.352 1101 106.772 109.25 460.275
2051 0 91.2201 12.3986 1131 107.873 109.919 459.333
2052 0 95.155 12.2852 1169 108.109 109.548 457.785
2053 0 97.3516 12.8092 1247 109.706 109.831 457.879
2054 0 101.2 12.0652 1221 112.294 109.656 456.488
2055 0 103.13 13.1194 1353 112.189 109.323 455.958
2056 0 105.157 13.4181 1411 114.476 109.364 452.522
2057 0 110.344 13.8113 1524 115.262 109.264 452.747
2058 0 114.167 13.2262 1510 115.244 109.619 450.579
2059 0 116.165 13.9285 1618 114.81 108.346 449.145
2060 0 120.169 14.4297 1734 122.096 108.39 448.482
2061 0 123.383 14.5482 1795 122.227 108.515 448.623
2062 0 128.574 14.2097 1827 123.913 108.544 443.722
2063 1 70.1775 12.3116 864 127.16 108.343 472.27
2064 0 73.2224 12.9742 950 125.165 108.516 470.547
2065 0 75.158 13.771 1035 123.683 108.767 470.284
2066 0 78.284 13.3744 1047 120.634 108.534 469.24
2067 0 78.2903 13.6799 1071 123.021 109.114 466.6
2068 0 81.1444 13.9381 1131 123.352 108.673 463.679
2069 0 83.2671 13.5348 1127 126.39 108.956 464.222
2070 0 86.3944 13.994 1209 125.99 108.417 464.06
2071 0 89.2563 13.9262 1243 126.424 108.748 461.895
2072 0 93.3874 14.2953 1335 125.414 109.193 461.601
2073 0 94.2775 14.6801 1384 126.065 108.624 457.781
2074 0 98.4487 13.3877 1318 129.502 108.613 456.954
2075 0 100.482 14.6792 1475 126.535 109.054 455.085
2076 0 102.389 13.9566 1429 129.591 108.946 453.867
2077 0 106.404 15.131 1610 126.165 108.668 454.367
2078 0 109.535 14.5981 1599 127.977 108.48 449.217
2079 0 111.475 14.353 1600 129.117 108.843 447.728
2080 0 115.715 15.8665 1836 123.817 109.129 447.438
2081 0 119.496 14.3352 1713 127.985 108.41 444.325
2082 0 124.558 15.5189 1933 124.729 109.011 441.927
2083 0 128.448 13.5853 1745 133.974 108.845 441.734
2084 0 130.37 14.4512 1884 131.331 109.329 439.973
2085 0 135.341 14.3268 1939 132.085 109.372 436.526
2086 0 140.346 14.9915 2104 121.526 109.387 434.54
2087 0 145.337 14.7382 2142 123.68 109.285 430.533
2088 1 87.1863 12.0317 1049 124.698 109.784 459.827
2089 0 89.2971 12.744 1138 122.933 110.01 461.15
2090 0 93.186 13.4999 1258 120.574 109.701 459.087
2091 0 96.1824 12.7466 1226 122.188 109.478 456.573
2092 0 100.295 13.241 1328 120.931 109.796 457.157
2093 0 102.369 13.7542 1408 121.538 109.641 451.44
2094 0 108.433 13.7781 1494 120.203 109.229 451.234
2095 0 107.449 13.0946 1407 124.064 109.66 449.44
2096 0 112.248 13.7998 1549 123.104 109.761 445.868
2097 0 115.378 13.5034 1558 125.477 109.563 443.965
2098 0 116.431 12.9347 1506 129.959 109.252 440.574
2099 0 121.351 14.149 1717 126.462 109.302 440.731
2100 0 123.524 13.0987 1618 129.97 108.503 441.408
2101 0 127.442 13.7317 1750 128.799 108.954 436.257
2102 0 131.673 13.6322 1795 129.908 108.68 434.835
2103 0 137.362 12.973 1782 130.497 108.954 434.326
2104 0 141.509 13.3348 1887 130.388 109.213 433.178
2105 0 145.509 12.1711 1771 135.024 108.994 426.577
2106 1 76.1556 11.0694 843 130.79 109.006 465.123
2107 0 81.1915 12.5506 1019 127.766 109.698 462.626
2108 0 84.056 13.6695 1149 125.01 109.793 461.444
2109 0 85.2644 12.5961 1074 130.927 108.791 458.852
2110 0 87.354 12.2147 1067 132.795 108.403 456.769
2111 0 92.2962 14.3993 1329 124.397 108.653 456.813
2112 0 94.4074 13.5688 1281 127.681 108.479 455.375
2113 0 99.396 13.9241 1384 126.042 108.466 452.426
2114 0 101.36 13.2103 1339 129.219 109.146 448.417
2115 0 103.231 13.7555 1420 125.35 108.215 449.131
2116 0 107.208 14.4486 1549 122.768 108.312 448.522
2117 0 111.204 13.3718 1487 125.47 107.884 447.64
2118 0 115.195 14.0545 1619 122.962 107.715 444.778
2119 0 120.309 14.5625 1752 120.583 108.345 443.432
2120 0 122.32 14.1759 1734 122.979 108.426 439.033
2121 0 126.406 14.5326 1837 121.927 108.422 435.217
2122 0 129.162 14.2457 1840 123.816 108.243 433.373
2123 0 133.201 13.5059 1799 126.489 108.414 427.663
2124 1 78.3681 11.6884 916 124.262 108.557 460.086
2125 0 80.2361 12.214 980 122.323 108.981 461.479
2126 0 83.0883 11.6503 968 121.97 110.161 462.079
2127 0 87.1064 12.8578 1120 118.688 110.141 461.111
2128 0 87.0915 12.9174 1125 147.588 111.138 461.028
2129 0 91.2269 11.8167 1078 122.015 109.242 458.758
2130 0 95.1404 12.7811 1216 119.16 109.651 457.483
2131 0 97.2112 11.8505 1152 122.456 109.905 456.523
2132 0 98.1321 12.7583 1252 122.943 109.631 455.192
2133 0 103.299 12.2169 1262 121.832 109.263 452.02
2134 0 105.266 12.1027 1274 122.543 110.234 451.686
2135 0 110.27 13.8297 1525 118.092 109.43 449.712
2136 0 111.25 12.2068 1358 123.487 109.139 447.767
2137 0 114.504 11.5804 1326 124.893 108.91 447.986
2138 0 117.335 11.9913 1407 124.678 109.243 445.498
2139 0 123.183 12.4693 1536 123.062 108.801 443.219
2140 0 123.308 12.7486 1572 123.809 108.964 439.11
2141 0 127.246 12.2912 1564 123.374 108.918 439.68
2142 0 132.224 12.7964 1692 122.297 109.027 434.434
2143 0 136.285 12.1657 1658 123.224 109.303 434.98
2144 0 142.306 13.232 1883 120.134 109.167 431.167
2145 0 146.277 13.119 1919 120.158 108.419 428.083
2146 1 83.2056 11.3935 948 115.192 109.553 459.624
2147 0 85.2975 11.3016 964 115.02 109.478 462.146
2148 0 87.2513 12.7563 1113 113.265 108.972 458.153
2149 0 91.2636 12.8419 1172 113.489 109.538 455.791
2150 0 92.234 13.0646 1205 113.32 109.272 454.472
2151 0 93.3091 12.6569 1181 115.594 109.518 452.263
2152 0 98.1926 13.0152 1278 114.834 109.7 450.532
2153 0 100.285 12.5343 1257 117.388 109.255 447.902
2154 0 104.202 13.3587 1392 116.731 108.858 446.54
2155 0 104.346 13.0814 1365 119.21 108.916 447.256
2156 0 109.229 13.0093 1421 118.729 109.628 444.518
2157 0 113.238 13.1316 1487 118.383 108.618 442.514
2158 0 114.146 12.5278 1430 121.617 109.143 441.513
2159 0 118.319 13.7172 1623 121.407 109.212 439.524
2160 0 123.244 12.7552 1572 122.279 110.076 438.136
2161 0 126.346 12.8695 1626 121.951 109.108 439.72
2162 0 130.293 13.0322 1698 123.345 109.562 435.121
2163 0 134.243 13.7288 1843 120.998 109.514 433.384
2164 0 140.301 13.357 1874 121.853 108.509 429.943
2165 0 144.592 13.3617 1932 121.366 108.507 426.518
2166 1 81.3803 10.6045 863 114.737 109.092 459.922
2167 0 84.3517 12.1871 1028 112.381 108.77 457.928
2168 0 87.2563 11.5636 1009 115.76 108.898 456.278
2169 0 90.3452 12.1091 1094 114.422 108.95 454.057
2170 0 93.4163 11.9572 1117 114.39 109.09 454.538
2171 0 95.4236 12.3345 1177 114.11 108.556 452.986
2172 0 98.3163 12.4598 1225 114.512 108.888 451.408
2173 0 102.386 11.7789 1206 115.662 109.546 449.79
2174 0 105.372 11.8058 1244 116.6 108.724 446.605
2175 0 108.466 12.5477 1361 114.924 108.658 446.001
2176 0 110.284 12.4044 1368 116.719 109.48 441.792
2177 0 116.371 13.2508 1542 113.938 109.234 442.978
2178 0 118.421 12.7257 1507 116.364 108.408 439.027
2179 0 120.257 12.5481 1509 116.854 108.775 436.889
2180 0 126.409 13.0924 1655 115.083 108.851 436.905
2181 0 128.526 12.0131 1544 118.203 108.881 436.152
2182 0 132.326 12.7488 1687 116.738 108.392 432.356
2183 0 140.43 13.0884 1838 115.318 108.372 430.53
2184 0 143.462 11.8916 1706 119.093 108.467 422.808
2185 1 81.217 12.1034 983 105.427 109.031 462.563
2186 0 82.3533 11.8514 976 107.458 108.904 461.315
2187 0 86.292 10.7658 929 110.989 108.652 459.508
2188 0 89.3047 12.239 1093 110.225 108.225 457.276
2189 0 90.2576 11.0351 996 115.257 108.823 454.877
2190 0 93.1681 12.236 1140 113.759 109.691 454.702
2191 0 95.1254 11.2483 1070 116.763 109.514 454.93
2192 0 100.386 12.0036 1205 116.408 108.978 449.875
2193 0 102.27 12.8093 1310 114.884 109.18 448.485
2194 0 106.305 11.881 1263 117.352 109.572 448.084
2195 0 108.323 13.1828 1428 115.919 109.67 446.807
2196 0 110.259 13.5953 1499 116.389 109.351 445.431
2197 0 112.29 12.6725 1423 119.917 109.339 442.896
2198 0 116.368 12.6581 1473 120.624 109.718 440.533
2199 0 120.315 13.1073 1577 119.339 108.829 441.03
2200 0 123.337 12.705 1567 121.378 109.129 439.694
2201 0 128.342 13.1134 1683 121.786 108.404 433.746
2202 0 134.369 14.0732 1891 118.768 107.407 432.741
2203 0 136.437 12.2401 1670 124.387 108.19 430.773
2204 0 142.404 13.9463 1986 120.612 108.154 426.151
2205 1 74.3463 10.1417 754 118.459 109.593 464.08
2206 0 78.1822 11.3197 885 116.269 109.191 463.527
2207 0 80.2146 12.13 973 114.889 109.281 463.419
2208 0 82.3788 12.6367 1041 115.68 109.626 461.333
2209 0 84.2806 11.4142 962 118.617 108.712 461.649
2210 0 86.1567 11.8737 1023 117.62 107.408 455.517
2211 0 88.2736 12.0988 1068 117.39 108.083 457.181
2212 0 90.3254 10.0193 905 122.986 107.759 454.991
2213 0 93.3626 12.0498 1125 118.679 107.744 453.02
2214 0 96.181 10.7506 1034 120.881 107.363 453.8
2215 0 97.2727 11.4935 1118 121.731 107.429 448.944
2216 0 101.409 11.143 1130 122.117 107.303 449.378
2217 0 104.238 12.011 1252 121.48 107.435 444.649
2218 0 105.33 11.8769 1251 122.351 108.257 445.428
2219 0 109.276 11.7501 1284 122.305 107.629 444.046
2220 0 113.318 11.3044 1281 122.443 107.81 443.752
2221 0 115.29 11.2152 1293 123.816 107.328 441.46
2222 0 119.375 11.9623 1428 121.013 108.316 441.985
2223 0 123.351 12.5982 1554 120.652 107.199 438.423
2224 0 126.222 12.993 1640 120.488 107.86 436.107
2225 0 133.363 13.6245 1817 118.215 108.329 435.886
2226 0 135.232 12.6301 1708 121.546 108.687 432.514
2227 0 140.36 12.0191 1687 122.193 108.206 432.863
2228 0 145.267 12.0468 1750 123.792 108.151 430.221
2229 1 84.1295 10.5433 887 117.372 108.175 463.309
2230 0 89.1092 11.3456 1011 117.348 108.138 458.445
2231 0 90.0942 10.8664 979 118.332 107.73 462.245
2232 0 92.1454 11.8291 1090 117.157 108.215 460.895
2233 0 96.1862 11.4777 1104 119.188 108.598 456.69
2234 0 100.228 12.0725 1210 117.283 109.243 455.988
2235 0 103.208 11.6271 1200 116.55 108.155 450.846
2236 0 106.162 10.9738 1165 118.434 108.427 449.06
2237 0 110.377 12.1855 1345 115.381 109.874 451.048
2238 0 113.259 11.9019 1348 117.226 109.913 445.276
2239 0 115.177 11.504 1325 118.618 109.905 443.598
2240 0 119.25 12.2767 1464 116.442 109.659 442.005
2241 0 124.21 12.817 1592 115.102 108.928 441.483
2242 0 126.274 11.8393 1495 117.524 109.138 439.905
2243 0 130.329 11.7702 1534 119.165 109.486 437.995
2244 0 132.217 12.1165 1602 120.135 108.798 434.169
2245 0 137.267 11.8746 1630 120.09 108.332 436.165
2246 0 142.46 13.2248 1884 116.607 109.12 431.768
2247 0 145.249 12.3994 1801 120.476 108.657 430.111
2248 0 152.279 12.8842 1962 118.045 108.791 427.89
2249 1 95.0807 10.6751 1015 112.59 109.465 459.573
2250 0 97.1612 12.1345 1179 112.036 109.657 458.443
2251 0 97.2094 10.6265 1033 110.479 108.925 451.593
2252 0 101.342 12.0384 1220 106.918 109.551 453.921
2253 0 104.266 10.761 1122 112.66 109.923 452.585
2254 0 108.168 12.647 1368 110.295 109.787 451.198
2255 0 111.253 12.2693 1365 112.999 109.425 448.958
2256 0 114.249 12.5428 1433 113.124 109.2 447.707
2257 0 117.169 11.9997 1406 114.607 109.408 444.805
2258 0 120.137 11.2122 1347 117.776 109.032 442.752
2259 0 124.168 11.871 1474 115.988 109.353 443.566
2260 0 129.236 11.2817 1458 117.209 109.792 443.888
2261 1 76.2293 10.6652 813 112.843 109.365 472.466
2262 0 77.1722 10.8718 839 115.802 109.05 470.573
2263 0 79.1767 11.9101 943 113.353 108.128 471.475
2264 0 83.1883 12.1411 1010 115.779 108.432 469.454
2265 0 82.096 11.7667 966 119.403 107.68 468.692
2266 0 87.2186 12.1075 1056 118.604 107.388 469.384
2267 0 87.1588 12.2306 1066 120.712 107.325 466.541
2268 0 90.3135 12.3459 1115 121.3 106.41 466.801
2269 0 95.3197 13.0928 1248 118.001 105.585 468.268
2270 0 99.3927 13.0191 1294 120.893 105.943 465.001
2271 0 101.311 13.1377 1331 122.398 105.272 461.493
2272 0 106.411 13.6076 1448 123.791 105.56 460.902
2273 0 108.472 12.2612 1330 127.699 105.359 462.202
2274 0 111.417 13.0591 1455 127.397 105.263 458.107
2275 0 114.374 12.0482 1378 129.803 104.985 454.052
2276 0 116.368 12.4432 1448 128.029 104.665 454.69
2277 0 121.46 13.7823 1674 123.878 103.977 452.361
2278 0 124.553 12.3883 1543 129.826 104.163 448.003
2279 0 128.445 12.9238 1660 130.177 103.722 447.816
2280 0 129.344 12.5557 1624 133.244 103.35 444.55
2281 0 133.3 11.6879 1558 132.584 103.519 439.215
2282 0 138.283 12.2864 1699 129.073 103.434 437.494
2283 1 78.1492 9.49466 742 127.573 102.992 469.427
2284 0 83.1922 12.0083 999 123.869 102.161 470.66
2285 0 81.1216 10.4041 844 121.874 103.156 463.417
2286 0 84.0623 11.206 942 121.242 103.406 463.814
2287 0 85.1571 10.8388 923 123.624 103.717 464.101
2288 0 88.22 11.9474 1054 120.099 103.255 464.935
2289 0 89.0806 9.36231 834 128.763 102.812 461.441
2290 0 90.1424 10.8495 978 126.457 103.411 459.993
2291 0 97.1576 10.6116 1031 123.285 103.597 461.999
2292 0 100.139 11.9134 1193 120.808 103.793 459.243
2293 0 100.234 11.0542 1108 124.329 102.894 455.429
2294 0 107.245 11.0028 1180 114.348 102.656 460.782
2295 0 108.075 11.0664 1196 115.037 102.92 456.571
2296 0 114.136 12.1171 1383 111.787 103.231 457.751
2297 0 119.129 11.7016 1394 112.486 103.31 456.499
2298 0 121.178 11.6688 1414 112.6 102.606 454.914
2299 0 122.252 11.2391 1374 114.668 102.555 450.118
2300 0 126.159 11.4458 1444 114.162 102.756 447.275
2301 0 129.196 10.2248 1321 116.316 103.795 444.631
2302 0 133.131 11.7328 1562 113.045 103.145 441.322
2303 0 139.26 12.0422 1677 111.796 102.775 437.256
2304 0 145.203 10.8744 1579 113.759 102.598 438.559
2305 1 85.1955 8.80328 750 109.963 103.431 469.736
2306 0 85.0911 9.26066 788 111.503 103.218 466.435
2307 0 91.1012 10.9988 1002 106.824 102.7 466.317
2308 0 96.1687 12.0413 1158 112.214 103.539 468.08
2309 0 99.1605 12.7067 1260 110.738 103.465 469.202
2310 0 100.085 12.4394 1245 112.169 103.745 468.62
2311 0 103.098 13.5212 1394 110.23 103.085 464.626
2312 0 107.174 13.0069 1394 111.047 103.585 465.942
2313 0 109.135 12.7732 1394 114.488 103.387 461.166
2314 0 110.114 11.588 1276 117.716 103.622 460.176
2315 0 114.104 11.3493 1295 118.148 103.831 458.76
2316 0 116.085 12.6372 1467 117.693 103.872 455.443
2317 0 124.148 12.912 1603 115.225 103.715 453.123
2318 0 126.19 13.8046 1742 114.954 103.807 450.078
2319 0 130.243 12.9835 1691 116.58 103.584 448.316
2320 0 135.272 13.957 1888 117.706 103.068 450.028
2321 0 139.285 13.0955 1824 120.124 103.552 443.474
2322 0 146.329 13.8045 2020 117.158 103.521 443.134
2323 1 78.1217 10.4196 814 119.328 103.585 470.055
2324 0 82.2873 10.7429 884 109.776 104.236 476.224
2325 0 82.0921 9.47716 778 115.072 104.533 472.972
2326 0 86.1516 11.9325 1028 109.747 104.357 468.732
2327 0 88.1163 11.3259 998 109.454 104.44 471.048
2328 0 90.1825 11.255 1015 109.934 103.87 467.051
2329 0 92.1487 10.3962 958 108.579 102.851 459.621
2330 0 96.1133 11.476 1103 107.201 102.822 456.82
2331 0 98.1286 10.7818 1058 110.981 104.485 462.548
2332 0 102.268 11.9686 1224 106.868 103.975 460.049
2333 0 104.234 11.5125 1200 107.386 104.358 458.873
2334 0 106.188 10.811 1148 110.345 103.895 453.312
2335 0 110.205 12.005 1323 108.405 103.58 451.621
2336 0 115.15 12.766 1470 106.78 104.007 451.251
2337 0 116.224 11.8047 1372 111.28 104.136 450.268
2338 0 119.162 12.3865 1476 110.297 103.98 449.312
2339 0 123.222 13.1065 1615 110.139 104.237 443.882
2340 0 128.2 12.0982 1551 111.248 104.568 442.898
2341 0 130.168 12.0921 1574 113.694 104.291 441.302
2342 0 132.327 11.5622 1530 115.562 104.09 437.044
2343 0 137.2 11.363 1559 117.511 104.398 432.013
2344 0 140.128 12.3815 1735 115.554 104.523 431.739
2345 0 143.263 11.3288 1623 118.794 104.067 430.308
2346 0 148.242 11.488 1703 118.447 104.684 425.326
2347 0 152.292 12.5155 1906 117.714 104.116 424.383
2348 0 156.266 13.3746 2090 117.318 104.434 427.335
2349 0 162.2 13.1381 2131 117.219 104.084 424.313
2350 0 166.176 11.6623 1938 121.87 103.544 416.098
2351 0 170.339 13.8371 2357 116.266 103.193 418.387
2352 0 177.237 13.8458 2454 116.725 103.782 415.328
2353 0 180.204 13.0907 2359 120.294 104.072 408.607
2354 0 187.3 13.7587 2577 120.187 104.014 404.601
2355 0 190.245 13.9662 2657 120.574 103.987 400.339
2356 0 196.199 13.3487 2619 122.334 104.172 398.561
2357 0 204.192 13.7469 2807 121.137 104.347 397.109
2358 0 208.246 14.0603 2928 121.102 105.04 394.497
2359 0 215.318 13.4174 2889 124.916 106.044 389.735
2360 0 219.236 12.7534 2796 126.874 105.496 385.17
2361 0 230.284 15.3897 3544 117.35 106.039 386.354
2362 1 178.249 13.2007 2353 118.512 105.292 413.814
2363 0 184.224 13.4293 2474 119.286 105.587 410.44
2364 0 187.151 13.2941 2488 120.242 105.766 405.003
2365 0 193.253 13.4591 2601 118.816 105.954 397.716
2366 1 20.0943 4.67795 94 84.8298 105.468 491.064
2367 0 20.0221 4.7947 96 84.4062 105.729 489.875
2368 0 20.0236 3.94534 79 83.1266 106.228 487.937
2369 0 19.0088 6.57592 125 81.32 106.448 489.736
2370 0 20.028 5.19272 104 81.7115 107.913 491.779
2371 0 20.0391 6.138 123 80.9431 108.642 492.065
2372 0 19.0042 4.47269 85 80.2588 107.906 493.153
2373 0 16.0009 4.12477 66 84.2576 107.576 489.348
2374 0 19.0086 5.41861 103 81.699 107.544 493.184
2375 0 21.0147 1.6655 35 86.6 107.086 493.029
2376 0 15.0176 4.52801 68 83.1324 106.471 493.559
2377 0 13.006 1.53775 20 87.2 105.75 492.65
2378 0 15.0544 5.24765 79 82.3544 107.101 493.886
2379 0 14.0021 4.64216 65 85.5846 106.369 490.646
2380 0 19.0305 4.15122 79 82.4937 105.253 491.114
2381 0 19.002 5.47311 104 87.2212 106.779 485.779
2382 0 26.0098 5.1519 134 84.6418 106.687 489.373
2383 0 34.1975 6.22853 213 89.0751 107.235 487.286
2384 0 33.1461 6.45626 214 88.6028 107.547 485.084
2385 0 32.1372 5.78769 186 92.5645 107.645 484.409
2386 0 32.0542 6.645 213 89.4225 106.624 485.596
2387 0 23.0548 3.55675 82 94.878 106.61 479.585
2388 0 21.0917 7.25405 153 87.4248 105.784 486.268
2389 0 25.0429 4.87165 122 90.7131 107.336 483.082
2390 0 19.009 3.26161 62 92.0161 108.274 486.823
2392 0 229.343 17.1272 3928 89.0318 107.264 372.769
2393 0 229.407 16.3116 3742 92.4254 106.956 367.942
2394 0 227.389 15.0359 3419 98.859 107.318 374.629
2395 0 234.489 15.3014 3588 97.7742 106.636 366.448
2396 1 189.265 12.1575 2301 106.245 105.741 399.615
2397 0 193.35 13.2402 2560 104.007 105.527 400.278
2398 0 201.396 13.4561 2710 103.855 105.83 395.271
2399 0 205.196 13.5529 2781 104.448 105.123 392.677
2400 0 209.377 11.3432 2375 109.233 105.352 394.654
2401 0 215.316 11.778 2536 109.559 105.242 386.921
2402 0 222.431 13.2356 2944 106.025 105.438 385.53
2403 0 230.369 12.7882 2946 109.908 106.22 379.682
2404 0 240.504 12.8605 3093 107.765 106.371 379.129
2405 1 185.527 11.028 2046 108.965 106.785 407.071
2406 0 190.5 11.7428 2237 107.313 106.542 406.26
2407 0 196.41 13.9403 2738 102.519 106.449 399.77
2408 0 200.457 11.6135 2328 107.896 106.916 398.014
2409 0 206.507 13.0552 2696 105.257 107.405 390.849
2410 0 214.51 12.6754 2719 106.118 107.768 386.548
2411 0 218.558 10.9124 2385 110.86 107.056 384.091
2412 0 227.603 13.0447 2969 106.076 106.611 379.389
2413 0 233.62 12.4219 2902 106.608 106.878 383.742
2414 0 239.519 12.7171 3046 107.676 106.984 371.445
2415 0 245.523 13.2371 3250 107.371 107.137 373.319
2416 0 254.58 12.3144 3135 111.808 107.283 366.181
2417 0 260.505 13.1744 3432 109.527 106.284 361.425
2418 0 269.787 14.4781 3906 105.321 106.656 363.113
2419 0 276.501 12.9078 3569 110.028 106.836 355.657
2420 1 308.948 17.1291 5292 95.2217 107.264 335.546
2421 0 309.959 19.88 6162 89.9662 107.201 318.853
2422 0 311.784 18.8816 5887 93.963 106.856 318.476
2423 0 310.669 14.8357 4609 105.891 107.183 339.365
2424 0 318.703 15.7639 5024 103.524 106.727 335.667
2425 1 259.695 12.2913 3192 109.691 106.719 367.848
2426 0 267.472 13.736 3674 107.972 107.132 362.753
2427 0 275.625 13.0322 3592 109.813 107.342 359.536
2428 0 284.741 13.953 3973 108.448 107.219 354.254
2429 0 294.747 13.5778 4002 108.72 107 351.641
2430 0 302.845 14.2845 4326 106.593 107.095 342.867
2431 0 308.638 14.9139 4603 106.123 107.219 339.418
2432 0 321.008 15.308 4914 106.411 107.274 333.252
2433 0 329.774 16.6235 5482 103.759 106.648 326.905
2434 0 338.898 14.7094 4985 107.759 106.538 323.406
2435 0 348.898 14.3595 5010 109.876 106.638 319.921
2436 0 358.854 16.3465 5866 105.699 107.093 311.852
2437 0 368.76 15.7121 5794 107.948 106.757 305.298
2438 0 378.792 15.3884 5829 108.559 106.569 309.197
2439 0 391.777 16.7034 6544 105.67 107.189 294.317
