time division length width area intensity CMx CMy
0 0 32.0665 12.63 405 157.469 723.593 475.99
1 0 33.165 13.267 440 154.627 724.125 475.073
2 0 34.0251 11.9324 406 146.995 723.448 477.421
3 0 35.0268 13.1042 459 142.142 724.081 477.118
4 0 36.0463 12.0956 436 149.617 724.094 476.099
5 0 35.0704 13.0594 458 147.334 724.76 475.362
6 0 39.0361 13.2185 516 140.068 724.174 476.116
7 0 38.0217 13.1241 499 143.882 724.756 476.022
8 0 40.04 12.962 519 149.786 722.927 475.302
9 0 40.0368 12.4885 500 152.368 722.938 474.972
10 0 42.0252 13.7537 578 147.131 722.471 474.202
11 0 41.0842 12.0241 494 153.328 723.567 474.947
12 0 44.0543 12.6889 559 147.492 722.787 475.309
13 0 45.0461 12.9867 585 147.125 722.422 474.173
14 0 45.052 12.7852 576 148.168 722.467 474.576
15 0 48.0372 13.6769 657 142.298 722.402 473.297
16 0 47.042 13.0734 615 145.302 722.832 473.919
17 0 49.055 13.6377 669 142.19 722.725 472.628
18 0 49.0627 13.5133 663 143.721 723.463 472.647
19 0 51.1031 13.0912 669 143.864 722.374 472.718
20 0 53.0838 13.8837 737 141.339 722.065 471.605
21 0 56.1238 14.1295 793 138.474 722.805 472.383
22 0 56.16 14.3163 804 138.846 722.561 470.31
23 0 56.1769 12.2648 689 143.646 722.34 472.167
24 0 58.0503 13.3849 777 138.366 722.317 471.955
25 0 59.2 12.0946 716 142.994 721.246 470.218
26 0 62.206 13.0052 809 138.624 720.957 470.082
27 0 65.1116 14.1449 921 134.468 721.246 468.197
28 0 66.0944 13.7077 906 137.89 720.818 466.226
29 0 69.1955 12.6453 875 138.827 721.306 466.339
30 0 71.1198 13.8077 982 135.605 721.336 465.738
31 0 74.1065 13.2107 979 136.994 720.325 463.845
32 0 77.0463 13.3037 1025 136.903 719.824 464.042
33 0 80.1753 14.1565 1135 134.27 720.182 460.879
34 0 83.1948 12.7893 1064 138.479 720.034 459.787
35 1 44.0424 12.6242 556 136.705 719.869 479.331
36 0 45.0269 11.9484 538 141.338 720.472 477.472
37 0 47.0411 12.6273 594 138.845 720.392 478.039
38 0 47.0192 12.4417 585 140.133 719.937 477.275
39 0 49.0276 13.7678 675 136.338 720.336 476.397
40 0 49.0834 13.7928 677 136.873 720.13 477.055
41 0 52.0391 14.393 749 132.837 720.59 476.64
42 0 54.0658 13.724 742 134.253 720.078 476.065
43 0 57.0198 14.4511 824 131.518 720.614 474.345
44 0 58.0707 13.4836 783 134.134 720.29 473.774
45 0 61.0716 14.4421 882 130.06 720.502 472.998
46 0 62.0805 14.1429 878 131.259 719.565 470.52
47 0 64.0808 13.6858 877 132.165 719.404 470.624
48 0 67.1772 13.5909 913 132.662 719.479 468.064
49 0 69.1302 13.6554 944 137.132 719.154 467.336
50 0 73.1607 14.557 1065 133.667 718.984 466.392
51 0 75.045 14.2848 1072 133.698 719.617 465.187
52 0 78.0962 14.3285 1119 132.964 719.632 463.549
53 0 80.1209 15.0398 1205 131.069 719.378 462.222
54 0 83.1254 13.2811 1104 135.293 718.94 462.196
55 0 84.0992 13.1155 1103 136.545 719.013 460.602
56 0 88.0794 14.0782 1240 133.353 719.744 458.944
57 0 92.1204 14.4702 1333 131.519 719.191 457.866
58 0 96.1046 14.2033 1365 132.79 719.58 458.21
59 1 48.0539 12.8814 619 134.604 720.074 479.055
60 0 49.0598 12.8619 631 135.141 719.39 478.548
61 0 51.0717 11.8461 605 141.102 719.678 478.111
62 0 54.078 12.9258 699 132.433 719.157 478.455
63 0 56.0179 13.1565 737 132.322 718.92 477.597
64 0 57.1164 12.886 736 133.914 718.64 477.205
65 0 58.0778 13.3958 778 133.758 718.68 475.842
66 0 59.1486 12.4601 737 136.727 718.833 475.358
67 0 63.0457 13.863 874 132.019 718.398 473.122
68 0 65.175 13.1953 860 133.755 718.524 474.084
69 0 67.1711 13.0115 874 134.22 718.006 471.077
70 0 69.0944 13.4598 930 133.187 718.043 468.595
71 0 73.1185 13.9636 1021 129.768 717.925 469.922
72 0 75.0421 13.6323 1023 130.697 717.949 468
73 0 77.1157 13.0713 1008 131.414 718.184 465.465
74 0 81.1229 13.3994 1087 129.888 718.673 464.779
75 0 82.121 13.2487 1088 129.758 717.899 464.386
76 0 87.0894 13.3771 1165 130.915 718.091 462.102
77 0 91.1032 14.1268 1287 127.25 718.97 460.134
78 1 48.0245 12.3687 594 129.938 718.907 480.875
79 0 50.0463 13.2677 664 128.292 718.878 479.611
80 0 53.0801 12.9427 687 128.036 718.889 479.376
81 0 55.1294 13.6769 754 124.285 717.813 477.789
82 0 55.1321 12.9689 715 127.12 717.859 476.448
83 0 57.2204 13.5616 776 124.977 718.621 475.22
84 0 59.0829 12.3894 732 131.578 718.408 476.127
85 0 61.1303 13.185 806 128.613 718.813 474.87
86 0 64.1664 13.0442 837 128.747 718.582 473.582
87 0 67.277 13.987 941 126.898 718.398 472.571
88 0 69.187 13.9477 965 126.556 718.341 470.083
89 0 71.0836 14.1242 1004 124.831 717.962 469.176
90 0 72.1063 12.9808 936 125.965 717.932 467.843
91 0 76.0784 14.3799 1094 121.293 718.18 467.277
92 0 77.1721 13.3986 1034 124.18 717.958 467.109
93 0 81.1347 12.6456 1026 126.513 717.667 465.195
94 0 83.2163 13.0143 1083 125.431 717.984 462.717
95 0 86.1545 13.3945 1154 125.105 717.919 460.458
96 0 91.1639 13.9639 1273 122.937 717.822 460.624
97 0 93.1975 13.2729 1237 124.763 718.809 459.154
98 1 48.1372 11.7373 565 121.558 717.58 481.411
99 0 49.1085 11.1793 549 124.896 717.967 481.208
100 0 50.0676 11.4046 571 127.511 718.354 479.48
101 0 54.0489 13.3583 722 119.378 717.447 478.622
102 0 54.0706 13.9262 753 118.315 717.41 478.182
103 0 55.0541 13.3687 736 120.62 717.493 476.61
104 0 57.1087 13.2554 757 119.962 717.342 477.847
105 0 58.1533 13.8255 804 118.871 717.09 477.602
106 0 59.1419 13.5944 804 120.925 716.44 475.408
107 0 62.1426 13.5656 843 120.04 716.804 475.293
108 0 63.0941 12.4893 788 123.557 717.11 472.567
109 0 67.0797 13.1634 883 119.609 716.682 473.623
110 0 69.047 12.8029 884 121.994 716.501 471.92
111 0 70.0874 12.9267 906 121.525 716.352 471.896
112 0 71.177 12.6726 902 124.123 715.998 468.351
113 0 75.0858 12.9052 969 122.82 716.216 468.644
114 0 78.0785 12.8332 1002 122.689 716.248 466.268
115 0 81.0616 12.6941 1029 123.939 716.713 463.742
116 0 83.0975 12.9486 1076 122.378 716.941 464.476
117 0 87.1553 14.0324 1223 120.436 716.841 462.686
118 0 89.1438 13.2595 1182 123.606 717.083 460.066
119 0 90.1151 12.7948 1153 126.559 716.502 457.56
120 0 95.085 14.1032 1341 122.136 716.442 455.726
121 0 99.1447 13.3643 1325 122.948 716.347 456.244
122 0 100.114 12.7255 1274 125.176 717.042 453.058
123 0 106.169 14.006 1487 121.587 716.935 451.975
124 1 53.1874 11.4313 608 120.036 717.276 478.689
125 0 56.1069 11.1038 623 122.591 717.231 477.533
126 0 56.098 11.159 626 152.775 717.235 477.628
127 0 61.1381 13.5431 828 117.972 716.448 473.431
128 0 61.1915 12.4527 762 121.495 717.448 474.339
129 0 67.0926 12.2964 825 118.909 718.274 473.059
130 0 68.2067 13.4004 914 117.376 717.234 470.73
131 0 70.1428 13.2016 926 117.552 717.627 469.392
132 0 71.1778 12.9254 920 120.312 717.586 469.012
133 0 74.2607 14.1932 1054 116.862 718.316 467.898
134 0 78.1604 14.1632 1107 116.651 717.594 467.316
135 0 79.0576 12.4593 985 122.263 717.323 466.761
136 0 81.1441 14.3941 1168 119.164 718.02 462.455
137 0 84.0952 13.996 1177 120.527 717.153 463.143
138 0 87.1119 13.5114 1177 121.211 717.268 462.661
139 0 90.1146 13.6049 1226 122.81 716.817 460.344
140 0 93.1727 14.178 1321 121.363 716.932 459.215
141 0 96.1385 12.8773 1238 125.393 716.965 457.823
142 0 99.1268 13.2154 1310 123.418 716.591 455.909
143 1 53.0528 11.8938 631 118.926 717.483 478.269
144 0 54.1431 11.7282 635 119.228 717.135 475.443
145 0 56.0649 12.2893 689 116.255 718.377 477.45
146 0 58.0159 12.7206 738 115.389 717.884 476.157
147 0 60.0933 13.1795 792 115.129 717.215 474.727
148 0 62.0554 11.667 724 119.066 718.873 474.602
149 0 63.1182 12.1043 764 120.179 718.686 471.114
150 0 65.0695 12.4482 810 119.865 718.409 471.507
151 0 67.1132 12.3076 826 120.995 718.904 469.634
152 0 70.1337 11.9344 837 122.234 717.787 469.315
153 0 74.0662 12.3403 914 120.877 717.927 468.62
154 0 74.1206 12.5471 930 122.392 718.852 467.969
155 0 78.1165 12.1485 949 122.599 718.162 466.758
156 0 81.1499 12.1504 986 122.12 717.604 464.553
157 0 84.1602 12.999 1094 120.169 717.721 463.396
158 0 86.1219 12.1572 1047 124.199 717.645 461.721
159 0 89.0977 14.0408 1251 120.5 717.656 457.68
160 0 93.1215 12.4246 1157 125.305 718.2 457.624
161 0 97.133 13.2087 1283 123.272 718.542 454.172
162 0 98.1648 13.2328 1299 126.485 717.676 452.973
163 1 52.0127 10.2283 532 125.707 718.109 478.333
164 0 54.1072 12.4752 675 120.498 718.287 475.732
165 0 55.103 12.2861 677 120.663 717.597 474.835
166 0 56.1584 12.4291 698 120.983 717.874 474.158
167 0 61.1739 12.7178 778 118.001 718.514 473.902
168 0 62.1562 12.7582 793 118.271 718.942 471.74
169 0 64.133 12.0843 775 114.415 718.708 470.916
170 0 67.0914 13.1313 881 111.431 718.74 469.575
171 0 68.0695 12.8251 873 113.493 718.088 468.399
172 0 72.0706 12.0854 871 114.681 718.082 467.467
173 0 73.0886 12.5738 919 113.527 718.593 468.24
174 0 76.0379 13.0461 992 112.245 718.411 465.784
175 0 79.0631 12.0031 949 115.352 717.511 464.536
176 0 83.1213 12.9088 1073 113.588 717.384 462.476
177 0 85.0523 12.4394 1058 116.782 718.276 460.995
178 0 88.1509 13.2727 1170 114.626 717.794 457.831
179 0 90.1161 12.262 1105 118.205 718.145 458.224
180 1 48.0241 9.93251 477 118.509 718.545 480.654
181 0 48.0252 10.2863 494 118.443 716.223 476.427
182 0 51.0745 11.9629 611 114.003 717.334 476.928
183 0 52.0598 11.8133 615 117.849 716.418 477.12
184 0 54.0309 13.2147 714 114.511 716.056 475.612
185 0 56.0789 12.8747 722 116.536 716.506 475.519
186 0 56.0654 11.9682 671 119.133 716.373 475.413
187 0 59.0755 11.5784 684 120.936 717.045 475.374
188 0 60.0394 12.3919 744 119.735 716.837 472.879
189 0 63.0805 12.3493 779 118.729 718.374 473.861
190 0 65.1427 12.3114 802 118.948 717.519 472.784
191 0 68.0958 12.6586 862 117.209 717.722 471.534
192 0 68.1157 12.3466 841 119.857 717.709 470.064
193 0 69.0716 12.4364 859 119.469 717.758 469.731
194 0 70.1031 10.9553 768 124.202 717.4 468.682
195 0 74.0491 12.0326 891 120.098 716.094 467.747
196 0 78.0933 12.5235 978 118.555 716.584 466.063
197 0 78.0764 11.0405 862 122.633 716.398 465.212
198 0 82.098 12.412 1019 119.579 717.128 462.189
199 0 83.0925 11.1322 925 121.104 717.151 459.745
200 0 89.1923 12.389 1105 117.816 717.312 459.047
201 0 92.1131 12.7886 1178 116.958 717.336 459.144
202 0 94.1927 11.9224 1123 121.649 716.67 456.466
203 0 96.4286 11.9985 1157 124.62 716.962 452.087
204 1 47.2731 9.51916 450 123.689 717.358 475.336
205 0 48.4431 11.0232 534 123.217 717.509 474.103
206 0 51.4169 11.3581 584 121.216 717.067 474.711
207 0 52.1059 10.6322 554 125.316 716.554 475.547
208 0 55.2065 11.5566 638 120.114 717.064 476.166
209 0 56.2181 12.7539 717 117.291 717.399 474.395
210 0 58.0896 11.9126 692 118.809 717.595 475.727
211 0 59.1418 12.0389 712 119.881 717.771 473.438
212 0 61.1996 12.3203 754 118.479 718.109 472.566
213 0 63.1262 12.7047 802 117.783 716.96 471.282
214 0 64.1498 12.3773 794 119.097 717.136 470.816
215 0 65.1143 12.3322 803 121.11 717.147 467.564
216 0 67.1998 12.634 849 120.165 717.517 466.337
217 0 69.0823 12.1449 839 121.977 718.234 465.405
218 0 72.0954 13.2463 955 119.175 717.518 465.941
219 0 75.0936 13.3833 1005 118.713 717.205 466.166
220 0 76.0903 12.656 963 120.052 717.798 466.636
221 0 79.234 14.1858 1124 115.856 718.214 464.133
222 0 82.1209 12.8834 1058 118.223 717.973 462.188
223 0 85.271 12.2316 1043 116.574 718.027 462.749
224 0 86.2257 13.1283 1132 116.423 718.501 458.287
225 0 90.1769 12.6307 1139 114.373 719.139 459.04
226 0 93.1196 13.0907 1219 115.302 718.701 455.678
227 0 95.1652 12.347 1175 118.852 718.797 455.992
228 1 51.0242 10.9556 559 115.456 718.565 478.02
229 0 53.0253 11.4851 609 113.92 718.133 479.023
230 0 53.062 12.0991 642 110.048 718.442 472.975
231 0 54.0522 11.1559 603 113.091 717.08 471.96
232 0 57.0858 12.1922 696 110.024 718.205 475.582
233 0 58.0357 12.2683 712 109.865 718.199 476.088
234 0 59.0242 12.5372 740 110.9 718.151 472.573
235 0 62.1302 12.1358 754 112.085 718.045 472.578
236 0 65.0982 11.9512 778 111.58 718.156 472.955
237 0 66.0606 12.0193 794 113.348 718.523 468.532
238 0 68.0392 11.7138 797 114.02 718.266 468.212
239 0 70.0551 12.3189 863 114.082 718.457 467.026
240 0 73.0894 13.3946 979 112.817 717.943 466.199
241 0 76.1579 11.9751 912 116.783 717.1 463.901
242 0 77.0734 12.274 946 117.227 717.309 461.796
243 0 81.1675 12.1108 983 118.283 717.645 462.249
244 0 84.1502 12.2876 1034 119.825 717.591 460.086
245 0 89.0768 13.9767 1245 116.039 717.802 458.64
246 0 92.0886 12.1188 1116 120.917 717.808 457.815
247 0 94.1309 13.0032 1224 119.309 718.77 455.347
248 0 97.0948 12.9152 1254 120.683 718.179 452.783
249 0 101.124 13.1621 1331 119.784 718.621 450.832
250 0 103.164 12.2329 1262 122.502 718.456 449.62
251 1 53.2904 11.9909 639 112.588 718.626 475.105
252 0 55.2372 12.2381 676 111.297 718.902 473.43
253 0 58.1154 12.4924 726 109.755 718.245 471.377
254 0 60.0527 10.5241 632 113.233 717.451 474.956
255 0 62.1831 12.1416 755 114.992 717.951 472.252
256 0 66.2261 12.5781 833 112.14 718.198 471.248
257 0 67.0955 12.7132 853 109.07 717.382 469.052
258 0 70.1279 12.6055 884 108.83 717.767 466.778
259 0 73.0827 11.7812 861 110.351 717.947 468.369
260 0 75.071 12.0553 905 110.486 717.714 465.998
261 0 77.1102 12.1255 935 110.873 718.027 465.209
262 0 79.1212 12.6641 1002 111.171 718.521 462.882
263 0 83.1194 13.7633 1144 108.264 718.156 460.911
264 0 85.0809 12.2354 1041 114.207 718.22 458.86
265 0 89.099 12.155 1083 116.79 718.397 457.997
266 0 90.0681 12.0575 1086 115.457 718.084 458.447
267 0 95.0989 11.4092 1085 118.446 718.552 455.218
268 0 97.081 11.3513 1102 118.842 718.548 455.298
269 0 99.0688 11.1942 1109 119.116 718.215 453.598
270 0 105.108 13.1103 1378 114.116 718.689 451.009
271 1 54.0591 10.803 584 113.394 718.944 473.584
272 0 56.0604 11.3271 635 112.572 718.523 471.676
273 0 59.0475 13.8871 820 106.718 716.079 473.866
274 0 58.0901 11.6199 675 111.806 716.495 474.301
275 0 62.0362 12.4121 770 109.273 716.274 473.058
276 0 63.0258 12.1696 767 111.362 716.233 472.222
277 0 66.0958 12.028 795 110.312 716.151 472.952
278 0 68.079 11.8245 805 111.805 715.993 470.357
279 0 72.1851 13.216 954 109.677 716.614 469.307
280 0 72.0838 12.5548 905 113.177 716.841 467.503
281 0 75.109 12.8347 964 112.706 717.29 464.821
282 0 77.0651 12.4181 957 113.83 717.109 465.725
283 0 81.0397 13.006 1054 112.969 717.49 462.373
284 0 83.0791 12.0367 1000 115.804 716.941 463.277
285 0 87.0668 12.3354 1074 114.218 717.469 461.412
286 0 87.1164 12.1791 1061 116.831 717.314 458.826
287 0 94.0988 12.1787 1146 115.067 717.774 459.251
288 0 96.1147 12.5371 1205 114.968 717.085 454.722
289 1 50.0394 12.2304 612 107.44 717.761 479.083
290 0 50.0394 12.1504 608 136.827 718.771 479.069
291 0 52.0443 10.0107 521 109.428 719.075 480.038
292 0 54.0229 10.6251 574 109.533 718.246 477.226
293 0 53.0279 10.6925 567 110.159 718.185 476.353
294 0 55.1229 10.9029 601 108.895 719.401 476.213
295 0 57.0889 10.7727 615 109.852 718.486 474.584
296 0 57.1123 11.1885 639 108.557 718.025 476.516
297 0 58.0774 10.5893 615 112.325 718.995 474.213
298 0 62.0684 11.9868 744 109.27 718.519 473.078
299 0 64.0856 11.8903 762 109.295 718.505 472.505
300 0 64.0639 12.3627 792 110.937 718.112 470.01
301 0 66.0726 11.6084 767 112.421 718.696 470.769
302 0 66.0726 11.5933 766 139.341 719.702 470.685
303 0 70.103 13.6513 957 109.526 719.234 467.051
304 0 73.0422 12.2532 895 111.058 718.672 468.77
305 0 75.0765 12.0277 903 113.36 719.002 466.396
306 0 79.1259 13.0551 1033 110.709 719.113 464.303
307 0 80.1066 11.8717 951 114.526 718.441 463.146
308 0 82.1514 11.7466 965 115.544 718.24 461.489
309 0 85.1496 12.848 1094 113.156 718.143 460.62
310 0 89.1842 13.4553 1200 113.03 717.202 456.699
311 0 90.1613 12.6884 1144 115.207 717.677 456.695
312 0 96.2691 13.4311 1293 112.627 718.367 454.842
313 0 97.1731 12.627 1227 115.747 718.553 452.622
314 0 100.092 12.5784 1259 115.467 718.014 450.856
315 1 51.1074 9.90071 506 108.99 717.8 470.901
316 0 54.107 9.83236 532 107.97 716.852 471.453
317 0 55.0902 12.5068 689 103.483 718.014 474.782
318 0 57.1097 10.9263 624 105.965 716.942 476.91
319 0 60.1864 11.1155 669 106.158 717.883 474.176
320 0 61.1263 12.0406 736 104.325 717.579 473.875
321 0 64.1716 13.2302 849 101.682 717.932 471.377
322 0 67.1217 12.738 855 102.085 718.844 470.385
323 0 69.1652 13.0557 903 101.078 718.14 469.801
324 0 69.1294 11.9775 828 104.897 718.482 469.876
325 0 72.125 11.4523 826 106.644 718.559 466.569
326 0 73.1604 11.4133 835 106.139 718.625 468.025
327 0 75.199 11.7688 885 106.806 718.058 464.995
328 0 78.1078 12.0346 940 106.032 718.315 464.169
329 0 81.1105 12.2549 994 105.49 718.121 465.244
330 0 83.1617 12.2292 1017 107.137 718.071 460.854
331 0 86.2481 11.5597 997 108.415 718.266 463.166
332 0 89.2265 12.5635 1121 106.905 717.363 460.917
333 0 91.1753 12.3608 1127 108.359 716.531 456.786
334 0 93.2373 11.2401 1048 111.239 716.676 454.478
335 0 97.2207 13.1248 1276 108.243 716.345 452.418
336 0 101.246 12.6326 1279 109.614 716.777 449.183
337 0 105.353 12.6812 1336 109.46 716.319 448.481
338 1 54.1249 10.328 559 107.428 716.122 475.197
339 0 55.082 11.9821 660 103.647 715.877 471.979
340 0 59.0715 12.5103 739 103.199 716.668 472.212
341 0 60.1219 11.6763 702 104.603 718.017 474.692
342 0 61.1116 11.7817 720 105.071 718.717 472.45
343 0 61.0166 10.2103 623 110.52 718.78 471.255
344 0 66.1096 12.0557 797 104.911 718.694 472.197
345 0 68.1186 11.4213 778 106.517 719.057 471.487
346 0 71.1393 11.7094 833 107.235 718.595 470.032
347 0 70.076 11.2592 789 109.508 718.081 469.393
348 0 76.0699 12.896 981 105.728 718.517 467.913
349 0 77.058 13.0032 1002 106.232 719.226 467.127
350 0 79.1206 12.5378 992 107.163 719.257 466.035
351 0 80.1121 11.7336 940 109.912 718.933 466.263
352 0 80.1052 11.7346 940 131.494 718.923 466.061
353 0 86.1043 11.3467 977 111.403 719.088 463.179
354 0 92.1088 12.203 1124 110.111 718.698 461.239
355 0 92.0792 10.1869 938 116.747 718.575 460.453
356 0 95.069 11.3391 1078 116.461 718.711 457.173
357 1 49.1357 11.0103 541 112.813 719.129 480.495
358 0 48.0412 10.3661 498 113.908 719.745 477.745
359 0 50.0198 11.6554 583 110.276 719.515 478.233
360 0 51.0424 11.5786 591 112.953 719.959 479.802
361 0 54.0573 12.8567 695 109.632 719.993 477.755
362 0 55.088 12.6162 695 111.681 720.364 478.068
363 0 58.1455 12.5375 729 112.516 720.569 476.997
364 0 60.1081 13.5755 816 111.099 719.919 475.923
365 0 59.1739 12.1675 720 117.507 719.965 475.229
366 0 61.0545 12.5953 769 117.41 719.564 475.882
367 0 63.1153 12.2474 773 118.56 719.144 475.318
368 0 65.1103 11.3346 738 122.038 719.102 473.828
369 0 68.1011 12.4814 850 119.605 718.998 472.821
370 0 71.089 11.9146 847 122.078 719.004 471.386
371 0 74.1674 12.9167 958 119.236 718.835 470.122
372 0 76.1985 12.3231 939 121.29 718.406 470.358
373 0 78.1565 13.5114 1056 117.465 719.244 465.514
374 0 81.0799 12.3458 1001 120.218 718.494 466.343
375 0 84.1748 14.0066 1179 115.474 719.556 463.716
376 0 86.1202 12.5522 1081 126.899 719.452 461.994
377 1 45.038 11.2128 505 120.501 718.994 482.978
378 0 47.1434 11.5605 545 117.143 720.446 481.433
379 0 49.0682 13.4711 661 112.431 719.439 480.345
380 0 49.0669 11.8206 580 117.091 720.05 480.672
381 0 50.0703 13.1615 659 115.099 719.398 479.496
382 0 51.0501 12.5759 642 116.807 719.402 480.05
383 0 53.0955 12.0161 638 117.666 719.337 479.089
384 0 55.0795 14.0887 776 112.737 719.371 477.508
385 0 58.1053 12.6839 737 114.919 718.859 477.689
386 0 57.059 13.2494 756 116.381 719.612 475.064
387 0 60.0768 12.8835 774 116.487 720.239 474.738
388 0 61.1114 12.1745 744 117.863 719.78 475.37
389 0 62.165 13.1746 819 116.651 719.326 474.198
390 0 66.0568 13.4581 889 115.659 718.911 471.976
391 0 67.0546 13.1684 883 117.646 718.811 470.969
392 0 68.0454 13.2559 902 117.451 719.168 471.167
393 0 71.0678 12.5514 892 120.407 719.321 468.913
394 0 75.0899 14.0898 1058 115.085 719.343 468.324
395 0 78.1177 12.9804 1014 118.217 719.14 467.415
396 0 78.0745 12.9748 1013 120.943 719.312 464.779
397 0 80.0848 12.2121 978 124.076 719.85 463.146
398 1 41.0418 9.98981 410 121.634 720.032 485.115
399 0 44.0259 12.0384 530 115.645 720.679 483.553
400 0 44.1573 10.6891 472 120.155 720.22 481.528
401 0 45.0291 10.9707 494 116.358 720.54 482.99
402 0 45.0375 11.8568 534 116.464 719.925 481.697
403 0 48.0685 12.3782 595 112.383 719.869 482.427
404 0 47.0444 10.2669 483 120.468 720.052 480.7
405 0 49.0681 10.9643 538 118.814 719.682 481.098
406 0 51.0382 11.7755 601 117.622 720.032 478.687
407 0 51.1154 11.3077 578 119.721 719.837 478.24
408 0 55.0465 11.8082 650 117.086 719.605 478.228
409 0 56.0278 12.9043 723 116.299 719.019 476.058
410 0 56.0996 12.5313 703 118.34 718.926 475.422
411 0 60.1526 12.701 764 116.191 719.36 475.767
412 0 61.0385 11.7958 720 120.403 718.888 474.753
413 0 63.2389 13.3304 843 116.568 719.575 474.053
414 0 64.0801 12.5312 803 119.205 719.318 472.066
415 0 67.1019 12.5779 844 118.274 719.588 471.858
416 0 70.0818 13.156 922 116.912 719.363 469.919
417 0 71.0731 13.0992 931 117.604 719.895 468.851
418 0 72.075 12.4176 895 120.988 719.748 467.158
419 0 75.0498 11.4724 861 122.666 719.888 467.283
420 0 77.081 11.8447 913 122.176 719.796 464.84
421 0 81.098 12.676 1028 117.306 719.552 464.404
422 0 83.0661 11.2922 938 122.102 719.5 463.513
423 0 83.0661 11.3283 941 135.686 718.518 463.533
424 1 45.0611 10.9185 492 118.443 719.549 480.181
425 0 44.0706 10.5966 467 111.253 718.538 479.107
426 0 44.0213 10.3813 457 110.037 718.937 476.523
427 0 47.0537 9.56354 450 110.704 718.607 477.691
428 0 47.024 10.399 489 109.677 718.397 476.973
429 0 50.0448 11.15 558 107.059 718.88 474.744
430 0 52.0541 10.9117 568 107.778 718.704 475.993
431 0 53.0485 11.0653 587 107.436 719.223 474.051
432 0 51.0969 9.8049 501 111.381 719.293 472.675
433 0 53.0503 8.97262 476 112.137 718.525 473.168
434 0 56.1085 10.747 603 117.446 717.119 475.756
435 0 60.1179 11.8268 711 114.571 718.419 475.696
436 0 62.0587 12.4721 774 112.437 718.767 474.422
437 0 62.1618 10.6818 664 118.217 718.215 474.767
438 0 64.0994 10.8425 695 119.024 718.387 471.574
439 0 65.0899 10.0476 654 120.411 718.482 471.709
440 0 69.1206 11.7331 811 116.681 718.307 469.022
441 0 71.0748 10.6085 754 119.473 717.679 467.972
442 0 75.0732 11.4688 861 118.567 717.863 465.959
443 0 80.1493 12.5391 1005 113.022 717.416 467.728
444 0 82.0775 12.5491 1030 113.617 717.779 466.238
445 1 44.0261 11.0843 488 113.027 717.309 484.496
446 0 47.0363 12.097 569 110.452 718.838 484.005
447 0 47.0275 11.1212 523 114.6 718.134 481.663
448 0 48.0479 12.0713 580 108.855 719.495 481.812
449 0 50.0184 12.9552 648 106.995 718.867 480.426
450 0 53.0664 12.4184 659 107.605 719.385 478.759
451 0 52.097 12.5151 652 109.012 719.945 478.86
452 0 54.0832 12.148 657 110.341 720.481 477.965
453 0 56.1175 13.1866 740 107.704 719.888 477.136
454 0 57.1101 12.0119 686 110.152 720.264 477.035
455 0 58.0922 12.4974 726 109.923 720.106 475.044
456 0 61.191 13.0248 797 107.986 720.322 473.808
457 0 61.1196 11.7965 721 111.366 720.864 473.354
458 0 63.1341 11.8161 746 111.485 720.591 472.437
459 0 65.1747 13.3948 873 108.415 720.113 470.392
460 0 66.1153 11.9035 787 112.867 719.644 469.797
461 0 70.0985 12.4396 872 111.124 719.109 469.565
462 0 72.0213 13.1489 947 109.917 718.435 470.356
463 0 73.09 12.5872 920 113.772 718.549 466.423
464 0 76.0548 12.9117 982 114.14 718.521 464.503
465 0 78.0964 12.6895 991 114.169 719.025 464.4
466 0 80.0857 12.8612 1030 114.704 719.705 464.752
467 0 82.1462 12.0882 993 117.257 718.967 463.886
468 0 85.1046 11.7855 1003 121.371 718.574 459.816
469 0 90.2012 13.1151 1183 118.313 719.118 459.767
470 0 93.0956 13.0726 1217 118.565 718.991 459.598
471 0 95.1129 13.668 1300 118.29 718.876 456.712
472 0 97.0996 12.204 1185 123.332 718.464 454.636
473 1 52.2086 10.8794 568 124.637 719.775 475.491
474 0 53.3304 10.6881 570 124.812 720.34 476.656
475 0 53.0361 11.4639 608 123.727 719.37 477.632
476 0 58.055 12.0748 701 119.529 719.508 478.22
477 0 58.1274 12.3178 716 117.7 720.638 475.603
478 0 61.0468 12.4986 763 115.822 720.63 473.71
479 0 63.0704 12.494 788 115.133 720.272 472.929
480 0 65.0731 12.4014 807 115.333 719.922 472.76
481 0 68.0563 13.0333 887 113.138 719.859 470.577
482 0 70.0551 11.3339 794 117.227 719.524 469.699
483 0 73.1773 12.7089 930 113.378 719.251 468.399
484 0 75.1083 11.6232 873 116.229 719.896 466.133
485 0 79.1151 11.3 894 116.273 719.784 466.512
486 0 80.2337 11.1674 896 116.36 719.57 464.868
487 0 84.1068 12.2226 1028 113.217 720.518 462.018
488 0 87.165 12.0347 1049 113.708 720.391 460.566
489 0 89.1542 12.2597 1093 112.829 719.927 460.625
490 0 92.1131 10.194 939 117.51 720.117 460.627
491 1 50.0583 10.308 516 113.039 719.63 479.723
492 0 52.0606 10.8912 567 113.155 719.245 479.73
493 0 51.0286 9.13214 466 122.146 718.586 476.931
494 0 54.0752 11.1696 604 112.71 719.924 476.629
495 0 54.0487 10.5645 571 115.039 720.046 476.494
496 0 57.1531 10.8306 619 113.997 720.032 475.145
497 0 57.2017 10.8913 623 115.629 720.726 472.722
498 0 61.1509 10.8747 665 114.802 720.238 473.529
499 0 62.0822 10.8244 672 115.929 720.086 471.826
500 0 66.1792 11.9826 793 116.641 720.178 470.392
501 0 69.0773 11.4654 792 120.443 718.654 470.859
502 0 71.0985 11.3364 806 123.445 718.561 469.313
503 0 74.1284 11.8443 878 122.527 718.774 469.374
504 0 78.2205 13.0528 1021 120.484 718.637 466.953
505 0 79.1765 11.5943 918 126.215 718.887 466.108
506 0 83.2366 11.6055 966 128.405 718.915 464.387
507 1 46.3497 11.78 546 122 720 480.35
508 0 46.1173 9.67098 446 116.767 718.839 477.883
509 0 48.0498 12.0708 580 117 721.222 482.367
510 0 50.078 12.1211 607 119.395 721.59 480.031
511 0 52.1061 13.3574 696 115.848 721.197 478.822
512 0 53.1018 13.5212 718 116.826 721.061 477.198
513 0 54.1307 11.8048 639 121.376 720.734 478.49
514 0 55.0799 11.1474 614 123.829 720.827 478.684
515 0 57.0539 12.2691 700 122.273 720.447 476.244
516 0 58.1546 11.349 660 125.688 720.02 476.821
517 0 63.0845 12.4912 788 121.025 720.463 474.223
518 0 63.1449 11.7191 740 123.009 719.996 474.143
519 0 63.181 12.6146 797 122.607 719.743 472.72
520 0 67.1974 12.4856 839 121.502 719.592 472.675
521 0 69.1832 11.26 779 124.119 719.571 471.81
522 0 72.0822 12.2638 884 119.713 719.515 469.13
523 0 74.0753 12.7843 947 119.524 719.512 466.32
524 0 76.0992 13.351 1016 118.185 719.968 465.125
525 0 79.182 11.543 914 122.182 720.672 466.248
526 0 84.1009 12.6871 1067 119.874 719.885 463.78
527 0 85.1436 12.0972 1030 123.477 719.94 462.121
528 0 87.0593 11.8195 1029 128.119 719.846 460.373
529 0 92.1228 12.2879 1132 127.875 719.553 457.837
530 0 95.0993 11.63 1106 130.725 720.148 457.006
531 1 49.0407 10.4199 511 123.953 719.82 480.542
532 0 50.0619 11.4458 573 123.3 719.932 477.948
533 0 53.0548 11.7237 622 124.24 719.794 478.458
534 0 53.0356 11.7845 625 125.752 718.538 478.986
535 0 55.0515 12.9515 713 121.292 719.118 477.842
536 0 57.0655 12.3367 704 123 718.449 477.077
537 0 59.1214 12.5335 741 122.43 718.858 475.825
538 0 62.063 13.7924 856 118.072 718.595 474.242
539 0 61.0502 11.4168 697 127.23 717.95 473.382
540 0 65.0818 13.2756 864 122.682 717.522 473.303
541 0 67.0707 12.0917 811 124.938 717.567 471.943
542 0 70.0211 13.4388 941 123.443 717.049 472.069
543 0 72.039 13.2845 957 122.301 717.468 468.87
544 0 75.0314 13.6076 1021 122.065 717.522 467.904
545 0 74.1986 12.3722 918 128.73 717.785 467.131
546 0 80.0776 13.9615 1118 122.154 718.195 466.381
547 0 82.0513 12.6141 1035 132.094 717.652 463.26
548 0 84.1125 13.3987 1127 128.943 717.672 464.626
549 0 87.0752 12.8395 1118 131.519 717.532 461.682
550 0 89.0527 13.3741 1191 127.263 718.706 459.066
551 0 94.1183 13.7274 1292 124.238 718.593 460.508
552 0 96.0975 13.8609 1332 124.059 718.806 458.08
553 1 50.0374 10.9118 546 125.027 718.288 483.031
554 0 50.035 10.8324 542 127.867 718.02 479.017
555 0 53.0415 12.8202 680 119.6 717.903 476.337
556 0 55.0668 13.4019 738 121.946 718.1 476.879
557 0 56.0413 12.348 692 118.858 720.483 477.89
558 0 56.0488 11.8468 664 119.139 720.636 477.803
559 0 58.0796 13.1027 761 114.238 720.97 478.088
560 0 61.0921 12.162 743 117.287 720.763 475.102
561 0 63.0898 11.6818 737 117.626 720.307 474.977
562 0 63.123 12.3251 778 116.693 720.269 473.171
563 0 67.1098 12.7254 854 114.945 720.265 472.351
564 0 67.0842 12.2235 820 117.32 720.211 471.174
565 0 67.0764 11.2409 754 121.991 720.801 471.195
566 0 71.1151 12.079 859 119.639 720.386 470.943
567 0 74.1054 12.7386 944 117.904 720.106 469.354
568 0 76.1171 11.7057 891 119.396 720.967 468.398
569 0 80.0754 11.8264 947 119.153 720.359 466.541
570 0 78.1337 11.0708 865 121.888 720.096 465.312
571 0 82.0498 11.3833 934 121.548 720.443 464.912
572 0 86.0357 11.9369 1027 118.801 720.566 463.496
573 1 46.029 10.9279 503 117.467 720.734 483.364
574 0 48.0324 10.5554 507 121.347 720.245 481.197
575 0 50.0523 12.8066 641 114.036 721.022 481.451
576 0 47.1404 10.9884 518 118.293 718.809 481.932
577 0 50.1507 11.5651 580 116.345 718.562 479.874
578 0 53.116 12.8963 685 111.936 719.454 481.187
579 0 50.1842 11.2585 565 119.864 718.972 479.204
580 0 52.0688 10.3709 540 120.467 719.326 477.791
581 0 54.0858 12.0364 651 116.657 719.235 475.722
582 0 60.1061 13.0602 785 111.78 718.803 476.395
583 0 60.1193 12.4752 750 112.403 718.837 475.967
584 0 60.1293 12.074 726 113.975 719.769 477.65
585 0 63.0625 11.0525 697 117.64 718.977 475.458
586 0 66.0942 12.6184 834 115.345 718.358 473.408
587 0 68.0964 12.1592 828 117.914 719.176 472.426
588 0 69.135 12.5841 870 119.201 718.951 472.636
589 0 70.133 11.0647 776 122.347 718.914 470.491
590 0 75.1125 11.4229 858 119.76 719.154 470.704
591 0 77.1265 11.6043 895 120.33 719.202 466.977
592 0 79.2025 12.0198 952 119.06 719.57 465.404
593 0 84.202 12.5056 1053 119.535 719.626 464.898
594 0 87.1874 12.5477 1094 118.133 719.807 462.954
595 1 45.1407 11.0986 501 121.615 719.335 482.012
596 0 48.1538 11.1518 537 121.026 720.413 481.38
597 0 48.0418 11.8022 567 114.224 721.24 479.938
598 0 50.1251 10.773 540 114.491 721.163 480.107
599 0 53.0446 12.2539 650 109.7 721.312 479.509
600 0 53.1331 10.5207 559 113.864 721.256 477.689
601 0 55.1004 11.6515 642 111.539 720.941 476.78
602 0 55.2099 10.7046 591 114.482 720.35 475.572
603 0 59.0962 12.6066 745 108.972 720.219 473.513
604 0 62.1341 12.9559 805 106.713 720.519 472.825
605 0 64.1912 10.9828 705 111.237 720.658 473.4
606 0 65.0767 11.3866 741 112.46 720.924 471.536
607 0 67.1382 10.4114 699 112.848 720.459 471.057
608 0 70.1529 11.4607 804 110.887 719.939 469.878
609 0 74.1357 11.8297 877 111.202 720.413 467.388
610 0 78.0852 12.1662 950 110.833 720.368 468.103
611 0 83.192 12.8258 1067 108.493 719.519 465.478
612 0 84.1975 13.0408 1098 108.897 719.771 462.518
613 0 85.1688 11.0486 941 113.965 719.853 463.479
614 0 90.2074 12.2495 1105 110.857 719.804 461.54
615 0 91.1835 11.7784 1074 112.746 719.466 458.833
616 0 97.1835 12.7697 1241 116.838 719.152 458.729
617 1 55.0656 11.9131 656 111.819 720.663 479.822
618 0 56.2592 11.998 675 111.63 718.247 475.006
619 0 58.0955 12.5483 729 109.219 718.134 477.7
620 0 60.162 13.3141 801 110.202 718.434 475.008
621 0 62.1351 13.8247 859 108.332 718.279 474.682
622 0 62.2107 11.0431 687 116.31 717.686 473.811
623 0 66.1413 12.05 797 113.454 717.75 472.161
624 0 68.2126 12.0799 824 112.888 717.582 471.65
625 0 69.2054 12.0655 835 113.068 718.048 469.461
626 0 73.1859 11.7099 857 113.98 717.375 468.769
627 0 75.1837 11.8111 888 114.02 717.815 467.756
628 0 78.1726 11.513 900 115.772 717.762 465.871
629 0 79.1184 10.8571 859 117.426 717.851 464.938
630 0 84.334 11.6797 985 115.685 717.955 464.668
631 1 46.0312 11.4922 529 110.074 718.49 484.936
632 0 48.0448 10.2612 493 112.716 720.448 482.243
633 0 48.1067 10.3936 500 115.644 718.406 481.118
634 0 51.0229 11.3087 577 112.444 717.1 481.078
635 0 51.0849 11.0404 564 113.908 718.782 481.754
636 0 54.0578 11.2287 607 114.18 719.196 480.138
637 0 54.2067 11.0503 599 115.172 719.504 480.115
638 0 56.126 10.2626 576 117.934 718.851 477.634
639 0 58.1451 11.6261 676 113.641 719.206 478.941
640 0 60.0786 12.0675 725 113.643 719.564 477.337
641 0 61.0679 11.7247 716 115.073 717.679 475.499
642 0 65.0744 12.6624 824 111.194 717.676 475.984
643 0 63.0423 10.7071 675 118.596 716.926 474.736
644 0 68.0311 11.5535 786 115.548 717.517 474.204
645 0 68.1106 11.5107 784 117.565 717.504 472.055
646 0 73.0411 11.6784 853 116.002 716.991 471.56
647 0 75.0937 12.4112 932 115.033 717.224 469.851
648 0 78.1405 11.876 928 115.128 717.353 469.083
649 1 41.0124 11.3868 467 111.441 717.223 485.552
650 0 40.0757 9.4571 379 117.433 717.119 485.617
651 0 45.0471 11.0551 498 110.12 717.285 485.912
652 0 44.0968 11.1346 491 113.063 717.34 483.279
653 0 45.08 11.0249 497 108.922 717.608 482.39
654 0 48.051 13.0486 627 103.66 717.943 483.801
655 0 50.0705 11.4439 573 107.529 718.286 482.688
656 0 51.0636 12.0046 613 106.228 718.365 482.254
657 0 51.1104 12.7371 651 107.02 718.295 480.687
658 0 54.0771 13 703 106.071 718.398 480.31
659 0 56.1081 13.0462 732 107.04 717.611 479.156
660 0 57.1519 11.8806 679 109.406 717.679 479.119
661 0 60.1373 11.8895 715 109.255 717.852 477.841
662 0 62.1216 12.8297 797 106.937 717.424 475.774
663 0 61.0258 11.9949 732 111.87 717.892 476.313
664 0 65.1104 10.367 675 112.479 717.562 477.333
665 0 66.1415 11.4452 757 109.144 717.499 476.374
666 0 68.138 11.9904 817 108.278 717.796 475.039
667 0 69.1594 11.7988 816 110.582 717.634 471.548
668 0 72.1066 12.3983 894 109.235 717.71 471.084
669 0 76.1577 12.9337 985 107.047 718.036 471.186
670 0 78.2634 12.9179 1011 108.227 718.316 469.627
671 0 79.1941 12.4378 985 111.977 718.592 466.094
672 0 83.271 13.0057 1083 112.101 718.603 467.368
673 0 84.2676 12.306 1037 115.823 719.298 462.624
674 0 88.3925 12.2522 1083 117.241 719.545 460.419
675 0 94.4299 12.6443 1194 114.871 720.199 459.583
676 0 97.3682 13.4746 1312 113.662 719.793 458.726
677 1 49.2033 11.4017 561 115.708 720.153 479.922
678 0 53.1934 11.242 598 113.676 720.637 481.321
679 0 53.1188 10.8436 576 115.05 719.944 479.696
680 0 56.0472 12.8106 718 110.861 719.685 480.039
681 0 55.0476 11.5173 634 114.735 717.774 479.762
682 0 57.0958 12.9081 737 112.111 717.274 478.851
683 0 58.0967 11.5325 670 116.285 717.797 477.87
684 0 64.0602 12.5195 802 112.016 718.098 477.009
685 0 65.1157 13.883 904 109.251 717.866 474.532
686 0 68.0935 13.1584 896 111.606 717.73 473.938
687 0 69.2339 13.7505 952 110.674 718.313 472.841
688 0 69.0982 12.3592 854 114.687 717.876 472.795
689 0 73.1314 13.5099 988 111.131 717.814 470.924
690 0 76.1554 12.8553 979 112.632 717.896 471.268
691 0 78.1246 12.6465 988 113.099 717.862 469.795
692 0 80.1005 13.8701 1111 111.141 718.092 466.779
693 0 83.0968 12.7321 1058 112.724 717.638 464.866
694 0 87.1231 13.4867 1175 110.307 717.538 466.57
695 0 88.1001 12.6107 1111 112.728 717.687 464.681
696 0 91.175 13.2492 1208 111.555 717.247 462.211
697 0 92.1273 12.3959 1142 114.145 718.74 463.099
698 0 97.1476 11.92 1158 114.878 718.44 460.069
699 0 100.083 13.6787 1369 110.744 718.524 458.751
700 0 103.136 14.1367 1458 115.262 718.877 459.263
701 1 53.0425 11.8584 629 117.588 719.358 479.693
702 0 55.103 11.7054 645 118.025 719.389 479.554
703 0 56.0452 12.5434 703 116.496 719.669 476.265
704 0 59.0903 13.7586 813 110.119 719.894 474.941
705 0 60.0544 13.0881 786 111.5 719.774 474.321
706 0 63.0858 13.0774 825 109.847 719.56 476.01
707 0 64.0342 11.7437 752 114.456 719.314 473.158
708 0 69.0627 14.0018 967 108.467 719.175 472.747
709 0 70.1082 12.7375 893 112.239 719.263 470.748
710 0 71.1044 13.3044 946 111.165 719.696 471.662
711 0 75.1714 13.6754 1028 110.236 719.254 467.717
712 0 78.0768 12.9872 1014 112.667 719.289 467.051
713 0 83.13 14.4232 1199 108.388 719.248 467.136
714 0 84.0837 14.7115 1237 109.575 720.301 463.974
715 0 86.1174 13.9461 1201 112.202 719.331 463.425
716 0 87.0698 12.668 1103 117.654 719.708 459.729
717 0 92.0392 13.3747 1231 115.241 720.849 459.197
718 0 95.1351 14.6213 1391 112.869 720.171 456.843
719 0 97.176 12.7706 1241 117.776 720.35 456.72
720 0 99.1242 12.1766 1207 120.038 720.307 453.872
721 1 51.0892 10.2957 526 118.386 720.797 477.352
722 0 53.0544 10.8379 575 113.463 720.657 475.783
723 0 53.0187 9.48722 503 111.364 718.435 472.767
724 0 55.0651 10.6783 588 106.156 718.726 474.214
725 0 55.0763 10.9121 601 105.867 718.163 471.797
726 0 58.1022 9.87914 574 106.118 718.286 472.024
727 0 61.0598 11.3004 690 103.045 718.713 470.928
728 0 62.1334 11.4592 712 103.138 718.848 468.76
729 0 63.0655 10.2592 647 107.09 718.158 466.508
730 0 67.0608 11.3926 764 103.226 718.755 466.281
731 0 68.1093 11.6284 792 103.89 718.566 463.986
732 0 68.0814 10.1055 688 106.86 718.552 462.539
733 0 71.107 10.6459 757 106.125 718.989 462.004
734 0 75.1087 11.1039 834 104.928 718.796 460.908
735 0 78.059 12.26 957 103.317 718.716 460.34
736 0 81.0854 11.8394 960 104.454 718.555 458.442
737 0 79.1279 10.6284 841 108.278 719.321 455.296
738 0 85.1358 11.1704 951 106.648 718.794 457.404
739 0 86.0954 11.6383 1002 106.438 718.464 455.96
740 0 88.1582 9.98205 880 112.223 718.157 451.976
741 0 94.0882 11.6486 1096 108.412 717.451 453.926
742 0 92.1143 9.8356 906 115.049 718.245 449.377
743 0 100.151 11.5326 1155 111.392 718.382 451.055
744 0 102.165 12.5581 1283 111.097 718.878 446.489
745 0 106.165 11.4727 1218 114.787 719.124 444.158
746 0 109.229 12.4051 1355 113.199 718.979 443.3
747 1 57.0531 9.65767 551 110.71 718.564 470.024
748 0 60.0467 11.6576 700 104.276 718.77 470.176
749 0 60.0413 10.5261 632 103.676 718.242 468.071
750 0 63.0592 11.8777 749 100.509 717.825 468.362
751 0 66.0556 11.2027 740 102.164 718.692 467.434
752 0 67.1561 10.9446 735 103.473 718.797 466.397
753 0 69.0572 11.0343 762 103.95 719.112 462.949
754 0 70.1492 11.7464 824 104.025 719.069 462.846
755 0 73.0631 11.8391 865 103.383 718.711 462.942
756 0 77.0326 11.203 863 105.527 719.117 460.696
757 0 76.132 9.47039 721 111.574 719.818 457.395
758 0 81.0869 11.0992 900 108.417 719.169 454.682
759 0 85.1509 12.5072 1065 104.957 718.976 455.406
760 0 87.1659 12.1837 1062 106.579 718.905 454.83
761 0 91.0959 12.3496 1125 106.209 718.848 453.158
762 0 93.1897 12.1795 1135 108.656 718.708 451.878
763 0 98.1271 11.7399 1152 109.15 718.938 451.372
764 0 101.137 10.8071 1093 112.871 719.274 445.835
765 1 51.0586 7.95164 406 110.451 718.473 474.044
766 0 53.0618 10.026 532 104.363 718.462 473.291
767 0 55.0541 10.4261 574 102.699 718.094 472.754
768 0 58.045 10.4919 609 103.476 718.59 468.746
769 0 59.0688 10.4962 620 102.774 718.153 470.471
770 0 60.0677 10.2385 615 103.618 718.553 467.603
771 0 62.0622 10.5539 655 104.035 718.292 468.427
772 0 67.0568 12.5565 842 98.9822 718.299 467.831
773 0 69.0461 12.4844 862 98.8434 718.208 467.02
774 0 68.1306 10.3331 704 105.226 719.75 468.254
775 0 70.0439 10.5934 742 105.65 719.388 465.756
776 0 71.0727 9.033 642 109.338 719.71 462.676
777 0 77.1263 10.1392 782 105.384 720.434 463.496
778 0 79.1416 11.1193 880 104.158 720.005 463.389
779 0 81.0554 11.2762 914 105.481 719.966 462.364
780 0 86.0929 10.5351 907 106.633 719.667 460.962
781 0 89.1233 12.0619 1075 104.974 719.548 458.244
782 0 91.1018 11.9976 1093 106.881 718.922 455.522
783 0 95.0808 12.0424 1145 106.078 719.461 456.891
784 1 48.1471 8.74403 421 103.568 720.021 477.848
785 0 51.0834 10.7863 551 105.381 717.975 475.347
786 0 50.148 9.57166 480 103.873 719.079 478.06
787 0 53.1735 9.10228 484 105.048 719.614 476.952
788 0 55.1224 11.284 622 101.006 719.341 476.568
789 0 56.1343 10.8312 608 102.88 718.576 476.697
790 0 57.0941 11.3672 649 102.778 719.958 475.137
791 0 57.0748 9.61895 549 107.617 719.321 473.53
792 0 60.0727 10.4374 627 104.451 720.092 474.876
793 0 64.1429 9.55679 613 106.367 719.348 471.556
794 0 64.0824 11.454 734 103.967 719.339 469.226
795 0 67.0761 10.9428 734 105.789 719.655 469.474
796 0 71.1907 10.6475 758 104.809 719.257 469.497
797 0 72.0461 11.0346 795 106.545 719.13 465.467
798 0 73.1364 11.4991 841 113.323 719.629 467.858
799 0 78.1721 12.626 987 109.277 719.772 468.553
800 0 81.1684 12.2215 992 108.156 719.138 466.625
801 0 83.1434 12.4845 1038 108.386 718.714 464.984
802 0 85.0863 11.4002 970 111.239 719.243 465.685
803 0 90.1706 13.8959 1253 105.777 719.178 461.524
804 1 46.039 10.2305 471 107.992 719.854 484.533
805 0 48.0633 11.7345 564 104.17 719.963 484.475
806 0 50.0559 10.9078 546 105.678 720.656 482.231
807 0 50.0711 11.4038 571 103.529 719.298 483.068
808 0 50.1261 11.7304 588 102.888 719.143 481.786
809 0 52.1009 12.495 651 102.799 719.737 481.727
810 0 51.1152 10.897 557 106.978 719.431 482.253
811 0 53.131 11.7634 625 106.518 719.205 478.374
812 0 55.0941 11.5257 635 106.072 719.307 479.872
813 0 57.0952 11.6823 667 105.457 719.279 479.169
814 0 57.3141 11.4283 655 107.73 718.876 476.227
815 0 62.1456 12.8408 798 104.029 719.168 475.466
816 0 63.1637 11.1931 707 108.219 719.485 476.215
817 0 66.1233 10.4804 693 109.804 718.981 476.514
818 0 67.1384 12.4668 837 107.884 719.362 472.312
819 0 69.0914 10.7828 745 113.17 719.593 471.454
820 0 72.0959 10.8189 780 113.25 719.155 472.304
821 0 75.1617 11.8145 888 111.166 718.534 469.597
822 0 78.0778 11.5526 902 112.861 718.415 467.466
823 0 80.1024 11.7974 945 112.121 718.725 467.12
824 0 84.1725 12.4744 1050 112.031 718.33 464.538
825 1 43.0433 11.7788 507 111.641 719.276 485.675
826 0 42.0666 12.3138 518 113.566 717.797 486.61
827 0 45.2605 11.7321 531 114.913 718.697 485.337
828 0 47.2563 13.9029 657 110.601 719.175 484.209
829 0 48.0468 12.1965 586 116.299 719.131 482.99
830 0 49.1258 12.7224 625 117.008 720.259 482.701
831 0 51.066 13.8056 705 113.312 719.569 481.884
832 0 51.066 13.8252 706 138.069 719.567 481.79
833 0 54.0583 13.1895 713 117.136 719.114 480.289
834 0 56.0815 13.7122 769 115.984 719.179 479.043
835 0 56.0467 13.9705 783 116.381 719.475 479.912
836 0 58.1577 13.2227 769 116.635 718.795 477.094
837 0 60.1436 12.7362 766 117.654 718.963 478.695
838 0 64.1441 13.7191 880 114.923 719.864 476.941
839 0 62.1765 13.3973 833 119.915 719.486 474.628
840 0 67.0942 14.0251 941 116.656 719.847 475.996
841 0 69.123 13.2083 913 119.647 719.62 473.499
842 0 68.2237 13.016 888 122.377 719.301 470.241
843 0 73.1599 13.1493 962 121.024 719.519 470.638
844 0 76.2491 12.9969 991 117.169 719.323 468.75
845 0 78.1498 13.295 1039 118.662 719.39 467.586
846 1 41.1204 10.0923 415 125.706 720.545 485.574
847 0 42.0518 11.0816 466 123.27 719.824 484.944
848 0 44.0143 12.8367 565 116.816 719.887 485.055
849 0 45.0614 12.8269 578 118.644 717.249 484.692
850 0 46.0243 11.8633 546 121.463 718.322 484.033
851 0 49.0738 12.9397 635 118.115 717.915 483
852 0 49.0566 12.6385 620 120.658 717.924 481.705
853 0 53.0261 13.4462 713 117.675 717.576 482.755
854 0 52.1546 13.575 708 120.049 717.992 480.719
855 0 55.0704 12.9652 714 121.032 717.605 479.004
856 0 55.0988 12.2689 676 124.72 717.655 479.771
857 0 57.0312 12.7474 727 123.939 717.257 479.38
858 0 61.0994 12.897 788 123.082 718.08 477.777
859 0 62.0439 13.7806 855 121.618 717.654 476.446
860 0 65.034 13.1777 857 123.447 717.475 475.537
861 0 66.1021 13.5699 897 123.863 717.649 473.88
862 0 69.0657 13.3641 923 125.159 718.376 473.134
863 0 72.0553 13.906 1002 123.422 717.716 471.632
864 0 73.135 13.0034 951 128.353 717.498 469.263
865 0 75.0571 13.976 1049 127.632 718.101 469.39
866 0 79.0659 14.3678 1136 125.842 717.761 466.785
867 1 42.0454 11.6541 490 130.208 717.737 486.276
868 0 43.0112 11.8109 508 129.083 717.671 485.085
869 0 44.0154 12.8137 564 125.066 717.376 484.192
870 0 46.1664 12.7365 588 127.985 718.704 483.344
871 0 47.1541 13.1484 620 127.676 718.352 483.935
872 0 46.1045 13.361 616 129.284 718.242 484.455
873 0 48.1325 13.8368 666 129.378 718.859 481.453
874 0 51.123 12.7536 652 131.854 718.152 481.364
875 0 51.1971 12.9304 662 132.582 719.103 480.314
876 0 53.1182 13.0275 692 131.254 719.244 481.124
877 0 55.0943 13.3771 737 131.043 718.992 478.255
878 0 57.1128 12.6066 720 132.125 718.736 479.518
879 0 57.1007 13.2923 759 132.71 718.841 477.403
880 0 61.1469 14.6042 893 127.704 718.728 476.689
881 0 62.0428 14.0226 870 130.494 718.234 475.341
882 0 63.0653 13.7001 864 132.365 718.289 474.479
883 0 63.0792 13.8239 872 132.187 717.732 472.338
884 0 67.1881 14.1096 948 130.843 717.69 471.696
885 0 70.0527 14.1322 990 129.651 717.664 470.108
886 0 72.1399 13.0164 939 134.792 718.178 468.444
887 0 73.1451 12.0719 883 136.023 717.966 468.665
888 0 76.2814 13.5682 1035 132.815 717.92 465.111
889 0 79.2414 13.97 1107 131.685 718.26 462.012
890 0 84.3453 14.0494 1185 130.85 718.056 461.439
891 1 38.2652 11.6294 445 131.27 718.364 483.002
892 0 38.2718 11.4445 438 131.562 718.826 481.815
893 0 40.187 12.2676 493 124.389 719.379 484.895
894 0 43.0466 12.4051 534 116.794 719.704 483.23
895 0 43.0337 11.34 488 119.885 719.66 485.254
896 0 45.0857 11.7776 531 118.633 719.802 484.851
897 0 44.0707 11.8219 521 120.232 719.392 481.397
898 0 47.0823 12.2764 578 118.119 718.919 480.844
899 0 47.0955 12.1031 570 119.189 719.475 480.358
900 0 50.0458 12.8682 644 115.53 718.879 479.284
901 0 51.0673 12.7675 652 116.14 718.709 479.163
902 0 53.0958 12.807 680 116.082 718.634 478.471
903 0 54.053 12.5062 676 116.496 719.086 478.439
904 0 59.0505 13.1752 778 114.116 718.896 477.578
905 0 60.1024 12.878 774 116.101 719.287 476.092
906 0 62.1503 12.9847 807 114.829 719.14 474.808
907 0 61.1801 11.7032 716 119.601 718.95 471.858
908 0 66.2381 12.9382 857 115.308 718.9 471.898
909 0 67.248 10.781 725 121.139 718.341 470.843
910 0 72.2597 12.2475 885 117.311 718.47 469.958
911 0 72.413 11.172 809 121.262 717.817 468.235
912 0 74.5033 11.4492 853 120.775 718.15 463.588
913 1 40.4481 11.9165 482 113.645 717.672 481.726
914 0 42.3404 10.2266 433 118.423 718.45 480.012
915 0 43.4217 10.9623 476 120.908 718.546 479.237
916 0 45.2008 10.4202 471 121.435 719.045 481.289
917 0 48.2127 11.7189 565 117.088 719.288 481.064
918 0 48.2757 11.9729 578 117.438 718.682 480.583
919 0 47.1637 10.7498 507 121.73 719.404 480.079
920 0 49.1922 12.0344 592 118.657 718.932 478.909
921 0 49.177 11.9771 589 135.929 718.912 478.764
922 0 56.0741 12.5192 702 114.746 718.718 476.976
923 0 55.2058 12.8429 709 115.633 719.048 475.671
924 0 57.1763 12.1379 694 117.001 718.787 476.366
925 0 60.1264 12.6068 758 115.736 719.14 474.749
926 0 61.1332 12.6772 775 115.988 718.959 473.489
927 0 63.2233 11.9892 758 118.958 717.862 472.013
928 0 65.2904 12.0079 784 119.074 717.726 470.709
929 0 69.4678 12.6102 876 116.854 718.565 469.205
930 0 69.3677 12.6572 878 117.995 718.034 467.723
931 0 71.3792 12.945 924 117.84 717.669 465.736
932 0 77.4227 12.5932 975 116.835 717.841 464.506
933 0 80.59 12.5822 1014 116.421 718.079 462.649
934 1 38.2865 9.08937 348 109.756 718.152 485.434
935 0 41.0709 11.4193 469 104.936 717.928 484.885
936 0 40.1149 10.2206 410 108.361 718.607 483.554
937 0 42.1328 10.9653 462 107.381 718.561 481.05
938 0 46.0499 11.7481 541 103.556 718.75 482.627
939 0 45.0931 12.2192 551 104.902 718.902 480.203
940 0 46.0744 10.9171 503 107.805 718.606 481.507
941 0 48.1075 11.6822 562 105.781 717.728 480.76
942 0 48.0726 11.8779 571 106.273 718.334 479.958
943 0 48.043 11.906 572 106.502 718.243 479.238
944 0 52.0804 11.6743 608 105.123 718.549 477.995
945 0 52.108 10.9964 573 107.745 719.117 479.131
946 0 55.0459 12.0263 662 105.669 718.929 476.53
947 0 56.0502 10.4014 583 108.504 718.592 477.257
948 0 58.1054 10.4465 607 108.862 719.028 476.227
949 0 61.1181 11.7968 721 106.236 718.951 474.395
950 0 63.05 11.816 745 105.894 718.949 474.789
951 0 64.0644 11.6445 746 108.114 718.735 472.515
952 0 66.0446 11.0683 731 110.408 718.662 472.062
953 0 69.0569 11.4978 794 109.603 718.448 471.251
954 0 71.0824 11.2405 799 111.418 719.129 468.86
955 0 75.0289 10.7292 805 113.031 719.33 467.155
956 0 77.1248 11.9287 920 112.189 718.698 465.715
957 0 79.1044 12.7679 1010 109.585 718.926 466.235
958 0 81.1584 12.3462 1002 112.532 719.598 463.857
959 1 45.0214 11.1058 500 107.1 718.89 484.214
960 0 46.0616 11.0504 509 109.593 718.018 483.403
961 0 47.1395 11.4129 538 108.342 718.888 481.623
962 0 48.0639 11.3183 544 107.976 719.088 482.625
963 0 48.0951 10.6871 514 111.158 718.926 479.957
964 0 52.0699 12.2912 640 105.128 718.838 480.639
965 0 52.0658 10.8517 565 110.248 718.968 478.988
966 0 53.0325 12.1246 643 107.641 718.703 477.322
967 0 55.1744 12.1614 671 107.803 719.449 477.468
968 0 58.1351 11.6625 678 107.258 719.372 477.705
969 0 60.1074 10.8972 655 110.682 718.985 475.191
970 0 61.1684 11.9833 733 107.583 718.772 475.1
971 0 64.079 11.6419 746 107.587 718.638 475.142
972 0 65.0541 11.9132 775 108.284 719.067 470.043
973 0 67.1707 12.0291 808 108.621 718.252 471.876
974 0 68.2268 11.5351 787 116.705 718.196 469.78
975 0 72.117 12.1192 874 114.503 718.463 469.743
976 0 74.1151 11.0504 819 115.742 717.759 469.868
977 0 75.0767 11.0687 831 116.888 719.585 466.724
978 0 79.1943 12.1221 960 116.072 719.381 464.261
979 1 40.1209 10.3437 415 109.778 719.966 481.995
980 0 41.1854 10.1735 419 109.088 720.057 482.907
981 0 43.2952 10.5554 457 109.53 720.26 480.486
982 0 42.0392 9.03918 380 114.555 720.676 482.492
983 0 45.0661 10.3847 468 112.37 720.314 481.498
984 0 46.0569 10.3567 477 112.061 720.166 482.772
985 0 48.1327 10.9073 525 110.989 719.594 480.499
986 0 46.0884 10.0242 462 114.926 720.011 480.777
987 0 48.052 10.9257 525 112.53 720.025 481.065
988 0 50.1409 11.4079 572 113.21 720.416 478.75
989 0 50.111 10.796 541 115.436 720.386 477.046
990 0 54.1305 11.4169 618 111.691 720.212 479.61
991 0 57.0583 12.9166 737 110.128 719.969 476.749
992 0 56.0426 11.402 639 115.197 719.543 476.498
993 0 58.0371 10.5967 615 116.779 720.117 477.452
994 0 60.0688 12.186 732 113.284 719.676 474.675
995 0 60.0819 11.6841 702 116.433 718.318 472.902
996 0 65.0521 12.221 795 112.716 718.008 473.449
997 0 68.0982 12.2911 837 112.717 718.222 472.903
998 0 70.106 12.096 848 114.392 718.578 470.836
999 0 72.0583 12.1568 876 115.482 718.289 470.22
1000 0 75.1405 12.4567 936 114.591 719.13 470.02
1001 0 76.1334 12.3861 943 116.559 718.187 466.924
1002 0 80.1155 12.3322 988 116.34 718.374 466.987
1003 1 41.0225 10.8964 447 117.013 718.875 484.237
1004 0 43.0151 10.5312 453 118.448 718.744 483.448
1005 0 45.0497 11.4762 517 116.847 717.749 479.791
1006 0 47.0942 11.9123 561 116.248 718.294 477.77
1007 0 49.1295 13.1082 644 113.374 718.155 478.63
1008 0 49.1192 11.9709 588 121.859 717.862 479.876
1009 0 50.0396 12.2903 615 122.709 717.824 479.294
1010 0 54.0665 13.5019 730 117.936 718.16 478.637
1011 0 55.1362 12.8953 711 121.454 717.748 475.726
1012 0 56.169 13.584 763 120.1 717.832 477.324
1013 0 58.132 13.2285 769 121.717 718.134 474.623
1014 0 59.0911 12.8784 761 122.883 718.01 475.783
1015 0 62.0669 13.0182 808 123.738 717.981 474.239
1016 0 65.1653 14.0259 914 119.281 718.013 473.458
1017 0 66.0817 13.2715 877 123.455 718.123 471.008
1018 0 69.0728 14.3472 991 120.362 718.141 471.319
1019 0 70.1506 13.4283 942 123.766 717.555 470.901
1020 0 70.1778 13.765 966 125.219 718.612 467.898
1021 0 74.1224 14.0848 1044 123.951 718.196 467.481
1022 0 78.0831 15.3939 1202 119.86 718.041 466.41
1023 0 79.1022 15.1323 1197 122.003 718.81 465.015
1024 0 83.0859 14.3947 1196 124.169 718.625 465.058
1025 0 83.1505 14.2753 1187 125.845 718.549 463.3
1026 0 86.0568 14.4904 1247 126.109 718.55 460.485
1027 0 90.1045 14.3944 1297 124.754 719.24 460.212
1028 0 92.149 14.6285 1348 125.675 719.004 457.059
1029 0 96.1194 14.7733 1420 124.37 719.318 458.323
1030 0 97.1162 13.7876 1339 129.432 719.308 457.31
1031 0 102.161 15.1134 1544 125.984 719.279 455.97
1032 1 50.2636 10.8826 547 134.342 720.132 477.079
1033 0 54.1422 12.9659 702 122.721 718.088 476.709
1034 0 55.1414 11.5703 638 122.143 720.431 475.718
1035 0 57.231 12.5457 718 119.969 720.318 476.021
1036 0 59.122 12.6856 750 120.155 719.472 473.663
1037 0 61.1069 12.2081 746 121.543 720.083 471.954
1038 0 62.1591 12.9346 804 119.746 720.073 470.506
1039 0 64.1371 11.6625 748 123.765 720.515 469.037
1040 0 67.2012 12.5295 842 121.059 720.031 468.219
1041 0 69.13 12.2523 847 121.145 720.679 468.479
1042 0 71.1772 12.3916 882 122.17 720.13 466.855
1043 0 71.1879 12.3055 876 123.803 719.715 463.68
1044 0 76.15 12.9087 983 121.263 720.256 462.861
1045 0 77.1819 11.9976 926 123.707 720.079 461.767
1046 0 80.1515 12.152 974 123.419 719.733 460.479
1047 0 83.1689 13.4666 1120 119.344 719.865 460.366
1048 0 84.1598 11.6208 978 125.444 719.622 457.541
1049 0 88.2284 11.6856 1031 123.343 719.114 458.419
1050 0 90.0186 12.9196 1163 119.193 718.332 458.401
1051 0 91.0885 11.7798 1073 122.323 718.33 458.02
1052 0 97.1102 11.8731 1153 120.741 717.958 455.868
1053 0 98.1917 10.9683 1077 122.659 717.954 454.358
1054 0 103.181 12.512 1291 117.939 718.888 452.284
1055 1 55.0772 9.80442 540 116.172 717.663 475.85
1056 0 57.023 10.943 624 114.364 717.63 473.949
1057 0 56.0317 10.2621 575 117.122 717.748 473.129
1058 0 60.1281 10.5109 632 112.103 717.579 473.609
1059 0 62.0752 11.0511 686 112.115 717.455 471.071
1060 0 64.1128 10.8247 694 111.614 717.114 470.171
1061 0 67.0872 11.9844 804 109.536 717.118 468.455
1062 0 70.0506 11.8914 833 108.641 717.019 467.905
1063 0 72.1078 10.1653 733 112.782 717.37 467.191
1064 0 73.0793 11.3575 830 110.047 717.892 466.752
1065 0 77.0955 11.1291 858 110.425 717.526 464.846
1066 0 77.0842 11.0139 849 112.021 717.697 463.13
1067 0 80.122 10.8335 868 111.706 717.914 464.372
1068 0 83.0769 11.7361 975 109.877 717.8 464.809
1069 0 83.2217 9.4807 789 116.015 717.664 459.359
1070 0 89.1698 11.4501 1021 109.41 718.018 461.179
1071 1 47.0625 10.9642 516 108.209 717.872 481.864
1072 0 47.1249 8.89126 419 108.41 718.074 482.745
1073 0 47.0576 10.6678 502 104.458 718.572 480.52
1074 0 49.0272 10.3616 508 105.063 720.465 478.295
1075 0 51.0311 10.5818 540 104.511 719.754 477.789
1076 0 53.0867 11.9239 633 102.197 720.431 478.763
1077 0 54.0543 12.3024 665 100.836 720.447 478.462
1078 0 56.0706 12.6804 711 99.8931 720.16 478.253
1079 0 57.0346 10.7654 614 105.049 720.049 476.578
1080 0 59.0735 11.291 667 103.549 719.885 476.34
1081 0 62.1045 11.4968 714 103.206 719.885 473.406
1082 0 64.0629 12.8155 821 100.448 720.449 471.551
1083 0 66.0975 12.1033 800 103.81 719.936 471.79
1084 0 67.1207 13.1256 881 102.556 719.905 471.817
1085 0 69.1614 12.2467 847 104.604 720.008 470.078
1086 0 71.1931 13.0771 931 104.256 719.428 469.776
1087 0 74.1077 13.2915 985 104.536 719.005 467.879
1088 0 76.2466 12.3809 944 107.221 719.321 466.481
1089 0 79.0542 13.1682 1041 106.232 719.223 466.245
1090 0 83.0516 13.6662 1135 105.085 718.967 463.822
1091 0 85.1785 13.4306 1144 106.427 718.786 463.934
1092 0 87.1264 12.6368 1101 109.678 718.916 459.15
1093 0 89.1076 11.705 1043 112.124 718.624 458.975
1094 0 91.0994 12.5687 1145 111.718 718.975 460.159
1095 1 48.0373 12.6568 608 108.166 717.388 480.355
1096 0 47.1033 11.5915 546 112.064 717.762 480.683
1097 0 49.0792 11.8788 583 111.597 717.914 478.751
1098 0 50.1289 11.4305 573 113.154 717.37 478.874
1099 0 51.0641 11.7695 601 112.439 717.571 479.087
1100 0 54.0379 13.9717 755 107.405 717.805 477.652
1101 0 56.0174 13.8171 774 107.311 718.267 477.469
1102 0 57.061 13.0913 747 109.914 717.88 477.044
1103 0 61.1357 12.4804 763 110.111 717.637 474.176
1104 0 62.0984 12.7378 791 111.858 717.884 474.158
1105 0 64.1841 13.6171 874 109.269 717.897 473.827
1106 0 62.1106 12.9286 803 114.149 717.375 471.735
1107 0 66.0925 13.239 875 112.131 717.89 469.961
1108 0 69.1097 12.1691 841 114.786 717.675 469.341
1109 0 72.075 12.487 900 113.402 717.907 466.257
1110 0 72.1384 12.9751 936 114.033 717.203 467.528
1111 0 75.1323 12.9638 974 113.816 717.908 465.872
1112 0 78.0716 12.5013 976 115.159 717.589 465.694
1113 0 80.1242 12.1436 973 112.38 717.714 462.009
1114 0 84.1178 12.007 1010 113.301 718.055 460.135
1115 0 87.0934 13.9735 1217 108.617 718.152 458.973
1116 1 44.0437 9.80843 432 113.403 717.859 481.812
1117 0 43.0463 9.96601 429 111.387 719.047 479.914
1118 0 48.0576 10.9868 528 106.864 718.392 478.098
1119 0 48.0757 12.3763 595 104.82 718.694 477.817
1120 0 51.0712 13.3147 680 110.001 719.954 480.851
1121 0 52.0425 12.6435 658 111.956 720.277 480.591
1122 0 53.0588 13.5133 717 110.059 720.344 478.93
1123 0 53.013 12.5064 663 114.935 719.808 479.021
1124 0 55.0697 12.3298 679 115.368 719.794 478.331
1125 0 58.1065 13.458 782 112.668 720.162 477.48
1126 0 61.0882 13.9634 853 112.039 719.919 475.424
1127 0 62.0526 12.6989 788 116.027 719.317 475.162
1128 0 64.1085 13.7579 882 114.55 719.359 474.446
1129 0 66.1613 13.8298 915 115.836 719.079 473.377
1130 0 68.1365 13.4436 916 118.305 718.908 471.986
1131 0 71.0586 14.2558 1013 115.508 719.349 473.596
1132 0 72.0897 13.5387 976 120.121 719.078 470.261
1133 0 75.0566 14.4025 1081 117.438 719.016 468.285
1134 0 79.0736 13.5949 1075 118.513 718.741 469.207
1135 1 42.0897 11.9982 505 124.238 718.586 485.323
1136 0 44.0315 11.946 526 122.861 718.35 486.082
1137 0 43.0253 12.2254 526 125.095 718.437 483.078
1138 0 44.0393 12.012 529 120.682 719.068 484.034
1139 0 44.0842 11.5914 511 121.841 719.391 484.141
1140 0 47.0769 12.0016 565 119.729 719.612 484.365
1141 0 48.102 12.6606 609 119.228 719.824 482.634
1142 0 48.0833 11.9376 574 121.841 719.95 480.929
1143 0 50.0712 12.1827 610 121.238 719.577 481.584
1144 0 52.1904 12.4161 648 119.852 719.11 481.56
1145 0 53.0616 12.8341 681 120.698 720.004 479.254
1146 0 56.0522 13.8442 776 117.111 719.534 479.04
1147 0 57.0741 12.8955 736 120.576 717.973 478.05
1148 0 56.0842 13.0161 730 123.207 718.553 475.664
1149 0 59.0945 13.7407 812 121.352 717.623 474.654
1150 0 62.1074 13.1385 816 121.794 717.853 475.592
1151 0 63.0449 11.9597 754 125.554 718.306 474.53
1152 0 66.0588 12.398 819 124.286 716.948 474.665
1153 0 68.1638 13.6729 932 122.924 717.281 469.752
1154 0 69.0734 12.9572 895 125.18 717.041 470.76
1155 0 73.0902 13.8596 1013 123.382 716.592 468.673
1156 0 74.0889 13.1599 975 125.759 716.637 467.86
1157 0 76.1594 12.9859 989 128.113 717.25 464.562
1158 0 80.1081 13.4318 1076 125.138 716.856 466.648
1159 0 81.1476 13.3584 1084 127.711 717.903 463.97
1160 0 86.0704 15.0574 1296 123.996 718.56 464.069
1161 0 88.0558 13.9343 1227 128.908 718.744 462.937
1162 1 49.0433 12.907 633 128.22 719.041 480.899
1163 0 48.1146 11.3895 548 121.814 718.812 476.657
1164 0 51.0395 12.1279 619 119.036 718.229 477.336
1165 0 51.0703 11.5331 589 119.854 718.772 475.372
1166 0 54.0301 11.7897 637 117.992 718.472 475.261
1167 0 56.0402 11.0278 618 119.066 717.555 474.468
1168 0 58.0441 12.3871 719 116.711 717.914 472.565
1169 0 60.0591 11.0891 666 120.338 717.847 471.758
1170 0 62.0253 11.9145 739 118.809 717.614 471.873
1171 0 63.0438 11.5317 727 119.635 717.165 470.433
1172 0 64.0337 11.1191 712 121.489 717.764 467.468
1173 0 68.099 12.0266 819 119.449 717.689 466.817
1174 0 71.0439 11.5844 823 120.213 717.912 466.735
1175 0 72.0419 11.6738 841 121.126 718.168 463.566
1176 0 75.1204 11.8343 889 121.373 718.344 463.366
1177 0 76.093 11.7882 897 123.644 718.671 464.742
1178 0 80.0743 13.5749 1087 125.412 719.041 465.042
1179 0 81.1378 12.5835 1021 129.266 718.157 465.355
1180 0 85.0928 12.6685 1078 129.574 718.015 461.743
1181 0 88.2064 12.7202 1122 130.097 718.478 459.52
1182 0 91.1604 13.2733 1210 128.203 718.47 458.454
1183 1 50.0929 11.319 567 128.637 718.316 478.868
1184 0 51.0737 10.71 547 131.073 718.631 478.942
1185 0 52.1706 12.1908 636 128.288 719.033 478.354
1186 0 54.0337 11.5113 622 128.424 718.83 478.884
1187 0 56.0301 12.3148 690 128.746 718.897 476.472
1188 0 58.072 12.2262 710 127.273 718.196 475.752
1189 0 61.0267 12.7649 779 125.929 718.015 473.089
1190 0 64.1064 12.4948 801 123.969 718.906 471.757
1191 0 67.0429 13.5585 909 122.275 718.844 471.449
1192 0 69.0747 14.3033 988 120.338 719.113 470.379
1193 0 72.0964 12.4278 896 125.243 718.522 469.85
1194 0 73.0563 13.4006 979 123.94 718.638 468.449
1195 0 76.1009 12.7068 967 127.064 719.225 466.47
1196 0 78.1735 13.5084 1056 126.769 719.484 465.616
1197 0 81.0828 13.3444 1082 129.184 719.213 463.891
1198 0 84.137 14.1436 1190 127.071 719.444 463.169
1199 0 86.0796 13.5805 1169 128.934 720.097 461.133
1200 0 89.0894 12.7512 1136 131.35 719.723 461.43
1201 0 91.0984 12.964 1181 131.854 719.569 457.195
1202 0 95.1486 13.2214 1258 129.919 719.547 457.131
1203 0 96.0632 12.8561 1235 131.6 719.443 455.062
1204 0 100.149 12.9707 1299 126.313 718.968 452.87
1205 1 54.082 11.5935 627 125.391 719.6 474.644
1206 0 54.1078 10.8302 586 127.246 719.309 472.123
1207 0 54.0529 10.4157 563 121.297 718.096 472.707
1208 0 57.0539 9.25441 528 123.432 718.093 471.716
1209 0 59.1003 11.7428 694 117.255 718.131 469.849
1210 0 61.1213 11.289 690 118.684 718.014 469.645
1211 0 62.1923 10.8856 677 120.115 717.778 468.343
1212 0 64.1576 11.4717 736 118.857 717.51 466.465
1213 0 66.1701 11.002 728 120.576 718.066 465.771
1214 0 67.0641 10.9746 736 121.253 717.554 464.402
1215 0 73.1164 11.5432 844 118.219 717.717 463.066
1216 0 74.1436 12.4623 924 115.46 717.513 463.081
1217 0 75.1064 12.0496 905 118.042 717.908 459.371
1218 0 78.0752 11.6426 909 119.099 717.347 460.119
1219 0 82.0805 12.3415 1013 117.059 717.704 459.103
1220 0 83.263 12.3104 1025 118.121 717.731 459.155
1221 0 88.1436 12.1052 1067 117.697 717.685 456.739
1222 0 91.1701 12.3725 1128 116.446 717.778 454.509
1223 0 92.0385 11.7234 1079 119.689 718.045 451.663
1224 0 95.0803 12.8102 1218 117.012 717.712 449.644
1225 0 100.085 13.3987 1341 115.461 717.51 449.456
1226 0 101.109 10.9189 1104 120.636 718.39 447.704
1227 1 56.1254 10.7794 605 109.864 718.144 473.772
1228 0 57.1004 10.5954 605 114.101 717.901 470.693
1229 0 60.1379 11.5568 695 105.958 718.668 472.378
1230 0 61.0909 11.3438 693 114.502 719.294 473.312
1231 0 65.0742 11.6021 755 112.861 718.992 471.97
1232 0 68.1612 12.1623 829 110.935 718.878 471.185
1233 0 69.1368 12.3379 853 111.273 719.018 469.705
1234 0 73.1326 12.3474 903 110.496 718.969 467.831
1235 0 72.1289 12.1311 875 112.837 719.12 466.717
1236 0 77.1661 11.2744 870 113.441 718.9 467.055
1237 0 76.212 10.7857 822 115.993 718.846 465.269
1238 0 83.1071 12.7546 1060 111.957 718.661 463.275
1239 0 86.1205 12.1225 1044 113.2 718.969 462.976
1240 0 87.144 11.4294 996 115.567 718.391 461.552
1241 0 91.2148 11.4565 1045 115.609 718.159 459.63
1242 0 95.2575 12.1565 1158 115.344 718.531 458.611
1243 0 97.1962 12.2433 1190 116.14 718.84 457.482
1244 0 101.159 11.6747 1181 118.145 717.82 454.439
1245 0 103.116 12.4132 1280 116.47 718.667 451.5
1246 0 103.106 11.5804 1194 119.5 718.462 451.273
1247 1 57.064 13.1081 748 114.905 719.683 473.717
1248 0 58.2607 12.1351 707 120.167 718.386 477.195
1249 0 59.2202 13.7115 812 117.502 718.628 476.642
1250 0 60.2461 12.6481 762 121.735 718.28 473.799
1251 0 61.2224 13.0018 796 121.701 717.219 473.486
1252 0 63.2291 11.9723 757 125.042 717.122 473.843
1253 0 68.2683 12.2019 833 122.814 717.876 472.385
1254 0 67.2033 12.3506 830 123.86 717.755 473.052
1255 0 72.1407 12.5033 902 122.202 718.166 472.5
1256 0 73.2333 13.0542 956 123.213 717.904 468.894
1257 0 77.1325 13.6518 1053 121.594 718.173 469.043
1258 0 77.2294 13.2851 1026 123.695 717.848 467.763
1259 0 82.2876 14.1455 1164 120.652 717.356 465.405
1260 0 84.5517 13.199 1116 124.243 718.151 463.817
1261 0 85.2999 12.7198 1085 125.744 717.764 462.272
1262 0 88.0944 11.4877 1012 122.169 717.028 463.202
1263 1 46.0816 10.9371 504 117.556 718.044 483.615
1264 0 47.0605 12.1758 573 114.435 718.428 482.117
1265 0 49.0339 12.2772 602 117.022 718.375 481.319
1266 0 50.0342 11.9119 596 120.203 718.515 479.104
1267 0 52.2278 12.1391 634 125.703 718.997 476.913
1268 0 53.1302 12.6293 671 121.012 718.221 478.519
1269 0 55.1398 13.4748 743 119.398 718.572 476.192
1270 0 57.1255 13.2165 755 116.649 718.368 477.83
1271 0 59.0833 12.3385 729 118.475 718.337 476.841
1272 0 61.0924 13.5041 825 116.76 718.047 475.321
1273 0 62.0681 12.5185 777 120.444 717.705 473.712
1274 0 65.1346 14.0171 913 116.152 717.908 472.878
1275 0 67.091 13.8767 931 116.553 718.158 472.7
1276 0 68.0569 13.7238 934 117.575 717.8 471.37
1277 0 71.0789 13.3514 949 119.028 718.57 469.88
1278 0 72.1001 12.9542 934 121.383 718.044 468.489
1279 0 76.1684 13.8771 1057 117.997 717.825 466.324
1280 0 80.1474 13.8994 1114 117.584 718.376 468.856
1281 0 81.201 14.2609 1158 119.611 718.069 464.472
1282 0 84.2026 14.4532 1217 121.754 718.057 463.057
1283 0 87.2628 13.2817 1159 126.361 718.077 462.395
1284 0 88.118 13.2209 1165 128.107 718.726 461.626
1285 0 91.1688 14.4238 1315 124.477 718.608 455.977
1286 1 50.0985 11.5972 581 125.046 718.437 476.52
1287 0 52.1257 12.5466 654 126.812 718.512 477.505
1288 0 56.1055 12.4765 700 127.044 717.857 476.613
1289 0 55.1392 12.5319 691 130.197 718.517 472.551
1290 0 58.1215 12.4739 725 128.846 718.099 471.39
1291 0 60.0637 13.4191 806 128.538 718.908 477.37
1292 0 62.0608 12.955 804 130.639 719.581 474.505
1293 0 63.0526 12.8306 809 130.508 719.372 474.021
1294 0 66.0911 12.8156 847 130.707 719.339 471.37
1295 0 69.0309 12.7189 878 128.96 719.323 472.49
1296 0 71.0233 13.0239 925 126.343 719.659 468.453
1297 0 75.0357 13.0871 982 125.936 718.897 466.621
1298 0 77.0308 14.28 1100 122.118 719.253 466.995
1299 0 78.0609 12.9258 1009 125.957 719.166 464.811
1300 0 82.1165 13.6026 1117 122.929 718.89 465.303
1301 0 84.1536 13.2733 1117 124.177 718.914 462.296
1302 0 89.1618 13.7727 1228 121.555 719.432 459.983
1303 0 90.154 13.1331 1184 123.796 719.15 456.757
1304 0 94.1777 13.5489 1276 123.55 718.248 454.505
1305 0 96.246 15.2006 1463 118.789 718.564 454.016
1306 0 100.15 13.5896 1361 122.956 718.319 451.24
1307 0 102.197 14.2862 1460 121.386 718.554 451.225
1308 0 104.162 11.6165 1210 128.637 718.75 450.547
1309 0 109.257 13.8847 1517 123.297 718.738 446.404
1310 1 56.0745 11.8414 664 119.12 719.191 475.834
1311 0 60.0888 12.6147 758 116.065 718.02 475.917
1312 0 60.0421 12.2747 737 118.031 718.076 471.609
1313 0 64.0979 14.2126 911 111.375 718.789 470.591
1314 0 64.0597 13.1128 840 116.204 718.177 468.313
1315 0 67.1713 13.2646 891 115.358 719.135 467.599
1316 0 69.1665 13.5904 940 115.001 719.129 466.13
1317 0 71.132 13.6647 972 115.237 718.5 466.285
1318 0 74.2572 12.4028 921 117.631 718.494 467.452
1319 0 76.2349 13.0649 996 118.422 718.474 465.038
1320 0 78.1246 13.2353 1034 120.321 718.222 460.16
1321 0 84.157 12.9876 1093 120.318 718.132 462.152
1322 0 83.067 13.0858 1087 124.561 718.761 457.288
1323 0 88.3083 13.8832 1226 122.819 717.928 455.883
1324 0 90.346 12.5296 1132 126.136 718.158 454.763
1325 0 91.3456 12.9508 1183 127.025 718.082 452.381
1326 0 98.2615 14.0136 1377 124.205 718.495 451.97
1327 0 99.1799 13.047 1294 127.415 717.753 451.479
1328 1 54.1873 11.4787 622 119.27 718.65 476.074
1329 0 54.1041 13.1044 709 114.602 717.75 476.299
1330 0 56.1526 12.0564 677 117.796 717.479 474.793
1331 0 58.0971 12.7029 738 116.146 716.568 474.824
1332 0 60.1081 11.9784 720 119.443 715.975 471.983
1333 0 63.1026 12.5985 795 116.662 716.533 473.353
1334 0 64.0704 13.0325 835 116.332 716.522 474.11
1335 0 66.0914 11.6808 772 120.298 717.198 473.736
1336 0 68.0533 12.8576 875 117.613 716.702 472.248
1337 0 72.0762 13.9574 1006 114.817 717.005 469.708
1338 0 73.0757 12.3297 901 119.954 716.539 467.667
1339 0 76.0756 13.4209 1021 116.788 716.495 467.027
1340 0 78.1749 13.2523 1036 118.891 717.376 463.402
1341 0 83.0682 12.9893 1079 117.448 717.322 465.439
1342 0 85.1083 12.6545 1077 120.083 717.456 463.292
1343 0 89.1153 12.6017 1123 119.876 717.4 461.779
1344 0 91.0791 13.7902 1256 118.811 717.337 459.655
1345 0 95.156 13.0733 1244 120.999 718.572 455.576
1346 0 95.21 11.4904 1094 125.499 717.76 455.271
1347 0 101.272 12.8565 1302 120.983 718.435 453.548
1348 1 56.2755 11.5325 649 119.022 718.424 475.105
1349 0 56.1752 11.2683 633 120.311 718.845 475.622
1350 0 57.1957 10.9624 627 122.619 718.571 474.589
1351 0 61.056 11.9399 729 115.608 719.291 474.931
1352 0 63.0646 12.067 761 115.79 719.059 473.363
1353 0 65.0457 12.7449 829 113.644 718.642 473.07
1354 0 68.1073 12.9061 879 113.524 717.928 471.133
1355 0 68.0564 12.4602 848 117.41 717.945 469.083
1356 0 71.1285 13.2718 944 116.574 718.245 468.33
1357 0 72.0839 13.9976 1009 115.902 718.31 467.289
1358 0 74.1345 12.8146 950 119.307 718.742 466.78
1359 0 79.1494 13.4556 1065 117.872 718.8 465.612
1360 0 82.0706 13.6712 1122 117.938 718.528 463.848
1361 0 83.1008 13.0324 1083 121.324 718.244 463.442
1362 0 85.0784 12.7412 1084 123.446 718.488 461.223
1363 0 89.1346 12.9243 1152 123.378 719.172 461.146
1364 0 90.0807 13.3325 1201 123.89 718.968 458.373
1365 0 94.1027 13.294 1251 124.632 718.505 456.401
1366 0 97.1044 13.5833 1319 123.826 718.362 455.942
1367 1 51.0273 11.2685 575 127.652 719.63 477.532
1368 0 53.0187 11.2979 599 127.871 719.302 477.736
1369 0 56.1874 12.7787 718 124.645 716.68 474.929
1370 0 54.1015 11.2381 608 121.214 718.303 471.225
1371 0 55.0704 11.0041 606 118.284 718.703 472.591
1372 0 59.055 12.9371 764 113.908 718.285 471.387
1373 0 61.0954 12.325 753 114.408 718.048 471.805
1374 0 63.1067 11.8529 748 115.948 718.346 470.507
1375 0 64.1619 11.8139 758 116.64 717.947 470.102
1376 0 63.0922 11.507 726 119.669 717.84 468.782
1377 0 67.0826 11.4784 770 119.674 717.852 468.195
1378 0 68.0521 11.7851 802 118.97 717.459 468.07
1379 0 69.0375 11.8921 821 120.82 716.752 465.535
1380 0 71.0529 11.4844 816 122.176 717.388 465.152
1381 0 74.0466 12.6137 934 119.621 717.102 464.37
1382 0 77.0624 12.6261 973 120.407 717.456 463.511
1383 0 81.0772 13 1054 119.333 717.112 463.58
1384 0 83.0271 13.2366 1099 119.493 716.813 462.428
1385 0 84.1434 12.4549 1048 123.092 717.595 459.769
1386 0 86.0872 12.9287 1113 122.591 717.665 457.196
1387 0 92.1093 14.1571 1304 117.276 717.023 457.714
1388 0 93.1065 13.3503 1243 120.346 717.204 455.383
1389 0 96.1506 12.9484 1245 120.5 717.981 451.065
1390 0 97.1706 13.2345 1286 120.975 718.12 450.709
1391 0 101.139 13.7731 1393 120.117 718.43 449.212
1392 0 105.257 14.8589 1564 125.935 718.107 451.79
1393 1 56.0626 12.8249 719 122.293 719.095 473.739
1394 0 58.0694 12.0373 699 125.748 718.474 475.783
1395 0 61.1911 13.6621 836 120.44 718.278 475.654
1396 0 59.0324 12.1459 717 116.979 716.031 469.469
1397 0 63.072 10.8765 686 118.79 716.752 469.659
1398 0 63.072 10.8923 687 144.354 716.748 469.731
1399 0 63.0488 11.5783 730 120.007 716.684 465.619
1400 0 69.0751 12.5516 867 116.471 716.715 462.759
1401 0 72.2029 11.9386 862 117.55 717.056 463.183
1402 0 75.062 11.3906 855 118.892 716.933 462.204
1403 0 75.104 11.9301 896 118.64 717.126 461.022
1404 0 79.0354 12.1844 963 118.037 716.939 458.566
1405 0 83.1022 12.2981 1022 117.941 717.015 457.61
1406 0 86.1804 12.5435 1081 117.523 716.7 456.138
1407 0 88.1361 12.0042 1058 120.354 716.77 453.021
1408 0 90.1619 12.7548 1150 118.537 716.564 453.64
1409 0 93.0689 11.6365 1083 121.953 716.832 450.395
1410 0 97.0967 12.5854 1222 120.462 716.71 447.476
1411 0 101.194 13.3506 1351 117.962 716.772 445.506
1412 1 56.1419 9.11976 512 117.68 717.478 469.869
1413 0 58.0341 11.0969 644 114.657 717.16 467.669
1414 0 60.0608 10.7058 643 113.732 716.801 467.107
1415 0 63.0745 11.7639 742 110.53 716.854 466.108
1416 0 66.1169 11.6007 767 110.236 717.068 465.821
1417 0 66.0961 10.5755 699 113.652 716.445 464.266
1418 0 67.058 11.3782 763 113.13 716.187 460.887
1419 0 70.1386 10.964 769 113.977 717.077 459.488
1420 0 71.1438 10.8794 774 115.912 716.793 457.389
1421 0 77.1526 11.4837 886 113.357 716.428 458.204
1422 0 79.0978 11.7702 931 113.828 716.685 454.879
1423 0 82.0799 11.2695 925 115.662 716.882 453.496
1424 0 84.1032 11.0697 931 114.122 716.919 454.138
1425 0 88.192 11.441 1009 113.621 717.6 451.208
1426 0 90.1549 12.1569 1096 113.028 717.655 449.232
1427 0 91.1442 11.1472 1016 116.844 718.744 447.639
1428 1 51.1253 11.0708 566 110.094 718.299 470.717
1429 0 52.0302 10.6092 552 119.841 717.607 470.543
1430 0 52.0584 10.7572 560 120.812 716.839 469.262
1431 0 54.0544 11.3774 615 118.727 716.223 469.707
1432 0 55.0983 10.2181 563 124.531 717.098 465.43
1433 0 57.0458 11.0613 631 123.493 715.875 463.544
1434 0 61.1277 11.5005 703 128.006 716.104 467.458
1435 0 65.0833 12.3073 801 123.537 716.911 469.12
1436 0 66.1599 13.6185 901 121.158 716.663 468.3
1437 0 68.1146 12.6111 859 124.366 716.324 466.264
1438 0 69.1373 13.3068 920 123.325 716.718 465.278
1439 0 72.0609 14.2241 1025 119.177 716.102 464.319
1440 0 73.0883 13.0117 951 123.619 716.62 462.502
1441 0 77.0586 12.5619 968 123.682 715.708 462.436
1442 0 79.0947 12.504 989 123.724 716.298 461.843
1443 0 80.1099 12.9447 1037 124.353 716.474 458.133
1444 0 86.1162 14.074 1212 118.536 716.809 458.935
1445 1 45.2235 11.5869 524 120.149 717.212 476.704
1446 0 46.0991 11.8224 545 119.026 717.268 476.635
1447 0 50.1749 11.6791 586 115.933 718.019 476.205
1448 0 51.0297 11.7383 599 116.993 716.324 476.154
1449 0 51.0387 12.8334 655 116.524 716.224 474.898
1450 0 52.0548 12.5829 655 116.176 716.522 476.395
1451 0 54.0363 12.14 656 118.447 716.651 474.745
1452 0 55.0391 12.2458 674 118.99 717.224 473.691
1453 0 56.0285 13.1362 736 116.693 716.444 473.412
1454 0 58.0395 12.6293 733 118.359 716.698 472.831
1455 0 61.0232 13.2736 810 116.401 716.404 471.406
1456 0 61.0583 11.9722 731 120.176 717.003 473.259
1457 0 62.0257 13.0107 807 118.874 717.343 471.618
1458 0 65.0508 13.5433 881 117.397 716.778 470.162
1459 0 67.0745 12.7172 853 119.778 716.319 468.327
1460 0 69.045 12.4557 860 120.087 716.792 468.888
1461 0 72.0905 13.5247 975 117.519 717.01 467.77
1462 0 73.0742 12.9868 949 119.969 716.613 466.553
1463 0 78.1433 13.3217 1041 118.314 717.044 465.965
1464 0 78.07 12.54 979 120.832 716.777 464.661
1465 0 82.0782 13.5724 1114 118.917 717.219 461.39
1466 0 84.1092 13.7559 1157 118.757 717.354 459.988
1467 0 88.0781 15.6339 1377 113.369 716.911 460.975
1468 0 89.0869 13.7394 1224 120.199 716.837 459.056
1469 0 93.0428 14.273 1328 119.04 717.606 456.453
1470 1 49.0295 10.8506 532 121.694 717.156 480.092
1471 0 51.0234 12.0925 617 120.162 716.989 477.877
1472 0 53.0881 12.3756 657 119.903 717.642 479.137
1473 0 55.2077 12.8062 707 121.259 719.139 456.371
1474 0 56.211 12.8267 721 122.835 718.442 455.236
1475 0 56.1403 12.4331 698 125.732 718.56 454.976
1476 0 57.0876 13.2428 756 123.983 719.675 455.074
1477 0 60.2736 13.5217 815 121.432 719.255 457.492
1478 0 61.2333 13.0811 801 123.526 718.433 461.468
1479 0 63.1737 13.265 838 122.869 718.123 460.41
1480 0 63.1638 12.7763 807 125.23 718.568 459.437
1481 0 65.2566 14.7111 960 119.824 718.221 460.296
1482 0 68.1445 14.7921 1008 119.246 718.006 460.308
1483 0 71.1577 15.037 1070 117.655 718.505 461.895
1484 0 71.2041 15.1115 1076 117.234 718.503 468.883
1485 0 73.2004 13.4835 987 122.525 718.648 467.035
1486 0 74.1106 13.3314 988 122.286 718.281 467.462
1487 0 79.1003 13.9696 1105 118.738 718.819 467.352
1488 0 78.1826 12.9824 1015 124.214 718.619 465.403
1489 0 81.1182 12.8948 1046 125.099 718.836 463.209
1490 0 85.1303 14.6246 1245 119.998 718.324 462.231
1491 0 88.1271 14.1727 1249 120.942 718.729 461.027
1492 0 91.1628 15.4449 1408 118.746 718.514 460.006
1493 0 93.1425 13.8283 1288 125.141 718.875 457.662
1494 0 94.1657 14.5382 1369 124.335 719.01 455.869
1495 0 97.1512 13.4018 1302 126.46 718.606 455.759
1496 0 103.152 14.3284 1478 122.939 718.116 453.622
1497 1 54.1279 11.5837 627 122.37 719.412 477.754
1498 0 56.0417 12.2052 684 119.64 719.867 478.854
1499 0 54.109 12.0313 651 120.083 718.25 477.071
1500 0 57.1016 12.5566 717 119.297 718.842 474.76
1501 0 60.1192 13.5398 814 115.072 718.983 474.918
1502 0 64.0666 13.0645 837 115.829 718.656 474.085
1503 0 62.0471 10.9111 677 121.004 719.417 474
1504 0 66.0443 13.2336 874 110.701 718.977 471.157
1505 0 65.0758 11.6633 759 117.916 719.032 469.623
1506 0 67.1023 13.621 914 116.232 718.972 471.421
1507 0 67.073 13.4779 904 117.59 719.388 470.471
1508 0 68.0878 13.7176 934 117.755 718.824 469.866
1509 0 68.0664 12.238 833 124.461 718.713 468.558
1510 0 72.1168 12.9928 937 121.537 718.599 469.701
1511 0 70.1013 11.9827 840 125.189 718.649 467.115
1512 0 74.1096 13.1022 971 120.48 718.317 465.196
1513 0 76.1044 13.1136 998 119.185 719.097 464.73
1514 0 79.036 12.4374 983 119.492 718.796 463.094
1515 0 82.0877 12.1455 997 119.27 718.807 463.359
1516 0 83.0963 13.1414 1092 117.119 718.426 461.898
1517 0 87.1522 12.6101 1099 118.594 718.897 460.598
1518 0 87.0922 11.8036 1028 121.023 718.518 459.277
1519 0 93.0657 13.4743 1254 116.693 717.82 458.99
1520 0 95.1375 12.298 1170 121.117 717.893 455.547
1521 0 97.1257 12.3242 1197 120.564 717.934 457.791
1522 1 50.025 10.5747 529 121.221 716.104 480.098
1523 0 53.0479 11.2351 596 118.953 716.344 479.799
1524 0 55.0751 12.0744 665 119.988 716.495 477.302
1525 0 59.1042 13.197 780 119.208 717.05 478.114
1526 0 58.0926 12.8244 745 123.871 717.046 476.24
1527 0 61.0651 13.0189 795 124.567 717.35 475.523
1528 0 63.0637 12.749 804 127.32 717.09 474.52
1529 0 65.0607 13.3414 868 127.98 716.757 472.886
1530 0 67.0542 13.1237 880 130.865 716.558 473.838
1531 0 68.0903 13.8199 941 131.582 716.397 472.24
1532 0 70.0677 13.3728 937 134.82 716.491 471.433
1533 0 73.0535 13.2095 965 138.123 716.257 470.473
1534 0 74.1425 13.6089 1009 139.583 716.857 469.388
1535 0 75.0536 12.2979 923 147.107 717.143 467.355
1536 0 78.1022 13.2775 1037 145.145 716.833 466.847
1537 0 80.1726 13.683 1097 144.698 716.941 464.682
1538 0 83.1754 13.9945 1164 144.46 717.314 463.983
1539 0 84.1939 13.6708 1151 146.806 717.569 464.88
1540 0 88.1814 13.4609 1187 147.315 716.853 461.301
1541 1 47.0134 11.1245 523 146.004 716.363 479.776
1542 0 48.1611 11.0255 531 140.019 717.258 478.921
1543 0 50.1672 11.5215 578 139.282 716.661 474.964
1544 0 51.1179 10.6616 545 138.051 717.527 480.701
1545 0 53.066 11.6836 620 139.621 717.539 479.671
1546 0 54.106 10.3685 561 144.173 717.257 480.223
1547 0 56.0291 12.904 723 136.679 717.033 478.863
1548 0 57.0682 11.8455 676 140.198 717.33 478.019
1549 0 58.0314 11.2181 651 143.378 716.694 477.35
1550 0 61.0785 12.1319 741 139.686 716.923 475.858
1551 0 62.0386 10.4612 649 144.08 717.008 476.153
1552 0 64.0629 12.3472 791 138.303 716.655 473.058
1553 0 69.0624 12.105 836 137.474 716.622 472.458
1554 0 70.0648 11.6464 816 140.065 716.038 471.92
1555 0 72.079 10.9741 791 138.526 715.922 469.941
1556 0 74.0654 12.1109 897 136.959 715.803 466.828
1557 0 78.0995 12.7017 992 133.758 715.722 467.018
1558 0 80.0453 12.9052 1033 134.898 715.072 463.658
1559 0 81.0681 10.9044 884 140.643 716.058 462.945
1560 0 87.0883 13.0442 1136 133.139 715.877 461.81
1561 0 89.1559 12.6969 1132 134.131 715.671 461.59
1562 0 92.1051 11.8886 1095 136.89 715.316 459.749
1563 1 49.0798 10.6357 522 133.374 715.762 480.199
1564 0 52.3041 11.2419 588 136.893 714.179 477.687
1565 0 53.0429 12.1223 643 130.816 716.227 479.435
1566 0 53.1372 11.0845 589 134.385 716.368 479.024
1567 0 56.0474 12.0791 677 129.412 716.716 479.839
1568 0 60.153 12.8007 770 126.91 716.553 477.565
1569 0 60.0759 12.5508 754 128.362 716.733 475.816
1570 0 60.0286 11.4612 688 132.959 715.429 476.36
1571 0 63.0896 10.8734 686 134.264 716.077 473.296
1572 0 63.0507 11.4987 725 132.76 715.96 474.361
1573 0 66.0665 11.4279 755 131.854 715.624 472.996
1574 0 69.0382 11.7471 811 131.37 715.961 469.529
1575 0 71.1433 10.9778 781 131.109 716.487 468.288
1576 0 71.1433 11.0481 786 137.805 716.492 468.274
1577 0 76.1108 11.5227 877 129.251 717.129 465.504
1578 0 79.1054 11.9714 947 127.642 716.647 465.157
1579 0 82.1635 11.684 960 128.109 716.203 463.858
1580 0 85.1396 11.3578 967 127.277 716.31 463.544
1581 0 87.1089 12.3064 1072 124.109 716.484 461.548
1582 0 92.1497 11.796 1087 124.053 716.812 456.988
1583 0 95.3663 12.5097 1193 122.512 716.984 454.089
1584 0 99.1601 12.5252 1242 122.194 716.109 452.427
1585 0 100.132 11.2053 1122 124.037 716.266 452.76
1586 0 107.227 14.3247 1536 114.56 716.686 449.199
1587 0 110.275 12.8678 1419 117.966 716.677 446.321
1588 0 112.274 12.2379 1374 120.767 715.621 447.148
1589 0 116.313 12.8704 1497 119.812 715.804 442.143
1590 1 67.1929 10.3434 695 117.548 716.917 472.058
1591 0 69.3373 11.9705 830 114.682 716.723 467.688
1592 0 73.3401 12.6125 925 112.958 716.321 465.439
1593 0 73.2733 13.1699 965 111.832 716.077 465.723
1594 0 76.1199 13.0321 992 112.224 716.019 467.398
1595 0 79.1381 13.2553 1049 112.388 716.382 465.336
1596 0 81.1716 12.4797 1013 114.345 716.574 464.505
1597 0 82.2756 12.2637 1009 115.565 716.381 463.954
1598 0 84.1584 12.3814 1042 115.985 715.774 460.575
1599 0 88.1834 12.44 1097 115.841 715.653 456.499
1600 0 91.0889 12.5262 1141 114.592 716.842 459.26
1601 0 95.1573 12.7473 1213 115.543 715.683 454.69
1602 0 95.1644 11.5905 1103 120.146 715.709 452.461
1603 0 99.118 11.9655 1186 120.908 715.167 449.232
1604 0 104.138 12.7523 1328 118.744 715.208 448.61
1605 0 105.219 11.3288 1192 121.697 715.401 452.074
1606 0 109.119 13.0592 1425 118.995 715.689 448.5
1607 0 113.145 12.0376 1362 121.651 716.353 447.391
1608 0 116.187 13.702 1592 118.974 716.881 440.847
1609 0 120.317 13.4146 1614 119.035 716.423 441.074
1610 0 124.304 12.8234 1594 119.663 717.038 439.026
1611 0 126.214 12.3917 1564 122.072 716.687 434.446
1612 1 68.177 10.3554 706 115.571 716.428 464.626
1613 0 71.1383 10.9224 777 113.151 716.846 464.31
1614 0 75.1634 12.2799 923 108.592 716.456 463.009
1615 0 76.1632 11.2522 857 112.306 716.357 461.959
1616 0 77.1194 10.7366 828 114.739 716.833 459.72
1617 0 82.3129 12.6469 1041 109.838 716.475 456.129
1618 0 84.1662 12.9624 1091 109.42 717.071 456.618
1619 0 88.1934 12.5066 1103 110.012 716.273 455.579
1620 0 90.1868 12.5185 1129 110.773 716.108 453.298
1621 0 93.2317 11.7128 1092 111.72 716.421 454.457
1622 0 98.1931 12.73 1250 110.04 715.954 450.866
1623 0 100.278 12.0066 1204 111.403 716.56 450.656
1624 0 102.284 11.6636 1193 112.294 716.163 447.14
1625 1 55.2114 9.70814 536 107.856 716.853 471.521
1626 0 57.2308 10.7984 618 110.96 717.322 470.191
1627 0 61.2018 11.3886 697 110.396 717.076 470.875
1628 0 60.0797 9.43746 567 117.168 716.508 471.13
1629 0 60.0134 10.9309 656 113.18 716.191 470.672
1630 0 63.0579 10.8789 686 105.716 715.147 470.188
1631 0 68.1656 11.428 779 103.954 715.463 467.307
1632 0 69.0966 12.3885 856 101.931 714.801 467.528
1633 0 72.127 10.9252 788 103.916 714.869 467.871
1634 0 71.0689 9.61039 683 108.124 715.025 464.13
1635 0 75.2818 11.0518 832 105.117 715.498 462.482
1636 0 78.309 11.8122 925 103.176 716.944 457.765
1637 0 81.28 11.3066 919 104.429 717.073 459.559
1638 0 81.3706 11.761 957 105.576 716.152 454.251
1639 0 86.3598 11.1973 967 107.071 715.808 456.145
1640 0 88.2984 12.5597 1109 107.127 716.505 453.206
1641 0 91.3249 10.5338 962 111.511 716.141 452.867
1642 0 93.3147 11.0272 1029 111.851 716.132 450.373
1643 0 94.3628 11.0107 1039 113.366 715.487 446.727
1644 0 99.2202 11.3888 1130 111.604 715.737 449.399
1645 0 100.44 11.3401 1139 112.581 715.029 447.392
1646 0 104.282 11.9101 1242 111.357 716.22 447.33
1647 0 108.393 12.2794 1331 111.109 716.01 444.288
1648 0 110.273 12.2152 1347 112.165 715.752 440.694
1649 0 114.314 12.3169 1408 112.307 716.093 436.778
1650 0 116.214 12.5716 1461 111.123 716.075 440.79
1651 0 122.313 12.5171 1531 111.812 715.807 436.874
1652 1 67.3254 9.86255 664 107.111 717.012 462.876
1653 0 70.3478 9.90791 697 109.102 716.148 458.778
1654 0 70.1499 10.0499 705 109.163 715.841 459.152
1655 0 74.2416 9.95398 739 110.13 716.022 459.984
1656 0 78.2577 11.8966 931 106.379 716.267 460.568
1657 0 80.2599 11.1139 892 108.74 715.99 458.469
1658 0 83.2462 12.0726 1005 108.007 715.917 456.419
1659 0 84.2761 11.6522 982 110.323 716.222 455.421
1660 0 88.193 12.4386 1097 108.313 717.013 455.431
1661 0 91.1378 11.3564 1035 112.229 716.585 453.143
1662 0 93.1933 12.3507 1151 110.81 716.624 453.349
1663 0 97.258 11.2484 1094 113.796 716.478 451.813
1664 0 100.22 12.7121 1274 111.031 716.795 448.852
1665 0 103.138 13.3413 1376 111.886 716.042 446.621
1666 0 105.136 13.1829 1386 113.518 716.211 445.663
1667 0 108.148 12.2332 1323 116.515 716.923 444.731
1668 0 112.119 11.9605 1341 117.25 716.528 444.355
1669 0 115.139 12.8454 1479 116.302 716.487 441.757
1670 0 118.138 12.0114 1419 119.319 716.548 441.671
1671 0 123.099 12.3803 1524 117.717 715.488 440.543
1672 1 68.0319 9.45145 643 113.491 716.821 471.325
1673 0 70.2268 11.6195 816 112.067 714.955 466.158
1674 0 72.2185 12.1576 878 115.851 715.033 464.417
1675 0 73.103 11.6001 848 118.598 714.079 462.35
1676 0 76.2137 13.0292 993 115.417 713.935 462.608
1677 0 76.0793 11.8166 899 120.229 714.82 463.096
1678 0 80.0654 12.6022 1009 119.26 714.87 460.652
1679 0 81.1238 12.0803 980 121.29 714.951 461.835
1680 0 83.1679 12.8054 1065 121.496 715.394 457.242
1681 0 87.1019 11.3775 991 124.725 715.379 457.507
1682 0 88.0631 12.2299 1077 123.993 714.89 456.128
1683 0 90.1196 12.5722 1133 124.116 714.094 454.067
1684 0 93.1539 12.2378 1140 125.644 713.858 454.669
1685 0 97.1714 13.1314 1276 122.961 713.626 451.829
1686 0 99.1028 12.9462 1283 123.45 713.516 451.019
1687 0 101.104 12.0174 1215 126.251 713.49 450.209
1688 0 106.088 13.2344 1404 122.682 714.209 451.347
1689 0 105.11 12.7581 1341 126.753 713.672 446.459
1690 0 112.232 12.8306 1440 124.132 713.988 447.341
1691 0 119.17 13.2332 1577 122.082 714.407 445.169
1692 0 121.182 12.7577 1546 125.647 714.201 440.786
1693 1 69.096 12.128 838 114.48 713.984 470.136
1694 0 69.122 10.1126 699 111.172 715.33 468.983
1695 0 72.1246 10.1491 732 106.074 715.298 464.406
1696 0 75.1103 9.99862 751 106.322 715.792 465.992
1697 0 74.2024 9.08326 674 111.24 715.594 461.516
1698 0 79.1693 11.3175 896 105.821 716.532 462.406
1699 0 80.1274 10.2836 824 109.456 716.058 459.34
1700 0 81.1269 10.8472 880 124.275 715.068 458.51
1701 0 86.1447 10.7958 930 108.713 716.601 457.352
1702 0 91.1444 11.992 1093 106.713 715.633 455.21
1703 0 92.1399 11.6996 1078 109.103 715.184 456.385
1704 0 96.1741 10.5434 1014 108.741 715.502 455.053
1705 0 96.074 10.5127 1010 110.32 714.803 449.358
1706 0 103.094 11.8048 1217 106.841 714.627 451.5
1707 1 55.1369 10.8639 599 105.229 714.571 475.821
1708 0 57.1024 9.92952 567 107.095 714.494 476.116
1709 0 59.0828 11.3062 668 103.482 714.609 473.973
1710 0 60.0525 10.7739 647 105.835 714.849 474.623
1711 0 59.0629 11.6825 690 105.861 714.154 472.959
1712 0 62.1073 10.353 643 108.635 714.49 471.734
1713 0 64.0503 11.6315 745 106.719 715.232 472.318
1714 0 67.0751 11.0921 744 108.444 715.207 470.5
1715 0 69.078 12.2325 845 105.915 715.178 468.204
1716 0 71.096 11.0695 787 110.282 715.315 468.84
1717 0 73.1227 12.0072 878 108.103 715.007 469.436
1718 0 75.1139 12.1549 913 109.636 714.914 467.536
1719 0 77.0966 11.8942 917 112.039 714.156 466.986
1720 0 79.0884 10.9877 869 115.214 714.275 463.718
1721 0 83.0999 11.7208 974 113.463 714.928 463.004
1722 0 84.1688 13.1165 1104 112.815 714.324 458.957
1723 0 87.1322 10.5931 923 121.248 714.505 458.68
1724 0 88.1795 12.1797 1074 120.004 714.67 455.871
1725 0 92.2208 11.7761 1086 120.556 714.732 455.702
1726 0 93.2406 10.8322 1010 124.213 715.207 455.397
1727 1 48.0873 10.5641 508 116.077 714.232 475.648
1728 0 50.1574 10.5069 527 118.342 714.74 475.446
1729 0 53.078 11.0404 586 117.355 715.8 473.15
1730 0 53.1427 11.0834 589 117.706 714.966 472.8
1731 0 55.1166 12.1016 667 113.295 714.631 472.96
1732 0 57.1519 11.2157 641 116.565 714.813 472.454
1733 0 56.0496 10.9903 616 118.925 715.696 477.18
1734 0 62.0602 11.8917 738 114.299 714.89 474.064
1735 0 63.115 12.0098 758 115.177 715.16 472.182
1736 0 64.0417 12.1952 781 115.113 714.874 471.949
1737 0 67.0894 12.7144 853 114.14 715.238 471.882
1738 0 67.123 11.8141 793 118.429 714.546 469.13
1739 0 69.1298 12.4404 860 117.416 715.219 468.721
1740 0 73.1061 12.7486 932 116.311 715.023 469.727
1741 0 75.1474 13.1342 987 115.782 715.212 469.594
1742 0 77.1099 12.8129 988 118.024 715.671 467.2
1743 0 79.1252 12.9036 1021 118.488 715.428 466.356
1744 0 80.1966 12.5941 1010 118.772 715.485 461.66
1745 0 84.0953 12.8426 1080 118.2 715.257 463.127
1746 0 86.1506 12.8728 1109 120.292 715.919 463.735
1747 0 90.1586 13.1768 1188 119.269 715.604 464.253
1748 0 92.0698 13.8047 1271 119.886 715.455 460.148
1749 0 94.1907 13.1966 1243 123.471 715.634 458.902
1750 0 95.2273 12.7064 1210 126.823 715.054 457.424
1751 0 101.16 13.6911 1385 123.084 714.498 455.209
1752 1 56.223 12.4682 701 128.766 715.173 475.536
1753 0 58.0668 13.2262 768 128.083 716.022 475.521
1754 0 61.1248 13.2843 812 122.287 714.208 472.027
1755 0 61.1901 12.2569 750 126.079 714.761 471.74
1756 0 65.1484 12.909 841 123.094 714.18 470.727
1757 0 64.1539 12.0491 773 127.305 714.585 468.488
1758 0 68.1818 11.9093 812 127.228 714.762 468.47
1759 0 68.2873 12.0374 822 128.484 714.785 465.922
1760 0 73.194 13.1022 959 123.762 714.747 466.822
1761 0 74.2936 12.2891 913 126.183 715.282 465.935
1762 0 77.1668 12.6609 977 125.464 715.169 462.318
1763 0 80.1556 12.3135 987 126.285 714.402 463.714
1764 0 80.1474 12.3273 988 127.835 714.992 460.841
1765 0 84.3743 12.089 1020 128.381 715.091 459.73
1766 0 86.1744 12.788 1102 127.435 714.755 459.389
1767 0 86.2398 11.4216 985 133.393 714.451 456.825
1768 0 91.2464 12.6032 1150 128.826 715.328 454.477
1769 0 94.2776 12.4208 1171 130.44 713.927 453.003
1770 0 96.2416 12.4894 1202 130.827 714.266 451.229
1771 0 100.264 13.0555 1309 129.412 714.914 448.824
1772 0 104.393 11.7345 1225 131.877 714.687 448
1773 0 108.357 12.0066 1301 131.18 714.497 447.758
1774 1 64.2178 10.8537 697 125.62 715.079 470.481
1775 0 63.1407 11.4981 726 125.062 715.64 468.478
1776 0 66.0988 12.4662 824 119.636 716.847 470.396
1777 0 69.1868 12.2278 846 119.785 717.365 470.152
1778 0 72.0715 10.9336 788 122.283 717.332 468.808
1779 0 75.162 12.8922 969 117.888 716.875 466.627
1780 0 76.0681 12.239 931 120.942 716.379 465.731
1781 0 79.0901 13.9461 1103 116.825 716.725 463.69
1782 0 83.1341 12.4137 1032 120.685 717.063 463.7
1783 0 85.1179 12.3828 1054 122.29 716.056 462.67
1784 0 88.0914 13.52 1191 121.065 715.856 459.107
1785 0 90.0786 12.4669 1123 123.628 716.545 458.04
1786 0 92.1693 12.2492 1129 125.083 715.72 456.246
1787 0 97.1744 13.2236 1285 121.699 715.991 453.983
1788 0 99.2062 12.8419 1274 125.365 716.302 451.224
1789 0 104.112 12.8996 1343 123.873 715.972 451.881
1790 0 107.188 13.2105 1416 124.084 715.76 449.462
1791 0 110.304 13.626 1503 123.126 716.544 448.698
1792 1 59.1232 10.4527 618 128.269 715.874 470.749
1793 0 63.3054 11.7526 744 122.461 714.839 469.632
1794 0 61.1321 11.3034 691 127.444 715.117 466.192
1795 0 63.2308 12.5097 791 123.449 714.788 467.608
1796 0 66.3492 12.1478 806 123.068 714.453 468.783
1797 0 67.3376 11.4349 770 125.981 715.326 467.996
1798 0 70.0254 13.1238 919 121.184 717.118 469.276
1799 0 72.0541 12.2824 885 122.989 717.086 468.355
1800 0 74.0461 12.9649 960 122.346 717.374 466.726
1801 0 76.0723 13.0665 994 121.107 717.955 466.631
1802 0 79.0681 13.1912 1043 121.883 717.474 463.41
1803 0 82.1263 13.4062 1101 120.881 717.406 464.087
1804 0 84.0833 12.3687 1040 123.466 717.332 463.182
1805 0 88.0576 13.9795 1231 119.149 716.758 461.699
1806 0 89.0433 13.4204 1195 122.784 716.253 458.695
1807 0 92.1784 13.6149 1255 122.178 716.548 456.44
1808 0 95.0751 13.5051 1284 121.604 717.185 457.878
1809 0 99.1145 13.9636 1384 120.697 716.914 454.626
1810 0 102.161 14.6632 1498 119.897 715.437 453.073
1811 1 59.1323 12.565 743 116.427 715.907 475.49
1812 0 57.048 11.2712 643 123.278 715.383 473.774
1813 0 62.1041 11.996 745 115.115 714.822 471.15
1814 0 60.0747 10.4869 630 118.876 714.811 468.81
1815 0 65.1452 11.3746 741 115.211 715.124 469.49
1816 0 64.0728 10.8002 692 118.764 714.903 467.179
1817 0 68.1102 12.6119 859 113.722 714.651 466.232
1818 0 70.0264 12.2954 861 114.735 715.232 464.848
1819 0 71.1623 11.2138 798 119.004 714.826 464.222
1820 0 73.0494 12.8406 938 115.139 714.942 463.758
1821 0 79.0489 12.41 981 114.552 714.914 462.601
1822 0 80.0641 12.5399 1004 114.838 714.874 461.004
1823 0 83.1023 12.3944 1030 115.154 715.601 460.19
1824 0 84.0772 12.2863 1033 117.231 715.305 457.851
1825 0 87.0924 12.0906 1053 118.13 715.253 456.486
1826 0 89.2563 11.663 1041 119.209 715.202 455.332
1827 0 91.2996 11.3582 1037 121.64 715.046 454.379
1828 0 95.176 11.0742 1054 123.828 715.049 451.021
1829 0 98.2636 12.7107 1249 119.432 715.191 452.365
1830 0 103.137 13.2349 1365 118.099 715.286 449.295
1831 0 104.191 11.2005 1167 123.589 714.957 452.021
1832 1 57.1882 10.4217 596 117.708 716.512 473.406
1833 0 61.2409 11.7895 722 115.291 716.507 472.971
1834 0 60.2812 11.3966 687 117.67 716.568 471.271
1835 0 63.2118 12.1338 767 115.21 716.352 470.864
1836 0 66.2087 12.4908 827 113.75 716.655 470.553
1837 0 68.1364 11.565 788 116.086 716.626 469.296
1838 0 69.1386 11.976 828 116.149 716.533 469.307
1839 0 72.0615 12.6281 910 114.288 716.153 468.435
1840 0 74.2006 12.6144 936 115.11 716.489 463.831
1841 0 77.215 12.9379 999 114.491 717.223 463.904
1842 0 79.231 13.2398 1049 113.706 716.768 463.171
1843 0 81.2065 12.3143 1000 117.023 716.384 462.615
1844 0 84.1816 13.0076 1095 115.002 716.958 461.578
1845 0 86.1603 13.4285 1157 114.992 716.666 459.288
1846 0 88.2118 11.9939 1058 119.791 716.3 457.473
1847 0 91.114 12.3033 1121 119.722 715.622 454.695
1848 0 95.1274 12.1732 1158 119.379 716.195 455.366
1849 0 98.2567 12.2943 1208 120.56 715.99 453.194
1850 0 101.151 12.4863 1263 120.208 715.721 453.304
1851 0 105.225 13.0482 1373 119.53 715.527 448.661
1852 0 109.138 12.0123 1311 123.233 716.004 449.318
1853 0 113.158 12.6107 1427 122.217 716.07 447.173
1854 1 59.1097 10.286 608 119.855 717.128 470.219
1855 0 64.2342 10.4306 670 115.849 716.722 468.704
1856 0 65.0904 11.7836 767 116.934 714.662 470.089
1857 0 68.1167 11.2307 765 116.425 714.654 468.924
1858 0 70.1133 11.8095 828 115.216 714.856 466.912
1859 0 72.1245 11.8406 854 114.544 714.27 465.604
1860 0 74.112 12.5756 932 112.687 714.332 463.216
1861 0 77.0786 12.1434 936 113.409 714.498 462.895
1862 0 78.1159 11.3421 886 115.842 714.515 461.161
1863 0 82.1509 11.3206 930 115.525 714.569 459.248
1864 0 84.0911 11.987 1008 113.581 714.886 457.833
1865 0 87.1438 11.3605 990 113.966 715.104 456.816
1866 0 90.148 11.5366 1040 113.055 714.177 457.629
1867 0 94.1872 12.8361 1209 109.723 714.144 455.358
1868 0 96.1294 12.4416 1196 110.469 714.816 453.223
1869 0 99.1737 12.6142 1251 110.245 714.556 453.245
1870 0 102.114 11.8887 1214 112.662 714.319 449.689
1871 0 106.134 12.8612 1365 109.456 714.939 450.239
1872 0 110.163 12.3726 1363 108.628 714.836 449.2
1873 0 111.161 12.8193 1425 108.589 714.465 448.305
1874 0 116.195 13.2622 1541 107.855 714.562 446.695
1875 0 117.175 11.581 1357 112.322 716.496 445.013
1876 0 122.127 12.1513 1484 111.313 715.749 444.664
1877 0 127.265 13.295 1692 108.899 715.817 439.461
1878 0 131.192 13.3316 1749 108.866 716.242 436.326
1879 1 72.1687 11.3346 818 106.463 716.883 465.804
1880 0 76.1451 10.8214 824 108.493 716.248 464.579
1881 0 79.0709 11.4075 902 107.329 716.72 462.754
1882 0 81.1487 12.7544 1035 105.045 716.255 459.402
1883 0 85.0744 12.0248 1023 106.736 716.368 461.353
1884 0 88.0691 11.9111 1049 107.768 716.394 460.975
1885 0 91.0985 12.6347 1151 106.844 716.5 458.443
1886 0 91.1873 12.2605 1118 108.62 716.394 456.907
1887 0 95.1379 12.2559 1166 108.864 716.422 457.952
1888 0 99.1575 13.7458 1363 106.101 716.485 455.278
1889 0 102.191 12.8778 1316 109.859 716.562 450.317
1890 0 105.199 13.3176 1401 109.113 716.166 451.274
1891 0 108.153 13.1666 1424 111.091 716.171 449.52
1892 0 111.167 11.4782 1276 114.754 716.894 449.926
1893 0 116.136 12.339 1433 113.798 716.366 445.223
1894 1 65.1902 11.3361 739 110.62 716.677 470.57
1895 0 66.2334 12.154 805 110.32 716.021 469.978
1896 0 68.2575 12.7019 867 110.048 716.401 469.955
1897 0 68.1605 11.4142 778 115.837 717.172 468.616
1898 0 71.0727 11.9033 846 114.676 717.515 467.357
1899 0 71.0785 11.0863 788 116.778 717.608 466.456
1900 0 74.0706 11.759 871 115.071 717.234 465.177
1901 0 77.0463 11.4087 879 116.024 717.25 465.597
1902 0 80.0582 12.2911 984 114.615 717.994 462.582
1903 0 82.1006 11.9244 979 115.574 716.757 462.219
1904 0 84.0674 12.4781 1049 115.392 717.263 459.704
1905 0 86.0818 12.3836 1066 115.923 717.2 458.406
1906 0 90.0958 13.2859 1197 113.641 717.332 456.485
1907 0 93.1284 13.1432 1224 113.587 716.462 456.707
1908 0 96.2195 13.438 1293 113.486 716.96 455.245
1909 0 100.084 13.6086 1362 112.485 716.758 454.001
1910 0 104.147 12.8472 1338 113.613 716.708 452.064
1911 0 108.252 13.0899 1417 112.628 716.573 451.706
1912 0 110.164 12.445 1371 114.309 716.861 450.504
1913 0 113.25 12.1325 1374 115.7 716.646 447.962
1914 1 62.2302 11.0557 688 112.477 715.682 468.765
1915 0 62.3303 10.8134 674 106.135 715.059 468.631
1916 0 64.1822 10.1897 654 106.766 714.878 469.969
1917 0 65.1159 9.95148 648 107.157 715.502 472.647
1918 0 68.2759 10.853 741 105.235 714.483 468.683
1919 0 71.1844 10.4377 743 106.607 714.616 465.51
1920 0 72.1077 10.1792 734 106.567 715.185 466.173
1921 0 75.2213 10.7018 805 106.216 714.949 464.688
1922 0 77.2542 11.5075 889 105.56 714.886 460.588
1923 0 82.1535 11.8193 971 103.629 715.103 463.98
1924 0 84.218 12.0046 1011 104.786 714.457 460.533
1925 0 87.1252 11.7188 1021 105.527 714.431 458.727
1926 0 90.1376 11.2384 1013 107.458 714.824 457.233
1927 0 91.1122 11.6999 1066 107.196 715.216 454.861
1928 0 96.1036 11.8622 1140 106.645 715.034 455.954
1929 0 99.1804 14.4988 1438 101.568 714.922 453.845
1930 0 101.161 12.4851 1263 106.405 714.868 451.694
1931 0 101.154 12.5848 1273 126.515 713.862 451.738
1932 0 107.133 11.6958 1253 112.54 714.572 448.904
1933 0 112.207 12.0402 1351 112.349 714.941 445.997
1934 1 61.0867 9.11819 557 112.984 714.528 473.533
1935 0 63.05 10.6741 673 111.189 714.27 471.875
1936 0 66.0906 11.3027 747 109.673 716.742 469.011
1937 0 67.1219 11.6504 782 108.779 716.886 469.978
1938 0 68.1085 12.5241 853 106.2 717.132 470.123
1939 0 69.2445 11.3078 783 110.701 717.376 466.607
1940 0 73.1303 11.8966 870 108.47 717.372 465.216
1941 0 75.0805 11.6009 871 109.517 716.656 466.781
1942 0 79.0831 13.3783 1058 105.517 716.775 464.173
1943 0 81.1577 12.4942 1014 108.61 716.81 462.811
1944 0 84.0696 13.0487 1097 107.928 717.017 461.838
1945 0 86.1427 12.932 1114 107.422 716.869 461.999
1946 0 88.1084 13.4947 1189 107.997 717.146 458.376
1947 0 89.1199 13.4538 1199 109.506 717.525 455.304
1948 0 92.2366 13.151 1213 110.311 717.674 455.068
1949 0 95.2855 13.2444 1262 111.317 716.813 453.197
1950 0 99.1197 13.1155 1300 112.789 716.576 449.821
1951 0 100.292 12.3839 1242 115.08 716.684 449.128
1952 0 104.255 13.1409 1370 113.776 716.751 447.499
1953 0 108.28 13.7698 1491 113.506 715.945 442.842
1954 0 113.246 14.2345 1612 112.161 716.053 442.07
1955 0 114.194 13.407 1531 114.869 716.412 439.366
1956 0 117.168 13.28 1556 116.537 714.955 437.675
1957 0 120.283 13.5597 1631 116.061 715.606 439.216
1958 1 72.108 12.1207 874 115.271 714.577 467.015
1959 0 73.2607 12.2166 895 115.436 714.69 465.108
1960 0 77.1376 12.5101 965 114.367 714.447 463.637
1961 0 78.1737 13.5084 1056 110.853 714.182 462.076
1962 0 82.1138 14.1511 1162 109.167 714.668 460.38
1963 0 83.0943 13.238 1100 113.07 714.476 459.889
1964 0 86.1696 12.7307 1097 114.013 714.681 458.191
1965 0 88.1428 13.047 1150 113.278 714.752 455.309
1966 0 90.1507 13.4996 1217 113.565 714.447 455.035
1967 0 93.1776 13.8016 1286 115.103 714.653 453.778
1968 0 96.1128 14.2541 1370 113.107 714.697 453.276
1969 0 98.1126 13.6272 1337 115.731 715.474 450.754
1970 0 103.12 13.9836 1442 114.166 714.977 450.476
1971 0 104.098 13.6314 1419 117.075 715.32 446.658
1972 0 107.085 12.7748 1368 120.306 714.944 446.481
1973 0 112.142 13.0103 1459 119.03 715.265 442.016
1974 0 114.154 12.5532 1433 121.19 715.327 438.087
1975 0 120.143 12.4768 1499 120.512 715.582 438.611
1976 1 67.0768 9.86928 662 120.263 716.813 464.435
1977 0 70.1229 10.4673 734 118.777 716.164 465.522
1978 0 73.1562 11.8787 869 117.663 716.35 463.696
1979 0 75.1221 12.6195 948 115.62 716.825 466.44
1980 0 78.171 13.0867 1023 114.33 715.54 459.296
1981 0 81.3452 13.289 1081 115.147 715.262 460.576
1982 0 84.4174 13.6346 1151 113.68 715.817 459.185
1983 0 84.2232 13.0605 1100 116.817 715.883 458.179
1984 0 88.2968 13.0356 1151 115.264 716.167 456.532
1985 0 90.2439 13.3749 1207 115.781 716.067 454.935
1986 0 93.3723 12.5305 1170 118.606 716.238 454.165
1987 0 96.3568 13.4292 1294 117.319 717.012 452.415
1988 0 100.2 13.7824 1381 116.552 715.646 450.642
1989 0 105.316 15.1353 1594 112.727 716.27 450.442
1990 0 107.408 14.4868 1556 115.805 716.661 446.802
1991 0 110.161 13.68 1507 117.778 716.22 445.676
1992 0 114.231 14.9609 1709 114.939 715.882 443.806
1993 0 117.22 14.4514 1694 116.185 715.926 441.912
1994 0 122.136 13.9434 1703 117.808 716.021 441.405
1995 1 61.0882 10.2966 629 117.981 715.817 468.529
1996 0 62.125 10.7364 667 119.774 716.559 461.954
1997 0 67.1053 12.458 836 113.889 715.977 461.915
1998 0 69.1783 10.9283 756 116.906 714.261 464.558
1999 0 72.0443 10.6323 766 117.889 714.212 461.687
2000 0 73.0372 11.1587 815 116.247 714.276 461.633
2001 0 77.0453 12.577 969 112.841 713.717 459.199
2002 0 78.1683 11.1426 871 116.556 713.928 458.937
2003 0 81.192 11.3681 923 117.241 714.237 455.985
2004 0 80.1151 9.59869 769 122.109 714.163 453.94
2005 0 85.1478 11.1218 947 116.846 714.442 455.774
2006 0 88.1438 12.0485 1062 108.313 715.139 458.124
2007 0 91.2155 11.6647 1064 110.239 715.346 453.469
2008 0 93.1564 11.9262 1111 110.231 715.299 453.657
2009 0 97.1499 11.7756 1144 110.767 714.994 452.767
2010 0 99.2652 11.4542 1137 112.13 714.835 451.936
2011 0 103.105 11.9102 1228 111.923 715.125 450.173
2012 0 104.225 11.715 1221 114.418 714.9 448.48
2013 0 105.162 12.1146 1274 116.337 715.029 439.142
2014 0 111.264 13.7421 1529 113.872 714.487 442.112
2015 0 109.141 11.957 1305 123.093 714.392 439.113
2016 0 111.154 12.2802 1365 122.727 714.404 437.641
2017 0 117.187 11.6566 1366 124.531 714.688 436.91
2018 0 116.22 10.8502 1261 128.305 715.113 433.483
2019 0 126.164 13.7123 1730 120.898 715.192 430.098
2020 1 73.1763 11.6841 855 117.35 715.247 457.149
2021 0 76.1772 11.3945 868 122.78 715.756 457.47
2022 0 78.0897 13.7406 1073 120.196 714.884 455
2023 0 80.1012 13.6702 1095 122.864 714.935 454.973
2024 0 82.1147 11.9467 981 128.415 714.758 456.049
2025 0 85.1778 12.7381 1085 127.322 714.703 455.916
2026 0 86.1633 12.8593 1108 128.461 714.768 453.355
2027 0 88.0664 13.5012 1189 126.845 714.62 453.272
2028 0 94.0782 13.8077 1299 125.778 714.579 451.423
2029 0 97.103 14.2529 1384 126.304 713.881 449.954
2030 0 98.0731 13.0209 1277 127.045 714.958 456.392
2031 0 102.135 13.1003 1338 128.888 716.848 454.016
2032 0 105.142 13.0205 1369 129.7 716.439 451.284
2033 0 107.142 13.3281 1428 130.22 716.57 446.436
2034 0 110.18 13.1693 1451 130.651 716.081 446.381
2035 0 113.098 12.5466 1419 133.413 715.61 444.569
2036 0 116.168 11.8793 1380 133.896 715.156 439.472
2037 0 120.254 12.7896 1538 133.358 714.967 432.631
2038 0 125.176 12.2708 1536 133.58 715.283 433.736
2039 0 133.244 13.7567 1833 129.02 714.426 429.479
2040 1 73.3086 12.4133 910 128.366 715.912 460.326
2041 0 74.2062 10.3091 765 126.953 715.924 456.929
2042 0 78.2304 10.4307 816 120.36 715.189 459.561
2043 0 79.0467 11.879 939 121.425 715.279 458.854
2044 0 84.1138 12.1978 1026 120.096 714.797 457.464
2045 0 83.2108 10.1069 841 125.253 715.184 455.377
2046 0 86.1516 10.4583 901 123.659 714.738 454.062
2047 0 89.2362 10.7355 958 124.386 714.485 452.577
2048 0 92.2457 10.5588 974 124.915 714.683 453.794
2049 0 94.348 11.0654 1044 126.778 714.483 449.882
2050 0 98.285 11.7108 1151 124.579 714.772 452.066
2051 0 101.275 11.6613 1181 126.307 715.585 448.955
2052 0 103.35 11.0014 1137 128.293 715.194 448.775
2053 0 106.29 12.2401 1301 127.297 715.214 444.673
2054 0 109.304 11.9666 1308 127.946 714.952 442.896
2055 0 114.3 12.5897 1439 126.188 714.578 440.229
2056 0 114.34 12.1568 1390 129.389 714.441 438.444
2057 0 119.277 12.6764 1512 127.276 714.424 440.267
2058 0 123.354 12.2818 1515 128.928 714.79 435.892
2059 0 127.453 12.436 1585 129.724 714.245 432.488
2060 0 132.396 12.9536 1715 128.968 714.321 432.703
2061 1 75.1308 11.0208 828 121.604 715.115 462.397
2062 0 77.0817 10.0802 777 124.274 714.49 464.214
2063 0 80.1111 11.147 893 122.722 714.311 462.634
2064 0 84.1922 11.4856 967 122.101 714.643 460.873
2065 0 86.2423 11.6648 1006 122.805 714.635 460.183
2066 0 89.1895 10.8645 969 125.94 714.656 457.258
2067 0 93.1955 10.419 971 126.788 715.045 458.038
2068 0 94.2573 11.4368 1078 127.812 714.692 450.896
2069 0 97.1656 11.4135 1109 129.608 714.95 451.202
2070 0 99.2717 11.0908 1101 131.007 714.229 451.203
2071 0 103.33 12.2036 1261 129.22 714.434 447.46
2072 0 107.337 11.7574 1262 130.862 714.855 446.498
2073 0 110.477 11.7491 1298 131.341 714.25 444.521
2074 0 112.315 10.9602 1231 133.56 714.163 445.69
2075 0 119.356 12.4837 1490 129.244 714.542 442.48
2076 1 64.2679 11.2031 720 122.49 714.289 469.703
2077 0 64.2283 11.7705 756 122.444 714.094 471.107
2078 0 67.1445 12.6444 849 120.537 714.095 469.009
2079 0 68.1818 12.144 828 122.435 714.588 466.992
2080 0 71.1974 12.4583 887 120.841 714.717 467.596
2081 0 74.1433 12.3545 916 121.162 714.088 467.078
2082 0 76.1417 11.9777 912 122.935 714.605 463.533
2083 0 78.1315 11.4422 894 124.786 714.433 462.261
2084 0 83.149 12.652 1052 119.775 714.939 463.548
2085 0 82.1923 12.8966 1060 122.627 714.984 459.53
2086 0 85.1304 11.8759 1011 125.61 715.305 457.891
2087 0 88.1748 11.2277 990 127.168 715.641 456.228
2088 0 91.1294 12.2024 1112 126.225 715.696 452.832
2089 0 90.1539 10.3601 934 134.512 715.444 449.859
2090 0 95.1796 11.1368 1060 130.192 715 454.291
2091 0 97.1474 10.7054 1040 134.387 714.883 448.783
2092 0 101.257 12.098 1225 132.928 715.115 447.548
2093 0 103.337 12.1835 1259 134.865 714.667 444.606
2094 0 106.376 11.685 1243 136.262 714.421 446.224
2095 0 110.423 12.2981 1358 135.064 714.951 444.574
2096 0 114.333 12.3936 1417 136.272 715.054 441.955
2097 1 62.202 11.2215 698 131.573 715.128 469.771
2098 0 63.2775 11.2836 714 137.704 714.846 468.937
2099 0 65.2872 12.0391 786 138.499 716.438 468.844
2100 0 66.2967 11.72 777 138.781 715.497 466.508
2101 0 68.3913 11.9606 818 140.039 715.742 464.011
2102 0 71.2188 12.3984 883 138.375 715.45 463.274
2103 0 72.1737 11.5693 835 140.605 715.909 464.659
2104 0 76.2011 12.782 974 137.908 715.997 460.577
2105 0 77.3104 12.7408 985 138.455 715.695 460.76
2106 0 79.2079 12.6124 999 138.568 714.791 459.118
2107 0 81.1514 12.4952 1014 138.464 714.993 456.69
2108 0 85.2103 13.543 1154 135.657 715.22 454.203
2109 0 85.2092 13.0854 1115 137.779 715.508 452.263
2110 0 90.2492 13.1303 1185 136.613 715.253 451.637
2111 0 89.1822 12.1437 1083 141.125 715.438 451.19
2112 0 95.1691 12.6617 1205 138.308 715.231 450.651
2113 0 98.1533 13.8763 1362 132.856 715.144 450.59
2114 0 100.296 12.832 1287 136.776 715.779 447.336
2115 0 101.282 12.8552 1302 137.988 715.59 444.753
2116 0 105.146 12.4969 1314 136.989 715.75 445.097
2117 0 106.215 13.1996 1402 136.458 715.083 442.203
2118 0 108.202 13.7336 1486 132.516 715.019 441.756
2119 0 113.106 13.3503 1510 132.258 715.429 440.723
2120 0 115.151 12.844 1479 134.067 715.431 439.223
2121 0 118.166 14.2089 1679 129.998 715.012 437.596
2122 0 120.127 13.4108 1611 132.374 714.312 434.109
2123 0 124.131 12.8734 1598 133.688 714.745 433.551
2124 0 129.173 13.0368 1684 132.999 714.766 431.736
2125 0 135.111 14.1662 1914 128.376 715.097 429.126
2126 0 139.111 13.3203 1853 131.223 714.889 425.995
2127 0 143.144 14.3702 2057 128.326 715.005 422.529
2128 0 148.141 13.0282 1930 131.697 714.823 423.097
2129 0 154.124 14.7543 2274 126.535 714.248 418.534
2130 0 159.185 13.9272 2217 128.983 714.775 413.579
2131 0 166.243 13.9434 2318 127.901 715.063 414.031
2132 0 171.117 14.5573 2491 127.246 714.642 410.307
2133 0 177.15 13.4914 2390 129.14 714.503 405.6
2134 1 95.1686 10.3501 985 128.262 715.294 447.856
2135 0 99.2361 11.7901 1170 126.041 714.623 443.058
2136 0 103.158 11.3709 1173 124.746 714.495 441.181
2137 0 105.046 11.2712 1184 125.226 714.461 439.904
2138 0 110.111 11.2886 1243 125.764 715.367 438.13
2139 0 110.164 11.5737 1275 127.551 714.871 435.265
2140 0 118.171 11.2295 1327 122.159 715.011 439.809
2141 0 121.275 11.544 1400 121.531 714.677 436.664
2142 0 127.286 12.2637 1561 118.605 714.761 435.332
2143 0 131.159 12.5039 1640 119.074 715.074 431.498
2144 0 136.222 13.0082 1772 118.841 715.012 428.156
2145 0 138.215 12.3938 1713 122.59 714.3 422.18
2146 0 143.263 12.0128 1721 124.467 715.009 423.4
2147 0 150.352 12.2978 1849 123.752 714.952 420.309
2148 0 156.371 12.95 2025 127.421 714.578 421.729
2149 0 161.292 13.2926 2144 125.466 715.037 419.39
2150 0 166.343 14.0072 2330 123.165 714.818 418.367
2151 0 172.418 13.2527 2285 124.672 715.138 415.926
2152 0 178.262 13.1829 2350 126.469 715.381 410.191
2153 0 182.429 13.0845 2387 127.96 714.832 408.967
2154 0 186.441 13.5163 2520 127.331 714.702 409.231
2155 0 194.597 14.0958 2743 127.209 714.458 404.829
2156 0 199.294 12.9607 2583 130.192 715.239 402.354
2157 0 207.365 14.1345 2931 127.145 714.509 396.091
2158 0 213.439 13.0248 2780 130.535 715.101 392.206
2159 0 221.37 14.0308 3106 128.179 715.114 387.808
2160 1 45.0506 9.30065 419 105.85 717.971 478.616
2161 0 46.0191 8.23571 379 103.863 717.142 473.879
2162 0 48.0547 10.4464 502 109.004 716.843 478.444
2163 0 48.0105 10.0186 481 110.644 717.505 477.486
2164 0 52.0836 11.5775 603 106.008 717.24 473.091
2165 0 53.054 11.6862 620 106.326 717.445 474.452
2166 0 54.0867 10.0579 544 110.93 715.862 475.814
2167 0 54.0787 10.3923 562 110.472 715.651 474.468
2168 0 57.0583 11.3393 647 108.063 715.558 474.119
2169 0 58.067 11.9 691 107.055 715.732 471.972
2170 0 59.0312 11.9937 708 101.333 716.301 475.027
2171 0 60.056 10.0906 606 104.635 714.188 475.619
2172 0 61.0326 9.69974 592 105.598 714.527 473.238
2173 0 60.0896 8.85344 532 106.306 715.229 476.222
2174 0 65.0601 9.62187 626 104.995 715.334 471.845
2175 0 66.0474 10.5833 699 103.152 716.197 471.1
2176 0 70.0664 12.2883 861 99.9965 717.02 467.508
2177 0 68.1442 9.3625 638 105.55 716.05 470.071
2178 0 69.0732 9.9894 690 106.101 715.271 464.651
2179 0 72.0857 7.85176 566 108.634 715.89 468.922
2180 0 76.0888 10.1986 776 104.727 716.081 464.732
2181 1 93.3288 14.2828 1333 88.1823 715.992 454.478
2182 0 86.1294 15.5696 1341 89.0321 715.505 464.33
2183 0 88.1415 15.4297 1360 89.7537 715.538 465.14
2184 0 90.1032 15.6487 1410 89.8979 715.537 461.535
2185 0 92.1134 14.3519 1322 93.4917 715.47 461.744
2186 0 96.2008 14.9167 1435 92.938 714.427 456.338
2187 1 59.4296 12.7378 757 95.6103 713.563 470.931
2188 0 59.1973 12.1796 721 99.1623 713.362 467.767
2189 0 61.1843 11.7514 719 100.307 713.983 470.683
2190 0 62.1611 13.2237 822 97.9112 713.094 471.83
2191 0 61.1059 12.241 748 102.114 713.071 473.206
2192 0 64.1905 13.4599 864 100.168 713.057 472.036
2193 0 67.1119 13.7531 923 99.1788 713.364 470.86
2194 0 68.1237 14.3416 977 98.9243 713.894 469.783
2195 0 69.1852 13.8903 961 99.025 714.007 472.44
2196 0 71.2086 15.2369 1085 98.4894 713.966 467.388
2197 0 74.1438 13.3929 993 103.508 714.775 465.098
2198 0 75.2141 14.4255 1085 100.117 714.512 466.516
2199 0 77.1611 14.6576 1131 100.7 713.945 466.796
2200 0 78.2314 14.112 1104 102.127 714.392 467.015
2201 0 79.1989 13.8765 1099 105.251 714.199 462.515
2202 0 81.2543 13.267 1078 107.157 713.101 462.181
2203 0 86.1324 15.6155 1345 101.708 714.047 462.045
2204 0 88.1739 14.392 1269 105.262 713.733 460.691
2205 0 88.1999 13.2653 1170 109.408 714.559 461.825
2206 0 93.1636 15.4674 1441 105.69 714.174 457.334
2207 0 94.097 14.1344 1330 109.281 714.362 456.092
2208 0 98.3259 13.0281 1281 112.795 714.895 454.484
2209 0 100.386 12.8205 1287 113.189 714.052 453.731
2210 0 104.119 13.619 1418 111.23 713.945 452.422
2211 1 61.1377 12.6436 773 111.966 714.128 473.127
2212 0 63.1103 12.7554 805 112.599 714.24 472.448
2213 0 65.2455 13.089 854 109.141 715.682 472.398
2214 0 67.2197 13.2848 893 110.496 714.873 471.054
2215 0 68.0666 13.2958 905 112.535 715.51 470.241
2216 0 68.1094 13.5958 926 113.446 715.089 472.063
2217 0 70.0505 13.0477 914 116.981 715.26 469.024
2218 0 72.0403 13.8534 998 115.59 716.242 467.282
2219 0 75.0794 14.2249 1068 114.845 715.639 466.996
2220 0 79.0707 13.5069 1068 116.184 715.813 465.026
2221 0 77.0792 12.5845 970 121.573 715.214 464.318
2222 0 81.1031 12.3053 998 122.826 716.308 462.437
2223 0 83.1067 13.1758 1095 122.148 715.218 461.552
2224 0 88.0741 14.3743 1266 120.106 715.754 459.954
2225 0 90.1002 14.6726 1322 121.542 716.259 458.051
2226 0 93.1137 14.3266 1334 121.933 716.516 457.858
2227 0 96.1574 14.2267 1368 122.574 716.026 457.069
2228 0 99.0812 14.7051 1457 122.763 715.848 455.22
2229 0 101.2 14.0415 1421 125.744 715.612 453.303
2230 0 104.11 14.7056 1531 125.025 715.27 450.186
2231 0 109.171 14.1247 1542 126.576 713.913 449.647
2232 0 112.243 13.6044 1527 127.065 713.927 449.864
2233 0 115.147 12.8705 1482 129.29 714.172 447.276
2234 0 117.216 12.6177 1479 129.826 715.051 442.051
2235 1 68.2984 10.6298 726 123.591 715.132 466.643
2236 0 70.2591 11.9557 840 119.53 715.31 467.446
2237 0 73.0869 12.2867 898 120.677 714.88 465.109
2238 0 76.097 11.4722 873 120.685 715.724 464.235
2239 0 80.1163 11.8453 949 118.562 715.505 464.301
2240 0 81.1008 11.5782 939 122.135 715.101 458.109
2241 0 82.1308 10.605 871 123.507 714.631 460.476
2242 0 85.1189 11.2901 961 121.021 714.809 459.4
2243 0 89.1034 11.8963 1060 120.276 715.224 458.2
2244 0 92.1214 12.4944 1151 120.084 714.718 456.133
2245 0 92.1214 12.5269 1154 158.322 713.708 456.069
2246 0 98.1926 12.3024 1208 119.516 714.831 454.513
2247 0 101.106 13.6787 1383 118.928 714.395 451.687
2248 0 104.099 12.2768 1278 121.876 714.337 451.558
2249 0 107.106 12.3709 1325 122.307 714.516 448.427
2250 0 112.131 14.0817 1579 125.806 715.948 451.702
2251 0 113.156 12.7258 1440 131.233 715.354 447.317
2252 0 117.153 13.1538 1541 130.401 715.391 447.653
2253 0 124.182 14.0037 1739 126.453 715.574 446.42
2254 0 128.207 15.0772 1933 122.447 715.117 441.989
2255 1 71.113 11.8825 845 122.589 715.088 469.84
2256 0 74.1436 13.0423 967 122.036 714.367 466.653
2257 0 74.2078 12.3841 919 125.511 715.178 467.575
2258 0 78.1614 13.9839 1093 126.133 715.006 467.601
2259 0 80.2327 11.9901 962 129.812 715.281 470.787
2260 0 82.2118 13.3192 1095 129.055 715.548 465.819
2261 0 86.1351 12.7939 1102 129.268 714.818 468.675
2262 0 86.1351 12.7706 1100 163.226 713.836 468.855
2263 0 90.18 12.4085 1119 134.466 713.711 466.662
2264 0 93.1594 12.7416 1187 137.141 713.938 465.644
2265 0 96.1577 12.8435 1235 137.08 712.96 465.463
2266 0 96.1577 12.8123 1232 163.205 711.955 465.394
2267 0 103.208 14.8632 1534 130.907 713.312 465.245
2268 0 105.161 13.4175 1411 136.792 712.557 465.639
2269 0 107.207 14.1129 1513 135.526 712.284 464.153
2270 0 112.139 13.6349 1529 135.478 712.273 463.075
2271 0 116.148 14.3265 1664 134.754 711.525 461.495
2272 0 119.207 14.2441 1698 131.677 712.229 456.929
2273 1 66.1034 11.4064 754 128.26 712.711 483.593
2274 0 69.1614 11.1478 771 129.681 712.681 483.268
2275 0 71.1135 12.009 854 130.591 712.526 480.445
2276 0 74.1774 12.4701 925 132.258 712.161 478.491
2277 0 77.1098 11.7106 903 132.897 711.597 480.626
2278 0 79.1458 12.3443 977 133.06 711.58 476.951
2279 0 82.1784 13.2516 1089 131.15 711.207 476.781
2280 0 85.1716 13.3143 1134 137.138 710.576 471.667
2281 0 88.2478 13.8587 1223 134.13 710.526 470.716
2282 0 91.161 12.9002 1176 136.159 710.638 471.452
2283 0 93.1216 13.5951 1266 133.451 709.895 471.046
2284 0 95.2116 13.3387 1270 135.571 709.264 467.83
2285 0 98.1768 13.1905 1295 136.52 709.253 464.152
2286 0 104.168 12.7198 1325 136.714 708.92 462.162
2287 0 106.192 13.5697 1441 134.378 709.201 459.42
2288 0 110.25 13.5148 1490 133.981 708.697 460.949
2289 1 60.158 11.5529 695 134.53 708.662 486.578
2290 0 61.0397 12.4018 757 131.416 710.058 483.711
2291 0 60.1094 10.5308 633 136.406 709.616 482.218
2292 0 65.1291 13.4195 874 133.195 710.13 485.509
2293 0 66.1426 12.4126 821 129.669 709.251 487.955
2294 0 68.1091 12.5828 857 128.134 710.069 487.046
2295 0 72.3915 12.5291 907 127.847 710.292 485.517
2296 0 72.106 11.9685 863 130.698 710.496 484.205
2297 0 75.175 13.0762 983 128.37 710.505 481.934
2298 0 79.2073 13.8876 1100 124.915 709.782 481.265
2299 0 82.1479 12.8549 1056 125.836 709.622 481.304
2300 0 83.2161 12.7499 1061 128.877 709.697 476.68
2301 0 83.2906 12.3663 1030 129.75 710.593 475.549
2302 0 89.2306 12.6414 1128 127.057 710.064 476.456
2303 0 89.1796 13.3102 1187 127.408 709.533 472.784
2304 0 94.2581 14.3754 1355 122.908 709.245 471.461
2305 0 95.3268 14.0149 1336 124.733 709.984 469.313
2306 0 98.246 12.4483 1223 128.265 709.617 469.725
2307 0 99.1579 12.0212 1192 129.118 709.574 467.778
2308 0 105.113 13.0336 1370 126.462 709.67 462.716
2309 0 109.208 13.4148 1465 125.448 709.262 462.083
2310 0 111.198 12.8599 1430 128.439 709.611 457.196
2311 1 65.104 12.4723 812 122.366 708.69 482.92
2312 0 64.1267 11.103 712 128.996 707.67 481.846
2313 0 67.053 12.2739 823 123.373 707.747 482.936
2314 0 71.2325 12.8733 917 118.857 708.537 481.554
2315 0 73.1741 13.0921 958 117.652 709.243 479.132
2316 0 75.1384 12.8829 968 118.621 709.094 478.466
2317 0 77.1776 12.7887 987 118.64 708.828 476.618
2318 0 80.2459 12.9228 1037 117.781 709.053 474.662
2319 0 80.086 11.3628 910 122.856 708.522 473.471
2320 0 85.1401 12.7555 1086 117.983 708.239 471.558
2321 0 86.1791 12.3812 1067 120.015 708.926 467.899
2322 0 89.3922 13.603 1216 116.416 709.285 466.555
2323 0 91.2175 11.6096 1059 121.755 709.704 464.378
2324 0 96.2402 14.0378 1351 115.801 708.93 462.079
2325 0 100.26 13.4451 1348 116.398 709.445 460.625
2326 0 101.229 13.1089 1327 117.546 709.171 458.795
2327 0 101.427 11.4565 1162 123.065 709.223 455.135
2328 0 108.213 12.309 1332 119.167 709.1 455.46
2329 0 113.215 12.4718 1412 117.487 709.054 451.632
2330 0 115.243 12.7383 1468 117.278 709.057 450.862
2331 1 63.2103 11.5804 732 121.586 709.034 475.393
2332 0 64.1555 12.158 780 121.271 708.813 477.017
2333 0 66.188 12.9026 854 117.879 709.203 473.29
2334 0 70.1793 11.4991 807 119.059 709.332 474.983
2335 0 73.1544 12.3301 902 117.399 709.091 472.31
2336 0 73.181 12.6399 925 116.883 709.349 471.344
2337 0 77.252 12.9576 1001 115.627 709.768 469.227
2338 0 80.2178 12.491 1002 116.471 709.466 469.051
2339 0 80.1278 11.5066 922 120.501 709.659 464.709
2340 0 88.2393 12.1375 1071 117.387 710.077 463.655
2341 0 89.3097 11.9696 1069 118.711 709.743 462.681
2342 0 94.1541 13.5204 1273 114.005 709.661 461.938
2343 0 95.2255 11.394 1085 120.229 709.805 459.947
2344 0 98.18 14.4938 1423 112.921 710.197 458.985
2345 0 102.327 12.2157 1250 118.047 709.524 455.846
2346 0 104.391 11.8209 1234 118.312 710.325 455.237
2347 0 109.246 12.4215 1357 115.544 709.835 456.189
2348 0 112.224 12.0919 1357 116.496 709.976 450.704
2349 0 116.243 11.6222 1351 115.942 710.788 450.635
2350 0 120.283 10.5252 1266 117.175 710.538 446.121
2351 0 126.232 13.2217 1669 114.382 710.43 443.505
2352 0 132.257 13.4889 1784 113.059 710.634 439.369
2353 1 68.1858 12.5246 854 113.837 711.547 468.549
2354 0 72.1734 13.9802 1009 110.143 711.583 468.135
2355 0 76.2991 14.5218 1108 107.958 711.706 466.777
2356 0 77.272 13.6531 1055 110.383 711.596 462.862
2357 0 79.3584 12.8405 1019 112.21 711.813 461.259
2358 0 83.389 14.1506 1180 107.803 712.288 460.706
2359 0 86.3941 14.4454 1248 107.901 713.146 458.255
2360 0 90.3562 13.9891 1264 108.424 712.692 457.158
2361 0 90.3487 14.0124 1266 109.541 713.186 454.931
2362 0 93.1791 12.5243 1167 113.572 712.593 454.4
2363 0 98.1911 13.545 1330 110.9 712.856 453.139
2364 0 100.342 13.9622 1401 111.075 713.326 450.163
2365 0 105.316 15.4012 1622 107.202 713.326 447.771
2366 0 108.164 14.9588 1618 108.956 713.118 445.807
2367 0 112.226 13.3748 1501 112.51 713.032 444.919
2368 0 115.246 12.5384 1445 115.226 712.342 441.906
2369 0 120.411 13.9605 1681 112.074 712.475 441.906
2370 0 125.122 13.7466 1720 112.118 713.01 442.934
2371 1 71.1334 10.5717 752 109.339 712.753 469.004
2372 0 75.1253 12.4459 935 105.145 712.755 467.099
2373 0 77.153 12.8317 990 105.093 712.616 464.801
2374 0 79.177 12.9709 1027 111.611 713.325 463.327
2375 0 83.1559 12.7231 1058 110.493 712.76 462.339
2376 0 87.1408 12.3019 1072 111.736 712.928 459.858
2377 0 88.1286 11.6875 1030 112.063 712.456 459.021
2378 0 91.1693 11.9119 1086 110.793 713.171 459.064
2379 0 95.0673 11.4761 1091 110.933 712.323 458.232
2380 0 102.204 13.4241 1372 106.976 711.902 454.032
2381 0 102.194 13.7875 1409 107.144 712.534 452.126
2382 0 107.233 12.5055 1341 109.007 712.181 452.915
2383 0 109.191 13.0322 1423 109.246 712.113 448.635
2384 0 112.346 12.0788 1357 111.13 712.99 447.858
2385 0 114.161 10.599 1210 114.069 713.126 448.969
2386 0 121.369 12.944 1571 109.299 712.752 444.588
2387 0 124.309 12.9677 1612 109.851 712.514 443.404
2388 0 126.199 12.2981 1552 112.634 712.383 440.556
2389 0 130.157 12.6924 1652 112.831 712.274 436.47
2390 0 135.204 11.6269 1572 113.593 712.716 435.641
2391 0 140.257 11.9851 1681 114.415 712.535 432.303
2392 1 78.0469 11.4931 897 108.751 713.18 465.569
2393 0 79.0834 12.5437 992 107.411 712.171 463.236
2394 0 83.0504 12.944 1075 106.833 712.542 464.412
2395 0 84.1278 12.802 1077 107.846 712.432 461.853
2396 0 85.1506 10.8983 928 113.151 712.974 461.919
2397 0 87.1857 11.7221 1022 113.181 712.637 459.774
2398 0 92.2246 12.4804 1151 120.108 713.175 456.944
2399 0 95.1877 12.5226 1192 120.143 712.327 458.664
2400 0 100.302 12.6917 1273 120.159 712.654 457.807
2401 0 101.303 14.1358 1432 119.812 712.658 453.496
2402 0 104.325 13.6401 1423 121.694 712.672 450.451
2403 0 109.129 13.1313 1433 123.154 713.135 450.445
2404 0 112.149 13.4999 1514 122.918 712.598 448.842
2405 0 115.169 13.6756 1575 122.818 713.244 445.864
2406 0 120.3 13.9152 1674 121.843 713.103 444.171
2407 0 122.189 13.0372 1593 120.706 713.246 442.921
2408 0 125.189 12.0139 1504 123.134 713.168 440.121
2409 1 72.1562 11.5167 831 116.196 713.866 470.131
2410 0 73.2152 10.8038 791 119.579 714.255 466.685
2411 0 79.19 12.5521 994 113.363 713.242 466.177
2412 0 80.0532 13.3786 1071 112.977 712.866 464.359
2413 0 83.1078 12.3815 1029 116.427 713.205 462.334
2414 0 84.1722 12.0348 1013 117.841 713.336 463.156
2415 0 88.205 12.743 1124 116.109 713.554 460.109
2416 0 91.1336 13.2662 1209 115.692 713.68 457.671
2417 0 93.1604 13.4499 1253 114.69 712.864 455.339
2418 0 98.1985 12.2711 1205 118.417 712.975 453.856
2419 0 100.256 12.498 1253 119.124 713.556 452.094
2420 0 105.223 12.1932 1283 120.01 713.663 449.963
2421 0 107.301 12.0968 1298 119.837 713.352 447.051
2422 0 113.256 14.0214 1588 114.95 713.4 449.421
2423 1 64.1751 9.69223 622 120.936 713.413 471.785
2424 0 66.1107 12.1765 805 117.258 714.087 467.831
2425 0 69.0603 12.1633 840 116.456 714.723 467.863
2426 0 70.041 11.993 840 115.995 715.336 467.051
2427 0 71.0213 12.5315 890 115.857 715.145 466.115
2428 0 74.0797 12.743 944 114.875 714.607 464.108
2429 0 76.168 12.4856 951 115.33 714.312 462.816
2430 0 79.1519 12.8992 1021 113.662 714.352 461.106
2431 0 81.0441 13.6839 1109 112.196 714.253 458.401
2432 0 82.1022 12.2652 1007 117.286 714.488 457.618
2433 0 83.1913 13.6312 1134 114.346 713.924 458.376
2434 0 87.1308 13.5888 1184 114.236 713.443 454.903
2435 0 90.1142 12.2733 1106 117.92 713.441 452.292
2436 0 90.2074 12.6375 1140 120.411 714.405 449.928
2437 0 93.1096 12.437 1158 121.413 714.151 445.726
2438 0 95.1412 12.7495 1213 118.764 713.859 448.703
2439 0 100.174 11.6996 1172 121.815 714.265 446.853
2440 0 99.2601 13.4394 1334 119.836 713.846 444.026
2441 0 102.239 11.2286 1148 125.999 714.261 442.747
2442 0 109.276 11.2285 1227 125.046 714.581 442.1
2443 0 112.236 12.9905 1458 121.318 714.835 437.689
2444 1 64.1262 11.3058 725 121.367 714.779 463.302
2445 0 66.2321 10.735 711 124 714.214 463.675
2446 0 68.1512 12.4282 847 118.294 714.805 462.481
2447 0 71.0852 12.2248 869 116.067 714.152 464.405
2448 0 73.0931 13.0108 951 116.058 713.719 463.026
2449 0 76.0608 12.6478 962 117.196 713.224 461.807
2450 0 81.107 14.0802 1142 111.865 713.594 460.562
2451 0 81.0644 14.0135 1136 113.566 713.598 459.166
2452 0 83.1304 12.5345 1042 119.272 712.806 457.019
2453 0 87.0444 13.0393 1135 118.376 713.185 457.087
2454 0 88.1451 13.1488 1159 119.542 713.332 454.441
2455 0 92.1431 14.1193 1301 116.307 714.531 450.501
2456 0 96.0567 13.7939 1325 116.922 713.805 452.38
2457 0 99.1699 13.0887 1298 119.495 713.781 448.185
2458 0 102.092 14.1147 1441 117.39 714.307 446.545
2459 0 105.131 12.6603 1331 121.793 713.795 444.548
2460 0 106.194 13.513 1435 122.193 713.291 444.459
2461 0 110.19 13.5765 1496 121.114 713.253 441.997
2462 0 115.179 13.7438 1583 120.367 714.056 440.999
2463 0 115.125 14.3843 1656 119.727 714.395 439.33
2464 0 119.134 13.7912 1643 120.509 713.721 438.921
2465 0 125.118 14.0028 1752 118.876 713.471 438.371
2466 0 131.22 13.9536 1831 118.198 714.4 432.727
2467 0 135.218 13.8444 1872 118.185 714.029 431.664
2468 1 77.1736 11.4288 882 116.89 714.263 459.449
2469 0 79.1571 11.2435 890 114.958 715.196 456.999
2470 0 80.3274 11.8515 952 116.588 714.108 455.113
2471 0 84.1093 10.8549 913 119.561 714.22 454.858
2472 0 85.0945 11.6694 993 116.179 714.369 450.813
2473 0 90.2415 12.7879 1154 112.875 714.395 451.657
2474 0 90.4683 10.1804 921 119.055 714.085 448.319
2475 0 93.1828 11.9013 1109 116.063 713.92 444.148
2476 0 97.2408 11.5589 1124 116.294 714.25 444.388
2477 0 99.3821 11.8834 1181 115.747 714.555 445.091
2478 0 103.285 12.7318 1315 113.852 714.529 443.271
2479 0 106.227 12.7558 1355 113.464 714.749 444.413
2480 0 111.152 11.8486 1317 115.48 714.499 442.789
2481 0 116.166 13.4549 1563 111.374 714.378 441.09
2482 0 118.066 12.4253 1467 114.915 714.779 438.108
2483 0 120.116 11.722 1408 116.805 714.518 437.789
2484 0 125.226 12.5533 1572 114.837 713.688 436.632
2485 0 130.172 13.244 1724 112.437 714.762 431.908
2486 0 134.265 14.1511 1900 109.423 714.509 428.673
2487 0 139.247 14.8728 2071 107.891 714.508 426.369
2488 0 144.196 12.8991 1860 111.251 714.506 424.542
2489 0 148.233 13.6272 2020 110.734 714.561 421.072
2490 0 153.247 13.3184 2041 111.987 714.822 419.385
2491 0 158.394 13.8704 2197 111.071 715.161 417.457
2492 0 161.306 13.9425 2249 110.828 715.064 419.178
2493 0 166.224 13.163 2188 113.846 714.76 415.853
2494 0 171.358 13.6322 2336 113.829 714.261 410.479
2495 0 177.228 13.113 2324 114.898 713.834 405.098
2496 0 183.244 14.1832 2599 112.472 713.96 404.024
2497 0 189.274 13.7843 2609 114.262 713.554 405.878
2498 0 194.174 12.5455 2436 118.782 713.317 397.445
2499 0 200.365 13.1011 2625 117.574 713.11 400.076
2500 0 206.398 13.1203 2708 117.507 713.217 397.58
2501 0 212.366 12.8269 2724 119.369 713.296 394.014
2502 0 220.633 12.3871 2733 121.801 713.225 383.832
2503 0 229.573 13.2856 3050 121.59 713.091 384.37
2504 0 238.693 14.7093 3511 120.539 713.168 376.48
2505 1 51.1677 10.4363 534 106.169 713.159 473.142
2506 0 52.1633 10.5438 550 103.44 713.682 472.144
2507 0 55.0747 11.0577 609 101.002 714.218 470.25
2508 0 56.0215 9.81766 550 105.333 715.449 471.873
2509 0 58.0197 10.5137 610 106.661 715.498 467.418
2510 0 59.0805 11.0189 651 106.763 715.089 467.568
2511 0 62.0475 11.0722 687 106.431 715.432 468.499
2512 0 61.0538 10.286 628 111.153 715.164 464.56
2513 0 68.0531 11.2412 765 108.424 714.626 466.918
2514 0 68.0426 11.9484 813 110.021 715.054 464.586
2515 0 69.0512 10.094 697 114.785 715.274 463.142
2516 0 72.0553 10.9083 786 119.547 714.978 462.841
2517 0 76.1007 11.5373 878 117.482 714.631 466.407
2518 0 79.1189 12.4117 982 116.696 714.981 463.154
2519 0 81.1286 11.7961 957 118.676 715.024 462.324
2520 0 85.1816 12.4323 1059 116.684 714.952 462.238
2521 0 86.1198 12.3897 1067 118.677 715.102 459.171
2522 0 88.1157 11.9615 1054 118.35 714.623 460.582
2523 0 90.2214 11.8043 1065 121.611 715.557 457.71
2524 0 95.4734 12.3699 1181 120.414 713.92 458.54
2525 0 96.4854 12.4786 1204 119.501 714.409 457.425
2526 0 99.3651 12.9925 1291 118.428 714.433 455.332
2527 0 100.65 11.2965 1137 121.98 714.668 457.258
2528 1 57.1621 12.8582 735 118.996 714.491 472.039
2529 0 58.1335 10.9747 638 122.592 714.776 474.502
2530 0 66.3034 16.0173 1062 105.875 714.898 467.095
2531 0 61.1778 12.8641 787 116.902 714.03 462.846
2532 0 64.3138 11.2107 721 120.961 714.451 462.316
2533 0 66.1982 11.6166 769 123.437 715.252 469.012
2534 0 67.223 11.9156 801 120.074 714.665 466.176
2535 0 69.3033 11.8753 823 122.478 714.476 461.314
2536 0 73.24 12.0016 879 120.458 715.678 463.078
2537 0 72.2278 11.2837 815 124.708 715.265 461.62
2538 0 76.3085 12.8033 977 120.011 715.106 463.212
2539 0 77.302 10.9441 846 126.721 714.845 460.022
2540 0 81.2837 13.1638 1070 120.146 714.536 460.455
2541 0 82.1528 14.5461 1195 118.528 714.684 459.158
2542 0 85.2498 13.4898 1150 121.61 714.753 459.261
2543 0 86.2148 13.2924 1146 123.12 714.546 457.832
2544 0 90.1738 14.2059 1281 121.254 714.843 455.785
2545 0 91.2701 13.2135 1206 123.692 715.758 457.168
2546 0 94.3693 14.2207 1342 123.145 715.515 452.866
2547 0 96.3533 13.8449 1334 124.325 715.31 452.494
2548 0 97.449 13.2993 1296 127.442 715.494 449.412
2549 0 103.339 13.9444 1441 125.122 715.926 447.841
2550 0 105.313 13.5501 1427 126.896 715.551 443.733
2551 0 109.286 15.0981 1650 121.582 715.188 443.872
2552 0 113.413 14.9366 1694 121.144 715.69 443.697
2553 1 63.2512 11.7942 746 120.617 715.828 467.323
2554 0 65.1401 13.7089 893 117.207 715.766 464.188
2555 0 65.0958 12.1667 792 122.343 714.763 465.003
2556 0 68.087 12.3665 842 120.4 715.461 466.468
2557 0 68.087 12.3078 838 150.683 715.471 466.346
2558 0 74.1689 12.6738 940 119.051 714.754 465.199
2559 0 76.2002 12.769 973 119.429 714.21 461.029
2560 0 79.2874 12.8015 1015 119.533 714.527 459.271
2561 0 82.3123 13.8375 1139 117.024 715.146 457.255
2562 0 83.3889 13.3591 1114 118.612 714.777 456.777
2563 0 86.2994 13.3257 1150 119.31 714.583 454.202
2564 0 89.355 13.3736 1195 117.944 714.811 454.961
2565 0 92.2838 13.361 1233 117.157 715.315 455.232
2566 0 93.3177 13.4058 1251 119.393 714.721 448.303
2567 0 96.2613 13.079 1259 119.272 714.722 449.154
2568 0 99.3514 12.6923 1261 119.776 714.385 450.346
2569 0 102.329 12.8898 1319 120.455 714.482 447.098
2570 0 105.287 13.1735 1387 119.479 714.747 444.022
2571 0 105.199 12.7282 1339 121.831 714.532 442.801
2572 0 109.17 12.9156 1410 120.728 715.033 443.345
2573 0 115.409 14.0543 1622 116.669 715.343 440.216
2574 0 118.429 13.1471 1557 118.849 715.469 438.986
2575 0 123.331 13.0057 1604 118.6 715.372 435.786
2576 1 70.1776 11.4567 804 113.546 716.054 461.1
2577 0 73.1611 11.8369 866 111.954 715.807 461.225
2578 0 74.1705 12.1072 898 109.077 714.864 461.507
2579 0 77.1357 12.5364 967 108.61 715.076 458.938
2580 0 80.1234 12.5432 1005 108.581 714.609 459.334
2581 0 81.1702 12.3691 1004 111.727 715.102 458.006
2582 0 86.1499 13.0122 1121 109.319 713.996 454.422
2583 0 86.1515 13.012 1121 146.716 713.007 454.393
2584 0 91.18 12.7879 1166 112.435 714.991 453.084
2585 0 93.1815 12.9532 1207 112.249 714.321 452.801
2586 0 97.1682 12.8952 1253 113.083 714.279 448.745
2587 0 101.195 13.4493 1361 112.152 714.668 447.932
2588 0 102.22 13.5395 1384 113.497 714.976 448.397
2589 0 106.43 13.8026 1469 114.18 714.492 445.271
2590 0 109.227 13.861 1514 115.863 714.571 443.551
2591 0 112.13 14.5634 1633 114.291 714.647 444.895
2592 0 114.29 14.2095 1624 117.14 714.105 441.388
2593 0 118.194 14.0955 1666 117.308 714.647 440.307
2594 0 121.26 14.3576 1741 118.071 714.092 435.878
2595 0 125.22 14.0473 1759 119.14 714.43 435.549
2596 0 132.237 18.7088 2474 107.801 714.27 427.82
2597 0 133.322 14.3112 1908 119.11 715.169 430.437
2598 1 75.2581 11.6931 880 112.8 715.52 462.553
2599 0 79.2068 12.6757 1004 111.607 716.074 460.095
2600 0 81.1893 13.2283 1074 111.674 715.919 458.607
2601 0 84.2162 12.2779 1034 113.707 716.585 459.22
2602 0 85.338 13.1829 1125 113.62 715.634 457.311
2603 0 88.4843 12.7706 1130 114.221 716.222 457.378
2604 0 90.3435 12.7181 1149 115.565 716.09 451.892
2605 0 94.3148 12.2144 1152 115.849 716.439 451.714
2606 0 96.2618 12.0297 1158 116.496 715.895 451.769
2607 0 99.2484 12.1211 1203 116.693 716.213 449.689
2608 0 103.414 13.0737 1352 114.71 716.189 448.655
2609 0 109.331 13.3539 1460 115.173 716.588 445.281
2610 0 107.292 14.0085 1503 115.13 716.796 443.478
2611 0 112.277 15.0788 1693 112.221 716.42 442.328
2612 0 115.305 13.2605 1529 117.549 715.668 442.504
2613 0 117.376 13.6314 1600 117.525 716.097 436.212
2614 0 122.357 13.3952 1639 117.728 716.123 435.966
2615 0 127.577 14.1091 1800 116.479 715.909 434.561
2616 0 132.473 13.5726 1798 117.265 716.265 433.988
2617 0 136.287 13.8898 1893 115.671 716.354 431.541
2618 0 142.41 13.9456 1986 115.474 715.789 430.326
2619 0 147.402 14.5113 2139 114.257 715.809 428.632
2620 0 150.306 14.0513 2112 114.159 715.456 426.439
2621 0 155.378 13.3803 2079 116.985 715.289 421.713
2622 1 90.202 12.2059 1101 113.961 715.877 456.893
2623 0 92.2812 12.061 1113 113.576 715.54 457.311
2624 0 94.3247 12.8174 1209 112.637 715.824 453.648
2625 0 97.4906 13.1602 1283 111.896 715.869 451.358
2626 0 101.47 14.0731 1428 111.461 715.308 449.504
2627 0 103.339 14.1185 1459 111.548 715.589 446.465
2628 0 106.308 13.903 1478 111.654 715.585 446.34
2629 0 108.337 13.1349 1423 114.365 715.449 445.273
2630 0 115.31 13.1906 1521 112.386 715.596 443.346
2631 0 121.202 13.5889 1647 110.911 715.23 439.702
2632 0 123.141 12.9608 1596 110.306 714.972 444.29
2633 0 130.14 13.8543 1803 108.042 714.471 439.332
2634 0 133.197 12.733 1696 110.667 714.307 436.511
2635 0 139.342 12.5016 1742 111.363 713.724 432.456
2636 0 147.429 13.2945 1960 108.718 713.878 431.876
2637 1 83.1686 10.8454 902 105.739 713.574 465.003
2638 0 86.1582 11.3396 977 106.319 713.576 461.128
2639 0 88.0531 11.936 1051 104.871 713.129 455.85
2640 0 90.0849 12.244 1103 105.952 713.089 451.793
2641 0 94.0714 11.6932 1100 107.948 713.045 452.434
2642 0 98.206 13.767 1352 105.195 713.675 456.856
2643 0 102.149 13.7545 1405 106.312 712.804 451.638
2644 0 103.186 13.1316 1355 107.686 712.804 451.064
2645 0 106.108 13.2507 1406 108.556 713.174 447.378
2646 0 111.077 13.036 1448 108.615 712.954 445.706
2647 0 115.116 13.3778 1540 107.135 712.984 446.447
2648 0 120.114 14.1865 1704 105.406 712.812 442.241
2649 0 120.173 12.9064 1551 109.409 713.024 439.259
2650 0 124.117 12.883 1599 109.938 712.756 439.39
2651 0 129.173 14.0354 1813 108.106 713.033 437.796
2652 0 134.272 15.409 2069 106.201 713.162 436.197
2653 0 135.403 13.2346 1792 114.493 712.161 427.981
2654 0 143.36 14.0694 2017 111.736 712.532 428.199
2655 1 80.0722 11.1899 896 113.261 713.144 458.625
2656 0 83.1514 12.6396 1051 109.842 712.403 456.992
2657 0 85.17 12.1757 1037 111.1 712.32 456.557
2658 0 88.2244 12.3209 1087 112.679 712.994 457.06
2659 0 92.0554 11.9493 1100 111.594 712.045 454.118
2660 0 93.1303 12.5094 1165 110.306 712.1 453.713
2661 0 94.1034 11.4874 1081 114.149 711.975 451.481
2662 0 97.1322 12.2513 1190 113.231 712.864 450.713
2663 0 102.155 12.0601 1232 113.53 713.458 447.731
2664 0 104.187 11.8344 1233 115.097 712.636 442.45
2665 0 110.303 12.3115 1358 113.015 713.028 442.448
2666 0 109.162 11.3318 1237 116.851 712.761 439.2
2667 0 118.25 13.5053 1597 110.636 712.699 438.87
2668 0 119.242 12.2524 1461 114.62 712.502 434.268
2669 0 124.325 11.9204 1482 114.163 712.415 434.074
2670 0 129.228 14.0526 1816 109.03 713.099 429.969
2671 0 134.198 11.7587 1578 113.794 712.48 427.06
2672 0 144.211 13.404 1933 108.57 712.523 426.98
2673 0 147.24 13.04 1920 109.792 713.164 427.342
2674 0 154.388 13.1941 2037 110.005 712.526 424.732
2675 0 157.234 12.7898 2011 112.067 712.464 421.318
2676 0 162.507 13.8148 2245 110.598 712.776 416.597
2677 0 162.534 13.7509 2235 160.193 713.782 416.473
2678 1 175.328 13.951 2446 111.228 712.678 414.09
2679 0 179.246 12.653 2268 113.261 712.858 415.88
2680 0 185.299 12.9574 2401 114.585 713.163 408.023
2681 1 107.323 11.6564 1251 113.127 712.835 442.126
2682 0 112.329 13.6563 1534 109.044 712.847 443.622
2683 0 116.234 13.9546 1622 106.773 713.341 442.8
2684 0 120.112 13.9953 1681 108.371 713.957 439.305
2685 0 121.211 12.8949 1563 112.545 712.306 437.038
2686 0 125.241 13.0069 1629 113.107 712.604 438.459
2687 0 131.249 12.7544 1674 114.664 712.269 433.732
2688 0 134.388 13.5652 1823 113.934 712.534 431.642
2689 0 137.222 12.7239 1746 116.208 712.865 429.94
2690 0 143.243 13.9413 1997 113.652 712.875 426.307
2691 0 146.312 13.0885 1915 116.584 712.599 423.133
2692 0 151.456 12.492 1892 117.823 713.221 421.644
2693 0 158.196 13.4833 2133 115.482 712.878 417.138
2694 0 162.273 12.4173 2015 118.983 713.141 416.431
2695 0 166.51 12.4737 2077 119.562 712.584 415.964
2696 0 172.343 12.8581 2216 120.964 712.661 407.558
2697 0 178.328 13.077 2332 120.873 713.141 404.878
2698 0 184.401 12.6626 2335 121.168 712.89 407.057
2699 0 192.432 14.1141 2716 119.075 713.07 399.048
2700 0 195.422 12.8491 2511 123.5 713.079 396.868
2701 0 203.546 13.4417 2736 121.816 712.489 394.913
2702 0 211.39 13.0186 2752 122.4 712.623 390.061
2703 0 219.466 14.0386 3081 119.837 712.664 385.927
2704 0 226.446 14.9925 3395 118.26 712.414 380.129
2705 1 52.1847 9.48555 495 97.5434 713.095 473.265
2706 0 54.1205 9.53428 516 97.031 712.882 473.116
2707 0 56.0646 11.237 630 98.9524 711.954 476.144
2708 0 58.0656 10.8498 630 104.381 711.197 476.176
2709 0 58.0212 10.8581 630 105.924 710.97 475.684
2710 0 62.0457 12.7325 790 102.248 711.111 472.161
2711 0 62.1713 11.3557 706 106.263 711.83 475.161
2712 0 64.1127 10.5283 675 108.724 711.59 474.11
2713 0 66.2738 12.3427 818 106.405 711.512 473.17
2714 0 67.0921 11.3277 760 111.193 711.109 470.597
2715 0 69.137 10.3273 714 115.319 711.212 469.699
2716 0 71.0879 11.113 790 114.381 711.63 467.457
2717 0 75.2606 11.0283 830 115.242 711.957 467.845
2718 0 78.2602 12.0495 943 113.112 711.822 467.864
2719 0 79.2369 12.267 972 114.793 712.05 465.457
2720 0 81.2057 11.083 900 118.647 711.826 463.506
2721 0 84.1932 11.8774 1000 116.395 712.04 464.263
2722 0 88.3767 12.2204 1080 116.682 711.908 462.563
2723 0 90.351 12.1747 1100 118.022 712.595 460.706
2724 0 93.1949 13.7669 1283 115.042 712.869 459.285
2725 0 94.2709 12.5171 1180 118.69 712.903 459.347
2726 0 95.1956 13.0573 1243 117.854 712.88 457.373
2727 0 97.3164 14.0161 1364 116.618 712.987 452.991
2728 0 103.354 14.5229 1501 114.266 713.35 450.931
2729 0 108.298 16.5469 1792 108.308 713.428 448.859
2730 0 105.349 11.4856 1210 123.237 714.196 451.755
2731 0 110.479 13.5229 1494 117.09 714.531 448.361
2732 0 119.356 17.0582 2036 106.056 713.963 441.53
2733 0 120.558 15.2707 1841 111.454 714.126 442.032
2734 0 121.595 14.5976 1775 114.117 714.124 442.211
2735 0 124.635 14.4822 1805 113.94 713.907 443.278
2736 0 125.494 13.5943 1706 117.317 713.816 438.721
2737 1 73.3258 12.2194 896 114.138 714.09 466.442
2738 0 73.0858 12.109 885 115.017 713.418 467.319
2739 0 78.1175 13.0189 1017 107.601 713.497 468.634
2740 0 77.1072 13.1635 1015 109.496 714.273 465.952
2741 0 81.1623 12.937 1050 109.622 714.23 463.486
2742 0 82.1655 13.5215 1111 108.234 713.84 462.486
2743 0 86.1188 14.3174 1233 104.513 714.101 462.963
2744 0 87.1339 13.4965 1176 106.605 714.405 461.225
2745 0 89.128 13.1272 1170 107.051 714.881 460.883
2746 0 89.1285 12.3642 1102 109.995 714.956 458.775
2747 0 93.1303 13.1429 1224 108.289 714.61 457.289
2748 0 94.1504 12.4588 1173 110.708 715.117 455.852
2749 0 97.1251 13.5083 1312 108.57 715.149 454.829
2750 0 98.1727 13.4457 1320 109.484 715.132 452.179
2751 0 103.177 13.3945 1382 108.823 715.194 452.234
2752 0 105.161 14.0261 1475 106.94 715.899 452.278
2753 0 107.182 14.3308 1536 106.427 715.031 448.62
2754 0 110.21 15.5884 1718 104.633 715.601 446.324
2755 0 113.274 15.5199 1758 106.047 715.549 445.915
2756 0 116.257 14.8636 1728 107.925 715.076 444.968
2757 0 120.381 15.0438 1811 108.136 715.006 442.463
2758 0 123.361 14.3968 1776 109.969 715.544 442.248
2759 0 123.343 14.1556 1746 110.053 715.856 433.47
2760 0 129.124 14.9391 1929 108.259 714.57 431.751
2761 0 131.414 13.5222 1777 111.531 714.46 429.171
2762 0 137.438 14.4428 1985 107.975 714.958 430.329
2763 1 71.1887 11.9963 854 103.436 714.639 459.132
2764 0 75.2727 11.5713 871 104.78 713.944 462.412
2765 0 79.0602 13.787 1090 101.814 713.925 464.347
2766 0 81.0758 14.7146 1193 99.8977 713.773 461.365
2767 0 82.0763 14.1454 1161 102.896 713.469 459.637
2768 0 84.0886 14.7939 1244 101.207 713.939 460.457
2769 0 87.071 14.3217 1247 103.243 713.865 457.467
2770 0 90.1086 13.5836 1224 102.446 714.926 456.064
2771 0 92.1165 13.1247 1209 103.118 714.832 453.237
2772 0 94.246 13.4117 1264 103.366 714.548 448.974
2773 0 95.0808 12.6208 1200 106.234 714.711 449.918
2774 0 99.1246 13.0139 1290 104.136 714.808 449.859
2775 0 103.083 15.3469 1582 99.6157 715.122 446.41
2776 0 105.087 13.7601 1446 104.789 714.824 445.616
2777 0 105.142 13.6672 1437 107.222 714.797 440.76
2778 0 109.054 13.021 1420 107.698 714.634 442.458
2779 0 113.171 13.4398 1521 108.186 714.374 441.29
2780 0 119.062 15.3617 1829 106.021 714.622 437.211
2781 0 123.199 14.1965 1749 108.253 714.005 436.838
2782 0 126.164 14.4732 1826 108.058 713.986 433.674
2783 0 130.195 14.6627 1909 107.653 713.961 433.539
2784 0 135.368 14.4569 1957 107.404 713.912 428.063
2785 1 75.1741 11.8259 889 112.224 714.264 455.986
2786 0 76.4374 13.0826 1000 111.112 714.422 454.384
2787 0 80.486 12.2879 989 112.881 714.811 453.371
2788 0 83.3342 12.7559 1063 112.421 714.299 452.461
2789 0 87.3324 13.8093 1206 109.164 714.353 452.643
2790 0 88.1601 12.103 1067 109.446 714.809 452.855
2791 0 89.2955 12.901 1152 109.304 714.315 452.005
2792 0 93.2536 12.0531 1124 113.107 714.141 449.973
2793 0 95.101 12.5656 1195 114.458 713.649 449.492
2794 0 100.143 13.3609 1338 112.19 713.923 446.951
2795 0 101.147 12.5757 1272 115.404 713.63 443.645
2796 0 106.155 14.1209 1499 110.874 714.073 443.105
2797 0 109.486 14.3855 1575 110.818 713.998 441.75
2798 0 111.246 13.3398 1484 114.289 713.861 436.074
2799 0 111.267 14.0563 1564 114.065 713.487 433.542
2800 0 121.259 14.9844 1817 109.161 714.359 438.264
2801 0 124.382 15.1309 1882 109.963 714.287 435.305
2802 0 130.29 14.2221 1853 112.737 713.748 430.634
2803 0 132.483 14.432 1912 114.494 712.944 426.367
2804 0 138.28 13.6969 1894 115.115 713.407 428.613
2805 0 141.497 13.2441 1874 117.139 713.257 424.717
2806 1 82.1889 10.6097 872 114.859 713.677 454.782
2807 0 87.3791 12.8292 1121 114.217 714.383 455.409
2808 0 91.3056 12.7265 1162 113.901 713.773 452.21
2809 0 91.1328 13.6614 1245 112.251 713.366 451.453
2810 0 92.1459 13.0011 1198 113.424 713.411 448.27
2811 0 96.0895 12.0409 1157 114.706 712.973 447.301
2812 0 100.117 13.6541 1367 113.774 713.05 445.138
2813 0 104.348 13.1292 1370 114.965 713.364 443.688
2814 0 107.209 12.6575 1357 116.162 712.939 443.167
2815 0 107.318 13.651 1465 114.894 713.42 438.127
2816 0 112.242 13.7738 1546 114.539 713.707 436.347
2817 0 113.305 12.9032 1462 117.438 712.924 434.716
2818 0 120.223 12.6266 1518 118.213 713.476 429.546
2819 0 126.264 12.9015 1629 116.824 713.127 431.033
2820 0 130.358 13.0794 1705 118.222 713.165 428.961
2821 0 135.441 13.1348 1779 118.7 713.334 425.123
2822 0 142.4 12.9635 1846 117.715 713.362 427.976
2823 0 148.339 12.3906 1838 118.569 713.262 423.294
2824 1 88.1904 11.736 1035 105.991 713.888 455.684
2825 0 89.15 9.63544 859 109.932 713.515 456.325
2826 0 94.1595 10.6309 1001 108.551 714.695 455.098
2827 0 97.178 11.7105 1138 106.222 714.604 454.174
2828 0 100.095 12.2384 1225 105.649 714.442 454.499
2829 0 104.154 12.2511 1276 107.049 714.405 449.14
2830 0 106.173 12.1405 1289 108.106 714.038 449.812
2831 0 107.074 12.3372 1321 108.702 713.986 448.979
2832 0 113.194 12.6331 1430 108.862 713.231 447.3
2833 0 115.073 12.2792 1413 109.698 712.462 442.152
2834 0 119.145 12.3631 1473 110.348 712.899 443.165
2835 0 126.099 13.2277 1668 108.417 713.058 441.743
2836 0 128.127 12.1832 1561 112.297 712.886 437.816
2837 0 132.179 12.5436 1658 110.429 712.418 440.832
2838 1 74.0803 9.89467 733 113.985 713.521 466.963
2839 0 75.1901 10.4003 782 111.512 712.84 460.941
2840 0 79.1819 12.5534 994 111.773 712.276 462.921
2841 0 81.1258 12.8073 1039 112.446 712.597 458.737
2842 0 84.2667 12.1875 1027 113.41 712.933 460.835
2843 0 88.1383 12.4917 1101 112.981 713.383 460.559
2844 0 89.2566 12.929 1154 114.072 713.573 459.024
2845 0 92.3849 11.9608 1105 116.529 712.892 456.011
2846 0 95.2032 12.1319 1155 116.83 713.293 454.327
2847 0 98.4369 12.9017 1270 114.726 713.132 452.843
2848 0 100.419 12.5774 1263 116.872 712.785 450.717
2849 0 103.307 11.7805 1217 119.255 713.185 451.234
2850 0 106.32 13.2524 1409 116.686 713.617 448.527
2851 0 107.227 12.1984 1308 121.208 712.946 445.688
2852 0 113.22 13.8933 1573 116.291 712.645 444.861
2853 0 116.174 13.1527 1528 113.925 712.35 447.084
2854 0 118.204 12.0047 1419 117.183 713.138 445.56
2855 0 120.182 12.1566 1461 119.656 712.639 443.318
2856 0 121.162 11.3898 1380 119.843 713.136 439.046
2857 0 129.255 12.4792 1613 117.905 713.334 438.781
2858 0 128.237 11.1512 1430 123.34 712.969 433.582
2859 0 134.284 10.731 1441 125.229 713.018 435.743
2860 0 140.321 12.6567 1776 122.896 712.928 431.64
2861 0 145.363 12.7268 1850 123.497 712.435 430.535
2862 0 150.276 13.4219 2017 120.506 712.659 418.585
2863 1 85.1783 10.9065 929 116.587 713.315 456.4
2864 0 89.0861 12.2241 1089 114.255 712.56 459.286
2865 0 89.0923 12.2906 1095 143.413 711.566 459.218
2866 0 94.1038 11.838 1114 113.581 711.698 459.547
2867 0 96.1856 11.6234 1118 115.243 712.224 458.147
2868 0 98.2612 11.8256 1162 116.806 712.317 455.778
2869 0 103.174 11.8926 1227 117.84 712.755 453.525
2870 0 106.102 12.6859 1346 116.25 711.932 452.268
2871 0 107.169 12.3357 1322 118.523 711.661 451.049
2872 0 111.199 12.608 1402 117.492 711.85 450.479
2873 0 114.191 13.4161 1532 117.467 711.52 447.573
2874 0 116.161 12.3536 1435 121.077 711.927 447.435
2875 0 118.164 12.8888 1523 122.183 711.714 444.944
2876 0 122.298 14.1458 1730 122.129 712.339 440.388
2877 0 126.186 12.8144 1617 126.458 711.916 438.845
2878 0 130.19 13.3266 1735 125.638 711.292 438.286
2879 0 135.192 12.5747 1700 127.701 711.752 435.985
2880 0 141.191 13.7544 1942 125.125 711.97 432.344
2881 1 80.2139 11.6937 938 116.334 711.483 465.696
2882 0 81.1792 11.9242 968 118.18 712.266 462.924
2883 0 85.2051 11.7481 1001 119.248 712.153 461.451
2884 0 88.1885 11.9177 1051 119.779 711.896 460.736
2885 0 91.2295 12.5398 1144 118.344 711.727 459.366
2886 0 94.1449 13.0968 1233 117.921 712.175 454.281
2887 0 97.1676 13.1937 1282 118.952 711.917 452.69
2888 0 100.108 13.3655 1338 119.059 712.411 451.721
2889 0 101.088 12.1577 1229 123.713 712.28 449.587
2890 0 105.191 12.8528 1352 121.97 712.578 447.648
2891 0 108.13 11.2365 1215 126.063 712.584 448.784
2892 0 113.221 13.4163 1519 120.271 712.471 447.017
2893 0 116.104 12.5319 1455 122.323 712.275 446.289
2894 0 118.218 11.7833 1393 124.972 712.692 441.821
2895 0 125.115 13.1559 1646 119.778 712.449 440.834
2896 1 70.0748 9.761 684 116.009 712.363 467.5
2897 0 74.1368 10.4941 778 113.558 712.318 464.346
2898 0 75.1849 11.6247 874 117.153 712.069 463.362
2899 0 78.2516 12.0637 944 118.108 712.424 463.713
2900 0 80.1242 11.245 901 120.731 712.778 462.45
2901 0 83.1589 12.2657 1020 118.892 712.596 460.62
2902 0 85.2014 11.3848 970 120.814 712.364 460.746
2903 0 89.285 13.6529 1219 116.094 712.986 457.255
2904 0 90.2212 11.9817 1081 121.201 712.282 456.824
2905 0 95.4632 13.9111 1328 115.618 712.009 456.938
2906 0 97.3886 13.554 1320 117.695 712.017 452.593
2907 0 98.2671 13.2292 1300 118.868 711.85 453.465
2908 0 103.477 14.1771 1467 115.849 712.282 451.442
2909 0 104.446 11.5562 1207 122.885 712.372 448.952
2910 0 109.296 12.9557 1416 120.004 712.339 445.042
2911 0 113.361 13.3732 1516 117.095 712.534 442.98
2912 0 116.486 13.4866 1571 116.761 712.288 439.33
2913 0 118.255 14.029 1659 116.587 712.694 439.35
2914 0 122.255 12.6293 1544 119.629 713.074 438.915
2915 0 126.491 13.59 1719 117.972 712.638 435.723
2916 1 72.1524 8.59292 620 114.747 713.603 464.426
2917 0 77.3336 10.5775 818 110.322 713.771 462.116
2918 0 76.13 10.1537 773 113.653 714.687 460.739
2919 0 83.0889 11.8909 988 108.682 714.475 459.179
2920 0 83.0467 10.5001 872 112.589 715.276 459.592
2921 0 86.1129 10.5095 905 113.894 714.663 457.764
2922 0 89.0505 11.2633 1003 112.971 715.228 456.672
2923 0 90.1362 11.2496 1014 114.776 714.973 453.539
2924 0 92.0588 11.623 1070 115.424 715.357 451.123
2925 0 97.1428 11.6015 1127 114.882 714.605 451.197
2926 0 98.131 10.8121 1061 118.693 714.095 446.198
2927 0 99.1553 10.6096 1052 120.357 714.241 443.817
2928 0 102.104 9.85269 1006 122.384 713.416 444.418
2929 0 108.14 11.069 1197 120.066 713.788 444.175
2930 0 112.229 13.3566 1499 114.382 713.769 442.487
2931 0 114.271 12.3478 1411 117.047 713.279 441.25
2932 0 114.14 12.0992 1381 116.936 712.999 442.038
2933 0 118.075 11.5605 1365 117.562 712.829 438.706
2934 0 121.204 11.8726 1439 117.803 712.925 437.967
2935 0 126.189 12.9805 1638 117.805 713.545 433.828
2936 0 129.196 12.6784 1638 118.107 713.232 433.226
2937 0 135.159 12.4742 1686 117.527 712.619 428.707
2938 0 140.23 12.1158 1699 118.659 712.202 426.327
2939 0 145.451 10.9384 1591 118.981 713.067 427.814
2940 1 85.2041 9.5418 813 109.651 712.331 456.713
2941 0 89.2542 10.2964 919 108.506 713.045 458.528
2942 0 88.1574 10.4586 922 109.567 713.316 455.366
2943 0 95.2613 11.2743 1074 107.354 713.196 452.331
2944 0 98.2386 12.2457 1203 104.696 713.516 454.729
2945 0 100.118 11.3666 1138 106.876 713.888 452.385
2946 0 102.203 11.076 1132 107.919 712.993 450.857
2947 0 107.243 11.9262 1279 106.93 713.045 447.988
2948 0 108.142 12.1322 1312 107.441 713.062 446.085
2949 0 112.081 12.5088 1402 105.442 713.548 446.915
2950 0 113.174 11.6723 1321 107.575 713.229 447.846
2951 0 119.13 11.6176 1384 107.595 713.655 444.098
2952 0 123.072 12.7405 1568 105.76 713.597 440.763
2953 0 126.182 12.68 1600 106.012 713.856 438.602
2954 0 128.217 11.9641 1534 111.293 712.548 435.173
2955 0 132.185 12.4749 1649 109.694 712.563 434.434
2956 0 137.175 12.6335 1733 110.601 712.306 433.237
2957 1 79.0707 10.2946 814 104.999 713.15 463.183
2958 0 79.298 10.9082 865 107.318 712.106 462.509
2959 0 83.1967 10.7096 891 106.284 712.459 462.028
2960 0 84.1361 10.7683 906 105.877 713.064 462.838
2961 0 85.2414 10.5817 902 108.674 713.072 459.675
2962 0 88.2277 11.8784 1048 109.059 713.008 456.948
2963 0 88.2277 11.8104 1042 136.702 712.99 456.802
2964 0 92.2314 10.8314 999 112.354 713.46 454.226
2965 0 92.2226 10.7891 995 133.68 712.466 453.951
2966 0 98.2013 11.1506 1095 113.775 713.205 451.942
2967 0 100.169 10.9216 1094 114.491 714.075 451.74
2968 0 104.168 10.1471 1057 114.065 713.785 455.108
2969 0 104.161 11.2327 1170 115.06 712.983 447.53
2970 0 109.281 10.7338 1173 115.093 712.582 451.341
2971 0 113.335 11.6646 1322 113.692 713.247 448.208
2972 0 114.191 10.1584 1160 117.213 713.264 447.319
2973 0 117.263 10.1652 1192 119.261 712.859 442.469
2974 0 119.254 11.8067 1408 117.481 712.951 437.741
2975 0 125.232 10.5325 1319 119.934 712.795 438.985
2976 0 131.209 11.5465 1515 118.486 712.569 434.962
2977 1 72.4013 11.2015 811 115.236 713.166 467.165
2978 0 75.332 10.9781 827 117.079 713.611 461.231
2979 0 75.2135 10.9821 826 118.017 713.479 462.104
2980 0 78.1362 10.2129 798 114.898 713.406 462.782
2981 0 80.1341 11.1813 896 115.129 713.299 460.875
2982 0 84.163 10.9193 919 122.092 713.162 460.139
2983 0 86.1465 12.0957 1042 119.585 712.783 459.395
2984 0 88.2525 11.1158 981 123.231 713.086 455.905
2985 0 92.1935 13.2222 1219 117.322 713.47 455.894
2986 0 93.1637 11.1095 1035 122.767 713.407 456.876
2987 0 96.1628 12.0109 1155 121.128 713.059 454.501
2988 0 97.1303 11.222 1090 124.508 712.35 452.16
2989 0 103.169 12.8623 1327 119.453 712.671 451.405
2990 0 104.137 11.8498 1234 123.509 712.36 447.072
2991 0 109.12 12.3442 1347 120.108 712.083 447.891
2992 0 111.141 11.256 1251 124.229 712.026 443.381
2993 0 116.117 12.0654 1401 122.001 712.243 445.296
2994 0 117.172 11.1204 1303 125.897 711.687 442.453
2995 0 123.189 12.3875 1526 121.387 711.572 441.45
2996 0 124.156 11.993 1489 122.987 712.265 436.04
2997 0 131.201 11.7606 1543 122.052 712.504 438.075
2998 0 136.115 12.798 1742 119.519 712.153 435.967
2999 0 138.267 12.2155 1689 121.647 711.957 432.152
3000 0 147.215 12.3289 1815 119.479 711.797 431.076
3001 0 149.179 12.4481 1857 118.842 712.182 432.08
3002 0 156.13 12.2206 1908 120.512 711.806 425.603
3003 0 159.477 12.3216 1965 121.841 711.866 423.637
3004 0 165.367 12.2697 2029 122.344 712.106 420.983
3005 0 170.358 13.683 2331 119.729 712.251 416.34
3006 0 172.259 10.9602 1888 127.773 711.845 410.206
3007 0 179.396 12.7372 2285 123.239 711.587 411.76
3008 0 185.373 12.2779 2276 125.596 712.078 406.341
3010 0 189.45 12.6049 2388 125.223 711.975 408.699
3011 0 196.251 12.7439 2501 125.817 711.898 401.926
3012 0 202.463 13.1036 2653 126.131 712.877 396.709
3013 0 209.273 12.5864 2634 125.832 712.519 398.13
3014 0 214.398 12.4395 2667 126.852 712.273 396.724
3015 0 222.487 11.6861 2600 128.003 712.673 391.121
3016 1 181.337 11.691 2120 124.877 712.625 405.818
3017 0 189.373 13.3018 2519 120.36 712.413 405.894
3018 0 195.448 12.5813 2459 125.01 712.516 406.17
3019 0 200.324 12.3999 2484 127.451 712.741 396.349
3020 0 207.355 11.9409 2476 128.947 712.126 393.822
3021 0 219.451 13.6522 2996 123.64 711.565 393.341
3022 0 224.456 13.0716 2934 126.071 712.475 385.747
3023 0 233.415 13.868 3237 123.262 712.066 383.918
3024 0 240.379 12.8713 3094 126.266 712.48 376.987
3025 0 247.369 13.2798 3285 126.573 711.983 373.017
3026 0 256.372 12.8602 3297 130.035 712.14 368.039
3027 1 72.0764 10.2669 740 107.054 713.839 467.819
3028 0 74.0727 10.2737 761 108.485 714.664 466.505
3029 0 74.1417 8.96931 665 108.54 713.272 466.916
3030 0 77.2734 9.65404 746 107.592 713.206 465.456
3031 0 80.1841 10.4011 834 105.866 713.317 462.952
3032 0 81.1757 10.1508 824 107.18 713.676 464.032
3033 0 84.2002 10.1306 853 108.313 713.469 460.58
3034 0 87.3896 10.2987 900 108.166 712.746 461.268
3035 0 90.44 11.3666 1028 107.199 712.759 455.799
3036 0 93.22 11.4246 1065 106.5 713.603 457.315
3037 0 93.3353 11.9783 1118 107.089 713.028 454.564
3038 0 98.3453 12.3341 1213 105.547 713.304 455.679
3039 0 99.4217 10.37 1031 111.213 713.535 452.145
3040 0 107.445 11.3454 1219 108.401 713.084 450.69
3041 0 108.49 10.8766 1180 110.715 713.366 449.363
3042 0 109.495 11.0507 1210 111.597 712.95 448.159
3043 0 114.551 11.3137 1296 111.309 713.774 444.105
3044 0 117.506 11.0548 1299 114.454 713.416 442.78
3045 1 70.3115 10.5104 739 110.794 713.359 468.184
3046 0 72.2499 10.5883 765 103.685 713.01 466.618
3047 0 72.2499 10.6851 772 134.369 713.008 466.545
3048 0 73.1008 9.76734 714 114.318 713.786 468.01
3049 0 74.1169 10.9017 808 100.189 713.454 466.501
3050 0 72.1048 9.95772 718 110.06 714.584 462.786
3051 0 73.154 10.2113 747 118.032 714.565 464.195
3052 0 74.0956 9.96011 738 119.386 713.817 461.848
3053 0 77.1689 9.0451 698 119.818 713.607 464.745
3054 0 76.1003 10.2365 779 119.318 714.276 462.107
3055 0 80.0871 10.2388 820 116.704 713.963 463.587
3056 0 82.2136 10.0227 824 116.184 714.177 460.49
3057 0 85.1846 10.354 882 113.441 713.62 458.993
3058 0 90.1856 11.2767 1017 109.284 713.334 457.84
3059 0 91.2441 10.4884 957 110.262 713.395 453.672
3060 0 95.294 11.5117 1097 106.136 713.584 453.777
3061 0 100.239 10.3752 1040 108.48 713.738 451.073
3062 0 103.229 11.5956 1197 105.827 713.192 450.358
3063 0 105.26 12.5404 1320 105.195 713.136 447.715
3064 0 109.398 12.6693 1386 104.618 713.38 448.736
3065 0 112.325 13.639 1532 103.576 713.464 446.343
3066 0 115.324 12.712 1466 105.786 713.495 445.836
3067 0 119.333 13.366 1595 104.823 712.677 444.956
3068 1 69.1938 9.35055 647 106.594 713.156 470.416
3069 0 70.2297 9.86762 693 108.468 713.222 467.762
3070 0 74.1003 10.7557 797 106.048 713.745 469.432
3071 0 73.168 10.3871 760 110.497 714.626 465.882
3072 0 77.2696 11.2334 868 109.764 714.319 463.827
3073 0 78.1388 11.134 870 111.614 713.899 464.062
3074 0 81.2335 12.0024 975 110.611 714.185 464.205
3075 0 82.2534 11.6105 955 113.554 714.371 463.597
3076 0 85.2363 11.6852 996 114.632 713.794 460.423
3077 0 84.3071 10.7583 907 119.197 713.878 458.162
3078 0 87.1217 12.4768 1087 115.903 713.629 458.733
3079 0 90.335 11.6677 1054 118.877 712.758 457.13
3080 0 92.3417 12.2588 1132 120.362 712.874 454.724
3081 0 95.323 11.7181 1117 122.673 713.393 453.729
3082 0 96.33 11.8032 1137 124.165 713.137 452.441
3083 0 99.1877 12.6024 1250 122.232 712.998 452.388
3084 0 104.186 11.8442 1234 124.267 712.87 452.567
3085 0 106.249 12.2072 1297 124.382 713.059 450.971
3086 0 107.314 11.1169 1193 129.014 713.41 449.231
3087 0 111.392 12.5683 1400 125.394 712.252 445.739
3088 0 112.364 12.851 1444 125.181 711.657 443.865
3089 0 116.297 13.3709 1555 123.926 712.386 440.238
3090 0 118.491 13.8407 1640 121.97 712.764 443.22
3091 0 121.434 13.8183 1678 122.384 711.741 440.571
3092 0 120.225 12.1023 1455 129.058 712.537 437.739
3093 0 128.237 14.2471 1827 123.86 712.477 435.974
3094 0 131.275 13.4603 1767 125.69 712.517 436.529
3095 0 134.198 12.1313 1628 130.078 711.658 433.614
3096 0 140.37 12.9158 1813 126.793 711.499 434.083
3097 0 141.288 12.2445 1730 130.364 711.897 423.692
3098 1 85.1824 12.0213 1024 118.26 711.995 456.723
3099 0 85.2675 10.7544 917 123.689 711.794 452.086
3100 0 89.2352 10.4891 936 124.709 712.138 454.456
3101 0 93.1627 11.8932 1108 122.098 711.55 451.357
3102 0 94.1955 11.0939 1045 124.358 711.34 450.47
3103 0 96.3576 12.163 1172 121.973 711.16 450.978
3104 0 100.26 12.2482 1228 121.556 711.522 450.253
3105 0 104.365 12.6 1315 119.655 711.808 449.324
3106 0 105.319 11.9162 1255 123.593 712.029 447.629
3107 0 109.321 12.0196 1314 123.033 711.878 447.124
3108 0 111.224 12.9559 1441 122.35 711.983 444.236
3109 0 114.228 12.8953 1473 123.331 712.259 441.435
3110 0 119.305 13.4278 1602 120.145 712.192 442.486
3111 0 120.249 12.7568 1534 124.188 712.065 438.582
3112 0 124.18 12.4657 1548 124.906 712.289 437.764
3113 0 128.228 12.6494 1622 124.241 712.445 436.463
3114 0 132.181 12.4904 1651 125.085 713.254 432.182
3115 0 137.246 13.2463 1818 124.545 713.074 425.66
3116 0 142.303 13.3097 1894 124.004 713.29 425.504
3117 1 78.1552 10.0825 788 120.982 712.709 460.586
3118 0 81.1314 12.3996 1006 116.695 712.272 458.672
3119 0 83.1211 12.1389 1009 116.474 712.388 459.108
3120 0 88.0921 13.3383 1175 113.58 712.772 458.232
3121 0 89.1161 13.6451 1216 114.662 712.809 454.887
3122 0 93.1244 12.886 1200 114.918 711.913 456.555
3123 0 95.129 14.2018 1351 112.995 712.497 453.839
3124 0 98.2102 13.7358 1349 114.027 712.609 453.317
3125 0 101.292 13.1007 1327 115.677 712.883 449.517
3126 0 103.222 13.8246 1427 114.463 712.834 449.797
3127 0 106.29 13.6796 1454 115.093 713.157 447.32
3128 0 109.139 13.5332 1477 115.655 713 445.077
3129 0 112.257 13.6651 1534 115.415 712.329 446.617
3130 0 114.236 13.1483 1502 117.059 713.005 444.632
3131 0 118.355 13.958 1652 114.959 713.504 443.233
3132 0 121.298 14.1222 1713 115.087 713.064 441.499
3133 0 126.291 13.4689 1701 115.604 713.502 439.104
3134 0 129.564 13.7461 1781 115.421 713.127 438.486
3135 0 134.414 13.7932 1854 114.922 713.525 435.1
3136 1 75.544 10.8811 822 114.846 712.921 462.453
3137 0 74.2485 9.60289 713 118.118 713.586 461.321
3138 0 80.4288 11.8241 951 112.511 713.719 462.26
3139 0 79.4086 11.9383 948 113.632 713.734 460.195
3140 0 82.3312 13.1785 1085 110.884 713.584 458.131
3141 0 86.2791 13.665 1179 109.563 714.28 456.763
3142 0 89.5608 12.4831 1118 113.18 714.183 454.445
3143 0 90.4464 12.7921 1157 114.801 714.302 452.268
3144 0 92.5958 11.8904 1101 120.139 714.329 449.654
3145 0 96.3428 12.2376 1179 118.862 714.031 448.636
3146 0 94.3057 12.1202 1143 120.679 713.577 448.472
3147 0 100.431 12.4265 1248 119.69 713.832 445.254
3148 0 100.421 12.119 1217 122.255 713.591 442.984
3149 0 103.361 12.0452 1245 123.163 713.696 440.741
3150 0 108.388 11.6249 1260 123.311 713.706 440.731
3151 0 111.396 13.4655 1500 119.033 713.495 439.635
3152 0 115.336 14.2887 1648 116.305 713.428 438.119
3153 0 119.374 12.9761 1549 119.694 712.804 436.944
3154 0 118.291 12.6805 1500 123.051 713.056 434.81
3155 0 125.335 13.811 1731 119.462 712.978 434.601
3156 0 128.321 13.4273 1723 121.116 713.109 433.693
3157 0 131.435 12.5766 1653 125.117 712.996 429.291
3158 0 137.352 12.1439 1668 126.39 713.217 428.023
3159 0 138.543 13.2161 1831 125.292 713.232 423.644
3160 0 146.322 12.5614 1838 127.094 713.129 425.152
3161 0 146.421 12.0884 1770 130.485 712.699 421.759
3162 0 152.54 13.3932 2043 127.101 713.433 419.955
3163 0 157.38 13.0322 2051 128.544 713.128 418.254
3164 0 161.474 12.7513 2059 130.446 712.635 415.225
3165 0 168.397 14.1927 2390 126.785 712.813 414.058
3166 0 173.405 14.6363 2538 125.497 713.238 414.112
3167 0 179.464 13.9693 2507 128.438 713.087 410.28
3168 0 182.374 14.2673 2602 127.49 713.027 404.538
3169 0 188.414 14.7441 2778 126.991 713.35 402.248
3170 0 193.415 13.8562 2680 129.869 712.83 402.475
3171 0 203.411 14.2913 2907 129.257 712.781 396.715
3172 0 208.467 14.3284 2987 129.749 712.961 393.233
3173 1 51.1309 8.70315 445 111.665 713.948 476.519
3174 0 54.1371 11.7295 635 106.466 713.353 478.025
3175 0 55.1193 11.9196 657 104.817 712.059 478.414
3176 0 55.0572 10.5708 582 105.973 713.143 477.579
3177 0 56.0671 8.72169 489 110.115 712.487 477.879
3178 0 59.106 9.49142 561 109.168 712.695 476.201
3179 0 60.1002 9.23458 555 109.503 712.481 476.268
3180 0 62.1241 10.3503 643 109.112 711.235 472.067
3181 0 64.16 10.5362 676 109.833 712.102 469.547
3182 0 65.1196 9.21382 600 114.027 712.495 470.6
3183 0 69.1121 11.0979 767 109.289 712.258 469.396
3184 0 69.2052 10.6495 737 111.67 712.354 469.772
3185 0 72.058 10.8246 780 111.003 711.303 470.226
3186 0 73.0904 10.2476 749 114.585 711.972 466.023
3187 0 75.041 8.87515 666 119.489 711.389 465.73
3188 1 26.0285 6.91549 180 103.422 711.733 491.844
3189 0 28.0274 8.1349 228 100.487 712.338 490.908
3190 0 29.0319 7.88788 229 101.598 711.983 490.288
3191 0 30.0062 8.66489 260 94.5308 712.077 490.535
3192 0 29.0513 8.12356 236 97.0381 711.771 489.631
3193 0 32.0713 9.41651 302 95.3808 710.927 487.55
3194 0 31.0753 8.33459 259 99.2432 710.88 486.05
3195 0 32.056 8.76592 281 99.2491 711.231 485.32
3196 0 31.0228 10.6051 329 95.927 712.954 489.638
3197 0 33.011 8.48202 280 99.8643 713.296 488.939
3198 0 33.0286 9.41609 311 97.0932 712.871 489.232
3199 0 32.225 7.82 252 101.905 711.655 483.345
3200 0 37.0201 5.75363 213 103.85 713.089 490.803
3201 0 34.2642 9.1641 314 98.9554 711.952 484.545
3202 0 35.1471 10.641 374 94.8636 711.626 482.209
3203 0 36.185 10.6951 387 94.9121 711.977 483.351
3204 0 36.2523 10.62 385 94.4701 711.717 483.953
3205 0 36.1787 11.305 409 96.3741 711.501 483.127
3206 0 37.2779 12.4202 463 95.1339 712.583 483.838
3207 0 36.2902 9.86494 358 102.718 712.83 484.799
3208 0 38.2846 10.5003 402 102.261 713.346 483.077
3209 0 38.414 10.9595 421 99.7245 712.86 481.499
3210 0 38.4498 9.93503 382 102.128 712.77 481.33
3211 0 39.2909 9.87507 388 101.902 712.778 482.039
3212 0 40.3186 10.4914 423 100.026 713.13 480.957
3213 0 40.1715 10.1316 407 99.6658 712.086 482.054
3214 0 40.2944 10.2744 414 101.87 713.053 478.599
3215 0 39.291 9.11151 358 103.369 713.048 482.123
3216 0 39.085 10.055 393 101.875 713.763 484.433
3217 0 41.0573 10.5219 432 100.562 714.245 481.847
