time division length width area intensity CMx CMy
0 0 65.0546 12.2974 800 112.289 286.132 470.658
1 0 66.0737 13.2882 878 109.853 285.472 467.985
2 0 68.0798 12.8526 875 110.597 285.491 468.312
3 0 71.116 12.2054 868 111.454 284.927 467.965
4 0 75.1687 12.5584 944 110.406 285.198 467.202
5 0 77.2077 13.2629 1024 108.715 284.865 465.081
6 0 80.0791 12.9747 1039 110.158 285.554 464.187
7 0 80.1915 13.2184 1060 110.767 285.532 462.894
8 0 85.2097 13.2731 1131 110.416 286.22 460.842
9 0 85.1814 11.8453 1009 114.139 285.454 456.402
10 0 88.1743 10.8989 961 115.006 284.37 458.66
11 1 49.0703 11.0046 540 115.685 284.67 470.65
12 0 48.0563 11.1952 538 117.201 288.19 477.961
13 0 51.0525 12.3794 632 111.59 287.894 477.388
14 0 52.0304 12.6849 660 113.926 288.397 477.045
15 0 55.0726 13.1281 723 112.264 288.062 475.845
16 0 55.0095 12.9432 712 114.06 287.096 473.454
17 0 55.0335 12.0472 663 117.152 287.49 474.462
18 0 58.1058 12.2879 714 115.706 287.3 472.311
19 0 59.0327 12.1966 720 115.383 286.925 471.776
20 0 61.0664 12.3472 754 114.507 286.483 469.545
21 0 70.0297 15.1507 1061 98.8011 286.836 462.93
22 0 68.1082 14.3889 980 106.057 287.161 466.791
23 0 69.1746 15.0055 1038 105.143 286.511 465.425
24 0 65.1194 11.3177 737 118.654 286.152 465.122
25 0 72.1647 12.9149 932 112.477 287.071 465.143
26 0 74.1545 13.1213 973 113.523 287.159 462.284
27 0 75.3553 12.6335 952 115.249 285.915 462.019
28 0 79.1628 16.1187 1276 104.165 287.045 459.283
29 0 81.3403 14.3348 1166 110.448 286.521 458.934
30 0 81.159 12.6049 1023 117.355 286.349 459.239
31 0 83.2081 13.6525 1136 113.838 286.373 458.451
32 0 87.2022 13.2565 1156 113.432 286.571 456.474
33 0 91.2624 15.0226 1371 108.419 285.613 447.834
34 0 92.3075 12.8592 1187 115.7 286.39 448.296
35 0 95.324 13.4174 1279 114.174 286.458 449.884
36 0 98.3574 13.3594 1314 114.139 285.142 449.502
37 0 100.303 13.848 1389 115.67 285.688 443.794
38 0 105.267 14.4204 1518 113.17 285.318 444.652
39 0 109.266 14.2588 1558 112.893 285.185 445.184
40 0 111.275 14.0194 1560 114.401 285.276 440.628
41 0 115.272 13.6113 1569 115.994 285.655 442.01
42 0 118.288 14.6507 1733 113.348 286.473 437.802
43 1 67.2928 11.7695 792 112.633 285.644 464.98
44 0 69.4773 12.2774 853 110.911 286.325 463.286
45 0 75.1279 13.0045 977 111.697 285.792 461.793
46 0 75.3834 12.6686 955 112.223 286.172 461.2
47 0 78.1662 11.1941 875 115.576 285.529 459.501
48 0 81.2021 13.5834 1103 110.373 285.472 457.778
49 0 81.4056 12.4193 1011 114.329 285.668 456.795
50 0 86.2724 14.0717 1214 109.894 285.913 454.408
51 0 90.1686 12.3435 1113 113.267 285.573 454.754
52 0 93.2925 13.7203 1280 109.872 285.807 453.168
53 0 93.3157 12.0773 1127 114.728 285.971 454.191
54 0 97.4122 13.4583 1311 112.393 286.605 450.673
55 0 106.336 16.0998 1712 102.366 286.423 444.72
56 0 107.254 16.363 1755 103.911 286.378 443.887
57 0 109.259 14.8271 1620 109.7 285.567 444.367
58 0 111.27 13.966 1554 112.813 286.1 444.27
59 0 114.203 12.5128 1429 115.308 286.271 444.348
60 1 58.0421 11.0954 644 112.62 286.405 473.731
61 0 63.1057 12.4236 784 107.434 285.934 470.268
62 0 64.0937 13.4179 860 106.088 286.269 468.455
63 0 66.1409 13.441 889 106.387 285.628 467.591
64 0 68.0719 12.384 843 109.498 286.776 467.932
65 0 71.0617 12.5525 892 109.73 287.596 466.294
66 0 75.1772 14.273 1073 105.716 287.114 462.843
67 0 84.1562 16.4456 1384 96.1315 287.552 457.347
68 0 84.1038 16.6461 1400 98.3036 286.726 456.354
69 0 85.1088 14.5461 1238 105.217 286.859 459.609
70 0 85.2304 13.9973 1193 108.49 286.353 458.773
71 0 85.1109 13.0183 1108 112.133 286.904 458.591
72 0 87.1302 12.4641 1086 112.545 286.589 456.357
73 0 90.079 12.5001 1126 112.475 286.575 455.382
74 0 95.1351 12.6452 1203 111.684 286.078 453.039
75 0 99.1332 13.2448 1313 110.555 286.723 453.128
76 0 99.0621 11.9824 1187 119.288 286.451 447.207
77 0 101.118 12.9354 1308 116.439 286.55 445.557
78 1 53.0274 7.80729 414 118.86 286.923 467.725
79 0 61.0546 13.0211 795 110.502 285.829 472.376
80 0 63.0629 12.7967 807 113.221 286.285 468.773
81 0 64.1468 12.409 796 113.437 287.058 468.17
82 0 66.0788 12.3792 818 114.109 285.995 468.457
83 0 67.0882 11.5221 773 116.23 286.264 466.643
84 0 69.0581 12.4533 860 113.209 286.394 467.071
85 0 73.1011 11.6688 853 114.536 286.508 465.599
86 0 73.0645 11.1272 813 115.562 286.905 465.841
87 0 77.2487 12.0261 929 112.834 286.477 463.123
88 0 81.0962 12.6886 1029 109.275 286.517 463.938
89 0 83.1421 12.0517 1002 110.635 286.379 462.341
90 0 85.2959 11.6301 992 111.411 286.658 460.735
91 0 87.2543 11.3118 987 110.703 286.304 458.341
92 0 92.1293 11.8855 1095 107.371 286.275 457.503
93 0 93.0965 10.5589 983 108.386 286.562 456.331
94 0 97.1501 11.0139 1070 105.973 285.136 454.598
95 0 101.107 11.3741 1150 103.878 286.253 451.297
96 1 57.0523 11.025 629 100.353 286.01 475.176
97 0 57.0122 9.99786 570 102.428 285.44 473.36
98 0 59.0438 11.9742 707 97.983 285.229 472.19
99 0 63.1364 12.1641 768 92.1771 285.191 470.521
100 0 65.0837 12.0153 782 88.6944 285.454 472.188
101 0 66.0786 12.5457 829 88.3836 284.818 470.317
102 0 68.0865 11.6029 790 89.8114 284.813 470.396
103 0 70.1586 12.0441 845 89.9728 285.857 467.903
104 0 73.0639 11.7158 856 89.4731 285.57 468.572
105 0 73.1682 11.7537 860 90.4767 286.079 468.449
106 0 72.2103 11.8543 856 91.9544 284.952 468.493
107 0 77.1172 11.2945 871 91.9587 284.99 467.718
108 0 79.0823 10.1287 801 93.5056 285.586 464.672
109 0 81.2244 10.7234 871 92.9966 284.804 463.091
110 0 85.1413 10.3827 884 92.6595 284.515 461.207
111 0 88.0734 11.5926 1021 90.6895 285.379 462.358
112 0 96.2444 13.2475 1275 85.8024 284.645 453.033
113 0 97.108 12.9649 1259 87.7276 285.276 453.581
114 0 101.155 12.99 1314 89.0852 284.13 449.568
115 1 56.1298 10.8499 609 94.7553 285.677 475.343
116 0 57.1848 11.7863 674 94.7997 285.479 474.542
117 0 58.1216 11.3211 658 95.4058 284.28 475.321
118 0 57.0439 11.5525 659 96.3505 284.208 473.407
119 0 61.0613 10.9726 670 97.1403 284.272 471.436
120 0 63.0857 10.7156 676 97.8817 284.078 471.089
121 0 65.0465 11.5148 749 96.0467 284.084 471.696
122 0 70.1368 13.16 923 92.0206 285.179 471.769
123 0 68.0638 10.8868 741 98.7827 284.991 468.08
124 0 71.2121 11.9081 848 98.2075 285.321 468.798
125 0 75.1053 11.2242 843 99.8375 283.938 466.456
126 0 77.1399 12.9375 998 96.8687 283.817 465.889
127 0 79.118 12.2981 973 99.6475 284.58 462.954
128 0 81.1784 10.9512 889 102.337 284.53 463.135
129 0 84.0856 12.9987 1093 97.9296 284.661 461.647
130 0 87.1006 11.5154 1003 100.497 283.926 460.873
131 0 89.0922 11.3927 1015 102.552 284.237 459.165
132 0 91.0666 11.2116 1021 102.6 283.184 455.615
133 1 52.0899 12.0561 628 98.5653 284.04 476.18
134 0 53.1356 12.0447 640 98.6344 284.244 476.691
135 0 54.1197 12.8234 694 95.4135 284.866 476.406
136 0 57.0744 12.8604 734 96.2166 285.124 463.173
137 0 61.1457 13.6396 834 89.7098 285.313 460.386
138 0 60.0905 14.2452 856 88.1379 285.12 465.829
139 0 62.105 12.817 796 91.593 285.932 474.319
140 0 63.1529 13.8078 872 89.6388 284.745 473.406
141 0 65.0571 12.1585 791 93.7408 285.761 473.52
142 0 65.0353 12.4394 809 93.2089 285.361 471.084
143 0 67.0345 13.0232 873 92.8431 285.619 472.317
144 0 68.0962 11.7775 802 94.9152 284.991 468.778
145 0 73.1558 13.1227 960 91.9115 285.553 468.696
146 0 75.1213 13.6978 1029 91.4422 284.792 468.633
147 0 77.0356 14.4349 1112 90.1313 284.965 467.463
148 0 78.0837 13.2934 1038 93.9701 284.596 464.671
149 0 83.1267 13.7621 1144 93.0568 284.339 464.998
150 0 84.3309 13.4115 1131 95.5013 284.213 462.281
151 0 84.2107 12.8962 1086 99.1556 285.436 461.781
152 0 87.145 12.3472 1076 102.302 284.164 460.591
153 0 92.1886 13.7544 1268 98.1893 284.522 457.349
154 0 95.2314 13.9135 1325 106.606 285.108 454.118
155 0 98.1999 13.5031 1326 106.526 284.916 455.064
156 0 101.118 15.1308 1530 103.754 284.059 452.908
157 1 53.0729 11.6444 618 103.871 284.644 474.757
158 0 51.0184 11.4468 584 104.923 285.211 471.724
159 0 53.0737 12.0587 640 93.0141 284.459 470.33
160 0 56.0361 10.9751 615 95.4683 284.38 469.613
161 0 59.1336 12.8015 757 93.0238 284.144 471.403
162 0 58.073 12.3465 717 97.4868 285.06 471.47
163 0 60.0642 12.6365 759 97.8643 285.138 471.072
164 0 64.0709 12.7047 814 98.2322 283.94 470.155
165 0 65.2105 13.0347 850 99.1565 284.362 469.773
166 0 67.1408 13.8813 932 99.7232 284.238 466.867
167 0 68.0588 12.0337 819 106.085 283.094 467.883
168 0 72.0666 13.7095 988 103.555 284.194 465.824
169 0 73.0394 13.8966 1015 105.868 283.803 463.52
170 0 81.0372 15.4373 1251 100.616 284.245 461.959
171 1 93.2292 18.2668 1703 92.1856 284.169 457.715
172 0 92.2873 18.1715 1677 93.8945 284.747 455.181
173 0 94.0558 19.6798 1851 91.8898 284.312 455.096
174 0 92.0825 17.6038 1621 99.4892 283.922 458.281
175 0 98.2603 18.4001 1808 95.9292 283.825 454.711
176 0 98.0541 18.5204 1816 97.6344 284.131 452.909
177 0 98.2103 16.2814 1599 104.325 283.707 453.046
178 0 98.1066 15.9316 1563 107.979 284.491 453.816
179 0 109.18 19.6556 2146 94.4865 284.192 445.511
180 0 117.261 19.9043 2334 91.964 284.779 444.242
181 0 123.362 17.1203 2112 97.0772 285.17 441.636
182 0 120.174 21.0528 2530 91.283 284.783 438.683
183 0 120.146 18.386 2209 98.1797 285.217 440.426
184 0 119.137 16.1159 1920 105.33 285.244 440.493
185 0 124.217 16.6644 2070 103.479 284.979 439.931
186 0 125.115 14.3148 1791 111.45 285.137 439.663
187 0 132.199 15.5977 2062 107.809 284.643 436.784
188 0 136.235 15.2825 2082 110.511 284.783 435.339
189 0 141.137 15.5877 2200 110.072 284.061 432.31
190 0 146.305 15.5566 2276 110.413 284.994 431.677
191 0 149.164 14.4539 2156 114.386 284.103 428.728
192 0 157.373 16.121 2537 109.481 284.432 424.074
193 1 74.1082 13.8176 1024 109.906 283.969 467.34
194 0 77.0543 13.7695 1061 108.601 283.638 465.355
195 0 79.0875 13.8834 1098 111.082 283.233 463.249
196 0 83.0665 13.9286 1157 116.847 284.255 461.169
197 0 85.0697 13.8122 1175 117.246 283.505 459.923
198 0 89.0787 14.2458 1269 115.932 284.017 457.757
199 0 94.1452 17.5899 1656 106.188 284.002 453.823
200 0 95.0937 15.1745 1443 113.417 283.247 455.659
201 0 95.0301 13.5957 1292 120.149 284.189 455.039
202 0 98.0876 14.1812 1391 118.725 283.204 455.104
203 0 99.0733 13.2124 1309 123.629 283.73 451.379
204 0 105.103 14.4906 1523 119.2 283.345 450.675
205 0 113.162 16.8078 1902 110.554 283.178 445.458
206 0 118.139 18.9691 2241 104.254 283.197 441.128
207 0 120.176 16.9502 2037 109.978 283.265 441.248
208 0 122.127 15.8933 1941 115.336 284.156 440.162
209 0 125.126 16.0558 2009 116.24 282.943 441.067
210 0 127.143 14.9202 1897 121.073 284.261 439.213
211 0 131.152 13.7856 1808 124.268 283.628 438.052
212 0 136.126 15.0669 2051 120.92 283.828 437.02
213 0 140.274 14.6926 2061 122.676 283.637 434.101
214 0 147.121 17.1491 2523 115.484 283.927 428.95
215 0 151.231 15.4069 2330 121.261 285.438 426.785
216 0 154.151 14.2652 2199 124.381 284.518 428.376
217 0 161.26 15.72 2535 121.365 285.041 422.947
218 0 165.192 14.6617 2422 125.587 283.807 421.06
219 0 171.257 14.3352 2455 126.182 284.389 419.862
220 1 79.1232 11.8676 939 126.888 284.734 460.546
221 0 82.0633 13.843 1136 123.947 284.874 457.159
222 0 84.1422 13.1563 1107 124.612 284.846 455.538
223 0 86.0824 12.5926 1084 127.807 285.025 455.536
224 0 92.0825 14.2589 1313 121.688 284.264 452.987
225 0 95.1187 14.6449 1393 118.52 283.424 452.497
226 0 98.1416 13.827 1357 119.524 283.85 449.47
227 0 102.193 13.3081 1360 119.632 284.834 449.009
228 0 107.187 13.789 1478 117.668 285.108 446.681
229 0 110.086 13.544 1491 119.319 284.543 442.178
230 0 113.186 14.0035 1585 118.276 284.786 442.209
231 0 118.162 14.167 1674 116.651 283.64 441.508
232 0 123.123 14.1484 1742 116.696 284.127 438.579
233 0 126.135 14.096 1778 117.425 285.23 433.384
234 0 130.213 14.1154 1838 117.911 284.796 433.1
235 0 134.113 13.0487 1750 121.369 284.541 430.953
236 0 139.145 13.971 1944 118.652 283.942 423.569
237 0 146.197 15.4381 2257 114.604 284.298 418.829
238 0 149.189 14.3375 2139 118.845 285.101 422.01
239 0 153.148 14.9332 2287 115.767 284.578 419.78
240 0 158.144 14.7651 2335 115.977 284.683 417.117
241 0 162.206 14.235 2309 117.534 284.744 417.909
242 0 167.166 13.7947 2306 119.651 284.419 415.754
243 0 176.209 15.1922 2677 118.004 284.923 413.837
244 1 93.1666 12.9982 1211 120.374 284.111 453.216
245 0 98.0675 14.5104 1423 119.477 284.652 451.394
246 0 101.134 13.8332 1399 121.444 284.219 451.237
247 0 105.124 15.2676 1605 118.389 284.714 450.01
248 0 108.08 14.7946 1599 120.051 284.325 447.623
249 0 111.067 14.5947 1621 121.251 284.482 444.965
250 0 114.261 13.2941 1519 124.88 283.171 443.425
251 0 118.152 14.4475 1707 122.412 283.275 439.303
252 0 123.23 13.8603 1708 123.707 284.235 438.807
253 0 126.396 14.6919 1857 122.188 283.882 436.329
254 0 132.221 13.6211 1801 126.011 283.999 433.612
255 0 136.205 14.9554 2037 122.566 283.618 433.168
256 0 140.19 14.9083 2090 124.187 283.345 427.448
257 0 146.201 14.3912 2104 125.299 282.731 427.308
258 1 60.0665 12.4362 747 113.572 284.632 471.428
259 0 63.0504 12.0063 757 118.461 284.526 470.024
260 0 64.063 12.8311 822 112.844 284.336 471.539
261 0 66.0516 13.5651 896 112.617 284.095 468.862
262 0 68.0814 12.5291 853 116.106 283.832 468.382
263 0 70.0743 13.0433 914 114.228 284.21 467.626
264 0 72.1243 13.8234 997 112.882 284.617 465.684
265 0 74.0785 13.4182 994 114.887 283.036 463.244
266 0 80.1516 15.1962 1218 108.223 284.836 460.987
267 0 81.0955 14.97 1214 109.757 284.507 461.605
268 0 83.0957 14.8142 1231 110.983 284.138 459.744
269 0 85.082 13.1755 1121 115.454 284.701 460.442
270 0 88.0924 13.6334 1201 119.671 283.964 456.233
271 0 92.1793 13.311 1227 120.46 283.255 455.936
272 0 94.1166 13.6533 1285 119.194 284.236 455.956
273 0 96.1685 13.7467 1322 120.357 284.431 453.438
274 0 100.106 13.7255 1374 120.405 283.975 452.213
275 0 102.166 13.713 1401 120.625 284.624 450.74
276 0 109.208 13.6895 1495 120.064 284.706 446.472
277 0 110.203 14.4098 1588 117.373 284.154 446.354
278 0 114.092 13.8748 1583 118.973 284.585 443.178
279 0 119.139 14.2522 1698 115.693 284.616 440.433
280 0 124.26 13.673 1699 117.704 284.468 438.532
281 1 68.0768 11.7367 799 119.363 284.851 464.93
282 0 70.1259 12.6344 886 117.885 284.764 463.011
283 0 74.0403 13.2766 983 114.463 284.4 462.848
284 0 76.0314 13.7443 1045 114.454 285.397 460.5
285 0 77.2121 12.7312 983 115.829 284.166 460.977
286 0 79.1059 11.7817 932 118.133 284.959 459.095
287 0 83.0464 12.8121 1064 115.289 285.424 457.525
288 0 87.114 13.6258 1187 111.883 284.6 456.537
289 0 88.0714 13.0122 1146 114.002 284.91 453.324
290 0 93.1706 13.5987 1267 111.589 284.938 450.938
291 0 93.1864 12.3838 1154 115.711 284.499 449.539
292 0 97.0683 13.7017 1330 112.313 284.607 449.047
293 0 101.062 14.1002 1425 110.71 285.254 447.671
294 0 101.368 13.1895 1337 114.354 284.734 444.823
295 0 106.13 13.6248 1446 112.451 284.511 446.44
296 0 107.187 12.9866 1392 115.788 285.008 443.197
297 0 109.174 12.0176 1312 117.653 284.422 442.883
298 0 115.243 13.1982 1521 114.399 284.731 439.644
299 0 118.125 13.0286 1539 115.237 284.334 435.969
300 1 89.0724 5.63587 502 114.52 284.779 465.55
301 0 88.1954 7.31331 645 111.612 284.07 464.664
302 0 88.1511 6.35273 560 113.9 284.311 465.341
303 0 85.1444 8.37401 713 113.581 284.815 457.118
304 0 88.1531 18.8309 1660 90.106 284.961 449.648
305 0 89.1554 14.929 1331 100.878 285.354 450.585
306 0 90.1165 16.5231 1489 98.1383 284.971 454.457
307 0 92.3457 16.7198 1544 98.476 284.379 450.416
308 0 91.1115 14.356 1308 107.407 284.422 449.755
309 0 90.0688 13.1455 1184 113.761 283.679 452.18
310 0 92.2161 13.1539 1213 114.635 284.443 452.372
311 0 94.1021 12.869 1211 117.617 283.761 450.545
312 0 98.1603 13.1723 1293 116.327 284.593 450.064
313 0 100.09 13.268 1328 118.401 283.243 447.769
314 0 103.126 13.178 1359 119.971 284.185 446.832
315 0 104.167 12.2592 1277 122.945 285.485 447.655
316 0 110.188 13.0504 1438 121.741 284.404 444.017
317 0 109.101 12.8964 1407 123.798 284.773 441.598
318 0 112.125 13.2173 1482 123.845 284.447 439.205
319 0 116.096 12.6017 1463 126.306 284.409 436.781
320 0 122.188 13.0455 1594 125.294 285.269 436.978
321 0 124.117 13.2295 1642 126.787 285.388 432.485
322 0 128.245 13.6926 1756 125.804 284.163 430.698
323 0 133.275 14.0312 1870 125.888 285.407 430.061
324 0 137.134 13.7603 1887 126.641 284.988 425.626
325 0 140.124 13.4095 1879 127.118 283.911 424.038
326 0 143.184 13.2976 1904 128.115 284.636 420.62
327 1 19.0113 5.57564 106 94.2264 284.226 490.113
328 0 19.0294 8.35549 159 89.6855 283.899 490.742
329 0 13.0149 5.14795 67 93.9552 284.657 492.284
330 0 21.0863 6.87651 145 90.2138 282.786 489.745
331 0 12.0146 4.32806 52 92.6346 284.019 491.288
332 0 22.031 5.35608 118 92.2712 283.958 485.407
333 0 20.0092 4.84777 97 91.5052 283.753 485.784
334 0 14.0012 5.21382 73 86.2877 284.205 493.041
335 0 22.0081 5.17991 114 88.1404 283.693 487.886
336 0 12.012 3.49652 42 88.2619 283.643 492.548
337 0 17.02 3.93655 67 86.806 283.851 490.299
338 0 16.0229 3.55742 57 88.1228 285.035 489.842
339 0 21.0412 3.42186 72 88.8333 285.278 485.375
340 0 19.0062 1.94673 37 89.8108 284.649 490.027
341 0 25.0579 3.31233 83 86.494 285.735 490.494
342 0 23.0204 3.12766 72 93.3333 285.917 485.417
343 0 25.0412 6.30961 158 88.1709 286.658 487.196
344 0 22.0259 3.49589 77 90.974 285.688 487.922
345 0 17.0065 2.46965 42 91.6905 285.81 489.881
346 0 19.0954 2.56606 49 93.9184 286.612 482.265
347 0 26.0665 7.36577 192 85.9583 286.375 487.25
348 0 31.0709 4.92422 153 89.5882 286.569 486.719
349 0 24.1107 1.86639 45 94.8222 286.778 485.422
350 0 17.0221 1.9974 34 93.2941 286.765 489.412
351 0 17.0786 3.39607 58 88.2241 285.759 492.172
352 0 16.0703 3.11134 50 93.52 287 489.14
353 0 17.0446 3.05083 52 89.7885 286.654 491.558
354 0 16.0499 4.36139 70 89.2 287.157 490.8
355 1 190.623 10.6493 2030 113.122 284.464 396.814
356 0 198.355 11.1265 2207 107.402 284.994 399.576
357 0 205.546 10.8978 2240 109.639 285.523 393.705
358 0 208.746 9.9499 2077 111.94 284.814 380.46
359 1 222.399 10.3238 2296 108.253 284.922 388.211
360 0 227.584 10.2731 2338 110.971 283.766 378.241
361 1 169.346 12.1762 2062 101.842 285.324 408.778
362 0 172.637 11.5792 1999 104.524 284.477 404.901
363 0 179.473 12.715 2282 103.22 284.777 402.119
364 0 180.502 11.5844 2091 107.045 284.409 396.908
365 0 188.438 12.5558 2366 104.67 284.701 398.547
366 0 189.452 11.016 2087 109.766 283.865 397.287
367 0 197.679 12.6468 2500 106.994 284.299 393.396
368 0 197.542 12.0177 2374 110.65 282.985 386.154
369 0 207.48 13.905 2885 106.528 284.095 388.094
370 0 212.369 12.2334 2598 111.866 284.013 384.532
371 0 216.529 13.818 2992 110.893 282.707 377.485
372 0 223.473 12.2923 2747 114.843 284.177 372.54
373 1 234.49 15.8259 3711 104.929 283.791 365.642
374 0 238.373 14.1753 3379 109.702 284.194 369.393
375 0 244.71 13.612 3331 111.45 283.741 363.866
376 0 252.341 14.1871 3580 110.628 283.768 365.169
377 0 260.386 12.9769 3379 113.8 283.444 358.888
378 1 72.1023 8.90401 642 100.089 284.445 453.893
379 0 73.0561 7.85698 574 102.537 283.812 450.929
380 0 80.1167 10.3474 829 96.4077 282.574 449.04
381 0 81.1121 10.541 855 96.7216 284.139 450.716
382 0 82.1168 9.71786 798 94.9875 283.986 455.271
383 0 82.2203 10.6543 876 95.2945 283.432 451.752
384 0 85.0627 10.6039 902 94.561 282.907 454.032
385 0 85.1601 8.94786 762 98.0315 282.646 452.592
386 0 89.0855 10.0465 895 96.6804 283.274 448.2
387 0 94.1643 9.85512 928 96.7134 282.408 447.516
388 0 94.224 10.1142 953 97.3977 283.276 445.901
389 0 94.1288 10.0076 942 98.3174 283.117 442.662
390 0 99.1638 10.6692 1058 96.6276 283.422 444.342
391 0 100.187 10.8597 1088 97.9494 283.518 439.965
392 0 104.105 10.4221 1085 98.7171 283.477 439.082
393 0 106.071 10.5119 1115 98.817 282.849 437.857
394 0 111.236 11.4981 1279 96.595 282.944 434.35
395 0 117.265 12.8256 1504 93.9448 282.218 426.993
396 0 118.112 12.412 1466 97.6644 283.244 427.486
397 1 129.26 15.581 2014 88.8019 283.132 420.313
398 0 129.277 14.9678 1935 91.9514 283.897 417.173
399 0 130.264 12.7587 1662 99.3785 282.987 418.738
400 0 129.211 12.3673 1598 102.392 283.665 413.935
401 0 135.177 12.4725 1686 101.77 283.241 419.373
402 0 137.161 10.4768 1437 107.588 282.729 411.85
403 1 152.134 19.049 2898 84.8437 282.577 400.656
404 1 83.1413 10.7047 890 94.6427 283.173 444.697
405 0 87.2036 12.511 1091 89.9395 283.045 445.439
406 0 90.246 11.4908 1037 93.4696 283.617 441.481
407 0 87.1877 9.33618 814 96.3575 282.65 443.704
408 0 91.0789 11.6712 1063 91.8288 283.851 448.76
409 0 91.136 10.1058 921 96.6178 283.388 445.617
410 0 91.1412 10.3466 943 97.3807 283.875 442.701
411 0 96.1253 11.1937 1076 95.7286 283.586 442.152
412 0 96.2265 11.1923 1077 96.2674 283.295 437.713
413 0 99.1051 11.2103 1111 96.7426 283.441 436.009
414 0 101.15 11.0529 1118 96.5572 282.942 437.241
415 0 104.248 10.3024 1074 99.1443 283.699 431.085
416 0 109.292 11.1353 1217 96.9039 282.764 432.49
417 0 112.091 11.5174 1291 96.4632 283.128 431.848
418 0 112.226 11.4591 1286 98.2776 283.11 427.469
419 0 114.11 11.0157 1257 100.453 283.648 425.282
420 0 116.17 11.4229 1327 100.702 283.829 419.566
421 0 120.125 12.6951 1525 96.8544 283.645 423.85
422 0 128.149 12.4542 1596 98.0727 284.001 418.346
423 0 128.354 12.1227 1556 98.4145 283.247 415.859
424 0 135.216 13.2899 1797 95.8982 283.316 416.4
425 1 81.124 10.7736 874 90.5023 282.974 450.622
426 0 82.089 9.47751 778 95.1234 283.111 443.879
427 0 86.0825 10.1531 874 94.9371 282.056 444.807
428 0 87.1117 7.85199 684 100.787 283.029 441.102
429 0 90.2439 11.4578 1034 93.6809 283.017 439.791
430 0 93.2012 10.5149 980 95.5888 281.779 441.558
431 0 92.0814 11.1315 1025 96.1863 282.123 438.253
432 0 99.1247 10.6936 1060 95.8406 282.176 438.441
433 0 105.249 12.1236 1276 90.685 282.832 445.827
434 0 106.234 11.1358 1183 94.2029 282.456 441.462
435 0 110.127 10.9873 1210 94.5504 283.002 442.047
436 0 112.09 11.8387 1327 94.8387 282.779 440.751
437 0 108.097 11.3602 1228 98.1002 282.386 433.208
438 0 113.116 11.4308 1293 98.6868 283.447 433.666
439 0 107.23 11.7691 1262 99.145 282.144 427.239
440 0 113.165 12.2299 1384 97.8873 283.299 423.243
441 0 119.153 12.6057 1502 96.4208 282.3 425.673
442 0 120.124 11.1718 1342 99.9173 283.034 419.821
443 0 125.271 11.9341 1495 98.503 283.019 421.83
444 1 137.225 11.871 1629 98.9263 283.646 422.413
445 0 144.251 11.1611 1610 99.7 283.847 419.397
446 0 150.379 12.7013 1910 95.7005 284.168 416.192
447 0 152.222 12.5146 1905 94.4619 282.114 409.604
448 0 161.301 12.7092 2050 92.2234 282.782 406.172
449 1 88.2151 11.0639 976 91.0215 283.894 439.206
450 0 86.1589 10.3878 895 94.9944 284.451 435.695
451 0 101.091 10.7527 1087 90.9844 284.223 438.569
452 0 96.1382 9.72559 935 95.5786 283.857 436.06
453 0 101.149 10.4895 1061 93.2121 284.295 436.699
454 0 103.156 10.7314 1107 93.5023 284.075 433.149
455 0 103.128 12.6639 1306 90.9219 284.287 431.207
456 0 109.239 12.166 1329 91.3333 284.12 428.865
457 0 118.077 12.8137 1513 87.7184 284.069 440.086
458 0 113.168 12.7156 1439 90.5108 285.006 426.828
459 0 118.086 11.3985 1346 94.3076 283.707 426.279
460 0 123.122 11.9881 1476 93.103 283.864 421.852
461 0 131.197 11.136 1461 94.2218 283.641 420.44
462 0 140.286 13.1089 1839 90.0604 283.537 420.023
463 1 72.0886 8.64214 623 91.4575 283.231 446.75
464 0 85.2363 9.91361 845 85.6982 283.535 450.909
465 0 84.0981 8.2047 690 82.3812 283.848 447.748
466 0 86.0863 10.8844 937 78.8719 283.098 448.651
467 0 85.2509 11.0967 946 80.1871 283.977 444.297
468 0 89.1065 10.1003 900 82.46 284.073 443.921
469 0 95.0871 10.8532 1032 80.4293 284.418 447.437
470 0 99.2375 11.1651 1108 81.9422 283.847 441.931
471 0 99.1412 10.5607 1047 83.7049 284.205 444.335
472 0 98.1209 10.6705 1047 86.5845 284.313 442.203
473 0 105.172 10.1643 1069 88.1282 285.043 438.503
474 0 102.154 10.2982 1052 89.7795 284.493 437.733
475 1 117.162 12.4443 1458 91.3793 284.981 438.586
476 0 117.148 11.3531 1330 94.9639 284.135 433.975
477 0 116.107 12.3679 1436 94.0682 284.687 430.424
478 0 117.258 13.0311 1528 93.3141 284.438 430.281
479 0 125.196 12.1409 1520 95.2711 284.726 424.32
480 0 131.215 12.2471 1607 93.7094 284.134 425.384
481 1 83.0801 11.5912 963 89.6044 284.192 463.119
482 0 83.1613 10.4736 871 89.698 283.652 458.501
483 0 89.2635 11.438 1021 88.5152 284.229 456.316
484 0 90.1335 10.9948 991 89.3804 284.234 460.848
485 0 92.2212 11.9062 1098 89.0173 284.301 454.77
486 0 93.2904 11.1051 1036 91.529 283.776 451.131
487 0 93.0684 10.2935 958 92.0324 284.152 452.571
488 0 95.1094 11.8285 1125 90.1556 283.27 448.68
489 0 97.2973 11.0794 1078 92.5529 283.056 444.257
490 0 99.3093 11.7713 1169 91.9683 282.444 442.249
491 0 100.103 12.1275 1214 92.9761 283.455 439.186
492 0 95.1432 9.94291 946 99.8869 282.89 437.753
493 0 103.273 11.242 1161 97.4884 283.67 437.927
494 0 102.227 12.9907 1328 94.9669 283.072 435.607
495 0 105.118 12.7 1335 97.182 283.104 436.658
496 0 109.17 12.3477 1348 98.7849 282.483 430.05
497 0 114.102 13.1899 1505 97.1854 283.795 424.892
498 0 121.209 12.9941 1575 96.7244 284.406 423.659
499 0 125.203 13.7936 1727 95.4111 283.414 423.618
500 0 126.327 13.378 1690 96.855 284.467 422.591
501 0 130.256 13.2815 1730 96.6942 283.539 419.443
502 1 70.1124 11.0252 773 93.3131 283.946 452.255
503 0 76.1011 10.2758 782 94.2302 283.39 449.855
504 0 78.2279 10.5717 827 93.1221 283.837 450.688
505 0 74.0401 12.1826 902 90.6763 283.942 446.375
506 0 80.1839 12.4838 1001 91.1369 282.94 447.732
507 0 84.1001 13.0202 1095 90.5169 284.064 446.083
508 0 85.1778 12.2097 1040 93.1385 283.436 444.708
509 0 90.1417 10.2838 927 96.3614 284.21 446.029
510 0 95.2001 11.0189 1049 95.1296 283.968 444.409
511 0 94.1493 12.2677 1155 94.1628 282.361 441.242
512 0 100.182 13.0563 1308 93.4434 283.608 438.643
513 0 97.2205 12.7545 1240 95.6024 282.667 437.801
514 0 106.133 13.5961 1443 92.8219 282.921 431.412
515 0 110.281 12.9487 1428 95.2276 283.202 437.307
516 0 110.138 13.1563 1449 95.9586 284.086 434.389
517 1 121.344 13.7048 1663 93.9597 283.239 428.921
518 0 121.335 12.2553 1487 98.3645 283.479 423.716
519 0 132.232 13.7863 1823 93.7894 283.577 429.219
520 0 138.113 13.2862 1835 95.285 283.047 423.597
521 0 142.208 13.4661 1915 95.6726 283.343 422.943
522 1 79.1559 12.7975 1013 87.003 283.085 457.644
523 0 81.1005 10.2466 831 91.148 283.645 456.68
524 0 81.0732 11.3848 923 91.0195 283.928 454.769
525 0 82.1159 10.9479 899 93.1758 283.986 451.497
526 0 90.3326 11.1034 1003 88.8495 283.352 455.577
527 0 95.1198 11.1964 1065 90.7127 284.37 450.426
528 0 97.0934 10.8246 1051 97.9286 284.47 457.573
529 0 100.113 11.3672 1138 93.3568 284.105 455.186
530 0 103.103 14.1605 1460 90.0288 284.505 453.379
531 0 107.146 13.813 1480 92.3939 283.531 452.224
532 0 109.186 11.6956 1277 94.9726 284.662 452.836
533 0 114.236 13.8836 1586 93.8777 284.069 446.805
534 0 116.201 12.0653 1402 98.0407 283.866 445.795
535 0 120.194 12.8126 1540 96.9571 283.72 442.861
536 0 124.265 12.1354 1508 97.0318 283.022 443.509
537 0 129.332 13.4228 1736 95.2195 283.437 433.679
538 1 71.1865 10.0581 716 93.5084 285.034 462.334
539 0 73.0999 9.80849 717 86.304 284.636 459.006
540 0 79.1057 12.4517 985 90.8437 284.984 466.104
541 0 81.0785 11.9761 971 92.9156 284.655 462.615
542 0 85.1177 12.4416 1059 91.4929 283.808 463.954
543 0 85.0786 11.4953 978 95.5521 283.942 461.148
544 0 87.068 9.62467 838 90.7518 284.662 466.432
545 0 91.1355 11.7078 1067 89.313 283.38 460.645
546 0 97.1367 13.6097 1322 85.6929 283.933 455.847
547 0 97.1885 12.7073 1235 89.6526 284.009 453.4
548 0 102.236 12.8428 1313 88.9794 284.53 450.575
549 0 101.149 10.9442 1107 94.0515 283.993 454.54
550 0 104.153 12.6833 1321 92.6064 285.136 453.403
551 0 107.185 11.5501 1238 94.7771 283.535 449.855
552 0 112.222 11.8783 1333 93.9835 283.901 452.608
553 0 115.232 12.0452 1388 94.2089 284.04 449.362
554 0 117.128 12.3369 1445 93.2692 283.749 445.394
555 0 122.166 13.0806 1598 91.0244 283.545 440.167
556 0 123.094 11.3166 1393 97.9986 285.098 441.032
557 0 128.164 12.7415 1633 97.6797 284.169 442.387
558 0 129.215 13.3111 1720 91.9047 283.208 439.427
559 1 70.1432 11.0631 776 93.4343 284.246 469.384
560 0 69.1409 10.1532 702 92.6752 284.783 466.632
561 0 72.1928 11.8987 859 96.7893 285.254 470.952
562 0 70.0914 10.415 730 95.3493 283.758 471.614
563 0 71.0398 11.7821 837 94.4158 283.546 471.514
564 0 71.1505 10.1053 719 98.9903 283.385 470.444
565 0 74.1076 11.5643 857 95.3746 283.469 469.737
566 0 72.1413 10.0774 727 98.8074 284.025 468.966
567 0 78.1438 11.0437 863 94.3094 282.993 469.928
568 0 77.2142 10.4773 809 95.7763 284.363 468.378
569 0 82.0865 11.1224 913 93.5049 283.564 464.876
570 0 83.0793 11.3145 940 93.6745 284.045 463.168
571 0 84.0891 10.3224 868 94.1336 283.925 464.68
572 0 85.1283 10.725 913 93.6846 283.297 462.307
573 0 90.0488 11.3605 1023 91.1652 281.67 462.079
574 0 91.236 11.5415 1053 90.868 282.621 462.22
575 0 93.1108 12.6623 1179 89.8796 282.788 460.308
576 0 96.137 13.0335 1253 89.4661 283.319 459.151
577 0 97.2631 12.1115 1178 92.3362 282.633 454.589
578 0 101.109 11.9673 1210 93.4198 283.054 455.069
579 0 103.226 12.4484 1285 98.3307 282.16 453.349
580 0 105.266 12.0741 1271 100.301 282.603 450.87
581 0 106.187 13.0242 1383 100.297 282.015 446.82
582 0 110.13 11.4683 1263 103.462 282.924 447.509
583 0 114.2 12.2592 1400 102.247 282.659 445.053
584 1 65.0948 11.4909 748 100.35 284.078 470.305
585 0 65.1564 10.6053 691 100.884 283.365 467.366
586 0 64.1124 10.9495 702 98.0698 283.254 462.006
587 0 67.1723 12.0883 812 97.0456 282.871 461.845
588 0 69.1125 11.5175 796 100.06 283.917 460.142
589 0 70.1694 12.2561 860 98.9012 283.484 458.938
590 0 70.1265 11.3937 799 103.056 283.944 459.436
591 0 74.1872 12.1584 902 102.309 283.59 458.086
592 0 71.0499 10.7811 766 108.398 284.073 453.101
593 0 79.1095 12.4005 981 103.877 283.558 454.991
594 0 82.1075 10.5593 867 108.576 283.812 456.051
595 0 85.1224 12.8756 1096 107.128 283.203 457.831
596 0 87.0986 13.6397 1188 104.466 283.708 461.845
597 0 91.1196 11.7648 1072 108.535 283.298 461.855
598 0 94.0704 12.6288 1188 106.275 282.833 460.663
599 0 96.1125 12.4438 1196 109.371 283.576 458.071
600 0 100.119 13.5339 1355 108.056 282.386 456.662
601 0 101.123 12.7765 1292 112.393 283.48 453.812
602 0 105.155 12.3818 1302 112.084 283.096 454.142
603 1 56.0885 11.1609 626 108.537 283.313 474.564
604 0 58.1005 11.1359 647 108.612 282.543 472.706
605 0 63.0693 15.0628 950 98.3768 283.306 472.504
606 0 62.128 11.5407 717 107.576 282.703 472.586
607 0 65.072 11.956 778 107.063 283.049 469.793
608 0 67.0833 11.8509 795 108.049 282.664 470.326
609 0 69.1188 11.6032 802 102.107 282.888 468.287
610 0 80.092 14.9203 1195 91.6368 282.574 460.512
611 0 78.2021 14.7566 1154 94.8778 282.542 460.508
612 0 80.1398 14.7991 1186 97.8954 282.115 461.28
613 0 81.1919 13.4866 1095 101.923 282.412 462.388
614 0 82.2075 13.0037 1069 105.263 282.261 462.376
615 0 86.1435 12.3515 1064 107.644 282.557 461.515
616 0 89.2557 11.5063 1027 110.479 282.204 461.31
617 0 92.1169 12.5058 1152 110.328 282.74 463.074
618 0 95.1274 13.1613 1252 107.079 283.116 464.212
619 0 98.1411 13.2055 1296 108.227 281.155 459.363
620 0 102.206 14.3926 1471 105.682 282.856 458.574
621 0 105.189 13.7656 1448 107.253 282.655 457.025
622 0 106.129 13.2103 1402 109.708 281.838 454.312
623 0 112.148 13.6159 1527 107.603 281.95 453.05
624 0 117.208 13.7363 1610 106.962 282.339 449.653
625 1 62.1466 11.5855 720 104.293 282.84 477.738
626 0 64.0974 12.8086 821 100.959 281.354 477.369
627 0 67.0487 13.6766 917 98.5049 281.701 474.478
628 0 69.059 12.4097 857 100.138 281.373 474.743
629 0 72.208 13.5303 977 94.4739 282.172 467.451
630 0 75.1809 12.6495 951 97.0946 282.564 469.091
631 0 79.0391 13.4617 1064 97.3891 282.43 469.731
632 0 79.0429 12.0567 953 100.928 282.021 469.118
633 0 82.1021 12.862 1056 98.34 283.292 464.553
634 0 84.0338 13.0662 1098 99.9071 282.413 465.518
635 0 87.1024 12.3303 1074 100.324 283.211 462.601
636 0 91.1281 13.1353 1197 98.4461 282.419 462.932
637 0 94.1609 13.3176 1254 100.615 282.903 460.373
638 0 97.207 11.8921 1156 102.125 281.968 462.17
639 0 102.187 13.6416 1394 99.7561 283.022 457.411
640 0 103.162 13.0087 1342 103.36 281.779 455.227
641 1 57.0789 11.3527 648 103.309 282.866 478.785
642 0 62.1502 12.1158 753 101.13 283.477 477.806
643 0 63.1382 13.8427 874 98.4748 282.954 476.775
644 0 65.0787 13.1533 856 101.215 282.707 474.395
645 0 68.1097 12.8616 876 100.592 282.436 474.264
646 0 71.1126 12.1779 866 101.68 282.595 473.859
647 0 74.1165 13.02 965 100.521 283.703 471.175
648 0 76.0612 14.0676 1070 99.6533 284.249 471.956
649 0 79.1135 13.4364 1063 103.064 283.593 467.595
650 0 82.2295 13.9731 1149 102.103 284.097 466.027
651 0 86.1358 14.5932 1257 100.954 283.603 466.539
652 0 94.1159 15.874 1494 98.9224 284.281 460.882
653 0 94.1587 16.5996 1563 97.4715 283.717 459.999
654 0 96.1289 15.0735 1449 101.239 284.155 461.334
655 0 98.0734 14.1425 1387 103.481 282.667 459.561
656 0 100.173 13.5466 1357 106.86 282.613 458.479
657 0 102.197 13.5425 1384 107.676 282.433 455.837
658 0 108.166 13.5995 1471 107.413 283.506 455.715
659 0 111.145 13.5588 1507 109.452 283.564 452.894
660 0 115.263 13.8726 1599 109.522 283.774 452.102
661 1 66.101 13.676 904 107.876 283.283 475.194
662 0 66.0447 12.0222 794 109.067 283.394 472.61
663 0 69.1037 12.4595 861 111.618 283.67 471.148
664 0 73.0596 14.7961 1081 103.817 282.642 472.164
665 0 74.1178 13.6135 1009 107.486 282.538 470.052
666 0 78.0933 13.1894 1030 108.698 282.85 467.214
667 0 80.1067 13.4196 1075 108.649 282.72 466.548
668 0 83.1447 14.2883 1188 105.73 283.088 465.053
669 0 85.052 13.8974 1182 107.729 284.346 464.629
670 0 90.1152 15.0252 1354 104.45 284.03 461.549
671 1 102.391 19.1032 1956 89.9407 283.698 449.043
672 0 100.179 16.8499 1688 99.4805 283.435 450.21
673 0 102.048 15.6104 1593 103.61 283.548 450.788
674 0 104.158 14.67 1528 106.27 283.08 451.571
675 0 107.242 14.1736 1520 107.687 282.689 452.447
676 0 110.174 14.2956 1575 107.21 283.906 450.184
677 0 115.177 13.2926 1531 108.505 282.561 448.246
678 1 62.0967 12.0135 746 107.042 283.948 473.633
679 0 65.2028 12.2694 800 107.434 283.23 470.887
680 0 68.0875 12.7189 866 104.845 283.274 471.167
681 0 67.0935 12.1621 816 107.918 283.088 469.647
682 0 72.1114 13.0077 938 105.732 283.557 467.884
683 0 77.0616 12.7041 979 104.53 283.641 467.198
684 0 78.1159 13.5824 1061 107.504 283.149 454.14
685 0 81.1099 14.1536 1148 104.572 281.945 462.402
686 0 84.1354 13.5258 1138 105.613 283.155 461.574
687 0 86.0891 13.4976 1162 104.394 283.357 462.85
688 0 94.0746 17.3905 1636 93.25 284.15 454.307
689 0 100.205 18.4522 1849 89.2931 282.651 446.486
690 0 102.098 16.6116 1696 95.1975 283.167 450.925
691 0 101.394 15.6814 1590 97.8906 283.091 449.556
692 0 102.25 13.4083 1371 104.624 282.713 449.904
693 0 104.201 13.8482 1443 105.055 283.171 449.376
694 0 105.131 13.3358 1402 107.684 282.958 447.366
695 1 63.1312 12.6403 798 105.643 283.748 472.886
696 0 65.0826 13.2447 862 106.932 283.135 472.324
697 0 67.0709 13.4783 904 108.643 283.626 469.358
698 0 68.0483 12.2854 836 109.116 283.727 472.661
699 0 70.0517 13.7042 960 107.968 283.857 469.398
700 0 73.0823 14.1895 1037 108.791 283.256 468.376
701 0 75.0502 13.964 1048 110.448 283.395 467.39
702 0 78.0708 13.2828 1037 112.816 283.842 467.695
703 0 81.0841 14.1088 1144 111.749 284.237 464.262
704 1 93.0912 15.5976 1452 102.328 283.446 458.871
705 0 95.1599 17.1186 1629 100.146 283.463 456.659
706 0 93.0733 15.0634 1402 109.961 284.81 457.974
707 0 94.0684 14.3087 1346 113.257 284.594 458.753
708 0 94.0672 13.9687 1314 114.344 283.77 460.734
709 0 98.1173 13.1475 1290 118.352 284.447 455.091
710 0 101.042 14.4296 1458 115.553 284.2 454.734
711 0 107.196 16.0174 1717 114.966 284.809 448.184
712 0 111.188 14.9117 1658 119.277 284.321 447.139
713 0 117.228 15.7044 1841 115.965 284.638 447.509
714 0 119.116 14.5992 1739 118.968 284.75 446.592
715 0 121.086 14.5516 1762 119.684 284.879 445.33
716 0 128.199 15.4057 1975 119.973 284.412 439.099
717 0 133.206 16.1254 2148 118.022 284.838 437.767
718 1 74.1192 13.0061 964 124.388 284.083 466.392
719 0 78.0748 13.7048 1070 116.067 284.849 466.057
720 0 80.1098 14.8421 1189 114.833 284.257 461.616
721 0 83.085 15.0328 1249 113.093 284.751 461.272
722 0 87.1271 14.6453 1276 114.367 284.785 459.433
723 0 87.0985 13.146 1145 120.215 284.946 455.879
724 0 91.1165 14.6626 1336 115.58 283.92 452.214
725 0 94.1271 14.8947 1402 116.083 284.096 450.419
726 0 99.1797 15.5072 1538 113.94 283.67 450.141
727 0 103.248 14.3053 1477 117.852 283.393 449.552
728 0 105.091 14.5112 1525 117.702 284.54 448.124
729 0 108.123 13.5124 1461 119.884 283.589 446.097
730 0 112.256 13.7988 1549 117.883 283.937 445.389
731 1 62.43 14.0958 880 117.482 283.708 467.351
732 0 64.1948 13.1786 846 119.943 284.316 465.411
733 0 67.2661 13.3054 895 119.893 284.183 465.936
734 0 74.1102 16.1246 1195 108.721 284.211 462.085
735 0 76.1732 16.6069 1265 107.878 284.609 460.782
736 0 74.1656 14.2789 1059 116.05 283.398 462.788
737 0 77.2015 14.0153 1082 117.492 284.067 459.902
738 0 80.172 14.207 1139 116.054 283.581 459.272
739 0 84.5155 14.6482 1238 113.794 283.447 455.958
740 0 85.2304 14.1381 1205 116.427 283.19 456.563
741 0 89.441 14.3558 1284 116.017 283.284 452.54
742 0 95.0929 16.0895 1530 110.209 283.644 453.052
743 0 95.1731 12.8713 1225 120.593 282.74 451.035
744 0 102.217 16.8758 1725 108.144 283.664 445.683
745 0 103.274 14.0499 1451 117.328 282.614 447.079
746 0 107.195 14.4316 1547 114.523 283.303 448.664
747 0 110.371 15.6745 1730 111.827 283.451 445.553
748 0 111.411 13.2393 1475 120.19 283.117 440.826
749 1 64.1192 12.3832 794 115.413 282.936 467.374
750 0 67.1559 13.8186 928 112.52 284.009 464.983
751 0 67.0835 12.9987 872 115.939 282.806 462.523
752 0 70.1592 11.702 821 118.306 283.638 462.745
753 0 75.2348 14.5279 1093 110.078 282.943 461.532
754 0 75.0899 13.5438 1017 114.212 283.414 459.904
755 0 83.1488 14.023 1166 109.802 282.78 457.895
756 0 86.357 15.598 1347 106.013 283.713 455.159
757 0 86.2297 13.0697 1127 114.547 282.755 453.072
758 0 92.0582 13.3611 1230 111.517 282.224 454.793
759 0 93.1483 13.5698 1264 112.817 282.417 450.765
760 0 94.1163 14.0465 1322 112.67 283.358 450.042
761 0 100.187 12.9757 1300 115.078 283.192 448.363
762 0 104.095 13.5453 1410 112.904 283.158 447.885
763 0 107.081 12.3738 1325 116.7 281.928 444.5
764 0 110.191 13.4312 1480 114.536 281.78 441.507
765 1 66.2063 11.0412 731 109.457 282.696 466.995
766 0 68.0847 10.4135 709 110.742 283.392 463.525
767 0 71.042 10.5571 750 109.667 282.431 462.475
768 0 72.0711 10.1289 730 112.211 282.07 456.952
769 0 76.0905 11.6572 887 107.861 282.505 459.947
770 0 81.1152 13.2158 1072 104.883 283.389 458.528
771 0 80.098 12.5471 1005 108.285 281.968 454.075
772 0 85.077 12.189 1037 107.543 282.501 455.922
773 0 92.1237 12.4615 1148 106.26 281.74 453.149
774 0 95.1151 11.8698 1129 107.196 282.322 453.497
775 0 98.0883 13.5082 1325 103.838 281.768 453.432
776 0 101.109 13.085 1323 106.013 282.905 450.008
777 0 106.207 13.0782 1389 105.643 282.11 449.491
778 0 108.177 11.9988 1298 108.797 282.873 446.314
779 0 112.151 14.4626 1622 102.774 281.559 442.978
780 0 117.174 12.9466 1517 106.973 281.558 442.796
781 0 121.162 13.0735 1584 108.104 281.116 440.246
782 0 126.092 12.4909 1575 108.942 282.061 439.585
783 0 131.245 12.6024 1654 109.252 281.51 437.31
784 0 134.199 12.5932 1690 110.337 282.02 434.998
785 0 141.193 12.6848 1791 115.316 281.4 430.343
786 1 69.1459 8.1422 563 92.9343 282.652 470.538
787 0 70.2275 11.534 810 91.7136 282.914 472.328
788 0 71.2246 10.2773 732 94.515 284.064 471.484
789 0 74.1852 10.3255 766 94.2702 282.123 471.826
790 0 75.1461 9.90072 744 96.0457 281.714 469.749
791 0 79.1661 11.798 934 92.2784 281.692 467.525
792 0 80.0973 12.0104 962 93.4439 281.83 465.453
793 0 83.2058 12.9799 1080 93.4833 281.606 464.837
794 0 84.071 13.1318 1104 96.0136 282.315 461.701
795 0 88.0883 12.6464 1114 106.385 280.978 462.423
796 0 91.1019 11.3938 1038 109.922 282.329 459.597
797 0 93.1144 11.6416 1084 109.637 281.727 460.257
798 0 96.2486 11.8132 1137 109.586 281.467 456.551
799 0 98.1216 10.0386 985 113.453 281.712 453.59
800 0 101.084 10.7039 1082 111.471 281.813 455.511
801 0 105.19 12.1019 1273 109.32 282.057 454.036
802 0 107.214 12.3304 1322 109.023 281.531 453.115
803 0 111.138 11.8681 1319 111.758 281.904 447.892
804 0 116.178 14.0474 1632 106.802 280.588 446.319
805 0 117.106 11.4682 1343 113.033 281.603 444.821
806 0 122.109 11.6453 1422 112.468 281.571 443.605
807 0 125.141 11.0675 1385 113.913 281.056 442.656
808 0 130.195 11.9897 1561 114.006 280.959 438.929
809 0 133.208 11.1931 1491 115.84 281.198 438.72
810 0 136.32 11.385 1552 116.66 281.54 435.906
811 0 143.144 13.3642 1913 112.103 281.043 433.199
812 0 143.151 13.4124 1920 132.885 280.046 433.292
813 1 152.289 11.662 1776 118.337 281.394 428.996
814 0 157.253 12.7438 2004 118.108 280.121 422.039
815 1 92.1018 10.141 934 111.631 282.139 456.09
816 0 95.154 11.4026 1085 108.215 281.902 452.153
817 0 99.0764 11.6577 1155 106.968 281.14 452.355
818 0 102.088 10.1971 1041 107.473 281.095 451.591
819 0 104.144 9.7557 1016 108.321 281.803 446.422
820 0 109.091 11.1466 1216 106.265 282.123 445.909
821 0 115.145 11.073 1275 106.86 281.362 443.318
822 0 114.195 10.0004 1142 110.575 281.438 438.784
823 0 120.173 11.3836 1368 108.196 280.936 439.944
824 0 123.186 10.3015 1269 111.779 281.426 434.278
825 0 128.211 11.8788 1523 109.494 282.136 434.335
826 0 133.175 10.948 1458 111.606 281.919 432.885
827 0 136.329 10.8048 1473 114.089 281.564 424.399
828 0 145.28 11.027 1602 112.919 282.338 426.107
829 0 148.319 11.01 1633 114.103 281.844 420.879
830 0 152.223 12.5868 1916 110.868 282.359 417.933
831 0 156.276 12.6955 1984 110.034 281.746 416.11
832 0 162.224 12.0882 1961 110.753 281.858 405.049
833 0 168.293 12.603 2121 109.142 281.349 409.426
834 0 164.232 11.9221 1958 113.672 280.947 397.054
835 0 172.22 13.8486 2385 108 280.946 395.724
836 0 179.284 13.4201 2406 108.356 280.573 396.232
837 0 184.26 13.2801 2447 109.585 281.618 396.281
838 0 189.347 13.9902 2649 109.142 281.061 388.895
839 0 196.349 13.7765 2705 109.51 281.569 387.521
840 0 203.246 14.2783 2902 108.389 280.911 387.096
841 0 207.24 14.4953 3004 109.06 281.216 381.571
842 0 215.275 15.4221 3320 106.87 281.051 380.207
843 0 221.318 14.7571 3266 109.329 282.358 371.577
844 0 224.187 13.2166 2963 113.89 281.52 375.385
845 0 223.253 10.0558 2245 119.277 282.3 381.487
846 0 223.46 10.2658 2294 117.973 282.095 383.802
847 0 222.227 10.6198 2360 114.941 281.415 386.583
848 1 68.0663 10.3429 704 92.6989 283.416 466.574
849 0 70.026 10.9816 769 92.9961 283.317 466.317
850 0 73.1199 8.97157 656 100.68 282.905 467.41
851 0 75.1158 10.384 780 98.7885 282.615 464.204
852 0 79.0434 11.4874 908 96.5441 282.653 462.171
853 0 79.0999 10.6448 842 98.2363 283.046 462.019
854 0 81.0606 10.8437 879 98.843 283.651 457.527
855 0 84.1106 10.2841 865 99.9538 284.215 459.496
856 0 87.1 12.0207 1047 97.0917 282.84 458.028
857 0 91.0976 11.6578 1062 97.0895 283.911 458.677
858 0 92.1145 12.1154 1116 97.3925 283.541 455.57
859 0 95.1125 11.1237 1058 98.6125 283.367 453.792
860 0 97.0679 11.7547 1141 96.5311 282.535 456.283
861 0 98.0518 10.9942 1078 100.234 282.651 449.301
862 0 102.116 11.5359 1178 98.6995 282.213 450.786
863 0 105.241 12.096 1273 99.5538 282.201 447.803
864 0 107.152 11.7497 1259 97.9198 281.488 447.095
865 0 111.181 10.8022 1201 100.132 282.08 443.973
866 0 114.183 11.9458 1364 98.2632 282.07 442.084
867 0 116.154 11.0026 1278 91.3169 282 445.951
868 0 126.214 13.3107 1680 89.9458 281.733 437.086
869 0 122.182 11.0491 1350 98.0926 281.048 438.503
870 0 138.19 17.3602 2399 85.5652 282.078 427.346
871 0 130.202 11.2978 1471 98.7342 281.931 420.472
872 0 137.334 14.7814 2030 90.7936 281.573 423.786
873 0 144.249 14.9395 2155 89.6691 281.808 422.639
874 1 84.149 10.7666 906 84.5839 281.831 457.975
875 0 90.1665 11.4677 1034 87.559 282.81 459.121
876 0 92.2117 11.8532 1093 90.1098 282.115 458.656
877 0 94.2048 12.2181 1151 90.0304 283.156 457.138
878 0 95.1046 12.1445 1155 90.9247 281.971 458.015
879 0 100.204 12.8138 1284 96.6051 281.649 452.33
880 0 102.132 12.8657 1314 93.879 282.634 453.498
881 0 106.093 13.1111 1391 94.2624 283.044 450.861
882 0 105.166 10.9541 1152 99.8802 283.043 447.659
883 0 110.138 12.103 1333 96.7539 281.944 445.569
884 0 115.223 11.916 1373 96.6307 282.32 446.699
885 0 116.14 11.6325 1351 98.9497 282.862 441.011
886 0 119.21 10.578 1261 101.939 282.637 440.077
887 0 123.269 11.3491 1399 100.773 282.868 437.357
888 0 126.167 11.0567 1395 101.677 282.824 437.628
889 0 128.291 11.622 1491 100.94 282.75 431.671
890 0 134.233 11.8525 1591 100.799 282.119 433.39
891 0 137.247 11.8691 1629 102.24 282.82 433.058
892 0 142.293 13.0787 1861 101.41 282.454 428.8
893 0 144.293 13.5626 1957 103.011 281.923 421.709
894 0 147.097 12.4611 1833 105.723 281.671 425.615
895 0 154.143 12.2549 1889 107.551 282.862 419.363
896 0 155.223 12.7752 1983 107.922 283.229 417.591
897 0 161.309 11.8159 1906 110.531 282.508 415.561
898 0 167.311 12.5335 2097 109.144 281.75 414.373
899 0 170.238 12.2534 2086 110.433 281.833 407.38
900 0 177.202 14.2154 2519 105.785 281.179 407.911
901 1 105.153 10.3468 1088 104.233 282.641 442.165
902 0 110.092 11.9173 1312 100.056 282.088 440.707
903 0 115.169 12.9288 1489 98.726 282.248 440.801
904 0 118.212 10.718 1267 102.946 282.7 441.616
905 0 120.143 11.6528 1400 99.5364 283.096 439.261
906 0 126.282 11.8623 1498 100.718 281.718 438.293
907 0 130.195 12.1664 1584 100.684 282.665 435.816
908 0 131.219 10.8674 1426 104.705 281.955 431.139
909 0 135.149 10.6475 1439 105.564 282.388 426.14
910 0 138.331 10.7929 1493 105.969 282.137 424.051
911 0 144.202 11.2204 1618 104.43 282.122 423.083
912 0 149.256 12.3345 1841 102.423 281.84 415.679
913 0 152.323 10.7863 1643 105.473 282.836 415.672
914 1 89.1346 11.4434 1020 100.263 282.66 446.774
915 0 91.1632 10.7061 976 101.328 282.482 447.807
916 0 93.2528 10.9487 1021 100.736 282.881 446.829
917 0 96.2926 10.6758 1028 101.31 282.371 446.44
918 0 101.234 11.1524 1129 100.065 282.088 443.532
919 0 107.236 12.757 1368 96.6542 281.711 441.305
920 0 110.253 12.4078 1368 98.0775 282.517 438.824
921 0 105.353 10.2228 1077 104.744 282.268 432.246
922 0 114.236 11.8089 1349 99.9629 281.595 434.179
923 0 121.351 12.2455 1486 100.596 281.664 431.766
924 0 124.125 12.286 1525 102.155 281.626 428.745
925 0 128.383 10.975 1409 105.992 282.331 423.09
926 0 133.258 14.1605 1887 98.7255 282.513 424.665
927 0 136.224 12.7878 1742 101.615 281.556 419.228
928 0 142.161 13.2456 1883 100.543 281.454 420.365
929 0 144.282 12.2676 1770 103.141 281.882 417.462
930 0 152.156 12.0402 1832 104.829 281.807 410.472
931 0 155.307 12.0278 1868 106.203 281.819 409.31
932 0 165.306 13.5022 2232 101.499 281.883 411.591
933 0 171.398 12.9698 2223 103.922 282.717 409.564
934 0 175.311 13.2051 2315 104.487 282.356 406.733
935 0 179.286 14.2956 2563 104.499 281.924 401.206
936 0 187.416 13.6808 2564 106.864 282.411 397.04
937 0 191.232 14.5111 2775 105.8 281.366 395.726
938 0 198.394 14.7131 2919 106.409 281.678 391.124
939 0 205.138 15.0484 3087 106.145 282.023 393.184
940 0 208.378 13.1252 2735 113.336 281.898 387.882
941 0 218.328 14.7118 3212 109.704 282.411 383.068
942 0 221.529 13.145 2912 115.398 282.21 380.313
943 0 230.277 14.1655 3262 113.61 282.106 373.72
944 1 181.156 12.619 2286 115.912 281.561 402.31
945 0 188.277 12.949 2438 116.719 282.2 398.955
946 0 195.199 13.7296 2680 115.518 281.312 394.884
947 0 201.222 13.6765 2752 117.383 281.662 390.476
948 0 208.227 13.4517 2801 119.3 281.301 385.942
949 0 215.209 13.2151 2844 121.387 282.119 376.868
950 0 225.325 12.9679 2922 121.18 282.093 382.115
951 0 231.292 14.1942 3283 118.906 282.123 374.062
952 0 240.277 14.1712 3405 117.83 281.849 371.851
953 0 248.333 13.3731 3321 122.455 282.071 357.084
954 0 257.263 12.9828 3340 123.468 281.842 360.743
955 0 267.464 13.2878 3554 122.997 282.134 356.188
956 0 275.538 13.7332 3784 123.002 281.152 350.091
957 1 201.209 13.394 2695 117.14 281.906 390.99
958 0 203.353 13.2774 2700 118.697 281.529 387.341
959 0 213.316 13.3511 2848 118.768 281.972 384.174
960 0 218.218 12.9503 2826 120.544 280.713 380.945
961 0 228.313 13.118 2995 120.76 282.343 384.755
962 0 237.36 13.9114 3302 118.819 281.154 376.093
963 0 241.233 13.2403 3194 120.728 281.88 369.121
964 0 248.25 13.0715 3245 124.225 281.745 358.616
965 0 256.128 12.9154 3308 124.512 282.232 371.496
966 1 66.0856 10.7739 712 98.486 281.65 468.567
967 0 65.0563 10.0836 656 95.5305 280.639 469.671
968 0 68.0432 8.27415 563 99.087 280.881 469.755
969 0 71.0815 9.67903 688 97.3953 281.094 466.975
970 0 72.1075 11.3026 815 95.562 280.591 466.96
971 0 74.1852 10.1233 751 96.4288 280.848 466.565
972 0 78.1724 11.2956 883 94.9083 281.356 464.734
973 0 79.2196 10.3636 821 99.4056 281.905 464.475
974 0 83.0933 11.6134 965 99.3575 280.821 462.947
975 0 85.2829 11.4443 976 101.391 281.943 461.337
976 0 87.1457 9.71936 847 106.883 280.996 458.49
977 0 88.1017 11.3278 998 103.038 280.667 458.883
978 0 93.1983 10.8264 1009 104.566 281.27 454.465
979 0 95.2603 10.2981 981 105.991 280.46 454.767
980 1 56.1256 9.28275 521 107.06 280.937 474.298
981 0 59.0872 11.6438 688 98.5131 281.244 473.641
982 0 59.055 11.193 661 98.5779 281.717 474.11
983 0 59.0625 10.2434 605 100.876 281.334 474.836
984 0 60.1355 11.9563 719 99.4548 282.241 473.526
985 0 62.0561 10.8773 675 102.821 281.538 471.929
986 0 65.1174 12.0398 784 102.532 280.972 470.25
987 0 67.1313 10.8593 729 107.051 281.38 468.265
988 0 69.0637 12.293 849 103.378 281.923 468.216
989 0 70.0959 11.6412 816 104.124 281.192 466.447
990 0 70.0756 9.90358 694 108.383 282.441 466.808
991 1 99.3185 19.221 1909 75.7721 281.809 450.913
992 0 96.1731 15.8984 1529 85.7809 282.084 455.824
993 0 98.195 21.1722 2079 76.1799 281.311 452.037
994 0 94.1501 15.6771 1476 90.2432 282.163 456.508
995 0 98.2104 20.0895 1973 81.2519 281.796 451.871
996 0 96.2198 18.5617 1786 87.5907 281.783 452.234
997 0 90.2153 13.0244 1175 104.531 282.309 454.487
998 0 95.2405 15.3506 1462 101.332 283.109 452.158
999 0 97.3041 14.0796 1370 104.745 283.047 450.661
1000 0 100.149 12.2418 1226 105.782 282.097 450.197
1001 0 105.1 13.0732 1374 103.406 282.517 451.188
1002 0 107.24 13.7262 1472 102.507 282.827 448.319
1003 0 110.125 13.3939 1475 103.637 282.929 445.918
1004 0 112.148 12.4211 1393 106.309 282.875 445.966
1005 0 118.242 12.8973 1525 104.217 282.581 445.082
1006 1 66.0684 10.0048 661 99.6172 283.625 470.281
1007 0 70.078 10.8451 760 96.9105 283.007 469.658
1008 0 72.0244 12.6763 913 94.9146 283.461 467.081
1009 0 74.0769 13.1755 976 95.0297 282.952 464.433
1010 0 78.1387 13.2073 1032 95.0184 282.915 464.74
1011 0 80.1334 13.4027 1074 95.6462 283.143 462.384
1012 0 81.112 12.2793 996 99.3373 283.556 462.797
1013 0 83.2421 14.7161 1225 96.8629 282.909 456.964
1014 0 86.1145 13.6214 1173 98.8679 282.784 459.615
1015 0 90.1085 13.1952 1189 100.206 283.002 456.786
1016 0 92.0849 12.7491 1174 102.877 282.527 457.587
1017 0 97.3107 14.13 1375 99.2487 282.564 454.096
1018 0 99.1499 12.7383 1263 102.07 282.42 452.418
1019 0 100.197 11.9864 1201 104.445 283.514 451.377
1020 0 103.228 13.2619 1369 103.061 282.863 446.251
1021 0 105.346 12.0745 1272 105.525 282.514 445.726
1022 0 114.247 15.2039 1737 97.0138 282.903 441.144
1023 0 118.124 14.6625 1732 98.1917 282.598 439.023
1024 0 120.148 14.1825 1704 100.638 282.646 439.763
1025 0 122.176 13.4232 1640 103.999 283.402 438.041
1026 0 127.18 12.3368 1569 106.098 282.939 435.546
1027 0 134.167 13.3937 1797 103.018 282.648 433.337
1028 1 73.1644 12.2874 899 98.6051 282.638 466.772
1029 0 75.2246 11.7116 881 103.413 282.732 463.53
1030 0 74.0505 10.3308 765 100.268 282.813 463.153
1031 0 79.1055 10.8589 859 98.4307 283.916 462.391
1032 0 83.1012 12.551 1043 95.7967 283.875 459.661
1033 0 89.283 13.138 1173 93.6113 282.229 455.187
1034 0 89.1152 12.3211 1098 98.1676 284.005 454.495
1035 0 94.2266 13.5206 1274 95.595 282.963 454.364
1036 0 97.151 12.9386 1257 100.045 282.875 453.235
1037 0 98.1749 13.0889 1285 98.7743 282.316 452.781
1038 0 100.397 11.9227 1197 102.816 283.028 449.006
1039 0 104.167 12.096 1260 102.444 283.125 447.994
1040 0 107.32 11.7593 1262 102.308 282.33 447.838
1041 0 113.135 13.0286 1474 98.7151 282.832 443.612
1042 0 115.211 11.3358 1306 103.098 282.82 441.049
1043 0 121.213 12.7131 1541 101.04 283.276 441.789
1044 1 73.1098 12.4197 908 93.7952 284.264 468.685
1045 0 72.1264 11.9651 863 95.3221 283.148 465.769
1046 0 74.1229 12.2095 905 95.4398 282.958 462.728
1047 0 76.0681 13.6851 1041 93.2949 282.935 461.512
1048 0 80.1541 13.1247 1052 94.7738 283.476 461.04
1049 0 81.0631 11.7193 950 98.6137 283.007 459.499
1050 0 87.1559 12.9423 1128 95.1144 283.524 460.193
1051 0 87.2583 12.6635 1105 98.4199 282.805 457.955
1052 0 91.0593 12.7939 1165 98.9348 283.26 455.568
1053 0 91.0706 12.6495 1152 100.893 283.315 452.744
1054 0 94.0308 12.8469 1208 101.284 283.764 452.554
1055 0 101.088 14.5715 1473 100.851 283.493 449.37
1056 0 104.19 12.2468 1276 106.218 283.126 449.995
1057 0 108.179 12.5533 1358 104.243 282.587 447.783
1058 0 111.081 13.3326 1481 102.758 282.866 444.564
1059 0 118.334 16.7745 1985 94.3028 283.258 438.099
1060 1 59.0732 10.8509 641 107.017 282.81 468.097
1061 0 64.1652 12.6237 810 104.267 283.302 468.512
1062 0 64.097 13.0427 836 98.6459 283.617 465.335
1063 0 68.0369 12.7431 867 104.829 283.754 466.386
1064 0 70.1592 13.5834 953 102.961 282.959 465.449
1065 0 73.086 14.2572 1042 101.939 283.637 463.463
1066 0 72.0676 12.1414 875 101.386 283.16 466.397
1067 0 74.158 11.5564 857 103.56 283.667 466.12
1068 0 78.2719 11.8689 929 103.05 284.118 464.731
1069 0 81.0589 13.262 1075 100.869 284.464 462.357
1070 0 82.086 10.2697 843 105.925 283.102 463.609
1071 0 85.1258 11.7121 997 104.176 283.507 459.294
1072 1 99.2846 16.8505 1673 87.8273 283.817 451.16
1073 0 101.311 17.3525 1758 87.368 283.127 446.734
1074 0 101.426 14.6708 1488 95.4583 283.298 449.153
1075 0 104.359 15.8204 1651 94.6602 283.084 448.997
1076 0 106.173 15.9363 1692 94.6554 283.009 445.595
1077 0 108.155 13.3327 1442 100.702 283.035 444.51
1078 1 56.0392 10.2785 576 102.519 283.339 464.828
1079 0 61.0472 12.2528 748 99.8463 283.952 468.916
1080 0 61.0755 11.4285 698 100.67 282.927 470.288
1081 0 63.1546 11.9073 752 99.609 283.779 468.779
1082 0 66.1048 12.3289 815 98.4221 283.146 467.924
1083 0 68.4882 12.2795 841 99.1522 283.122 465.133
1084 0 71.0744 12.3955 881 98.7151 283.191 464.868
1085 0 75.1764 12.5172 941 100.198 284.074 463.915
1086 0 78.2332 13.2936 1040 99.4048 284.56 461.366
1087 0 82.1851 14.4795 1190 103.982 283.588 460.026
1088 0 83.1966 13.438 1118 107.284 283.453 460.343
1089 0 86.1732 13.6005 1172 107.498 283.834 458.52
1090 0 94.1693 16.8739 1589 97.3172 283.912 451.303
1091 0 94.1566 14.4546 1361 105.056 284.632 451.722
1092 0 97.3343 14.4862 1410 104.879 282.872 450.443
1093 0 99.209 14.1015 1399 106.006 284.573 450.297
1094 0 103.208 14.0009 1445 106.216 283.474 446.61
1095 1 57.1134 13.0792 747 104.734 283.88 469.882
1096 0 58.0778 12.466 724 107.286 283.565 469.506
1097 0 61.0295 14.1571 864 103.999 283.123 470.115
1098 0 62.0147 12.9485 803 100.553 283.295 470.719
1099 0 64.1448 13.7501 882 99.3878 283.349 469.493
1100 0 65.1392 13.4942 879 101.063 283.829 469.3
1101 0 67.1107 12.7103 853 104.423 283.75 466.751
1102 0 70.0909 13.725 962 102.555 282.642 466.163
1103 0 71.0481 12.9912 923 104.918 283.694 464.919
1104 0 73.0925 12.5184 915 106.385 283.903 465.937
1105 0 79.1181 13.3977 1060 103.608 283.73 464.4
1106 0 79.0599 12.6613 1001 107.356 283.603 461.78
1107 0 83.1086 14.0178 1165 105.631 283.523 458.153
1108 0 86.1285 13.5147 1164 106.092 283.669 459.775
1109 0 88.0487 13.2086 1163 108.309 284.187 453.733
1110 0 91.1079 12.7322 1160 108.054 284.016 457.191
1111 0 100.164 15.7042 1573 98.1011 284.582 449.775
1112 0 101.089 15.4616 1563 100.965 284.276 447.634
1113 0 102.093 13.997 1429 113.192 283.834 443.4
1114 1 56.1288 11.6696 655 109.931 283.376 471.421
1115 0 58.0867 12.378 719 97.4381 284.139 472.039
1116 0 59.0566 11.2096 662 103.237 283.554 473.014
1117 0 63.0643 14.1284 891 96.7767 283.122 468.85
1118 0 63.1062 12.3284 778 95.9512 282.878 464.884
1119 0 63.0707 11.0194 695 98.5914 283.473 464.291
1120 0 66.1931 11.9499 791 96.5259 283.412 462.803
1121 0 69.0956 11.8966 822 96.0852 284.099 462.777
1122 0 73.0575 13.1951 964 95.5799 283.543 463.368
1123 0 77.0437 14.7838 1139 93.2669 284.232 463.331
1124 0 81.0737 12.8402 1041 96.975 284.649 461.259
1125 0 88.1351 17.5186 1544 85.2118 283.679 453.556
1126 0 89.1391 15.9302 1420 89.9134 284.333 453.06
1127 0 90.0486 13.8037 1243 94.9389 283.32 455.048
1128 0 92.1538 13.1845 1215 97.8272 284.072 454.641
1129 0 96.1365 15.3636 1477 92.742 283.22 449.932
1130 0 97.1778 13.182 1281 98.2116 283.706 448.305
1131 1 52.1204 12.5287 653 99.7106 283.332 471.429
1132 0 55.2 13.279 733 92.6221 283.859 472.065
1133 0 57.1573 13.1567 752 93.8617 282.492 469.354
1134 0 58.054 13.1602 764 94.6309 283.097 471.221
1135 0 61.0471 14.6608 895 91.4927 284.235 468.758
1136 0 61.0783 12.5413 766 97.5274 283.181 470.272
1137 0 63.1308 13.7334 867 95.5848 282.961 467.531
1138 0 65.2292 12.6784 827 98.243 283.381 466.9
1139 0 67.0722 12.5238 840 99.4131 283.192 465.175
1140 0 71.0354 13.5144 960 97.5458 282.818 464.111
1141 0 72.1252 13.9618 1007 97.9285 283.953 462.347
1142 0 74.2296 14.5495 1080 97.4731 282.968 460.681
1143 0 77.1424 14.5964 1126 96.8819 283.947 461.143
1144 0 76.0729 12.8955 981 101.549 283.418 459.383
1145 0 79.0735 12.5579 993 103.629 283.611 458.98
1146 0 81.0912 13.0224 1056 103.399 283.308 456.982
1147 0 85.1871 12.7484 1086 103.436 283.812 457.891
1148 0 89.1435 12.6313 1126 103.59 283.959 457.244
1149 0 90.0862 13.2873 1197 103.865 283.84 451.505
1150 0 93.0723 12.1948 1135 106.956 283.48 448.211
1151 0 98.0889 13.5184 1326 103.025 283.211 448.176
1152 0 102.162 12.9011 1318 103.807 284.041 445.882
1153 0 103.161 12.7858 1319 104.854 284.258 443.114
1154 1 57.0594 11.2865 644 102.207 282.745 466.89
1155 0 59.1532 11.6477 689 102.935 284.29 467.493
1156 0 59.1087 11.3012 668 104.211 284.331 466.003
1157 0 67.1896 12.2638 824 98.375 283.934 465.267
1158 0 65.1126 12.4707 812 100.908 283.784 462.557
1159 0 70.2509 13.523 950 97.5979 283.824 461.507
1160 0 74.1094 13.6825 1014 98.9852 283.866 462.584
1161 0 76.1137 13.5718 1033 98.0281 282.747 457.966
1162 0 79.2962 12.9767 1029 98.9028 283.638 458.401
1163 0 80.1346 12.1046 970 101.644 282.693 455.637
1164 0 84.1007 14.0665 1183 96.7566 283.691 456.338
1165 0 87.079 13.8725 1208 100.446 283.901 458.48
1166 0 91.1413 13.1883 1202 102.306 283.463 457.413
1167 0 92.1385 13.5665 1250 75.7264 283.5 456.27
1168 0 95.1734 14.3422 1365 100.475 283.408 452.999
1169 0 97.0501 14.8686 1443 100.102 282.791 451.48
1170 0 100.09 12.6786 1269 105.415 283.375 450.748
1171 0 102.166 12.7734 1305 104.652 283.345 448.88
1172 0 107.354 13.2738 1425 103.197 283.726 445.429
1173 0 110.161 13.7707 1517 101.773 282.903 443.702
1174 0 113.15 12.4701 1411 102.054 284.108 437.287
1175 0 116.202 12.2975 1429 102.623 283.265 435.74
1176 1 62.1483 11.73 729 101.254 283.192 465.979
1177 0 67.1481 11.6608 783 95.0562 283.697 460.925
1178 0 67.1774 12.0725 811 96.4908 284.076 459.234
1179 0 70.15 10.9337 767 102.441 283.9 458.639
1180 0 70.0905 10.2154 716 104.288 284.36 459.987
1181 0 71.0909 10.1279 720 134.399 285.367 460.139
1182 0 76.3051 11.4933 877 102.91 283.892 457.749
1183 0 81.4581 13.0496 1063 105.797 283.944 459.569
1184 0 84.2328 14.3887 1212 102.733 284.628 454.766
1185 0 88.1886 14.1855 1251 104.179 284.315 449.417
1186 0 89.1744 12.6382 1127 104.89 284.02 453.248
1187 0 92.128 13.5247 1246 103.977 284.171 455.203
1188 0 95.2645 13.0584 1244 105.785 284.055 455.768
1189 1 52.0745 11.8676 618 104.424 284.816 478.314
1190 0 53.0622 12.9282 686 104.984 283.999 476.047
1191 0 55.0367 13.0277 717 105.421 284.028 472.026
1192 0 54.036 12.1586 657 104.971 284.279 474.833
1193 0 58.0323 12.4069 720 104.918 284.417 475.254
1194 0 64.0705 14.7182 943 94.1166 283.822 472.406
1195 0 65.1113 15.5426 1012 94.3893 283.649 470.243
1196 0 67.0388 15.3941 1032 96.1453 282.93 469.372
1197 0 66.0482 14.338 947 100.435 282.728 469.337
1198 0 67.0584 12.9141 866 104.234 283.693 470.762
1199 0 68.0643 14.0015 953 105.084 282.269 469.224
1200 0 71.1187 13.5126 961 106.421 283.869 469.516
1201 0 74.2547 12.9419 961 109.023 283.202 465.615
1202 0 77.162 13.3615 1031 111.034 283.131 464.691
1203 0 78.2362 12.6156 987 113.281 282.89 463.447
1204 0 81.0893 14.2066 1152 109.95 283.141 462.481
1205 0 85.1571 14.1973 1209 109.262 282.894 461.776
1206 0 85.1478 12.9187 1100 113.972 283.214 459.895
1207 0 91.1353 14.5169 1323 109.579 282.599 456.444
1208 0 93.2173 14.139 1318 110.903 282.461 456.234
1209 0 95.2054 14.0748 1340 111.706 283.043 454.474
1210 0 98.1509 14.0192 1376 112.273 283.715 451.73
1211 0 100.14 13.7008 1372 112.723 283.285 453.445
1212 0 103.189 13.4608 1389 113.572 283.518 448.594
1213 0 108.24 13.507 1462 112.787 283.469 447.135
1214 0 111.172 14.599 1623 108.457 282.689 443.401
1215 0 115.249 14.9936 1728 107.267 284.376 445.384
1216 0 117.241 12.6577 1484 112.1 283.593 442.641
1217 0 126.225 14.6564 1850 106.406 283.031 442.139
1218 0 129.307 14.1988 1836 109.238 282.552 437.607
1219 1 68.0865 13.0422 888 104.041 282.85 467.648
1220 0 69.0535 12.932 893 104.919 283.236 467.421
1221 0 71.056 11.8217 840 106.323 283.186 466.315
1222 0 75.0548 12.8839 967 106.784 283.102 463.205
1223 0 78.0726 13.8845 1084 103.515 283.3 461.969
1224 0 80.1644 13.2602 1063 104.401 283.298 462.116
1225 0 82.141 13.7812 1132 103.823 284.329 456.627
1226 0 87.1856 12.7773 1114 104.215 284.37 457.692
1227 0 89.0596 12.7218 1133 104.367 283.38 454.504
1228 0 91.0603 12.9584 1180 103.432 283.962 454.447
1229 0 94.1658 13.0196 1226 104.418 284.03 448.519
1230 0 97.2417 11.6617 1134 105.858 283.686 450.379
1231 0 102.147 13.6567 1395 101.318 283.281 447.42
1232 0 104.128 13.0993 1364 103.615 283.296 443.125
1233 0 107.152 12.8883 1381 104.167 283.881 441.737
1234 0 112.253 11.7235 1316 104.948 284.467 441.353
1235 0 116.236 12.4746 1450 103.894 284.286 437.75
1236 0 121.242 12.7349 1544 104.31 284.498 438.03
1237 1 63.1195 12.7377 804 103.178 284.265 465.235
1238 0 64.2117 11.9293 766 109.431 284.373 466.264
1239 0 67.1384 13.2264 888 109.244 285.314 467.134
1240 0 69.101 13.6901 946 109.001 284.211 464.746
1241 0 69.1485 12.625 873 107.559 285.48 463.088
1242 0 74.213 13.6634 1014 108.072 283.796 463.834
1243 0 75.1066 13.128 986 110.422 284.904 461.909
1244 0 77.1964 13.0187 1005 111.292 284.742 459.864
1245 0 80.2561 13.9429 1119 109.42 284.486 457.841
1246 0 84.129 14.0499 1182 109.112 284.869 458.783
1247 0 86.1695 13.369 1152 109.762 284.474 458.705
1248 0 89.3136 13.4806 1204 111.272 283.76 456.106
1249 0 99.2065 15.3821 1526 101.484 284.045 448.796
1250 0 98.4891 17.3319 1707 97.4968 283.323 449.661
1251 0 102.212 15.7907 1614 102.078 283.831 449.773
1252 0 101.189 14.3494 1452 109.463 283.307 449.581
1253 0 103.13 13.4976 1392 113.378 283.606 448.441
1254 0 108.383 14.1627 1535 111.14 282.95 445.872
1255 0 110.094 13.2795 1462 113.537 282.56 447.832
1256 0 116.268 14.5096 1687 110.257 282.003 441.755
1257 1 60.1863 11.9795 721 111.85 282.831 468.779
1258 0 65.0845 11.8615 772 110.953 282.198 469.092
1259 0 66.0701 12.85 849 110.019 284.026 467.67
1260 0 69.0703 12.1471 839 112.638 282.981 461.436
1261 0 70.1496 13.1006 919 110.869 282.889 461.474
1262 0 75.1559 13.2658 997 110.23 282.799 461.513
1263 0 75.1696 13.1702 990 111.744 283.095 458.636
1264 0 79.1526 13.2024 1045 109.42 283.003 457.734
1265 0 82.1911 12.7629 1049 111.361 283.625 457.836
1266 0 83.101 12.8879 1071 112.418 282.537 454.7
1267 0 87.1658 13.0097 1134 112.233 282.61 452.093
1268 0 88.1684 13.3948 1181 110.619 282.859 452.114
1269 0 89.1643 11.8545 1057 114.974 283.382 449.954
1270 0 94.0856 13.5515 1275 109.36 283.56 447.06
1271 0 97.1173 13.5506 1316 108.003 283.574 447.657
1272 0 101.176 12.4535 1260 110.695 284.724 446.508
1273 0 103.179 13.0647 1348 109.772 283.703 441.328
1274 0 105.112 13.595 1429 106.259 284.648 440.378
1275 0 111.131 12.7237 1414 107.146 284.144 441.695
1276 0 117.126 13.2677 1554 109.021 283.375 437.563
1277 1 58.1393 10.836 630 111.629 283.989 462.962
1278 0 58.2264 12.3312 718 108.032 283.933 463.387
1279 0 61.2523 11.9832 734 108.052 283.52 463.069
1280 0 65.0893 12.7517 830 104.206 283.294 458.128
1281 0 66.0768 11.986 792 106.884 283.917 456.745
1282 0 67.216 12.497 840 106.26 283.839 457.248
1283 0 71.1147 13.1056 932 103.168 284.502 452.965
1284 0 71.2225 11.6536 830 106.857 283.998 452.145
1285 0 76.1656 14.3766 1095 100.413 284.35 451.205
1286 0 78.2906 11.4956 900 106.54 283.993 452.717
1287 0 83.1116 12.1764 1012 104.641 284.28 447.377
1288 0 91.1745 15.8378 1444 92.2486 283.611 442.28
1289 0 92.1743 14.0712 1297 98.2436 284.698 445.057
1290 0 93.2917 13.7204 1280 99.8477 284.53 440.048
1291 0 94.1208 12.7708 1202 103.091 284.381 442.101
1292 0 99.0692 13.859 1373 99.8798 285.175 440.594
1293 0 100.222 12.7417 1277 102.62 285.298 438.872
1294 0 102.179 12.116 1238 104.058 285.527 436.094
1295 0 108.199 11.2756 1220 104.348 285.839 437.907
1296 1 57.2286 11.6725 668 103.126 285.022 461.449
1297 0 55.0538 10.7713 593 107.671 285.049 459.511
1298 0 59.0709 11.1561 659 101.816 285.425 458.168
1299 0 59.0302 13.6032 803 98.3051 284.644 456.593
1300 0 60.1017 12.8449 772 100.764 284.477 459.876
1301 0 64.0457 12.0695 773 101.819 284.292 451.145
1302 0 68.1121 11.8922 810 102.659 284.309 453.299
1303 0 70.0908 13.8963 974 101.979 285.33 457.199
1304 0 74.0461 13.0324 965 102.971 285.779 455.47
1305 0 74.1156 12.2511 908 107.01 285.344 453.567
1306 0 75.1307 12.4184 933 105.323 285.401 451.569
1307 0 79.0256 12.2239 966 107.418 286.004 452.44
1308 0 82.1119 12.3246 1012 106.33 285.719 455.113
1309 0 83.2158 12.4736 1038 106.295 285.617 449.136
1310 0 87.1449 13.0931 1141 105.908 284.607 448.623
1311 0 88.118 12.9712 1143 106.906 284.432 445.898
1312 0 88.1683 12.7257 1122 108.543 283.727 443.199
1313 0 94.0747 12.9365 1217 106.247 284.283 445.297
1314 0 96.2421 12.5725 1210 109.314 284.144 439.679
1315 0 101.154 12.3969 1254 108.998 284.247 440.421
1316 0 102.216 12.679 1296 108.368 283.896 438.694
1317 0 103.136 12.566 1296 109.248 283.105 438.926
1318 0 108.153 12.8614 1391 109.488 282.871 434.441
1319 0 109.117 12.1521 1326 112.176 282.594 434.202
1320 1 61.1036 11.5705 707 106.038 283.76 462.39
1321 0 63.1095 11.1869 706 108.147 282.069 463.571
1322 0 66.0549 11.8538 783 109.194 282.429 463.54
1323 0 68.0948 11.5134 784 106.321 282.318 465.45
1324 0 68.1573 11.3414 773 107.125 282.226 463.929
1325 0 71.0915 10.3669 737 107.744 282.205 464.647
1326 0 74.2238 11.4519 850 105.471 283.12 462.236
1327 0 76.111 11.7591 895 105.03 282.973 460.354
1328 0 77.1925 12.3846 956 104.775 282.652 459
1329 0 79.1143 12.0332 952 106.571 282.227 458.02
1330 0 82.2411 11.9283 981 105.276 282.444 458.825
1331 0 84.1378 10.3283 869 107.25 282.26 458.116
1332 0 86.0407 11.634 1001 103.189 282.868 457.505
1333 0 88.1269 11.0182 971 104.791 281.668 456.336
1334 0 91.1265 11.4676 1045 104.848 282.394 453.208
1335 0 94.2299 11.2915 1064 104.918 282.204 453.409
1336 0 94.1376 10.4846 987 106.719 282.03 450.49
1337 0 100.126 13.3032 1332 99.7245 282.367 447.15
1338 0 103.192 14.0418 1449 99.6011 281.945 445.663
1339 1 58.063 11.3842 661 101.775 281.418 469.324
1340 0 57.0387 9.73023 555 104.476 280.699 470.566
1341 0 57.1175 11.345 648 101.167 281.748 466.948
1342 0 63.1763 11.001 695 103.417 281.306 469.147
1343 0 63.2024 12.0723 763 101.29 282.035 469.363
1344 0 66.3817 12.1871 809 100.951 281.467 467.883
1345 0 66.2516 11.079 734 103.796 281.5 467.262
1346 0 71.2688 12.1231 864 100.759 281.238 466.619
1347 0 70.2638 11.6703 820 102.632 282.185 464.272
1348 0 74.247 11.0846 823 98.6367 281.92 467.499
1349 0 76.2182 11.1128 847 100.129 283.255 461.497
1350 0 78.1677 11.9359 933 98.1661 282.64 463.906
1351 0 79.1242 11.0586 875 102.008 283.021 459.51
1352 0 81.1898 11.4793 932 101.027 281.808 459.967
1353 0 84.1642 11.3706 957 100.58 282.998 458.353
1354 0 87.1153 11.1117 968 99.218 281.512 459.176
1355 0 91.1474 11.2894 1029 99.3878 281.603 454.968
1356 0 93.1451 10.8003 1006 99.1143 282.524 455.606
1357 0 94.1693 11.182 1053 97.6021 281.541 456.508
1358 0 98.0816 9.44111 926 98.2678 282.171 452.347
1359 1 50.1252 8.49873 426 90.4108 281.962 479.162
1360 0 49.0775 8.27263 406 91.6576 283.079 478.522
1361 0 53.0959 9.51108 505 89.6198 283.111 475.691
1362 0 52.1728 8.75936 457 91.7287 282.705 474.47
1363 0 54.2098 9.62925 522 88.9004 282.481 472.534
1364 0 58.1301 9.70238 564 89.5443 282.323 474.227
1365 0 59.135 10.4507 618 88.0259 282.204 472.696
1366 0 61.2094 10.5213 644 87.6755 282.079 472.427
1367 0 61.1286 8.52302 521 91.0115 281.42 469.37
1368 0 67.1082 10.2074 685 86.7328 281.965 472.493
1369 0 68.068 10.8127 736 86.2459 281.41 470.117
1370 0 68.1009 9.64745 657 88.6454 281.125 469.502
1371 0 68.0487 8.67026 590 90.361 280.886 465.905
1372 0 71.0653 9.07617 645 89.0744 281.493 467.394
1373 0 77.1522 11.2505 868 84.9159 281.131 464.432
1374 0 78.1418 10.7753 842 85.9881 281.333 461.542
1375 0 79.1134 9.15142 724 88.7997 281.095 460.54
1376 0 80.1269 10.0466 805 87.9739 281.62 462.154
1377 0 84.0843 10.0851 848 89.0708 282.166 455.671
1378 0 91.1017 11.1743 1018 85.4627 281.949 458.119
1379 0 92.1195 8.81464 812 90.0579 280.437 455.813
1380 1 46.0848 10.0684 464 81.7069 281.606 478.121
1381 0 46.095 7.37607 340 85.1882 280.871 478.982
1382 0 51.1033 8.96224 458 83.2118 281.024 478.52
1383 0 51.3928 9.43712 485 79.5361 281.602 470.551
1384 0 54.3042 10.6622 579 77.9516 282.164 468.577
1385 0 51.2136 10.7589 551 79.9238 281.428 466.528
1386 0 54.1849 10.3719 562 79.5996 282.19 467.651
1387 0 56.1979 10.8011 607 78.9638 282.143 469.153
1388 0 60.1048 9.96593 599 82.3105 281.955 474.738
1389 0 59.2849 11.352 673 78.8618 281.043 467.612
1390 0 63.1524 10.6251 671 82.0313 282.82 473.027
1391 0 63.2387 9.44043 597 84.3132 281.34 468.424
1392 0 66.1643 12.4992 827 78.6784 280.917 468.648
1393 0 66.1381 9.48016 627 83.9155 281.246 467.022
1394 0 72.1422 9.95257 718 81.9136 281.136 468.28
1395 0 72.0601 11.1851 806 81.2159 281.082 467.507
1396 0 73.1361 10.542 771 82.7289 281.689 466.599
1397 0 74.1387 10.6018 786 82.8969 280.716 466.983
1398 0 77.1222 11.7476 906 80.8212 280.425 463.148
1399 0 80.0873 11.8496 949 81.1412 280.942 463.805
1400 0 80.2319 9.27312 744 85.1062 280.978 461.474
1401 0 84.0999 10.547 887 83.6584 280.984 458.715
1402 0 85.2288 11.4633 977 83.2323 281.83 459.839
1403 0 87.3194 11.6583 1018 84 280.552 456.446
1404 0 94.1436 11.9605 1126 83.0817 280.787 458.27
1405 0 95.1483 13.4527 1280 80.9586 280.982 456.342
1406 0 97.2214 11.1807 1087 85.2447 280.49 453.205
1407 0 101.238 11.5668 1171 85.2835 280.912 455.694
1408 0 101.361 11.6218 1178 85.9966 281.515 456.208
1409 0 105.241 12.6377 1330 85.8759 280.979 453.431
1410 1 59.1357 12.2768 726 90.1928 280.658 474.788
1411 0 61.0671 11.2499 687 91.8675 282.164 474.686
1412 0 62.0548 12.7468 791 89.2111 281.174 474.469
1413 0 63.0664 11.6385 734 91.5095 281.228 474.136
1414 0 64.1 11.9189 764 91.699 281.898 472.804
1415 0 64.2255 11.4129 733 83.8731 281.359 475.089
1416 0 67.0607 10.1997 684 83.5629 281.405 475.841
1417 0 70.0208 11.8536 830 82.053 280.723 472.59
1418 0 70.1193 11.1809 784 85.0332 281.103 472.343
1419 0 73.0491 12.0604 881 84.7321 281.153 470.675
1420 0 75.1044 11.6371 874 88.0503 282.236 468.462
1421 0 76.0643 12.095 920 90.488 281.493 465.605
1422 0 79.1086 10.9975 870 92.6138 281.846 470.426
1423 0 82.1001 12.0463 989 92.6026 281.296 466.558
1424 0 84.1352 12.5156 1053 94.4672 281.275 464.667
1425 0 85.0849 11.6354 990 98.5717 281.054 463.882
1426 0 90.0825 12.4996 1126 97.8979 281.118 463.55
1427 0 92.1995 13.7853 1271 95.7836 280.571 458.268
1428 0 95.0947 12.4718 1186 100.329 280.367 452.839
1429 0 98.1356 13.2062 1296 99.2863 280.455 453.465
1430 0 102.278 12.5442 1283 101.594 281.574 451.014
1431 1 52.1723 9.25778 483 92.2422 281.547 476.687
1432 0 55.0487 10.6815 588 92.9847 280.352 477.235
1433 0 57.0615 10.6201 606 95.8498 281.446 478.467
1434 0 59.063 9.44753 558 97.9785 280.772 479.907
1435 0 61.0903 11.6058 709 95.3625 280.738 478.173
1436 0 61.0386 10.092 616 99.2938 280.326 478.107
1437 0 63.1815 11.6173 734 97.5845 280.219 475.477
1438 0 66.1267 10.7521 711 99.7595 280.717 474.35
1439 0 64.1267 11.181 717 101.759 280.262 473.096
1440 0 71.0429 13.2174 939 94.7007 280.865 473.273
1441 0 70.0889 13.0263 913 97.2169 280.114 473.28
1442 0 72.062 11.0877 799 103.526 280.64 470.245
1443 0 76.1273 13.149 1001 99.9181 281.309 470.266
1444 0 78.0573 13.2979 1038 101.406 280.795 467.914
1445 0 79.2117 13.4829 1068 106.399 280.599 464.874
1446 0 81.1171 12.9812 1053 107.556 280.339 464.344
1447 0 85.0855 13.9859 1190 103.895 280.854 463.162
1448 0 88.1287 13.4122 1182 104.311 280.81 463.151
1449 0 95.3441 17.096 1630 94.3693 279.244 456.835
1450 0 95.255 16.9965 1619 95.3996 280.001 453.466
1451 0 100.203 17.0354 1707 94.959 279.148 452.534
1452 1 49.0343 10.2785 504 105.226 278.873 475.617
1453 0 53.1096 11.2221 596 102.435 279.77 477.982
1454 0 53.205 11.1268 592 105.059 279.84 476.735
1455 0 50.0884 11.32 567 97.3492 280.295 472.39
1456 0 51.0442 9.93257 507 99.9665 280.187 472.604
1457 0 56.0211 11.4778 643 96.7683 279.35 477.904
1458 0 60.1088 12.7436 766 93.4608 280.095 476.721
1459 0 59.1491 12.1388 718 95.1755 279.097 476.994
1460 0 61.0974 12.0954 739 96.5264 279.579 472.801
1461 0 64.0514 11.9748 767 95.7471 279.825 474.565
1462 0 64.1224 12.2422 785 96.4904 278.831 471.633
1463 0 69.06 12.7715 882 94.0034 278.968 473.273
1464 0 69.0279 12.6326 872 96.0791 278.987 471.107
1465 0 70.0644 11.7321 822 98.32 280.107 470.038
1466 0 74.1291 12.802 949 96.9315 279.93 469.153
1467 0 76.0493 12.4262 945 98.6624 280.114 467.449
1468 0 78.0686 13.1679 1028 98.1284 280.318 466.224
1469 0 78.079 12.8716 1005 100.532 279.541 463.422
1470 0 81.0363 12.4389 1008 102.418 280.279 464.277
1471 0 85.0951 12.2099 1039 102.788 280.192 462.423
1472 0 88.0765 12.8865 1135 102.218 281.063 461.782
1473 0 90.1001 13.03 1174 104.592 280.915 460.789
1474 0 92.1388 12.3509 1138 106.491 281.328 456.528
1475 0 95.0861 13.5877 1292 104.495 281.283 454.037
1476 0 99.0785 13.7669 1364 104.155 280.265 453.956
1477 0 102.066 13.893 1418 104.263 280.513 452.541
1478 1 55.0585 10.4071 573 106.654 280.941 477.447
1479 0 60.1313 11.8241 711 102.743 280.318 477.248
1480 0 61.1707 13.6994 838 99.2375 280.784 474.81
1481 0 63.1618 14.1225 892 98.2578 280.515 474.402
1482 0 64.0653 13.2521 849 100.972 281.459 472.531
1483 0 65.0732 13.0929 852 101.541 280.223 472.073
1484 0 68.1229 12.771 870 102.393 280.191 469.389
1485 0 72.144 13.6533 985 98.5025 281.263 470.546
1486 0 66.0456 10.0082 661 102.012 280.818 470.773
1487 0 74.0814 12.5403 929 95.6372 280.684 471.229
1488 0 74.0643 12.5162 927 96.3128 281.133 469.225
1489 0 78.0893 12.8443 1003 96.0608 280.278 468.538
