time division length width area intensity CMx CMy
0 0 45.0659 12.2265 551 143.942 41.6606 471.002
1 0 49.0607 13.3712 656 139.328 42.1936 469.46
2 0 49.0252 13.6053 667 139.145 42.1139 469.613
3 0 48.0143 13.2252 635 142.646 42.0157 469.545
4 0 50.0187 13.2151 661 141.644 42.3495 468.573
5 0 53.0303 14.1617 751 136.377 42.7643 469.196
6 0 53.0194 13.2027 700 141.163 42.3457 468.294
7 0 53.0397 12.8017 679 143.878 42.6701 468.965
8 0 55.1043 12.6487 697 143.4 42.1564 468.106
9 0 58.0475 13.644 792 140.504 41.8864 466.934
10 0 59.0343 13.399 791 141.761 41.4349 467.848
11 0 60.0282 13.5603 814 142.442 42.4558 466.356
12 0 61.1242 12.5973 770 144.832 41.5701 467.818
13 0 64.0658 14.0637 901 140.17 41.2109 465.536
14 0 66.0388 13.4315 887 142.56 40.9042 465.133
15 0 68.0549 13.3275 907 143.98 40.7596 464.531
16 0 69.0439 13.3104 919 145.402 41.0816 463.881
17 0 72.0764 13.3886 965 145.719 40.8953 461.617
18 0 75.0708 14.0401 1054 144.068 41.6006 461.227
19 0 78.0556 14.1694 1106 142.423 40.5063 461.561
20 0 81.0757 14.1596 1148 144.402 40.115 457.815
21 0 83.0678 13.6274 1132 144.92 40.8578 455.902
22 0 88.091 14.2466 1255 139.802 40.9673 457.718
23 1 44.0297 13.4227 591 142.701 40.775 477.371
24 0 46.1124 14.2261 656 134.32 39.9832 478.48
25 0 47.0355 12.2248 575 140.951 39.167 477.624
26 0 49.0491 12.7627 626 137.695 38.845 477.655
27 0 49.0534 13.4751 661 135.374 38.9955 477.03
28 0 49.0192 12.0565 591 141.626 38.6294 476.816
29 0 53.1145 12.1812 647 137.726 39.1097 474.461
30 0 52.0805 12.8455 669 135.767 39.2975 474.976
31 0 56.0784 12.1615 682 135.786 38.6525 474.78
32 0 58.166 12.5159 728 134.387 38.1978 472.747
33 0 60.1159 13.2577 797 130.997 38.7679 471.807
34 0 62.0655 12.8091 795 131.187 38.6792 471.281
35 0 63.0644 12.3683 780 131.482 39.1641 471.517
36 0 66.0267 12.813 846 130.262 39.6962 470.375
37 0 67.1002 12.9359 868 130.389 39.1244 467.77
38 0 69.0417 11.79 814 132.069 38.2224 468.162
39 0 74.1179 14.1127 1046 125.968 38.3872 465.984
40 0 76.0661 13.4225 1021 128.168 38.1068 464.976
41 0 77.1214 12.5776 970 130.562 38.2 463.435
42 0 84.0877 15.2103 1279 122.157 38.1016 462.762
43 0 86.0832 13.487 1161 128.158 38.7933 462.306
44 1 44.029 12.2647 540 130.591 38.6278 481.106
45 0 45.0686 13.668 616 127.13 38.6818 480.971
46 0 46.0365 12.4684 574 132.389 37.6916 478.571
47 0 49.011 13.4868 661 129.501 37.4977 478.238
48 0 51.0388 13.4995 689 128.671 37.6662 478.109
49 0 52.087 13.8422 721 129.653 37.3467 476.37
50 0 53.0625 13.3616 709 132.348 37.3441 475.982
51 0 56.0456 13.8459 776 130.369 37.8209 475.37
52 0 57.1048 14.1669 809 131.247 37.5464 474.899
53 0 60.0792 13.9482 838 132.101 37.4582 473.582
54 0 61.075 13.77 841 133.806 37.0416 472.524
55 0 65.0937 15.1167 984 129.754 37.2134 470.962
56 0 67.0394 15.1851 1018 130.843 37.8969 470.321
57 0 67.1151 14.0654 944 137.423 37.4174 468.644
58 0 71.1408 14.7032 1046 134.04 37.8078 469.324
59 0 74.0337 14.2233 1053 134.504 38.2384 468.129
60 0 78.1094 14.5949 1140 132.927 38.014 465.795
61 0 80.0752 14.7736 1183 132.116 37.683 465.118
62 0 83.1734 13.9949 1164 134.491 37.0473 463.802
63 0 87.0675 14.7242 1282 132.561 36.7917 461.845
64 0 90.1307 14.7564 1330 132.432 36.709 461.789
65 0 91.0756 14.6033 1330 134.568 36.8707 459.897
66 1 50.104 12.4541 624 133.614 37.3221 481.138
67 0 50.0827 12.8388 643 132.851 36.6454 480.285
68 0 52.1075 13.7024 714 132.742 36.8067 478.431
69 0 53.0703 13.0016 690 135.036 36.1246 477.926
70 0 55.1228 12.971 715 128.517 36.235 478.505
71 0 56.0782 13.392 751 128.856 36.0413 477.373
72 0 60.0756 14.0157 842 129.474 36.1295 475.178
73 0 62.1474 13.1462 817 131.929 36.3109 474.628
74 0 62.1637 13.5127 840 131.415 36.8702 474.07
75 0 65.0964 13.5184 880 130.785 36.317 472.639
76 0 68.1262 12.9466 882 134.965 36.3549 470.765
77 0 71.0903 14.3057 1017 131.272 37.0619 470.828
78 0 73.1328 13.6738 1000 134.089 36.955 469.287
79 0 76.1404 14.2369 1084 132.979 36.9013 466.682
80 0 79.1096 12.4637 986 137.748 36.9858 465.632
81 0 83.1161 14.185 1179 132.159 35.9423 464.562
82 0 86.176 15.0158 1294 128.557 35.9366 462.707
83 0 88.1363 13.7968 1216 132.447 36.7196 461.214
84 0 91.1603 13.2624 1209 131.274 36.603 459.621
85 0 93.2261 13.655 1273 128.422 37.0251 458.475
86 0 99.2188 14.3622 1425 130.438 36.5347 456.515
87 1 51.062 11.7308 599 125.189 36.8013 481.244
88 0 52.0773 11.6173 605 123.663 36.5355 479.499
89 0 53.04 12.236 649 121.998 36.6502 479.1
90 0 54.0212 11.8472 640 120.372 36.1594 481.528
91 0 57.0682 12.3887 707 119.537 36.1782 479.651
92 0 59.0484 12.6845 749 118.335 36.2029 479.103
93 0 61.0581 12.5454 766 119.795 35.7128 477.487
94 0 63.0535 12.529 790 119.134 36.243 475.544
95 0 64.1035 11.341 727 124.056 35.9862 473.967
96 0 65.0372 13.4077 872 119.644 35.8475 472.006
97 0 68.068 12.9282 880 119.892 36.7818 471.239
98 0 68.0224 12.8193 872 121.873 36.0596 470.958
99 0 72.0341 12.9105 930 121.672 36.2419 470.457
100 0 75.0332 13.3674 1003 121.935 36.2263 468.92
101 0 78.1028 13.1878 1030 130.281 34.466 467.942
102 0 81.0476 14.436 1170 127.742 34.7573 466.693
103 0 83.0642 12.8214 1065 134.036 34.769 465.357
104 0 85.0446 13.7928 1173 130.951 34.873 464.339
105 0 89.0488 14.0485 1251 129.632 34.8817 462.897
106 0 92.1443 13.392 1234 132.103 34.3995 462.207
107 0 94.0748 13.7019 1289 132.215 35.2102 458.333
108 0 98.1489 13.2248 1298 133.85 35.2481 457.119
109 0 101.281 14.2179 1440 130.169 35.2722 455.997
110 0 103.204 13.827 1427 131.312 35.2516 455.065
111 0 107.133 14.1039 1511 130.41 35.1721 452.711
112 0 111.179 13.8426 1539 130.775 34.5575 453.532
113 0 113.113 13.6677 1546 133.267 34.5699 451.141
114 0 117.152 13.888 1627 132.661 34.8482 448.204
115 0 121.123 14.1757 1717 133.024 34.9808 445.077
116 1 66.0937 11.756 777 138.413 35.6371 472.057
117 0 69.1418 11.3679 786 138.38 36.4262 471.927
118 0 72.1616 12.7907 923 128.738 36.2719 470.462
119 0 74.1014 12.6448 937 134.666 35.9552 469.001
120 0 77.0827 12.6487 975 134.991 35.2318 468.738
121 0 79.137 12.9775 1027 133.793 35.6086 465.861
122 0 81.2557 12.2207 993 135.594 36.2971 465.276
123 0 85.2509 13.3019 1134 133.103 35.9118 462.843
124 0 86.1466 13.1868 1136 133.912 36.368 460.548
125 0 91.3221 13.1184 1198 132.26 36.2813 460.409
126 0 94.2005 12.7919 1205 130.77 35.1983 459.216
127 0 97.2416 12.9369 1258 128.471 34.7313 459.474
128 0 100.114 12.2461 1226 130.434 35.4902 455.094
129 0 103.136 12.0326 1241 128.583 35.4617 454.907
130 1 58.0456 10.8018 627 123.4 35.1005 478.177
131 0 59.0661 10.9369 646 129.19 36.2307 477.687
132 0 59.0859 12.6595 748 126.916 35.9505 475.463
133 0 63.0571 12.6235 796 125.229 36.8681 473.597
134 0 62.0835 12.2577 761 120.05 35.7451 474.879
135 0 65.0694 11.6952 761 121.378 35.9041 473.172
136 0 67.082 13.2822 891 116.861 36.3782 471.772
137 0 70.0653 13.2448 928 116.6 35.3922 471.49
138 0 73.0397 13.5269 988 116.067 35.6164 469.51
139 0 75.0545 12.0979 908 118.749 35.5639 471.775
140 0 77.0741 13.4676 1038 116.92 35.3902 467.582
141 0 79.0977 12.3518 977 120.784 35.3337 467.349
142 0 81.0554 13.5956 1102 118.652 34.9328 465.75
143 0 84.1147 13.6718 1150 118.491 35.1643 463.641
144 0 88.1429 12.5932 1110 121.55 34.9387 462.614
145 0 91.1578 13.4163 1223 119.067 35.2126 461.492
146 0 95.1136 13.037 1240 120.318 35.671 460.64
147 0 97.2302 13.6172 1324 120.936 34.9109 459.27
148 0 101.109 13.4707 1362 123.964 35.4552 456.512
149 1 52.0669 11.8309 616 127.326 34.8669 479.609
150 0 56.1074 12.7612 716 122.547 35.4246 477.754
151 0 56.101 11.9962 673 126.722 36.5438 475.737
152 0 57.056 11.6377 664 127.893 36.5105 477.503
153 0 58.0326 12.3551 717 126.392 36.2273 477.601
154 0 60.0604 11.9047 715 118.203 36.2503 476.817
155 0 61.015 12.079 737 118.1 35.848 475.95
156 0 63.1341 12.8457 811 116.658 35.7509 472.044
157 0 67.1232 11.9035 799 117.676 35.8411 472.812
158 0 68.0573 13.2682 903 115.592 35.639 470.278
159 0 71.0473 12.4565 885 117.501 35.6893 470.713
160 0 72.0566 12.0461 868 119.833 36.2442 469.407
161 0 75.0872 12.4921 938 117.931 36.5501 468.243
162 0 78.0691 13.8467 1081 116.863 35.6309 466.702
163 0 80.1192 12.4315 996 121.599 35.4659 465.988
164 0 82.1089 12.9706 1065 120.58 35.8394 464.237
165 0 86.0914 12.6261 1087 121.324 35.7194 464.426
166 0 89.1045 13.5347 1206 119.432 35.5456 462.765
167 0 92.0523 13.3077 1225 121.456 35.9763 459.682
168 0 95.1258 13.0669 1243 122.936 36.2405 459.599
169 1 51.0656 11.7104 598 123.438 35.888 481.758
170 0 51.1134 12.619 645 126.316 36.1132 478.887
171 0 54.1773 13.0313 706 124.169 34.5949 477.755
172 0 55.112 12.9736 715 124.983 34.3105 476.499
173 0 58.2019 13.3157 775 122.01 34.8981 477.312
174 0 59.0468 12.9558 765 123.575 34.7137 476.21
175 0 61.0932 13.7004 837 121.395 34.9092 476.054
176 0 61.0971 13.4049 819 123.571 34.7082 474.912
177 0 63.0815 13.2686 837 124.76 35.5962 472.93
178 0 67.0646 13.733 921 122.57 35.1325 470.803
179 0 67.0782 13.4172 900 124.813 35.2822 471.122
180 0 72.1076 14.0207 1011 121.092 35.091 471.699
181 0 73.2079 14.3564 1051 121.005 34.7174 468.751
182 0 75.1387 14.573 1095 120.785 35.0055 466.58
183 0 76.1561 13.9056 1059 124.331 34.9282 466.328
184 0 80.1222 14.8273 1188 120.429 34.3131 466.685
185 0 82.2581 14.5274 1195 121.275 34.8218 465.541
186 0 84.0874 13.2243 1112 124.787 34.6844 463.028
187 0 87.1307 14.1282 1231 122.543 35.2721 461.168
188 0 91.2183 14.4379 1317 121.055 35.1891 460.423
189 0 93.1414 12.4542 1160 125.4 35.5509 460.036
190 0 97.3168 13.4715 1311 122.074 34.6445 458.076
191 1 51.0593 11.7902 602 116.839 34.9452 480.787
192 0 51.0344 11.2081 572 116.276 35.3164 479.397
193 0 54.0773 12.4452 673 113.104 35.8143 479.181
194 0 55.0656 13.3477 735 109.905 35.7429 478.618
195 0 55.0394 12.5183 689 112.47 35.3614 477.451
196 0 59.0423 13.9392 823 106.973 35.7606 475.058
197 0 61.0987 13.0281 796 108.038 35.4234 475.206
198 0 63.0776 13.1584 830 108.106 36.0711 474.472
199 0 62.1087 12.3332 766 111.428 35.6945 474.059
200 0 66.1165 12.115 801 110.724 35.8839 473.647
201 0 68.0507 12.7258 866 109.35 35.9561 471.561
202 0 69.035 12.8485 887 110.926 35.1195 469.106
203 0 72.0853 13.1372 947 110.606 35.0401 471.946
204 0 74.0943 13.6178 1009 109.687 35.3667 468.12
205 0 77.0609 13.8981 1071 109.37 35.7796 467.071
206 0 80.0527 13.0914 1048 110.79 35.5697 463.949
207 0 82.087 13.8755 1139 109.54 35.4776 463.01
208 0 87.0373 12.7876 1113 109.233 35.9227 464.723
209 0 90.0993 13.5406 1220 106.484 36.0754 460.152
210 1 43.085 11.28 486 112.747 36.6893 482.019
211 0 45.0457 11.7436 529 111.405 36.482 482.448
212 0 48.0524 13.5061 649 104.219 36.7504 481.126
213 0 49.1178 11.8898 584 109.149 35.7209 479.457
214 0 51.0878 13.33 681 105.834 35.6681 479.132
215 0 50.1074 12.094 606 117.583 35.0132 477.515
216 0 55.098 11.8879 655 117.467 35.7817 476.861
217 0 57.2493 12.5242 717 114.442 36.7071 477.113
218 0 60.0909 13.879 834 111.942 36.0192 474.854
219 0 60.2438 12.3996 747 116.963 35.6667 474.035
220 0 63.1695 12.5535 793 116.425 35.9912 473.947
221 0 64.2655 12.8529 826 116.022 35.816 472.356
222 0 67.1982 12.8575 864 115.26 35.4965 471.102
223 0 70.166 13.3255 935 112.815 35.6385 472.387
224 0 72.1225 13.9485 1006 112.137 36.001 468.258
225 0 75.1319 13.5362 1017 113.007 36.6657 469.036
226 0 77.054 14.7818 1139 109.992 36.2002 468.668
227 0 78.076 13.5381 1057 114.529 36.2933 467.545
228 0 82.0676 13.8301 1135 113.977 35.5718 465.77
229 0 84.0773 14.1893 1193 114.688 35.3101 463.21
230 0 86.1927 14.0731 1213 115.547 35.9349 462.772
231 0 89.293 14.234 1271 116.467 35.8718 457.006
232 0 94.185 14.7263 1387 114.83 35.9409 458.479
233 1 48.0647 12.2335 588 116.105 36.0595 480.114
234 0 50.1021 11.3768 570 117.409 35.6035 480.918
235 0 52.0253 11.8212 615 118.785 36.1561 481.05
236 0 53.0665 12.1169 643 124.359 36.4479 479.726
237 0 57.0701 14.0354 801 112.302 35.6929 478.014
238 0 57.049 13.988 798 113.584 35.5338 477.021
239 0 60.0497 13.2224 794 114.762 35.8325 476.436
240 0 60.0811 12.4165 746 118.13 35.3995 476.153
241 0 63.1383 14.2386 899 119.996 34.5428 473.755
242 0 65.0878 14.0426 914 118.397 34.8435 473.582
243 0 67.0723 13.0605 876 117.873 35.1781 472.245
244 0 69.1122 13.8905 960 116.011 35.1354 471.572
245 0 71.1101 12.6002 896 122.218 35.3292 471.423
246 0 73.0554 13.3187 973 121.662 35.4049 469.294
247 0 77.0644 13.6769 1054 115.018 36.6584 468.974
248 0 77.0984 13.1391 1013 118.846 36.1017 466.192
249 0 80.0733 13.9247 1115 117.087 36.7345 465.636
250 0 83.1038 14.163 1177 118.05 36.0297 462.78
251 0 84.0739 13.048 1097 121.853 35.6855 463.078
252 0 88.1057 13.5292 1192 119.397 36.4178 460.831
253 0 92.2119 13.5883 1253 119.547 35.9282 458.046
254 0 93.1691 14.2214 1325 119.384 35.2891 456.241
255 0 98.3243 14.3098 1407 117.904 35.7228 455.933
256 1 51.0768 12.491 638 113.976 36.4781 480.257
257 0 52.153 12.099 631 112.857 35.3724 475.935
258 0 52.1796 13.1086 684 113.614 35.7982 476.029
259 0 55.0825 12.6356 696 113.44 36.0287 478.121
260 0 59.0633 13.5617 801 110.277 35.5855 476.376
261 0 60.1978 12.8576 774 118.278 35.9328 474.51
262 0 59.1287 12.1092 716 121.176 36.2905 474.401
263 0 62.1174 12.5891 782 118.198 35.6969 473.999
264 0 66.129 12.5059 827 116.917 35.9057 473.128
265 0 68.1252 13.1376 895 116.692 35.9475 470.547
266 0 70.1047 12.895 904 116.371 36.1958 470.454
267 0 72.1694 12.7201 918 118.021 36.6471 468.318
268 0 78.1699 12.959 1013 114.891 36.9062 467.631
269 0 79.0663 12.8753 1018 117.025 36.6739 466.488
270 0 80.07 12.6764 1015 117.775 36.8207 464.031
271 1 39.0101 11.1766 436 111.899 36.9587 486.869
272 0 41.0227 11.7496 482 110.124 36.1286 486.158
273 0 42.0558 11.675 491 111.373 35.8289 484.817
274 0 43.0465 12.4749 537 110.683 36.5605 483.091
275 0 44.0783 10.9124 481 114.628 36.3181 484.025
276 0 45.0667 12.426 560 112.295 36.2429 482.5
277 0 45.0692 11.2494 507 116.414 35.9921 483.134
278 0 47.0242 11.845 557 112.614 35.8402 482.548
279 0 51.1456 13.5887 695 104.869 36.5511 479.435
280 0 50.1074 12.3934 621 112.016 36.6989 481.404
281 0 51.077 11.5708 591 115.849 36.8917 478.43
282 0 52.0689 12.7139 662 114.468 36.8565 478.379
283 0 54.1041 12.938 700 113.417 37.1 478.143
284 0 56.1222 12.455 699 114.651 36.671 477.874
285 0 57.1841 12.5559 718 115.468 37.0864 475.705
286 0 57.1404 12.9681 741 116.791 36.8124 473.402
287 0 61.1447 13.329 815 114.145 37.238 473.54
288 0 64.0981 12.6057 808 115.623 36.6522 473.574
289 0 66.0753 12.062 797 117.408 37.0439 473.036
290 0 66.133 13.0343 862 115.963 37.2575 472.516
291 0 69.0679 13.3202 920 116.91 37.3033 470.225
292 0 71.0871 13.1951 938 118.519 36.3593 469.738
293 0 74.1214 13.9501 1034 116.415 36.3414 468.865
294 0 75.0908 12.971 974 120.587 36.5626 467.457
295 0 77.0457 13.0961 1009 120.621 36.6085 467.244
296 0 80.1486 13.0632 1047 120.275 35.9589 465.906
297 0 80.2019 12.9673 1040 124.357 36.3135 462.216
298 0 86.1025 13.3678 1151 122.865 35.8488 462.262
299 0 87.1504 13.23 1153 123.866 35.8161 461.498
300 1 46.0553 11.2256 517 123.147 35.9478 480.611
301 0 48.0631 12.0467 579 119.266 36.6356 480.969
302 0 49.035 12.9703 636 114.094 34.7469 481.909
303 0 49.0402 11.7047 574 117.895 35.6969 482.214
304 0 51.0711 11.9637 611 117.337 34.838 481.592
305 0 52.0822 12.5763 655 117.569 35.113 479.107
306 0 53.0631 13.1353 697 116.506 35.3745 478.822
307 0 56.067 12.5564 704 117.283 34.6918 477.868
308 0 59.1469 12.6634 749 116.435 34.6849 477.896
309 0 60.0964 12.4966 751 118.158 34.5286 476.718
310 0 63.0792 13.1581 830 116.963 33.7771 474.523
311 0 63.1255 12.1504 767 120.04 34.3207 474.265
312 0 68.1669 13.3496 910 116.769 35.0462 472.493
313 0 69.1539 13.4483 930 118.267 35.3172 471.132
314 0 73.169 15.7034 1149 112.648 34.7859 469.317
315 0 74.0977 12.659 938 126.251 34.6738 468.503
316 0 77.1895 14.1729 1094 122.598 34.074 465.596
317 0 81.1567 14.1455 1148 121.309 34.574 465.998
318 1 41.0824 10.5885 435 125.837 33.3471 485.423
319 0 41.018 10.2638 421 125.209 36.8504 485.492
320 0 43.0249 11.1796 481 114.609 34.6778 484.435
321 0 44.0649 12.4135 547 114.812 36.4607 483.475
322 0 47.0532 12.0714 568 114.928 37.3433 482.31
323 0 47.0217 12.1646 572 115.865 36.6521 482.551
324 0 50.1125 12.6515 634 113.514 36.8423 481.547
325 0 52.0779 13.5758 707 111.769 37.041 479.491
326 0 54.0483 12.4888 675 111.751 36.9615 480.612
327 0 55.0466 13.098 721 112.09 36.6449 478.295
328 0 58.0914 12.9968 755 110.999 36.8397 478.257
329 0 60.111 13.6414 820 110.211 36.5183 476.404
330 0 62.0484 14.5048 900 108.594 36.87 475.756
331 0 61.1124 12.6488 773 116.51 36.9638 475.534
332 0 66.1573 13.2109 874 113.929 36.6876 473.992
333 0 67.1501 13.6709 918 114.247 36.5174 473.181
334 0 71.1301 13.6089 968 114.967 36.249 472.254
335 0 71.0502 12.6249 897 119.944 36.0513 471.377
336 0 75.051 13.6707 1026 118.288 36.3977 468.687
337 0 76.1297 13.9105 1059 119.388 35.9396 470.113
338 0 79.0871 12.9604 1025 123.759 36.279 466.831
339 0 84.1144 14.1355 1189 120.471 35.9142 466.189
340 0 85.1017 13.854 1179 123.964 36.4801 465.411
341 0 89.1188 13.6671 1218 125.675 35.8021 463.38
342 1 48.0692 11.9827 576 130.54 36.816 482.552
343 0 50.0884 12.438 623 129.037 36.7865 482.22
344 0 51.0419 14.2432 727 123.901 36.7001 480.966
345 0 52.033 11.5312 600 122.892 37.2217 483.28
346 0 53.1047 13.3133 707 120.495 36.6733 480.761
347 0 54.0287 11.8826 642 124.975 35.9938 481.601
348 0 56.0598 12.8078 718 122.366 36.6393 480.801
349 0 57.058 12.3558 705 125.379 37.3135 479.431
350 0 57.0821 11.5623 660 128.938 37.2515 478.082
351 0 60.112 11.8612 713 128.36 36.9327 477.926
352 0 61.0762 11.8868 726 127.821 37.2039 477.208
353 0 63.1177 12.8648 812 124.815 36.9027 475.809
354 0 66.1083 12.4493 823 125.954 36.6379 476.179
355 0 67.0397 13.4249 900 125.239 36.29 473.969
356 0 68.0553 13.2833 904 126.257 36.4414 472.99
357 0 70.0354 13.0791 916 126.837 36.3843 472.204
358 0 72.1432 12.697 916 127.109 36.8788 470.09
359 0 76.1212 12.6772 965 125.821 36.8332 470.282
360 0 80.0859 13.2732 1063 123.153 37.2286 469.024
361 0 82.1425 13.9879 1149 120.554 37.3603 467.364
362 0 83.05 13.3052 1105 122.575 37.6081 466.108
363 0 85.0756 12.53 1066 125.014 37.6295 464.531
364 0 88.1264 13.0154 1147 124.47 36.9616 462.062
365 0 92.1451 13.5004 1244 121.828 37.3071 463.715
366 0 95.1639 14.1545 1347 121.589 36.8656 459.232
367 0 98.0937 12.9264 1268 123.531 36.6246 459.457
368 1 54.0257 12.6421 683 118.757 36.6881 480.242
369 0 55.0313 11.7751 648 122.108 37.0478 479.034
370 0 56.1246 13.1493 738 118.335 36.8659 478.869
371 0 58.2114 13.3135 775 127.889 37.3071 477.782
372 0 60.1569 13.498 812 124.876 37.1219 477.972
373 0 64.1675 14.244 914 120.341 36.9847 476.608
374 0 64.1223 12.2266 784 126.305 37.0842 474.074
375 0 65.1376 12.8344 836 119.141 37.6531 473.882
376 0 68.1788 13.5819 926 117.166 37.4557 471.515
377 0 70.0914 13.4539 943 118.286 37.2821 471.039
378 0 74.096 13.0236 965 117.272 37.6684 470.584
379 0 76.0846 13.1696 1002 117.553 36.7435 468.684
380 0 76.1108 12.1008 921 121.315 37.5277 467.455
381 0 80.1512 13.2999 1066 117.732 36.7111 467.875
382 0 83.0711 13.8676 1152 117.299 36.7491 464.793
383 0 86.1295 13.0733 1126 119.583 36.6146 463.71
384 0 86.2042 12.5632 1083 122.13 36.819 462.74
385 0 89.1109 13.3205 1187 120.97 36.2982 459.832
386 0 92.0667 13.1644 1212 121.46 37.1856 458.606
387 0 96.1632 12.8428 1235 122.004 37.7903 457.81
388 0 99.177 13.7935 1368 118.327 37.4189 457.928
389 0 105.1 14.7574 1551 116.458 36.9504 453.351
390 0 106.127 12.6358 1341 122.548 36.4758 451.636
391 1 56.024 11.2987 633 116.077 37.1627 479.474
392 0 58.0589 11.3161 657 118.875 37.4962 476.798
393 0 57.0689 9.56739 546 115.846 37.1923 476.15
394 0 62.1639 12.081 751 113.044 37.2703 475.754
395 0 64.0546 11.459 734 115.556 37.0613 474.287
396 0 67.052 11.8117 792 114.966 37.4646 473.456
397 0 68.0575 12.0927 823 116.236 37.6464 473.007
398 0 70.1013 13.024 913 115.219 37.4786 471.239
399 0 73.0779 12.2609 896 116.09 38.3181 471.066
400 0 74.0733 12.5686 931 116.586 38.5854 468.478
401 0 78.1236 12.4674 974 116.683 38.0175 467.875
402 0 80.1355 12.4913 1001 118.331 37.4765 466.525
403 0 82.1203 12.2138 1003 118.251 37.349 465.558
404 0 85.0792 11.695 995 120.018 37.3879 462.826
405 0 88.1056 11.5203 1015 120.08 36.9537 464.87
406 0 91.181 11.9871 1093 120.453 37.441 460.552
407 0 95.0889 11.3157 1076 120.657 37.263 461.135
408 0 97.2217 12.2195 1188 121.074 37 454.986
409 0 103.22 13.0886 1351 118.104 36.4671 456.933
410 0 104.12 12.0534 1255 123.063 36.608 454.656
411 1 57.0969 10.8062 617 121.07 37.6207 478.929
412 0 58.0895 11.7922 685 119.203 37.0015 478.518
413 0 60.0343 11.5267 692 115.246 37.7312 479.652
414 0 61.039 11.976 731 112.644 37.5472 475.83
415 0 62.0314 11.333 703 113.936 37.67 476.229
416 0 65.0188 11.7812 766 111.548 37.6214 474.774
417 0 69.0381 11.863 819 109.894 38.1661 474.448
418 0 71.0419 11.7958 838 110.482 37.9726 473.321
419 0 70.0658 12.4454 872 110.638 37.7523 470.935
420 0 73.0586 11.8535 866 110.839 37.9388 471.545
421 0 76.1467 12.6729 965 108.673 37.7492 468.477
422 0 76.1058 11.7205 892 112.344 37.546 467.189
423 0 81.1075 11.306 917 111.574 37.5158 468.301
424 0 82.1109 11.5575 949 111.95 36.6091 465.609
425 0 85.095 11.2462 957 112.856 36.6656 464.745
426 0 90.106 11.775 1061 110.301 37.2677 462.016
427 0 93.1175 11.9419 1112 110.495 36.8534 459.706
428 0 96.0821 11.6151 1116 110.616 36.5511 458.659
429 1 50.0273 9.59476 480 108.975 37.75 483.117
430 0 52.0554 11.1804 582 105.845 37.3986 481.44
431 0 54.0367 10.6594 576 106.748 36.2465 481.698
432 0 55.0992 11.198 617 103.836 36.329 478.618
433 0 57.0997 12.627 721 102.336 37.2635 478.617
434 0 57.1515 11.5832 662 106.258 36.9411 478.396
435 0 60.1445 12.0044 722 104.931 37.9529 478.431
436 0 62.1224 12.0729 750 105.38 38.1013 475.407
437 0 65.115 11.3645 740 106.48 37.4797 474.554
438 0 68.2346 12.5596 857 104.012 37.5904 473.928
439 0 69.204 12.1958 844 112.568 37.673 473.154
440 0 73.1112 12.4194 908 111.469 37.1982 470.001
441 0 75.2025 13.0448 981 109.53 36.7319 471.194
442 0 77.1504 12.197 941 112.73 36.7386 467.464
443 0 80.1816 12.0102 963 109.73 36.3531 469.665
444 0 82.1401 12.5274 1029 105.7 36.483 466.456
445 0 85.158 12.6236 1075 107.184 36.2205 465.868
446 1 43.052 12.3571 532 101.462 37.5526 485.658
447 0 45.0736 12.0691 544 100.654 36.0257 486.283
448 0 46.185 11.5405 533 103.559 36.5178 483.038
449 0 47.0413 13.1799 620 100.661 37.3645 483.276
450 0 47.0707 11.7695 554 104.944 37.3881 483.919
451 0 49.0976 12.4039 609 103.32 37.7159 482.836
452 0 50.1328 12.5866 631 104.219 38.2979 483.108
453 0 51.117 12.8137 655 105.217 37.7221 480.78
454 0 54.0984 12.9209 699 104.236 37.9385 480.908
455 0 55.0992 13.0492 719 104.27 38.0348 479.814
456 0 56.1443 12.2185 686 107.111 38.3382 479.755
457 0 57.0934 12.6635 723 115.232 37.686 478.059
458 0 60.0758 13.7493 826 112.448 37.6828 477.512
459 0 61.0899 12.1624 743 116.972 37.3297 478.421
460 0 63.151 12.478 788 116.906 37.0495 475.302
461 0 66.1873 13.9302 922 113.872 37.3308 473.231
462 0 67.1179 12.7388 855 117.889 37.5602 472.38
463 0 70.1659 14.1807 995 114.476 37.6905 471.308
464 0 71.0914 13.138 934 119.305 37.7099 470.032
465 0 73.1622 13.4769 986 118.082 38.2748 469.735
466 0 76.1261 13.7929 1050 117.09 38.6686 468.155
467 0 77.1322 11.9665 923 116.285 38.1853 469.203
468 0 81.143 13.6303 1106 112.951 37.4087 464.581
469 0 83.2325 14.057 1170 114.412 37.8709 466.092
470 0 86.1331 14.0016 1206 114.959 37.5837 464.959
471 0 89.1947 12.512 1116 118.265 37.6246 462.608
472 1 45.0741 10.7379 484 108.587 37.7479 484.24
473 0 46.0786 12.1531 560 112.536 38.3268 482.859
474 0 45.0265 11.7931 531 116.495 37.0151 482.269
475 0 48.0454 12.4882 600 111.268 38.5917 482.22
476 0 51.1034 13.2672 678 108.516 38.674 481.746
477 0 53.1365 12.7219 676 109.987 38.5666 480.679
478 0 54.137 12.9117 699 110.232 38.8484 480.056
479 0 55.1057 12.5214 690 111.52 38.3043 479.6
480 0 55.0794 12.6726 698 112.331 37.8066 477.285
481 0 58.0286 13.8897 806 108.862 37.969 478.362
482 0 60.0345 11.8265 710 114.117 37.4 475.725
483 0 63.1573 13.2051 834 110.428 37.4808 475.266
484 0 64.0853 12.9515 830 111.858 38.0422 473.981
485 0 66.1143 14.1119 933 109.105 37.9443 473.324
486 0 68.062 13.0175 886 112.037 37.4729 472.477
487 0 70.1178 12.8355 900 112.664 38.4867 471.883
488 0 72.116 12.6602 913 113.064 38.4611 470.338
489 0 71.113 12.3887 881 114.001 38.2928 471.003
490 0 77.108 14.6288 1128 108.296 38.4468 468.044
491 0 78.1473 14.14 1105 108.901 38.4751 466.217
492 0 80.1019 13.8449 1109 109.722 38.2795 466.091
493 0 82.1215 13.687 1124 110.485 37.2651 462.94
494 0 85.056 13.2971 1131 110.902 38.0442 463.403
495 0 89.18 13.8933 1239 109.831 37.7296 461.733
496 0 91.1367 12.6623 1154 111.654 37.5667 461.006
497 0 94.1977 14.5226 1368 107.711 37.8385 458.27
498 0 95.2164 12.1093 1153 112.905 37.569 458.491
499 1 46.0638 10.6808 492 110.803 37.5285 483.596
500 0 48.1461 12.7736 615 109.241 38.1366 479.395
501 0 50.2236 12.4643 626 112.898 38.2827 480.845
502 0 50.1585 13.0785 656 115.383 37.7622 479.523
503 0 51.0885 12.9579 662 115.261 37.8308 478.017
504 0 51.1789 12.6419 647 116.233 37.7172 478.318
505 0 55.1437 13.7459 758 111.544 37.7058 477.769
506 0 56.1311 12.9162 725 113.604 37.6207 476.166
507 0 57.1238 13.6195 778 110.501 37.5707 477.42
508 0 58.1067 12.9417 752 112.414 37.4934 477.078
509 0 59.1085 12.5532 742 112.55 38.3935 476.251
510 0 59.0611 12.377 731 112.453 38.435 474.204
511 0 61.1479 13.4755 824 109.117 38.2658 474.348
512 0 65.078 13.9371 907 106.31 38.5623 473.733
513 0 66.0416 13.2644 876 107.873 38.1906 472.442
514 0 67.1323 13.6894 919 107.61 38.3504 470.941
515 0 68.0476 12.1533 827 110.339 38.1548 471.285
516 0 71.0545 13.1448 934 107.712 37.8394 468.853
517 0 71.1167 13.1755 937 107.593 38.555 466.132
518 0 73.0846 12.8071 936 106.872 38.1303 465.932
519 0 76.1178 12.5858 958 106.188 37.167 464.418
520 0 78.1549 14.3049 1118 103.112 37.2021 463.168
521 0 76.1015 12.0891 920 107.692 37.4891 461.057
522 0 82.1711 13.2407 1088 104.397 36.8419 460.964
523 0 82.1242 12.6394 1038 105.437 36.7592 459.302
524 0 87.0968 13.927 1213 101.385 37.2589 460.137
525 0 87.1692 13.2616 1156 102.978 37.2292 459.52
526 0 88.1359 12.6623 1116 104.318 36.5349 458.886
527 0 91.1504 12.8579 1172 103.325 36.6638 455.596
528 0 93.2738 13.3692 1247 101.277 36.6327 455.896
529 0 95.1888 13.3734 1273 102.383 36.4485 452.294
530 0 97.1976 13.9201 1353 101.954 37.0296 451.855
531 0 101.117 13.8354 1399 101.179 36.6805 450.491
532 0 104.119 13.1676 1371 102.675 36.6112 449.508
533 0 107.258 14.1808 1521 101.478 36.7324 448.83
534 0 109.206 14.1842 1549 101.819 36.6327 446.862
535 0 115.183 12.9967 1497 104.607 36.7415 445.9
536 0 117.149 13.4785 1579 104.854 36.5662 442.229
537 0 119.248 12.8388 1531 107.138 37.0078 440.033
538 0 122.365 14.563 1782 104.358 37.6936 435.447
539 0 129.19 14.3123 1849 104.401 36.9292 437.44
540 0 131.121 12.8659 1687 108.979 36.5542 434.112
541 0 133.316 13.1267 1750 109.713 36.572 429.661
542 0 141.152 13.7015 1934 108.603 36.1287 430.945
543 0 141.213 13.5894 1919 110.941 36.2897 420.928
544 0 148.228 14.4979 2149 109.611 36.342 421.407
545 0 152.248 12.5191 1906 115.038 36.6731 419.888
546 0 156.238 13.8186 2159 113.856 37.0134 414.919
547 0 162.141 12.8283 2080 117.62 36.6971 413.668
548 0 166.216 14.8482 2468 114.14 36.594 410.441
549 0 175.168 14.7915 2591 114.7 36.3732 410.132
550 0 180.271 15.0108 2706 115.19 37.286 407.724
551 0 186.359 12.9213 2408 120.988 37.2114 408.306
552 0 192.278 14.4322 2775 118.592 37.3013 402.874
553 0 199.287 14.2358 2837 120.787 37.1703 395.235
554 0 206.396 14.1863 2928 122.394 36.9781 393.175
555 0 217.248 15.6319 3396 118.58 36.9072 390.157
556 0 224.259 14.6438 3284 123.033 37.2086 389.795
557 0 230.29 15.1765 3495 123.41 36.8635 379.086
558 0 239.393 15.1216 3620 123.246 37.0066 383.143
559 0 250.518 15.0169 3762 124.673 37.3272 379.044
560 0 258.228 15.556 4017 125.543 37.1989 371.231
561 0 265.359 14.8855 3950 127.862 36.8575 367.686
562 0 275.387 14.8264 4083 128.18 36.9427 363.129
563 0 287.478 15.3159 4403 127.2 36.9712 361.037
564 1 298.498 15.4474 4611 129.05 37.0796 355.337
565 0 307.396 14.7399 4531 131.485 37.5758 352.302
566 1 94.0575 9.00513 847 120.829 38.3872 467.227
567 0 92.0612 10.2432 943 121.166 37.28 462.586
568 0 92.0561 10.385 956 122.113 38.2615 463.978
569 0 90.1355 11.405 1028 125.942 37.3745 456.996
570 0 93.202 12.5319 1168 123.78 36.8878 455.257
571 0 98.1624 13.1924 1295 120.354 37.6085 456.123
572 0 102.169 12.0192 1228 112.824 37.991 457.266
573 0 104.304 12.3198 1285 114.375 37.6319 454.27
574 0 107.124 10.2031 1093 118.991 37.2049 456.918
575 0 112.323 13.2297 1486 107.155 37.9314 431.738
576 0 114.291 12.5206 1431 110.407 37.4067 439.481
577 0 120.09 12.6572 1520 114.612 37.5849 444.718
578 0 125.181 14.499 1815 105.136 38.314 437.216
579 0 128.248 11.8131 1515 112.398 37.87 438.066
580 0 132.166 11.4326 1511 118.617 38.0668 438.87
581 0 138.237 12.0807 1670 118.412 37.8353 439.177
582 0 142.215 11.8412 1684 119.856 37.367 432.63
583 0 149.191 12.494 1864 117.922 37.4764 434.528
584 0 152.284 11.6165 1769 120.725 38.2832 429.547
585 0 162.44 14.4853 2353 109.563 36.8198 416.882
586 0 166.576 14.1077 2350 112.151 36.217 417.897
587 0 169.531 12.6761 2149 117.295 37.1847 415.119
588 0 177.51 13.1148 2328 116.738 37.0339 416.827
589 0 182.346 14.4889 2642 116.738 36.8338 417.238
590 0 186.452 13.4941 2516 124.913 36.8843 410.077
591 0 193.249 14.7789 2856 120.567 37.1663 409.761
592 0 198.32 14.6379 2903 122.395 37.4771 409.129
593 0 203.277 14.7976 3008 123.113 37.3015 405.149
594 0 209.364 13.8467 2899 126.091 37.3532 403.762
595 0 216.484 14.3382 3104 123.094 37.3405 401.33
596 0 222.503 13.1189 2919 127.657 38.2251 394.1
597 0 231.545 13.5265 3132 126.117 37.5776 392.495
598 0 240.487 14.5912 3509 122.44 37.4594 386.152
599 1 177.475 13.1793 2339 120.945 38.1018 417.82
600 0 181.5 13.719 2490 121.099 38.1952 414.157
601 0 188.529 12.9582 2443 124.032 38.1543 407.187
602 0 195.465 13.7416 2686 121.563 37.4133 405.533
603 0 202.506 13.9304 2821 121.336 37.2839 400.473
604 0 209.417 13.9769 2927 121.145 37.3888 395.106
605 0 217.428 13.8069 3002 121.133 37.4131 392.225
606 0 225.542 14.525 3276 119.175 37.6047 388.701
607 0 235.473 15.1779 3574 116.423 37.1074 387.205
608 0 240.358 13.3176 3201 121.654 36.5954 387.864
609 0 249.711 12.9029 3222 121.391 36.7151 382.227
610 1 195.448 12.0748 2360 121.832 36.872 408.823
611 0 202.505 12.8392 2600 120.484 36.2727 406.766
612 1 79.5302 11.4296 909 117.427 36.5754 464.454
613 0 83.4519 11.947 997 119.124 36.6981 460.872
614 0 86.4532 11.6479 1007 114.153 36.5432 462.086
615 0 87.0907 10.6211 925 118.099 36.5114 461.903
616 0 91.1279 11.5442 1052 115.345 36.7576 461.267
617 0 94.2976 10.9547 1033 117.322 38.1297 454.096
618 0 98.3932 12.6533 1245 112.795 37.6667 452.855
619 0 101.246 12.3166 1247 113.017 38.5982 453.196
620 0 103.424 12.6953 1313 112.492 38.1333 450.491
621 0 107.265 11.3177 1214 115.584 38.2768 449.53
622 0 109.23 12.4874 1364 113.638 37.816 447
623 0 111.339 12.6102 1404 114.145 37.6702 444.422
624 0 116.312 13.3434 1552 111.55 37.3441 442.789
625 0 119.37 11.9628 1428 115.253 37.8067 442.301
626 0 122.401 13.709 1678 111.675 37.1579 440.743
627 0 127.178 13.1312 1670 112.733 37.5425 436.767
628 0 133.442 16.0219 2138 105.296 37.1006 435.378
629 0 132.463 12.3808 1640 116.655 36.6774 434.138
630 0 137.454 13.1244 1804 114.753 36.9468 431.279
631 0 142.416 11.9017 1695 117.658 37.1764 428.125
632 1 80.1624 10.2292 820 109.339 38.261 464.272
633 0 82.0813 10.7333 881 111.841 38.4608 461.125
634 0 86.2244 10.4495 901 111.818 36.1776 464.349
635 0 88.1342 11.4598 1010 108.146 35.9703 462.93
636 0 89.2846 10.6625 952 119.856 38.2279 463.199
637 0 94.3608 12.0919 1141 118.697 38.3103 459.809
638 0 97.2852 11.6359 1132 116.555 37.4125 458.467
639 0 98.4732 12.704 1251 118.897 37.2542 451.681
640 0 103.494 13.3438 1381 116.891 37.6944 450.411
641 0 106.257 11.811 1255 107.498 36.5857 458.231
642 0 109.248 12.348 1349 107.807 36.4248 455.388
643 0 113.229 12.2672 1389 110.363 35.8632 453.174
644 0 115.397 11.7594 1357 112.562 36.2999 449.709
645 0 120.286 12.0961 1455 111.664 36.2364 446.975
646 0 120.167 10.552 1268 116.085 35.7737 446.386
647 0 127.345 12.9255 1646 111.79 35.87 440.904
648 0 128.249 11.579 1485 114.85 35.9751 443.347
649 0 132.356 12.8895 1706 112.863 35.8306 441.594
650 0 138.318 12.5869 1741 113.664 35.5796 436.837
651 0 143.368 13.155 1886 112.658 35.4857 435.848
652 0 148.269 12.936 1918 114.493 35.6627 433.046
653 0 155.319 13.2952 2065 114.46 36.0387 431.337
654 1 84.1887 11.1179 936 121.294 35.9541 465.047
655 0 87.1169 11.5821 1009 116.377 36.9257 461.666
656 0 90.1371 14.0231 1264 110.956 37.0886 460.597
657 0 90.1204 12.4389 1121 115.541 36.6842 460.73
658 0 94.0968 13.3054 1252 114.621 36.7468 459.28
659 0 99.1756 13.6122 1350 113.384 36.0022 459.45
660 0 101.192 13.1631 1332 115.549 35.8641 455.508
661 0 103.132 13.0221 1343 115.92 35.6709 454.899
662 0 106.139 12.7663 1355 117.103 35.6103 453.701
663 0 111.074 12.1181 1346 117.212 35.9473 452.552
664 0 112.101 12.7563 1430 118.233 36.1399 446.334
665 0 118.23 13.7359 1624 112.885 36.7617 449.308
666 0 120.107 12.8219 1540 116.228 36.4617 446.371
667 0 124.164 12.8701 1598 115.702 36.6977 444.669
668 0 129.089 13.3319 1721 114.94 36.1116 442.14
669 1 68.0948 11.9246 812 110.192 38.0148 472.376
670 0 71.1231 13.0056 925 107.289 36.7384 472.521
671 0 74.1089 13.7096 1016 108.64 35.5925 470.616
672 0 75.124 13.1117 985 109.964 35.5431 470.46
673 0 74.1285 12.4379 922 113.075 35.179 469.936
674 0 78.1067 14.2625 1114 109.485 35.5916 466.218
675 0 79.0467 13.4351 1062 111.594 36.3089 467.116
676 0 81.0771 12.4449 1009 115.129 35.7245 466.169
677 0 84.138 13.0619 1099 113.877 35.7907 464.849
678 0 86.2399 13.3001 1147 115.199 36.1238 463.829
679 0 89.1092 13.7023 1221 113.403 35.8428 463.062
680 0 91.1692 12.5371 1143 117.863 35.2502 462.484
681 0 94.1207 14.0777 1325 114.133 35.8921 460.036
682 0 98.1976 14.1653 1391 116.863 35.4321 458.643
683 0 99.2361 14.0473 1394 117.923 36.1492 457.625
684 0 102.201 12.8961 1318 122.744 36.5766 456.013
685 0 108.375 13.8131 1497 118.951 36.7275 452.637
686 0 108.31 13.2582 1436 121.909 36.1936 452.417
687 0 113.34 13.3845 1517 120.863 36.321 450.29
688 1 62.1589 9.92617 617 116.549 35.9595 478.872
689 0 62.1006 10.2737 638 110.534 36.9687 476.839
690 0 65.1556 11.4188 744 108.626 37.4167 473.363
691 0 66.2046 11.1473 738 109.519 36.0664 475.451
692 0 68.1115 11.8482 807 108.115 36.2838 472.581
693 0 72.1052 13.0226 939 103.463 37.4281 471.021
694 0 73.1599 11.3177 828 107.043 37.2476 473.144
695 0 77.1051 12.3598 953 106.083 37.4271 470.572
696 0 78.0999 12.484 975 106.638 36.8215 468.637
697 0 80.1508 12.489 1001 106.908 37.5634 466.575
698 0 83.1969 11.9235 992 107.562 37.5262 467.755
699 0 85.1891 12.3607 1053 107.699 37.4653 466.132
700 0 88.2786 11.9735 1057 109.993 36.7824 462.916
701 0 91.1732 12.7998 1167 107.278 37.2185 463.751
702 0 94.2615 13.4095 1264 106.755 37.1748 460.29
703 0 96.2591 12.2794 1182 110.725 37.357 459.754
704 0 100.222 12.7717 1280 109.74 37.4547 458.175
705 0 102.172 11.7448 1200 112.963 37.0392 456.154
706 0 104.095 12.5558 1307 112.213 36.977 453.848
707 0 108.099 11.73 1268 112.884 36.8707 454.903
708 0 114.148 12.4225 1418 111.819 36.8808 451.425
709 1 62.1331 11.8295 735 108.501 37.1429 476.786
710 0 63.184 10.5723 668 110.904 37.497 476.31
711 0 67.2587 11.8498 797 107.754 37.0527 473.395
712 0 67.1477 12.4502 836 106.108 36.9833 471.312
713 0 70.1753 11.9273 837 108.048 36.9642 473.57
714 0 72.1938 12.231 883 108.563 37.3624 470.907
715 0 75.0806 12.7596 958 107.185 36.6315 470.695
716 0 74.1607 11.6099 861 112.202 36.9419 469.243
717 0 77.0799 11.9486 921 111.807 38.0467 468.964
718 0 79.1123 11.9451 945 112.956 37.4963 468.515
719 0 82.1494 11.5156 946 115.664 37.5507 466.136
720 0 84.1191 12.9222 1087 114.081 37.6808 464.264
721 0 86.2243 12.2587 1057 118.101 37.3425 462.156
722 0 90.1325 12.881 1161 116.418 37.1102 462.633
723 0 93.1777 13.3616 1245 115.676 37.1229 460.02
724 0 95.225 13.3578 1272 117.553 37.0039 459.148
725 0 97.4484 13.1352 1280 118.78 35.925 451.552
726 0 100.363 13.8696 1392 117.276 35.8499 450.994
727 0 103.275 12.8589 1328 120.591 36.4767 448.465
728 0 107.272 13.6942 1469 117.393 36.4534 449.427
729 0 108.266 11.8227 1280 123.773 35.7516 446.598
730 1 59.2114 11.7376 695 112.783 36.0964 472.212
731 0 62.3497 11.5959 723 112.809 36.0221 471.062
732 0 63.0309 11.8831 749 110.937 38.0053 476.925
733 0 62.0563 11.3768 706 108.084 37.7776 470.756
734 0 64.1 10.8424 695 112.147 37.7281 470.071
735 0 65.0872 10.5397 686 114.692 37.2347 470.673
736 0 70.0758 11.7587 824 110.563 36.7925 470.186
737 0 72.0605 10.5606 761 113.568 37.7674 469.966
738 0 73.0734 11.9195 871 113.667 37.1734 467.152
739 0 74.161 10.0862 748 118.17 36.9118 468.318
740 0 77.0878 10.9226 842 119.157 36.5938 463.792
741 0 81.1118 11.1821 907 119.291 35.8853 462.772
742 0 84.1101 11.6038 976 117.559 36.7531 463.959
743 0 84.1559 11.0984 934 120.77 36.7527 462.892
744 0 88.093 11.2835 994 120.693 37.0241 459.364
745 1 48.0137 10.018 481 111.493 37.1518 483.457
746 0 47.014 9.59289 451 114.71 37.051 483.377
747 0 53.0489 12.6864 673 110 36.5498 484.105
748 0 53.0399 13.2165 701 114.973 38.5777 480.472
749 0 54.0685 13.0205 704 117.572 38.3707 479.893
750 0 55.0617 12.3316 679 118.971 37.9499 479.966
751 0 57.0736 12.8431 733 115.15 38.4297 479.954
752 0 57.0728 13.2638 757 115.487 38.2853 477.886
753 0 60.1238 12.4576 749 116.146 38.4099 477.749
754 0 60.0757 13.3498 802 114.888 38.4252 477.475
755 0 63.0653 12.9231 815 115.187 37.9374 474.61
756 0 66.1051 11.9053 787 117.502 38.1944 474.874
757 0 68.1855 13.0086 887 115.17 38.9087 472.681
758 0 71.0439 13.0623 928 114.522 38.1778 471.77
759 0 73.1705 12.8467 940 114.982 37.9266 470.436
760 0 74.2422 12.4188 922 117.368 38.0011 469.177
761 0 76.1042 13.2844 1011 115.414 38.0059 471.129
762 0 77.2213 12.38 956 120.414 37.8033 468.162
763 0 82.1303 13.576 1115 117.208 38.0018 466.466
764 0 83.073 11.3755 945 124.65 38.3122 466.829
765 0 86.2814 12.3086 1062 122.499 37.3851 464.713
766 0 89.1194 13.7232 1223 117.584 37.1954 462.052
767 1 47.23 10.163 480 119.69 38.1188 480.1
768 0 49.1359 10.6236 522 117.864 38.4464 479.042
769 0 48.1012 10.0205 482 110.537 37.3465 475.917
770 0 50.025 10.4948 525 105.091 37.8552 475.107
771 0 53.0738 10.6644 566 113.754 37.9664 480.792
772 0 54.0631 10.6357 575 114.976 38.1948 478.666
773 0 58.0698 12.1578 706 110.15 38.0807 479.208
774 0 58.1671 10.7793 627 113.695 38.8038 480.033
775 0 61.0819 11.8038 721 111.63 38.3259 477.452
776 0 64.0698 12.6268 809 108.366 38.7256 475.629
777 0 65.0586 11.2053 729 111.9 39.2387 475.196
778 0 65.0496 11.2068 729 112.7 39.048 475.83
779 0 68.1585 12.4269 847 109.95 38.5348 471.764
780 0 69.0571 10.8026 746 112.41 38.5147 474.429
781 0 73.093 12.6004 921 111.054 38.3496 472.314
782 0 75.1658 11.6809 878 111.185 37.7403 472.287
783 0 78.1377 11.966 935 110.659 38.0695 467.879
784 0 79.1327 10.5898 838 110.557 37.9952 470.592
785 0 83.1652 11.7718 979 109.332 36.764 466.831
786 0 85.1057 12.4199 1057 106.881 37.2431 467.386
787 1 45.0465 10.4337 470 104.481 38.0894 488.338
788 0 45.1552 11.383 514 104.901 35.5506 482.196
789 0 48.2121 12.7976 617 101.733 35.0875 481.047
790 0 48.0626 11.8804 571 103.725 36.2434 483.401
791 0 50.0318 12.3721 619 102.54 35.4943 484.011
792 0 51.0406 12.9113 659 101.727 36.2686 483.205
793 0 52.113 12.3578 644 103.932 35.7283 481.444
794 0 55.0876 12.471 687 102.568 35.9418 480.878
795 0 56.0806 12.5177 702 103.497 36.1994 480.93
796 0 57.0792 12.8593 734 101.529 35.8202 481.105
797 0 58.106 13.0451 758 102.516 35.6887 479.347
798 0 60.0974 12.1303 729 104.032 35.9534 478.298
799 0 62.0848 13.1111 814 102.109 36.0405 476.295
800 0 63.0717 12.7157 802 103.484 35.5835 476.726
801 0 65.0474 12.6984 826 104.536 35.2276 474.99
802 0 66.184 13.5985 900 103.543 35.6789 474.338
803 0 68.0832 12.9254 880 105.194 35.7102 474.048
804 0 70.0778 12.8286 899 106.121 35.564 473.07
805 0 70.2081 13.0612 917 106.81 35.8419 472.667
806 0 75.1786 13.0489 981 107.113 36.3976 470.633
807 0 76.1463 13.7236 1045 107.084 35.4612 468.657
808 0 80.2849 13.9503 1120 106.182 35.5295 468.604
809 1 42.0757 11.4793 483 109.853 35.6625 487.594
810 0 41.0252 10.7007 439 107.702 35.2916 488.834
811 0 43.0381 11.8964 512 104.979 35.291 484.664
812 0 45.0701 12.4029 559 103.587 36.9642 486.927
813 0 45.0274 11.4153 514 108.167 36.9183 485.36
814 0 48.0738 13.6457 656 102.712 36.6921 484.854
815 0 49.0483 13.0076 638 104.444 36.8605 483.561
816 0 49.059 12.2302 600 107.592 37.005 483.44
817 0 52.055 13.3705 696 103.217 36.8491 483.809
818 0 54.097 12.3852 670 106.034 37.2731 481.142
819 0 55.0442 13.1531 724 105.159 37.4351 478.945
820 0 57.1462 12.7217 727 106.964 37.044 480.512
821 0 57.0959 13.1708 752 107.245 36.5798 477.379
822 0 61.1341 14.5091 887 104.009 36.6234 477.414
823 0 64.0549 12.8171 821 107.28 36.6212 477.677
824 0 66.0863 13.6337 901 106.851 36.3307 476.137
825 0 66.0508 11.8242 781 112.795 36.4366 475.887
826 0 71.0439 13.9491 991 107.632 36.2987 475.595
827 0 72.0727 14.7212 1061 107.735 36.2799 472.47
828 0 75.1029 13.6879 1028 111.317 36.7889 471.747
829 0 78.0722 13.8077 1078 110.886 36.7866 470.849
830 0 81.1529 13.986 1135 111.716 37.3524 469.903
831 0 83.0559 13.4488 1117 113.712 36.6374 468.543
832 0 86.0758 13.279 1143 115.141 36.5372 467.797
833 0 87.0561 13.6808 1191 113.509 36.2594 465.942
834 1 44.012 11.0197 485 118.563 36.7175 485.944
835 0 46.0207 12.1467 559 118.453 36.7335 486.152
836 0 49.019 11.6282 570 114.728 36.6649 486.484
837 0 51.0584 11.8296 604 117.512 36.7036 483.864
838 0 50.0516 11.668 584 118.036 37.4897 484.719
839 1 107.17 14.9762 1605 114.196 36.8723 457.105
840 0 111.135 15.8906 1766 112.79 36.9128 456.315
841 0 113.261 14.4622 1638 118.362 36.8327 453.969
842 0 116.31 14.8912 1732 118.647 36.6594 451.839
843 0 121.289 14.4118 1748 121.497 36.8072 447.872
844 0 125.358 14.7338 1847 119.847 36.5929 447.529
845 0 130.287 14.8825 1939 120.251 36.7091 446.4
846 0 131.369 14.798 1944 121.59 37.0149 444.879
847 0 135.463 14.0334 1901 124.784 36.212 440.865
848 0 141.396 15.1419 2141 122.198 36.2994 438.986
849 0 144.329 13.9888 2019 126.734 36.5146 438.746
850 0 148.46 14.1452 2100 126.429 36.7205 437.272
851 0 155.542 15.4492 2403 123.458 36.9933 432.274
852 0 157.564 14.3942 2268 127.25 36.8616 430.622
853 0 163.62 15.7927 2584 124.376 36.4768 426.815
854 0 171.828 14.951 2569 126.23 36.3846 425.143
855 0 173.462 14.5392 2522 128.897 36.3497 422.885
856 0 180.475 16.0243 2892 124.967 36.3935 420.437
857 0 186.565 15.721 2933 126.394 35.8698 415.744
858 0 192.627 15.7091 3026 125.827 36.5565 412.5
859 0 198.519 15.1774 3013 127.929 36.0531 410.333
860 0 204.583 15.2407 3118 127.978 35.857 405.573
861 0 211.664 16.0821 3404 124.836 35.8176 404.225
862 0 217.809 15.6513 3409 126.626 36.4655 396.825
863 0 223.91 15.1043 3382 127.213 35.838 397.986
864 0 230.614 14.7649 3405 130.354 35.5439 389.078
865 0 239.551 15.4622 3704 127.947 36.2311 387.374
866 0 246.564 14.8846 3670 129.65 35.8635 385.323
867 0 254.642 14.9779 3814 130.661 36.135 378.874
868 0 262.896 15.7895 4151 128.591 36.2098 373.127
869 0 271.755 15.79 4291 129.55 35.855 371.299
870 0 281.619 15.7873 4446 129.599 36.5011 366.005
871 0 290.65 16.7418 4866 127.666 36.3136 361.461
872 0 296.838 15.8167 4695 132.243 36.1991 357.379
873 0 306.758 15.9409 4890 132.85 36.4264 352.258
874 0 312.667 16.5479 5174 132.62 35.7675 346.139
875 0 323.64 17.8841 5788 129.769 36.7279 342.901
876 0 332.565 16.5622 5508 135.186 36.7732 333.847
877 0 343.8 17.3589 5968 133.015 36.3792 332.257
878 0 351.854 17.9308 6309 132.706 36.1897 322.795
879 0 362.608 17.319 6280 135.326 36.2976 319.03
880 0 372.783 17.1977 6411 136.895 36.014 314.935
881 0 382.772 17.1616 6569 138.496 35.6427 312.525
882 0 394.71 17.4229 6877 138.319 35.8891 302.424
883 0 406.879 17.8726 7272 136.581 35.3995 292.593
884 0 419.308 17.3858 7290 139.396 35.6914 288.173
885 0 423.636 16.6841 7068 142.853 35.687 287.001
886 0 422.88 17.5818 7435 140.783 36.2094 280.532
887 0 423.03 18.384 7777 137.625 36.0063 282.281
888 0 420.443 17.8907 7522 139.197 35.8498 291.198
889 0 420.486 18.0933 7608 139.061 36.0093 290.157
890 0 420.594 18.607 7826 137.572 35.7378 291.913
891 0 419.429 17.0375 7146 144.153 36.2225 296.712
892 0 418.21 16.9723 7098 144.173 36.6674 300.305
893 0 422.364 16.4929 6966 145.916 36.4523 296.189
894 0 419.483 17.0567 7155 142.668 36.3385 298.735
895 0 413.797 16.3921 6783 144.695 36.2151 297.766
