time division length width area intensity CMx CMy
0 0 45.0723 12.8017 577 147.841 268.912 472.428
1 0 47.0349 14.0747 662 142.52 269.686 472.092
2 0 46.0432 13.5742 625 147.042 269.696 472.01
3 0 50.0506 13.6462 683 144.631 269.52 471.425
4 0 51.01 13.8404 706 143.874 269.763 469.63
5 0 54.08 14.3676 777 139.573 270.154 470.44
6 0 53.0639 13.757 730 144.144 269.57 469.618
7 0 56.0193 14.2808 800 141.466 269.838 468.764
8 0 54.117 13.9882 757 146.362 269.021 467.621
9 0 59.0567 14.2744 843 142.534 268.911 466.272
10 0 60.0894 13.896 835 144.638 268.486 466.589
11 0 61.068 14.1973 867 143.416 269.445 465.46
12 0 66.1079 14.3553 949 138.13 268.987 463.927
13 0 67.1617 13.5196 908 141.526 268.657 462.858
14 1 33.0341 11.4427 378 144.889 268.923 480.728
15 0 35.0424 12.3279 432 141.15 268.928 479.72
16 0 34.0539 11.5405 393 144.662 268.529 480.115
17 0 36.0853 13.5512 489 135.697 269.149 480.458
18 0 36.0495 12.7602 460 136.033 269.55 481.039
19 0 37.0394 12.7972 474 136.376 268.572 481.734
20 0 39.0267 13.1448 513 135.811 268.068 480.343
21 0 38.0722 12.8177 488 137.863 268.627 480.033
22 0 42.0234 13.4449 565 133.48 268.538 480.712
23 0 42.0785 13.0233 548 137.042 268.1 480.139
24 0 44.1231 13.9836 617 133.499 268.079 478.922
25 0 43.0136 13.6933 589 137.803 267.272 478.756
26 0 45.0343 14.1004 635 137.209 266.954 478.841
27 0 48.0621 13.649 656 135.165 267.011 478.203
28 0 47.0917 13.4419 633 139.867 266.711 477.692
29 0 49.0556 13.9841 686 138.327 267.083 476.214
30 0 49.0719 13.8368 679 139.891 267.19 476.449
31 0 53.1058 13.9156 739 137.859 266.363 476.402
32 0 56.0568 15.1275 848 135.465 266.119 474.553
33 0 57.1653 15.254 872 134.815 266.618 473.788
34 0 57.1495 14.4883 828 136.541 266.321 471.419
35 0 60.102 14.1593 851 136.482 266.226 472.287
36 0 62.071 14.4834 899 133.832 267.029 470.713
37 0 63.0967 13.725 866 137.336 266.445 468.251
38 0 66.0269 13.4188 886 135.998 265.422 469.798
39 0 69.0831 14.7504 1019 131.711 265.43 465.82
40 0 72.1132 15.1151 1090 130.379 265.071 464.879
41 0 74.0566 15.3261 1135 129.978 265.382 462.159
42 0 77.23 15.292 1181 129.489 265.29 462.141
43 0 80.2376 14.2078 1140 131.974 265.914 459.478
44 0 83.2408 13.9115 1158 132.499 265.593 458.832
45 0 86.2695 14.9184 1287 129.913 265.88 456.229
46 0 90.2814 14.4216 1302 133.019 265.195 458.197
47 0 94.2097 15.423 1453 129.159 265.177 456.383
48 1 46.0432 12.0539 555 129.067 265.915 480.117
49 0 48.1022 12.8892 620 127.194 265.639 479.263
50 0 49.0837 14.078 691 125.094 265.554 478.705
51 0 51.0781 13.3913 684 125.107 265.959 477.848
52 0 53.0728 13.4155 712 124.941 265.716 477.646
53 0 54.0703 13.205 714 124.968 265.606 476.931
54 0 57.1525 13.3677 764 130.274 264.975 474.509
55 0 59.0762 13.4911 797 128.946 265.104 474.797
56 0 62.0772 14.337 890 122.607 265.703 472.62
57 0 63.0646 12.4475 785 125.108 264.675 468.744
58 0 65.035 13.3159 866 121.786 265.031 469.943
59 0 67.0596 14.3156 960 119.3 265.547 467.086
60 0 68.0908 11.9546 814 124.713 265.181 468.591
61 0 71.0723 13.7747 979 120.285 264.722 467.64
62 0 76.0908 14.141 1076 124.178 264.306 467.577
63 0 77.0532 12.4719 961 126.792 264.195 466.011
64 0 80.0873 12.9234 1035 124.722 263.84 465.337
65 0 84.0669 13.5011 1135 121.915 264.081 464.486
66 1 44.0992 11.837 522 119.391 264.626 482.987
67 0 46.1207 12.6624 584 117.877 264.555 482.094
68 0 48.176 12.226 589 119.737 264.681 479.963
69 0 49.0418 12.785 627 119.627 263.584 481.083
70 0 50.1113 12.8115 642 118.64 263.519 479.268
71 0 51.0364 12.3245 629 119.922 263.493 479.889
72 0 54.0933 13.07 707 116.802 263.487 478.594
73 0 55.1408 13.6922 755 115.877 263.701 476.461
74 0 56.0843 13.7472 771 114.827 264.254 477.001
75 0 59.0398 12.788 755 116.796 263.804 476.809
76 0 62.1916 13.0564 812 115.828 263.91 475.534
77 0 64.1461 12.908 828 115.371 264.723 474.193
78 0 66.1251 13.293 879 113.452 264.561 472.92
79 0 69.1473 13.276 918 112.161 264.576 470.229
80 0 72.1133 13.6868 987 111.117 264.725 469.375
81 0 74.134 12.9765 962 113.843 263.698 467.468
82 0 76.1569 13.157 1002 112.971 263.523 468.197
83 0 80.1839 13.469 1080 112.622 264.269 464.79
84 0 82.2315 14.6051 1201 110.404 263.298 463.954
85 0 83.0668 13.8684 1152 113.068 263.766 461.181
86 0 85.0737 13.071 1112 115.154 263.547 462.315
87 0 89.1469 14.2462 1270 112.601 263.543 458.547
88 0 93.095 14.1361 1316 112.626 263.669 456.41
89 1 48.0311 11.7007 562 114.196 263.251 478.352
90 0 51.0318 11.2479 574 113.556 263.411 479.437
91 0 51.1064 12.3077 629 112.033 263.96 477.739
92 0 53.0776 11.9824 636 111.734 263.36 478.807
93 0 54.0365 12.4916 675 116.199 263.876 477.877
94 0 56.0346 13.456 754 114.168 264.259 477.126
95 0 59.1566 13.3713 791 113.205 263.834 476.985
96 0 61.086 13.1127 801 114.232 263.705 474.953
97 0 62.0654 13.4052 832 114.459 264.572 474.162
98 0 64.1907 12.8679 826 116.599 263.742 472.732
99 0 64.0701 11.9088 763 121.008 263.904 470.185
100 0 70.0703 13.2296 927 115.971 263.764 471.845
101 0 72.1659 12.9978 938 118.469 262.265 469.102
102 0 73.1412 14.0277 1026 115.236 262.483 465.794
103 0 74.1492 12.4883 926 116.883 262.919 462.995
104 0 77.2029 13.7041 1058 114.128 262.662 460.659
105 0 81.078 13.5425 1098 114.681 262.578 460.145
106 0 80.0805 12.8496 1029 118.688 261.928 457.758
107 0 85.1971 13.2164 1126 116.929 262.665 456.938
108 0 87.1601 13.3777 1166 117.02 262.934 455.304
109 0 91.1138 13.4776 1228 116.745 262.87 451.445
110 0 93.1144 13.7143 1277 115.429 262.767 452.494
111 1 48.1035 10.3943 500 109.608 262.87 478.124
112 0 49.1039 10.7731 529 110.482 261.524 478.437
113 0 53.116 11.6161 617 110.167 263.207 480.22
114 0 53.0856 11.8865 631 109.586 263.079 478.472
115 0 55.0431 11.8634 653 109.499 263.418 479.11
116 0 56.103 11.1224 624 110.045 262.965 478.067
117 0 58.1142 12.441 723 107.957 262.68 476.13
118 0 61.042 12.4996 763 107.211 263.187 474.895
119 0 63.1168 11.9778 756 108.128 262.571 474.44
120 0 64.0932 12.4038 795 108.214 262.262 472.996
121 0 67.0349 12.3369 827 107.976 262.274 472.838
122 0 69.1751 12.9526 896 108.44 262.817 469.498
123 0 73.2565 12.504 916 110.504 262.762 469.146
124 0 73.199 12.4182 909 113.021 263.215 467.178
125 0 78.2616 12.7649 999 112.272 263.295 466.494
126 0 81.1535 13.9735 1134 110.559 262.414 464.673
127 0 82.2373 12.0626 992 116.101 262.005 464.268
128 0 86.2968 12.7699 1102 113.301 263.495 460.55
129 0 87.3875 12.8623 1124 114.432 263.716 458.988
130 0 90.3587 12.2512 1107 116.005 263.382 458.19
131 0 93.2837 11.8241 1103 121.037 263.742 454.798
132 0 97.4291 13.7125 1336 116.311 263.694 451.677
133 0 101.279 13.5566 1373 116.477 264.445 450.16
134 0 104.39 12.2425 1278 119.657 263.718 449.217
135 0 108.173 12.7204 1376 115.419 263.046 453.165
136 1 57.038 13.0089 742 106.613 263.836 475.319
137 0 59.0664 12.2405 723 107.69 263.472 475.664
138 0 60.0544 11.1399 669 111.398 263.689 473.857
139 0 62.0815 10.5829 657 113.816 263.933 473.865
140 0 66.1362 11.4914 760 112.084 263.792 471.382
141 0 67.0454 11.6637 782 112.74 263.37 470.66
142 0 70.1056 10.9121 765 113.363 263.873 471.188
143 0 71.0588 11.7086 832 115.127 263.332 467.103
144 0 75.1424 12.4297 934 113.441 263.361 464.791
145 0 77.0613 12.0294 927 114.391 263.181 465.81
146 0 79.029 12.1095 957 114.482 263.573 463.455
147 0 83.1116 12.3689 1028 114.575 262.669 463.274
148 0 85.0388 10.9597 932 117.959 263.108 461.651
149 0 88.0996 11.8389 1043 116.361 263.191 458.291
150 0 90.1556 11.3249 1021 116.522 263.282 457.911
151 1 46.0794 8.87599 409 112.729 264.494 481.381
152 0 50.0518 11.0286 552 109.254 263.408 479.996
153 0 51.0267 10.8179 552 110.389 263.408 480.353
154 0 50.088 10.0623 504 114.302 263.825 477.946
155 0 52.0481 9.95233 518 112.865 263.436 479.674
156 0 55.0741 11.8023 650 109.418 263.028 477.152
157 0 56.0484 10.0449 563 112.956 263.22 478.369
158 0 58.0556 11.0928 644 111.483 263.115 474.72
159 0 58.0847 10.9151 634 112.672 263.249 474.107
160 0 61.2807 10.917 669 113.126 263.951 474.012
161 0 62.1403 10.8464 674 113.969 264.194 472.475
162 0 66.1358 11.4613 758 112.757 263.116 470.955
163 0 69.1498 11.598 802 112.517 262.721 469.617
164 0 72.1339 12.1302 875 110.712 263.41 469.741
165 0 75.1003 12.703 954 109.268 263.087 469.907
166 0 78.2468 11.7832 922 118.547 262.689 467.54
167 0 79.2269 12.5336 993 118.656 263.552 463.927
168 0 83.1187 11.3693 945 118.424 263.605 464.544
169 0 86.1802 11.2323 968 119.101 263.843 462.09
170 1 44.0759 10.4819 462 114.245 265.067 482.089
171 0 46.0608 11.1809 515 113.845 264.548 480.87
172 0 47.0655 10.6235 500 114.396 264.41 481.17
173 0 49.151 12.3294 606 101.908 264.739 479.289
174 0 49.1568 11.3311 557 104.912 262.533 478.991
175 0 51.0499 10.9501 559 105.617 261.68 480.114
176 0 52.1504 11.045 576 106.595 261.635 478.592
177 0 52.1762 10.8479 566 107.8 262.484 478.705
178 0 55.1412 11.8786 655 105.308 262.258 477.113
179 0 55.1056 11.6867 644 106.78 262.559 476.422
180 0 58.0891 11.4135 663 107.103 262.451 476.124
181 0 59.1287 11.9908 709 106.76 262.154 474.061
182 0 60.0918 11.5157 692 108.597 262.405 474.694
183 0 61.0898 11.9169 728 108.93 262.588 473.359
184 0 63.1154 12.2474 773 114.4 261.972 472.709
185 0 64.2163 12.2399 786 115.804 262.557 470.641
186 0 67.2135 13.1372 883 111.297 262.402 469.284
187 0 68.2014 11.2168 765 116.584 262.927 469.505
188 0 69.1237 12.8031 885 110.986 262.764 469.01
189 0 72.0945 11.6653 841 115.071 263.014 469.448
190 0 75.1858 12.223 919 114.339 262.635 465.542
191 0 78.149 12.7449 996 112.116 262.435 466.841
192 0 78.1761 11.9602 935 116.894 262.564 462.796
193 0 80.1674 12.0623 967 115.364 262.35 462.243
194 0 84.0727 12.4059 1043 115.288 261.989 461.142
195 0 85.1231 12.0179 1023 116.988 261.294 459.759
196 0 90.0672 12.6572 1140 114.735 261.796 458.986
197 0 94.165 13.0409 1228 113.474 261.66 457.269
198 0 95.1731 12.8923 1227 116.029 262.187 451.989
199 0 99.2472 12.5646 1247 116.422 261.902 449.628
200 0 102.283 13.6093 1392 114.904 262.055 447.821
201 0 105.165 13.0462 1372 116.181 262.175 449.538
202 0 109.109 13.7569 1501 114.658 261.401 446.625
203 0 112.333 11.8042 1326 120.597 261.419 443.095
204 0 114.353 12.7325 1456 117.315 261.876 444.04
205 0 121.312 13.4034 1626 115.768 262.272 442.505
206 1 68.0683 12.1936 830 109.336 261.976 469.666
207 0 68.1272 11.5372 786 110.242 263.017 467.202
208 0 70.1335 12.0627 846 110.823 263.753 467.766
209 0 71.1812 10.5646 752 113.741 264.012 466.59
210 0 75.1362 11.9783 900 110.757 264.152 465.556
211 0 77.1323 11.8757 916 110.058 263.974 464.23
212 0 80.1759 12.1732 976 110.285 264.232 463.145
213 0 82.2398 11.9164 980 112.207 262.931 461.185
214 0 88.2012 12.188 1075 111.444 263.032 461.258
215 0 89.1605 12.5616 1120 112.558 263.042 458.127
216 0 92.2374 12.7822 1179 113.629 263.38 456.534
217 0 94.2113 12.663 1193 113.624 264.19 457.054
218 0 97.2514 12.8122 1246 115.372 263.514 453.283
219 0 98.2477 12.3565 1214 119.732 263.15 451.349
220 0 101.333 13.6876 1387 116.968 263.583 448.905
221 0 106.532 13.8831 1479 115.868 263.563 449.231
222 0 110.285 14.9341 1647 113.625 263.267 448.452
223 0 112.299 15.0045 1685 114.264 263.545 446.087
224 0 117.34 13.0305 1529 118.897 263.988 445.458
225 0 121.486 15.1869 1845 113.816 264.688 442.496
226 0 125.421 13.1158 1645 119.681 264.165 439.484
227 0 131.337 14.4285 1895 115.547 264.218 438.58
228 1 71.2944 13.283 947 114.436 263.662 465.671
229 0 74.2522 12.6596 940 116.424 263.381 464.176
230 0 76.0478 13.6888 1041 110.617 262.366 468.327
231 0 77.0776 11.6506 898 118.588 261.928 465.175
232 0 81.1536 12.1005 982 117.95 262.149 463.467
233 0 85.0976 13.5374 1152 113.488 262.202 462.136
234 0 89.0809 12.6851 1130 115.458 262.072 461.079
235 0 90.1164 12.3951 1117 117.462 262.322 459.686
236 0 93.1104 13.1135 1221 116.026 262.245 457.329
237 0 98.1196 13.7485 1349 114.564 262.82 455.573
238 0 100.117 13.7638 1378 115.345 262.761 454.588
239 0 103.14 12.8466 1325 119.138 262.962 451.077
240 0 107.264 12.8375 1377 118.151 262.621 451.118
241 0 110.242 12.3093 1357 120.615 261.744 446.401
242 0 114.19 13.3024 1519 114.687 262.257 448.684
243 1 60.0859 10.5849 636 111.494 262.634 471.813
244 0 61.1113 11.1272 680 112.359 263.918 472.879
245 0 62.0629 11.44 710 110.899 262.672 473.046
246 0 65.0816 12.4613 811 109.879 262.285 472.612
247 0 64.0562 10.5845 678 116.273 263.093 471.552
248 0 68.065 11.9445 813 112.798 262.407 469.162
249 0 69.0962 12.0846 835 112.945 262.667 468.57
250 0 72.0755 12.473 899 112.325 262.288 467.004
251 0 74.0331 11.4543 848 115.613 261.991 466.919
252 0 75.0348 12.4209 932 114.459 262.53 464.954
253 0 79.0578 12.0165 950 114.272 261.8 464.922
254 0 80.1196 12.2068 978 115.343 261.247 463.762
255 0 84.0939 11.1304 936 117.159 261.534 461.84
256 0 86.1174 11.6353 1002 115.693 261.733 460.394
257 0 90.1366 11.882 1071 115.128 261.01 459.333
258 0 92.0872 11.4565 1055 117.768 261.286 456.26
259 0 96.3098 11.5149 1109 119.217 262.245 455.794
260 1 54.0921 10.7409 581 115.312 262.518 475.721
261 0 57.1935 10.3858 594 116.579 264.303 472.542
262 0 58.0319 10.7699 625 108.61 263.285 474.962
263 0 56.0336 10.7435 602 110.914 262.362 476.719
264 0 60.0161 11.097 666 110.215 262.52 474.791
265 0 64.0608 10.7554 689 110.687 262.811 473.919
266 0 64.061 11.2549 721 110.481 262.247 471.234
267 0 66.0916 10.8486 717 111.226 262.635 470.636
268 0 68.044 11.6395 792 108.929 262.879 469.568
269 0 70.0733 11.5022 806 109.805 262.536 470.244
270 0 72.0495 11.3533 818 110.092 262.705 469.704
271 0 75.0691 12.9614 973 106.235 262.17 467.581
272 0 77.083 11.04 851 111.224 261.571 465.969
273 0 79.1445 11.1189 880 111.248 261.882 464.432
274 0 81.0805 11.6057 941 110.977 262.107 463.399
275 0 84.0855 11.4526 963 110.719 261.445 463.07
276 0 87.0581 11.6244 1012 111.926 261.325 461.135
277 0 89.0584 12.868 1146 110.832 261.508 459.614
278 0 92.1354 11.9281 1099 113.149 261.274 460.127
279 0 95.1846 11.4514 1090 112.569 261.796 460.507
280 0 101.068 12.8527 1299 109.135 262.12 456.855
281 0 101.112 12.7185 1286 112.192 262.512 451.082
282 0 104.128 12.2349 1274 113.888 262.432 450.824
283 0 108.13 12.0596 1304 113.351 263.038 447.054
284 1 60.1751 9.7881 589 110.958 263.431 475.944
285 0 64.1524 12.6885 814 102.838 264.797 474.26
286 0 66.1916 11.9199 789 105.018 264.148 472.753
287 0 66.1072 11.6629 771 105.883 264.84 473.54
288 0 68.1568 12.9114 880 101.151 264.141 472.092
289 0 67.1864 10.9546 736 108.209 264.575 471.747
290 0 71.2526 11.9855 854 104.465 264.583 470.792
291 0 72.3079 11.3266 819 106.894 264.813 470.252
292 0 77.1972 12.1766 940 104.111 263.72 468.773
293 0 77.1959 10.8166 835 108.311 263.716 467.196
294 0 80.3306 11.739 943 105.439 263.986 468.292
295 0 83.2511 11.9158 992 107.416 263.971 462.291
296 0 86.3515 13.2945 1148 104.743 263.231 460.349
297 0 90.3438 13.183 1191 104.62 263.657 461.876
298 0 90.1632 11.091 1000 110.469 263.785 459.011
299 0 94.2145 12.5458 1182 106.898 263.566 457.525
300 0 98.1843 11.8756 1166 108.688 263.199 455.119
301 0 102.158 11.7759 1203 108.208 263.454 454.57
302 0 104.203 12.3221 1284 108.3 263.023 452.683
303 0 106.101 11.9038 1263 108.452 264.026 451.504
304 0 111.123 13.8945 1544 104.255 263.288 446.734
305 0 113.205 12.8175 1451 107.41 263.748 444.502
306 0 117.206 12.414 1455 107.406 264.074 441.386
307 0 119.138 12.0281 1433 107.614 263.086 442.135
308 0 123.297 11.6467 1436 108.444 262.39 438.6
309 0 128.253 12.3974 1590 106.733 262.258 438.29
310 1 71.2709 11.8141 842 104.574 261.285 463.464
311 0 75.3791 13.3989 1010 103.942 261.915 466.397
312 0 77.4514 13.7506 1065 103.206 262.787 465.03
313 0 79.4922 14.0391 1116 102.696 263.092 462.417
314 0 83.3959 12.9503 1080 104.091 262.585 463.587
315 0 85.4174 13.5452 1157 103.495 262.449 461.799
316 0 88.3851 13.147 1162 104.685 261.825 459.545
317 0 93.6468 12.75 1194 104.102 262.358 458.224
318 0 93.5048 12.8443 1201 103.029 261.334 455.172
319 0 97.5538 13.7668 1343 97.449 262.655 448.502
320 0 100.418 11.2928 1134 102.239 262.269 446.794
321 1 51.1368 8.93682 457 94.4136 263.024 472.179
322 0 55.0718 8.31642 458 93.8559 263.349 472.397
323 0 57.2141 10.5219 602 90.9269 263.437 470.346
324 0 55.0952 8.8937 490 92.8367 264.322 471.251
325 0 56.1441 9.10158 511 92.7769 264.468 470.697
326 0 60.0666 11.3208 680 97.4485 264.713 473.768
327 0 63.144 10.1197 639 99.4648 264.125 473.964
328 0 62.0562 11.5702 718 98.8747 263.795 475.244
329 0 66.0522 11.9451 789 98.4651 262.829 473.24
330 0 67.0428 11.2167 752 100.016 263.108 472.025
331 0 69.021 10.7359 741 101.857 263.381 471.495
332 0 71.0634 11.0324 784 100.619 263.205 470.761
333 0 74.0794 12.2976 911 99.0527 263.262 467.207
334 0 77.0424 12.5386 966 98.8064 262.927 467.693
335 0 78.0917 11.6914 913 100.755 263.877 467.415
336 0 80.1365 10.4946 841 103.52 264.485 467.371
337 0 84.1007 13.7335 1155 98.2381 263.966 463.524
338 0 85.0821 12.3058 1047 102.431 264.21 462.359
339 0 89.1264 12.1176 1080 102.32 263.993 461.801
340 0 92.1425 11.6993 1078 104.699 264.417 460.189
341 0 95.2569 12.3981 1181 104.638 263.304 457.736
342 0 97.2383 11.8678 1154 104.482 264.218 459.547
343 0 102.208 12.7877 1307 103.111 264.284 454.563
344 1 58.0298 11.5975 673 104.048 264.935 476.373
345 0 57.1425 10.3076 589 106.513 265.134 479.244
346 0 60.1364 11.8564 713 104.456 263.983 474.675
347 0 62.2845 13.2778 827 102.669 262.252 471.156
348 0 62.0506 10.3947 645 103.341 264.612 478.184
349 0 64.0575 11.9892 768 102.457 265.207 476.478
350 0 65.1428 12.0965 788 102.893 265.204 476.208
351 0 65.118 11.579 754 106.239 264.846 474.353
352 0 64.1087 11.4337 733 144.239 264.791 473.911
353 0 74.1649 13.5509 1005 101.188 264.921 470.787
354 0 74.0909 12.7816 947 105.596 264.616 468.718
355 0 75.2219 12.6692 953 107.48 264.308 468.109
356 0 78.082 13.6395 1065 105.211 264.451 468.305
357 0 79.0867 13.2892 1051 106.99 263.978 466.167
358 0 82.0871 12.9253 1061 107.744 265.259 463.766
359 0 86.1687 13.52 1165 105.764 265.406 461.42
360 0 87.119 12.7068 1107 109.921 265.599 459.464
361 0 91.0941 14.1722 1291 105.101 265.807 459.151
362 0 93.1001 13.0397 1214 107.969 265.999 457.401
363 0 96.1266 13.6279 1310 106.733 266.118 454.605
364 0 97.137 12.5287 1217 110.652 265.076 451.609
365 0 102.124 13.3758 1366 106.878 265.017 448.777
366 0 105.12 12.8806 1354 107.052 264.608 448.261
367 0 109.157 12.3859 1352 107.18 264.405 447.733
368 0 111.191 12.8607 1430 110.233 264.534 443.617
369 1 59.1367 9.21594 545 106.33 264.468 470.541
370 0 65.0549 11.0061 716 103.162 264.64 468.289
371 0 64.067 10.4422 669 98.7833 264.668 470.021
372 0 66.1004 10.2571 678 99.7758 264.429 468.196
373 0 70.0397 11.9075 834 95.0671 264.339 469.112
374 0 72.1346 10.8824 785 97.4943 264.162 465.827
375 0 74.1622 11.4209 847 97.1263 264.477 463.51
376 0 76.1444 11.8196 900 96.7011 264.373 463.858
377 0 77.1474 11.6012 895 99.667 263.931 462.076
378 0 83.1341 11.6559 969 100.632 263.876 460.212
379 0 83.1049 11.8525 985 100.678 262.973 460.129
380 0 89.0581 12.3403 1099 98.6442 263.448 459.213
381 0 89.0947 12.0434 1073 98.9963 263.397 459.86
382 0 90.0845 10.5123 947 104.62 263.223 450.967
383 0 96.1736 11.7496 1130 99.9929 263.352 453.582
384 0 101.135 11.6082 1174 99.414 263.714 451.822
385 0 104.268 12.9858 1354 105.35 263.591 451.583
386 1 52.1579 9.58628 500 105.274 265.078 477.938
387 0 54.0345 9.66049 522 97.6226 263.634 478.193
388 0 57.0938 11.1396 636 93.7909 263.388 478.8
389 0 58.0696 13.0016 755 92.9073 262.6 476.156
390 0 60.1111 11.4954 691 96.4269 262.174 475.52
391 0 60.0295 11.5443 693 95.1977 262.853 475.253
392 0 64.1333 12.053 773 92.2471 263.01 474.916
393 0 63.1041 11.1879 706 94.5977 262.728 474.705
394 0 67.1061 13.1434 882 90.441 262.89 471.595
395 0 68.2064 11.8024 805 93.8584 262.457 470.052
396 0 69.0949 11.8388 818 94.2665 262.957 468.26
397 0 72.1794 12.649 913 92.6922 263.494 466.796
398 0 75.1191 11.5683 869 95.1151 263.032 465.291
399 0 76.1373 12.3724 942 94.1146 263.994 465.82
400 0 77.149 11.8213 912 95.1305 264.166 467.783
401 0 81.2769 12.6727 1030 93.8786 263.87 462.504
402 0 84.0565 13.717 1153 93.2836 263.331 462.507
403 0 85.1273 11.8881 1012 96.3765 263.222 460.938
404 0 89.2044 12.5666 1121 95.397 263.451 459.02
405 0 91.1925 12.9177 1178 96.1078 263.04 459.437
406 0 93.1814 12.0625 1124 97.5222 263.517 459.837
407 0 96.112 13.4427 1292 95.4241 263.495 457.809
408 0 98.1084 11.946 1172 99.0811 263.343 456.75
409 0 101.121 12.1339 1227 99.044 262.931 455.395
410 0 106.089 13.517 1434 96.8173 263.11 451.476
411 0 108.174 13.4321 1453 97.4398 263.526 450.019
412 0 112.256 12.4002 1392 100.249 263.031 447.778
413 0 114.131 12.6696 1446 100.022 263.845 448.068
414 0 119.187 13.9948 1668 97.9215 263.625 444.971
415 0 124.35 12.8267 1595 98.8972 263.891 442.546
416 0 129.364 13.1258 1698 97.5071 264.32 439.996
417 1 73.3232 12.0562 884 95.3439 264.818 464.883
418 0 76.3945 11.9249 911 98.079 264.62 464.917
419 0 75.1438 11.0189 828 100.461 263.678 468.652
420 0 79.2072 13.0418 1033 96.8364 263.916 467.221
421 0 83.1658 12.8659 1070 97.1748 263.997 466.259
422 0 84.1612 12.5592 1057 99.5686 263.863 462.329
423 0 87.1728 12.5383 1093 99.6084 263.82 461.163
424 0 89.164 11.4732 1023 101.684 262.867 463.246
425 0 91.2032 12.6969 1158 100.485 262.95 458.562
426 0 97.2241 13.3403 1297 99.0501 263.216 457.537
427 0 102.194 13.8952 1420 96.9831 263.011 457.148
428 0 104.19 13.7824 1436 98.7082 262.897 452.617
429 1 56.2246 11.1339 626 102.653 264.179 476.762
430 0 59.2098 12.177 721 100.521 263.85 476.093
431 0 59.157 10.9539 648 104.613 263.273 476.586
432 0 62.1549 11.1335 692 104.299 263.363 475.212
433 0 61.1346 11.0412 675 106.225 262.84 474.176
434 0 64.0792 12.7811 819 102.476 262.634 473.79
435 0 67.1837 11.7737 791 103.967 263.789 475.521
436 0 69.038 12.7176 878 103.041 263.702 471.978
437 0 72.0529 13.0737 942 102.478 262.972 469.582
438 0 72.1733 12.7609 921 103.803 263.523 470.035
439 0 75.1053 13.2081 992 103.438 263.732 468.526
440 0 77.1956 13.6407 1053 102.839 263.336 468.583
441 0 78.1767 12.331 964 108.059 262.91 466.895
442 0 82.1238 13.0778 1074 107.439 263.066 464.902
443 0 85.165 13.2918 1132 106.9 262.853 463.987
444 0 86.2122 12.3996 1069 109.763 263.213 463.639
445 0 89.1942 11.9627 1067 104.713 263.583 466.03
446 0 93.1345 11.8538 1104 104.005 265.272 462.601
447 1 50.0622 10.407 521 105.445 265.259 482.271
448 0 51.0694 10.8088 552 104.969 266.292 482.058
449 0 53.1566 12.4726 663 103.044 265.362 480.554
450 0 55.2852 12.5531 694 103.644 265.196 478.713
451 0 58.0831 13.2224 768 101.159 265.159 479.277
452 0 57.0596 12.1101 691 105.152 266.323 479.21
453 0 59.1294 12.7686 755 104.06 265.795 478.528
454 0 61.1027 12.7818 781 104.435 266.247 476.915
455 0 64.0685 13.4387 861 102.44 266.026 474.679
456 0 65.1056 12.2416 797 104.997 266.434 476.769
457 0 66.134 13.2761 878 104.618 266.715 472.817
458 0 66.133 11.371 752 110.995 266.443 471.961
459 0 71.0975 12.0117 854 109.489 266.105 469.313
460 0 72.1358 12.9339 933 108.443 265.624 469.668
461 0 76.1053 13.3368 1015 107.228 265.492 469.585
462 0 77.2526 12.4138 959 112.75 265.745 468.552
463 0 78.1506 11.6186 908 116.1 265.961 467.849
464 0 82.1618 13.2057 1085 112.216 265.957 467.064
465 0 85.1092 13.7 1166 111.893 266.399 465.427
466 0 87.1076 13.0758 1139 114.723 266.917 464.83
467 1 47.0747 11.3437 534 116.751 266.73 483.573
468 0 50.0514 12.647 633 111.202 266.469 484.608
469 0 49.0167 12.3835 607 115.422 266.883 482.72
470 0 52.032 11.762 612 116.139 266.544 481.778
471 0 54.0421 12.4903 675 116.689 266.575 480.581
472 0 53.0299 12.0498 639 119.859 265.872 481.016
473 0 57.0247 12.8365 732 118.178 266.478 479.706
474 0 57.0211 13.0303 743 118.682 266.74 478.848
475 0 59.1044 13.197 780 118.721 266.683 478.851
476 0 61.0507 13.841 845 117.034 266.821 477.893
477 0 63.1335 13.3685 844 119.333 266.474 476.286
478 0 63.0913 13.5359 854 120.519 266.642 476.037
479 0 65.1584 13.9967 912 115.491 265.803 475.688
480 0 66.0931 13.9349 921 116.603 265.339 473.71
481 0 68.0739 13.7791 938 116.152 265.504 474.181
482 0 71.1381 14.0009 996 115.49 265.102 472.475
483 0 73.0817 14.0664 1028 115.361 264.835 473.636
484 0 74.0979 12.6589 938 120.495 265.577 472.504
485 0 75.1216 12.9523 973 120.794 265.376 470.307
486 0 78.1454 14.0379 1097 118.4 264.784 469.111
487 0 82.0988 14.58 1197 115.487 265.831 467.219
488 0 83.1303 14.2427 1184 116.666 265.906 465.938
489 0 86.1722 13.5775 1170 118.095 265.689 464.056
490 0 87.096 13.9731 1217 118.723 265.963 463.496
491 0 88.0679 13.3079 1172 118.241 265.851 461.159
492 0 92.1041 12.931 1191 119.267 265.768 458.671
493 0 96.146 13.9891 1345 115.644 264.648 457.688
494 0 98.0564 13.2271 1297 111.276 265.324 453.535
495 0 103.117 14.1393 1458 109.674 264.913 449.167
496 1 53.1222 10.2782 546 106.852 265.267 477.249
497 0 55.1396 12.2961 678 103.844 265.429 475.745
498 0 57.057 11.6725 666 104.668 265.368 474.492
499 0 59.0801 10.5958 626 110.391 264.28 474.312
500 0 60.055 11.2563 676 112.651 264.716 473.491
501 0 62.0944 11.6758 725 115.44 265.166 471.967
502 0 66.0859 11.5305 762 117.008 264.873 470.752
503 0 68.131 13.3126 907 113.09 265.245 469.867
504 0 70.1581 12.7854 897 115.443 265.094 469.182
505 0 71.1742 11.0433 786 120.625 265.125 468.945
506 0 72.1304 11.2019 808 121.801 264.735 468.068
507 0 77.1109 12.3199 950 118.694 264.663 466.713
508 0 78.313 11.9265 934 120.337 264.757 466.497
509 0 81.1622 12.5305 1017 120.494 265.52 462.656
510 0 83.1346 12.1249 1008 121.02 265.67 463.511
511 0 86.1278 12.8298 1105 119.757 265.233 463.471
512 0 90.0702 12.8566 1158 121.229 265.048 460.805
513 0 92.1431 12.2852 1132 123.377 264.727 457.756
514 0 95.1061 12.3651 1176 124.631 264.962 456.382
515 0 100.051 13.3932 1340 126.02 264.5 456.01
516 0 105.122 13.4891 1418 126.29 264.226 455.578
517 1 50.088 10.9008 546 125.617 264.855 482.533
518 0 54.1078 12.6414 684 118.69 264.241 480.994
519 0 55.1396 12.3686 682 123.994 264.396 478.817
520 0 59.2135 13.7806 816 119.216 264.549 478.589
521 0 60.0566 13.5206 812 120.293 264.711 477.748
522 0 61.0736 13.9995 855 119.973 264.398 476.347
523 0 63.1574 12.6826 801 122.788 264.373 475.844
524 0 66.2121 12.8828 853 122.057 264.95 475.122
525 0 68.1514 13.8515 944 119.716 264.867 474.137
526 0 69.2622 13.8604 960 120.834 264.151 473.6
527 0 73.1786 12.9683 949 123.081 264.292 472.223
528 0 75.0602 13.9355 1046 118.359 264.198 471.559
529 0 77.1724 12.9969 1003 122.664 264.139 469.694
530 0 79.1859 14.2197 1126 118.646 264.792 470.707
531 0 79.0618 11.978 947 119.494 265.213 466.502
532 0 83.1381 13.5558 1127 115.988 264.435 465.451
533 0 86.1723 13.1365 1132 117.245 264.564 465.574
534 0 90.1331 13.6021 1226 119.706 264.467 463.275
535 0 90.1593 12.1563 1096 124.211 264.523 461.443
536 1 50.0286 11.6933 585 117.039 265.056 483.268
537 0 52.0452 12.8542 669 118.531 265.658 482.235
538 0 52.0777 12.5582 654 116.457 266.047 482.607
539 0 55.0222 14.3578 790 111.584 265.166 480.404
540 0 57.1501 13.0533 746 114.642 265.011 480.016
541 0 59.089 13.8097 816 112.363 265.094 478.375
542 0 61.0462 14.317 874 111.89 264.51 477.45
543 0 62.0426 12.701 788 116.728 264.805 476.377
544 0 65.1167 13.5142 880 114.183 264.644 474.69
545 0 67.0873 13.5197 907 115.384 264.925 473.982
546 0 68.0271 13.6122 926 115.81 265.231 472.732
547 0 72.1111 13.9923 1009 115.443 264.79 472.415
548 0 74.1114 12.4407 922 120.813 264.82 471.344
549 0 76.1493 13.2766 1011 119.974 264.295 468.822
550 0 79.2918 14.0746 1116 117.52 264.711 467.465
551 0 83.2722 14.1104 1175 117.804 264.814 465.542
552 0 85.3571 13.918 1188 119.672 264.939 461.591
553 0 88.4316 13.2532 1172 120.518 264.66 461.408
554 0 92.4134 13.3206 1231 120.434 264.539 460.294
555 1 45.2739 11.817 535 123.536 264.785 479.224
556 0 48.1091 11.2037 539 117.106 265.293 480.451
557 0 49.0188 12.0566 591 119.406 264.508 479.734
558 0 49.0255 12.055 591 121.871 264.355 478.968
559 0 52.0447 13.1426 684 117.662 264.762 477.763
560 0 53.0613 11.76 624 122.457 264.654 476.579
561 0 55.0314 12.829 706 119.285 264.416 475.933
562 0 57.0354 12.764 728 119.092 264.338 475.103
563 0 59.1103 12.9081 763 117.988 264.739 474.398
564 0 60.0339 13.559 814 118.101 264.773 472.189
565 0 63.0484 13.0852 825 114.112 265.13 471.344
566 0 65.0756 13.5074 879 113.999 264.736 469.149
567 0 68.1447 13.4273 915 112.894 264.511 472.188
568 0 70.1132 13.3926 939 114.256 265.311 468.857
569 0 71.0652 12.2845 873 118.77 264.628 469.294
570 0 73.138 12.8387 939 117.789 264.411 466.665
571 0 76.1189 12.9666 987 117.624 264.689 465.741
572 0 79.0755 12.6588 1001 119.187 264.939 461.151
573 0 83.1176 13.1982 1097 118.11 264.576 462.336
574 0 86.0673 14.2679 1228 116.43 264.04 460.141
575 0 90.0639 13.5459 1220 117.955 265.127 459.555
576 0 91.1366 13.9022 1267 119.469 264.495 457.892
577 0 95.1199 13.4987 1284 121.114 264.252 457.59
578 0 97.1028 13.1407 1276 124.154 264.955 454.737
579 0 102.144 14.4992 1481 119.598 264.763 452.313
580 0 105.198 14.4109 1516 119.582 264.983 450.159
581 1 57.1186 10.8721 621 118.327 265.111 476.907
582 0 60.1633 12.0007 722 114.765 264.97 473.866
583 0 63.0199 11.536 727 116.641 264.583 472.743
584 0 66.0772 11.986 792 114.721 265.53 472.225
585 0 67.0577 12.109 812 115.686 264.861 470.991
586 0 72.1115 13.9506 1006 119.657 265.074 471.603
587 0 73.0392 12.6781 926 121.649 265.935 473.113
588 0 77.0891 14.0746 1085 117.363 265.513 470.258
589 0 80.0571 12.8908 1032 120.711 265.257 468.453
590 0 83.074 14.2042 1180 117.136 265.381 465.468
591 0 84.0938 13.4374 1130 113.77 264.875 467.371
592 0 87.1215 13.8886 1210 112.988 265.064 464.683
593 0 91.0259 14.6002 1329 110.446 265.144 463.246
594 0 94.2544 13.5697 1279 112.29 265.638 460.739
595 0 97.1302 13.2297 1285 113.344 265.347 459.613
596 1 50.0436 10.7506 538 115.385 267.617 484.125
597 0 50.0589 12.0658 604 109.429 266.498 484.475
598 0 51.0171 11.9568 610 112.731 266.415 481.731
599 0 52.0684 12.2147 636 113.22 266.86 481.412
600 0 55.0292 12.4298 684 111.447 266.608 480.8
601 0 57.0606 13.6522 779 108.592 266.685 481.13
602 0 57.1181 13.0081 743 112.17 265.992 478.509
603 0 59.0834 12.6262 746 114.42 265.914 477.265
604 0 60.1009 13.0946 787 113.734 266.175 476.548
605 0 64.0885 13.7466 881 111.407 266.289 476.766
606 0 66.1424 13.1232 868 113.543 266.535 477.286
607 0 67.1349 12.5717 844 115.61 266 477.461
608 0 70.1049 14.892 1044 111.323 265.252 472.826
609 0 70.1443 13.5007 947 117.476 265.747 473.214
610 0 73.1363 13.7004 1002 117.17 265.612 472.776
611 0 76.0767 13.723 1044 117.079 264.777 470.055
612 0 80.1798 15.1036 1211 112.818 265.047 470.05
613 0 82.1915 12.9332 1063 118.88 265.111 469.152
614 0 85.1383 14.6703 1249 115.601 265.032 467.084
615 0 86.3045 14.7617 1274 116.271 264.683 464.657
616 0 90.2147 14.4655 1305 116.661 264.383 463.273
617 0 92.2697 14.7069 1357 118.118 264.678 463.297
618 0 96.1975 14.5222 1397 119.82 264.156 460.389
619 0 99.2478 15.426 1531 117.797 264.929 458.447
620 0 100.288 13.6009 1364 119.822 265.057 454.949
621 0 103.104 13.9083 1434 117.172 264.975 454.34
622 0 106.125 12.9187 1371 119.697 264.675 456.6
623 1 58.1938 11.7538 684 119.409 265.251 479.962
624 0 59.0694 13.0017 768 115.233 265.142 479.546
625 0 61.2668 13.0903 802 113.35 265.592 480.965
626 0 63.1904 13.9736 883 112.608 264.84 477.016
627 0 65.164 13.6885 892 113.446 265.156 475.324
628 0 68.1472 13.236 902 113.961 264.753 475.624
629 0 68.2039 12.8438 876 116.244 264.573 473.704
630 0 71.1883 13.4854 960 115 264.546 471.826
631 0 73.1561 12.9586 948 116.674 264.741 473.185
632 0 75.2866 14.053 1058 114.814 264.721 471.437
633 0 79.1364 12.927 1023 117.411 265.249 468.999
634 0 81.1681 13.971 1134 115.55 265.073 468.295
635 0 83.0921 14.153 1176 114.462 265.662 465.558
636 0 85.2461 12.8686 1097 119.716 265.934 465.015
637 0 88.0817 13.567 1195 117.723 265.954 462.441
638 0 91.1749 13.2054 1204 118.523 265.267 462.439
639 1 47.0389 11.0334 519 120.214 266.38 484.979
640 0 48.0269 11.7018 562 119.762 266.863 484.404
641 0 47.1132 11.3556 535 115.675 265.862 486.462
642 0 49.048 11.4989 564 115.906 265.729 483.706
643 0 53.0987 12.844 682 111.636 265.04 483.611
644 0 53.0606 11.4209 606 116 265.581 482.063
645 0 55.0584 13.1497 724 111.533 265.628 481.073
646 0 55.0366 12.3372 679 114.81 265.031 480.234
647 0 60.183 13.0934 788 111.817 265.299 478.664
648 0 61.1469 12.5109 765 113.301 265.501 479.827
649 0 63.0904 12.4108 783 114.301 265.351 477.663
650 0 64.1508 12.6421 811 113.953 265.122 477.191
651 0 66.1321 11.6434 770 116.14 264.988 475.438
652 0 71.138 13.4387 956 110.122 264.924 474.973
653 0 72.2135 13.5016 975 110.581 265.192 473.971
654 0 75.2185 12.4438 936 113.004 265.364 473.431
655 0 80.1726 13.0469 1046 111.002 265.728 471.368
656 0 83.137 12.5215 1041 112.386 265.799 469.393
657 1 44.0394 12.2163 538 111.171 266.461 489.203
658 0 44.0116 12.2468 539 113.929 266.447 487.976
659 0 46.0793 11.1547 514 118.196 265.675 485.889
660 0 46.0418 11.9022 548 117.474 265.646 485.279
661 0 49.0364 12.3582 606 116.739 265.545 483.992
662 0 50.0541 11.7872 590 119.298 265.336 483.875
663 0 51.1334 12.8683 658 115.149 265.733 483.941
664 0 54.0676 13.1132 709 113.344 265.436 482.956
665 0 53.0337 12.9917 689 114.417 265.287 480.919
666 0 55.1067 12.6482 697 114.254 265.489 481.327
667 0 56.033 12.8496 720 115.036 265.269 480.194
668 0 60.0118 12.9975 780 113.541 265.405 479.332
669 0 61.0688 13.0345 796 114.286 265.543 477.074
670 0 64.0721 12.9229 828 113.138 265.696 477.568
671 0 65.0572 12.8349 835 114.007 265.713 476.914
672 0 67.0854 12.4617 836 114.779 265.664 476.524
673 0 68.0984 12.1589 828 115.883 265.453 474.641
674 0 70.0816 12.7708 895 115.227 265.618 473.171
675 0 72.0658 13.1685 949 113.885 266.195 471.881
676 0 76.0805 13.9458 1061 111.42 265.645 471.147
677 0 78.0731 13.4105 1047 112.07 265.332 469.789
678 0 81.1501 13.0992 1063 113.679 264.777 466.932
679 0 83.2373 13.5756 1130 111.461 264.407 468.982
680 0 88.2136 14.3175 1263 109.463 263.886 465.173
681 1 45.0337 12.7016 572 110.241 265.49 486.712
682 0 43.0383 11.1296 479 115.397 264.981 486.862
683 0 45.0231 10.9944 495 109.63 265.285 486.103
684 0 49.0241 12.4633 611 102.386 265.669 483.669
685 0 50.1272 13.7051 687 104.197 263.805 483.566
686 0 52.1513 12.272 640 106.225 263.552 484.23
687 0 53.1972 12.9894 691 106.159 263.816 483.883
688 0 56.1018 13.2973 746 103.867 263.497 483.323
689 0 57.0552 13.3905 764 104.639 263.258 481.775
690 0 58.039 13.0602 758 106.202 263.587 480.59
691 0 59.1538 12.4252 735 107.218 263.54 480.305
692 0 63.0509 13.386 844 104.316 263.376 479.085
693 0 65.0756 12.739 829 106.509 263.46 476.832
694 0 67.0552 13.7499 922 104.798 263.265 475.937
695 0 68.0683 13.1486 895 106.904 263.46 475.456
696 0 72.1272 14.7378 1063 109.24 263.148 473.61
697 0 72.0943 12.6224 910 113.26 263.736 472.693
698 0 76.062 12.6081 959 111.635 263.575 471.68
699 0 80.069 13.3885 1072 107.583 263.646 468.201
700 0 82.1064 12.9832 1066 110.838 263.064 466.228
701 0 85.1181 11.8776 1011 112.586 263.21 465.985
702 0 88.166 13.3498 1177 108.076 263.389 464.759
703 1 43.0298 10.5508 454 107.681 262.932 487.137
704 0 44.0477 11.5784 510 107.492 262.986 481.896
705 0 47.1307 12.1577 573 105.154 262.726 483.091
706 0 48.0585 12.2143 587 106.337 262.632 482.114
707 0 47.0179 12.1018 569 106.576 262.689 485.258
708 0 50.033 13.9708 699 101.817 262.661 484.346
709 0 50.0182 11.3559 568 108.836 262.769 484.217
710 0 53.0573 13.7587 730 103.195 263.21 482.751
711 0 53.066 13.1723 699 105.601 262.901 482.268
712 0 55.0678 12.984 715 106.013 262.996 482.099
713 0 57.1983 13.9165 796 104.893 263.106 479.114
714 0 58.0569 12.4877 725 108.086 263.698 478.374
715 0 61.0269 13.748 839 104.135 262.837 478.608
716 0 60.0433 12.4244 746 109.154 263.101 477.377
717 0 62.0398 13.5236 839 106.758 264.373 476.399
718 0 64.0906 12.8724 825 109.419 263.73 475.996
719 0 68.0493 14.1809 965 104.916 263.807 476.064
720 0 69.1681 14.9925 1037 103.483 263.889 474.024
721 0 70.1183 13.7054 961 107.75 263.783 472.817
722 0 75.034 14.6467 1099 104.028 263.76 472.363
723 0 76.14 13.6196 1037 106.434 264.175 470.841
724 0 76.0803 12.3159 937 110.709 264.094 469.376
725 0 81.0475 13.9548 1131 105.514 263.416 468.18
726 0 84.0603 13.99 1176 105.49 263.313 465.645
727 0 87.1666 13.2046 1151 105.981 263.719 466.836
728 0 88.0493 12.8564 1132 106.111 263.837 466.418
729 0 91.0817 12.3296 1123 107.49 263.257 463.37
730 0 94.0401 13.9515 1312 102.543 263.899 461.518
731 0 96.0934 12.9249 1242 105.283 263.873 458.51
732 0 101.113 13.2723 1342 103.749 263.794 460.152
733 0 105.133 14.7907 1555 101.142 264.154 458.567
734 1 54.0223 11.7359 634 105.569 263.478 481.882
735 0 56.0276 11.7621 659 104.968 263.557 481.731
736 0 57.113 11.7837 673 106.624 265.614 477.456
737 0 58.0603 11.7809 684 106.012 264.177 479.225
738 0 63.0656 12.0509 760 104.382 263.624 477.972
739 0 65.1322 14.2172 926 100.874 263.334 476.391
740 0 66.1897 12.9627 858 105.131 262.903 474.268
741 0 71.0471 13.3573 949 103.353 262.453 473.821
742 0 71.0622 13.059 928 105.624 263.13 472.418
743 0 73.0962 11.3686 831 108.829 263.189 473.972
744 0 77.1187 12.5261 966 106.899 263.579 471.757
745 0 78.1078 12.6876 991 107.274 263.761 470.241
746 0 82.0445 12.6882 1041 108.321 263.627 469.132
747 0 84.1277 12.2552 1031 109.659 263.62 467.452
748 0 87.114 13.1667 1147 108.133 263.888 465.096
749 1 45.024 11.3939 513 109.735 263.398 488.608
750 0 46.1884 12.449 575 109.581 263.33 483.757
751 0 43.1655 9.73 420 111.321 264.205 485.34
752 0 49.1015 12.464 612 102.252 265.985 485.221
753 0 49.1017 11.6493 572 104.105 266.143 486.288
754 0 51.1659 10.593 542 107.336 266.155 485.347
755 0 50.1273 11.411 572 107.759 265.524 483.334
756 0 55.1213 12.8625 709 103.055 265.718 482.313
757 0 55.1416 12.5858 694 104.514 266.386 480.177
758 0 57.1077 12.5377 716 104.549 264.441 479.781
759 0 60.0668 12.6692 761 99.7188 265.059 477.029
760 0 62.0958 11.4017 708 102.391 265.153 476.694
761 0 63.2938 10.9015 690 103.17 265.155 477.32
762 0 64.084 11.797 756 103.77 265.004 475.061
763 0 68.0647 11.8711 808 102.316 265.192 474.713
764 0 69.0908 11.0434 763 104.328 265.473 476.506
765 0 69.0834 11.3341 783 107.423 264.77 471.215
766 0 75.0945 13.6362 1024 100.968 264.696 471.734
767 0 78.0865 11.8587 926 105.633 264.679 470.934
768 0 80.2201 12.553 1007 104.114 265.203 471.746
769 0 82.2332 12.8537 1057 104.257 264.769 469.964
770 0 84.0867 11.5952 975 107.847 265.159 467.984
771 0 88.1835 12.4173 1095 105.917 264.712 465.96
772 1 47.0139 11.6774 549 104.73 265.477 486.089
773 0 47.0067 11.4239 537 108.188 265.291 483.961
774 0 48.0101 13.643 655 110.898 265.982 483.232
775 0 50.0137 12.0567 603 114.715 265.68 483.416
776 0 53.0325 12.2944 652 112.709 266.117 481.81
777 0 55.0449 12.6806 698 110.907 266.759 481.868
778 0 56.0522 12.078 677 113.338 266.134 481.702
779 0 56.0338 12.0285 674 113.528 265.881 479.893
780 0 60.0445 12.1577 730 112.478 265.566 479.923
781 0 61.0703 12.2318 747 114.55 265.458 477.206
782 0 63.0556 12.259 773 114.712 264.497 478.223
783 0 65.0864 12.614 821 114.681 265.608 474.531
784 0 67.2163 13.9698 939 111.777 265.45 472.249
785 0 69.1368 14.1025 975 112.997 264.244 472.755
786 0 73.2689 12.9386 948 113.983 264.794 471.781
787 0 74.2711 12.9256 960 115.985 264.977 467.991
788 0 77.3955 13.7993 1068 112.787 264.811 467.451
789 0 78.175 11.9731 936 118.397 264.139 467.564
790 0 82.3492 13.7463 1132 113.683 265.717 463.95
791 0 84.3639 12.9913 1096 117.193 265.075 462.563
792 0 88.3414 14.2968 1263 113.468 265.804 462.75
793 1 43.1724 11.373 491 115.075 265.511 482.796
794 0 44.2563 11.8401 524 115.294 265.643 482.679
795 0 46.3242 12.4773 578 116.114 266.138 480.841
796 0 46.1404 12.2886 567 116.213 265.374 482.524
797 0 48.1819 12.1415 585 117.439 265.285 483.378
798 0 50.1128 12.4918 626 118.807 264.728 481.522
799 0 51.1417 12.3969 634 120.091 264.797 480.656
800 0 52.0709 12.9823 676 119.087 264.426 482.015
801 0 53.0891 13.1854 700 119.941 264.311 481.223
802 0 55.0523 12.7697 703 122.161 264.64 479.666
803 0 59.1174 13.2617 784 119.513 264.763 477.797
804 0 59.0594 14.6801 867 117.173 264.638 478.426
805 0 63.176 14.3409 906 118.354 264.823 476.891
806 0 65.0789 14.5977 950 120.016 265.328 475.616
807 0 66.0634 14.4861 957 123.161 264.266 473.617
808 0 71.0396 13.9077 988 122.817 264.318 474.952
809 0 71.0584 13.7915 980 124.633 264.713 474.985
810 0 72.065 13.4878 972 128.298 264.166 471.08
811 0 77.1192 14.0173 1081 125.689 264.356 470.555
812 0 77.0902 14.3209 1104 126.281 264.337 468.579
813 0 82.0653 15.7679 1294 120.917 264.325 468.704
814 0 81.1362 15.1474 1229 126.05 264.104 465.286
815 0 86.0917 15.8784 1367 122.552 264.285 465.124
816 0 88.2346 14.4955 1279 127.93 264.474 456.285
817 0 92.1658 14.8428 1368 126.166 264.101 456.382
818 0 97.2623 14.3941 1400 125.555 264.723 457.801
819 0 97.2281 13.5043 1313 130.168 264.826 458.844
820 1 51.0974 12.0554 616 123.174 265.287 482.492
821 0 53.144 12.3438 656 121.806 264.867 481.345
822 0 56.0593 12.5581 704 120.58 264.403 480.787
823 0 56.2075 11.9735 673 121.936 264.473 480.067
824 0 59.2742 12.8724 763 119.161 264.315 479.287
825 0 61.0947 13.7164 838 117.364 264.447 477.212
826 0 62.1429 12.7448 792 120.787 264.11 476.754
827 0 65.1479 13.5538 883 119.182 264.118 474.686
828 0 68.1343 13.5761 925 119.036 264.779 473.819
829 0 70.0956 13.6528 957 119.166 264.563 471.892
830 0 71.0239 11.8129 839 125.838 264.238 471.853
831 0 75.1089 13.4871 1013 120.867 263.607 471.431
832 0 77.0701 13.066 1007 124.178 263.386 469.352
833 0 80.0702 13.7629 1102 124.749 263.002 468.442
834 0 84.0988 13.2582 1115 126.612 263.007 466.416
835 0 84.1786 12.6754 1067 131.456 263.34 464.998
836 0 87.132 12.5212 1091 129.579 262.775 464.511
837 1 47.0658 12.9606 610 118.989 262.857 484.775
838 0 49.0988 12.7294 625 118.4 263.8 483.384
839 0 49.137 12.3125 605 121.124 263.516 483.782
840 0 52.0734 11.7142 610 121.651 263.482 483.243
841 0 54.1239 13.2289 716 116.932 263.575 481.166
842 0 54.0923 11.3695 615 121.494 263.392 481.467
843 0 58.096 12.9269 751 116.409 263.643 480.113
844 0 59.0799 12.3054 727 117.076 262.466 479.707
845 0 61.1412 12.8064 783 116.622 262.766 477.633
846 0 61.1012 12.2911 751 119.955 263.172 474.81
847 0 64.0974 13.0738 838 116.678 262.529 475.903
848 0 66.1759 13.041 863 117.629 262.758 473.579
849 0 67.2138 13.6728 919 116.029 262.847 474.348
850 0 69.148 12.7553 882 119.086 263.19 472.149
851 0 72.1662 14.1756 1023 115.349 263.42 471.531
852 0 72.1133 12.8825 929 120.63 263.334 470.098
853 0 77.0968 12.6594 976 120.965 263.184 469.191
854 0 78.189 13.6592 1068 116.147 262.911 469.862
855 0 80.1992 13.242 1062 118.389 262.923 467.33
856 1 43.0221 10.6225 457 120.193 262.505 486.241
857 0 45.1982 11.0403 499 120.679 263.547 485.271
858 0 43.1207 10.9692 473 114.998 264.385 479.865
859 0 45.3051 10.5507 478 115.55 264.079 478.377
860 0 46.0432 11.4892 529 113.968 262.533 478.234
861 0 49.0841 11.083 544 113.998 262.636 478.662
862 0 48.0549 10.5504 507 117.061 263.361 476.28
863 0 52.0654 9.64172 502 115.841 262.934 477.012
864 0 53.0469 9.55757 507 117.444 262.645 476.789
865 0 54.0811 10.3178 558 117.197 263.366 475.156
866 0 57.1164 11.9931 685 111.091 263.181 475.308
867 0 57.0624 10.988 627 115.831 263.536 472.534
868 0 58.0502 10.7149 622 115.463 263.569 473.59
869 0 62.1074 10.2725 638 117.13 263.353 472.334
870 0 63.133 11.4045 720 114.026 264.61 472.618
871 0 64.0378 11.0872 710 114.163 264.017 470.937
872 0 65.038 11.3933 741 115.772 264.055 469.221
873 0 68.0517 12.3142 838 113.943 264.364 469.341
874 0 70.0157 10.8547 760 119.624 264.663 465.926
875 0 73.1526 11.3325 829 118.296 265.574 466.76
876 0 77.1019 12.0879 932 115.74 265.666 465.649
877 0 78.0859 10.9495 855 119.17 265.208 464.804
878 0 80.0617 12.1906 976 118.08 265.006 464.058
879 0 84.1234 12.9809 1092 116.297 265.144 462.402
880 0 84.0794 12.1076 1018 120.791 264.965 457.918
881 0 88.0946 12.1801 1073 122.131 264.45 458.629
882 0 92.1837 12.4534 1148 121.577 264.62 458.914
883 0 92.0951 11.8356 1090 124.64 263.995 456.761
884 0 96.0763 12.2715 1179 124.341 263.832 454.719
885 0 101.145 12.6847 1283 122.985 263.741 453.617
886 0 102.091 11.8718 1212 126.989 264.106 453.426
887 0 107.111 12.2583 1313 124.902 264.108 452.004
888 0 109.202 12.3807 1352 126.022 263.876 447.422
889 1 57.0695 11.4947 656 117.532 263.675 475.933
890 0 58.0887 11.5685 672 118.311 263.918 475.301
891 0 60.1026 11.7965 709 116.574 264.385 473.835
892 0 63.1251 11.7386 741 116.356 264.819 473.228
893 0 64.1547 13.1713 845 114.372 264.503 471.65
894 0 66.1193 12.0237 795 117.372 264.431 470.522
895 0 69.1543 12.9132 893 119.665 263.887 468.376
896 0 69.1837 12.0982 837 122.763 264.022 468.78
897 0 71.1501 12.8742 916 121.422 263.775 467.109
898 0 74.1269 11.1565 827 126.692 263.351 465.77
899 0 76.1501 12.3572 941 123.226 263.903 465.666
900 0 79.1384 13.0784 1035 121.289 263.484 463.2
901 0 82.1503 11.1259 914 125.85 263.447 464.132
902 0 85.1358 12.7443 1085 122.359 263.531 462.493
903 0 88.0996 12.3951 1092 123.051 264.031 462.676
904 0 90.0713 11.824 1065 125.807 263.92 457.981
905 0 91.0811 11.9564 1089 125.405 264.317 457.537
906 1 48.1399 10.1994 491 118.464 264.34 477.527
907 0 50.1002 10.479 525 118.284 263.968 478.379
908 0 52.0529 12.0647 628 121.659 265.059 481.384
909 0 56.0482 13.1494 737 120.294 262.734 480.461
910 0 57.09 13.8728 792 119.471 262.87 479.842
911 0 57.0811 13.0166 743 122.437 262.33 479.366
912 0 60.083 13.3316 801 120.878 263.019 478.258
913 0 61.0465 14.0876 860 119.087 262.783 476.306
914 0 65.1967 14.2032 926 116.334 263.328 476.038
915 0 66.0486 12.945 855 120.407 263.254 475.076
916 0 69.0425 13.2672 916 119.736 263.306 473.581
917 0 71.0736 14.4498 1027 117.289 263.703 472.77
918 0 74.058 14.1916 1051 117.833 263.186 470.839
919 0 76.0744 13.9469 1061 119.643 263.804 470.143
920 0 79.0884 14.1487 1119 119.381 263.34 468.777
921 0 82.1294 13.8562 1138 120.952 263.109 468.159
922 0 84.0883 13.5691 1141 121.866 263.451 466.443
923 0 88.1524 13.9758 1232 120.917 263.593 464.905
924 0 90.034 14.8499 1337 118.361 263.457 464.12
925 0 93.0788 13.9237 1296 116.87 263.733 460.371
926 1 49.0567 11.9046 584 120.925 263.298 483.452
927 0 49.107 12.32 605 119.58 262.369 482.643
928 0 51.0344 12.5406 640 119.161 262.073 480.388
929 0 55.0563 12.569 692 116.694 263.191 480.529
930 0 55.0614 13.5485 746 113.677 263.028 479.068
931 0 57.0098 13.2433 755 114.49 264.436 478.358
932 0 59.0339 12.4674 736 116.033 265.111 478.595
933 0 62.0404 13.1205 814 113.474 265.211 476.749
934 0 66.128 12.748 843 112.667 265.68 476.819
935 0 67.0334 14.2914 958 109.669 265.412 474.722
936 0 69.0455 13.4839 931 111.996 265.928 473.852
937 0 71.0727 13.1133 932 112.336 265.656 470.827
938 0 75.2088 14.1473 1064 108.325 265.54 470.762
939 0 77.1295 13.8598 1069 109.776 265.723 468.996
940 0 80.1495 13.4124 1075 112.489 265.563 467.192
941 0 82.1523 13.3532 1097 113.943 264.789 465.328
942 0 84.0985 12.9967 1093 114.974 265.083 463.622
943 1 45.0758 10.2494 462 117.34 265.556 482.242
944 0 44.0966 10.2729 453 111.541 263.512 478.384
945 0 45.1933 10.6432 481 104.551 265.048 480.152
946 0 47.1087 10.9534 516 104.924 264.841 478.138
947 0 49.1953 10.875 535 104.778 264.837 477.456
948 0 51.0977 10.6267 543 105.948 265.175 476.501
949 0 53.1348 13.1364 698 109.499 265.573 478.951
950 0 54.0564 11.8765 642 112.654 264.322 482.531
951 0 57.0478 11.9549 682 112.754 264.456 480.543
952 0 60.0907 12.6476 760 112.468 264.608 477.163
953 0 60.0401 12.6249 758 113.633 264.509 476.719
954 0 64.1514 13.2811 852 109.506 265.188 477.718
955 0 66.1287 12.7479 843 112.693 265.427 475.743
956 0 68.1456 13.4271 915 112.577 264.783 473.043
957 0 68.2535 13.1275 896 117.427 265.512 471.875
958 0 72.2407 15.2684 1103 112.228 266.062 470.575
959 0 74.2219 14.012 1040 115.661 265.512 469.727
960 0 78.2045 14.4749 1132 114.28 264.94 468.449
961 0 81.2335 14.5383 1181 114.175 265.285 467.18
962 0 84.2175 13.6195 1147 116.722 265.493 464.935
963 0 85.244 13.2091 1126 117.552 265.655 464.263
964 0 88.2215 12.9334 1141 115.447 265.448 463.727
965 0 90.1668 13.5638 1223 112.405 265.25 459.325
966 0 93.1406 13.5279 1260 112.234 265.207 460.458
967 0 97.2291 12.8459 1249 113.994 265.269 457.886
968 1 49.0334 11.1353 546 117.082 265.679 483.421
969 0 51.0459 10.8138 552 117.469 265.284 482.799
970 0 54.0752 12.6121 682 113.676 265.201 480.591
971 0 55.0888 13.2876 732 110.929 264.582 479.534
972 0 58.0616 14.1746 823 108.733 263.91 479.508
973 0 59.0725 12.4762 737 115.156 264.012 477.749
974 0 59.0473 12.2444 723 117.055 264.357 476.77
975 0 62.0322 13.2512 822 115.786 264.085 475.927
976 0 64.2151 13.4081 861 115.389 264.348 474.344
977 0 67.22 13.0318 876 115.823 265.404 472.187
978 0 70.3233 13.0113 915 118.731 264.709 469.588
979 0 74.2643 13.8694 1030 116.336 264.917 469.464
980 0 77.3133 13.5423 1047 117.302 264.707 469.277
981 0 79.3234 13.7034 1087 117.473 265.414 467.33
982 0 82.2505 15.3555 1263 113.485 264.865 465.101
983 0 83.1856 13.7644 1145 119.39 264.414 465.37
984 0 86.164 13.8805 1196 119.045 264.338 463.949
985 1 42.026 12.1354 510 116.763 264.718 487.267
986 0 43.0708 11.3998 491 121.053 263.134 484.925
987 0 45.0742 13.023 587 111.663 262.913 485.298
988 0 45.053 12.8293 578 113.728 263.858 486.109
989 0 48.0223 12.7441 612 114.454 263.806 484.377
990 0 48.0628 12.7333 612 115.613 263.621 484.843
991 0 50.0456 14.0472 703 113.054 263.683 481.366
992 0 50.0508 13.1267 657 116.461 263.346 481.863
993 0 51.0286 12.8751 657 117.457 264.289 481.804
994 0 53.039 13.4429 713 116.014 263.452 480.557
995 0 57.0514 15.0566 859 110.877 263.687 479.204
996 0 58.0259 14.2523 827 113.67 263.376 479.532
997 0 60.0268 14.2769 857 114.655 263.688 478.103
998 0 61.0668 14.0502 858 118.304 264.24 474.446
999 0 65.0708 14.8454 966 115.174 263.959 475.716
1000 0 67.0454 14.0204 940 118.121 264.723 474.206
1001 0 69.0912 13.5907 939 118.845 263.772 473.696
1002 0 70.0515 14.989 1050 116.855 264.303 471.629
1003 0 74.1051 15.1946 1126 115.869 265.11 471.035
1004 0 75.236 14.501 1091 119.552 265 469.408
1005 0 79.1858 14.4218 1142 118.908 264.822 469.221
1006 0 81.1586 14.4778 1175 119.634 265.03 465.999
1007 0 84.1844 14.3613 1209 115.433 264.761 466.846
1008 1 41.0545 11.1315 457 121.606 265.648 487.204
1009 0 46.0385 12.4896 575 117.325 265.671 485.995
1010 0 48.0359 14.2602 685 113.489 265.75 484.416
1011 0 47.0365 12.9261 608 117.599 265.337 485.192
1012 0 48.0112 13.1844 633 118.305 265.468 483.093
1013 0 49.0481 13.4562 660 117.197 265.838 483.539
1014 0 53.0589 13.7206 728 110.47 265.532 482.573
1015 0 53.0766 13.6407 724 112.477 265.106 480.86
1016 0 55.182 13.1202 724 113.789 265.185 480.859
1017 0 54.1793 11.8495 642 120.045 265.249 479.597
1018 0 59.1462 14.219 841 115.332 265.31 479.059
1019 0 62.1145 14.9079 926 113.45 264.773 477.491
1020 0 64.0736 12.751 817 120.082 265.819 476.486
1021 0 67.1588 14.8305 996 115.212 265.156 474.11
1022 0 68.2073 14.8225 1011 115.163 264.864 474.816
1023 0 69.1976 14.3069 990 117.501 265.495 473.962
1024 0 73.1202 15.3583 1123 115.193 265.175 472.167
1025 0 77.2746 15.309 1183 114.008 265.038 471.09
1026 0 78.1998 14.0026 1095 119.647 264.957 469.465
1027 0 79.0898 14.0473 1111 122.031 264.999 468.274
1028 1 42.0117 12.3299 518 121.069 265.774 485.309
1029 0 42.0788 11.9775 504 112.948 264.956 483.673
1030 0 44.0714 11.3906 502 107.705 264.546 484.647
1031 0 46.0484 11.5313 531 108.876 264.358 482.226
1032 0 46.0247 11.6677 537 111.164 264.801 482.337
1033 0 46.1355 11.5096 531 112.011 264.582 480.902
1034 0 49.0553 11.6399 571 111.739 264.799 480.457
1035 0 51.0569 11.7516 600 111.993 264.722 480.592
1036 0 53.0473 12.027 638 112.21 263.998 479.723
1037 0 52.1373 12.563 655 112.398 264.215 479.919
1038 0 54.0605 12.3565 668 113.581 264.304 479.018
1039 0 55.0486 12.5525 691 114.065 264.602 477.346
1040 0 58.0645 12.8133 744 113.181 264.237 475.464
1041 0 61.038 12.9591 791 112.603 264.791 474.748
1042 0 63.0803 13.4749 850 110.451 264.784 474.469
1043 0 64.0964 12.918 828 113.213 264.326 472.55
1044 0 67.0754 13.1494 882 115.475 264.689 473.105
1045 0 71.0815 14.0121 996 113.84 264.592 469.782
1046 0 72.0437 13.0476 940 113.586 263.978 469.502
1047 0 74.0364 11.7915 873 119.589 264.03 467.605
1048 0 79.1358 12.4975 989 117.053 264.055 466.599
1049 1 41.0489 12.3511 507 115.548 262.858 487.095
1050 0 40.063 11.7814 472 113.197 263.466 487.119
1051 0 43.1478 11.5417 498 107.03 264.351 484.131
1052 0 44.1086 11.6304 513 107.035 264.004 484.064
1053 0 45.1117 12.2141 551 111.813 263.835 485.475
1054 0 48.1851 12.535 604 109.104 264.887 484.457
1055 0 50.0812 12.9789 650 103.162 264.531 481.157
1056 0 51.1293 11.7349 600 106.265 264.425 480.077
1057 0 52.101 13.1667 686 103.838 264.519 478.595
1058 0 53.1277 12.1594 646 106.379 264.396 477.565
1059 0 57.0965 13.6085 777 101.676 264.194 478.551
1060 0 58.1005 12.8742 748 104.838 263.834 476.729
1061 0 60.0932 12.4473 748 105.476 263.668 475.46
1062 0 62.041 12.8463 797 104.664 263.514 475.156
1063 0 63.0816 11.9686 755 108.268 263.903 472.02
1064 0 66.0701 12.5775 831 107.627 264.395 472.623
1065 0 67.0822 12.3729 830 108.718 263.946 470.964
1066 0 72.0791 14.2621 1028 102.798 263.87 470.207
1067 0 75.0861 12.8652 966 106.295 264.057 468.971
1068 0 77.0476 13.5371 1043 105.802 263.93 466.092
1069 0 82.1234 13.6137 1118 104.148 263.72 466.318
1070 0 82.1561 13.0118 1069 106.693 263.816 465.601
1071 0 85.1099 12.4897 1063 108.786 264.293 464.92
1072 1 44.0714 12.4571 549 104.47 264.02 486.213
1073 0 46.0363 11.7081 539 106.037 264.371 485.699
1074 0 47.1941 12.6923 599 104.683 264.279 484.466
1075 0 50.1065 13.4114 672 107.406 263.61 482.562
1076 0 47.1138 13.1596 620 110.881 264.298 481.111
1077 0 50.1108 13.3305 668 110.516 264.326 479.701
1078 0 51.0927 12.1152 619 107.895 264.444 481.693
1079 0 54.1593 12.6663 686 106.423 264.255 479.117
1080 0 57.0644 12.5122 714 105.782 264.277 479.861
1081 0 58.1103 12.0633 701 107.124 264.401 478.723
1082 0 61.0985 13.6173 832 103.894 264.429 476.507
1083 0 64.1111 12.9151 828 106.284 264.132 474.775
1084 0 65.109 13.8076 899 105.172 264.2 473.582
1085 0 68.0515 13.6367 928 105.474 264.498 472.556
1086 0 67.1355 12.7652 857 109.888 264.113 473.316
1087 0 72.1144 13.7837 994 106.727 264.627 472.023
1088 0 73.088 13.8874 1015 107.592 264.881 470.743
1089 0 74.151 13.0005 964 110.72 264.718 470.354
1090 0 75.1676 13.41 1008 111.252 265.433 468.451
1091 0 79.2014 13.3205 1055 108.477 265.189 467.51
1092 0 82.1 12.8745 1057 110.967 265.193 464.637
1093 0 83.1444 12.6407 1051 111.76 264.663 464.004
1094 0 87.1614 12.5858 1097 115.274 264.737 461.63
1095 0 90.1612 12.4 1118 115.983 263.967 459.231
1096 0 94.062 13.7782 1296 113.643 264.261 458.137
1097 0 97.2488 13.4706 1310 115.024 263.84 456.363
1098 0 100.121 13.6135 1363 119.117 263.167 456.989
1099 1 54.1866 11.5342 625 115.458 263.454 481.4
1100 0 55.2228 12.0421 665 115.729 264.525 477.656
1101 0 57.102 13.1344 750 111.504 264.905 477.313
1102 0 57.1217 10.9591 626 111.28 264.821 476.067
1103 0 62.0757 12.6781 787 105.705 264.506 474.501
1104 0 61.0743 11.7562 718 108.735 264.613 471.333
1105 0 65.0924 12.4899 813 106.7 264.701 469.866
1106 0 67.0913 12.4606 836 106.6 264.154 468.681
1107 0 66.1286 11.3264 749 110.527 264.562 466.566
1108 0 71.1861 12.2074 869 108.226 264.264 467.273
1109 0 72.1 12.6907 915 108.825 264.49 463.001
1110 0 74.0681 12.205 904 111.004 263.725 463.003
1111 0 78.0582 12.8366 1002 109.145 264.37 462.431
1112 0 82.1121 12.422 1020 113.151 264.003 459.463
1113 0 84.1557 12.7858 1076 113.491 263.38 457.32
1114 0 90.3125 12.1799 1100 114.532 263.407 455.769
1115 0 93.2831 13.5073 1260 111.925 262.96 455.975
1116 0 95.1752 12.9761 1235 113.898 262.84 455.287
1117 0 99.2017 12.8324 1273 113.47 263.394 454.874
1118 1 54.1164 11.4753 621 111.243 263.1 476.457
1119 0 55.1571 10.5154 580 113.912 263.434 476.607
1120 0 59.0627 12.1058 715 110.078 264.327 477.371
1121 0 59.0651 12.918 763 108.25 265.993 479.071
1122 0 62.1174 11.8163 734 108.841 266.199 477.008
1123 0 66.0979 13.8734 917 103.396 265.381 476.966
1124 0 66.0783 11.0324 729 110.457 265.442 474.062
1125 0 68.1671 11.9706 816 108.32 265.896 473.331
1126 0 72.1022 12.9954 937 105.747 265.587 472.189
1127 0 73.1945 12.1867 892 108.689 264.806 468.333
1128 0 74.1781 12.2139 906 109.311 264.978 469.587
1129 0 78.1713 12.9331 1011 107.04 264.64 466.815
1130 0 80.1718 12.4483 998 107.264 264.58 467.204
1131 0 82.1317 11.8225 971 109.542 264.761 463.888
1132 0 88.1834 12.6668 1117 106.876 264.466 462.057
1133 0 90.149 13.0118 1173 105.372 264.455 462.584
1134 0 93.2106 11.7798 1098 108.844 264.582 459.222
1135 0 97.1928 13.3343 1296 104.814 265.4 456.814
1136 1 50.0423 10.591 530 105.142 265.638 481.389
1137 0 51.1723 10.7675 551 104.826 266.301 477.94
1138 0 54.1576 10.5248 570 105.747 264.268 477.033
1139 0 55.1062 10.6159 585 99.9436 264.856 476.863
1140 0 55.1278 10.5573 582 109.796 262.849 480.045
1141 0 58.0596 11.1437 647 107.815 263.255 476.657
1142 0 59.1251 10.8752 643 107.942 263.467 476.946
1143 0 63.0814 13.221 834 102.704 263.211 475.618
1144 0 63.2014 12.4206 785 104.86 262.79 476.678
1145 0 66.0966 11.8312 782 104.614 263.592 476.052
1146 0 69.1505 12.0317 832 103.236 263.312 473.125
1147 0 71.1655 12.4498 886 102.74 261.889 471.209
1148 0 72.0771 12.0288 867 104.322 262.441 468.119
1149 0 73.1159 12.3913 906 103.52 261.624 469.751
1150 0 77.149 12.8323 990 101.825 261.661 469.68
1151 0 78.0978 11.8569 926 104.745 262.235 466.638
1152 0 81.2415 12.5921 1023 102.371 262.101 465.732
1153 0 85.2041 12.1004 1031 102.736 262.582 461.606
1154 0 88.1223 11.2911 995 104.06 262.538 463.579
1155 0 91.2971 12.4319 1135 103.119 261.895 458.913
1156 0 93.1462 11.7557 1095 105.212 261.963 458.502
1157 0 97.3194 12.5874 1225 103.589 262.386 458.56
1158 1 51.0654 9.55637 488 102.594 261.75 482.848
1159 0 51.1762 9.28166 475 103.823 262.415 481.223
1160 0 53.1746 10.1364 539 105.341 262.993 476.295
1161 0 54.1206 10.2179 553 106.881 262.738 480.45
1162 0 57.1028 11.6457 665 103.901 263.084 478.262
1163 0 59.0806 11.5605 683 103.376 263.627 476.846
1164 0 61.1374 12.3002 752 102.013 263.169 475.472
1165 0 62.1536 12.4852 776 101.956 263.622 475.845
1166 0 64.1748 11.9985 770 103.591 263.436 474.466
1167 0 68.0792 12.2064 831 102.963 262.558 472.629
1168 0 69.1871 12.5601 869 102.776 262.959 471.211
1169 0 71.204 12.3589 880 104.995 263.065 467.747
1170 0 73.1067 12.3792 905 104.923 262.813 469.621
1171 0 75.1958 10.5059 790 109.895 262.457 468.052
1172 0 77.1721 10.8718 839 109.571 263.163 466.048
1173 0 79.0934 11.6824 924 108.118 263.851 466.715
1174 0 82.2632 12.5451 1032 107.396 264.466 461.943
1175 0 84.4408 11.6768 986 109.157 264.643 460.119
1176 0 85.5172 11.8339 1012 109.564 264.708 457.94
1177 0 89.4646 11.1329 996 111.773 264.747 455.767
1178 0 90.5064 11.5461 1045 111.782 264.656 453.256
1179 0 95.4352 11.1804 1067 111.393 263.773 454.539
1180 0 100.43 11.391 1144 110.11 263.971 453.619
1181 0 100.563 11.3462 1141 110.591 264.408 452.784
1182 0 105.368 11.2558 1186 110.083 264.261 452.925
1183 0 110.564 12.0021 1327 109.586 263.977 449.429
1184 0 112.481 12.2154 1374 109.367 263.77 448.064
1185 0 115.314 10.9787 1266 113.983 264.423 445.013
1186 0 119.415 10.9366 1306 113.472 264.374 443.596
1187 0 123.469 10.2455 1265 114.63 264.433 443.23
1188 1 66.3247 9.1821 609 108.929 263.941 467.874
1189 0 70.2094 11.2236 788 104.589 264.084 467.117
1190 0 75.1975 11.9951 902 102.753 264.576 464.411
1191 0 77.1886 12.5796 971 102.088 265.089 467.314
1192 0 78.0998 11.895 929 104.572 265.284 467.008
1193 0 79.1534 10.9534 867 108.494 264.556 464.842
1194 0 83.1779 10.6038 882 108.549 264.731 463.817
1195 0 88.2779 12.5513 1108 103.706 265.135 463.152
1196 0 89.2042 11.3223 1010 107.956 265.152 459.968
1197 0 92.2281 11.2872 1041 108.983 264.781 459.636
1198 0 95.3089 11.2476 1072 109.466 265.073 456.22
1199 0 100.248 11.5713 1160 108.996 265.591 454.644
1200 0 103.319 12.5437 1296 107.755 265.178 453.208
1201 1 50.1194 9.49732 476 109.223 265.666 478.45
1202 0 54.1776 10.3917 563 106.167 266.039 479.421
1203 0 54.1232 9.7001 525 111.863 265.568 478.777
1204 0 58.115 11.1503 648 106.012 265.319 478.89
1205 0 58.2044 11.8891 692 105.208 265.082 477.316
1206 0 60.1484 10.9729 660 108.747 265.562 474.63
1207 0 61.1827 11.2287 687 107.796 264.895 474.731
1208 0 65.2516 12.107 790 105.357 264.733 472.542
1209 0 66.3383 11.5016 763 106.95 264.79 470.57
1210 0 70.2327 11.9887 842 104.91 264.594 471.964
1211 0 70.3102 10.923 768 106.026 264.204 469.651
1212 0 72.3963 10.6912 774 107.314 263.783 468.264
1213 0 76.3055 11.4146 871 106.006 264.546 468.393
1214 0 79.2265 12.1298 961 106.133 263.824 464.266
1215 0 82.2501 11.6109 955 106.584 264.165 465.555
1216 0 82.2134 10.4119 856 111.765 263.644 462.005
1217 0 85.1537 11.0624 942 111.131 264.276 464.89
1218 0 89.1537 12.1476 1083 110.899 263.654 461.18
1219 0 91.2376 12.0564 1100 109.835 263.842 461.824
1220 0 95.2506 11.832 1127 110.621 263.615 459.674
1221 0 99.4795 11.7411 1168 111.104 263.301 458.287
1222 0 101.29 11.2844 1143 114 263.228 454.381
1223 1 55.1702 10.8392 598 107.236 264.097 478.159
1224 0 57.1677 11.2826 645 104.516 264.678 480.986
1225 0 58.0585 9.9727 579 108.073 264.584 480.326
1226 0 59.2411 11.0227 653 108.746 265.381 478.424
1227 0 59.3157 10.8572 644 109.87 265.121 476.778
1228 0 63.2748 12.501 791 105 264.324 477.78
1229 0 63.2536 10.45 661 110.595 264.696 476.952
1230 0 66.2505 11.0641 733 108.005 264.284 473.482
1231 0 67.1896 11.5196 774 107.424 263.823 473.46
1232 0 68.1552 10.8869 742 109.104 263.749 471.6
1233 0 74.3512 11.1632 830 106.676 263.846 473.059
1234 0 74.3217 11.8135 878 106.034 263.894 470.507
1235 1 40.0389 11.0143 441 104.379 264.893 487.798
1236 0 41.087 10.7333 441 100.948 264.32 486.748
1237 0 43.2838 12.3372 534 102.732 263.421 484.852
1238 0 45.3063 11.8968 539 104.111 262.699 480.271
1239 0 44.1516 12.3891 547 108.15 264.766 485.205
1240 0 45.285 11.8582 537 109.944 264.207 485.067
1241 0 49.179 12.668 623 106.321 263.892 483.645
1242 0 48.1496 12.3781 596 108.73 264.166 484.26
1243 0 52.3843 13.4582 705 104.044 264.207 483.596
1244 0 49.1398 11.9659 588 110.684 263.713 481.505
1245 0 54.2095 13.4663 730 105.201 263.782 480.763
1246 0 55.1358 13.0949 722 106.13 264.566 480.526
1247 0 56.1127 12.9917 729 107.775 265.07 478.45
1248 0 55.2295 13.2357 731 109.022 264.108 477.821
1249 0 59.1463 13.7625 814 106.195 264.473 477.448
1250 0 60.1866 12.1954 734 110.955 264.298 475.421
1251 0 62.2083 12.4742 776 109.945 263.147 475.244
1252 0 63.2542 12.3154 779 110.883 263.072 476.22
1253 0 65.2782 13.4042 875 108.174 263.699 474.349
1254 0 68.1319 13.0482 889 109.625 263.391 471.36
1255 0 72.1762 14.0351 1013 105.844 263.827 471.646
1256 0 73.2973 11.392 835 113.061 263.534 469.362
1257 1 41.0304 11.1137 456 115.331 264.59 485.471
1258 0 41.0664 10.7631 442 116.645 263.529 483.109
1259 0 43.0314 12.7814 550 111.789 262.927 482.284
1260 0 44.0152 12.0867 532 117.077 264.733 482.263
1261 0 45.0183 11.9285 537 118.082 264.361 481.453
1262 0 47.1333 12.3904 584 115.44 263.851 478.825
1263 0 49.0971 12.6077 619 116.562 264.003 478.814
1264 0 51.271 13.1458 674 114.682 264.23 479.292
1265 0 48.0352 12.928 621 120.425 264.164 477.121
1266 0 54.1213 13.0448 706 117.618 264.198 477.701
1267 0 55.1548 13.6344 752 117.32 265.254 475.936
1268 0 58.207 13.4692 784 116.444 264.547 476.634
1269 0 58.0771 13.8781 806 118.234 264.681 475.184
1270 0 60.1353 14.351 863 116.335 264.143 476.058
1271 0 61.0555 15.3467 937 114.584 264.061 474.034
1272 0 63.0473 13.4502 848 120.808 263.902 472.529
1273 0 66.1596 14.5406 962 118.403 263.768 471.58
1274 0 67.0651 13.9566 936 120.132 263.928 471.027
1275 0 69.1257 13.5116 934 121.903 264.168 471.004
1276 0 71.0466 14.399 1023 120.026 263.796 468.498
1277 0 73.1445 14.5192 1062 119.643 264.509 468.552
1278 0 76.0619 16.0659 1222 115.183 263.736 466.943
1279 0 79.1012 14.8165 1172 117.811 263.472 466.287
1280 0 80.0937 14.046 1125 120.792 263.906 464.214
1281 0 83.0568 14.1951 1179 119.093 263.728 464.283
1282 0 87.1551 15.3978 1342 115.613 263.756 461.958
1283 1 47.0133 11.635 547 120.168 264.397 482.678
1284 0 49.1423 12.3926 609 120.662 263.888 483.383
1285 0 51.075 13.9011 710 120.823 263.886 480.492
1286 0 53.0531 13.9106 738 121.237 263.568 482.523
1287 0 54.0902 14.2909 773 122.726 263.136 479.673
1288 0 55.0906 13.4506 741 124.273 263.009 479.996
1289 0 57.0333 13.7814 786 124.013 263.776 479.77
1290 0 59.0466 14.3277 846 122.822 263.15 478.749
1291 0 60.0882 14.1459 850 124.064 263.284 478.264
1292 0 60.0597 13.6198 818 126.32 263.726 477.119
1293 0 64.066 14.4538 926 122.08 263.647 476.56
1294 0 64.1707 13.9783 897 124.974 263.712 473.387
1295 0 68.1032 14.5955 994 121.33 264.815 473.26
1296 0 70.1377 14.3004 1003 120.506 265.416 472
1297 0 72.0877 13.442 969 123.042 264.515 470.197
1298 0 74.2962 13.9846 1039 120.389 264.789 468.16
1299 0 78.2164 14.1658 1108 117.597 264.739 467.852
1300 0 79.0975 14.4758 1145 112.421 264.193 467.248
1301 0 84.3915 14.101 1190 110.229 264.255 465.797
1302 0 85.3142 12.9521 1105 112.722 264.603 462.315
1303 0 88.2694 13.708 1210 108.795 264.412 461.807
1304 1 43.2546 10.4266 451 106.63 264.02 483.608
1305 0 44.1009 11.4737 506 108.885 264.387 480.721
1306 0 47.0584 12.6864 597 102.171 263.6 481.075
1307 0 49.0616 12.1276 595 104.56 263.682 480.479
1308 0 48.1559 11.5874 558 106.303 264.358 478.855
1309 0 50.1616 11.9813 601 105.955 264.737 477.329
1310 0 52.1111 12.9723 676 104.692 264.46 475.41
1311 0 56.1263 11.6701 655 104.979 264.634 475.287
1312 0 56.1349 11.7396 659 106.322 264.038 473.407
1313 0 59.2083 11.7044 693 105.543 263.968 472.17
1314 0 60.2715 12.6262 761 104.845 263.428 470.393
1315 0 63.3211 12.334 781 105.307 264.408 470.827
1316 0 65.254 11.6315 759 106.659 264.548 470.614
1317 0 66.1075 11.9048 787 108.084 264.118 467.114
1318 0 73.1487 13.0283 953 104.94 264.079 464.737
1319 0 75.1779 12.5436 943 106.718 263.998 465.007
1320 0 77.1832 12.7878 987 107.965 263.668 461.636
1321 0 81.3018 13.1608 1070 107.893 263.598 461.48
1322 0 82.0525 12.9917 1066 110.973 263.706 460.756
1323 0 85.1136 11.5258 981 114.504 263.195 461.882
1324 1 45.032 11.8582 534 106.429 263.931 482.296
1325 0 47.1579 12.2567 578 115.853 263.09 482.483
1326 0 50.0971 13.3541 669 112.398 263.731 482.07
1327 0 52.1149 12.2422 638 115.676 262.917 481.868
1328 0 53.0295 12.691 673 116.12 263.967 480.4
1329 0 55.0707 13.7278 756 113.612 264.124 478.996
1330 0 57.0488 13.2693 757 115.205 264.446 478.955
1331 0 57.1754 11.7358 671 120.988 264.136 476.298
1332 0 62.073 13.5486 841 113.364 262.571 476.762
1333 0 63.032 13.9929 882 113.359 263.13 476.668
1334 0 63.0575 13.1467 829 117.314 262.562 475.407
1335 0 67.0384 14.6781 984 114.701 262.749 472.655
1336 0 67.0682 13.285 891 120.338 262.348 471.769
1337 0 73.0737 14.6154 1068 114.754 262.543 470.969
1338 0 76.0715 14.5258 1105 115.334 261.846 469.744
1339 0 79.0605 14.6217 1156 114.823 262.302 469.524
1340 0 81.0798 14.6646 1189 117.617 262.912 468.861
1341 0 85.0648 14.8005 1259 116.79 262.941 466.989
1342 0 87.0391 14.3958 1253 117.76 263.919 466.258
1343 0 87.1262 12.6139 1099 125.304 263.988 465.74
1344 1 48.0736 10.4007 500 126.026 263.656 484.366
1345 0 51.0528 12.1639 621 116.702 264.214 481.994
1346 0 51.0583 12.1626 621 122.214 263.686 480.763
1347 0 52.0289 12.3969 645 117.205 263.096 482.262
1348 0 53.0243 11.5985 615 119.574 262.745 482.154
1349 0 54.0423 12.2682 663 118.784 263.306 481.078
1350 0 57.0579 11.9177 680 118.051 263.113 480.904
1351 0 59.0358 11.9589 706 117.339 263.397 479.483
1352 0 61.0994 11.9805 732 117.57 263.131 478.96
1353 0 65.0923 13.043 849 113.489 262.755 477.645
1354 0 67.1426 13.5086 907 111.568 262.227 477.507
1355 0 66.1065 13.1606 870 114.093 262.256 475.556
1356 0 70.121 13.2913 932 113.756 262.459 473.887
1357 0 70.0401 12.036 843 116.414 262.386 473.298
1358 0 75.0729 12.9208 970 112.493 262.815 472.903
1359 0 78.0399 12.5705 981 113.261 262.86 471.048
1360 0 81.0797 12.5679 1019 112.847 262.518 469.933
1361 0 82.1262 11.9207 979 112.875 262.17 470.464
1362 0 85.0756 12.5888 1071 112.864 262.413 468.621
1363 1 43.0187 10.3676 446 120.417 262.998 486.623
1364 0 44.0085 11.7932 519 116.252 262.767 485.64
1365 0 48.061 12.9835 624 110.314 262.857 484.67
1366 0 48.0392 12.011 577 111.04 262.61 485.175
1367 0 50.1924 12.4919 627 111.199 264.603 484.097
1368 0 52.0448 13.0657 680 110.665 264.449 482.476
1369 0 55.0739 14.5623 802 105.883 264.07 482.102
1370 0 54.0684 13.9823 756 109.074 264.464 480.963
1371 0 56.1098 13.1528 738 110.268 265.45 481.001
1372 0 58.1461 13.0189 757 111.127 264.885 479.386
1373 0 60.0371 14.3411 861 107.918 264.649 478.113
1374 0 60.0858 12.9481 778 112.037 264.941 478.113
1375 0 64.113 13.445 862 110.379 264.055 477.473
1376 0 65.089 13.397 872 110.784 263.698 476.422
1377 0 67.1269 13.2287 888 110.848 263.948 475.945
1378 0 70.083 13.3556 936 109.677 263.831 473.298
1379 0 72.1294 13.4896 973 109.309 263.096 472.408
1380 0 75.0799 13.4257 1008 109.673 263.643 471.994
1381 0 79.1202 13.8271 1094 107.737 263.274 468.756
1382 0 83.1192 13.4987 1122 107.312 263.68 469.632
1383 0 86.1787 13.8549 1194 106.393 263.204 468.441
1384 0 86.1979 12.947 1116 111.759 262.983 465.715
1385 0 90.0349 14.3278 1290 108.509 263.788 464.309
1386 1 44.0324 12.5816 554 120.076 264.319 484.561
1387 0 47.1123 12.3322 581 111.852 263.318 479.334
1388 0 48.1859 12.1405 585 111.398 263.533 479.082
1389 0 49.2918 11.9087 587 112.497 263.923 479.082
1390 0 52.1434 12.7725 666 109.542 264.12 478.689
1391 0 51.23 12.6098 646 111.943 264.209 478.553
1392 0 52.2376 11.7348 613 114.56 264.166 479.762
1393 0 56.1048 12.5123 702 111.298 263.811 478.839
1394 0 59.0663 13.7473 812 109.09 263.266 478.183
1395 0 59.1282 13.5299 800 110.745 263.055 475.362
1396 0 62.0612 14.1795 880 108.85 261.881 476.611
1397 0 64.0904 12.7788 819 112.398 262.642 476.791
1398 0 65.0342 12.7164 827 113.459 262.636 474.119
1399 0 68.0592 13.1209 893 112.686 262.451 473.826
1400 0 71.0755 13.0847 930 111.308 262.367 474.596
1401 0 74.1209 13.6938 1015 111.061 262.807 471.554
1402 0 74.0911 13.7263 1017 112.394 262.836 470.12
1403 0 78.0883 14.1506 1105 111.197 262.971 467.347
1404 0 78.0883 14.0866 1100 153.06 261.978 467.406
1405 0 82.2095 13.1372 1080 117.248 262.315 464.236
1406 0 87.0942 13.893 1210 114.684 262.023 462.865
1407 0 89.1702 13.6929 1221 116.679 261.859 459.753
1408 0 91.3023 13.3513 1219 118.712 261.655 457.695
1409 1 50.127 12.4085 622 116.952 262.965 480.696
1410 0 49.1285 13.3731 657 119.463 262.833 478.834
1411 0 54.2886 13.2072 717 118.126 263.318 479.477
1412 0 54.0479 15.2642 825 115.759 263.907 476.119
1413 0 54.1094 12.8259 694 123.829 264.049 475.653
1414 0 57.0544 13.6887 781 120.46 263.152 476.134
1415 0 58.138 14.156 823 120.334 263.283 473.711
1416 0 63.039 15.1494 955 116.882 263.495 471.42
1417 0 63.0493 14.227 897 120.483 262.688 470.75
1418 0 67.1355 15.3272 1029 117.131 262.331 468.856
1419 0 68.1003 14.3905 980 120.484 263.234 468.492
1420 0 71.0863 14.7427 1048 120.818 262.781 466.355
1421 0 75.1385 15.0256 1129 119.64 262.366 466.28
1422 0 75.1115 13.9925 1051 124.679 262.522 463.382
1423 0 80.2314 14.7199 1181 121.848 262.662 462.39
1424 0 80.2469 13.5582 1088 124.4 262.599 462.204
1425 0 86.1472 15.3806 1325 118.786 263.46 460.09
1426 0 89.2473 14.8464 1325 120.244 263.603 459.16
1427 1 46.1086 12.4272 573 126.747 264.709 476.15
1428 0 48.2892 12.7358 615 124.262 264.502 477.198
1429 0 52.1477 13.5768 708 124.195 264.428 473.54
1430 0 52.0593 13.1389 684 122.354 264.722 474.146
1431 0 55.0814 13.6888 754 120.487 264.034 472.621
1432 0 56.0706 14.4817 812 119.787 264.553 469.979
1433 0 56.1009 14.5274 815 119.802 263.136 469.95
1434 0 58.0482 13.6094 790 123.476 263.059 466.634
1435 0 60.1557 14.0136 843 122.087 263.702 465.59
1436 0 63.0924 13.3931 845 122.144 263.667 465.774
1437 0 65.0731 13.7691 896 121.862 263.227 462.362
1438 0 67.2218 13.6414 917 121.309 263.761 463.332
1439 0 70.1555 14.1258 991 120.353 263.354 460.824
1440 0 73.1022 13.3785 978 121.339 263.98 460.121
1441 0 74.0922 14.2255 1054 120.136 263.066 459.348
1442 0 76.0583 13.3845 1018 122.41 263.673 456.076
1443 0 79.1231 13.321 1054 121.827 263.668 453.446
1444 0 82.1256 12.5539 1031 121.833 263.731 452.776
1445 0 87.092 14.0311 1222 116.429 263.23 453.525
1446 0 90.137 13.8456 1248 115.833 263.482 450.579
1447 0 90.1838 12.6741 1143 118.892 263.605 450.875
1448 0 94.1548 13.276 1250 116.686 263.808 447.35
1449 0 98.2075 13.5937 1335 114.876 263.524 445.708
1450 0 103.232 13.1839 1361 115.092 263.752 444.068
1451 0 104.201 12.8117 1335 115.268 263.865 442.33
1452 0 109.213 13.5424 1479 112.097 264.202 438.849
1453 1 56.0621 12.4683 699 116.134 263.967 464.276
1454 0 55.0676 10.7867 594 120.572 264.251 465.035
1455 0 58.154 11.8822 691 116.579 263.737 463.819
1456 0 61.2148 12.9544 793 112.362 264.184 463.482
1457 0 62.3036 12.2786 765 112.686 264.302 463.268
1458 0 64.3037 12.9853 835 110.632 263.745 461.065
1459 0 67.2584 12.9649 872 111.249 263.349 460.736
1460 0 67.3673 12.751 859 112.516 263.908 461.645
1461 0 72.1836 12.108 874 113.297 264.068 459.839
1462 0 75.1746 12.8634 967 111.216 263.503 456.502
1463 0 78.196 14.3869 1125 107.335 263.708 456.356
1464 0 80.162 13.6099 1091 109.469 263.565 455.597
1465 0 79.1418 12.3702 979 113.579 263.91 453.672
1466 0 85.1148 12.6652 1078 111.029 263.865 454.616
1467 0 87.1389 13.3236 1161 110.189 263.477 451.651
1468 0 90.1892 14.0815 1270 108.568 263.363 448.036
1469 0 94.1667 13.4867 1270 109.631 263.968 448.802
1470 0 96.2892 14.2903 1376 108.528 263.754 449.264
1471 0 100.138 13.9508 1397 109.219 263.5 448.093
1472 0 102.124 13.2291 1351 111.907 263.244 445.132
1473 0 108.258 13.9112 1506 108.977 263.642 444.256
1474 0 112.246 13.0249 1462 110.943 263.116 442.049
1475 1 55.1304 9.68613 534 114.596 263.23 469.099
1476 0 58.0638 11.5735 672 110.908 264.375 466.935
1477 0 62.0643 12.487 775 107.783 263.903 464.314
1478 0 65.1272 13.2971 866 102.297 262.859 465.68
1479 0 65.0622 12.7109 827 105.73 262.489 461.816
1480 0 67.0915 12.7736 857 105.891 263.258 464.266
1481 0 71.0918 12.7582 907 105.798 262.759 463.785
1482 0 71.0806 11.8176 840 110.433 262.563 460.361
1483 0 74.1004 13.3468 989 107.513 262.98 460.159
1484 0 76.0389 13.1512 1000 110.146 262.935 458.341
1485 0 79.1363 13.0913 1036 111.312 263.092 456.759
1486 0 79.2364 12.4564 987 110.886 263.344 455.202
1487 0 82.2993 12.4667 1026 110.616 264.08 452.906
1488 0 88.2338 13.0789 1154 107.806 263.83 454.815
1489 0 88.2685 12.8472 1134 110.413 264.036 453.32
1490 0 90.2612 12.1536 1097 114.512 263.563 452.588
1491 0 95.44 13.0134 1242 113.656 263.87 450.597
1492 0 97.3436 12.6459 1231 116.233 263.714 449.219
1493 0 99.4916 12.4031 1234 118.755 264.006 446.984
1494 0 103.322 13.3176 1376 116.572 264.116 446.018
1495 0 106.385 13.4794 1434 117.161 263.63 443.402
1496 0 111.464 13.1164 1462 118.049 263.301 441.855
1497 0 111.32 11.7229 1305 123.969 263.528 439.671
1498 0 119.299 12.0202 1434 123.255 264.025 441.064
1499 1 66.289 10.4542 693 112.83 263.964 469.794
1500 0 68.1726 11.0602 754 111.676 263.996 469.676
1501 0 71.0775 11.8181 840 108.544 263.563 472.504
1502 0 74.1666 11.3124 839 109.973 264.613 468.923
1503 0 78.2017 11.9051 931 106.689 265.122 467.259
1504 0 77.0782 10.8461 836 108.696 263.463 465.455
1505 0 81.1033 12.6012 1022 105.407 263.864 465.905
1506 0 80.092 11.4244 915 113.66 263.719 465.353
1507 0 80.0707 10.6531 853 116.852 264.471 464.621
1508 0 81.088 11.839 960 115.391 263.317 462.845
1509 0 82.1112 11.1921 919 118.174 263.522 463.939
1510 0 85.1075 12.3373 1050 115.186 263.549 463.894
1511 0 88.0655 10.6739 940 118.934 263.81 460.961
1512 0 91.1626 12.0444 1098 112.803 264.157 458.277
1513 0 92.1579 11.3175 1043 114.366 264.873 456.045
1514 0 98.0952 11.7743 1155 111.935 264.489 456.429
1515 0 100.081 10.8711 1088 114.404 264.435 457.626
1516 1 54.0506 10.6567 576 111.505 264.214 478.431
1517 0 53.1761 10.8884 579 110.497 265.724 476.079
1518 0 56.3191 11.4704 646 109.359 264.998 473.008
1519 0 57.0622 10.9179 623 114.172 265.095 476.197
1520 0 58.0936 11.688 679 112.866 264.959 476.121
1521 0 59.0614 10.4806 619 117.585 265.284 474.153
1522 0 62.0344 11.0906 688 116.564 264.763 473.523
1523 0 62.0343 10.7521 667 119.195 264.78 471.916
1524 0 65.0478 11.7759 766 115.667 264.852 473.924
1525 0 67.076 11.4795 770 117.918 265.087 472.905
1526 0 70.0804 12.2716 860 116.026 264.903 472.537
1527 0 70.0371 11.1084 778 121.184 265.541 469.19
1528 0 70.1352 11.0643 776 122.106 265.36 468.241
1529 0 72.0606 11.4209 823 122.103 264.868 467.996
1530 0 75.0482 12.4587 935 119.065 264.554 468.293
1531 0 75.0964 11.5185 865 123.499 264.295 465.305
1532 0 79.2847 12.1461 963 121.696 263.866 463.132
1533 0 79.3413 11.3056 897 126.789 263.661 461.725
1534 1 42.04 8.06375 339 126.18 265.546 480.319
1535 0 43.0655 9.42749 406 118.685 264.83 477.707
1536 0 45.1379 9.94729 449 122.971 263.448 477.57
1537 0 46.0348 10.731 494 121.308 264.864 476.583
1538 0 48.0969 10.0838 485 123.054 265.237 477.59
1539 0 47.0417 9.35341 440 127.173 265.241 477.075
1540 0 48.053 9.23979 444 128.405 264.498 475.345
1541 0 54.0458 10.2136 552 123.917 264.054 475.496
1542 0 53.0291 9.69279 514 126.805 264.65 475.72
1543 0 56.1051 9.76738 548 126.905 263.954 472.009
1544 0 57.0565 9.42925 538 130.061 264.061 471.662
1545 0 58.0418 12.1809 707 123.208 263.566 472.426
1546 0 59.0419 10.1623 600 129.285 263.3 472.615
1547 0 60.2005 10.9634 660 128.529 262.995 470.689
1548 0 63.0579 10.086 636 130.421 263.278 470.608
1549 0 65.0872 11.8149 769 125.774 262.664 470.64
1550 0 67.0957 11.3271 760 126.979 262.966 469.029
1551 0 68.043 11.8014 803 126.369 262.922 468.559
1552 0 70.0788 11.1018 778 129.263 262.488 465.639
1553 0 73.0399 12.4726 911 124.551 262.53 465.899
1554 0 75.14 12.3503 928 125.013 261.817 463.08
1555 0 74.1143 11.1854 829 128.786 261.82 462.595
1556 0 79.1877 11.0371 874 121.134 261.538 462.375
1557 0 82.1758 12.9114 1061 116.642 261.484 462.809
1558 0 84.072 12.6558 1064 115.817 260.765 460.134
1559 0 88.1008 13.53 1192 112.666 261.73 457.411
1560 0 90.0692 12.6902 1143 115.627 261.509 456.712
1561 0 92.1633 12.0221 1108 118.264 261.344 454.736
1562 1 50.0259 8.8754 444 115.011 261.453 478.363
1563 0 54.1157 11.2167 607 108.186 261.453 477.687
1564 0 54.0775 10.0226 542 115.295 261.096 474.57
1565 0 59.2332 12.3579 732 119.264 260.687 478.843
1566 0 58.1239 13.6605 794 120.772 260.639 475.186
1567 0 59.2366 12.391 734 123.988 261.114 475.917
1568 0 60.1562 12.6836 763 123.468 261.115 474.49
1569 0 62.1214 13.6185 846 119.322 260.612 474.492
1570 0 61.0815 12.3278 753 124.96 259.951 474.652
1571 0 64.087 12.0929 775 125.397 259.803 474.532
1572 0 66.1112 13.3109 880 122.822 260.17 472.357
1573 0 70.0887 13.5685 951 120.311 259.892 473.05
1574 0 69.1189 12.8185 886 125.148 260.279 471.255
1575 0 73.1378 12.6337 924 124.311 261.124 470.496
1576 0 73.1378 12.6747 927 157.093 261.113 470.464
1577 0 77.2751 13.0702 1010 125.187 261.833 467.656
1578 0 79.3154 13.8309 1097 126.133 261.156 467.042
1579 0 81.206 13.2256 1074 125.879 261.265 466.669
1580 0 84.1292 13.9191 1171 118.638 261.094 466.236
1581 0 86.1045 12.4848 1075 123.985 261.019 463.819
1582 0 90.1633 13.287 1198 122.319 260.967 461.214
1583 0 92.1672 13.8878 1280 120.043 261.135 461.462
1584 0 94.1952 13.6313 1284 121.812 260.434 457.443
1585 0 97.1972 13.6424 1326 120.915 260.569 458.161
1586 0 101.209 13.7142 1388 120.668 260.995 456.037
1587 0 103.217 12.8564 1327 123.526 261.182 454.551
1588 0 107.165 12.924 1385 123.857 259.982 451.593
1589 1 55.1263 11.1018 612 120.662 260.43 478.791
1590 0 59.0653 12.0883 714 116.181 260.801 479.328
1591 0 60.1632 11.3857 685 121.705 260.765 476.485
1592 0 64.0583 13.0975 839 114.176 260.613 475.336
1593 0 66.0736 12.9098 853 114.254 260.726 474.24
1594 0 69.0826 13.5635 937 112.622 261.295 472.434
1595 0 72.2208 13.7356 992 111.864 261.681 471.315
1596 0 72.0673 11.5309 831 116.708 261.551 470.817
1597 0 74.1049 13.265 983 113.834 261.378 469.273
1598 0 80.1765 13.2458 1062 112.619 260.44 467.264
1599 0 80.0665 12.6895 1016 116.613 260.709 465.432
1600 0 83.1216 12.2351 1017 118.038 261.942 466.716
1601 0 84.1717 11.6429 980 121.596 260.481 464.846
1602 0 87.0902 12.2861 1070 120.958 260.617 462.628
1603 0 90.1988 11.5523 1042 122.193 259.982 461.845
1604 0 93.3004 12.2936 1147 122.4 260.149 456.651
1605 0 95.3064 12.3496 1177 122.847 260.15 456.561
1606 0 100.218 12.4728 1250 122.209 259.992 455.113
1607 0 104.44 12.792 1336 121.429 260.619 452.701
1608 0 107.31 12.6549 1358 122.83 261.155 449.816
1609 1 58.1589 9.11296 530 122.653 260.864 474.543
1610 0 60.2277 11.1909 674 117.509 262.159 476.57
1611 0 63.1505 12.5731 794 113.928 261.186 473.364
1612 0 64.1175 12.9606 831 113.718 260.373 473.039
1613 0 68.1909 11.9371 814 115.171 260.591 473.55
1614 0 70.2123 13.0034 913 113.955 260.43 470.44
1615 0 70.2651 12.2536 861 117.087 261.869 472.563
1616 0 74.2835 12.9908 965 114.783 262.283 471.81
1617 0 76.2497 13.6 1037 113.769 262.036 469.745
1618 0 79.1818 13.0586 1034 115.354 262.426 467.973
1619 0 81.1153 12.8212 1040 116.065 261.828 468.773
1620 0 84.1041 12.4132 1044 118.138 261.793 465.663
1621 0 87.1894 13.2356 1154 115.574 261.933 463.971
1622 0 89.207 12.712 1134 117.958 260.173 459.849
1623 0 92.2317 13.2818 1225 117.531 260.759 458.309
1624 0 98.2193 13.9789 1373 114.719 260.829 459.015
1625 0 100.287 13.6209 1366 116.749 260.629 454.63
1626 1 52.17 10.9642 572 118.271 260.799 479.497
1627 0 52.1605 12.6149 658 115.135 260.629 479.421
1628 0 55.1598 13.7781 760 113.782 260.178 477.503
1629 0 56.1316 12.9161 725 116.052 259.917 476.939
1630 0 59.0778 13.5923 803 114.295 260.07 476.807
1631 0 60.1038 12.9942 781 115.955 260.268 476.731
1632 0 61.0893 13.6849 836 113.782 260.402 476.65
1633 0 63.1235 12.4835 788 114.113 261.882 473.105
1634 0 68.1413 13.0024 886 110.991 261.963 471.982
1635 0 68.1638 13.0861 892 112.183 262.284 469.816
1636 0 71.2531 12.7994 912 112.254 262.999 469.928
1637 0 74.2607 13.8431 1028 109.841 262.822 467.568
1638 0 75.219 12.7228 957 114.272 262.571 468.287
1639 0 77.1438 13.0017 1003 114.078 261.873 467.102
1640 0 80.153 13.8859 1113 111.944 262.592 467.482
1641 0 83.1394 13.1346 1092 115.415 262.035 463.622
1642 0 86.141 14.0119 1207 113.044 262.107 463.756
1643 0 88.1786 13.8582 1222 114.129 261.623 463.966
1644 0 88.1527 13.4426 1185 116.685 261.679 461.724
1645 0 89.1841 12.7713 1139 119.333 261.107 459.676
1646 0 95.296 13.5997 1296 116.266 262.174 459.483
1647 0 97.1464 14.1951 1379 115.916 261.949 458.482
1648 0 101.204 13.7741 1394 117.751 261.821 457.042
1649 0 102.178 13.5548 1385 119.471 262.258 455.075
1650 0 105.174 13.2163 1390 120.193 262.153 457.396
1651 0 108.144 13.5375 1464 121.003 261.909 452.474
1652 0 113.241 13.7759 1560 119.092 262.588 452.986
1653 0 114.249 13.5056 1543 121.297 261.997 449.39
1654 0 119.152 13.8731 1653 121.01 261.869 448.783
1655 0 123.171 14.5245 1789 119.198 261.781 446.483
1656 0 128.262 14.3457 1840 119.843 261.976 446.049
1657 0 132.194 13.586 1796 121.97 261.651 442.895
1658 0 135.198 13.7428 1858 122.054 261.521 441.612
1659 0 139.233 13.6678 1903 123.229 261.626 439.446
1660 0 144.348 14.278 2061 121.234 261.971 438.687
1661 0 148.232 14.3626 2129 122.982 261.634 435.525
1662 0 154.173 14.4383 2226 123.874 261.447 432.09
1663 0 159.392 14.6682 2338 124.493 261.149 429.271
1664 0 166.366 15.7183 2615 125.07 261.395 423.29
1665 0 169.466 15.0886 2557 128.093 260.651 421.608
1666 0 175.313 15.2128 2667 128.552 260.843 415.102
1667 0 181.437 15.8513 2876 124.922 261.47 417.076
1668 0 185.343 14.4273 2674 129.329 261.093 414.249
1669 0 191.233 14.5947 2791 129.305 261.114 411.164
1670 0 198.378 14.7093 2918 128.739 261.288 406.359
1671 0 203.442 14.2006 2889 130.317 260.39 403.254
1672 0 210.27 14.8238 3117 128.348 261.006 401.867
1673 0 218.263 15.0644 3288 128.391 261.115 397.047
1674 0 220.427 14.1861 3127 132.47 260.871 390.944
1675 0 228.539 13.2494 3028 134.037 260.826 391.086
1676 1 45.1202 8.31114 375 118.075 260.917 478.013
1677 0 45.0609 9.121 411 114.993 260.428 477.304
1678 0 47.0111 9.69984 456 113.272 260.316 479.318
1679 0 48.0329 10.0972 485 114.227 260.192 479.322
1680 0 52.0853 13.7275 715 110.818 260.503 481.431
1681 0 52.1678 10.8879 568 116.361 260.775 482.298
1682 0 54.0819 11.4456 619 115.061 260.338 480.997
1683 0 55.1701 11.673 644 115.061 259.966 478.543
1684 0 58.0595 11.5227 669 114.773 259.889 479.937
1685 0 59.0422 11.2462 664 115.318 259.545 479.958
1686 0 61.0886 11.9007 727 114.681 259.55 476.627
1687 0 66.1874 11.4977 761 113.561 259.507 476.641
1688 0 66.2435 12.3333 817 113.366 260.032 474.887
1689 0 67.1596 11.4503 769 116.062 259.648 472.624
1690 0 71.2098 12.6949 904 112.108 259.716 471.083
1691 1 130.324 11.5174 1501 87.2525 260.434 454.534
1692 1 39.4769 10.4618 413 113.145 261.274 484.177
1693 0 41.0451 11.0854 455 99.0989 261.024 463.323
1694 0 39.0344 10.2474 400 103.12 260.552 465.185
1695 0 43.1514 10.243 442 101.303 261.138 467.31
1696 0 44.2083 9.93027 439 104.38 261.633 465.171
1697 0 44.1409 11.9164 526 102.871 261.35 464.962
1698 0 46.2053 10.5832 489 107.213 262.434 463.875
1699 0 47.2531 11.7876 557 105.6 262.104 465.573
1700 0 49.0459 10.4188 511 115.337 262.742 459.943
1701 0 51.2931 11.2296 576 106.759 262.936 474.026
1702 0 52.0939 10.9802 572 109.983 261.451 478.708
1703 0 54.1858 10.9992 596 115.171 260.577 480.208
1704 0 58.1096 11.5644 672 105.93 261.24 478.882
1705 0 64.1742 15.8631 1018 94.6798 260.644 472.512
1706 0 64.1227 12.7568 818 106.026 260.413 473.28
1707 0 61.1409 11.4653 701 114.33 260.452 473.683
1708 0 66.1042 11.4214 755 112.77 260.417 475.297
1709 0 66.1965 12.7952 847 112.349 260.754 474.178
1710 0 70.1027 12.4532 873 112.225 262.265 475.983
1711 0 71.0827 11.6625 829 116.51 261.615 475.739
1712 1 39.0984 10.9212 427 111.763 262.475 490.717
1713 0 39.0363 10.4006 406 112.963 263.633 489.032
1714 0 42.1563 11.3387 478 110.157 262.584 478.619
1715 0 44.1229 13.0771 577 107.002 262.553 478.083
1716 0 45.0962 12.5066 564 110.548 262.693 478.707
1717 0 44.1828 13.0368 576 101.269 261.797 483.519
1718 0 45.1804 12.1734 550 105.656 261.113 485.933
1719 0 45.0661 12.049 543 112.444 260.064 485.247
1720 0 47.1156 11.9918 565 112.664 260.138 483.85
1721 0 50.1754 12.835 644 108.292 260.699 482.724
1722 0 51.1481 12.2781 628 111.424 260.197 481.441
1723 0 51.1364 12.32 630 111.362 260.463 482.517
1724 0 55.1382 12.8223 707 109.652 260.563 480.54
1725 0 55.1076 12.5028 689 111.835 260.466 480.213
1726 0 56.1088 11.7094 657 115.231 260.23 480.116
1727 0 59.069 12.0537 712 114.129 260.438 478.861
1728 0 60.1237 12.7903 769 113.953 260.826 477.062
1729 0 62.141 11.7797 732 116.224 261.481 476.661
1730 0 64.0768 12.2041 782 114.503 260.723 477.748
1731 0 66.0707 13.6672 903 110.558 261.779 476.081
1732 0 67.1803 12.6228 848 114.472 261.446 475.031
1733 0 69.1769 12.9234 894 113.824 261.902 475.488
1734 0 72.1493 13.3196 961 112.992 260.988 472.422
1735 0 73.0775 13.9304 1018 112.697 261.328 471.983
1736 0 75.2917 12.3121 927 117.247 260.777 472.161
1737 0 77.1393 13.0932 1010 115.946 261.199 468.328
1738 0 82.2156 13.5376 1113 113.873 260.639 468.442
1739 0 84.2338 13.605 1146 114.279 261.046 467.373
1740 0 85.1692 13.4438 1145 115.133 260.817 464.301
1741 0 90.1748 12.7974 1154 115.759 261.176 463.044
1742 0 90.1204 12.106 1091 117.85 261.338 463.763
1743 0 95.1996 13.3614 1272 116.304 260.742 457.59
1744 1 50.0814 10.4031 521 115.322 261.106 484.374
1745 0 54.2378 11.1177 603 115.376 261.436 482.458
1746 0 56.1233 11.3856 639 112.279 260.991 478.858
1747 0 58.1031 13.0286 757 110.182 260.547 478.914
1748 0 60.0915 13.0301 783 110.41 260.192 477.819
1749 0 61.117 12.0261 735 113.464 260.316 477.63
1750 0 63.0968 12.4571 786 113.088 259.905 476.024
1751 0 64.067 11.2226 719 117.114 259.549 473.075
1752 0 68.0831 13.3073 906 111.94 260.423 472.215
1753 0 72.0908 13.1778 950 110.902 260.575 472.683
1754 0 71.0685 11.6226 826 116.682 261.634 470.912
1755 0 75.0824 12.6261 948 113.385 262.116 470.565
1756 0 79.0462 12.8026 1012 112.362 261.524 469.696
1757 0 81.1774 13.1194 1065 111.188 261.715 468.219
1758 0 82.2023 12.2624 1008 115.121 261.949 466.821
1759 0 85.2077 12.2994 1048 115.991 261.816 462.279
1760 0 89.2019 13.1051 1169 113.939 261.97 461.935
1761 0 93.2703 13.9702 1303 111.821 262.394 460.864
1762 0 94.3217 12.3832 1168 116.592 262.149 461.852
1763 0 99.3041 12.9501 1286 116.189 261.411 458.671
1764 1 54.0888 11.1298 602 118.329 262.714 481.372
1765 0 58.1112 12.7514 741 115.194 262.887 479.059
1766 0 57.1243 12.7091 726 118.955 262.544 478.416
1767 0 60.1727 14.1094 849 112.769 262.081 478.106
1768 0 62.105 11.8992 739 118.47 262.69 477.613
1769 0 64.0982 12.9489 830 115.965 261.64 476.765
1770 0 66.118 12.0693 798 119.617 261.858 475.731
1771 0 69.1636 13.6633 945 115.619 262.002 473.288
1772 0 69.2402 11.3373 785 123.136 262.127 472.039
1773 0 74.1603 13.1202 973 117.811 261.556 471.441
1774 0 74.1811 11.8763 881 122.964 262.194 469.311
1775 0 75.3123 11.7776 887 123.584 262.522 468.979
1776 0 80.3964 12.3762 995 121.161 262.181 467.225
1777 0 83.3233 13.2856 1107 118.99 262.676 465.807
1778 0 88.3366 12.9618 1145 121.327 262.429 464.646
1779 0 89.4092 12.9405 1157 122.698 261.747 460.876
1780 0 93.5101 13.6777 1279 117.31 260.52 460.065
1781 0 94.2443 12.648 1192 115.234 260.749 459.557
1782 0 99.3416 13.8814 1379 112.904 261.167 457.954
1783 1 55.1388 11.4983 634 112.771 260.341 479.585
1784 0 59.2475 12.1524 720 110.703 260.281 479.296
1785 0 59.2005 12.01 711 113.993 260.813 477.948
1786 0 60.3061 13.5807 819 112.343 260.103 474.667
1787 0 63.1275 13.3856 845 111.95 260.516 473.828
1788 0 63.1119 10.9488 691 113.188 260.783 475.067
1789 0 67.0858 11.8654 796 109.823 260.503 472.339
1790 0 68.0463 12.0212 818 109.704 260.289 471.995
1791 0 70.1368 13.6163 955 105.734 261.419 470.184
1792 0 73.1037 12.1471 888 105.602 260.902 470.116
1793 0 75.0957 12.291 923 106.03 260.898 467.791
1794 0 77.1473 11.6271 897 108.747 260.438 465.596
1795 0 81.0829 12.1357 984 106.961 260.426 465.625
1796 0 83.1051 12.8151 1065 105.453 260.473 463.677
1797 0 84.0777 12.7144 1069 106.755 261.388 463.468
1798 0 87.094 12.6874 1105 107.503 261.29 461.881
1799 0 91.0719 11.6721 1063 109.273 261.179 461.523
1800 0 92.1574 12.4461 1147 109.258 261.566 458.335
1801 0 97.07 13.5572 1316 105.643 262.189 458.245
1802 0 100.126 12.1847 1220 109.271 261.747 458.098
1803 0 105.095 13.5591 1425 106.97 261.931 455.73
1804 0 107.233 13.4566 1443 107.923 262.263 451.335
1805 0 109.126 13.544 1478 109.043 261.75 453.152
1806 0 114.216 13.5182 1544 109.631 261.195 449.697
1807 0 116.126 12.7361 1479 113.11 261.179 451.725
1808 1 63.235 12.7303 805 108.263 261.789 476.594
1809 0 66.2969 13.334 884 109.424 261.708 470.447
1810 0 69.133 12.8593 889 105.082 262.601 473.764
1811 0 70.1136 12.0804 847 106.058 262.145 474.726
1812 0 72.195 12.8541 928 104.737 262.567 472.113
1813 0 74.231 12.286 912 107.487 262.406 469.177
1814 0 77.1717 12.6082 973 105.725 262.249 468.845
1815 0 80.1721 12.2861 985 106.498 262.349 467.338
1816 0 83.135 12.5459 1043 105.823 262.354 466.496
1817 0 87.2933 12.521 1093 106.122 261.82 464.375
1818 0 88.2204 12.038 1062 107.388 262.555 464.395
1819 0 92.1422 12.6109 1162 106.609 262.216 462.259
1820 0 94.2775 13.2481 1249 107.051 261.944 458.366
1821 0 98.1521 13.2346 1299 106.821 261.983 459.061
1822 0 100.254 13.7451 1378 106.967 261.386 454.274
1823 0 103.137 12.3719 1276 110.38 262.877 454.393
1824 0 106.192 13.0989 1391 109.023 262.666 451.73
1825 0 108.273 12.9118 1398 109.187 262.517 451.465
1826 0 111.317 12.4779 1389 111.055 262.361 448.712
1827 0 115.274 13.4202 1547 108.95 262.161 447.849
1828 0 117.239 11.9329 1399 112.808 262.207 448.133
1829 0 119.268 11.9059 1420 113.907 262.269 446.096
1830 0 124.169 11.9193 1480 113.215 262.515 446.155
1831 0 130.14 13.2242 1721 110.037 261.762 443.691
1832 0 132.172 11.6287 1537 113.247 261.722 440.263
1833 0 136.112 11.9093 1621 114.344 261.673 431.436
1834 0 143.161 12.6012 1804 112.931 261.853 431.453
1835 1 79.0897 11.0634 875 108.597 261.267 462.461
1836 0 82.0705 11.8922 976 105.208 261.929 464.495
1837 0 84.15 12.6797 1067 105.285 262.211 466.335
1838 0 86.1167 12.6921 1093 105.653 262.418 464.613
1839 0 90.107 12.2521 1104 107.645 261.978 460.508
1840 0 92.2158 12.0478 1111 108.18 262.013 460.951
1841 0 95.0823 11.3165 1076 110.888 262.495 459.684
1842 0 97.1844 11.6068 1128 111.118 260.803 457.128
1843 0 100.157 12.091 1211 112.604 260.546 452.205
1844 0 105.143 12.3356 1297 110.637 260.782 452.072
1845 0 108.185 12.4046 1342 110.554 260.531 449.79
1846 0 112.146 12.6532 1419 112.382 260.175 446.761
1847 0 117.175 13.1854 1545 112.08 259.568 448.152
1848 0 121.333 12.8571 1560 113.799 260.038 444.375
1849 0 125.231 12.992 1627 114.624 259.82 439.388
1850 1 72.0932 10.1951 735 107.189 260.529 469.293
1851 0 75.0814 11.321 850 106.691 260.193 465.689
1852 0 78.1107 11.4453 894 108.136 260.202 467.662
1853 0 82.1149 12.2024 1002 105.958 260.364 466.092
1854 0 84.0972 12.0099 1010 107.479 260.655 463.948
1855 0 87.124 12.1321 1057 107.323 260.579 461.2
1856 0 88.1587 12.5456 1106 107.634 260.507 458.643
1857 0 91.1751 11.615 1059 110.704 260.902 458.107
1858 0 93.1853 11.3645 1059 112.407 261.098 459.895
1859 0 97.1511 11.1373 1082 114.07 261.135 455.946
1860 0 101.225 12.5463 1270 111.577 261.755 453.245
1861 0 103.232 12.9708 1339 112.234 261.63 450.15
1862 0 106.251 12.094 1285 114.367 261.91 449.387
1863 0 107.305 12.1802 1307 116.087 261.841 444.849
1864 0 113.353 12.6067 1429 114.146 262.373 447.081
1865 0 115.25 13.18 1519 115.525 262.397 442.357
1866 0 116.311 11.5725 1346 120.669 261.538 443.086
1867 0 120.244 12.2251 1470 121.136 261.316 439.056
1868 0 123.335 13.1836 1626 119.483 261.865 436.694
1869 0 128.282 13.026 1671 121.115 261.516 435.142
1870 0 132.299 12.7439 1686 121.504 261.458 437.247
1871 0 137.307 12.7597 1752 121.677 261.855 435.615
1872 0 141.244 12.4961 1765 122.841 261.791 430.893
1873 0 145.307 12.9313 1879 123.279 261.385 428.464
1874 1 79.1709 10.812 856 117.193 261.91 462.727
1875 0 80.538 12.2799 989 116.067 261.468 456.735
1876 0 83.1327 12.6064 1048 112.019 261.17 462.307
1877 0 85.3366 13.0307 1112 111.862 261.117 461.553
1878 0 88.3249 12.5333 1107 113.377 261.524 460.471
1879 0 91.115 13.0385 1188 112.641 261.029 459.434
1880 0 95.1441 13.0118 1238 113.19 260.409 458.309
1881 0 97.1575 11.4968 1117 118.491 260.415 455.261
1882 0 99.2294 11.4684 1138 119.473 260.038 455.235
1883 0 104.113 13.6006 1416 114.324 260.042 453.607
1884 0 105.137 12.0129 1263 120.216 260.099 449.766
1885 0 109.135 12.4983 1364 118.698 259.917 450.141
1886 0 112.145 12.8672 1443 118.226 260.088 447.553
1887 0 113.17 10.9658 1241 123.409 260.175 448.186
1888 0 118.219 11.5379 1364 122.57 260.353 444.437
1889 0 121.094 11.9164 1443 122.132 260.517 444.55
1890 0 126.156 12.9443 1633 118.997 260.418 443.134
1891 0 132.293 12.7823 1691 119.296 260.38 438.976
1892 0 134.451 12.5919 1693 120.247 261.117 432.231
1893 0 138.381 12.2343 1693 120.962 260.978 432.141
1894 0 143.504 12.9265 1855 119.816 260.94 427.803
1895 0 145.381 12.9247 1879 121.293 260.664 424.237
1896 0 149.273 12.4872 1864 122.284 260.961 423.586
1897 0 154.449 12.3536 1908 121.041 260.925 425.598
1898 0 159.385 13.4266 2140 119.989 261.318 418.814
1899 0 164.422 12.7842 2102 120.81 261.312 417.403
1900 0 167.672 12.1606 2039 123.416 260.76 410.772
1901 0 175.383 14.0664 2467 117.821 261.163 409.783
1902 0 180.466 14.1744 2558 117.551 261.797 407.545
1903 0 186.376 13.4191 2501 118.928 260.611 404
1904 0 192.523 15.167 2920 113.797 261.162 397.723
1905 0 194.362 12.7391 2476 120.143 261.051 395.636
1906 0 203.327 12.8217 2607 118.905 261.115 395.377
1907 0 209.401 12.3639 2589 120.245 260.405 391.609
1908 0 215.473 12.5398 2702 119.684 260.689 392.168
1909 0 224.575 13.0246 2925 117.565 260.625 390.214
1910 0 230.374 11.9718 2758 120.768 260.522 383.434
1911 0 240.575 12.52 3012 119.608 260.461 378.52
1912 0 250.65 13.3892 3356 116.461 261.143 377.855
1913 1 199.608 10.4304 2082 119.5 260.809 402.128
1914 0 206.591 11.8786 2454 118.089 260.676 391.718
1915 0 214.739 12.0798 2594 117.608 260.821 390.242
1916 0 221.838 12.7796 2835 115.437 260.992 389.16
1917 0 231.911 12.9058 2993 115.463 260.982 386.015
1918 0 236.95 12.3613 2929 117.726 260.738 385.109
1919 0 245.007 13.9139 3409 115.897 260.757 379.91
1920 0 251.94 13.781 3472 114.041 260.997 379.521
1921 0 260.157 12.9115 3359 117.604 260.909 370.329
1922 0 267.981 13.8592 3714 114.396 260.754 370.564
1923 1 200.62 12.2022 2448 115.275 261.114 399.819
1924 0 208.748 12.7187 2655 114.933 260.356 398.366
1925 0 212.83 13.4614 2865 114.075 260.235 392.275
1926 0 219.025 11.7612 2576 119.746 260.38 389.866
1927 0 224.081 13.1381 2944 115.462 260.885 390.374
1928 0 233.913 12.6628 2962 117.936 260.588 381.003
1929 0 234.859 12.6246 2965 119.246 260.196 373.846
1930 0 241.754 12.8933 3117 118.396 260.231 373.62
1931 1 299.938 9.71867 2915 125.569 260.184 367.352
1932 0 296.891 7.53475 2237 126.472 260.31 389.559
1933 0 298.966 9.11476 2725 127.074 260.65 375.823
1934 0 300.272 20.6513 6201 97.4135 260.737 327.139
1935 0 304.17 20.2387 6156 101.51 260.823 332.622
1936 1 216.713 11.033 2391 125.419 260.836 388.595
1937 0 226.603 13.1022 2969 120.126 260.302 386.327
1938 0 231.703 11.7348 2719 125.993 260.669 376.643
1939 0 238.701 12.6686 3024 124.095 261.312 374.075
1940 0 245.484 12.1841 2991 125.94 261.36 373.654
1941 0 253.517 12.8157 3249 125.333 260.591 365.8
1942 1 297.596 8.29311 2468 131.231 260.647 371.662
1943 0 296.568 8.77034 2601 129.656 261.015 365.427
1944 0 300.858 24.4634 7360 91.6897 260.638 328.496
1945 0 302.596 18.4536 5584 107.646 260.805 334.191
1946 0 307.557 16.7416 5149 113.619 261.142 340.906
1947 0 314.501 14.62 4598 119.456 261.745 334.244
1948 1 79.0483 11.8788 939 99.5538 263.005 466.488
1949 0 80.0455 11.5185 922 107.01 262.292 463.486
1950 0 81.1063 11.5897 940 110.237 259.941 462.026
1951 0 82.0498 10.8715 892 111.084 260.417 462.657
1952 0 84.1246 10.8529 913 111.86 259.614 458.241
1953 0 86.1279 11.5061 991 111.154 260.48 457.879
1954 0 88.3678 11.4861 1015 110.352 262.123 456.303
1955 0 94.3769 12.5031 1180 106.909 262.223 454.374
1956 0 96.2746 12.4643 1200 106.52 260.654 456.458
1957 0 99.2501 12.4131 1232 107.851 261.622 454.899
1958 0 100.244 10.9233 1095 106.3 261.117 453.002
1959 0 103.213 11.0063 1136 106.493 260.596 451.784
1960 0 106.118 11.2328 1192 107.513 260.898 452.049
1961 1 60.0291 9.57869 575 101.477 259.863 472.167
1962 0 63.1135 10.5999 669 98.0239 261.419 472.342
1963 0 65.0488 10.3615 674 98.7908 260.782 469.404
1964 0 62.017 10.1101 627 103.327 260.105 471.043
1965 0 66.0373 10.5546 697 101.04 260.647 469.172
1966 0 70.1254 12.0356 844 95.7891 259.647 466.774
1967 0 69.1457 10.4417 722 100.697 259.934 464.404
1968 0 80.0931 15.2822 1224 85.0482 259.961 464.85
1969 0 86.172 14.9701 1290 82.9783 261.061 460.338
1970 0 87.1632 17.2435 1503 79.666 260.63 458.691
1971 0 86.1427 17.2272 1484 81.5883 260.739 458.949
1972 0 88.2562 14.8998 1315 86.546 260.446 462.03
1973 0 86.1855 12.7632 1100 92.4164 260.841 460.593
1974 0 87.163 12.8954 1124 92.6931 260.787 463.171
1975 0 89.1869 13.2194 1179 92.3562 260.599 462.148
1976 0 92.2316 11.9048 1098 95.235 261.072 460.69
1977 0 96.219 13.4277 1292 91.6223 260.697 459.199
1978 0 99.1001 13.5721 1345 89.9606 260.761 457.535
1979 0 101.247 14.9041 1509 89.2253 260.956 455.107
1980 0 103.249 12.7555 1317 94.8352 260.417 454.371
1981 0 108.277 14.038 1520 92.4132 260.282 453.076
1982 0 109.259 13.6556 1492 94.4437 260.956 450.184
1983 0 112.2 14.2959 1604 93.2681 261.003 452.727
1984 0 114.245 13.3922 1530 95.8203 261.281 448.458
1985 0 119.305 14.1403 1687 95.9638 261.168 447.446
1986 0 121.24 12.1659 1475 101.337 261.277 445.431
1987 0 123.241 12.7636 1573 100.976 261.93 444.322
1988 0 127.243 13.9418 1774 99.2954 260.494 442.273
1989 1 75.1495 11.7366 882 99.8413 261.319 469.341
1990 0 75.153 11.8026 887 98.9233 261.233 467.649
1991 0 80.0905 12.6232 1011 96.4995 260.693 467.322
1992 0 79.0699 13.0264 1030 97.2592 260.457 463.538
1993 0 81.083 11.2354 911 100.173 260.11 462.446
1994 0 83.1659 11.6875 972 100.074 260.202 463.013
1995 0 86.1472 11.4803 989 100.507 260.524 460.466
1996 0 90.1458 12.6573 1141 98.2875 260.828 459.76
1997 0 91.1116 11.4036 1039 103.591 260.511 456.327
1998 0 94.1615 11.3847 1072 102.719 259.712 457.196
1999 0 97.1768 12.5853 1223 101.205 259.881 453.536
2000 0 99.1639 12.1113 1201 102.688 260.041 449.381
2001 0 102.181 11.9983 1226 103.518 259.338 450.299
2002 0 105.231 12.0497 1268 104.051 259.481 448.957
2003 0 109.127 13.1773 1438 102.647 259.602 446.424
2004 0 113.281 12.8089 1451 103.569 259.588 446.816
2005 0 116.18 12.9798 1508 104.278 259.859 444.472
2006 0 117.312 12.6756 1487 103.842 260.401 445.852
2007 0 120.263 12.1234 1458 107.752 260.181 442.957
2008 0 124.246 13.1674 1636 105.373 260.255 437.273
2009 0 129.219 11.941 1543 107.362 259.7 438.528
2010 0 134.171 13.4604 1806 104.118 259.697 436.28
2011 0 138.124 13.0463 1802 104.497 259.78 434.413
2012 1 80.125 10.7582 862 99.0499 259.483 464.893
2013 0 80.2592 10.9146 876 98.5902 259.777 464.112
2014 0 84.1011 11.6526 980 97.948 259.38 462.645
2015 0 85.1456 11.2161 955 100.503 258.659 458.972
2016 0 89.0916 11.8754 1058 97.6578 258.718 461.985
2017 0 91.1538 13.373 1219 96.5144 259.084 458.445
2018 0 94.1968 11.4229 1076 100.09 259.644 457.783
2019 0 96.1556 11.5438 1110 101.085 259.854 454.404
2020 0 97.0531 12.0347 1168 101.175 259.5 452.987
2021 0 101.183 10.9998 1113 102.821 259.957 451.838
2022 0 105.206 12.6608 1332 100.324 259.89 448.395
2023 0 107.14 11.611 1244 103.669 259.876 448.93
2024 0 111.195 11.4394 1272 104.947 259.89 445.744
2025 0 113.241 11.9392 1352 105.113 259.782 444.428
2026 0 114.158 11.3001 1290 108.351 259.573 441.568
2027 0 121.123 12.8877 1561 105.344 259.725 442.371
2028 0 125.196 11.8215 1480 107.369 259.672 439.345
2029 0 126.253 10.6532 1345 111.618 259.129 436.643
2030 0 133.233 10.8456 1445 109.912 259.599 432.291
2031 1 74.0799 10.8127 801 98.5556 260.608 467.79
2032 0 79.1651 11.6339 921 96.7644 260.327 465.596
2033 0 81.1632 12.1114 983 97.2411 260.107 464.658
2034 0 81.1957 10.7395 872 100.628 259.594 464.498
2035 0 82.1153 10.0225 823 102.307 259.159 465.38
2036 0 84.0812 10.3471 870 103.726 259.213 457.192
2037 0 87.0722 10.4856 913 102.964 259.403 460.226
2038 0 89.1971 11.3232 1010 102.662 260.266 455.429
2039 0 95.097 12.1665 1157 100.083 259.464 458.323
2040 0 93.1443 10.4247 971 107.436 259.852 454.263
2041 0 100.162 12.33 1235 103.381 260.222 452.567
2042 0 103.175 11.5823 1195 105.237 260.53 451.881
2043 0 106.353 12.0448 1281 104.373 260.984 450.351
2044 0 106.253 10.5127 1117 109.559 260.887 446.955
2045 0 111.234 11.5343 1283 107.903 261.72 440.849
2046 0 114.25 11.0547 1263 108.66 261.259 441.777
2047 1 62.0895 9.85673 612 104.057 261.569 468.1
2048 0 68.0784 10.9579 746 101.328 260.229 468.176
2049 0 69.1366 11.3688 786 98.3842 259.102 469.627
2050 0 71.0748 11.6919 831 96.2623 259.11 467.705
2051 0 71.0777 11.1005 789 97.5095 259.863 468.292
2052 0 74.0834 10.6232 787 107.696 259.194 464.291
2053 0 78.11 10.6388 831 105.655 259.436 468.005
2054 0 80.0881 11.1377 892 105.555 259.229 464.015
2055 0 81.0628 11.5343 935 105.279 258.898 462.282
2056 0 83.0572 10.4145 865 107.621 258.925 459.141
2057 0 88.0629 10.8445 955 104.982 258.933 461.41
2058 0 89.0753 12.4052 1105 102.158 259.123 457.458
2059 0 92.0577 11.5254 1061 102.9 258.496 458.513
2060 0 96.0432 11.8488 1138 101.622 258.572 456.736
2061 0 99.1675 12.3629 1226 100.286 258.812 454.857
2062 0 100.089 11.3 1131 104.103 258.993 451.879
2063 0 103.067 10.1682 1048 104.366 259.069 454.67
2064 0 105.137 10.7289 1128 98.1516 259.864 449.722
2065 0 113.084 12.9373 1463 93.6206 260.32 448.177
2066 0 113.127 12.3047 1392 94.9203 260.166 449.49
2067 0 115.104 11.9805 1379 97.1175 260.785 441.857
2068 0 119.138 11.8434 1411 96.455 260.291 439.695
2069 0 120.145 10.146 1219 102.97 260.683 440.432
2070 1 69.0983 9.55161 660 101.482 259.392 471.162
2071 0 71.2341 11.2446 801 98.8514 260.37 468.461
2072 0 73.0837 11.6442 851 94.0635 260.35 467.09
2073 0 75.1072 11.3172 850 94.8941 259.695 465.195
2074 0 76.1975 10.7221 817 96.8323 259.698 464.957
2075 0 81.159 11.3974 925 94.3189 260.185 466.228
2076 0 83.11 11.4908 955 95.866 260.049 463.113
2077 0 85.1328 10.4895 893 98.1523 259.837 462.736
2078 0 88.0898 11.1023 978 97.8078 259.571 460.792
2079 0 90.1614 12.3445 1113 94.9371 259.959 459.535
2080 0 94.12 11.326 1066 97.1173 260.174 458.163
2081 0 96.1925 10.0008 962 99.8181 259.403 459.022
2082 0 99.1554 12.1325 1203 96.5985 260.051 455.236
2083 0 104.132 12.2441 1275 95.7082 259.806 456.3
2084 0 106.211 12.3339 1310 94.929 260.321 450.793
2085 0 109.173 11.8894 1298 96.7542 260.498 450.503
2086 0 111.094 10.4506 1161 98.186 261.973 451.78
2087 0 115.169 11.062 1274 98.4207 261.694 448.942
2088 1 65.1098 11.8108 769 94.7737 260.823 472.339
2089 0 68.2007 10.733 732 97.2432 259.992 469.689
2090 0 70.1495 12.6729 889 93.6648 259.827 466.925
2091 0 72.151 12.2105 881 95.605 259.708 470.314
2092 0 72.1897 12.1485 877 96.9601 260.079 470.639
2093 0 76.1854 11.9839 913 96.7141 260.181 466.361
2094 0 77.2385 12.4679 963 96.5109 259.962 464.183
2095 0 80.114 13.7679 1103 93.2511 260.529 464.817
2096 0 82.1167 11.5689 950 98.6968 260.575 463.601
2097 0 84.1871 10.5361 887 100.814 260.756 463.516
2098 0 88.1046 12.4852 1100 97.2027 260.722 462.658
2099 0 88.1295 11.5739 1020 100.63 260.985 459.537
2100 0 91.1397 12.2669 1118 100.302 260.294 455.478
2101 0 94.1379 11.4831 1081 102.21 260.908 457.744
2102 0 96.2957 12.4201 1196 101.578 260.989 455.927
2103 0 101.173 12.4935 1264 101.097 261.271 452.279
2104 0 103.356 11.0008 1137 104.651 261.577 452.136
2105 0 108.416 11.8156 1281 102.941 261.237 449.198
2106 1 60.0986 9.46778 569 101.026 260.728 475.51
2107 0 63.1948 11.2509 711 100.232 261.215 473.664
2108 0 67.2515 11.2116 754 105.615 261.748 470.712
2109 0 68.1863 11.9965 818 103.043 262.079 470.548
2110 0 70.172 12.0703 847 100.033 260.752 469.104
2111 0 71.3352 12.0277 858 107.193 260.678 466.044
2112 0 74.2681 12.2664 911 107.366 260.789 469.083
2113 0 77.2088 13.0037 1004 106.096 260.475 466.478
2114 0 79.2047 11.868 940 108.547 261.224 465.949
2115 0 82.2254 11.9063 979 109.598 261.227 463.807
2116 0 86.2536 12.7879 1103 106.973 261.218 463.554
2117 0 87.2616 13.3965 1169 106.327 260.73 462.773
2118 0 87.236 11.509 1004 111.937 260.527 457.843
2119 0 92.1835 14.1891 1308 105.877 260.925 457.703
2120 0 95.1877 13.5207 1287 106.861 260.988 458.269
2121 0 97.3024 12.9493 1260 108.572 260.994 457.837
2122 0 100.169 13.7468 1377 108.238 260.574 454.117
2123 0 105.148 13.5333 1423 109.092 260.71 452.916
2124 0 108.172 14.7727 1598 106.966 260.742 452.274
2125 0 109.126 13.1958 1440 111.208 261.064 451.113
2126 0 115.166 14.9089 1717 106.39 260.947 448.351
2127 0 114.09 12.5165 1428 106.924 260.33 445.465
2128 0 119.271 13.1801 1572 105.564 260.759 445.695
2129 0 123.268 13.5802 1674 108.397 259.881 442.825
2130 1 67.2516 10.6763 718 106.815 261.092 473.067
2131 0 68.284 10.7785 736 108.079 261.217 469.471
2132 0 71.2363 11.6092 827 106.062 260.909 468.559
2133 0 74.137 12.0453 893 104.487 260.884 470.01
2134 0 78.1395 11.5563 903 104.772 262.019 469.034
2135 0 77.1407 10.941 844 108.675 261.114 466.705
2136 0 81.1467 11.966 971 106.152 260.706 466.02
2137 0 82.1255 12.1034 994 107.321 260.471 464.906
2138 0 86.1219 12.3081 1060 107.189 260.821 461.025
2139 0 87.1875 12.0545 1051 107.92 260.34 459.791
2140 0 92.2246 12.8924 1189 105.335 260.401 458.499
2141 0 94.1507 11.5135 1084 108.067 260.436 457.745
2142 0 100.26 12.697 1273 104.496 260.734 456.529
2143 0 101.201 12.7864 1294 105.713 260.927 454.174
2144 0 103.171 12.8815 1329 106.74 260.84 452.262
2145 0 108.253 12.1198 1312 108.234 260.274 452.809
2146 0 109.277 12.8023 1399 107.222 260.748 448.404
2147 0 113.21 13.1261 1486 107.096 260.489 444.745
2148 0 119.134 12.3727 1474 107.222 260.053 445.515
2149 0 121.163 12.8174 1553 108.042 260.577 443.6
2150 0 125.125 13.1388 1644 107.734 260.85 442.101
2151 1 69.1316 11.6734 807 102.881 261.586 469.424
2152 0 72.186 11.415 824 102.409 261.585 461.99
2153 0 71.1796 11.6185 827 102.94 261.213 466.63
2154 0 74.2041 13.4224 996 99.8484 260.575 466.626
2155 0 77.1425 11.4204 881 103.426 260.701 465.194
2156 0 79.1476 11.9776 948 102.268 262.089 464.361
2157 0 82.1066 13.044 1071 101.051 261.113 462.468
2158 0 84.1509 14.1056 1187 99.5139 261.493 460.249
2159 0 87.1043 14.3391 1249 99.9031 261.488 457.705
2160 0 90.1281 13.4253 1210 102.361 262.204 457.331
2161 0 90.122 11.0961 1000 109.601 261.52 455.629
2162 0 95.1497 13.0531 1242 105.506 261.953 456.064
2163 0 99.161 13.352 1324 104.603 261.714 455.265
2164 0 100.149 12.7411 1276 107.274 261.144 452.291
2165 0 106.301 14.0168 1490 103.321 261.323 450.421
2166 0 107.162 12.8404 1376 107.373 261.11 449.638
2167 0 108.241 12.8509 1391 110.036 260.59 446.418
2168 0 112.095 13.7116 1537 112.98 260.586 446.611
2169 0 116.077 13.4393 1560 113.866 260.62 446.921
2170 0 118.241 13.5317 1600 115.133 260.327 445.091
2171 0 123.253 13.9956 1725 113.846 259.114 443.178
2172 0 129.296 13.7978 1784 115.99 259.59 437.071
2173 0 136.286 13.3029 1813 114.794 260.245 437.911
2174 0 138.159 12.0586 1666 111.018 259.805 437.1
2175 0 144.284 12.7318 1837 109.512 259.65 435.527
2176 0 149.138 12.6595 1888 110.678 260.495 427.702
2177 0 155.201 12.2164 1896 112.671 260.262 428.627
2178 1 83.0623 11.1723 928 108.872 260.566 462.72
2179 0 84.1159 11.2107 943 109.581 261.509 457.773
2180 0 88.2071 11.9151 1051 108.168 261.186 454.508
2181 0 90.2656 12.9507 1169 105.396 259.783 458.612
2182 0 93.0685 13.7211 1277 104.57 258.59 454.648
2183 0 95.3874 12.4545 1188 106.397 259.503 454.465
2184 0 99.2792 11.9663 1188 107.562 259.756 454.678
2185 0 100.261 11.3703 1140 109.505 259.827 451.77
2186 0 106.369 12.6823 1349 105.878 259.915 451.211
2187 0 109.35 12.6749 1386 106.102 259.835 447.136
2188 0 113.341 12.7844 1449 106.41 259.524 446.355
2189 0 115.292 13.2273 1525 109.768 260.35 443.306
2190 0 117.323 12.4783 1464 111.691 260.336 444.068
2191 0 123.519 13.4231 1658 109.516 260.366 441.219
2192 0 127.592 12.5321 1599 111.897 260.148 440.496
2193 0 130.476 11.6113 1515 115.039 260.164 435.174
2194 0 135.535 12.2477 1660 113.528 260.77 435.964
2195 0 138.467 12.5373 1736 113.512 260.827 433.638
2196 0 141.48 12.9488 1832 114.539 260.681 432.304
2197 0 144.344 13.4955 1948 114.12 260.691 430.255
2198 0 149.436 11.6973 1748 117.305 261.108 430.911
2199 0 158.335 11.9304 1889 117.327 260.213 428.825
2200 0 161.372 12.6788 2046 117.279 260.58 425.626
2201 0 166.398 13.4918 2245 116.616 259.948 423.47
2202 0 172.343 12.9974 2240 110.872 259.542 421.976
2203 0 177.385 12.6561 2245 112.109 260.311 419.63
2204 0 182.348 13.1781 2403 112.286 260.315 414.121
2205 0 188.428 12.461 2348 114.692 260.572 411.408
2206 0 194.371 13.8035 2683 111.829 260.189 408.656
2207 0 201.348 12.7192 2561 114.706 260.55 408.791
2208 0 209.308 12.1782 2549 115.898 261.04 405.187
2209 1 50.0536 11.3878 570 102.986 262.37 481.463
2210 0 51.0376 11.5993 592 105.003 261.715 478.074
2211 0 49.0514 9.74488 478 106.393 262.521 475.667
2212 0 52.0599 8.62468 449 99.392 260.791 472.492
2213 0 53.0601 9.10289 483 98.7122 260.408 472.696
2214 0 53.0783 8.40268 446 101.675 259.989 467.982
2215 0 57.0775 8.25193 471 100.837 259.599 472.138
2216 0 59.0547 9.4658 559 97.7657 259.792 472.286
2217 0 62.0615 9.70005 602 97.9701 259.38 470.439
2218 0 63.0578 9.1979 580 101.164 260.226 467.797
2219 0 66.0329 9.35897 618 101.086 259.654 467.608
2220 0 67.0867 8.34741 560 103.821 259.666 466.623
2221 0 70.0851 8.47541 594 104.702 259.051 468.35
2222 0 74.2068 10.6594 791 105.067 259.541 468.099
2223 0 78.1926 10.7043 837 104.55 258.514 468.297
2224 1 28.0518 8.12781 228 99.1404 258.518 491.206
2225 0 28.2498 9.52221 269 100.208 259.933 491.093
2226 0 29.2397 9.02881 264 101.557 259.545 489.92
2227 0 29.0764 10.2489 298 100.577 259.477 491.607
2228 0 28.2253 9.53046 269 103.691 259.193 491.699
2229 0 32.1106 10.059 323 102.102 258.087 489.099
2230 0 32.0743 9.82095 315 103.648 258.149 488.276
2231 0 33.0256 9.29582 307 106.339 257.524 490.147
2232 0 33.0975 10.6655 353 104.782 258.371 490.83
2233 0 34.0707 11.3 385 104.847 258.41 489.694
2234 0 33.0243 11.9912 396 104.793 259.265 489.571
2235 0 32.1208 10.5851 340 109.088 259.309 491.356
2236 0 34.0391 10.958 373 110.606 258.866 490.048
2237 0 34.0344 11.8116 402 108.791 258.96 491.149
2238 0 35.0603 11.1522 391 111.197 259.12 490.445
2239 0 35.1735 13.0496 459 106.523 260.015 490.915
2240 0 36.1614 11.0892 401 110.703 260.057 492.534
2241 0 34.2537 11.3856 390 114.756 259.021 490.687
2242 0 45.0267 14.6135 658 90.4863 258.638 484.612
2243 0 47.0274 17.9257 843 82.9964 258.975 485.314
2244 0 44.1247 19.0143 839 82.8308 258.318 483.502
2245 0 45.0429 16.4954 743 89.9812 257.993 486.948
2246 0 44.0474 15.6195 688 93.1395 258.48 489.18
2247 0 43.0733 18.5498 799 88.5432 258.219 487.293
2248 0 42.087 15.8006 665 96.2226 258.173 487.854
2249 0 40.0945 14.9896 601 101.23 258.378 488.882
2250 0 39.0296 13.3232 520 108.96 258.84 489.033
2251 0 37.0828 12.2698 455 115.193 258.541 490.284
2252 0 36.1424 12.6721 458 115.216 259.38 490.26
2253 0 37.0474 12.0656 447 116.913 259.494 490.488
2254 0 39.1427 12.365 484 113.589 259.264 490.851
2255 0 38.1151 11.7801 449 115.724 259.316 490.759
2256 0 39.0411 13.2424 517 112.238 259.255 490.017
2257 0 38.0773 14.4968 552 109.594 259.527 490.623
2258 0 35.1454 11.2959 397 122.332 259.234 491.698
2259 0 38.1873 11.6793 446 118.182 259.601 493.361
2260 0 36.3222 12.4717 453 118.634 260.313 492.446
2261 0 36.5169 12.0766 441 119.46 260.306 492.209
2262 0 35.4086 12.9912 460 116.104 259.98 493.778
2263 0 37.0866 11.5675 429 118.841 257.515 497.329
2264 0 38.0159 12.4158 472 118.718 257.816 497.028
2265 0 38.0813 12.0532 459 119.553 256.941 497.983
2266 0 37.1021 11.9131 442 120.296 256.796 499.758
2267 0 38.1186 11.2806 430 120.923 256.879 500.691
2268 0 40.0904 13.9186 558 114.133 256.152 499.776
2269 0 38.0712 11.8725 452 118.719 256.031 502.858
2270 0 38.07 13.4752 513 115.374 256.168 501.967
2271 0 40.081 12.2253 490 117.273 255.773 502.041
2272 0 38.0623 12.7685 486 116.43 256.179 503.377
