time division length width area intensity CMx CMy
2226 0 70.082 11.0727 776 121.994 562.423 375.41
2227 0 73.0559 12.0045 877 118.868 562.166 375.269
2228 0 73.1232 11.5285 843 121.603 562.145 370.063
2229 0 77.1051 13.0601 1007 116.518 562.197 369.655
2230 0 80.1323 12.6541 1014 116.985 562.02 366.825
2231 0 83.1115 12.3208 1024 118.027 561.505 366.432
2232 0 83.1539 11.4727 954 120.227 562.138 368.723
2233 0 88.0823 11.4211 1006 116.589 562.194 364.275
2234 0 90.0843 12.0887 1089 118.463 563.185 363.936
2235 1 47.0754 10.8549 511 107.477 562.853 383.926
2236 0 50.0637 9.8874 495 108.99 563.156 386.58
2237 0 50.0676 10.9052 546 107.449 562.901 382.579
2238 0 52.1568 11.8105 616 104.333 563.326 382.687
2239 0 52.1308 11.2793 588 106.752 563.522 379.878
2240 0 54.0998 10.9427 592 107.321 563.123 380.304
2241 0 54.1118 10.8479 587 108.804 562.44 380.121
2242 0 56.0565 11.6668 654 106.118 562.758 380.436
2243 0 58.1402 11.5927 674 106.81 563.028 379.662
2244 0 58.1398 11.1627 649 109.296 562.484 378.442
2245 0 58.1398 11.1283 647 141.94 562.481 378.451
2246 0 62.056 11.6669 724 107.711 562.706 376.946
2247 0 65.1527 12.3095 802 107.489 562.419 375.603
2248 0 67.1023 13.1441 882 106.645 562.396 374.366
2249 0 69.034 12.1969 842 108.499 562.264 374.38
2250 0 72.0556 13.2537 955 107.142 562.98 375.394
2251 0 72.1726 11.8328 854 117.677 562.628 375.992
2252 0 75.1273 12.4189 933 110.049 562.647 371.912
2253 0 78.1141 11.8288 924 111.264 562.848 371.132
2254 0 81.1022 13.8221 1121 107.547 562.958 368.923
2255 0 82.0661 13.7328 1127 110.587 562.791 367.651
2256 0 84.1936 12.9701 1092 118.339 562.781 371.799
2257 0 86.2003 13.167 1135 119.71 562.819 361.767
2258 0 90.151 13.2999 1199 119.269 562.474 365.124
2259 0 93.2244 13.9127 1297 117.944 562.682 366.645
2260 0 97.1903 14.4562 1405 116.918 563.258 369.581
2261 0 98.1444 14.4481 1418 117.735 562.391 365.902
2262 0 98.1602 14.4763 1421 153.55 561.386 365.913
2263 1 50.0678 11.9638 599 110.983 560.94 386.917
2264 0 49.0358 11.3387 556 115.077 561.727 387.903
2265 0 50.0677 11.2648 564 115.197 560.704 389.598
2266 0 50.0677 11.2648 564 143.179 559.688 389.745
2267 0 52.0482 10.9322 569 116.322 560.545 389.276
2268 0 55.1154 11.8842 655 114.402 559.913 391.664
2269 0 58.0496 12.2826 713 111.746 559.673 397.436
2270 0 60.0442 11.6248 698 113.085 560.032 391.865
2271 0 61.0943 12.407 758 112.848 559.5 394.177
2272 0 61.066 12.1999 745 114.94 560.028 393.601
2273 0 64.0935 12.3726 793 113.81 559.965 385.296
2274 0 66.054 12.4898 825 114.118 559.852 381.461
2275 0 69.1023 11.2297 776 115.555 559.572 386.64
2276 0 71.0598 12.0462 856 114.129 559.432 390.53
2277 0 70.1305 10.3664 727 118.171 558.849 390.168
2278 0 76.0639 12.2923 935 112.833 558.944 388.419
2279 0 79.1523 12.3686 979 115.037 558.358 374.156
2280 1 43.041 9.36316 403 114.725 557.63 395.02
2281 0 43.0496 10.9873 473 112.442 557.632 393.892
2282 0 46.1125 12.1442 560 109.25 557.805 397.762
2283 0 47.0689 11.4513 539 112.254 557.295 399.206
2284 0 47.0328 11.1624 525 113.77 556.735 395.891
2285 0 50.0746 12.2617 614 111.106 556.919 388.124
2286 0 52.0535 11.7763 613 112.214 556.721 387.139
2287 0 52.0886 11.6724 608 113.446 556.928 387.35
2288 0 55.0492 13.17 725 110.423 556.617 386.834
2289 0 55.0656 12.4215 684 112.915 556.039 388.389
2290 0 59.0357 11.7217 692 113.915 556.639 388.863
2291 0 59.0249 12.4015 732 115.105 556.477 390.466
2292 0 61.0947 11.654 712 117.136 557.319 394.906
2293 0 63.0613 12.5592 792 115.682 556.434 395.326
2294 0 65.1512 12.3252 803 116.178 557.002 393.253
2295 0 69.0827 12.941 894 114.22 557.341 393.661
2296 0 69.0621 12.2788 848 117.633 557.644 392.871
2297 0 73.1127 12.7064 929 116.479 557.757 391.904
2298 0 76.0892 14.3647 1093 114.895 556.837 377.218
2299 0 80.1059 13.8941 1113 117.051 556.555 377.473
2300 0 81.0839 13.6649 1108 112.554 556.572 382.525
2301 0 83.1508 13.0366 1084 114.637 557.515 383.58
2302 0 89.1612 12.225 1090 123.317 556.939 384.254
2303 0 89.0984 12.9071 1150 124.05 556.571 382.734
2304 0 93.1472 13.7954 1285 116.708 556.281 371.767
2305 0 94.0913 13.4975 1270 118.424 556.946 370.715
2306 1 50.1321 10.5521 529 120.773 556.448 395.915
2307 0 54.0274 12.4011 670 117.121 556.096 400.394
2308 0 54.0873 11.4075 617 121.938 555.908 399.06
2309 0 55.0175 11.1056 611 117.763 556.062 391.316
2310 0 58.0745 13.3449 775 119.234 556.09 393.685
2311 0 61.0206 12.9628 791 119.426 555.631 388.966
2312 0 63.062 12.7335 803 120.197 556.182 388.379
2313 0 66.0282 13.9486 921 118.157 556.199 385.846
2314 0 66.042 11.9318 788 123.353 556.382 389.15
2315 0 70.047 12.563 880 122.161 556.472 391.46
2316 0 72.123 13.2135 953 122.159 556.556 391.654
2317 0 75.0702 13.9869 1050 120.895 556.38 388.961
2318 0 78.0976 12.5868 983 124.002 556.594 389.422
2319 0 81.0518 12.967 1051 123.069 556.391 388.431
2320 0 83.09 12.9258 1074 124.234 556.154 378.195
2321 0 87.1687 13.6402 1189 122.604 556.724 374.749
2322 0 88.1278 12.8904 1136 124.845 556.953 376.852
2323 0 90.3369 12.8076 1157 124.65 557.663 379.685
2324 0 94.2424 12.6058 1188 124.292 556.86 380.479
2325 0 93.1779 11.8268 1102 131.258 556.809 380.055
2326 1 52.0692 12.1569 633 120.731 556.788 394.613
2327 0 53.1126 11.2591 598 123.676 556.771 395.069
2328 0 52.0118 10.7091 557 126.828 556.585 396.82
2329 0 57.1141 12.2737 701 122.362 556.579 394.954
2330 0 56.0531 11.0253 618 126.998 556.85 387.175
2331 0 60.0481 10.7081 643 126.936 557.058 388.568
2332 0 61.1166 12.1898 745 123.53 556.745 389.666
2333 0 62.2033 12.009 747 123.696 557.351 384.248
2334 0 65.0555 11.2673 733 125.394 557.105 382.357
2335 0 67.1397 12.0197 807 124.219 556.836 383.715
2336 0 70.2744 12.6789 891 123.199 557.213 384.852
2337 0 72.1674 12.277 886 124.723 557.702 383.922
2338 0 73.1998 11.1066 813 128.501 557.455 385.36
2339 0 77.1784 12.3869 956 124.667 557.93 372.581
2340 0 78.1655 10.8232 846 128.642 558.291 374.217
2341 0 83.1497 12.3031 1023 127.271 557.747 377.256
2342 1 47.0601 9.98722 470 119.811 557.657 397.015
2343 0 46.0438 10.3163 475 122.907 557.707 392.156
2344 0 49.0199 11.4443 561 121.717 557.351 395.503
2345 0 52.0177 13.0725 680 117.815 557.025 387.679
2346 0 51.0307 12.1299 619 122.359 557.861 386.297
2347 0 54.034 12.4366 672 120.732 557.219 384.894
2348 0 55.0567 13.4225 739 118.605 557.223 387.016
2349 0 58.1112 12.7858 743 119.011 558.172 387.211
2350 0 58.0553 12.712 738 120.424 557.981 382.568
2351 0 58.0625 12.6588 735 137.431 557.996 382.608
2352 0 59.0557 11.7347 693 125.704 558.271 377.075
2353 0 63.2131 12.972 820 121.927 558.555 376.744
2354 0 63.2186 12.1167 766 124.638 558.678 379.542
2355 0 67.1105 12.7104 853 122.039 558.669 380.911
2356 0 70.1148 12.779 896 122.154 558.912 382.81
2357 0 71.1597 12.8162 912 123.675 559.133 371.503
2358 0 72.1601 12.5 902 125.096 559.578 375.96
2359 0 77.2696 12.9676 1002 123.083 560.448 377.281
2360 0 80.2564 12.8588 1032 124.101 559.983 373.722
2361 0 82.2586 11.6827 961 127.463 560.661 366.077
2362 0 85.225 12.2851 1047 126.432 559.913 364.285
2363 1 43.065 11.5639 498 115.857 560.422 389.954
2364 0 45.0405 9.87999 445 120.252 560.616 393
2365 0 43.0363 10.2239 440 124.684 560.323 392.759
2366 0 46.0778 11.6325 536 117.59 560.785 382.369
2367 0 48.0464 12.7793 614 114.046 560.565 381.66
2368 0 49.03 11.4624 562 118.776 559.726 384.79
2369 0 52.0273 12.282 639 114.765 559.864 389.674
2370 0 51.0442 11.6174 593 116.894 560.627 390.885
2371 0 52.1144 11.4172 595 117.534 561.045 389.721
2372 0 55.0131 11.9608 658 117.102 561.126 379.635
2373 0 56.0922 11.5881 650 118.668 560.942 378.042
2374 0 60.0469 12.7234 764 114.082 561.183 377.721
2375 0 59.0443 11.9233 704 117.852 560.827 376.838
2376 0 63.0336 12.2633 773 116.133 560.974 375.441
2377 0 63.0803 13.0469 823 117.156 560.451 381.56
2378 0 65.0467 11.3457 738 120.191 561.501 380.48
2379 0 68.2306 12.4871 852 117.651 560.739 381.447
2380 0 71.0353 11.3324 805 116.947 560.508 380.376
2381 0 74.1418 13.1505 975 114.575 561.305 368.821
2382 0 77.0506 12.1479 936 116.751 561.057 368.753
2383 0 79.0678 13.9248 1101 114.725 560.838 367.589
2384 0 82.2009 13.5765 1116 118.317 561.474 371.392
2385 0 83.2061 12.3909 1031 121.552 561.589 373.109
2386 0 86.1961 12.1583 1048 123.37 561.318 370.068
2387 1 45.0439 10.2789 463 115.624 561.123 382.888
2388 0 49.0792 10.5544 518 116.359 560.958 383.456
2389 0 48.0476 10.9059 524 114.557 561.021 385.714
2390 0 48.0318 11.3883 547 114.146 561.397 389.077
2391 0 51.0775 12.4517 636 111.832 561.215 380.615
2392 0 54.0639 10.9315 591 114.029 561.399 379.914
2393 0 55.0295 12.5569 691 109.641 560.722 380.376
2394 0 57.0623 12.1271 692 110.301 561.254 378.913
2395 0 58.0844 11.8621 689 112.119 560.675 377.235
2396 0 60.0561 13.1211 788 107.901 561.065 379.933
2397 0 61.0949 13.2581 810 108.08 560.469 383.095
2398 0 64.0655 12.5184 802 108.502 561.137 383.06
2399 0 66.0361 12.2054 806 107.89 560.445 380.993
2400 0 68.0315 10.8185 736 110.677 560.901 381.837
2401 0 70.084 11.9428 837 108.726 560.921 372.805
2402 0 71.0242 10.5175 747 112.427 560.993 369.462
2403 0 75.0957 10.9727 824 110.714 561.471 369.869
2404 0 78.0462 11.916 930 108.095 560.831 373.297
2405 0 80.1682 12.4364 997 106.318 561.575 372.098
2406 0 84.0545 13.0035 1093 105.533 561.443 362.154
2407 0 87.0904 12.2861 1070 106.552 561.179 365.802
2408 0 89.0325 11.2206 999 108.637 561.32 363.719
2409 0 93.1464 12.2817 1144 106.8 561.766 360.416
2410 1 50.0451 9.8711 494 105.909 561.684 387.318
2411 0 52.0177 11.7652 612 103.982 560.908 387.812
2412 0 56.037 12.9022 723 101.636 560.6 377.678
2413 0 55.0668 11.3135 623 105.748 561.414 381.095
2414 0 57.1429 11.2 640 105.248 561.505 377.637
2415 0 57.0519 10.4817 598 107.446 561.602 375.888
2416 0 62.0585 12.1015 751 103.589 561.586 375.28
2417 0 61.0521 9.69663 592 109.73 560.632 371.932
2418 0 66.0229 12.011 793 104.637 560.837 373.575
2419 0 68.0882 12.3957 844 103.857 561.341 376.571
2420 0 70.0735 10.4747 734 108.184 561.541 379.099
2421 0 74.1799 11.0946 823 107.727 561.317 375.938
2422 0 75.23 11.6177 874 107.467 561.016 379.658
2423 0 80.0916 11.6117 930 108.083 561.78 365.562
2424 0 83.068 13.1459 1092 105.141 561.088 365.166
2425 0 85.1063 12.6783 1079 107.277 561.295 363.164
2426 0 88.0532 12.8218 1129 106.613 561.923 367.101
2427 0 91.0942 13.1732 1200 106.392 561.867 369.524
2428 0 93.0605 12.4005 1154 110.198 561.399 366.178
2429 1 50.0751 9.96504 499 108.609 560.85 381.715
2430 0 50.0231 9.87543 494 113.879 560.998 378.54
2431 0 54.0143 11.0897 599 106.179 561.689 380.684
2432 0 54.0535 9.8421 532 109.891 561.585 387.154
2433 0 55.1327 10.0122 552 112.208 561.279 386.889
2434 0 58.0599 12.0393 699 107.574 561.207 383.229
2435 0 60.0373 11.6761 701 108.469 561.193 377.531
2436 0 60.0373 11.6761 701 128.351 561.201 377.612
2437 0 65.0721 12.4938 813 107.199 561.392 374.851
2438 0 68.1164 11.8033 804 108.347 561.266 375.21
2439 0 69.084 12.1446 839 108.383 561.67 376.428
2440 0 70.0666 13.8725 972 106.538 561.213 377.738
2441 0 70.0479 10.5356 738 114.153 561.564 378.198
2442 0 76.0261 12.9298 983 108.43 561.973 378.038
2443 0 78.0765 12.2572 957 109.876 562.349 378.115
2444 0 83.1017 13.5978 1130 107.241 562.34 369.125
2445 0 84.0386 12.1016 1017 112.165 562.143 366.055
2446 0 87.0798 12.8847 1122 111.063 561.763 365.065
2447 0 89.0748 11.5072 1025 114.734 561.844 370.603
2448 0 92.1307 12.5474 1156 114.394 561.626 369.685
2449 0 97.0615 13.4863 1309 112.801 561.209 358.289
2450 0 98.0469 13.2896 1303 114.137 561.218 357.07
2451 0 102.116 12.7012 1297 113.965 561.428 358.917
2452 1 54.0264 11.8461 640 110.555 560.359 386.702
2453 0 55.048 12.4255 684 109.501 561.023 386.636
2454 0 55.0326 11.5931 638 109.24 561.361 377.865
2455 0 56.026 11.6017 650 110.008 562.271 377.083
2456 0 60.022 12.2289 734 108.202 561.604 375.557
2457 0 60.0402 12.3584 742 108.535 561.554 373.771
2458 0 64.0701 13.4384 861 106.324 561.819 374.825
2459 0 64.0372 12.5708 805 113.503 561.229 378.573
2460 0 67.1058 13.7991 926 111.301 561.461 380.42
2461 0 69.1593 13.9967 968 110.675 561.529 378.373
2462 0 70.18 13.0664 917 112.992 562.18 380.16
2463 0 75.0653 13.3883 1005 111.239 561.817 373.603
2464 0 75.072 12.801 961 113.797 561.217 372.355
2465 0 77.0442 14.615 1126 109.866 561.057 367.303
2466 0 79.0771 11.8239 935 116.797 562.034 370.632
2467 0 81.0903 14.2064 1152 112.571 561.631 372.242
2468 0 82.0792 12.9387 1062 115.239 561.68 373.932
2469 0 86.083 12.6157 1086 115.997 562.377 373.959
2470 0 88.132 14.4556 1274 113.407 561.906 362.141
2471 0 90.1327 12.3485 1113 118.898 561.313 364.104
2472 0 94.1189 12.6542 1191 113.425 561.658 368.978
2473 0 96.0996 11.9355 1147 117.523 561.563 365.316
2474 1 48.0655 10.5897 509 110.473 561.544 384.546
2475 0 51.0635 13.0034 664 106.236 561.339 379.503
2476 0 54.0607 14.1508 765 102.073 561.97 377.132
2477 0 56.0732 12.8047 718 105.655 562.43 376.957
2478 0 57.0843 13.2961 759 107.638 562.256 375.503
2479 0 57.0365 12.6936 724 108.564 562.463 376.764
2480 0 61.0643 12.9208 789 108.504 562.321 374.204
2481 0 61.0831 11.4925 702 111.977 562.134 372.473
2482 0 65.0583 14.1719 922 105.413 562.151 376.139
2483 0 65.0528 12.0518 784 110.196 561.917 379.02
2484 0 67.0498 12.6324 847 109.9 561.684 373.719
2485 0 70.1087 13.1367 921 107.818 562.116 368.333
2486 0 73.0639 12.5096 914 108.872 561.87 369.034
2487 0 75.1851 11.9306 897 110.108 561.92 367.721
2488 0 77.1549 13.4146 1035 107.129 561.797 371.657
2489 0 81.188 12.8837 1046 107.732 561.873 374.406
2490 0 81.066 12.4467 1009 109.704 562.199 370.129
2491 0 85.1049 13.1015 1115 107.615 562.453 357.245
2492 0 88.151 13.1365 1158 108.411 562.427 356.108
2493 0 92.1821 13.9723 1288 107.033 562.18 356.214
2494 0 94.1903 13.3453 1257 109.206 561.748 347.949
2495 0 98.0691 13.1234 1287 110.628 561.497 342.281
2496 1 53.1643 12.2074 649 102.68 561.217 367.479
2497 0 53.0848 11.3027 600 105.212 561.252 367.123
2498 0 57.0359 12.4132 708 101.299 561.045 378.131
2499 0 57.0474 11.6219 663 107.689 560.65 377.451
2500 0 59.026 12.2319 722 107.093 560.841 376.525
2501 0 60.0505 11.5236 692 109.595 561.207 377.426
2502 0 63.0349 13.4529 848 104.908 560.84 383.218
2503 0 64.0678 11.7844 755 110.967 560.862 380.012
2504 0 68.0843 11.9264 812 109.788 561.028 379.748
2505 0 69.0382 12.1382 838 111.79 560.967 377.785
2506 0 74.0391 13.1282 972 108.835 561.065 370.774
2507 0 74.1019 12.105 897 113.03 560.886 370.525
2508 0 77.11 13.7596 1061 111.304 561.43 364.975
2509 0 79.131 13.1048 1037 112.896 561.512 371.76
2510 0 81.1474 11.8673 963 116.859 561.165 373.29
2511 0 86.1552 13.4989 1163 113.449 561.629 371.091
2512 0 87.1313 10.685 931 121.027 561.338 363.218
2513 0 89.159 11.014 982 123.067 560.91 358.849
2514 0 94.1847 13.293 1252 117.911 561.203 357.744
2515 0 97.147 13.1656 1279 118.009 561.465 364.228
2516 0 99.2362 13.1001 1300 119.845 561.138 364.188
2517 1 52.0696 11.8495 617 113.368 560.82 389.245
2518 0 54.0582 11.9686 647 113.668 561.215 377.866
2519 0 58.0732 13.9307 809 107.366 561.53 377.761
2520 0 59.0607 12.1909 720 113.307 561.389 377.111
2521 0 61.0268 13.3876 817 111.869 561.758 375.126
2522 0 64.0371 12.9925 832 115.492 561.308 376.161
2523 0 65.0494 12.7288 828 119.516 561.617 381.417
2524 0 66.0197 13.0719 863 122.246 560.964 379.936
2525 0 70.1098 13.2792 931 120.42 561.223 376.436
2526 0 70.0431 13.4203 940 122.876 561.393 376.98
2527 0 74.0742 13.122 972 122.526 561.531 377.782
2528 0 74.1076 13.1835 977 124.67 561.881 375.341
2529 0 77.1486 13.0398 1006 122.937 562.632 366.975
2530 0 80.1144 13.6555 1094 124.23 563.013 363.721
2531 0 81.1455 13.1985 1071 126.787 562.427 364.301
2532 0 85.1454 13.7647 1172 124.345 562.782 368.254
2533 0 86.0805 12.4418 1071 128.385 563.314 367.53
2534 0 90.1249 11.8502 1068 129.004 562.242 366.637
2535 1 46.066 10.3547 477 120.258 562.084 388.294
2536 0 48.0378 11.7199 563 114.885 563.542 384.247
2537 0 49.0913 12.1814 598 116.878 563.348 380.783
2538 0 49.1134 10.3027 506 119.925 562.747 384.372
2539 0 51.0349 11.7958 602 117.475 562.52 384.259
2540 0 51.0346 11.2081 572 118.748 562.033 378.734
2541 0 51.0224 11.6028 592 119.926 562.336 373.448
2542 0 56.0196 12.5849 705 116.182 562.261 373.078
2543 0 57.0707 11.6873 667 118.229 562.138 372.645
2544 0 60.0852 12.449 748 115.956 562.469 372.269
2545 0 60.0642 12.2869 738 118.042 562.652 376.432
2546 0 63.1316 12.2601 774 117.235 562.714 380.256
2547 0 64.0908 11.9674 767 119.937 562.498 379.662
2548 0 66.0364 12.69 838 118.465 562.854 377.763
2549 0 68.0416 11.4489 779 120.575 563.039 379.071
2550 0 71.1623 12.1694 866 119.851 562.642 377.503
2551 0 75.1438 13.5074 1015 122.376 562.158 361.638
2552 0 77.184 13.9019 1073 122.299 562.673 361.531
2553 0 80.1845 13.4814 1081 122.762 562.724 366.216
2554 0 81.1537 12.4825 1013 123.162 562.539 368.956
2555 0 85.1249 14.2027 1209 117.412 561.963 368.884
2556 0 87.0629 13.7027 1193 119.213 562.386 367.346
2557 0 86.0755 13.2326 1139 143.31 562.331 366.445
2558 0 92.1692 12.5204 1154 124.549 561.878 354.802
2559 0 97.1201 13.4679 1308 120.901 562.329 359.526
2560 1 51.0396 12.265 626 116.428 562.225 386.879
2561 0 51.0864 12.3516 631 116.506 562.995 386.417
2562 0 53.066 12.1358 644 116.455 562.947 378.769
2563 0 55.0311 12.9381 712 115.104 562.698 375.493
2564 0 57.1416 13.0553 746 115.714 562.851 373.101
2565 0 60.076 13.7493 826 114.303 563.369 372.758
2566 0 61.0895 12.0479 736 118.796 562.688 378.75
2567 0 62.0888 12.8848 800 118.317 562.684 380.55
2568 0 65.1164 12.7157 828 118.461 562.36 382.198
2569 0 67.1309 12.5576 843 120.396 562.37 380.716
2570 0 70.0653 12.4741 874 121.074 562.652 378.251
2571 0 72.0944 14.592 1052 116.821 562.372 376.613
2572 0 75.0822 13.2388 994 120.484 562.847 368.282
2573 0 78.0945 13.1763 1029 120.022 563.272 369.512
2574 0 79.1667 12.6947 1005 123.261 563.151 371.09
2575 0 81.168 12.4556 1011 123.441 562.978 374.254
2576 0 84.16 13.4862 1135 119.882 563.258 374.58
2577 0 85.1331 13.0619 1112 121.987 563.071 371.286
2578 0 90.1798 13.8723 1251 121.146 562.424 361.782
2579 0 94.1557 14.2424 1341 118.471 562.667 364.391
2580 0 95.2048 12.5729 1197 123.893 562.35 365.424
2581 0 99.1537 13.7363 1362 120.401 562.617 365.852
2582 1 52.036 10.8194 563 125.535 561.282 380.753
2583 0 52.029 10.8786 566 159.726 560.286 380.841
2584 0 54.0944 12.8479 695 122.273 563.017 374.212
2585 0 58.1349 12.7634 742 121.387 562.443 372.903
2586 0 58.1775 12.6509 736 124.198 562.442 371.186
2587 0 60.2821 13.2544 799 122.909 562.782 370.227
2588 0 62.1542 13.2091 821 117.663 562.994 374.275
2589 0 63.1904 12.2645 775 121.871 562.484 377.812
2590 0 68.18 13.5964 927 117.812 562.708 373.543
2591 0 68.0846 13.542 922 119.811 562.659 375.414
2592 0 72.1217 14.3785 1037 116.861 562.156 372.751
2593 0 75.1278 13.3373 1002 120.952 562.62 365.028
2594 0 77.1033 14.0331 1082 120.623 562.078 362.222
2595 0 78.1967 13.773 1077 122.049 562.43 364.895
2596 0 80.1384 13.8635 1111 122.591 562.2 369.037
2597 0 82.1012 12.5577 1031 127.49 562.657 370.793
2598 0 85.1823 12.7256 1084 126.402 562.634 370.558
2599 0 89.1534 14.447 1288 123.278 563.095 367.473
2600 1 47.0707 11.2809 531 120.838 562.296 382.601
2601 0 48.0452 11.9055 572 119.474 563.075 380.245
2602 0 50.0699 11.5439 578 118.806 562.561 381.708
2603 0 52.0412 11.9905 624 112.388 563.011 379.449
2604 0 53.1195 13.3284 708 109.883 563.28 378.999
2605 0 54.1144 11.8453 641 113.992 563.573 378.697
2606 0 55.0412 11.9547 658 116.272 563.074 376.257
2607 0 56.1061 12.2447 687 115.604 563.416 375
2608 0 58.0866 13.4627 782 112.477 563.454 372.821
2609 0 59.0638 12.2918 726 116.902 563.851 374.208
2610 0 61.1573 14.2093 869 111.471 564.094 377.681
2611 0 64.1387 13.7826 884 112.545 563.88 380.738
2612 0 66.078 12.8333 848 116.953 563.392 379.948
2613 0 67.2589 12.3404 830 123.964 563.97 380.934
2614 0 68.2057 11.4507 781 126.594 563.983 381.38
2615 0 72.1127 13.6592 985 121.431 563.745 379.096
2616 0 72.2125 12.7263 919 125.506 563.835 373.443
2617 0 74.2243 12.9068 958 125.877 563.909 372.244
2618 0 77.0891 13.1406 1013 125.793 563.405 375.05
2619 0 79.0911 13.9459 1103 126.41 563.537 375.1
2620 0 80.1097 12.4205 995 128.695 563.197 374.826
2621 0 86.0855 11.8603 1021 129.187 563.071 376.825
2622 0 89.1303 13.3849 1193 126.473 563.394 371.98
2623 0 90.1375 13.2464 1194 121.623 562.704 360.671
2624 0 91.0766 12.5499 1143 129.74 563.13 364.904
2625 0 97.1285 14.3315 1392 123.5 563.196 368.966
2626 0 97.2289 14.255 1386 126.072 562.866 366.576
2627 0 101.09 13.8095 1396 126.745 563.1 355.766
2628 0 105.102 13.8151 1452 125.152 562.739 362.134
2629 0 110.085 15.2973 1684 122.964 562.645 351.157
2630 0 114.125 14.2913 1631 124.322 563.193 350.668
2631 0 116.115 14.6407 1700 122.271 562.435 352.179
2632 0 122.121 14.1254 1725 124.758 562.259 350.151
2633 0 125.107 13.5564 1696 126.706 562.324 353.7
2634 1 69.0202 12.8658 888 122.092 561.663 383.936
2635 0 71.044 12.992 923 121.207 561.332 378.339
2636 0 74.0707 12.2991 911 123.246 561.124 382.561
2637 0 75.0944 11.4922 863 125.292 560.687 381.213
2638 0 78.1242 13.1841 1030 114.416 561.098 372.904
2639 0 82.0435 12.8712 1056 114.359 561.379 372.601
2640 0 83.0725 12.6516 1051 116.575 561.26 370.528
2641 0 85.1467 13.189 1123 116.55 561.262 371.219
2642 0 89.1179 12.5003 1114 117.23 561.95 375.197
2643 0 91.0516 13.2892 1210 116.146 561.116 374.955
2644 0 96.173 14.266 1372 113.586 561.012 371.06
2645 0 98.0712 12.8274 1258 119.187 561.188 359.493
2646 0 103.108 13.0349 1344 116.603 561.007 368.125
2647 0 102.069 11.1983 1143 122.206 561.104 365.262
2648 0 108.093 12.4892 1350 119.479 560.95 360.433
2649 0 112.172 13.7022 1537 116.599 561.094 353.96
2650 0 117.07 13.6841 1602 116.755 560.785 352.994
2651 0 120.171 13.8386 1663 117.86 561.204 349.476
2652 0 125.119 13.7309 1718 118.773 561.315 349.271
2653 0 129.137 13.2805 1715 120.415 560.104 345.496
2654 0 133.163 12.7588 1699 121.215 560.296 344.284
2655 0 133.159 12.8418 1710 149.556 560.278 344.249
2656 1 88.0991 12.6789 1117 117.571 560.56 371.447
2657 0 89.1346 12.7111 1133 118.067 560.162 373.587
2658 0 92.1517 13.5971 1253 115.583 560.379 374.877
2659 0 96.0504 13.0869 1257 117.795 560.082 363.854
2660 0 99.0862 13.9172 1379 115.724 560.012 361.603
2661 0 101.148 12.7635 1291 117.822 559.894 364.382
2662 0 105.177 12.731 1339 118.082 560.357 367.252
2663 0 106.071 12.4351 1319 118.487 560.704 370.668
2664 0 112.093 11.8919 1333 121.536 560.525 351.722
2665 0 119.114 12.2152 1455 118.574 560.781 352.253
2666 0 121.198 12.3682 1499 118.018 560.646 354.771
2667 1 66.0585 11.9591 790 114.722 560.143 380.763
2668 0 69.0781 12.7392 880 113.01 560.356 381.999
2669 0 68.0812 11.5597 787 117.625 560.24 374.755
2670 0 73.0841 12.2872 898 114.671 560.768 374.461
2671 0 76.1279 12.7154 968 113.981 560.278 372.47
2672 0 77.0435 12.8758 992 114.524 560.06 374.749
2673 0 80.0589 12.6407 1012 117.197 560.801 369.372
2674 0 83.0487 13.2332 1099 116.111 560.234 366.813
2675 0 87.0838 13.7913 1201 114.186 560.301 365.99
2676 0 89.1224 13.1617 1173 115.292 560.673 365.312
2677 0 92.1041 14.2013 1308 113.13 560.635 363.969
2678 0 95.0922 13.5132 1285 115.788 560.339 364.191
2679 0 98.1074 13.1183 1287 117.406 560.648 357.288
2680 0 102.07 14.2255 1452 114.028 561.098 362.295
2681 0 104.27 14.3378 1495 115.266 560.87 358.27
2682 1 57.1057 11.6976 668 121.046 560.871 383.277
2683 0 61.1774 12.9623 793 122.246 561.149 372.4
2684 0 65.1497 12.6325 823 113.812 561.356 374.142
2685 0 66.0876 13.5275 894 114.314 560.564 370.129
2686 0 66.0644 12.8057 846 118.142 560.826 370.944
2687 0 66.056 11.6719 771 124.071 560.468 370.738
2688 0 68.0466 12.2269 832 124.02 560.708 373.993
2689 0 73.146 13.3022 973 119.967 561.044 378.082
2690 0 75.1335 12.724 956 122.583 561.105 373.056
2691 0 78.1011 12.471 974 124.664 560.72 371.476
2692 0 81.1689 12.9114 1048 124.634 561.491 373.286
2693 0 84.0674 13.5011 1135 123.527 560.922 362.078
2694 0 87.0726 13.1499 1145 125.132 560.99 360.571
2695 0 89.0973 12.2338 1090 129.791 560.542 359.382
2696 0 92.1417 12.7738 1177 129.468 560.636 357.279
2697 0 94.0555 12.7265 1197 129.353 561.139 357.035
2698 0 99.0924 13.0989 1298 128.684 560.743 356.488
2699 0 101.197 11.611 1175 136.675 561.193 360.536
2700 0 105.232 13.1709 1386 132.715 561.348 360.615
2701 0 108.167 13.2758 1436 132.075 560.536 364.119
2702 0 111.147 12.7219 1414 134.766 560.643 359.955
2703 1 56.0768 12.1976 684 129.778 560.885 373.434
2704 0 58.0492 13.3507 775 127.006 560.64 373.271
2705 0 59.0695 13.2386 782 128.934 560.953 370.005
2706 0 62.1125 13.4434 835 127.321 560.719 370.325
2707 0 63.0507 12.8309 809 129.015 560.912 372.23
2708 0 65.1089 14.038 914 125.752 560.609 376.183
2709 0 67.0642 12.8832 864 126.601 560.638 383.175
2710 0 70.0976 12.9391 907 126.561 560.783 382.514
2711 0 73.1455 13.4937 987 124.339 561.258 377.867
2712 0 76.1671 13.4704 1026 130.84 561.327 380.294
2713 0 79.1126 13.6893 1083 124.467 560.7 363.724
2714 0 80.0671 12.8642 1030 127.683 560.257 363.716
2715 0 84.0912 13.3189 1120 124.211 560.554 368.898
2716 0 87.0924 14.3755 1252 120.842 561.157 373.163
2717 1 45.0505 11.7646 530 130.791 560.96 392.458
2718 0 49.0615 13.6767 671 125.818 560.851 380.492
2719 0 51.064 12.0633 616 123.448 561.039 381.596
2720 0 54.0428 12.8417 694 120.125 560.938 382.865
2721 0 53.121 13.2904 706 120.637 561.048 383.799
2722 0 54.073 12.5016 676 122.306 560.851 382.623
2723 0 57.09 13.3298 761 120.702 561.368 375.171
2724 0 60.0671 13.385 804 120.174 561.463 374.402
2725 0 61.0574 12.7585 779 122.789 561.352 373.144
2726 0 60.079 12.417 746 126.452 561.249 371.214
2727 0 62.1067 12.3658 768 127.501 561.186 371.612
2728 0 65.0871 12.8597 837 126.079 561.287 375.873
2729 0 67.1395 12.6155 847 124.357 561.296 382.086
2730 0 69.1581 12.6666 876 126.111 562.345 378.529
2731 0 73.237 13.4085 982 122.073 562.714 379.656
2732 0 73.1138 12.2686 897 126.868 562.068 377.624
2733 0 78.0681 14.5002 1132 124.079 561.9 362.4
2734 0 78.0553 13.247 1034 127.495 561.996 361.326
2735 0 83.0772 12.7351 1058 127.094 561.775 364.529
2736 0 86.1332 13.6184 1173 123.46 562.061 367.732
2737 0 88.0976 12.2137 1076 125.961 561.865 369.787
2738 0 92.0751 12.0337 1108 127.166 562.179 369.593
2739 1 49.0853 13.3238 654 115.589 561.989 376.92
2740 0 50.0556 13.0455 653 117.331 561.628 378.32
2741 0 51.1043 11.4667 586 114.945 562.027 385.756
2742 0 51.1448 11.3403 580 115.553 561.662 387.278
2743 0 54.0409 11.0657 598 116.261 561.793 387.151
2744 0 55.0929 10.9633 604 116.859 561.917 384.647
2745 0 59.0727 11.799 697 113.657 562.419 376.56
2746 0 60.1032 12.3454 742 111.973 562.425 377.17
2747 0 60.0303 12.3937 744 113.54 561.899 376.097
2748 0 63.0409 11.4053 719 115.282 562.42 375.385
2749 0 66.0722 11.6842 772 115.51 562.552 374.408
2750 0 68.1311 12.2705 836 112.579 562.618 377.717
2751 0 70.0892 12.0561 845 113.967 562.31 380.307
2752 0 72.0452 13.2972 958 111.646 563.277 376.509
2753 0 71.0731 12.5083 889 115.793 562.105 377.548
2754 0 77.0996 13.3464 1029 112.252 563.005 369.862
2755 0 81.0535 14.0771 1141 109.893 562.817 370.146
2756 0 82.1077 14.4932 1190 110.713 562.577 365.863
2757 0 85.077 13.0823 1113 114.464 562.542 372.399
2758 0 88.0526 13.0717 1151 115.199 562.793 369.579
2759 0 91.1164 11.6993 1066 119.083 562.616 371.293
2760 1 46.0804 10.1996 470 115.689 561.411 385.394
2761 0 50.0631 10.4468 523 116.57 561.402 388.717
2762 0 52.0346 12.0881 629 113.471 561.645 388.833
2763 0 53.0633 11.4015 605 109.501 562.028 388.595
2764 0 55.0911 11.5264 635 109.814 561.805 383.943
2765 0 57.0637 11.6186 663 110.552 562.421 379.407
2766 0 59.0669 11.6647 689 111.016 561.852 379.046
2767 0 58.022 12.0471 699 112.764 561.415 378.426
2768 0 59.1237 11.1292 658 115.772 561.976 379.272
2769 0 63.1093 12.3437 779 112.788 561.954 382.039
2770 0 64.1358 12.38 794 113.009 562.817 383.579
2771 0 67.0718 12.3002 825 112.211 562.633 383.805
2772 0 70.27 12.2527 861 113.619 562.273 381.253
2773 0 72.0358 12.2578 883 114.496 562.558 378.359
2774 0 75.0475 11.7792 884 114.701 562.627 376.06
2775 0 77.0609 12.1333 935 113.826 562.911 376.093
2776 0 79.0742 12.0393 952 114.951 562.853 375.441
2777 0 82.1379 12.7469 1047 114.097 562.87 372.83
2778 0 85.0529 13.2271 1125 112.306 562.758 374.111
2779 0 87.108 12.7313 1109 113.969 562.464 370.858
2780 0 89.0571 11.4646 1021 117.517 562.593 374.13
2781 1 50.0226 10.3553 518 111.429 561.712 385.678
2782 0 53.0219 11.0332 585 113.207 561.631 384.562
2783 0 52.085 11.366 592 108.801 562.113 388.029
2784 0 54.07 10.8933 589 110.015 561.733 387.409
2785 0 57.0781 11.1426 636 109.448 561.423 380.58
2786 0 60.0584 11.4056 685 108.877 561.68 378.807
2787 0 61.0908 11.0164 673 110.52 562.105 378.105
2788 0 61.0885 11.2132 685 111.108 561.593 378.762
2789 0 63.0364 11.5806 730 110.096 561.693 376.415
2790 0 65.0477 11.9758 779 109.825 562.393 375.633
2791 0 67.1019 12.1606 816 110.594 561.971 373.915
2792 0 69.0576 11.5845 800 112.435 562.038 377.719
2793 0 70.0354 12.4366 871 111.503 561.812 377.372
2794 0 74.1113 11.7391 870 113.568 562.141 375.572
2795 0 77.0595 11.1862 862 114.305 561.741 378.21
2796 0 81.0349 13.1302 1064 110.623 562.146 369.197
2797 0 82.0461 13.2608 1088 113.257 561.931 366.974
2798 0 85.0933 13.9141 1184 112.53 561.821 365.893
2799 0 89.1079 12.4231 1107 115.652 561.517 371.67
2800 0 92.1112 13.1689 1213 114.544 562.063 370.143
2801 0 94.117 13.462 1267 116.487 562.03 368.117
2802 1 50.1319 11.4897 576 114.002 561.802 383.71
2803 0 51.0961 11.2533 575 117.793 561.176 385.05
2804 0 52.1141 12.9907 677 114.199 561.625 389.032
2805 0 55.0908 11.2178 618 118.362 561.607 389.495
2806 0 55.0752 12.3286 679 117.362 561.779 386.449
2807 0 56.0701 11.7888 661 113.442 561.758 380.746
2808 0 58.0798 12.1729 707 112.365 561.359 380.342
2809 0 62.1052 11.3356 704 113.278 561.751 379.834
2810 0 61.0765 10.9207 667 114.808 561.573 379.726
2811 0 63.132 11.5314 728 114.776 561.202 377.57
2812 0 66.1013 11.8757 785 113.255 561.371 380.264
2813 0 68.0595 11.9601 814 112.588 561.666 380.431
2814 0 69.1191 11.2704 779 114.35 561.367 379.86
2815 0 72.0925 11.2494 811 112.582 561.552 380.742
2816 0 76.0394 13.2694 1009 108.116 561.825 378.881
2817 0 79.1415 12.9009 1021 108.997 560.893 369.887
2818 0 82.1118 11.9106 978 110.626 561.138 370.684
2819 0 83.0951 12.1186 1007 112.97 560.899 369.322
2820 0 87.1406 11.6937 1019 112.342 560.973 373.479
2821 0 90.1195 12.3281 1111 113.581 561.116 370.843
2822 1 47.0223 10.3143 485 110.041 560.48 382.623
2823 0 46.1207 10.7978 498 106.689 560.478 387.313
2824 0 50.1447 12.6634 635 105.317 561.302 387.97
2825 0 52.2635 11.5377 603 107.036 560.612 389.045
2826 0 54.1169 10.7545 582 107.277 561.658 385.838
2827 0 55.0863 11.9449 658 105.202 561.663 379.582
2828 0 56.0502 12.8456 720 104.206 562.042 381.64
2829 0 59.0378 12.1617 718 105.79 560.578 382.095
2830 0 61.0754 10.7081 654 108.693 560.703 379.021
2831 0 63.0265 11.8522 747 107.137 560.862 383.474
2832 0 63.054 11.2602 710 109.524 560.52 383.148
2833 0 67.0979 11.9974 805 108.629 560.343 383.802
2834 0 68.0407 12.8012 871 107.361 561.02 378.557
2835 0 73.0744 13.192 964 107.016 561.028 379.594
2836 0 73.0975 11.8335 865 112.289 560.653 378.616
2837 0 76.1132 11.969 911 112.044 560.791 370.221
2838 0 79.1386 12.8761 1019 111.841 561.729 366.201
2839 0 81.149 13.2472 1075 112.382 561.019 369.604
2840 0 86.1484 13.558 1168 110.698 561.128 374.074
2841 0 86.2203 13.6163 1174 112.129 561.501 372.844
2842 0 90.1797 12.8078 1155 113.082 561.799 376.081
2843 0 90.2291 12.1136 1093 117.842 561.554 372.491
2844 0 97.2317 13.5552 1318 113.141 561.588 370.833
2845 0 100.234 12.6604 1269 116.941 560.89 362.392
2846 0 103.154 12.1566 1254 117.237 561.236 369.226
2847 0 108.151 12.6953 1373 114.61 560.962 356.823
2848 1 56.0955 11.4448 642 111.03 560.486 384.193
2849 0 56.1176 12.4382 698 114.328 561.352 386.447
2850 0 60.0639 11.7708 707 113.396 561.925 380.607
2851 0 62.1056 13.0745 812 111.11 561.239 379.055
2852 0 64.1045 13.868 889 109.197 560.962 377.45
2853 0 66.0648 12.1093 800 113.605 561.53 378.891
2854 0 68.0668 13.0019 885 110.721 561.852 382.146
2855 0 70.0497 11.2634 789 115.233 561.625 381.556
2856 0 71.1001 11.3221 805 116.034 561.617 379.8
2857 0 73.1599 11.304 827 116.739 561.884 380.875
2858 0 78.0986 11.255 879 115.848 560.627 371.242
2859 0 77.1267 10.6189 819 118.336 560.813 369.241
2860 0 82.1311 11.4816 943 113.887 560.891 372.408
2861 0 86.1091 10.7886 929 115.273 560.125 375.369
2862 0 88.2208 11.6186 1025 114.72 560.748 375.313
2863 0 92.1613 11.2846 1040 117.171 560.622 371.974
2864 1 46.1813 11.0867 512 105.623 560.576 396.26
2865 0 47.0471 12.1793 573 101.871 560.553 389.106
2866 0 48.0739 11.2327 540 110.983 559.322 390.396
2867 0 50.0265 10.4544 523 108.939 559.876 394.583
2868 0 51.031 10.523 537 109.87 559.674 387.03
2869 0 52.0361 10.1084 526 112.43 560.032 388.361
2870 0 54.0524 11.5444 624 110.218 559.755 385.957
2871 0 56.049 11.3294 635 109.857 559.578 382.378
2872 0 57.0774 10.3719 592 111.838 559.733 381.449
2873 0 60.0602 11.4885 690 108.959 559.555 380.164
2874 0 62.0565 12.4886 775 107.468 560.188 379.763
2875 0 62.1132 11.6883 726 110.025 560.007 379.186
2876 0 65.1298 13.3579 870 110.02 560.946 383.287
2877 0 67.0978 12.3253 827 112.416 560.649 381.426
2878 0 68.0835 12.1909 830 114.516 559.995 380.175
2879 0 70.0897 11.471 804 114.16 560.6 373.924
2880 0 72.0971 11.0407 796 115.344 560.815 372.814
2881 0 75.0817 11.5341 866 113.357 560.402 373.968
2882 0 78.0622 12.0289 939 114.318 560.473 369.564
2883 0 77.0651 11.0296 850 117.841 560.258 370.358
2884 0 83.1446 11.0891 922 118.514 560.74 375.459
2885 0 86.0876 12.406 1068 116.615 560.629 374.209
2886 0 88.074 13.0118 1146 116.171 561.018 365.538
2887 0 90.1238 11.6063 1046 119.318 560.798 370.312
2888 0 95.146 12.0972 1151 118.068 561.224 365.037
2889 0 96.1947 12.3292 1186 120.067 561.235 365.271
2890 0 102.093 13.1155 1339 117.891 561.211 364.996
2891 0 103.068 13.5542 1397 118.319 560.807 358.669
2892 0 105.116 12.4909 1313 121.343 560.144 356.311
2893 0 110.111 13.7135 1510 116.966 560.104 354.905
2894 1 57.0548 12.9875 741 111.126 560.381 380.174
2895 0 57.0159 11.0846 632 116.389 560.21 379.53
2896 0 59.171 11.4583 678 115.6 560.339 378.528
2897 0 64.0349 12.3995 794 111.608 560.306 376.122
2898 0 66.0619 13.5176 893 109.423 559.823 374.878
2899 0 68.0427 13.3299 907 109.856 560.512 375.795
2900 0 70.0853 11.8712 832 111.629 561.769 375.916
2901 0 70.0483 11.7205 821 114.618 561.588 370.801
2902 0 73.1537 12.4396 910 112.184 561.371 370.904
2903 0 77.054 11.6931 901 111.828 561.973 369.683
2904 0 78.164 11.8981 930 111.3 561.202 374.444
2905 0 81.134 12.0048 974 111.001 560.885 371.537
2906 0 82.1758 11.9865 985 111.257 560.841 371.096
2907 0 85.1625 11.6013 988 111.884 560.651 369.839
2908 0 88.1138 13.0854 1153 108.425 560.851 363.386
2909 0 92.0844 11.3591 1046 106.546 561.148 362.826
2910 0 94.0915 11.17 1051 106.832 561.209 362.098
2911 0 98.082 11.7657 1154 108.801 561.938 365.057
2912 0 100.13 11.0856 1110 109.604 561.283 354.714
2913 0 100.132 11.1153 1113 151.32 562.281 354.819
2914 0 106.348 11.406 1213 109.441 561.142 355.688
2915 0 110.177 11.4543 1262 108.524 560.424 352.436
2916 0 113.281 11.8908 1347 106.684 561.214 351.904
2917 1 62.0769 10.8253 672 103.647 561.393 370.582
2918 0 64.0664 10.1769 652 102.612 560.985 374.729
2919 0 69.0794 12.6087 871 96.1515 560.786 376.29
2920 0 69.1776 10.2634 710 108.19 561.973 379.396
2921 0 78.2282 10.2265 800 136.811 562.918 379.252
2922 0 72.1033 11.4281 824 108.564 562.017 369.831
2923 0 75.1237 11.3679 854 107.796 561.884 373.891
2924 0 78.217 10.5092 822 108.757 562.159 373.726
2925 0 74.1478 10.1149 750 109.192 561.476 370.408
2926 1 85.0657 12.3434 1050 106.957 561.077 363.39
2927 0 87.1938 13.9459 1216 103.918 561.373 360.764
2928 0 90.1286 12.1493 1095 107.845 559.975 364.149
2929 0 92.1287 12.1352 1118 108.525 560.451 363.282
2930 0 96.146 12.5018 1202 107.631 560.749 364.379
2931 0 100.172 14.0358 1406 104.515 560.865 352.237
2932 0 106.427 12.3653 1316 108.147 560.653 355.261
2933 0 105.239 11.9728 1260 106.856 560.284 354.442
2934 1 54.0446 8.99257 486 106.724 559.578 381.315
2935 0 61.0461 11.6633 712 100.265 560.249 375.846
2936 0 62.0711 11.9057 739 95.134 560.647 377.499
2937 0 63.1422 11.9255 753 96.093 560.094 376.086
2938 0 66.1881 11.6637 772 96.908 560.141 375.381
2939 0 66.0416 11.1445 736 98.1033 560.367 375.749
2940 0 69.0517 12.3386 852 95.8955 560.689 373.155
2941 0 69.0918 12.5051 864 101.028 559.994 372.847
2942 0 71.1318 12.0621 858 102.266 560.984 378.638
2943 0 73.0961 12.1757 890 101.949 561.248 372.065
2944 0 75.0997 11.012 827 103.607 561.672 368.056
2945 0 79.1062 11.4403 905 102.523 562.131 366.634
2946 0 81.1656 12.111 983 102.025 559.997 366.116
2947 0 81.2449 11.0407 897 104.988 559.982 364.127
2948 0 86.0794 13.29 1144 100.878 560.087 363.151
2949 0 89.1103 12.3106 1097 101.724 561.311 371.645
2950 0 90.0729 12.5898 1134 102.274 560.313 362.544
2951 0 92.0436 12.3311 1135 103.696 560.142 365.914
2952 0 96.0941 14.1528 1360 99.0691 560.218 367.006
2953 0 97.0724 11.579 1124 105.294 560.656 362.765
2954 0 105.19 13.0526 1373 100.864 560.277 359.322
2955 1 55.0923 10.0014 551 97.049 560.318 377.341
2956 0 58.1595 11.4513 666 95.2943 560.998 374.444
2957 0 57.0669 12.4065 708 98.5184 560.095 378.047
2958 0 61.0235 11.8479 723 99.0401 559.819 378.076
2959 0 63.066 12.2887 775 98.5716 559.827 376.688
2960 0 62.0416 11.5245 715 100.392 560.245 377.773
2961 0 66.0906 10.9093 721 102.877 561.393 377.692
2962 0 68.0903 11.6757 795 101.406 560.99 380.108
2963 0 68.1045 11.7613 801 132.342 560.971 380.119
2964 0 71.1631 10.9607 780 103.742 561.282 377.058
2965 0 73.1059 11.1893 818 102.18 560.529 370.681
2966 0 76.0889 11.1054 845 103.436 560.333 369.387
2967 0 78.0687 11.08 865 104.061 561.018 373.638
2968 0 80.1194 10.2722 823 106.23 560.549 373.758
2969 0 85.1495 12.1433 1034 103.077 560.061 365.244
2970 0 84.0852 11.1197 935 106.857 559.347 365.188
2971 0 90.1441 11.6591 1051 105.27 560.208 362.019
2972 0 91.3042 11.3248 1034 106.328 560.282 362.895
2973 1 46.0808 9.07102 418 101.407 560.194 380.151
2974 0 49.0504 10.4179 511 99.8434 559.769 382.084
2975 0 49.0503 11.1518 547 104.303 559.554 381.086
2976 0 51.0219 10.8385 553 105.123 559.517 381.157
2977 0 53.0566 12.1757 646 102.345 559.33 380.887
2978 0 55.0739 12.1655 670 102.606 559.793 379.903
2979 0 54.0317 10.5309 569 107.216 559.634 379.698
2980 0 57.1706 12.2266 699 103.631 560.069 378.011
2981 0 57.1322 11.5347 659 106.009 560.167 376.235
2982 0 59.064 11.1405 658 107.191 559.967 375.322
2983 0 61.1172 11.7479 718 106.56 559.76 374.727
2984 0 61.0602 10.678 652 109.613 560.081 379.704
2985 0 66.0589 12.0801 798 106.137 560.404 381.286
2986 0 65.0415 12.2691 798 107.429 560.358 381.419
2987 0 68.0367 12.361 841 107.598 560.15 380.461
2988 1 80.0791 6.84323 548 114.272 559.838 380.17
2989 0 72.1247 11.6049 837 109.998 560.26 368.504
2990 0 75.063 13.4021 1006 107.145 559.9 366.173
2991 0 76.1274 12.5185 953 108.693 559.686 365.076
2992 0 78.1455 11.1715 873 111.134 559.671 372.062
2993 0 82.2307 12.1731 1001 109.503 559.722 369.23
2994 0 82.1346 10.4341 857 112.796 559.413 362.446
2995 0 87.0447 11.339 987 109.371 559.129 365.384
2996 1 44.0414 9.40025 414 102.995 560.57 380.717
2997 0 47.097 10.5527 497 99.2616 560.775 387.344
2998 0 48.0791 10.4411 502 99.743 559.805 390.227
2999 0 47.029 9.54731 449 102.45 560.245 389.073
3000 0 51.0853 11.5885 592 101.544 559.318 377.284
3001 0 51.0703 10.4758 535 103.123 559.607 378.624
3002 0 52.0437 12.7585 664 99.4096 559.363 378.495
3003 0 56.1378 11.8993 668 100.145 559.475 377.419
3004 0 59.1533 13.2875 786 96.8092 559.796 377.038
3005 0 59.0232 11.5717 683 101.201 559.801 375.883
3006 0 63.1035 12.8677 812 97.3621 559.52 374.707
3007 0 65.0572 11.8972 774 98.4948 559.287 373.553
3008 0 65.0898 11.3996 742 100.363 559.748 371.45
3009 0 67.1144 9.40185 631 101.986 559.647 375.128
3010 0 71.0819 12.1691 865 98.4358 559.535 370.449
3011 0 73.0956 11.7107 856 100.136 560.495 367.514
3012 0 76.0489 12.1764 926 98.4503 560.159 365.905
3013 0 79.269 11.6691 925 98.8411 559.747 366.71
3014 0 82.2566 12.4245 1022 94.5088 560.008 369.401
3015 0 86.2128 13.3507 1151 93.8645 559.732 361.769
3016 0 88.1277 13.2648 1169 95.2404 559.861 358.636
3017 1 47.1624 12.1707 574 90.0836 559.897 378.72
3018 0 49.1572 12.3685 608 94.5543 560.191 369.883
3019 0 51.171 13.8555 709 90.4598 560.365 371.202
3020 0 52.1754 10.4839 547 92.7715 559.991 381.669
3021 0 53.0906 11.3014 600 93.3317 559.507 378.258
3022 0 54.1688 11.2242 608 93.5214 560.349 378.388
3023 0 56.088 11.6424 653 93.8254 559.916 376.904
3024 0 58.1198 11.5623 672 94.4881 560.277 376.1
3025 0 58.0929 12.1357 705 95.0596 559.756 375.427
3026 0 62.1496 12.4699 775 97.5845 559.665 374.255
3027 0 64.1636 12.172 781 145.224 559.67 374.558
3028 0 65.1334 12.4053 808 98.37 560.769 379.634
3029 0 67.16 12.6117 847 98.7922 560.178 383.348
3030 0 70.2652 12.3817 870 100.31 560.241 374.498
3031 0 73.0754 12.5897 920 99.513 560.54 377.954
3032 0 74.1248 12.0068 890 100.857 560.828 380.448
3033 0 77.2036 12.1367 937 101.297 560.91 373.674
3034 0 79.2735 13.0687 1036 100.56 560.44 368.695
3035 0 83.2793 11.7316 977 102.815 560.583 370.156
3036 0 85.2412 10.9923 937 103.323 560.806 376.017
3037 0 87.3621 11.9503 1044 103.279 560.259 372.895
3038 0 90.23 12.4349 1122 103.53 560.722 370.898
3039 0 93.2505 11.1528 1040 105.02 561.003 359.358
3040 0 98.4226 11.8062 1162 104.73 560.507 363.824
3041 1 53.1355 11.7624 625 96.3536 561.246 389.539
3042 0 53.2234 10.935 582 99.8797 560.746 387.753
3043 0 51.0763 11.2381 574 102.498 561.873 378.767
3044 0 53.0437 12.1786 646 99.6703 561.427 379.328
3045 0 54.0379 11.2329 607 102.072 561.354 376.333
3046 0 60.1557 11.8692 714 94.5896 560.325 379.298
3047 0 58.1557 11.5896 674 137.096 560.291 378.318
3048 0 62.0782 11.5983 720 100.694 560.535 374.129
3049 0 62.1139 12.944 804 90.3346 559.873 374.958
3050 0 64.1045 12.2768 787 95.6747 561.145 375.442
3051 0 63.0521 10.9909 693 104.667 561.017 376.698
3052 0 63.104 11.6316 734 102.95 560.294 381.658
3053 0 65.0383 10.7783 701 103.628 560.116 383.866
3054 0 67.0742 12.0016 805 102.439 560.933 377.834
3055 0 70.0934 12.2408 858 99.7028 560.563 380.107
3056 0 73.0463 10.1853 744 101.809 560.956 378.429
3057 0 74.1626 9.51962 706 103.191 560.681 371.443
3058 0 77.1472 11.9123 919 99.5658 560.469 366.129
3059 0 80.1831 11.6109 931 99.2492 560.65 366.523
3060 0 81.176 12.1711 988 98.3664 560.695 367.226
3061 0 84.1457 11.9079 1002 99.005 560.92 370.089
3062 0 88.132 11.9707 1055 98.6209 560.238 372.437
3063 0 90.2507 11.8226 1067 99.9803 560.316 370.57
3064 0 94.2371 12.373 1166 99.3165 560.597 364.829
3065 0 95.189 11.0412 1051 102.658 560.667 368.269
3066 0 101.164 11.9806 1212 102.071 560.601 363.892
3067 1 50.1357 10.7109 537 98.8231 560.125 385.43
3068 0 53.0823 10.1917 541 101.19 560.366 379.139
3069 0 55.1092 11.9581 659 101.956 560.942 381.554
3070 0 56.099 12.1214 680 103.596 561.529 380.634
3071 0 54.115 9.99724 541 109.902 561.625 381.525
3072 0 56.0772 10.3251 579 111.273 561.301 378.342
3073 0 60.123 11.9921 721 106.695 561.125 379.241
3074 0 61.111 12.3546 755 107.519 561.571 377.75
3075 0 62.1125 12.2681 762 109.215 560.618 383.32
3076 0 62.046 10.6856 663 113.805 560.13 382.751
3077 0 64.0938 11.7796 755 111.728 561.041 381.775
3078 0 65.0633 10.2977 670 116.897 560.252 380.509
3079 0 69.1823 12.0117 831 112.077 560.31 373.427
3080 0 70.1095 10.7974 757 115.819 560.91 372.285
3081 0 73.1264 11.1314 814 114.217 561.303 376.654
3082 0 75.0645 11.0838 832 115.998 560.898 374.793
3083 0 75.0645 11.1238 835 140.859 560.904 374.8
3084 0 79.0636 11.3579 898 116.648 560.808 373.791
3085 0 82.1261 11.5798 951 115.656 560.851 372.089
3086 1 42.0164 10.0675 423 109.064 560.898 387.868
3087 0 42.0853 9.59956 404 112.28 559.99 384.973
3088 0 44.1419 9.80928 433 112.545 559.873 386.434
3089 0 46.0695 12.0904 557 105.382 560.67 390.065
3090 0 47.0782 11.6827 550 113.462 560.178 388.891
3091 0 49.0122 10.7524 527 112.647 559.313 382.966
3092 0 48.0349 10.4715 503 115.358 559.877 380.26
3093 0 52.0347 11.992 624 111.817 559.973 380.324
3094 0 52.133 11.3172 590 114.336 560.042 378.288
3095 0 54.0324 11.1415 602 113.716 559.282 378.492
3096 0 55.0548 12.0062 661 112.357 559.331 376.912
3097 0 57.108 11.7847 673 112.21 560.01 382.9
3098 0 61.1552 10.7922 660 113.079 560.033 375.924
3099 0 61.0404 11.1893 683 112.72 559.772 372.899
3100 0 63.0368 10.4225 657 113.553 559.865 377.379
3101 0 66.0481 10.7346 709 112.78 559.513 380.226
3102 0 67.0947 11.0292 740 112.177 559.476 370.288
3103 0 67.0673 10.6013 711 115.682 559.217 365.48
3104 0 72.0754 11.932 860 111.005 559.662 368.094
3105 0 76.1439 10.861 827 112.394 559.953 371.68
3106 0 75.0872 11.2003 841 114.474 560.013 370.895
3107 1 42.0125 10.1398 426 106.887 560.819 384.54
3108 0 43.0647 10.7745 464 109.483 560.938 383.019
3109 0 45.0901 11.9982 541 108.384 561.094 379.939
3110 0 44.096 11.1348 491 104.774 560.764 382.116
3111 0 44.0236 10.8124 476 112.307 561.084 382.79
3112 0 47.0809 11.7882 555 110.465 561.151 382.312
3113 0 47.0779 12.4262 585 110.552 560.986 386.212
3114 0 48.1217 10.5981 510 114.671 561.965 380.204
3115 0 48.0849 10.3983 500 116.926 561.898 380.284
3116 0 50.0783 10.4436 523 117.12 562.057 382.411
3117 0 53.112 13.142 698 110.453 561.893 376.99
3118 0 54.065 10.9313 591 115.547 561.24 378.078
3119 0 58.0764 12.8279 745 111.478 561.26 375.968
3120 0 59.1277 13.4793 797 110.726 561.572 375.487
3121 0 58.0655 12.5892 731 115.546 561.581 374.285
3122 0 61.0726 12.8372 784 114.87 560.74 372.688
3123 0 63.116 13.2138 834 114.677 561.1 373.814
3124 0 65.1095 12.7478 830 117.296 561.246 374.647
3125 0 65.0572 12.4506 810 118.805 561.442 379.177
3126 0 68.1332 11.9619 815 118.319 560.831 382.707
3127 0 72.1349 12.241 883 120.248 561.206 363.648
3128 0 74.1367 13.03 966 117.827 561.009 362.907
3129 0 77.0741 14.4796 1116 115.083 560.323 363.441
3130 0 78.1653 12.5375 980 120.458 560.944 367.171
3131 0 80.1999 12.4813 1001 121.88 561.272 365.23
3132 0 82.1297 13.4056 1101 121.617 560.872 360.209
3133 0 84.1799 12.6277 1063 125.896 561.208 349.857
3134 0 86.1253 12.0754 1040 126.943 560.741 350.583
3135 0 91.1257 13.3552 1217 122.558 561.145 349.64
3136 0 93.2062 12.9927 1211 120.477 560.762 356.408
3137 0 95.1513 12.8427 1222 121.243 561.795 357.805
3138 1 52.0305 11.1089 578 117.503 561.538 387.566
3139 0 54.036 11.0297 596 119.597 561.307 386.802
3140 0 55.0354 11.1565 614 118.948 562.011 380.393
3141 0 60.0486 12.2401 735 115.309 562.633 377.38
3142 0 59.0532 12.0739 713 118.049 562.348 374.776
3143 0 61.1546 12.2313 748 116.028 562.447 376.342
3144 0 64.1182 12.5237 803 114.98 562.69 374.788
3145 0 66.1444 12.5937 833 114.499 562.28 375.076
3146 0 67.0413 12.1865 817 115.646 562.006 376.026
3147 0 69.0773 12.2037 843 116.053 562.225 377.744
3148 0 72.1008 10.5547 761 119.478 562.053 376.92
3149 0 71.0872 10.3394 735 121.328 562.152 375.94
3150 0 77.0607 11.3028 871 117.935 562.153 378.999
3151 0 79.1157 13.0189 1030 115.454 561.817 366.525
3152 0 83.0856 12.0237 999 118.808 561.66 365.307
3153 0 86.1416 12.7581 1099 116.511 561.198 370.781
3154 0 87.1456 11.8652 1034 117.945 561.441 375.342
3155 0 90.2501 11.9778 1081 119.278 561.251 373.971
3156 0 95.1539 11.6443 1108 122.774 561.15 355.418
3157 1 51.0586 11.4183 583 113.849 561.003 383.28
3158 0 52.1414 11.6414 607 114.328 561.666 387.455
3159 0 55.0261 12.2669 675 112.2 561.317 387.536
3160 0 51.0214 9.99581 510 123.043 560.786 387.253
3161 0 56.0277 10.8875 610 118.656 560.531 389.852
3162 0 59.072 11.4606 677 117.713 561.473 383.736
3163 0 61.0556 12.0218 734 115.228 561.669 378.888
3164 0 61.1103 10.9965 672 119.353 561.237 375.35
3165 0 64.0538 11.9119 763 116.401 561.11 377.087
3166 0 63.0799 12.3336 778 117 561.635 378.067
3167 0 66.0539 11.8388 782 118.776 561.465 380.224
3168 0 68.0869 12.2931 837 115.546 561.425 381.688
3169 0 72.071 12.4322 896 115.079 561.721 379.266
3170 0 71.0867 12.1964 867 118.166 561.243 373.129
3171 0 76.1018 12.3256 938 116.583 561.064 377.552
3172 0 80.0896 12.9979 1041 114.356 561.271 376.709
3173 0 81.0743 13.2348 1073 114.411 560.208 369.715
3174 0 84.1337 13.2646 1116 114.481 560.699 370.863
3175 0 86.1909 12.6347 1089 115.972 561.067 373.744
3176 0 88.1983 12.4039 1094 116.948 561.659 372.137
3177 0 92.1457 12.3934 1142 116.036 560.893 374.894
3178 0 97.2717 12.83 1248 115.264 560.967 361.887
3179 0 100.228 12.7709 1280 115.905 560.83 362.197
3180 1 52.043 10.1455 528 109.992 559.886 390.013
3181 0 53.053 10.6874 567 110.18 560.303 387.513
3182 0 54.0233 10.5325 569 116.262 559.917 381.054
3183 0 56.0638 11.6474 653 114.378 559.729 376.573
3184 0 58.0348 11.1657 648 115.863 559.802 382.012
3185 0 63.0797 11.7788 743 111.073 559.384 379.225
3186 0 65.0696 11.6644 759 112.528 559.444 383.805
3187 0 68.0832 12.3819 843 111.014 558.747 381.641
3188 0 70.0247 11.8387 829 111.227 559.638 376.988
3189 0 69.0775 12.03 831 112.647 560.091 378.337
3190 0 74.0787 12.0412 892 111.512 559.691 378.885
3191 0 75.1686 11.4676 862 111.34 560.253 381.102
3192 0 80.1334 11.8552 950 109.682 561.078 368.529
3193 0 80.1026 11.2106 898 112.019 560.609 370.84
3194 0 84.1321 11.4106 960 110.806 560.883 373.519
3195 0 86.1352 10.4603 901 112.556 561.344 372.933
3196 0 91.1434 12.1896 1111 108.68 560.242 371.266
3197 0 94.0703 12.0017 1129 109.477 560.771 367.51
3198 1 51.021 11.2503 574 101.085 560.073 386.742
3199 0 53.0642 11.7028 621 100.712 559.952 389.469
3200 0 53.0441 11.0851 588 106.808 560.223 389.658
3201 0 53.0402 11.1425 591 140.509 560.227 389.618
3202 0 55.0402 11.5552 636 107.074 559.363 387.475
3203 0 58.0425 11.3365 658 106.062 559.6 380.195
3204 0 58.1031 11.6517 677 106.25 559.663 378.517
3205 0 61.0673 11.8394 723 106.671 559.058 375.342
3206 0 62.0346 12.2029 757 105.429 559.971 376.863
3207 0 64.0979 11.2016 718 108.852 560.054 374.369
3208 0 66.0264 12.2981 812 106.425 559.911 380.606
3209 0 66.0264 11.3742 751 147.587 560.951 379.232
3210 0 71.07 12.0445 856 108.482 559.91 379.291
3211 0 73.0374 11.8022 862 108.263 560.044 380.347
3212 0 75.0232 12.2096 916 109.254 560.677 369.693
3213 0 78.0716 12.3476 964 109.001 559.962 367.869
3214 0 81.1026 12.2191 991 108.485 560.733 369.243
3215 0 82.0304 12.6782 1040 109.823 560.326 367.266
3216 0 86.0684 12.8038 1102 109.374 559.879 371.709
3217 0 89.1091 12.5464 1118 109.563 559.876 373.159
3218 0 90.1063 11.7195 1056 112.447 559.499 373.89
3219 1 48.0529 10.3011 495 104.669 559.804 384.301
3220 0 50.0328 12.0921 605 104.635 559.243 386.268
3221 0 52.0299 10.6285 553 104.396 559.98 390.15
3222 0 54.0456 11.6753 631 103.475 559.12 389.181
3223 0 53.0456 11.9143 632 104.899 559.369 388.261
3224 0 56.0595 11.8089 662 104.077 560.598 388.079
3225 0 55.0428 11.9362 657 105.96 560.706 380.871
3226 0 59.0544 11.5148 680 105.913 560.438 378.999
3227 0 60.088 12.515 752 104.584 559.842 374.82
3228 0 61.057 11.7595 718 106.95 560.376 372.815
3229 0 64.1329 12.5209 803 104.98 560.247 375.091
3230 0 64.0606 11.8013 756 107.528 560.235 377.667
3231 0 67.0858 11.6865 784 107.468 560.213 372.116
3232 0 71.0939 12.0826 859 106.063 560.217 375.916
3233 0 70.1267 12.0068 842 107.397 559.754 380.612
3234 0 74.0752 12.9463 959 106.931 559.854 367.59
3235 0 76.099 12.9174 983 106.609 559.535 362.732
3236 0 80.1213 12.7681 1023 105.579 560.19 370.862
3237 0 84.1374 12.337 1038 105.404 560.437 372.829
3238 1 42.0248 10.8745 457 107.886 560.07 394.608
3239 0 46.0452 11.163 514 102.576 560.671 389.607
3240 0 46.1247 11.3822 525 103.272 560.499 390.794
3241 0 49.0728 12.2879 603 101.605 560.303 380.113
3242 0 48.166 11.0451 532 105.288 560.295 382.795
3243 0 52.1092 12.0516 628 102.003 560.549 383.347
3244 0 52.0571 11.6219 605 109.251 560.721 375.942
3245 0 55.0574 12.4416 685 106.182 560.175 375.22
3246 0 52.0354 11.0309 574 112.101 559.634 374.453
3247 0 55.0799 11.5287 635 111.896 559.965 372.317
3248 0 55.1073 11.8315 652 112.291 560.282 372.577
3249 0 60.0529 12.8054 769 109.512 559.72 370.839
3250 0 61.0506 11.8754 725 113.899 559.993 373.072
3251 0 62.0917 12.3366 766 113.584 559.685 377.568
3252 0 65.0421 13.4221 873 110.078 560.494 382.905
3253 0 67.0699 12.7777 857 112.146 560.006 383.349
3254 0 70.1213 12.9347 907 114.251 559.87 378.224
3255 0 72.129 13.7254 990 113.206 560.542 381.899
3256 0 74.0509 13.3422 988 115.483 560.159 380.966
3257 0 78.2238 13.5253 1058 115.015 559.521 367.508
3258 0 83.1386 14.4458 1201 111.843 560.317 363.94
3259 0 83.1189 13.0536 1085 117.743 560.141 364.498
3260 0 86.0996 13.8677 1194 116.047 560.07 369.19
3261 1 46.0727 10.8958 502 117.675 559.695 394.253
3262 0 49.0609 12.2909 603 117.466 559.595 392.312
3263 0 50.1227 11.7711 590 115.286 559.793 387.376
3264 0 51.1707 10.9438 560 116.664 559.777 390.554
3265 0 54.1865 12.1802 660 114.505 560.153 389.724
3266 0 55.1779 11.9069 657 116.368 559.597 388.4
3267 0 58.0964 13.185 766 114.42 559.587 375.918
3268 0 60.0575 13.1041 787 115.276 559.3 374.703
3269 0 63.0789 12.7301 803 115.99 560.357 374.626
3270 0 64.1295 12.5059 802 119.168 560.323 372.681
3271 0 66.019 12.8448 848 118.593 559.724 374.074
3272 0 67.045 14.1099 946 117.461 560.309 376.144
3273 0 69.0439 11.8765 820 124.661 559.918 381.907
3274 0 73.1029 13.8435 1012 119.475 560.262 373.686
3275 0 74.046 13.208 978 122.786 560.191 377.946
3276 0 76.0645 12.8575 978 124.429 560.289 379.834
3277 0 80.0566 13.3905 1072 124.762 560.337 369.228
3278 0 81.0468 13.4984 1094 124.976 560.396 368.55
3279 0 85.0727 13.6824 1164 124.997 560.838 366.009
3280 1 47.0852 11.0226 519 124.788 560.322 387.836
3281 0 49.0434 12.0709 592 122.743 560.965 389.444
3282 0 50.0895 11.7589 589 122.874 561.039 390.426
3283 0 52.1841 11.8235 617 123.71 561.284 379.971
3284 0 52.1496 11.7547 613 124.669 561.253 379.928
3285 0 56.1483 12.182 684 122.974 560.797 381.67
3286 0 57.0786 11.4404 653 126.152 561.119 386.27
3287 0 57.0814 11.0544 631 127.588 561.257 387.55
3288 0 61.1236 11.4195 698 124.735 561.166 379.477
3289 0 60.1149 10.6296 639 126.915 560.833 384.113
3290 0 64.0928 11.8266 758 124.755 560.821 371.748
3291 0 64.3192 11.0387 710 126.101 560.09 372.404
3292 0 67.0896 12.1032 812 124.393 560.267 373.289
3293 0 71.1669 12.9836 924 120.252 560.093 373.693
3294 0 72.25 12.5675 908 125.394 560.758 376.449
3295 0 74.1991 12.2778 911 127.498 560.632 378.482
3296 0 77.1236 11.7733 908 127.648 560.531 375.643
3297 0 80.2892 11.7326 942 132.162 561.643 375.672
3298 0 84.24 12.8443 1082 130.018 561.4 361.884
3299 0 86.2966 12.5266 1081 132.974 561.302 360.137
3300 0 88.2237 13.6358 1203 132.194 561.866 362.248
3301 0 92.201 13.3296 1229 135.776 561.973 369.176
3302 0 95.3035 12.9586 1235 136.478 561.339 371.482
3303 1 53.118 10.0154 532 134.543 561.449 392.235
3304 0 54.0591 11.0805 599 135.838 562.371 377.641
3305 0 57.1338 11.0793 633 134.896 562.087 380.9
3306 0 59.0269 11.1475 658 136.029 560.533 382.257
3307 0 60.1037 11.3637 683 136.691 561 386.338
3308 0 62.2006 11.4308 711 135.664 560.945 386.691
3309 0 65.0465 11.6071 755 133.681 560.815 372.983
3310 0 67.0799 10.9571 735 135.312 560.487 371.761
3311 0 71.0946 12.1247 862 132.712 560.484 369.887
3312 0 72.0575 11.8655 855 134.604 560.527 369.068
3313 0 74.1335 12.9496 960 132.795 560.567 372.227
3314 0 75.0872 11.4001 856 138.239 561.308 377.05
3315 0 76.0706 10.9241 831 140.764 560.513 379.726
3316 0 83.1692 11.4345 951 138.868 560.615 375.756
3317 0 83.1598 10.7143 891 140.549 560.333 377.137
3318 0 87.1733 12.848 1120 136.566 560.611 372.627
3319 0 90.1639 12.7656 1151 137.641 560.835 360.31
3320 0 93.0652 11.0675 1030 141.842 560.528 369.051
3321 0 91.163 10.8377 988 146.996 561.178 369.638
3322 0 96.1988 11.2995 1087 145.089 561.131 371.696
3323 0 99.2077 11.7934 1170 145.341 560.36 373.454
3324 0 101.103 12.2449 1238 146.204 561.596 356.814
3325 0 106.236 13.3853 1422 144.926 561.332 357.283
3326 0 109.142 13.2671 1448 149.059 561.192 360.875
3327 0 111.111 12.807 1423 153.334 561.344 358.283
3328 0 114.274 12.9513 1480 152.137 561.955 357.082
3329 0 120.229 13.1998 1587 150.537 561.571 344.78
3330 1 64.0845 11.5629 741 140.995 561.362 371.498
3331 0 67.195 11.7866 792 140.847 560.774 369.826
3332 0 70.1076 13.194 925 138.265 560.145 369.903
3333 0 71.0775 11.8744 844 142.547 560.848 370.392
3334 0 73.1521 11.8383 866 142.739 561.12 374.435
3335 0 76.2208 11.716 893 143.036 560.922 374.181
3336 0 79.1073 13.3869 1059 137.435 560.542 376.055
3337 0 83.1653 12.7818 1063 137.579 561.447 365.582
3338 0 85.1296 12.9567 1103 137.106 560.895 364.238
3339 0 87.1739 12.9397 1128 137.873 561.07 362.587
3340 0 92.2307 13.9433 1286 134.086 560.831 366.33
3341 0 93.2078 13.7113 1278 135.844 561.192 370.46
3342 0 95.2489 13.029 1241 138.818 561.327 372.546
3343 0 98.2793 12.8816 1266 141.231 561.137 370.641
3344 0 99.2026 12.3081 1221 144.967 560.99 358.674
3345 1 55.0562 11.0069 606 138.347 561.757 374.838
3346 0 56.0496 11.811 662 138.295 561.668 374.278
3347 0 58.0833 12.6887 737 137.434 561.499 372.68
3348 0 60.0397 11.5757 695 129.39 560.279 374.858
3349 0 62.0451 11.8301 734 129.373 560.651 374.048
3350 0 63.0318 12.9617 817 127.72 560.344 372.616
3351 0 65.0743 12.3705 805 131.811 560.809 373.858
3352 0 67.1829 12.3246 828 132.762 561.465 376.112
3353 0 70.1256 12.9482 908 129.997 560.78 377.489
3354 0 71.0948 12.7014 903 132.092 560.478 372.925
3355 0 74.0762 13.2971 985 129.575 560.576 377.56
3356 0 74.0771 12.4195 920 133.872 561.066 380.517
3357 0 79.2502 13.123 1040 128.18 561.179 368.526
3358 0 80.0712 12.1017 969 134.13 561.164 364.959
3359 0 82.1504 12.6962 1043 133.41 560.522 365.708
3360 0 86.1496 12.0024 1034 134.534 560.603 369.332
3361 0 88.1589 12.6136 1112 133.705 560.764 371.949
3362 0 91.1305 12.9924 1184 133.507 560.764 372.102
3363 0 93.2058 13.1644 1227 133.81 560.804 361.106
3364 0 96.1854 13.4116 1290 135.057 560.817 359.636
3365 0 97.1781 12.5543 1220 137.53 561.313 365.396
3366 0 102.135 12.5423 1281 137.72 560.347 367.048
3367 0 103.137 12.721 1312 138.288 560.826 368.05
3368 0 107.143 14.1307 1514 138.166 560.48 345.378
3369 0 113.229 13.3977 1517 138.786 560.498 345.782
3370 0 114.19 13.1711 1504 138.326 560.346 352.744
3371 0 118.152 13.6858 1617 136.538 560.801 353.202
3372 0 121.108 12.5343 1518 139.291 560.289 355.854
3373 1 61.0384 12.271 749 134.032 559.955 373.366
3374 0 63.065 13.3037 839 129.734 559.882 372.666
3375 0 67.039 11.7096 785 132.632 559.791 377.601
3376 0 67.0744 12.1805 817 132.808 559.634 379.688
3377 0 67.0585 11.3334 760 137.047 559.767 379.472
3378 0 70.1163 12.522 878 133.013 560.274 380.158
3379 0 74.0866 12.1075 897 132.447 559.594 370.789
3380 0 75.1043 11.7304 881 128.575 560.419 369.582
3381 0 80.0395 12.069 966 127.852 560.489 371.888
3382 0 80.1074 11.9589 958 131.424 561.275 375.823
3383 0 84.0966 12.3548 1039 128.976 560.813 379.742
3384 0 87.0622 13.2204 1151 127.746 560.097 364.143
3385 0 90.1175 13.0385 1175 128.643 560.569 362.106
3386 0 92.0397 12.7119 1170 128.844 560.683 361.776
3387 0 97.1094 13.0883 1271 126.684 560.408 363.276
3388 0 100.133 13.1924 1321 125.559 560.393 363.315
3389 0 101.067 12.5066 1264 127.906 561.117 355.456
3390 0 105.046 12.3469 1297 129.937 560.305 358.763
3391 1 56.061 11.5053 645 127.592 559.882 383.681
3392 0 59.0662 12.7823 755 125.086 560.393 369.816
3393 0 59.1157 11.1984 662 129.251 560.71 379.187
3394 0 59.026 12.215 721 129.558 559.723 378.157
3395 0 63.0542 12.291 775 128.458 560.266 378.956
3396 0 65.0307 12.1942 793 128.199 560.116 382.375
3397 0 66.0483 11.5219 761 131.293 560.089 381.556
3398 0 69.0779 12.2615 847 127.941 560.043 381.501
3399 0 71.0255 11.8127 839 129.671 560.507 378.201
3400 0 73.1077 12.8714 941 127.362 560.798 367.853
3401 0 75.083 12.8258 963 128.296 560.895 367.947
3402 0 78.1048 12.5857 983 128.816 561.198 367.964
3403 0 80.0444 13.1927 1056 126.719 560.374 373.303
3404 0 83.0469 13.3419 1108 126.407 560.117 376.051
3405 0 85.1194 13.017 1108 127.189 561.002 377.383
3406 0 88.1045 12.7689 1125 127.866 560.821 369.783
3407 0 91.1355 12.9368 1179 128.461 560.956 357.725
3408 0 93.1177 12.9514 1206 128.731 560.541 358.973
3409 0 95.158 12.5686 1196 131.022 560.826 356.078
3410 0 100.199 12.5651 1259 129.055 561.402 359.347
3411 0 103.154 13.2811 1370 128.913 560.965 352.684
3412 0 106.177 12.6205 1340 130.978 561.276 351.381
3413 1 56.0173 11.0323 618 123.468 561.503 373.775
3414 0 59.1404 12.4619 737 124.65 561.41 364.856
3415 0 59.1055 11.9617 707 121.672 560.967 374.453
3416 0 61.056 11.0882 677 126.056 561.264 375.659
3417 0 64.0865 11.8902 762 124.073 560.891 376.843
3418 0 65.1178 12.1319 790 124.229 560.519 379.282
3419 0 66.0923 11.7109 774 127.965 560.913 371.876
3420 0 70.0559 12.5043 876 123.531 560.674 376.449
3421 0 72.0456 12.6587 912 125.26 560.593 380.163
3422 0 74.1552 13.674 1014 122.91 560.448 368.439
3423 0 76.0507 12.7678 971 126.169 560.926 365.985
3424 0 78.0943 12.5105 977 127.1 561.14 363.668
3425 0 81.1697 12.1351 985 126.565 561.05 370.534
3426 0 86.1181 13.0518 1124 126.992 560.665 372.749
3427 0 85.2692 12.8651 1097 130.871 560.221 376.93
3428 0 89.1524 13.5274 1206 130.765 560.9 360.704
3429 0 92.0728 12.9354 1191 130.39 561.061 359.027
3430 0 96.1491 12.6366 1215 131.015 561.319 358.632
3431 0 98.1078 12.9348 1269 131.633 560.457 363.905
3432 0 99.2378 12.8379 1274 136.377 560.024 369.711
3433 0 104.097 13.1608 1370 135.847 560.162 368.1
3434 1 56.0573 13.1294 736 128.236 559.659 377.678
3435 0 58.0683 12.2098 709 130.412 560.234 376.795
3436 0 59.0292 12.299 726 125.775 560.73 376.661
3437 0 60.082 12.3997 745 127.926 561.46 374.373
3438 0 63.1038 12.1704 768 127.47 561.427 375.152
3439 0 66.0656 12.3362 815 127.578 560.103 375.831
3440 0 66.0332 11.9031 786 131.083 559.686 380.768
3441 0 68.0943 12.5708 856 130.607 560.054 384.604
3442 0 72.0764 11.8485 854 131.087 560.199 380.238
3443 0 73.0366 12.5006 913 130.772 560.429 382.533
3444 0 77.0973 12.6853 978 131.992 559.753 383.236
3445 0 77.0445 11.7465 905 136.296 560.655 381.699
3446 0 82.0895 12.9858 1066 131.324 560.832 368.714
3447 0 84.0777 13.0356 1096 133.474 560.689 370.112
3448 0 86.0684 13.4544 1158 132.047 560 374.497
3449 0 88.065 12.1161 1067 138.359 560.581 377.395
3450 0 88.0561 12.7078 1119 138.168 559.66 378.773
3451 0 96.1147 13.5359 1301 134.856 559.965 360.731
3452 0 97.1593 14.0388 1364 134.721 560.257 356.719
3453 0 101.168 13.7791 1394 135.465 560.891 359.422
3454 0 103.151 13.8825 1432 135.624 560.59 364.029
3455 0 106.202 12.5045 1328 140.745 560.605 365.941
3456 0 109.159 13.5948 1484 139.222 560.276 364.773
3457 0 116.259 14.5623 1693 143.626 560.953 347.584
3458 0 120.296 14.2814 1718 143.353 560.169 347.425
3459 0 125.136 13.5213 1692 139.177 559.501 342.213
3460 1 68.2009 11.8473 808 136.152 559.303 369.167
3461 0 71.0573 13.4539 956 132.214 559.316 362.185
3462 0 73.0822 13.259 969 132.457 559.323 369.451
3463 0 74.0742 13.2435 981 140.778 558.904 370.218
3464 0 78.0823 13.204 1031 138.682 560.027 376.145
3465 0 82.043 13.4685 1105 139.082 559.176 365.037
3466 0 85.0949 13.9374 1186 137.513 559.479 362.953
3467 0 86.1052 13.1119 1129 140.007 559.34 366.663
3468 0 88.0596 12.889 1135 140.152 559.708 371.915
3469 0 92.0536 14.1439 1302 136.29 558.134 368.208
3470 0 93.0853 13.1815 1227 139.161 559.183 370.447
3471 0 98.1099 12.8529 1261 139.468 559.638 363.662
3472 0 102.115 12.7112 1298 139.227 559.783 360.335
3473 0 105.066 13.7533 1445 135.962 559.009 357.335
3474 0 108.086 13.5725 1467 136.41 559.01 358.714
3475 0 111.107 14.0225 1558 134.515 560.033 361.539
3476 0 114.163 14.2866 1631 134.798 559.42 344.549
3477 0 116.097 13.8418 1607 136.07 559.018 343.227
3478 0 120.09 15.0471 1807 132.567 560.428 336.791
3479 0 125.128 14.1055 1765 132.217 559.599 334.67
3480 0 128.079 13.8118 1769 133.782 559.431 335.92
3481 0 132.183 14.5253 1920 133.383 559.007 329.845
3482 0 136.114 13.4887 1836 135.777 559.244 330.994
3483 0 141.164 13.3816 1889 134.312 559.902 329.548
3484 0 145.079 14.1854 2058 133.324 559.589 325.134
3485 0 150.123 13.7887 2070 135.389 560.244 321.072
3486 0 156.117 15.6229 2439 129.656 559.367 319.691
3487 0 159.228 14.5703 2320 132.899 558.922 324.031
3488 0 165.154 13.8416 2286 135.473 559.267 324.797
3489 0 171.268 15.0174 2572 133.084 558.927 325.977
3490 0 176.186 14.8764 2621 133.823 558.969 323.838
3491 0 180.247 14.6133 2634 136.823 559.238 321.663
3492 0 187.259 15.0968 2827 135.972 558.938 319.55
3493 0 192.181 15.4125 2962 136.771 558.815 309.635
3494 0 200.265 14.8153 2967 139.298 559.221 311.467
3495 0 206.292 15.0999 3115 139.233 559.154 306.598
3496 1 178.25 8.97615 1600 147.723 559.556 331.149
3497 0 176.136 7.30685 1287 137.303 559.533 349.51
3498 0 168.139 8.53463 1435 137.929 559.226 339.344
3499 0 172.144 10.497 1807 140.056 559.444 327.475
3500 0 176.188 12.4923 2201 138.484 560.197 323.142
3501 0 183.192 13.8762 2542 136.153 560.142 327.483
3502 0 189.29 13.3023 2518 138.215 559.776 328.019
3503 0 198.41 14.0668 2791 138.382 559.523 316.975
3504 0 206.303 16.3982 3383 130.034 559.291 308.769
3505 0 213.292 15.514 3309 131.705 559.491 303.411
3506 0 221.22 16.3683 3621 129.022 559.835 300.259
3507 0 230.263 17.7883 4096 125.039 559.714 298.035
3508 0 238.338 15.8514 3778 132.45 559.737 294.684
3509 1 64.2037 10.7626 691 126.368 559.093 384.874
3510 0 65.0649 11.2964 735 126.765 559.52 382.999
3511 0 69.1836 12.185 843 123.937 560.26 386.515
3512 0 71.1656 12.773 909 122.844 559.749 384.154
3513 0 74.2179 11.5606 858 125.38 559.408 385.336
3514 0 83.2086 16.5127 1374 108.251 559.705 372.631
3515 0 84.1726 14.9098 1255 114.324 559.571 373.896
3516 0 85.2756 12.8876 1099 121.121 559.95 375.219
3517 0 87.1605 12.4598 1086 124.331 559.719 375.517
3518 0 92.3796 15.209 1405 115.18 560.176 369.912
3519 1 49.1806 10.6139 522 122.096 559.088 393.523
3520 0 49.141 12.0266 591 119.832 559.535 393.672
3521 0 49.0796 11.6953 574 124.221 559.35 391.596
3522 0 53.1512 12.5303 666 121.294 559.536 389.943
3523 0 53.1914 12.6524 673 123.247 558.81 388.276
3524 0 57.1312 14.0379 802 118.737 558.777 389.883
3525 0 59.0559 12.9369 764 123.086 559.38 387.72
3526 0 59.1291 12.1767 720 124.901 558.853 388.5
3527 0 63.1139 11.7724 743 126.308 558.904 387.31
3528 0 64.1688 12.3113 790 124.652 559.099 387.459
3529 0 65.2493 12.9963 848 125.25 559.731 383.426
3530 0 65.1923 13.069 852 147.101 559.745 383.426
3531 0 72.1142 14.1165 1018 120.932 559.552 385.303
3532 0 73.1216 13.7579 1006 123.596 559.49 383.739
3533 0 76.1656 14.4685 1102 122.37 560.023 382.431
3534 0 76.2027 13.9365 1062 124.601 559.573 382.069
3535 0 79.2369 13.4533 1066 126.038 559.339 380.13
3536 0 80.2 12.7556 1023 130.312 559.731 374.989
3537 0 84.0799 13.7369 1155 128.451 559.833 373.089
3538 0 86.2745 13.3527 1152 130.131 560.019 361.84
3539 0 91.2285 13.0442 1190 131.682 560.388 357.718
3540 0 94.3057 13.2654 1251 132.356 560.025 355.524
3541 1 46.0898 13.0831 603 132.688 560.159 375.534
3542 0 49.1077 13.0733 642 134.056 560.134 374.375
3543 0 50.066 13.9616 699 131.217 559.617 374.003
3544 0 49.103 12.2192 600 139.058 559.52 374.787
3545 0 54.1402 13.6313 738 132.564 560.047 375.148
3546 0 54.1274 13.8931 752 133.816 560.129 373.939
3547 0 58.1514 13.9292 810 131.741 560.33 374.691
3548 0 59.1533 12.8818 762 136.944 560.201 372.564
3549 0 61.191 13.8092 845 133.71 560.231 372.02
3550 0 58.1778 13.5103 786 138.059 559.767 371.724
3551 0 63.1637 15.4994 979 129.34 560.02 371.533
3552 0 66.1408 14.8622 983 130.203 560.405 370.476
3553 0 71.1971 13.7927 982 131.502 560.329 368.359
3554 0 69.16 14.0399 971 132.975 560.215 367.899
3555 0 71.2294 13.6882 975 133.505 560.005 367.308
3556 0 74.1794 13.8313 1026 132.773 560.839 365.788
3557 0 76.0777 14.8532 1130 130.047 560.388 364.278
3558 0 78.1319 14.1043 1102 132.354 560.402 362.406
3559 0 80.1885 14.2165 1140 131.375 560.782 360.096
3560 0 85.1319 14.7771 1258 129.544 560.917 358.657
3561 0 87.1556 15.1109 1317 128.511 560.5 356.902
3562 0 88.1492 15.383 1356 128.947 561.293 353.588
3563 0 92.1694 14.495 1336 130.635 561.067 354.538
3564 0 94.1333 14.4582 1361 130.965 560.361 354.209
3565 0 96.1494 14.1239 1358 131.745 560.13 353.708
3566 0 100.232 14.9054 1494 129.013 560.173 352.873
3567 0 104.221 16.4939 1719 123.265 560.876 350.75
3568 0 108.265 15.0372 1628 125.771 560.87 353.424
3569 0 110.13 13.8381 1524 128.276 561.377 351.6
3570 1 60.104 11.5134 692 121.364 561.512 377.909
3571 0 60.2651 10.8521 654 125.408 561.479 376.607
3572 0 63.13 11.611 733 119.404 561.187 375.999
3573 0 66.0682 11.6698 771 119.228 561.472 374.533
3574 0 69.132 11.2104 775 119.382 560.939 377.954
3575 0 71.1527 11.8196 841 117.854 560.866 377.096
3576 0 74.0723 12.5958 933 115.248 561.46 374.916
3577 0 77.1713 12.09 933 116.638 561.4 373.795
3578 0 78.3069 11.7869 923 118.322 561.147 372.947
3579 0 80.1832 11.8603 951 117.363 561.137 373.005
3580 0 83.1967 11.9476 994 116.051 561.733 373.919
3581 0 86.1629 13.2656 1143 113.466 560.529 370.011
3582 0 89.1955 12.2764 1095 115.698 561.132 368.527
3583 0 89.2283 11.5434 1030 117.191 561.236 366.842
3584 0 94.1589 12.447 1172 114.413 561.027 365.514
3585 0 96.1486 11.763 1131 115.095 561.371 363.156
3586 0 100.187 11.718 1174 113.865 561.304 364.553
3587 1 56.1448 9.49331 533 104.047 561.205 388.75
3588 0 57.0947 9.86081 563 103.657 560.897 386.597
3589 0 59.2071 10.742 636 101.417 560.612 385.349
3590 0 60.1089 9.06688 545 110.294 561.314 384.76
3591 0 61.0789 10.0362 613 108.763 561.109 378.501
3592 0 65.1909 11.0752 722 106.281 561.906 378.251
3593 0 66.0938 10.1068 668 108.714 561.316 381.322
3594 0 68.243 10.3014 703 109.623 561.484 376.097
3595 0 71.1959 10.3658 738 109.843 561.054 379.019
3596 0 73.1616 10.8664 795 109.39 561.127 379.082
3597 0 75.1725 10.6555 801 110.97 561.312 376.558
3598 0 77.1267 10.204 787 111.562 561.376 377.273
3599 0 79.1054 10.5302 833 112.163 561.401 375.571
3600 0 84.1103 10.9261 919 112.173 561.213 371.129
3601 0 87.1523 11.2562 981 111.286 561.03 373.249
3602 0 89.0836 11.9102 1061 111.88 561.187 371.707
3603 1 48.026 9.9113 476 105.836 560.511 393.002
3604 0 47.0476 9.13969 430 109.516 560.307 391.63
3605 0 49.1057 9.69337 476 109.437 560.947 390.5
3606 0 51.0811 10.6889 546 108.051 560.842 390.89
3607 0 50.0964 10.2003 511 117.153 562.17 389.99
3608 0 55.06 7.99128 440 119.923 561.543 393.591
3609 0 55.0769 9.87711 544 115.897 560.695 388.487
3610 0 56.1736 10.3251 580 116.564 560.981 387.953
3611 0 57.0898 10.72 612 117.75 560.739 389.583
3612 0 65.1355 7.49208 488 122.385 560.672 392.564
3613 0 67.1093 7.0333 472 116.568 560.958 393.657
3614 0 69.2031 9.07474 628 115.014 560.939 390.728
3615 0 64.1188 13.4126 860 104.556 561.122 384.73
3616 0 64.1357 12.1773 781 109.138 561.362 383.288
3617 0 66.1229 11.6147 768 111.217 561.311 382.952
3618 0 67.1539 10.4834 704 114.322 561.744 383.257
3619 0 72.1508 12.0026 866 109.689 561.136 382.294
3620 0 72.1031 11.0814 799 112.875 562.003 382.015
3621 0 74.0527 11.0327 817 110.286 562.548 372.459
3622 0 78.1421 12.0678 943 108.448 563.213 368.741
3623 0 80.1764 11.6743 936 114.39 562.687 376.499
3624 0 82.1177 11.52 946 110.893 563.15 370.177
3625 0 83.0926 11.5775 962 111.016 562.586 371.127
3626 0 88.0815 10.9898 968 111.588 562.846 373.911
3627 0 91.0497 13.2675 1208 107.808 562.478 362.303
3628 0 91.1175 11.2382 1024 113.125 562.849 364.199
3629 0 96.0713 10.6067 1019 113.119 561.825 367.175
3630 1 53.0374 10.6529 565 102.108 561.506 388.142
3631 0 54.1529 10.9874 595 101.193 561.541 391.464
3632 0 56.0463 12.3469 692 99.6127 561.967 378.685
3633 0 56.0579 11.8271 663 101.33 561.854 380.377
3634 0 58.0964 11.6186 675 101.489 561.619 380.061
3635 0 61.1044 11.8649 725 100.721 561.419 380.541
3636 0 64.0467 12.2411 784 100.015 562.046 379.374
3637 0 64.0647 11.785 755 102.189 561.944 378.85
3638 0 66.0669 11.9273 788 110.83 561.137 378.786
3639 0 67.0505 11.4391 767 113.711 560.518 377.237
3640 0 71.0616 14.6211 1039 104.471 560.465 386.299
3641 0 72.0945 12.6085 909 111.793 560.63 382.459
3642 0 74.0685 11.8269 876 115.381 560.691 371.646
3643 0 77.0894 12.6995 979 113.658 560.547 372.965
3644 0 79.0513 13.2446 1047 114.517 560.977 373.972
3645 0 82.0851 14.4971 1190 111.018 560.769 372.759
3646 0 83.1134 12.7055 1056 117.436 560.687 373.261
3647 0 85.112 12.4189 1057 114.458 561.313 374.187
3648 0 88.1589 11.7742 1038 113.593 561.474 376.02
3649 1 47.0391 10.3531 487 109.793 561.606 386.637
3650 0 49.0458 12.05 591 106.47 561.151 386.452
3651 0 50.0228 11.1349 557 110.189 560.208 387.682
3652 0 51.1021 11.7412 600 111.102 560.638 391.213
3653 0 52.0501 11.6426 606 110.285 560.173 396.746
3654 0 52.0786 11.4058 594 113.449 560.278 388.478
3655 0 55.0586 11.3152 623 114.759 560.774 388.742
3656 0 55.0453 10.3551 570 118.065 561.111 382.177
3657 0 60.0247 12.5615 754 110.802 560.935 382.532
3658 0 58.0427 11.1125 645 117.541 561.039 381.972
3659 0 62.0611 12.3266 765 114.902 560.816 381.825
3660 0 63.0694 11.7014 738 117.997 560.808 380.481
3661 0 64.034 11.9312 764 118.347 561.012 383.732
3662 0 66.1202 11.7665 778 119.199 560.959 388.779
3663 0 68.0194 12.0113 817 119.247 560.815 390.149
3664 0 70.0763 12.0297 843 119.524 560.727 388.015
3665 0 71.0604 11.9898 852 120.63 560.773 386.991
3666 0 73.045 12.198 891 121.468 560.581 384.713
3667 0 77.0696 12.2357 943 120.777 560.954 373.31
3668 0 79.0366 12.8295 1014 120.357 560.383 374.786
3669 0 82.0207 13.3015 1091 118.675 560.534 375.787
3670 0 83.072 13.1813 1095 121.408 560.756 379.889
3671 0 87.0926 13.767 1199 119.545 560.751 381.083
3672 0 88.064 14.1715 1248 119.265 560.604 366.255
3673 0 93.0476 14.455 1345 117.762 560.283 363.824
3674 1 51.0411 11.5985 592 119.26 559.872 386.14
3675 0 53.0481 12.1211 643 115.919 560.437 388.333
3676 0 55.0568 12.7141 700 113.43 560.499 382.907
3677 0 53.1023 11.3178 601 119.86 560.361 381.699
3678 0 56.0245 13.2799 744 113.722 560.716 380.755
3679 0 59.0418 12.6521 747 115.181 559.882 378.431
3680 0 61.0918 12.2602 749 118.561 560.174 375.913
3681 0 61.0578 12.6929 775 119.535 559.868 374.662
3682 0 64.041 13.2103 846 117.71 560.807 375.591
3683 0 66.0699 12.85 849 119.856 560.086 375.664
3684 0 68.0628 12.5472 854 120.72 559.761 376.735
3685 0 69.0947 12.273 848 123.942 560.433 377.856
3686 0 72.1251 12.1871 879 126.844 560.06 381.671
3687 0 75.1252 13.4043 1007 125.52 559.619 379.422
3688 0 78.0268 12.752 995 127.615 559.304 371.689
3689 0 83.0908 13.7921 1146 124.27 559.493 367.842
3690 0 83.0574 11.775 978 129.937 558.961 371.353
3691 0 83.0574 11.787 979 154.425 557.979 371.259
3692 1 46.0435 12.2058 562 123.087 558.696 400.448
3693 0 45.0485 10.9882 495 126.667 558.861 401.984
3694 0 47.067 11.8767 559 126.592 558.596 386.755
3695 0 50.0604 12.0654 604 126.063 558.333 387.687
3696 0 52.04 11.3951 593 128.366 558.597 394.727
3697 0 52.0196 11.7071 609 129.164 558.665 396.826
3698 0 54.0203 11.1254 601 131.343 558.889 396.251
3699 0 55.0131 12.4152 683 127.564 558.949 398.29
3700 0 59.0234 13.0457 770 127.095 558.948 380.732
3701 0 63.0509 12.5613 792 124.811 558.391 382.073
3702 0 62.0388 13.0886 812 127.507 558.206 378.198
3703 0 65.0757 12.9541 843 129.89 557.641 375.363
3704 0 67.0842 12.5365 841 130.956 558.483 377.216
3705 0 69.1326 12.0493 833 131.038 558.154 375.969
3706 0 72.0651 11.9475 861 131.555 558.511 375.519
3707 0 76.0957 13.0888 996 126.753 558.995 382
3708 0 79.0635 12.6354 999 126.898 559.007 386.226
3709 0 81.0967 13.0955 1062 127.192 559.781 370.556
3710 0 82.1154 13.3471 1096 127.652 560.174 366.424
3711 0 84.084 13.0584 1098 128.418 559.398 370.074
3712 0 88.0563 13.3665 1177 126.898 559.29 375.059
3713 0 90.0683 12.5016 1126 130.266 559.419 378.399
3714 0 92.1283 13.4595 1240 129.239 558.896 362.242
3715 0 94.0702 13.2986 1251 129.706 559.224 360.912
3716 0 97.0901 13.3381 1295 129.029 559.342 362.892
3717 0 101.061 13.1109 1325 129.375 558.606 366.682
3718 0 104.066 13.7028 1426 128.669 558.778 369.474
3719 0 107.106 13.9954 1499 127.537 558.354 367.753
3720 0 112.143 13.5184 1516 126.582 558.203 359.569
3721 0 115.147 14.3382 1651 124.366 558.902 352.521
3722 0 115.147 14.2948 1646 150.624 557.909 352.497
3723 0 121.097 14.0135 1697 124.709 559.126 345.689
3724 0 125.234 13.7184 1718 124.611 558.953 345.636
3725 0 129.237 13.6416 1763 125.047 559.161 338.548
3726 0 133.124 12.8602 1712 125.494 559.318 341.482
3727 0 138.171 13.3674 1847 125.289 559.07 340.633
3728 0 144.218 13.4796 1944 123.625 559.312 336.025
3729 0 147.19 13.2549 1951 124.752 559.255 332.907
3730 0 154.163 13.7841 2125 122.494 559.103 331.312
3731 0 158.247 13.2514 2097 123.423 559.355 330.64
3732 0 164.115 13.3809 2196 122.805 559.462 334.357
3733 0 168.169 12.975 2182 123.736 559.981 334.23
3734 0 174.111 14.1749 2468 119.973 559.897 332.92
3735 0 180.113 14.9739 2697 118.86 559.451 312.529
3736 0 186.182 15.2861 2846 117.541 559.792 313.194
3737 0 193.194 14.5553 2812 119.37 560.045 309.757
3738 0 199.177 15.3531 3058 117.003 559.606 309.025
3739 0 205.303 15.6598 3215 116.347 559.369 309.563
3740 0 212.298 14.6398 3108 118.862 559.95 304.665
3741 1 226.249 17.6973 4004 108.987 559.904 292.484
3742 0 229.297 14.2217 3261 120.443 559.918 295.658
3743 0 236.271 16.2652 3843 113.921 559.772 288.547
3744 0 246.466 16.7366 4125 113.453 559.966 286.058
3745 0 254.436 15.7603 4010 118.716 560.032 283.047
3746 1 77.1112 12.0994 933 111.738 560.234 380.002
3747 0 80.0566 12.766 1022 113.527 559.893 377.37
3748 0 83.1176 12.6086 1048 114.265 561.175 377.273
3749 0 85.1259 12.3112 1048 116.05 561.454 373.792
3750 0 90.1589 12.2561 1105 116.081 561.648 372.663
3751 0 92.0692 12.9033 1188 116.188 561.392 368.734
3752 0 96.2261 13.4579 1295 114.906 561.404 369.59
3753 0 99.0598 12.0533 1194 118.13 561.46 366.577
3754 0 102.111 12.8585 1313 117.186 561.628 366.164
3755 0 105.081 12.8377 1349 118.29 562.185 362.473
3756 0 108.121 11.9865 1296 120.662 561.343 366.16
3757 0 113.136 12.8165 1450 119.006 561.28 364.325
3758 1 62.0537 11.4739 712 116.045 561.381 385.642
3759 0 65.1534 12.5089 815 115.736 561.266 382.703
3760 0 68.1102 13.1111 893 115.029 561.506 381.485
3761 0 69.1505 13.0874 905 117.427 561.991 380.491
3762 0 72.1324 13.6277 983 117.349 562.509 378.516
3763 0 74.0779 13.0268 965 118.704 562.078 379.057
3764 0 76.165 12.985 989 119.453 562.263 377.923
3765 0 79.207 12.0191 952 122.479 562.017 378.373
3766 0 81.1098 12.1194 983 122.169 562.563 378.663
3767 0 84.0875 12.7367 1071 121.749 561.969 376.821
3768 0 86.1842 12.6357 1089 124.183 562.467 372.719
3769 0 90.2276 12.9007 1164 121.871 562.474 374.808
3770 0 92.1715 12.1187 1117 125.66 562.225 372.426
3771 0 96.1769 14.4837 1393 121.22 562.483 367.207
3772 0 100.156 13.3491 1337 123.703 561.657 367.596
3773 0 102.212 14.1764 1449 123.772 561.594 363.977
3774 0 105.22 13.6476 1436 125.306 562.118 363.54
3775 0 113.195 14.6826 1662 121.794 562.052 361.644
3776 1 60.1051 11.9125 716 121.383 560.884 388.577
3777 0 63.0684 11.987 756 122.388 561.29 388.332
3778 0 63.0682 12.9542 817 121.676 561.375 386.088
3779 0 64.1197 13.0693 838 127.378 560.837 385.368
3780 0 66.1489 12.7742 845 128.021 561.33 384.372
3781 0 69.1501 13.073 904 127.121 560.42 383.336
3782 0 70.0495 14.1614 992 125.975 561.925 379.735
3783 0 74.1864 14.3153 1062 125.142 561.736 379.011
3784 0 77.1976 14.3528 1108 123.858 562.014 380.372
3785 0 77.0967 12.1795 939 129.088 561.823 379.297
3786 0 79.0833 13.6944 1083 126.176 561.934 377.176
3787 0 84.2133 14.2139 1197 124.218 562.294 376.934
3788 0 87.1329 14.7591 1286 122.523 561.84 373.494
3789 0 91.1793 14.3454 1308 124.067 562.048 373.435
3790 1 44.1076 11.88 524 123.71 561.239 397.385
3791 0 46.134 11.64 537 126.57 561.68 396.19
3792 0 50.185 13.1314 659 122.118 561.892 395.722
3793 0 49.1507 13.1636 647 126.543 561.002 394.858
3794 0 52.0602 12.3703 644 127.539 561.228 394.061
3795 0 53.1005 14.5761 774 122.751 561.353 391.837
3796 0 53.1954 13.629 725 127.499 561.702 392.335
3797 0 57.1637 14.2923 817 123.846 561.373 392.126
3798 0 57.0854 14.96 854 123.629 561.146 392.685
3799 0 57.0405 13.657 779 129.893 560.856 390.306
3800 0 62.1903 13.3461 830 128.617 561.123 391.063
3801 0 63.1717 15.5291 981 123.274 560.473 388.039
3802 0 65.0433 13.8677 902 127.305 560.306 388.677
3803 0 66.2214 13.1981 874 130.311 560.35 388.149
3804 0 69.1434 14.0722 973 128.613 560.572 386.844
3805 0 71.0884 14.0389 998 129.348 560.495 385.655
3806 0 75.1898 14.8424 1116 126.03 560.768 381.573
3807 0 78.2063 14.4106 1127 128.213 560.918 367.557
3808 0 78.1406 14.2819 1116 131.349 560.131 366.637
3809 0 82.2441 14.1165 1161 131.349 560.32 366.763
3810 0 85.1534 15.1139 1287 127.846 559.978 367.762
3811 0 89.2333 13.941 1244 132.796 560.261 367.857
3812 0 93.1605 14.6414 1364 129.804 559.719 363.885
3813 1 48.1052 11.5788 557 135.591 559.758 389.908
3814 0 49.1666 12.2237 601 133.225 560.313 395.799
3815 0 52.1236 13.5831 708 129.547 560.944 397.203
3816 0 53.0529 12.8551 682 133.474 560.494 376.544
3817 0 56.118 14.0062 786 130.123 560.726 376.489
3818 0 57.1121 13.4297 767 132.937 560.55 374.413
3819 0 59.1278 14.0712 832 131.297 559.906 374.28
3820 0 59.124 13.514 799 135.441 559.773 374.656
3821 0 62.1071 13.0259 809 134.607 560.367 375.038
3822 0 64.2133 13.7043 880 134.248 560.806 370.603
3823 0 67.2491 13.74 924 133.917 560.35 369.524
3824 0 67.1178 13.2454 889 134.655 560.461 371.765
3825 0 72.206 13.5169 976 132.207 559.931 370.164
3826 0 73.1517 14.8595 1087 128.16 560.089 368.526
3827 0 77.2259 14.0108 1082 128.958 560.785 368.38
3828 0 78.1443 14.1917 1109 131.536 560.347 363.192
3829 0 82.163 13.5341 1112 130.846 561.309 363.482
3830 0 85.2521 12.9498 1104 130.516 561.377 366.13
3831 1 45.3235 11.1421 505 126.097 561.226 380.655
3832 0 46.1803 11.7799 544 123.23 560.833 379.581
3833 0 47.1185 10.3569 488 118.789 561.961 384.281
3834 0 49.0954 11.6304 571 114.867 562.011 387.937
3835 0 50.0297 12.5925 630 113.851 561.168 390.957
3836 0 50.0256 10.6945 535 119.63 561.303 389.086
3837 0 54.0449 11.3239 612 115.806 561.384 389.18
3838 0 55.0932 12.3609 681 117.25 561.135 387.925
3839 0 57.0845 13.0859 747 115.723 561.175 387.672
3840 0 57.0529 10.9723 626 121.524 561.425 386.171
3841 0 61.0982 12.3899 757 117.357 561.551 385.962
3842 0 63.143 12.9389 817 116.017 561.737 386.093
3843 0 64.0922 12.3416 791 118.477 561.776 384.643
3844 0 67.096 12.2511 822 118.399 562.363 384.597
3845 0 69.1439 11.7581 813 120.311 561.397 382.376
3846 0 71.1355 12.68 902 118.197 561.568 381.784
3847 0 74.1949 12.4537 924 118.986 561.407 381.073
3848 0 76.0979 11.5641 880 121.73 561.352 378.96
3849 0 80.072 12.0267 963 117.023 560.704 378.394
3850 0 82.1211 11.9336 980 118.399 560.754 372.35
3851 1 42.0728 8.58037 361 108.986 561.022 398.584
3852 0 44.0546 9.57901 422 109.645 560.666 398.533
3853 0 47.0714 11.8756 559 104.329 561 396.465
3854 0 49.0735 10.5148 516 108.227 560.483 394.479
3855 0 48.1233 10.8887 524 109.592 561.859 393.305
3856 0 51.1593 11.0244 564 107.544 560.86 394.489
3857 0 52.1041 11.0548 576 108.328 560.913 392.8
3858 0 51.2097 9.62708 493 114.034 561.306 391.223
3859 0 56.0886 12.6764 711 105.201 560.761 389.191
3860 0 55.096 10.7449 592 110.049 560.824 390.326
3861 0 57.0683 12.1784 695 107.705 561.365 388.797
3862 0 59.1311 11.5675 684 108.789 561.442 388.009
3863 0 61.1329 11.4668 701 109.458 561.227 387.084
3864 0 63.3202 10.5495 668 111.268 561.099 385.921
3865 0 66.1337 11.4314 756 108.823 561.902 386.464
3866 0 67.2896 12.3645 832 107.617 561.885 387.075
3867 0 70.1325 11.7207 822 108.372 561.305 388.281
3868 0 73.0931 12.9287 945 106.74 561.263 386.959
3869 0 73.1309 10.994 804 111.664 561.097 389.26
3870 0 76.1488 12.0816 920 109.163 561.164 390.396
3871 0 78.1199 10.6375 831 113.189 561.272 383.291
3872 0 80.1774 11.512 923 111.572 561.504 377.038
3873 0 84.3119 12.3114 1038 109.345 560.96 380.016
3874 0 85.2478 11.3082 964 112.574 560.38 383.485
3875 0 88.1704 11.3077 997 113.571 560.995 386.413
3876 1 45.0655 7.38924 333 112.327 559.88 414.664
3877 0 47.0416 10.14 477 108.738 559.851 397.151
3878 0 48.0459 9.69906 466 109.519 560.766 399.597
3879 0 49.1483 11.5569 568 108.625 561.928 402.016
3880 0 53.1288 11.1051 590 108.132 560.653 405.88
3881 0 51.1985 8.45727 433 116.85 561.09 408.393
3882 0 54.1523 10.6921 579 112.421 561.323 414.138
3883 0 56.0905 9.73427 546 112.064 561.733 417.473
3884 0 59.1033 10.9469 647 111.796 561.352 387.941
3885 0 65.1364 11.0537 720 106.967 561.101 389.194
3886 0 68.1817 12.012 819 104.741 561.438 389.162
3887 0 69.0757 12.9423 894 102.738 561.423 385.489
3888 0 69.1067 10.8673 751 109.493 560.638 387.369
3889 0 72.1761 12.9129 932 108.011 560.954 386.926
3890 0 75.177 11.5461 868 111.07 560.961 388.455
3891 0 79.1046 13.6781 1082 106.059 560.437 371.352
3892 0 80.1318 12.1425 973 111.044 560.489 372.846
3893 0 83.0436 12.355 1026 110.686 560.423 373.049
3894 0 86.0741 13.4651 1159 110.538 561.406 375.488
3895 0 89.1619 11.9109 1062 111.61 560.529 379.556
3896 1 48.0489 8.84515 425 109.433 560.758 393.642
3897 0 52.0377 10.1657 529 106.284 560.325 388.58
3898 0 53.0347 10.7854 572 105.33 560.505 387.591
3899 0 55.0682 11.7127 645 107.811 559.716 384.271
3900 0 54.0409 10.0665 544 114.636 560.118 384.153
3901 0 57.0224 11.5393 658 110.953 559.927 383.653
3902 0 59.0435 11.5 679 110.292 560.077 383.377
3903 0 62.0386 12.0893 750 109.247 559.62 381.048
3904 0 63.0524 12.3389 778 109.254 559.991 379.852
3905 0 64.0422 12.1326 777 110.703 560.314 378.34
3906 0 66.0501 11.6881 772 111.786 559.997 379.692
3907 0 69.1209 12.9628 896 108.594 560.175 376.691
3908 0 69.0997 11.7222 810 111.754 560.36 376.447
3909 0 72.1143 12.6882 915 109.882 560.482 374.819
3910 0 75.1028 12.4762 937 110.329 559.868 380.287
3911 0 75.2308 11.9233 897 112.583 559.513 384.139
3912 0 79.1938 12.2358 969 112.191 559.554 385.27
3913 0 80.1027 11.9846 960 112.016 559.861 368.799
3914 0 82.1297 11.5671 950 113.104 559.769 367.066
3915 1 47.0761 9.75017 459 106.251 560.56 387.314
3916 0 48.1347 10.99 529 103.355 560.081 391.926
3917 0 48.2374 11.0702 534 105.305 559.588 397.109
3918 0 52.0454 11.3747 592 107.986 558.372 398.586
3919 0 52.0269 11.4172 594 107.448 559.367 385.785
3920 0 54.1131 11.476 621 108.541 559.91 389.142
3921 0 55.2166 10.975 606 108.639 560.188 385.457
3922 0 57.1345 12.0943 691 105.698 559.721 384.521
3923 0 58.1182 10.513 611 108.946 559.614 383.696
3924 0 61.0639 12.3313 753 106.223 559.623 381.572
3925 0 61.1797 11.1311 681 111.546 559.455 377.85
3926 0 64.1172 11.167 716 111.704 559.779 379.061
3927 0 66.0444 11.4771 758 110.764 559.492 379.005
3928 0 70.0659 11.0182 772 110.484 559.284 379.696
3929 0 72.0463 11.2983 814 111.21 560.348 376.943
3930 0 73.0733 10.729 784 113.633 559.793 376.312
3931 0 77.0804 11.7669 907 110.069 559.499 375.006
3932 0 80.085 11.3754 911 110.98 559.435 376.127
3933 0 83.097 11.276 937 111.702 559.479 374.914
3934 0 86.1348 11.9464 1029 110.975 558.53 364.181
3935 1 44.1117 8.88652 392 105.704 559.355 389.079
3936 0 46.1297 9.53833 440 106.673 559.059 393.545
3937 0 49.1618 10.496 516 102.353 558.378 398.878
3938 0 49.0277 11.055 542 109.762 557.657 398.046
3939 0 50.0301 10.2139 511 110.366 557.526 402.323
3940 0 52.0371 11.3765 592 109.093 558.093 398.279
3941 0 54.0729 10.8927 589 109.973 558.132 389.654
3942 0 56.0932 10.8748 610 109.616 558.656 394.046
3943 0 55.1254 9.92283 547 114.625 558.762 393.686
3944 0 57.1162 10.2073 583 114.23 559.312 392.039
3945 0 58.1924 9.5717 557 115.799 558.729 392.133
