time division length width area intensity CMx CMy
0 0 94.3075 16.8279 1587 97.8784 890.815 452.434
1 0 99.4262 16.7561 1666 98.3559 890.33 452.383
2 0 98.2228 20.8505 2048 93.2041 890.409 453.617
3 0 101.5 18.3054 1858 100.45 889.924 452.487
4 0 98.2175 17.6852 1737 104.242 890.149 452.349
5 0 99.2007 17.3789 1724 105.2 889.76 450.067
6 0 100.225 16.7025 1674 108.247 890.334 454.656
7 0 100.151 14.3184 1434 117.161 890.393 454.522
8 0 103.096 13.1334 1354 120.699 891.124 453.872
9 1 54.1705 10.6885 579 118.851 891.649 478.972
10 0 59.0965 13.1818 779 117.08 890.375 475.306
11 0 59.0913 13.1661 778 119 890.392 469.88
12 0 60.0459 13.4064 805 118.313 892.301 460.36
13 0 63.055 12.0054 757 120.826 892.115 461.82
14 0 65.1648 12.783 833 118.758 892.523 462.641
15 0 68.0731 13.5883 925 115.517 892.69 469.595
16 0 76.2295 16.529 1260 103.95 891.762 464.397
17 0 78.0826 15.4068 1203 108.311 891.991 461.303
18 0 79.2026 14.8101 1173 110.324 891.773 461.503
19 0 79.1244 14.7237 1165 112.881 891.525 461
20 0 80.0627 13.1897 1056 118.568 891.231 461.308
21 0 83.2428 13.2024 1099 118.37 891.56 461.403
22 0 87.0865 12.9412 1127 120.437 891.626 458.381
23 0 89.1643 13.6938 1221 119.813 890.989 456.477
24 0 91.1244 13.1798 1201 121.62 890.687 455.344
25 0 94.1751 13.2838 1251 122.98 891.617 453.093
26 0 98.1697 13.4461 1320 121.774 891.734 451.788
27 0 103.079 12.9416 1334 120.729 890.394 452.223
28 0 104.132 12.2537 1276 124.004 892.065 447.574
29 0 111.277 14.1988 1580 119.646 891.337 445.298
30 0 114.269 14.1683 1619 119.272 890.951 445.962
31 0 119.223 13.2357 1578 120.873 891.08 440.937
32 0 124.204 13.3732 1661 119.836 891.361 439.55
33 1 63.1375 10.8969 688 119.999 890.955 467.847
34 0 67.1795 12.9355 869 116.563 891.539 463.941
35 0 73.1046 13.2276 967 114.709 891.748 463.024
36 0 72.1004 14.2856 1030 119.272 890.529 461.111
37 0 75.0756 13.2666 996 121.626 890.923 459.928
38 0 79.144 13.2543 1049 120.451 890.705 459.507
39 0 81.151 12.2488 994 123.682 890.509 456.354
40 0 83.0873 12.6734 1053 122.968 890.634 453.542
41 0 86.0771 13.0464 1123 122.612 891.132 453.508
42 0 89.074 13.1351 1170 121.437 891.963 453.766
43 0 91.1468 12.5402 1143 124.311 891.236 449.22
44 0 94.2229 12.0459 1135 124.823 891.834 447.5
45 0 95.1344 12.5086 1190 126.086 891.086 445.434
46 0 102.153 12.4813 1275 124.779 891.42 445.017
47 0 104.174 12.0663 1257 125.366 890.82 444.487
48 1 55.0316 11.7751 648 117.27 890.9 465.952
49 0 58.0792 10.7612 625 117.632 891.093 467.942
50 0 58.0691 10.3497 601 113.03 891.11 463.037
51 0 63.1687 10.559 667 120.319 890.729 465.026
52 0 66.1908 10.515 696 112.721 890.772 468.724
53 0 67.0686 10.4818 703 114.592 890.936 467.201
54 0 72.2138 12.7676 922 109.181 891.674 466.982
55 0 73.1439 12.1951 892 111.474 891.269 464.363
56 0 76.1018 10.6042 807 114.765 891.347 461.426
57 0 79.1061 10.96 867 112.74 890.579 463.664
58 0 81.158 10.1284 822 109.648 892.017 462.328
59 0 84.2272 8.6789 731 111.375 892.037 458.992
60 0 88.289 10.443 922 107.53 891.271 455.973
61 0 85.1625 7.33891 625 115.307 890.838 448.411
62 0 95.1341 9.7126 924 111.11 891.618 453.403
63 0 95.1736 8.63685 822 112.063 890.746 450.364
64 0 102.274 11.0585 1131 114.461 891.119 453.218
65 1 55.2152 10.6855 590 111.549 892.12 473.566
66 0 57.0591 10.7783 615 111.613 891.379 472.21
67 0 59.1006 11.455 677 114.963 891.835 472.468
68 0 61.0463 12.3185 752 115.791 890.568 464.888
69 0 63.0813 11.1285 702 115.667 891.043 469.509
70 0 66.1258 12.0074 794 116.834 891.845 469.297
71 0 67.1387 13.1817 885 114.2 892.138 469.922
72 0 70.3036 12.3749 870 116.362 891.405 467.994
73 1 181.329 6.52406 1183 120.864 891.151 444.798
74 0 182.586 8.69178 1587 122.548 890.595 419.377
75 0 179.509 9.81011 1761 120.918 891.21 418.662
76 0 184.589 9.59971 1772 122.269 890.846 412.829
77 0 184.513 10.2919 1899 120.091 891.213 415.786
78 1 93.5357 18.4422 1725 96.7171 891.212 449.744
79 0 86.406 14.6402 1265 116.581 890.858 438.671
80 0 89.5443 12.921 1157 122.055 890.757 437.452
81 0 91.333 13.4782 1231 122.576 891.098 437.128
82 0 92.2968 13.7383 1268 121.768 890.919 437.008
83 0 95.3932 13.9737 1333 122.377 890.984 431.154
84 0 98.3972 13.7707 1355 120.124 891.141 434.129
85 0 100.24 14.1361 1417 120.38 891.156 441.61
86 0 105.508 15.0035 1583 118.435 891.6 452.15
87 0 107.206 14.5607 1561 120.071 891.129 451.159
88 0 108.325 14.3919 1559 121.978 891.264 449.802
89 0 113.345 14.7426 1671 121.364 891.302 445.12
90 0 116.153 12.8021 1487 116.003 891.438 443.119
91 0 121.127 12.5983 1526 116.676 891.058 441.045
92 0 124.259 12.6832 1576 117.431 891.455 438.071
93 0 128.285 13.2595 1701 115.625 891.638 437.021
94 1 57.1514 11.6533 666 104.905 890.716 474.449
95 0 59.1716 12.1173 717 103.792 891.802 474.552
96 0 60.1129 11.1124 668 106.252 891.235 474.075
97 0 63.2194 13.2713 839 95.4362 890.943 469.971
98 0 62.1409 11.8762 738 100.591 890.749 468.458
99 0 66.1426 11.959 791 94.6384 890.622 467.563
100 0 69.2788 11.4465 793 92.86 891.047 468.45
101 0 68.2271 10.5383 719 94.9611 890.636 468.419
102 0 71.2497 12.2386 872 93.1342 890.218 467.038
103 0 72.2153 13.8752 1002 90.0619 891.325 466.569
104 0 82.4358 17.4075 1435 81.4537 890.755 457.592
105 0 85.1835 17.8204 1518 81.5441 891.186 459.188
106 0 84.1462 13.9281 1172 91.4693 890.459 461.476
107 0 83.2589 13.7883 1148 94.838 890.476 458.962
108 0 83.1807 13.2723 1104 98.2237 891.021 460.148
109 0 85.1865 11.9033 1014 100.895 890.55 460.007
110 0 87.1957 12.2024 1064 100.977 889.771 457.907
111 0 90.2479 12.0224 1085 101.554 890.638 458.469
112 0 94.2072 12.6317 1190 102.661 890.454 455.414
113 0 96.1225 11.8703 1141 105.518 891.01 450.717
114 0 100.199 13.3135 1334 102.268 890.113 450.516
115 0 105.161 13.7123 1442 104.082 890.967 452.065
116 0 106.16 13.1688 1398 106.321 890.382 451.318
117 0 110.117 13.5855 1496 105.707 890.176 448.751
118 0 115.26 11.9383 1376 109.171 890.259 447.557
119 0 118.214 13.0526 1543 107.04 890.763 441.668
120 1 58.1496 10.6794 621 98.6956 891.43 474.831
121 0 61.0423 11.533 704 98.2571 889.585 475.935
122 0 69.1063 15.3532 1061 93.0188 890.264 452.99
123 0 74.2117 19.6869 1461 82.7933 890.171 451.075
124 0 68.1315 14.2372 970 99.5082 890.199 456.258
125 0 70.2283 15.0367 1056 97.9924 889.609 457.207
126 0 70.0687 12.1738 853 105.369 889.456 462.198
127 0 70.1959 12.3226 865 105.49 890.166 466.059
128 0 73.1362 12.6476 925 104.416 890.358 467.446
129 0 73.2013 11.243 823 103.818 890.403 465.394
130 0 75.1047 11.6238 873 103.908 889.769 462.356
131 0 78.0946 12.8562 1004 105.34 889.955 463.916
132 0 79.0698 11.0662 875 109.262 888.786 459.366
133 0 82.1213 10.9959 903 109.62 889.66 458.739
134 0 85.1988 11.9016 1014 107.61 889.84 457.146
135 0 84.067 10.337 869 111.168 890.099 455.342
136 0 93.2472 11.7752 1098 108.056 890.414 447.767
137 0 94.2554 12.7632 1203 106.741 889.685 444.686
138 0 100.219 14.3786 1441 102.549 889.388 442.361
139 0 104.347 12.8514 1341 105.747 890.254 444.521
140 0 106.352 12.7501 1356 106.013 889.077 443.369
141 0 108.301 12.6868 1374 107.092 890.002 445.135
142 0 113.298 13.4513 1524 106.354 889.651 440.536
143 0 116.451 12.9411 1507 108.79 890.044 441.553
144 0 119.298 13.0932 1562 107.693 889.352 441.892
145 0 122.389 12.689 1553 109.791 889.954 437.273
146 0 126.371 13.6503 1725 107.114 889.324 438.071
147 0 130.444 13.707 1788 107.209 889.452 434.922
148 0 135.422 13.6831 1853 108.85 889.108 430.978
149 0 139.308 13.8614 1931 110.378 888.921 430.045
150 0 144.384 13.2286 1910 112.323 888.83 428.143
151 0 149.154 13.838 2064 107.231 889.698 424.002
152 0 154.162 14.3161 2207 106.539 888.584 422.813
153 0 156.136 13.469 2103 108.729 888.951 422.475
154 0 161.193 13.7537 2217 109.267 889.681 419.295
155 0 166.386 13.0119 2165 111.709 889.542 417.782
156 0 173.272 14.2435 2468 108.387 889.384 414.668
157 0 176.272 13.8195 2436 110.56 889.378 412.934
158 0 182.307 14.4042 2626 110.099 889.91 413.121
159 1 201.426 19.2924 3886 97.5221 889.044 389.865
160 0 204.39 20.3288 4155 97.0965 888.943 385.385
161 0 200.339 15.7133 3148 106.723 888.303 385.56
162 0 204.265 15.7491 3217 109.12 889.191 383.905
163 0 208.223 12.8036 2666 116.533 889.311 383.337
164 0 213.219 14.267 3042 113.032 888.291 383.228
165 0 223.424 14.4658 3232 113.569 888.648 378.646
166 0 239.332 20.7285 4961 96.4368 888.704 360.283
167 0 235.444 15.7022 3697 110.842 887.558 360.497
168 0 177.355 11.2204 1990 122.042 889.214 413.189
169 0 185.356 12.6027 2336 119.197 888.808 407.514
170 0 191.223 11.8867 2273 119.689 889.219 404.189
171 0 197.208 13.326 2628 117.694 888.844 398.65
172 0 203.365 14.9043 3031 114.816 889.523 395.335
173 0 209.432 13.4077 2808 116.607 888.854 392.383
174 0 215.479 13.6116 2933 117.795 888.305 384.638
175 0 222.26 12.1749 2706 120.905 888.008 383.113
176 0 232.336 13.9582 3243 116.709 888.669 379.886
177 1 54.0659 9.67338 523 94.7304 889.264 465.35
178 0 60.0985 10.1666 611 99.2471 890.799 469.633
179 0 61.1274 11.4842 702 92.312 890.34 469.836
180 0 61.1003 10.7692 658 94.7477 890.926 470.204
181 0 66.172 13.1929 873 90.6014 891.206 469.931
182 0 66.156 12.5763 832 93.5781 890.855 466.773
183 0 66.1447 10.8096 715 99.5161 891.404 468.365
184 0 67.1103 10.222 686 101.646 891.309 466.071
185 0 72.1703 10.6138 766 99.9204 891.2 465.444
186 0 72.2162 10.2747 742 102.427 891.271 461.934
187 0 71.0571 9.83716 699 103.289 890.602 458.94
188 0 77.0808 11.1182 857 100.896 890.667 456.574
189 0 81.2968 12.0423 979 99.4607 889.132 460.846
190 0 83.3798 12.4131 1035 98.8821 890.206 460.277
191 0 86.3548 11.0822 957 101.861 889.247 457.693
192 0 90.2852 10.7216 968 101.96 889.714 456.714
193 0 95.6149 11.0025 1052 100.656 889.006 458.943
194 1 56.2192 10.2278 575 98.6835 888.937 473.798
195 0 55.3168 10.4308 577 97.7903 888.681 469.516
196 0 54.0855 9.3001 503 92.9563 888.893 462.523
197 0 54.1213 9.36784 507 95.2347 888.101 466.247
198 0 57.1663 9.83096 562 95.9537 888.351 462.97
199 0 59.2577 9.90589 587 96.4242 888.407 463.622
200 0 110.156 7.81616 861 85.4646 887.818 460.48
201 0 117.464 11.0417 1297 75.0339 888.57 452.495
202 0 111.296 8.84132 984 84.0132 887.852 454.238
203 0 109.002 11.6695 1272 77.0558 888.348 449.883
204 0 103.698 12.1507 1260 78.4564 888.287 450.792
205 0 105.289 11.0552 1164 83.5258 888.077 455.122
206 0 107.061 10.7975 1156 85.5216 888.096 456.009
207 0 104.609 15.8303 1656 76.5749 888.337 453.568
208 0 101.412 17.3056 1755 73.9647 888.696 441.307
209 0 108.244 12.6104 1365 85.1832 887.894 451.229
210 0 104.142 14.0962 1468 85.908 889.186 453.531
211 0 102.263 13.4849 1379 89.6599 888.425 450.376
212 0 99.3764 19.3205 1920 78.9932 889.247 442.828
213 0 100.407 15.7658 1583 87.9773 889.191 444.919
214 0 101.311 18.2015 1844 84.9241 889.548 442.875
215 0 104.388 16.9081 1765 89.9734 891.09 447.708
216 0 106.246 14.4288 1533 97.0444 890.138 447.704
217 0 105.161 16.0326 1686 94.6062 890.754 445.682
218 0 103.215 13.7093 1415 100.731 889.153 447.324
219 1 53.0311 10.5975 562 98.2082 889.854 470
220 0 56.0369 10.1362 568 96.7817 889.655 472.933
221 0 57.0716 11.214 640 100.392 890.172 468.203
222 0 58.0724 10.418 605 102.653 890.223 466.805
223 0 61.0991 11.7023 715 100.287 890.611 464.969
224 0 61.1058 11.3083 691 102.156 889.74 465.033
225 0 63.1627 12.2857 776 100 888.986 462.122
226 0 66.0409 12.7648 843 99.1329 889.41 463.219
227 0 68.117 12.0087 818 101.666 890.271 465.095
228 0 70.0867 12.0708 846 101.378 890.408 465.323
229 0 71.1096 11.8127 840 102.724 889.777 465.188
230 0 75.0827 11.7204 880 104.235 890.085 462.048
231 0 75.1685 11.5208 866 106.842 888.891 463.003
232 0 80.2015 13.5534 1087 102.029 889.303 461.202
233 0 80.0462 12.2804 983 105.791 890.405 460.736
234 0 84.049 13.1828 1108 103.25 890.076 457.967
235 0 86.0947 12.3817 1066 104.906 889.858 457.45
236 0 90.2309 12.867 1161 102.562 889.296 456.871
237 0 92.1253 13.4816 1242 102.382 889.709 455.089
238 0 96.1 13.1009 1259 103.222 890.44 453.817
239 0 98.1503 12.2465 1202 104.607 889.982 451.799
240 0 101.214 13.4073 1357 102.269 890.224 448.864
241 0 106.164 13.0647 1387 102.376 890.304 449.566
242 0 109.204 12.9299 1412 102.566 889.894 447.026
243 0 115.146 12.7577 1469 102.115 890.3 446.921
244 1 62.082 10.2606 637 105.224 889.603 470.281
245 0 64.0599 10.3965 666 104.083 890.472 466.123
246 0 69.0371 11.1824 772 100.07 889.854 463.187
247 0 69.0862 11.8547 819 102.736 890.547 467.252
248 0 72.1078 12.0098 866 103.742 890.228 464.517
249 0 76.0871 13.8525 1054 99.2268 890.379 464.842
250 0 77.0999 13.1129 1011 101.472 889.009 462.198
251 0 80.0563 12.791 1024 102.078 889.047 460.287
252 0 84.1521 12.418 1045 102.702 890.061 460.117
253 0 85.1343 12.1573 1035 98.3188 888.952 461.982
254 0 87.2218 12.5313 1093 101.496 889.131 458.816
255 0 93.147 13.8598 1291 102.804 888.673 454.667
256 0 94.1253 13.0358 1227 104.652 888.389 455.187
257 0 97.1083 14.2109 1380 102.062 888.288 454.742
258 0 101.131 14.1994 1436 102.625 889.557 454.528
259 0 103.226 13.0007 1342 105.791 889.506 451.682
260 0 107.177 12.4374 1333 106.634 889.295 450.485
261 1 61.0211 11.832 722 94.6842 889.414 474.161
262 0 61.0643 10.1041 617 98.3647 889.399 473.314
263 0 63.1626 11.6683 737 96.5224 889.369 469.597
264 0 67.1296 12.0215 807 95.2119 889.797 469.869
265 0 70.0652 13.9441 977 92.2774 888.245 467.294
266 0 71.0649 12.2986 874 95.8158 889.991 467.58
267 0 75.1047 12.5425 942 95.8015 889.446 466.977
268 0 74.0771 11.6635 864 99.8634 889.071 466.23
269 0 78.2074 12.5052 978 107.403 889.844 461.86
270 0 83.0987 12.431 1033 106.477 889.193 463.521
271 0 81.1159 11.5021 933 111.417 888.374 459.513
272 0 86.1213 12.3082 1060 108.642 889.437 462.115
273 0 90.2713 12.3073 1111 110.668 889.632 457.887
274 0 95.1185 12.8576 1223 109.259 889.133 456.415
275 0 96.1638 13.2066 1270 110.326 889.673 452.976
276 0 98.1775 12.7422 1251 112.302 889.904 454.73
277 0 101.104 12.2052 1234 113.821 889.36 452.57
278 0 102.236 12.4418 1272 114.391 890.042 451.817
279 0 107.138 13.9632 1496 111.652 890.333 446.088
280 0 114.165 16.1783 1847 105.004 890.096 442.441
281 0 114.118 13.7314 1567 112.989 890.572 445.642
282 0 118.197 13.5451 1601 114.53 890.39 443.596
283 0 121.253 12.6429 1533 116.332 889.866 438.688
284 0 127.177 11.8575 1508 113.58 890.196 439.7
285 1 71.2268 11.2317 800 105.016 889.109 468.072
286 0 71.1054 11.2228 798 106.091 889.83 465.505
287 0 75.2257 11.6582 877 105.128 890.501 463.962
288 0 75.0651 11.2569 845 105.472 889.521 463.908
289 0 80.0932 12.3606 990 103.02 889.777 460.96
290 0 82.1088 11.1072 912 105.776 889.836 461.692
291 0 86.0976 13.2408 1140 102.135 889.245 458.115
292 0 88.11 13.12 1156 103.126 889.561 457.671
293 0 91.0955 13.1401 1197 103.088 890.299 456.107
294 0 93.1637 12.1507 1132 105.244 890.487 456.436
295 0 96.1669 12.2183 1175 106.063 890.174 453.392
296 0 101.101 12.6112 1275 105.275 890.758 452.767
297 0 104.092 11.7588 1224 110.688 890.198 450.852
298 0 103.124 11.7723 1214 108.764 890.52 450.456
299 0 109.148 12.7716 1394 107.397 890.161 447.117
300 0 113.202 12.3142 1394 109.213 890.464 445.856
301 0 115.08 12.5826 1448 108.97 889.988 444.076
302 1 62.0668 11.0043 683 106.619 890.572 468.991
303 0 65.082 11.1859 728 104.5 891.188 468.827
304 0 68.1295 12.9166 880 102.926 891.019 468.182
305 0 68.1153 11.2456 766 105.636 891.476 469.007
306 0 71.1003 11.8143 840 105.78 890.899 466.195
307 0 73.0798 12.8626 940 103.955 890.301 465.684
308 0 74.2686 11.6065 862 107.86 890.307 464.999
309 0 78.1884 12.8024 1001 105.496 889.629 461.694
310 0 81.0752 11.5572 937 107.845 890.362 461.72
311 0 83.0733 12.0496 1001 106.819 889.512 463.301
312 0 87.1511 12.6447 1102 106.18 890.327 459.083
313 0 89.1703 11.7864 1051 108.765 889.036 458.994
314 0 92.1764 12.0855 1114 109.334 889.436 455.059
315 0 98.2395 12.5611 1234 107.723 891.024 453.239
316 0 100.129 12.9832 1300 110.288 890.057 453.705
317 0 104.144 13.126 1367 114.522 890.359 453.091
318 0 106.151 13.0474 1385 114.892 890.069 448.306
319 0 110.296 12.4573 1374 114.824 889.922 446.571
320 0 117.39 15.1546 1779 107.259 890.75 438.922
321 1 63.1394 11.926 753 109.656 890.847 468.825
322 0 64.0857 11.8903 762 105.766 890.365 469.745
323 0 67.1475 12.3013 826 104.913 891.416 469.665
324 0 68.0489 11.9326 812 105.438 890.991 467.982
325 0 72.0567 12.9204 931 102.636 889.89 467.643
326 0 75.257 13.3409 1004 101.716 890.768 466.436
327 0 77.0864 12.3498 952 103.912 891.206 466.108
328 0 78.1742 11.9733 936 105.842 890.677 465.088
329 0 82.0925 12.559 1031 105.448 891.183 462.5
330 0 84.226 12.1222 1021 106.925 889.78 462.573
331 0 84.1125 11.5678 973 109.801 890.881 459.643
332 0 90.1717 14.7385 1329 102.443 890.914 456.771
333 0 93.2244 12.4538 1161 108.052 890.22 456.14
334 0 95.1661 13.0719 1244 107.186 890.638 455.199
335 0 98.1465 13.3372 1309 107.197 889.662 453.023
336 0 101.216 12.9821 1314 112.097 890.31 453.932
337 0 105.213 13.4014 1410 111.443 889.951 452.375
338 0 107.115 12.8274 1374 112.868 890.587 450.279
339 0 110.247 13.0344 1437 112.417 890.462 449.703
340 0 114.325 13.5054 1544 111.917 890.345 446.277
341 0 117.154 12.7951 1499 113.875 890.43 445.79
342 0 123.311 13.1862 1626 111.817 890.359 443.078
343 0 125.324 13.1739 1651 112.784 890.499 438.976
344 0 129.353 13.4438 1739 112.796 889.214 437.694
345 0 132.275 13.1166 1735 115.066 889.205 434.793
346 0 136.163 13.3957 1824 114.304 889.491 434.698
347 0 140.232 13.713 1923 114.257 889.479 429.667
348 0 146.206 13.693 2002 114.6 889.851 427.257
349 0 151.148 13.3446 2017 113.27 889.691 427.394
350 0 154.124 14.3716 2215 110.488 889.796 422.411
351 0 162.178 13.9538 2263 111.43 889.024 419.296
352 0 164.146 11.8614 1947 114.502 890.143 415.352
353 0 168.181 13.759 2314 109.591 889.766 410.761
354 0 175.281 12.4201 2177 114.148 890.236 407.837
355 0 175.272 12.3522 2165 158.778 890.225 407.747
356 1 104.188 12.1415 1265 107.4 890.475 443.685
357 0 106.274 11.2257 1193 109.521 890.931 440.561
358 0 108.221 11.7999 1277 108.124 890.389 439.751
359 0 114.073 11.3524 1295 107.784 890.163 436.621
360 0 115.09 11.4519 1318 107.637 889.079 438.362
361 0 121.118 11.3691 1377 109.125 890.228 433.373
362 0 127.086 12.1414 1543 108.071 889.224 433.261
363 0 128.306 13.3899 1718 107.566 889.696 428.065
364 1 139.203 14.8345 2065 101.387 889.58 423.104
365 0 144.258 14.2731 2059 103.512 889.703 420.454
366 0 142.353 11.6612 1660 112.159 888.847 420.716
367 0 147.183 12.7052 1870 108.779 889.262 420.489
368 0 152.28 13.0681 1990 108.72 888.051 419.777
369 0 160.161 12.6311 2023 109.487 889.088 415.286
370 0 165.422 11.4193 1889 113.539 889.175 409.553
371 0 169.226 12.5158 2118 111.933 888.044 407.45
372 0 173.265 11.67 2022 112.742 889.277 408.193
373 0 175.46 12.4872 2191 113.375 888.891 399.707
374 0 185.321 11.9091 2207 114.799 889.251 400.245
375 0 191.223 12.5769 2405 112.289 888.795 402.721
376 0 196.292 13.322 2615 112.346 888.883 396.779
377 0 203.394 14.3809 2925 110.286 888.575 391.291
378 0 211.238 11.8965 2513 115.757 888.803 391.54
379 0 212.303 11.6908 2482 117.28 889.225 387.992
380 0 223.346 13.6156 3041 111.893 887.667 383.052
381 0 232.278 12.8467 2984 113.77 889.366 374.657
382 0 242.31 13.3754 3241 112.002 889.717 372.623
383 1 73.0781 10.1946 745 95.5128 889.583 460.593
384 0 75.1287 9.3972 706 97.2054 889.259 455.942
385 0 80.2206 11.3312 909 97.1056 888.969 458.915
386 0 85.1432 12.5436 1068 100.566 889.404 460.599
387 0 90.0902 13.3644 1204 97.4136 887.851 459.857
388 0 88.1259 11.1205 980 104.477 888.801 456.461
389 0 94.1134 12.3787 1165 101.043 888.675 452.43
390 0 95.1133 11.0184 1048 105.186 888.835 449.746
391 0 99.0771 12.2531 1214 102.381 889.029 452.216
392 0 100.107 12.3168 1233 102.298 888.916 451.462
393 0 104.087 10.6449 1108 105.692 888.256 447.773
394 0 109.253 10.7457 1174 104.33 889.192 448.345
395 0 114.196 11.8568 1354 100.089 888.67 447.862
396 1 66.2071 10.2255 677 101.839 889.727 468.708
397 0 60.1201 10.7951 649 102.515 890.063 459.824
398 0 65.0743 11.4024 742 99.969 890.811 462.108
399 0 67.0564 11.0504 741 101.692 889.939 459.719
400 0 65.0991 10.3688 675 105.381 890.662 456.53
401 0 73.1668 13.9544 1021 93.3594 890.093 455.25
402 0 74.1164 14.005 1038 93.9017 889.334 454.042
403 0 75.1701 13.3963 1007 96.996 889.078 454.567
404 0 77.0746 12.9225 996 99.3614 889.71 454.876
405 0 80.2244 11.8917 954 101.651 889.349 451.611
406 0 83.3569 12.5604 1047 100.522 889.628 453.386
407 0 87.1362 11.7288 1022 101.606 889.725 459.526
408 1 98.2209 13.9991 1375 95.3084 890.066 453.055
409 0 101.288 15.6879 1589 92.8351 889.482 451.164
410 0 97.1895 13.6332 1325 99.9668 889.964 447.394
411 0 103.262 14.594 1507 97.9536 889.623 448.89
412 0 102.149 13.2943 1358 102.945 889.443 449.869
413 0 104.217 11.8598 1236 106.502 889.362 434.989
414 0 107.314 11.9183 1279 109.549 888.67 418.145
415 0 107.186 9.75873 1046 116.703 889.331 417.575
416 0 114.299 13.211 1510 107.789 888.53 422.779
417 0 118.247 12.0172 1421 109.746 888.853 430.339
418 0 114.3 12.6421 1445 109.363 888.725 429.529
419 0 124.27 12.1912 1515 108.296 889.308 437.765
420 0 121.345 10.9523 1329 111.166 889.306 435.44
421 0 122.223 9.78538 1196 111.768 889.161 437.902
422 0 121.226 7.30044 885 113.381 889.427 440.803
423 1 82.1955 10.5602 868 98.8272 888.738 453.688
424 0 85.1204 11.1724 951 99.1188 889.122 455.192
425 0 88.2186 11.1201 981 102.905 889.382 458.841
426 0 92.295 12.2 1126 101.143 889.535 457.38
427 0 96.33 12.6337 1217 100.151 888.716 454.901
428 0 97.1706 10.5793 1028 100.923 889.495 456.782
429 0 102.25 10.709 1095 99.7982 889.117 450.678
430 0 103.203 10.3001 1063 101.483 887.942 447.288
431 0 107.214 10.5677 1133 100.231 888.538 450.52
432 0 111.168 12.6025 1401 97.4411 888.45 446.285
433 0 114.177 10.3436 1181 101.683 889.066 448.062
434 0 119.135 12.0032 1430 99.6448 888.852 444.845
435 0 123.213 12.872 1586 98.5378 889.139 439.624
436 0 126.256 12.1895 1539 102.418 888.771 436.183
437 0 129.314 11.8626 1534 102.932 888.105 437.827
438 0 135.293 12.6097 1706 103.31 889.168 430.926
439 0 139.454 11.5307 1608 106.839 887.874 435.016
440 0 144.384 11.0262 1592 107.835 888.857 427.175
441 0 148.441 12.5437 1862 105.028 887.823 424.103
442 0 153.388 11.9305 1830 106.08 888.557 422.146
443 0 158.576 12.8708 2041 105.604 888.442 416.523
444 0 165.468 12.4677 2063 106.124 888.927 416.184
445 0 171.485 12.0652 2069 106.427 888.405 411.166
446 0 173.504 11.2332 1949 109.07 888.955 404.981
447 0 183.58 13.3075 2443 103.957 887.15 405.273
448 0 187.534 12.0511 2260 107.576 887.937 404.682
449 0 194.541 12.7582 2482 107.326 887.966 399.168
450 0 198.785 11.7514 2336 110.077 888.392 394.583
451 0 205.652 13.4159 2759 106.765 888.233 398.652
452 0 213.374 13.1506 2806 109.367 887.792 392.272
453 0 221.556 13.6083 3015 109.539 888.217 386.87
454 0 225.54 11.785 2658 113.637 888.088 375.156
455 1 238.284 12.7705 3043 110.771 888.494 379.257
456 1 64.1836 11.0464 709 93.1227 889.073 470.999
457 0 58.0457 10.1127 587 96.2998 890.506 461.716
458 0 65.3195 11.4208 746 97.4879 891.197 471.685
459 0 66.2503 9.91694 657 101.674 890.011 470.12
460 0 68.2477 9.75857 666 103.33 890.162 468.236
461 0 71.3257 11.104 792 101.176 890.326 467.414
462 0 74.2808 11.1738 830 101.573 890.04 465.946
463 0 78.2392 11.7077 916 101.138 890.103 464.699
464 0 79.4988 10.9939 874 102.969 890.141 465.28
465 0 82.2096 13.3075 1094 99.9497 889.878 463.203
466 0 83.1654 11.1946 931 104.057 889.356 462.3
467 0 88.2522 11.8297 1044 103.915 889.999 461.209
468 0 91.267 12.5785 1148 103.111 889.982 460.124
469 0 92.132 12.5364 1155 104.736 889.841 454.982
470 0 94.3067 12.735 1201 105.087 889.176 456.094
471 0 93.1216 11.093 1033 103.855 888.346 458.428
472 0 102.066 14.5299 1483 95.5604 888.276 452.885
473 0 161.118 7.9693 1284 104.835 889.111 439.7
474 0 163.593 12.146 1987 83.0468 888.612 434.964
475 0 160.233 12.3882 1985 88.1305 888.93 444.812
476 1 64.1479 11.0214 707 100.545 888.01 473.67
477 0 62.0685 9.8923 614 94.0651 889.676 467.52
478 0 66.1637 11.1844 740 84.9216 889.92 469.857
479 0 66.1489 9.96237 659 89.2352 890.143 468.19
480 0 73.0628 13.6869 1000 80.491 889.675 467.096
481 0 73.1036 12.2155 893 84.3539 889.405 465.562
482 0 74.06 11.2611 834 87.1643 888.574 465.303
483 0 73.175 9.86676 722 91.9972 889.03 465.248
484 0 77.0986 11.7901 909 88.9417 889.192 465.622
485 0 76.1516 10.8862 829 91.392 889.602 465.51
486 0 84.1154 17.69 1488 78.0396 889.032 458.227
487 0 85.1074 13.6416 1161 86.2016 889.184 459.133
488 0 86.0762 14.0225 1207 87.5684 888.463 460.592
489 0 84.1194 11.7095 985 93.9188 888.925 457.971
490 0 86.0865 11.7092 1008 94.3532 888.268 459.966
491 0 89.1138 13.4098 1195 92.99 889.105 458.654
492 0 94.0538 13.0989 1232 94.017 888.655 459.806
493 0 94.193 12.7186 1198 96.7062 889.25 456.863
494 0 95.0992 12.345 1174 98.7615 888.675 454.166
495 0 100.134 12.9426 1296 97.8086 888.557 450.971
496 0 105.114 14.2132 1494 94.9451 887.971 451.878
497 0 108.296 13.7309 1487 97.456 889.219 450.801
498 0 110.186 12.4245 1369 109.725 889.877 444.963
499 0 115.225 13.3217 1535 106.174 888.855 444.85
500 0 118.22 13.3903 1583 108.193 890.076 441.898
501 1 64.1268 11.2122 719 107 889.672 467.465
502 0 65.0162 11.3049 735 107.178 889.484 465.852
503 0 67.1825 11.7292 788 107.206 889.07 464.298
504 0 71.026 13.9104 988 102.669 889.114 461.849
505 0 72.0875 11.9716 863 105.297 888.607 463.769
506 0 76.0762 14.2489 1084 101.295 887.839 461.921
507 0 79.1364 12.6364 1000 105.045 888.771 459.077
508 0 79.1445 11.4853 909 108.327 888.2 457.391
509 0 83.047 11.6199 965 106.902 888.921 458.408
510 0 88.2047 13.1852 1163 104.044 888.755 455.932
511 0 89.0928 11.9426 1064 106.673 887.724 455.062
512 0 95.2085 12.0472 1147 106.114 889.096 454.241
513 0 94.1435 12.1835 1147 107.072 888.108 450.582
514 0 100.115 12.2559 1227 105.43 888.543 452.011
515 0 105.099 13.4825 1417 102.866 888.591 448.608
516 1 58.0535 10.7659 625 96.848 889.938 473.554
517 0 59.077 10.0377 593 101.022 889.022 469.543
518 0 61.1549 10.3508 633 94.6177 889.088 471.272
519 0 61.0591 9.30246 568 96.8732 889.195 469.59
520 0 65.0808 10.8634 707 92.413 888.515 471.482
521 0 70.0684 12.8018 897 97.6109 889.377 475.428
522 0 71.1247 13.4412 956 98.2333 888.932 471.67
523 0 73.2029 11.9258 873 101.441 888.811 471.948
524 0 76.1755 12.4187 946 100.29 889.27 470.206
525 0 80.1368 14.5002 1162 97.3107 889.019 465.864
526 0 81.1015 12.7618 1035 100.596 888.786 466.818
527 0 85.1195 12.3826 1054 102.126 889.729 463.749
528 0 87.176 11.7464 1024 104.475 889.266 461.58
529 0 89.1401 13.3834 1193 101.987 889.095 460.289
530 0 92.1425 13.2621 1222 101.655 889.8 461.957
531 0 95.1509 13.2526 1261 102.132 888.619 458.283
532 0 96.1328 12.3267 1185 103.701 889.298 458.619
533 0 99.1574 13.4433 1333 102.484 888.981 454.625
534 0 103.252 13.4137 1385 102.998 888.924 451.827
535 0 107.11 13.0986 1403 103.016 888.622 451.403
536 0 111.158 12.8645 1430 103.003 888.026 451.787
537 0 114.234 12.5619 1435 103.061 888.568 451.722
538 0 118.233 12.5346 1482 101.947 889.604 452.354
539 1 60.0415 10.0764 605 104.759 889.005 467.755
540 0 66.0282 11.6011 766 102.999 889.03 466.521
541 0 69.0546 12.3815 855 101.034 889.002 465.88
542 0 72.1185 13.3392 962 99.4304 887.817 463.765
543 0 73.1321 13.4961 987 100.135 887.96 463.289
544 0 73.0889 12.5737 919 105.005 889.052 459.218
545 0 78.0975 13.2014 1031 102.751 887.709 462.177
546 0 80.1005 11.7852 944 106.966 888.193 459.001
547 0 84.1701 13.1282 1105 104.79 888.491 458.826
548 0 86.2066 11.89 1025 107.684 888.936 458.71
549 0 90.1486 13.1117 1182 104.612 888.484 456.319
550 0 94.1029 13.9741 1315 104.097 889.57 453.821
551 0 98.102 13.2923 1304 104.66 888.117 455.525
552 0 99.2378 12.9991 1290 107.153 888.216 450.833
553 0 104.114 13.053 1359 106.829 888.532 449.775
554 0 106.114 13.985 1484 105.327 888.489 448.932
555 0 108.165 13.1651 1424 105.216 888.547 443.324
556 0 113.14 13.5938 1538 104.443 889.954 445.588
557 0 115.162 13.4159 1545 108.413 889.146 445.484
558 0 113.123 12.261 1387 104.04 888.179 444.138
559 0 115.226 12.0025 1383 107.141 888.926 444.075
560 0 118.18 12.8025 1513 106.613 889.118 443.976
561 1 67.0542 11.3938 764 103.448 889.678 469.47
562 0 67.1502 11.3775 764 106.161 888.534 470.988
563 0 68.1286 12.3149 839 103.423 888.714 470.269
564 0 67.2383 11.5857 779 104.503 888.499 470.145
565 0 70.0822 11.5721 811 103.219 888.626 470.597
566 0 70.1707 11.0587 776 105.635 888.918 464.713
567 0 75.1149 11.9417 897 100.622 887.932 467.166
568 0 79.1176 12.1591 962 98.262 889.005 465.986
569 0 80.1398 10.9434 877 99.3512 888.26 464.523
570 0 81.0854 12.271 995 99.0714 888.571 459.649
571 0 84.1262 12.9211 1087 99.0534 888.214 458.583
572 0 87.1607 12.1844 1062 99.113 888.554 458.609
573 0 90.1822 11.2217 1012 100.725 887.265 458.184
574 0 94.1948 12.0283 1133 100.626 888.136 455.774
575 0 96.1236 12.1198 1165 106.236 888.289 452.827
576 0 99.069 12.6377 1252 106.25 888.785 455.101
577 0 101.087 12.1875 1232 107.486 887.906 453.753
578 0 101.118 12.52 1266 111.145 888.258 446.622
579 0 106.12 12.2598 1301 113.004 887.635 448.131
580 0 111.202 12.9674 1442 112.115 887.491 447.925
581 1 53.118 7.04092 374 114.749 887.39 474.511
582 0 58.1166 10.737 624 106.412 888.125 473.615
583 0 59.0795 10.4436 617 104.026 887.786 470.656
584 0 60.0442 10.7254 644 105.281 889 472.432
585 0 59.121 10.2163 604 109.194 888.565 471.507
586 0 63.0772 11.7158 739 106.476 888.48 472.41
587 0 63.1121 11.0755 699 108.708 888.24 472.667
588 0 65.0741 10.6494 693 113.606 889.284 468.104
589 0 67.0768 11.2558 755 114.282 888.901 468.683
590 0 72.2174 11.9639 864 114.509 889.31 467.976
591 0 72.1516 11.5728 835 118.893 888.717 465.519
592 0 76.1705 13.1941 1005 120.544 889.482 469.765
593 0 77.2599 11.5454 892 127.408 888.936 467.905
594 0 79.1648 11.9119 943 126.784 889.101 468.546
595 0 83.1655 11.5072 957 127.625 888.355 466.805
596 0 87.2186 13.1853 1150 130.628 888.704 461.702
597 0 88.1009 12.8035 1128 132.402 888.332 461.208
598 0 92.1972 13.124 1210 131.269 888.107 462.16
599 0 96.1678 12.551 1207 135.79 888.718 459.295
600 0 99.1515 13.6155 1350 132.879 887.55 451.919
601 1 52.0849 10.4829 546 133.385 889.354 471.375
602 0 55.1063 11.1058 612 129.422 888.526 472.913
603 0 58.131 11.2333 653 126.061 888.285 474.871
604 0 59.1446 11.9538 707 118.434 887.584 476.358
605 0 62.1471 12.0842 751 117.94 888.305 472.732
606 0 64.1502 11.8316 759 118.501 887.735 473.109
607 0 67.1911 13.2309 889 116.825 888.093 469.475
608 0 67.1547 12.0468 809 120.251 888.305 468.393
609 0 69.0834 12.1737 841 122.042 888.111 467.902
610 0 74.251 13.0638 970 123.752 887.996 465.225
611 0 73.2166 10.9265 800 130.564 887.865 463.794
612 0 78.2398 13.203 1033 124.229 887.467 462.851
613 0 81.1999 13.3251 1082 123.118 887.668 463.546
614 0 84.2408 12.583 1060 126.762 887.443 460.135
615 0 84.3396 13.2559 1118 126.476 887.82 457.005
616 0 88.3482 13.9675 1234 124.039 887.47 458.317
617 0 88.2645 11.9754 1057 129.925 887.992 456.506
618 0 92.1532 12.8699 1186 127.232 888.055 455.682
619 0 98.2078 13.5427 1330 123.746 886.247 454.8
620 0 99.2346 13.191 1309 124.794 888.097 453.742
621 0 102.267 12.0664 1234 127.171 887.87 451.585
622 0 108.332 13.394 1451 122.509 886.906 447.883
623 0 110.368 13.156 1452 122.72 886.916 450.374
624 0 114.263 12.7687 1459 124.055 887.303 445.86
625 1 65.1756 11.6915 762 113.535 887.45 471.583
626 0 67.225 11.1119 747 115.759 885.938 472.099
627 0 68.0755 10.0624 685 119.067 886.848 471.876
628 0 72.2001 11.2742 814 117.221 886.302 470.984
629 0 74.1508 12.5015 927 115.448 887.092 466.591
630 0 77.2763 11.4395 884 118.387 887.327 466.58
631 0 80.1323 12.1299 972 117.156 887.203 465.867
632 0 82.1622 11.3313 931 120.004 886.947 462.872
633 0 84.3843 11.8742 1002 119.704 888.269 461.193
634 0 89.2042 12.2416 1092 117.913 887.46 461.918
635 0 94.2356 13.0312 1228 115.981 888.175 460.56
636 0 95.1056 11.9762 1139 119.471 887.427 455.818
637 0 98.1282 12.7384 1250 117.978 887.879 457.863
638 1 57.0842 11.8947 679 108.619 886.666 479.485
639 0 59.0676 11.4106 674 112.469 887.786 478.769
640 0 60.0904 11.2331 675 114.634 886.443 475.627
641 0 62.0774 10.7769 669 116.7 887.151 475.475
642 0 65.0431 11.4539 745 115.685 887.73 473.532
643 0 68.1756 12.8345 875 111.369 887.184 474.599
644 0 70.1358 11.2068 786 115.121 887.086 472.14
645 0 72.0956 13.4266 968 111.004 886.884 469.23
646 0 76.1301 12.5706 957 113.272 886.77 469.329
647 0 76.2101 12.295 937 113.81 887.999 470.049
648 0 80.1762 12.4725 1000 115.05 888.535 466.48
649 0 82.2015 12.1652 1000 114.926 887.909 466.643
650 0 86.1203 11.7278 1010 114.947 888.386 465.355
651 0 89.1599 12.7075 1133 114.868 888.046 462.683
652 0 90.1362 10.5507 951 120.934 888.616 461.33
653 0 95.1206 12.7207 1210 113.695 888.503 461.706
654 0 99.222 12.6081 1251 114.513 888.93 459.868
655 0 101.241 12.1591 1231 116.012 888.089 455.554
656 0 104.192 13.4655 1403 115.962 887.934 451.751
657 0 107.128 12.275 1315 118.487 887.794 452.092
658 1 60.1309 11.2754 678 111.298 889.128 476.932
659 0 64.0762 11.7672 754 110.645 888.586 476.649
660 0 65.1165 12.3932 807 109.564 888.819 475.774
661 0 69.0821 11.1606 771 117.078 887.944 473.865
662 0 70.059 11.0621 775 116.472 888.368 472.395
663 0 73.0649 11.4556 837 114.111 888.479 469.873
664 0 76.0805 12.8022 974 110.488 887.521 471.066
665 0 78.1188 11.7129 915 113.993 887.349 468.796
666 0 79.1676 12.0251 952 114.575 887.675 466.834
667 0 83.0569 13.0272 1082 113.994 887.365 465.094
668 0 88.1637 14.3597 1266 108.675 887.628 459.815
669 0 90.0713 14.7994 1333 109.482 888.798 462.149
670 0 90.1005 12.2086 1100 116.95 888.481 462.252
671 0 94.0927 12.594 1185 116.31 888.563 460.561
672 0 97.0862 13.0194 1264 117.647 888.35 458.665
673 0 100.215 13.7604 1379 117.477 888.407 455.094
674 0 102.133 12.7089 1298 119.875 887.933 456.914
675 0 107.169 13.4927 1446 119.228 887.604 454.506
676 0 112.056 14.1091 1581 117.73 888.801 451.91
677 0 116.065 13.5097 1568 119.446 887.599 450.195
678 0 119.18 12.3762 1475 122.141 888.991 448.839
679 0 126.188 13.0519 1647 120.908 888.173 444.95
680 0 130.13 12.6258 1643 123.07 888.14 439.375
681 1 73.097 12.8323 938 113.539 888.183 468.537
682 0 76.0649 11.924 907 115.083 888.563 464.939
683 0 77.0844 10.9101 841 117.069 888.504 467.536
684 0 79.0823 11.2794 892 117.593 888.23 461.554
685 0 82.1438 11.492 944 116.697 886.84 460.698
686 0 82.0577 10.5779 868 119.144 888.158 459.453
687 0 90.115 12.2399 1103 112.945 888.215 461.081
688 0 91.1404 12.3655 1127 115.56 889.004 458.793
689 0 95.1058 12.6175 1200 115.788 887.428 454.08
690 0 97.169 12.1026 1176 117.962 887.996 454.822
691 0 101.126 12.4795 1262 118.703 888.202 454.37
692 0 104.147 12.8568 1339 118.129 887.907 453.018
693 0 107.082 12.5978 1349 120.783 888.337 450.318
694 0 110.289 12.7121 1402 119.846 888.075 448.889
695 0 113.102 12.4135 1404 121.574 888.873 446.494
696 0 116.122 13.3308 1548 120.815 887.982 444.065
697 0 119.173 12.7042 1514 123.273 888.343 444.766
698 0 121.536 13.173 1601 125.626 888.961 437.56
699 0 127.22 14.0308 1785 124.813 888.979 437.06
700 0 133.423 13.8057 1842 127.288 888.375 436.9
701 1 72.402 11.5328 835 127.224 888.799 467.303
702 0 77.1265 13.0565 1007 126.186 888.969 462.85
703 0 79.1474 13.2917 1052 125.254 889.386 462.455
704 0 83.1915 12.5253 1042 125.87 888.402 463.146
705 0 83.0994 12.5994 1047 126.408 888.316 462.957
706 0 88.0832 13.2034 1163 123.429 889.849 462.935
707 0 91.2137 13.0353 1189 122.435 889.723 460.447
708 0 92.289 13.7286 1267 121.983 888.977 456.25
709 0 96.1982 12.9836 1249 122.728 889.527 455.753
710 0 97.3336 12.4828 1215 125.456 889.233 453.002
711 0 102.633 13.5142 1387 121.576 889.986 454.866
712 0 105.629 13.1687 1391 123.85 889.556 452.899
713 0 105.264 13.2999 1400 125.485 889.751 449.46
714 0 110.269 12.8051 1412 126.825 889.864 448.141
715 0 115.274 13.6458 1573 124.498 889.98 446.874
716 0 117.365 12.491 1466 127.92 889.572 445.636
717 0 121.261 13.2441 1606 126.773 889.995 443.172
718 0 125.228 14.1662 1774 123.639 889.064 441.288
719 0 129.221 13.2563 1713 124.708 889.845 440.869
720 0 134.221 12.9414 1737 125.496 889.344 437.108
721 0 140.257 12.4201 1742 126.128 889.695 432.505
722 0 145.197 12.0595 1751 127.126 889.647 430.442
723 0 151.175 12.5219 1893 125.657 889.996 427.605
724 1 81.1227 11.1313 903 120.312 889.123 463.382
725 0 86.0465 13.3997 1153 120.949 889.489 461.01
726 0 90.0486 12.9375 1165 121.655 888.814 460.445
727 0 92.1234 13.1888 1215 120.381 888.395 456.594
728 0 95.0735 12.3799 1177 118.071 889.873 457.642
729 0 99.2025 12.4997 1240 118.606 888.82 457.01
730 0 102.14 13.0507 1333 119.533 889.135 450.079
731 0 104.08 12.9996 1353 119.602 888.816 450.467
732 0 108.196 12.2555 1326 120.681 889.482 451.362
733 0 113.176 13.0947 1482 120.101 889.237 446.788
734 0 117.146 13.7436 1610 118.922 889.437 443.852
735 0 120.159 12.5084 1503 122.21 889.613 441.269
736 0 125.105 12.2377 1531 122.862 888.458 440.445
737 0 131.173 12.2357 1605 123.935 889.265 438.961
738 0 134.321 13.4603 1808 122.721 888.639 436.001
739 0 138.176 12.0571 1666 126.843 888.26 434.915
740 0 142.215 13.1562 1871 124.987 888.039 432.743
741 0 147.205 13.4166 1975 125.89 888.212 425.733
742 0 151.208 12.2679 1855 128.397 888.673 428.467
743 0 157.267 13.3086 2093 127.415 887.771 425.057
744 0 163.388 13.2446 2164 128.876 888.562 420.122
745 0 168.185 13.4792 2267 128.667 887.503 418.098
746 0 175.459 14.1344 2480 126.183 888.3 415.805
747 0 180.313 13.9868 2522 126.709 888.298 413.044
748 0 185.223 13.5566 2511 128.171 887.961 414.28
749 0 189.286 12.9593 2453 129.868 887.304 406.836
750 0 199.272 14.563 2902 125.896 888.514 407.499
751 0 206.199 14.6509 3021 128.096 887.357 398.713
752 0 215.302 13.2233 2847 131.842 888.121 397.068
753 0 223.276 14.0364 3134 129.565 887.393 395.835
754 1 176.311 12.2794 2165 128.568 888.009 421.81
755 0 180.337 13.2252 2385 128.021 887.382 410.257
756 0 188.173 13.461 2533 126.565 888.311 413.463
757 0 194.234 13.4323 2609 126.915 887.476 412.416
758 0 201.397 12.6466 2547 130.038 886.826 403.945
759 0 209.356 13.7947 2888 125.403 887.013 401.977
760 0 216.27 12.7249 2752 129.26 887.894 393.4
761 0 227.399 13.5225 3075 126.809 887.674 396.225
762 0 231.438 12.5865 2913 130.319 887.6 386.245
763 1 179.196 13.3206 2387 121.658 886.631 422.148
764 0 185.311 14.0251 2599 121.324 886.441 414.488
765 0 188.339 12.9341 2436 133.97 887.016 404.307
766 0 199.402 14.3379 2859 130.065 887.826 405.05
767 0 206.504 14.6293 3021 129.584 886.849 402.197
768 0 206.244 12.0003 2475 134.077 886.792 406.888
769 1 23.0886 7.96929 184 99.7717 886.098 490.538
770 0 23.0192 7.16793 165 99.5879 886.879 492.873
771 0 25.0493 8.18387 205 98.5659 885.659 490.761
772 0 21.0206 6.18441 130 94.0846 886.954 487.246
773 0 23.1326 4.88488 113 93.5841 886.54 486.938
774 0 24.0025 6.0827 146 90.7945 886.637 489.904
775 1 252.418 7.71735 1948 133.34 886.573 409.488
776 1 68.0901 9.75179 664 113.372 888.334 470.423
777 0 72.0661 10.8928 785 110.283 887.056 466.29
778 0 81.1532 15.2921 1241 93.9516 887.892 460.745
779 0 79.2157 13.2549 1050 102.077 886.598 461.129
780 0 82.2459 13.8001 1135 102.38 886.456 461.575
781 0 81.1993 11.5641 939 109.841 887.182 464.986
782 0 85.0993 11.9272 1015 110.44 887.991 463.673
783 0 87.3175 12.1969 1065 111.188 887.254 462.189
784 0 89.1895 12.5127 1116 111.858 887.617 460.103
785 0 93.1731 12.3748 1153 115.631 886.226 455.49
786 1 104.238 16.2512 1694 100.702 885.775 444.44
787 0 107.565 17.5987 1893 98.103 885.76 442.493
788 0 106.179 16.538 1756 104.358 886.759 447.736
789 0 108.406 14.787 1603 109.889 886.017 437.733
790 0 106.292 11.9953 1275 120.238 885.529 431.493
791 0 112.243 14.0944 1582 112.97 885.571 424.725
792 0 116.238 13.9197 1618 113.647 885.79 427.714
793 0 116.431 11.9212 1388 118.205 885.722 429.304
794 0 127.246 15.5683 1981 110.312 887.538 405.567
795 0 131.276 15.814 2076 110.494 886.077 403.622
796 0 129.275 15.8654 2051 113.145 887.137 407.722
797 0 135.208 16.6263 2248 111.895 886.496 408.032
798 0 134.264 14.1661 1902 121.481 886.104 411.186
799 0 137.367 13.4312 1845 122.754 886.357 422.142
800 0 141.224 12.8661 1817 125.193 886.472 423.894
801 0 148.363 16.0148 2376 115.554 886.769 425.382
802 1 90.1474 10.2832 927 110.986 886.447 462.698
803 0 92.1059 10.5205 969 111.836 887.274 461.024
804 0 94.1197 10.7523 1012 115.675 886.59 459.02
805 0 96.1629 10.8462 1043 117.126 887.442 456.815
806 0 99.2015 10.6047 1052 117.509 887.489 457.046
807 0 104.124 11.419 1189 116.432 886.919 454.044
808 0 107.123 10.922 1170 119.28 886.737 450.229
809 0 111.124 11.8246 1314 116.678 887.022 451.387
810 0 116.108 12.9793 1507 115.058 887.243 448.013
811 0 118.27 11.3131 1338 119.579 886.819 444.492
812 0 121.189 12.823 1554 117.998 887.268 444.47
813 0 124.134 11.4715 1424 122.185 887.19 443.897
814 0 129.167 13.5406 1749 118.481 885.822 441.045
815 0 132.159 12.5909 1664 122.442 887.453 438.689
816 0 137.345 12.8071 1759 121.626 886.901 438.401
817 0 141.091 12.9491 1827 123.504 885.984 433.475
818 0 148.119 14.6841 2175 120.247 885.997 433.732
819 1 86.1516 11.4449 986 119.816 886.346 463.365
820 0 86.102 11.1728 962 122.943 886.25 461.368
821 0 92.0976 12.161 1120 119.665 885.819 459.699
822 0 94.1647 12.0852 1138 120.767 885.67 455.15
823 0 97.1474 12.0436 1170 114.038 885.208 458.211
824 0 99.0911 11.3532 1125 116.566 885.814 455.38
825 0 102.069 12.0506 1230 115.099 886.527 453.518
826 0 105.159 10.8597 1142 118.868 886.383 453.168
827 0 108.19 11.8311 1280 116.359 886.292 451.449
828 0 114.047 13.3804 1526 113.497 887.155 450.84
829 0 116.117 12.5994 1463 114.614 887.27 446.627
830 0 121.244 13.7986 1673 112.438 887.817 445.29
831 0 125.147 12.4494 1558 116.915 887.096 442.424
832 0 128.202 12.7767 1638 117.872 887.296 438.449
833 0 135.198 13.1363 1776 116.172 886.775 437.287
834 0 138.387 12.2483 1695 117.773 886.353 431.082
835 0 141.328 12.4179 1755 117.61 886.536 425.448
836 0 145.188 10.7722 1564 122.677 886.128 424.359
837 0 150.298 11.3109 1700 124.659 886.947 419.335
838 0 154.373 10.3256 1594 125.928 886.306 415.122
839 0 162.27 11.524 1870 122.936 886.853 411.723
840 1 97.2567 10.9196 1062 114.578 886.946 453.633
841 0 101.213 11.5697 1171 113.373 887.33 454.383
842 0 101.157 10.8742 1100 102.977 886.636 452.875
843 0 106.151 10.1553 1078 104.507 887.956 453.549
844 0 106.064 10.7576 1141 106.621 886.961 449.257
845 0 110.127 11.2779 1242 106.416 887.774 447.756
846 0 112.138 9.37238 1051 119.714 887.574 442.995
847 0 119.162 11.5892 1381 111.783 886.704 445.106
848 0 124.281 11.1843 1390 112.894 887.996 442.206
849 0 125.197 10.9747 1374 112.587 887.955 443.429
850 0 130.256 11.6693 1520 112.509 887.426 437.534
851 0 134.33 11.2708 1514 112.287 887.589 439.102
852 0 141.309 12.5895 1779 111.272 887.746 433.768
853 0 144.424 11.2585 1626 112.447 887.702 434.054
854 0 151.196 11.5612 1748 112.373 887.7 429.665
855 0 156.285 11.0759 1731 113.11 888.193 425.767
856 0 160.196 11.5921 1857 112.826 886.796 421.522
857 0 168.196 12.5211 2106 111.553 887.818 420.771
858 1 93.1809 12.2343 1140 102.925 887.98 459.85
859 0 95.2388 11.4029 1086 104.213 887.653 458.1
860 0 99.1446 12.6078 1250 103.25 886.831 456.742
861 0 103.157 12.8444 1325 105.889 887.073 454.495
862 0 107.186 12.1471 1302 114.597 887.123 452.056
863 0 107.11 11.2688 1207 113.683 886.838 448.569
864 0 112.19 12.0064 1347 114.866 886.285 451.151
865 0 117.231 12.2664 1438 110.825 886.823 445.608
866 0 120.255 12.4651 1499 113.908 886.652 445.079
867 0 126.252 14.0354 1772 107.251 887.527 442.424
868 0 128.175 14.1447 1813 110.924 887.201 441.389
869 0 132.266 13.6619 1807 112.548 886.567 437.85
870 0 137.28 13.0973 1798 114.76 887.398 433.211
871 0 141.356 13.1653 1861 114.967 887.177 430.282
872 1 82.3203 9.83961 810 108.477 887.16 462.943
873 0 85.2696 10.6134 905 106.839 887.277 460.866
874 0 88.4576 11.6892 1034 106.549 887.03 458.131
875 0 91.3937 12.2984 1124 107.383 887.412 457.407
876 0 94.3657 12.1972 1151 109.61 886.508 455.889
877 0 97.2899 12.4165 1208 110.209 887.522 456.627
878 0 101.369 12.8738 1305 108.827 886.299 454.098
879 0 103.241 11.7492 1213 112.218 886.312 451.085
880 0 108.511 12.8098 1390 110.296 886.877 450.135
881 0 111.319 13.0795 1456 110.647 887.533 450.486
882 0 113.251 11.5054 1303 115.464 887.748 447.799
883 0 116.236 12.1993 1418 114.829 886.659 443.951
884 0 121.344 13.0044 1578 113.263 886.946 443.012
885 0 122.253 13.5702 1659 112.691 887.904 444.632
886 0 128.268 13.5419 1737 114.364 887.538 441.099
887 0 133.22 14.4948 1931 112.892 887.718 436.935
888 0 137.168 14.1505 1941 111.771 887.74 437.173
889 0 143.238 14.0326 2010 113.414 887.787 433.549
890 1 83.098 11.336 942 109.769 887.464 463.719
891 0 86.1719 12.2894 1059 104.611 888.238 461.957
892 0 88.1938 12.1891 1075 106.271 887.833 462.105
893 0 90.1055 11.0981 1000 109.675 887.723 459.723
894 0 95.1453 12.4862 1188 106.6 887.102 459.55
895 0 98.1161 13.4331 1318 106.823 887.943 456.184
896 0 102.191 13.2008 1349 108.058 888.037 451.118
897 0 106.256 12.9028 1371 108.286 887.376 452.665
898 0 108.192 12.8106 1386 109.793 886.741 449.196
899 0 110.2 11.8512 1306 112.429 887.346 446.708
900 0 116.195 13.0385 1515 109.363 886.589 447.816
901 0 118.365 12.622 1494 111.529 887.093 444.654
902 0 120.229 12.3598 1486 111.773 886.859 441.361
903 0 127.318 12.0643 1536 113.57 886.769 440.193
904 0 133.423 12.1268 1618 113.405 887.15 438.31
905 1 77.2526 11.9867 926 105.816 887.828 465.775
906 0 80.1503 12.5265 1004 103.934 886.52 465.281
907 0 82.2171 13.0995 1077 102.386 887.645 463.671
908 0 84.2535 12.6167 1063 104.304 886.845 462.16
909 0 91.3247 13.6655 1248 102.986 887.178 459.868
910 0 91.2494 12.2302 1116 109.391 887.064 457.065
911 0 95.3311 13.7626 1312 108.538 887.129 455.21
912 0 97.2252 12.8876 1253 110.938 886.986 453.206
913 0 100.516 11.8987 1196 113.122 887.955 452.547
914 0 105.195 13.8505 1457 109.759 887.576 451.184
915 0 108.344 13.5678 1470 110.832 887.315 450.652
916 0 110.239 13.0716 1441 113.385 887.686 449.441
917 0 113.096 12.5469 1419 115.179 887.196 445.366
918 0 114.084 12.4469 1420 113.856 886.943 440.718
919 0 118.145 12.4762 1474 114.243 886.701 438.642
920 0 123.143 12.5464 1545 113.489 887.591 439.81
921 0 127.269 12.7368 1621 112.24 887.347 439.651
922 0 133.345 12.7339 1698 111.989 886.655 436.953
923 0 140.254 13.9889 1962 109.797 886.962 432.513
924 0 147.139 13.4771 1983 110.32 886.873 428.959
925 1 82.0667 10.8814 893 106.169 887.616 463.778
926 0 86.0911 11.4762 988 105.001 888.079 460.847
927 0 89.1991 12.388 1105 103.654 886.642 456.979
928 0 92.3707 12.5256 1157 104.561 886.645 457.131
929 0 96.1655 11.8754 1142 105.478 887.053 456.246
930 0 99.102 12.3005 1219 104.951 887.098 454.005
931 0 101.254 12.3156 1247 104.881 887.01 452.882
932 0 103.181 12.3763 1277 106.034 887.014 448.32
933 0 106.423 12.3187 1311 106.205 887.809 448.78
934 0 111.358 12.4463 1386 104.999 887.487 450.776
935 0 113.234 12.9202 1463 105.383 887.064 448.242
936 0 119.249 12.4194 1481 107.305 887.51 442.49
937 0 127.344 13.2476 1687 104.587 886.577 441.705
938 0 130.15 12.8697 1675 107.576 886.832 435.078
939 0 136.234 13.2419 1804 108.288 887.162 433.99
940 1 75.094 12.2114 917 102.22 887.3 464.353
941 0 76.1812 12.1684 927 104.311 887.973 462.169
942 0 78.081 9.56699 747 104.617 887.936 464.23
943 0 78.0868 9.63031 752 131.89 886.918 464.108
944 0 86.0813 12.5579 1081 99.987 887.08 462.736
945 0 89.1953 13.9357 1243 99.1963 887.801 456.091
946 0 93.2448 12.3331 1150 103.909 886.97 455.231
947 0 95.1056 12.1444 1155 106.752 887.49 451.573
948 0 99.2918 12.3978 1231 107.823 887.154 450.036
949 0 101.241 11.28 1142 111.137 888.02 450.51
950 0 106.261 12.8175 1362 107.958 887.832 450.938
951 0 108.248 13.118 1420 108.874 887.642 446.361
952 0 112.177 12.3911 1390 111.032 887.468 443.101
953 0 117.131 12.8916 1510 110.898 887.614 442.6
954 0 120.196 12.7459 1532 111.366 887.448 438.868
955 0 127.168 13.1322 1670 109.727 887.743 438.118
956 0 129.388 12.3969 1604 112.857 886.74 433.728
957 0 134.222 13.1424 1764 112.01 887.338 430.481
958 0 140.277 12.404 1740 113.245 887.023 429.136
959 0 146.22 13.0967 1915 111.519 887.43 427.597
960 0 154.155 13.7913 2126 110.45 885.976 422.661
961 1 85.1056 11.8559 1009 106.444 887.671 460.909
962 0 89.1097 12.7259 1134 107.934 886.56 457.556
963 0 89.193 12.0077 1071 114.431 887.155 453.603
964 0 93.2289 12.1207 1130 115.988 887.005 455.327
965 0 99.2605 12.845 1275 114.253 887.433 451.562
966 0 100.232 12.6407 1267 115.725 886.834 447.603
967 0 105.325 13.1498 1385 112.999 886.199 448.054
968 0 108.177 13.7922 1492 113.483 886.326 444.994
969 0 111.208 14.6932 1634 111.329 886.619 444.59
970 0 116.085 13.4384 1560 113.854 886.216 440.564
971 0 120.184 13.055 1569 114.848 886.068 442.073
972 0 124.448 13.2424 1648 113.695 886.544 438.556
973 1 67.1615 12.3583 830 109.784 887.765 467.594
974 0 66.1914 12.2523 811 116.242 886.724 463.745
975 0 72.1502 13.1115 946 116.697 887.905 460.473
976 0 74.135 13.934 1033 114.237 887.091 460.239
977 0 77.1456 13.1569 1015 115.45 886.664 460.083
978 0 80.2005 13.4662 1080 115.389 887.12 457.093
979 0 80.2005 13.4662 1080 160.425 888.133 457.094
980 0 85.122 13.6158 1159 115.012 886.723 456.015
981 0 88.1507 14.0782 1241 113.504 886.467 454.374
982 0 92.2384 13.3675 1233 115.628 886.694 452.77
983 0 93.2631 13.6174 1270 115.388 886.526 451.854
984 0 97.2593 13.3458 1298 116.94 887.295 447.617
985 0 101.146 14.5928 1476 113.432 887.324 449.129
986 0 102.238 13.3317 1363 119.33 886.92 445.036
987 0 108.146 15.3589 1661 114.472 887.196 442.657
988 0 112.19 14.7429 1654 115.343 887.686 441.125
989 0 116.217 13.5609 1576 118.532 886.57 441.938
990 0 118.155 12.6021 1489 123.585 887.707 436.499
991 0 122.283 12.2421 1497 124.711 887.091 436.319
992 0 129.348 13.1583 1702 122.627 887.464 433.466
993 0 133.151 13.5785 1808 123.152 886.847 427.631
994 0 140.13 14.458 2026 120.325 887.533 425.302
995 0 146.23 13.6018 1989 122.011 887.08 424.611
996 0 151.333 14.7489 2232 120.547 886.751 420.695
997 0 157.137 13.7078 2154 123.743 887.189 417.548
998 1 88.0937 11.7489 1035 120.692 888.128 452.745
999 0 91.1524 13.066 1191 118.522 888.023 450.6
1000 0 94.1788 13.3788 1260 119.21 886.99 445.411
1001 0 97.1326 13.1779 1280 120.728 887.456 445.165
1002 0 101.208 13.4475 1361 120.436 887.848 442
1003 0 104.12 12.6777 1320 123.545 887.916 440.698
1004 0 107.204 13.7028 1469 121.442 887.894 439.66
1005 0 109.169 13.7859 1505 122.036 887.572 437.48
1006 0 116.15 12.2256 1420 125.856 888.052 432.414
1007 0 121.202 12.7556 1546 124.318 887.481 428.571
1008 0 127.137 12.7264 1618 124.536 888.131 426.425
1009 0 132.198 13.0259 1722 124.537 887.447 423.636
1010 0 137.168 13.2465 1817 125.006 887.507 421.949
1011 0 142.178 14.8969 2118 121.509 888.048 416.072
1012 0 149.204 13.82 2062 125.061 888.13 414.912
1013 0 154.472 13.7112 2118 126.65 887.92 413.789
1014 0 159.216 13.937 2219 127.607 887.504 406.63
1015 0 166.174 14.3224 2380 124.969 887.831 407.44
1016 0 173.315 15.8209 2742 120.028 887.133 403.732
1017 0 178.417 13.6927 2443 125.174 887.395 403.787
1018 0 184.321 14.236 2624 125.358 887.113 395.924
1019 0 187.289 13.1988 2472 128.754 888.248 389.661
1020 0 197.26 13.5354 2670 127.03 887.62 387.504
1021 0 203.255 13.0034 2643 127.603 887.438 389.076
1022 0 212.226 13.0521 2770 128.491 887.72 382.221
1023 0 221.359 13.774 3049 124.671 887.454 382.809
1024 0 232.319 13.5546 3149 126.114 887.51 375.267
1025 0 237.375 12.7731 3032 129.754 888.148 365.66
1026 1 58.0575 10.3518 601 94.589 889 469.684
1027 0 61.091 10.4925 641 101.827 888.365 469.629
1028 0 64.0297 11.1979 717 99.7601 888.032 470.855
1029 0 67.052 11.6775 783 99.8301 887.745 469.355
1030 0 70.0706 12.0022 841 99.4459 887.295 468.415
1031 0 72.0469 12.2282 881 99.025 888.618 466.15
1032 0 74.0267 10.7664 797 103.528 888.409 462.634
1033 0 78.1333 12.0435 941 100.413 887.174 463.543
1034 0 80.1393 12.7154 1019 101.219 889.142 461.79
1035 0 82.1388 12.4058 1019 101.742 888.142 459.175
1036 0 86.1354 12.3062 1060 103.499 887.988 458.585
1037 0 89.0688 11.9121 1061 110.787 887.395 457.197
1038 0 93.2386 11.9478 1114 114.535 888.193 454.897
1039 1 36.0076 8.22048 296 103.307 887.409 484.024
1040 0 41.029 10.3585 425 98.2235 887.398 481.913
1041 0 42.0518 9.41697 396 100.04 888.455 481.141
1042 0 43.0356 8.50458 366 101.24 888.607 482.852
1043 0 42.0249 8.47116 356 103.379 888.826 481.545
1044 0 44.0204 9.35929 412 101.16 888.925 481.022
1045 0 45.0393 10.0801 454 100.489 887.43 478.031
1046 0 44.0267 9.5851 422 103.076 886.55 479.393
1047 0 43.0226 8.8558 381 104.919 886.667 480.633
1048 0 45.0168 9.2632 417 104.247 887.307 480.525
1049 0 45.0111 9.41989 424 104.811 886.564 478.943
1050 0 46.0423 9.20893 424 104.75 887.219 480.686
1051 0 48.017 10.0798 484 102.118 886.595 478.378
1052 0 46.0408 8.51419 392 106.003 887.204 479.992
1053 0 47.0338 10.6944 503 101.909 887.34 478.286
1054 0 47.0276 9.56885 450 105.193 887.971 476.484
1055 0 47.054 10.1373 477 104.541 887.818 474.786
1056 0 44.0421 7.31119 322 110.093 887.773 476.534
1057 0 48.0764 10.0257 482 104.923 887.664 475.672
1058 0 48.1075 9.00068 433 105.945 887.739 475.33
1059 0 48.0674 8.15521 392 106.148 887.4 477
1060 0 50.1355 8.27756 415 105.827 886.945 475.318
1061 0 50.0645 8.96843 449 104.913 887.759 475.227
1062 0 51.0296 7.76021 396 109.53 888.028 472.707
1063 0 51.0421 6.87668 351 109.84 888.023 471.912
1064 0 50.0667 9.30759 466 105.442 887.242 472.365
1065 0 52.1311 7.19341 375 107.528 887.811 473.36
1066 0 53.0787 10.0417 533 103.377 886.904 470.287
1067 0 54.0366 8.45723 457 103.442 887.453 471.836
1068 0 54.0238 7.23755 391 105.66 887.726 468.458
1069 0 52.0254 7.53479 392 102.676 888.27 469.625
1070 0 53.0785 6.46212 343 104.464 887.152 463.012
1071 0 52.0569 7.43417 387 101.835 887.496 463.444
1072 0 59.0234 5.77737 341 106.065 887.892 468.968
1073 0 61.0472 6.55231 400 105.672 887.525 471.555
1074 0 62.0644 8.66842 538 101.481 888.173 471.823
1075 0 64.1586 8.79071 564 101.461 888.087 473.883
