time division length width area intensity CMx CMy
0 0 46.0734 14.1513 652 125.466 495.204 471.469
1 0 47.0492 14.2829 672 126.552 495.853 470.622
2 0 48.0836 12.7486 613 132.9 496.049 471.421
3 0 49.0542 14.3923 706 126.705 496.014 470.834
4 0 50.0935 13.7343 688 128.712 496.221 470.34
5 0 50.0388 14.3289 717 124.792 496.331 466.881
6 0 52.0275 12.8778 670 115.073 496.478 465.94
7 0 50.0611 12.9841 650 116.045 496.552 466.525
8 0 53.0165 13.128 696 115.97 496.187 468.519
9 0 56.0469 13.5422 759 121.043 496.498 469.816
10 0 58.0557 13.7454 798 118.084 495.959 468.618
11 0 57.0316 14.3254 817 116.902 496.946 469.481
12 0 59.073 13.204 780 117.094 496.224 464.735
13 0 62.0483 12.4742 774 120.534 496.274 464.359
14 0 64.0377 14.3821 921 122.308 495.868 465.238
15 0 65.0442 13.1756 857 126.559 495.342 464.884
16 0 68.0646 14.0896 959 121.861 495.594 464.854
17 0 70.0973 13.5241 948 123.992 495.266 464.32
18 1 34.0195 11.9637 407 131.403 495.978 479.759
19 0 36.0389 12.1258 437 128.199 494.682 481.556
20 0 39.158 11.9516 468 128.897 494.536 480.002
21 0 39.1002 12.3273 482 130.299 495.396 478.739
22 0 41.0608 12.859 528 128.483 495.564 478.898
23 0 43.0248 13.5038 581 126.962 495.308 478.731
24 0 44.0384 14.3738 633 123.823 495.575 477.788
25 0 46.0706 13.2623 611 121.818 494.308 479.144
26 0 46.0551 13.701 631 120.303 494.271 478.994
27 0 46.0556 14.0482 647 120.334 494.379 478.649
28 0 48.0236 13.7432 660 122.405 494.035 477.002
29 0 49.0892 14.0153 688 121.359 494.384 475.708
30 0 52.0135 14.4001 749 118.702 494.527 476.055
31 0 51.044 12.9692 662 124.887 493.838 476.083
32 0 54.0694 14.056 760 121.107 493.511 476.682
33 0 54.1042 13.4925 730 124.397 494.008 473.584
34 0 58.053 13.8322 803 121.737 494.078 473.913
35 0 61.0455 15.0543 919 118.962 493.938 472.052
36 0 60.1143 14.2895 859 122.476 494.636 472.757
37 0 63.0435 12.9276 815 125.773 494.193 471.602
38 0 66.0344 14.6439 967 120.354 493.222 470.027
39 0 68.0403 14.271 971 123.361 493.36 468.223
40 0 70.0458 13.4341 941 126.196 493.159 467.7
41 0 71.0404 14.2877 1015 126.561 493.314 464.344
42 0 78.1709 15.1975 1188 123.869 492.931 465.469
43 0 80.0622 14.3888 1152 127.034 493.441 464.606
44 0 82.0621 14.5256 1192 127.676 493.195 460.855
45 0 84.0767 15.2599 1283 125.312 493.518 460.434
46 0 88.1391 15.2827 1347 124.739 492.599 459.806
47 0 90.1907 13.9482 1258 129.192 492.514 459.124
48 0 93.0923 15.6834 1460 124.181 492.536 458.119
49 0 95.0902 15.5852 1482 125.307 492.385 455.242
50 0 98.0729 14.9277 1464 126.942 492.498 455.309
51 0 101.11 16.3782 1656 121.654 493.191 451.943
52 0 106.097 16.0418 1702 121.878 492.967 449.787
53 0 107.067 15.0279 1609 125.361 492.764 447.695
54 0 112.144 15.7388 1765 122.85 492.35 446.408
55 0 115.129 16.1558 1860 121.426 492.275 445.727
56 0 118.184 14.5705 1722 126.458 492.728 444.646
57 0 122.343 15.0887 1846 125.56 492.127 441.015
58 0 127.112 15.1284 1923 125.67 492.518 438.839
59 0 132.221 16.5405 2187 121.439 492.909 436.667
60 0 138.264 16.2008 2240 121.675 492.359 436.621
61 0 142.182 15.6279 2222 123.661 492.077 434.502
62 0 148.24 15.7717 2338 122.852 491.361 431.217
63 0 152.27 15.2689 2325 124.438 491.192 429.721
64 0 158.136 16.1949 2561 121.889 490.834 425.758
65 0 163.116 15.7924 2576 123.444 490.827 424.565
66 0 169.204 15.6084 2641 123.144 490.789 422.512
67 0 176.186 16.284 2869 121.881 490.38 415.443
68 0 179.136 15.2566 2733 126.284 490.585 416.682
69 0 187.264 15.6037 2922 124.603 489.996 413.229
70 0 191.202 14.9267 2854 127.194 490.229 407.627
71 0 201.313 15.9155 3204 122.935 489.999 409.011
72 0 209.338 16.2799 3408 121.59 489.901 399.892
73 0 216.39 14.9083 3226 125.736 490.006 395.005
74 0 226.359 15.1573 3431 125.099 490.501 392.33
75 0 235.262 16.2627 3826 122.815 489.952 388.738
76 0 244.464 17.5977 4302 120.165 489.869 386.205
77 0 253.423 16.1232 4086 124.811 490.497 379.976
78 0 261.261 14.7668 3858 128.293 490.219 368.871
79 0 270.234 13.2515 3581 131.432 490.381 365.736
80 1 58.0235 10.9266 634 118.399 492.153 473.718
81 0 58.0561 10.5932 615 118.772 492 473.889
82 0 62.1194 11.8643 737 117.909 490.71 468.628
83 0 66.0653 12.4271 821 115.829 490.672 471.42
84 0 66.0472 12.6879 838 116.77 491.205 471.097
85 0 69.0879 12.39 856 117.037 491.943 470.89
86 0 69.1094 12.1546 840 119.373 491.943 468.22
87 0 71.1055 12.7416 906 117.245 491.955 468.54
88 0 75.0581 12.3105 924 117.209 492.042 467.912
89 0 78.1358 13.7453 1074 114.045 491.555 465.849
90 0 79.1845 12.4519 986 117.14 491.476 462.909
91 0 83.223 13.4939 1123 113.703 491.394 462.668
92 0 84.3339 12.3201 1039 117.022 491.51 461.356
93 0 87.1095 12.3408 1075 116.655 491.063 461.933
94 0 91.1253 11.6872 1065 118.356 491.451 458.527
95 0 95.2197 12.6234 1202 115.597 491.354 456.8
96 0 103.143 16.9279 1746 102.543 491.249 448.699
97 1 53.1944 10.0763 536 111.66 492.194 478.836
98 0 54.1942 11.1082 602 107.945 490.488 474.807
99 0 56.1207 11.7426 659 111.572 490.8 477.106
100 0 58.199 11.1342 648 113.395 492.144 471.785
101 0 60.083 11.3177 680 113.269 489.875 473.428
102 0 63.0333 12.66 798 110.237 490.155 472.912
103 0 64.1347 11.8501 760 112.995 490.495 471.454
104 0 67.256 12.5045 841 111.357 490.737 470.989
105 0 67.1163 10.6531 715 116.789 490.698 468.571
106 0 73.0798 12.9721 948 107.473 489.713 469.689
107 0 74.0678 12.5966 933 108.598 489.874 468.14
108 0 78.2068 13.4643 1053 106.078 489.707 467.914
109 0 81.211 14.1483 1149 104.963 489.279 464.094
110 0 83.1546 13.3607 1111 106.639 489.112 465.234
111 0 85.1457 13.1657 1121 107.199 489.152 465.235
112 0 87.1089 13.1215 1143 109.947 488.669 462.285
113 0 91.1199 14.245 1298 106.958 488.76 459.242
114 0 95.2183 13.7894 1313 106.593 489.073 457.807
115 1 52.1 12.5912 656 100.627 489.52 481.291
116 0 53.3253 12.8644 686 102.083 490.825 473.539
117 0 52.1596 11.2923 589 101.861 491.195 473.941
118 0 52.0697 11.1389 580 103.329 491.764 475.672
119 0 56.0479 11.9362 669 100.652 490.405 476.172
120 0 57.0606 12.2852 701 101.29 489.593 476.69
121 0 60.086 12.2658 737 100.019 489.482 477.027
122 0 61.0543 12.9884 793 99.3165 490.291 474.397
123 0 62.1707 11.7579 731 103.573 490.085 473.375
124 0 64.0968 11.2174 719 105.289 490.384 472.399
125 0 68.0811 13.1608 896 101.309 490.51 471.356
126 0 70.253 12.6685 890 104.312 489.817 469.734
127 0 72.0575 12.9341 932 106.174 489.282 467.289
128 0 75.1318 13.3366 1002 105.797 490.798 466.252
129 0 76.0696 11.5552 879 111.514 491.32 465.845
130 0 79.1159 12.7282 1007 110.499 491.145 463.125
131 0 81.096 13.3422 1082 110.098 491.396 461.117
132 0 85.0967 13.138 1118 111.983 491.239 458.715
133 0 89.1558 13.6727 1219 111.272 492.139 459.838
134 0 90.2022 14.1349 1275 112.855 491.591 457.589
135 0 95.3053 14.5532 1387 111.999 491.469 456.497
136 0 96.1386 13.9382 1340 114.988 491.936 453.543
137 0 101.178 14.4596 1463 113.398 491.046 453.75
138 0 104.142 14.0769 1466 115.273 491.052 450.915
139 1 53.0319 10.1826 540 118.237 491.131 473.581
140 0 56.0706 11.5569 648 115.685 490.255 474.022
141 0 58.0405 13.3527 775 112.089 491.363 474.97
142 0 60.0672 12.8023 769 113.694 491.057 475.463
143 0 61.2007 14.1828 868 111.622 489.796 470.259
144 0 60.0786 12.6834 762 117.244 490.234 471.299
145 0 64.0717 13.0323 835 116.413 490.497 471.714
146 0 67.0473 13.6173 913 110.334 490.606 471.751
147 0 69.0434 14.0057 967 111.788 490.137 468.479
148 0 72.0249 12.9677 934 114.316 490.824 470.973
149 0 73.0247 13.0367 952 117.241 490.949 467.859
150 0 77.1827 14.8868 1149 112.049 490.595 466.542
151 0 77.0388 13.6035 1048 117.527 491.046 466.378
152 0 79.0747 13.1901 1043 119.357 489.663 464.326
153 0 82.0698 13.4398 1103 120.874 489.749 461.388
154 0 83.069 12.8568 1068 123.199 490.587 460.067
155 0 89.0738 14.2354 1268 118.405 490.058 459.863
156 0 91.0581 13.7934 1256 120.576 489.77 455.529
157 0 97.0433 13.9422 1353 119.191 489.774 455.316
158 0 99.1046 13.8843 1376 120.281 489.395 448.812
159 0 101.092 13.1465 1329 120.999 489.228 446.121
160 1 54.1506 11.5234 624 117.179 491.351 473.628
161 0 54.1096 12.2529 663 115.747 491.284 474.069
162 0 55.0247 12.0673 664 115.931 489.87 476.642
163 0 58.0444 13.0073 755 111.862 490.009 473.959
164 0 58.0665 11.2113 651 116.273 490.997 475.074
165 0 59.0603 11.6322 687 116.208 490.629 473.559
166 0 62.0547 11.9411 741 114.906 490.664 471.277
167 0 66.0413 12.7647 843 111.429 491.152 472.312
168 0 67.1136 11.8456 795 115.532 491.527 469.306
169 0 68.0662 12.9727 883 114.285 491.095 468.358
170 0 73.0529 12.9906 949 113.562 490.876 466.485
171 0 72.1155 11.8005 851 117.121 489.77 462.016
172 0 74.0469 12.168 901 117.537 490.221 462.199
173 0 79.1585 12.2665 971 114.54 490.635 460.168
174 0 83.1036 13.5494 1126 110.8 490.591 458.88
175 0 84.249 12.9972 1095 113.498 489.86 458.615
176 0 86.1936 11.9847 1033 116.139 490.008 456.915
177 0 91.2312 14.2057 1296 110.854 490.865 454.445
178 0 93.178 12.7605 1189 114.233 490.553 452.906
179 0 98.2662 13.3311 1310 110.418 490.792 447.4
180 0 101.332 13.5594 1374 108.9 490.64 450.379
181 1 51.1685 11.7064 599 103.491 489.745 474.608
182 0 51.1854 10.2764 526 110.053 491.304 474.833
183 0 55.166 12.3264 680 104.916 489.944 474.193
184 0 54.1437 10.3059 558 109.575 489.409 475.224
185 0 56.1277 10.8859 611 109.462 489.918 473.823
186 0 59.1994 12.365 732 104.721 489.76 473.577
187 0 61.1724 12.3095 753 105.764 491.121 470.774
188 0 65.1004 13.0107 847 101.246 491.215 471.447
189 0 64.1715 11.3134 726 102.616 491.335 471.375
190 0 67.041 11.7987 791 102.297 490.391 471.211
191 0 69.0601 11.0628 764 104.548 490.635 470.195
192 0 71.0423 13.0908 930 102.159 490.226 468.037
193 0 72.1551 11.212 809 111.286 491.26 463.088
194 0 75.09 13.0377 979 106.45 490.592 467.309
195 0 79.0567 12.548 992 108.861 490.079 464.134
196 0 82.066 11.6735 958 111.005 490.485 463.371
197 0 84.0453 13.0287 1095 108.226 490.177 461.89
198 1 44.0175 9.08729 400 108.832 490.932 483.46
199 0 43.0343 11.3166 487 108.142 491.105 480.211
200 0 46.0342 11.5566 532 107.814 491.739 479.192
201 0 47.1166 13.2013 622 105.027 490.079 477.961
202 0 47.1742 10.917 515 111.544 488.658 476.192
203 0 49.0737 11.9616 587 106.605 489.022 480.678
204 0 50.0981 12.8747 645 103.639 488.926 477.781
205 0 51.0935 10.334 528 108.03 489.417 478.621
206 0 51.093 9.68822 495 109.137 489.131 477.846
207 0 55.057 11.7333 646 103.824 489.491 476.413
208 0 55.0247 11.4312 629 104.146 490.035 476.081
209 0 56.0358 12.1886 683 103.23 490.432 474.779
210 0 59.0863 11.7286 693 103.983 490.434 475.234
211 0 62.0474 11.5879 719 104.225 490.167 475.367
212 0 63.0274 11.7885 743 104.444 490.696 472.479
213 0 63.2364 12.5244 792 103.915 489.823 472.807
214 0 64.0772 11.7671 754 106.784 489.578 470.137
215 0 67.1372 11.8116 793 106.963 489.706 470.725
216 0 70.096 11.684 819 108.834 490.28 469.195
217 0 71.1492 11.9046 847 109.426 491.423 465.496
218 0 74.0999 11.8354 877 109.916 490.692 465.381
219 0 78.1747 14.2118 1111 106.896 490.241 464.794
220 0 79.0768 13.2529 1048 109.871 490.562 460.026
221 0 82.096 13.9105 1142 107.515 490.293 462.829
222 0 84.1275 14.1927 1194 107.922 490.114 461.407
223 0 89.1645 13.0321 1162 108.843 491.18 461.224
224 0 92.1535 13.5101 1245 108.159 491.732 457.709
225 0 94.1416 13.0973 1233 109.544 492.509 456.391
226 0 97.1965 12.6753 1232 111.213 491.822 454.369
227 0 101.147 13.2579 1341 108.876 491.763 451.821
228 1 55.1262 10.7934 595 109.296 491.106 474.213
229 0 58.1207 12.0095 698 105.499 488.997 470.383
230 0 60.0543 13.2713 797 102.501 489.583 469.228
231 0 58.0892 11.6545 677 102.046 491.047 473.316
232 0 62.1253 12.1046 752 99.8697 491.271 474.015
233 0 63.0864 13.2834 838 99.1766 491.191 472.218
234 0 65.0797 12.0929 787 101.774 491.015 470.419
235 0 67.0654 11.8243 793 101.865 491.042 470.542
236 0 68.042 11.3312 771 103.468 491.37 470.852
237 0 71.0333 12.9235 918 101.195 491.678 468.721
238 0 73.1899 12.5837 921 102.931 491.418 467.369
239 0 74.0914 12.768 946 104.227 491.603 464.511
240 0 77.1071 11.9315 920 107.782 491.179 463.787
241 0 78.1507 10.9916 859 111.175 490.254 462.284
242 0 82.0929 12.4493 1022 106.858 490.283 461.163
243 0 84.1156 12.8632 1082 107.22 490.881 460.69
244 0 89.2277 12.272 1095 108.495 490.834 454.675
245 0 93.3211 12.0552 1125 109.36 491.13 457.515
246 0 94.1078 11.2106 1055 111.331 491.221 457.295
247 1 51.0347 12.2466 625 105.39 492.59 476.413
248 0 52.055 11.3342 590 109.227 491.349 476.415
249 0 56.042 12.901 723 103.256 491.721 476.39
250 0 52.0622 12.0817 629 103.386 491.733 475.709
251 0 56.0471 12.6322 708 101.273 490.944 474.545
252 0 56.0963 10.4463 586 106.235 491.64 474.073
253 0 60.0979 12.0636 725 102.603 490.95 471.168
254 0 61.0962 10.0497 614 107.366 490.251 469.319
255 0 62.1029 11.2394 698 105.006 490.468 469.249
256 0 66.0816 13.0142 860 100.367 490.648 469.58
257 0 67.0538 11.6623 782 104.876 489.641 467.868
258 0 70.0524 12.4621 873 104.915 489.692 466.877
259 0 73.0294 13.9122 1016 101.921 490.243 465.439
260 0 74.0423 13.2492 981 103.389 490.135 462.668
261 0 77.2066 12.2269 944 106.145 490.578 462.907
262 0 79.1602 12.5694 995 106.536 491.017 460.664
263 0 82.1433 12.9165 1061 104.886 490.914 461.625
264 0 87.1405 13.6102 1186 103.69 491.212 460.138
265 0 88.1376 13.3314 1175 105.439 491.357 459.33
266 0 92.2682 13.6992 1264 104.918 491.067 456.249
267 0 94.1362 14.1285 1330 105.047 491.648 454.241
268 0 99.205 14.3037 1419 102.935 491.825 456.049
269 1 52.0897 11.0003 573 105.424 492.346 476.63
270 0 52.0637 10.66 555 97.5586 491.625 474.786
271 0 56.0415 11.5807 649 103.137 490.538 476.322
272 0 58.0328 12.2172 709 100.687 489.841 475.482
273 0 57.0407 12.307 702 103.715 489.91 472.803
274 0 62.1283 13.4882 838 100.079 490.192 473.548
275 0 64.0692 12.9235 828 102.029 489.786 472.705
276 0 63.0823 12.4282 784 105.643 489.828 471.406
277 0 67.0567 12.9294 867 104.552 489.791 470.559
278 0 69.0604 13.4085 926 104.565 489.559 468.606
279 0 71.0773 13.5627 964 105.92 489.943 468.233
280 0 73.0432 13.937 1018 106.776 490.363 465.619
281 0 78.1252 15.0016 1172 102.41 491.257 462.284
282 0 78.0889 14.5347 1135 106.784 490.912 463.476
283 0 80.0689 14.1503 1133 109.022 491.297 462.199
284 0 82.0809 13.2187 1085 113.467 490.786 460.816
285 0 86.0857 15.7634 1357 106.429 491.234 460.947
286 0 86.107 14.0407 1209 113.23 490.995 458.319
287 0 91.153 14.2069 1295 111.543 491.459 459.98
288 0 94.1123 15.1946 1430 109.173 490.894 456.457
289 0 97.219 15.0896 1467 109.704 491.234 454.935
290 0 100.14 14.929 1495 108.506 491.391 455.955
291 0 101.306 14.4019 1459 111.862 491.633 452.975
292 0 104.226 14.8524 1548 111.036 490.484 448.7
293 0 108.255 14.2349 1541 111.52 490.296 448.155
294 0 111.219 13.2622 1475 115.673 490.586 444.473
295 1 58.3468 11.8258 690 107.657 490.897 478.132
296 0 58.0723 11.744 682 109.654 490.567 475.101
297 0 61.1081 11.5042 703 108.767 491.132 476.104
298 0 64.0923 13.3401 855 106.257 490.909 474.52
299 0 64.164 12.2966 789 110.172 490.872 473.826
300 0 65.1006 12.5805 819 111.271 490.532 472.274
301 0 70.11 13.436 942 108.483 491.024 471.061
302 0 71.0749 12.1843 866 114.397 490.718 469.567
303 0 73.0662 13.0977 957 113.675 491.465 466.375
304 0 75.0919 11.8788 892 116.646 490.655 465.308
305 0 76.1142 12.4418 947 117.287 491.197 464.205
306 0 79.1778 12.9961 1029 116.082 491.323 461.371
307 0 84.0592 13.7998 1160 113.091 490.399 461.443
308 0 86.1162 14.0856 1213 113.232 489.992 460.396
309 0 87.0614 12.9334 1126 116.377 489.821 460.227
310 0 92.1334 13.2308 1219 115.238 488.973 458.705
311 0 94.0573 12.8326 1207 117.25 489.437 455.071
312 0 96.0742 13.0628 1255 117.178 490.053 453.79
313 0 102.247 12.8219 1311 115.911 489.82 452.799
314 1 52.0379 12.2411 637 112.251 489.95 476.181
315 0 54.0102 10.6461 575 115.567 490.28 475.988
316 0 56.021 12.299 689 108.689 490.536 474.245
317 0 58.0658 11.3664 660 109.362 490.571 474.858
318 0 60.0289 12.1275 728 108.109 489.402 473.791
319 0 60.064 11.7708 707 110.945 490.375 473.871
320 0 64.0472 12.5845 806 109.225 490.182 471.598
321 0 63.0621 11.893 750 113.403 490.504 471.512
322 0 67.1144 11.9795 804 114.132 491.337 469.999
323 0 68.0562 12.4162 845 114.591 490.628 470.321
324 0 71.1978 13.2167 941 114.561 490.734 468.875
325 0 72.1042 12.5374 904 118.644 491.03 467.378
326 0 75.051 12.4182 932 118.841 491.065 466.308
327 0 77.0792 12.2082 941 120.014 489.991 459.939
328 0 80.1152 13.1186 1051 117.97 490.073 461.35
329 0 81.1869 13.1302 1066 121.189 489.85 461.979
330 0 85.0601 13.1672 1120 121.489 489.835 460.084
331 0 87.1759 12.9967 1133 123.741 490.073 457.708
332 0 91.1039 13.1279 1196 122.885 489.792 457.549
333 0 94.1635 13.519 1273 121.839 489.353 456.383
334 0 98.0866 13.6104 1335 121.521 489.07 452.16
335 0 100.113 14.0941 1411 121.621 488.97 450.795
336 1 49.0303 11.0748 543 118.044 490.101 479.635
337 0 52.1148 11.2444 586 116.794 490.857 477.031
338 0 53.0289 12.2952 652 113.949 492.127 476.11
339 0 53.0262 10.674 566 119.198 491.721 476.364
340 0 55.0614 12.0774 665 114.91 491.445 477.341
341 0 56.0204 11.7993 661 111.735 490.103 476.831
342 0 56.0263 10.9234 612 115.137 490.544 475.469
343 0 60.0569 11.2227 674 113.252 489.797 473.104
344 0 63.0499 11.1023 700 111.597 490.394 475.241
345 0 64.0569 11.3181 725 112.011 490.714 473.561
346 0 67.051 11.976 803 111.408 490.306 470.843
347 0 70.0702 11.4314 801 110.925 489.6 472.815
348 0 73.0683 12.7278 930 110.487 490.546 471.516
349 0 74.0713 11.1514 826 116.964 491.666 466.786
350 0 76.0963 11.8666 903 115.037 491.882 464.413
351 0 80.0558 12.3789 991 112.923 491.928 465.289
352 0 80.0558 12.3539 989 145.151 491.907 465.353
353 1 44.0185 10.6092 467 108.874 492.126 484.852
354 0 46.0445 11.554 532 106.056 492.008 482.632
355 0 47.0202 12.1012 569 103.251 491.685 483.271
356 0 47.0614 12.0906 569 100.499 491.525 482.281
357 0 48.0518 11.5917 557 101.368 491.569 481.151
358 0 49.025 10.5864 519 104.166 492.164 479.104
359 0 52.039 12.4138 646 98.9892 491.867 480.7
360 0 52.07 11.7342 611 101.707 492.046 479.206
361 0 53.0332 12.0868 641 101.242 492.443 477.644
362 0 54.0584 11.2286 607 103.801 492.835 477.491
363 0 58.0352 10.8727 631 104.106 493.059 478.241
364 0 59.0339 11.2478 664 105.053 492.283 476.806
365 0 59.0098 11.049 652 107.515 492.5 474.88
366 0 61.0852 11.8196 722 105.781 492.209 473.389
367 0 65.0395 11.1778 727 106.7 491.879 472.719
368 0 66.021 10.6936 706 110.32 491.81 469.297
369 0 70.0375 12.4362 871 106.049 491.581 469.209
370 0 72.2299 12.4325 898 107.708 491.552 469.136
371 0 75.1522 12.6676 952 109.026 491.684 468.779
372 0 77.047 12.5378 966 111.35 491.487 466.543
373 0 80.0833 12.3122 986 114.202 491.485 464.245
374 0 82.1456 13.1596 1081 115.117 490.68 460.657
375 0 86.1738 13.6584 1177 114.715 490.997 460.203
376 0 89.2856 12.32 1100 119.266 490.559 456.018
377 1 47.0738 9.87812 465 119.905 489.985 482.176
378 0 49.0786 11.6344 571 116.147 490.462 478.368
379 0 51.088 11.8423 605 114.226 489.493 479.58
380 0 51.1007 10.8218 553 120.763 492.479 478.866
381 0 52.0874 11.2887 588 121.003 491.56 478.665
382 0 54.0834 11.9075 644 120.368 491.489 476.936
383 0 56.1034 11.3006 634 122.088 491.24 476.412
384 0 57.1139 11.6084 663 123.017 491.183 475.353
385 0 60.231 11.7547 708 121.568 490.463 474.346
386 0 64.1462 12.5651 806 118.896 491.022 474.6
387 0 63.1636 11.7314 741 121.961 491.91 474.615
388 0 64.1193 11.3226 726 123.89 491.387 472.366
389 0 68.2763 14.2363 972 113.976 490.776 471.007
390 0 70.2037 12.5207 879 119.51 490.29 469.174
391 0 74.1477 12.8392 952 119.836 490.424 467.038
392 0 75.1145 13.0201 978 117.794 491.079 466.36
393 0 76.155 12.7766 973 118.248 491.4 466.348
394 0 80.1145 11.7332 940 119.2 491.591 465.446
395 1 42.0187 9.80516 412 119.903 492.279 484.738
396 0 44.0046 9.79444 431 119.668 492.387 485.404
397 0 47.0349 13.2455 623 112.445 493.281 481.878
398 0 48.0109 10.9975 528 118.258 492.528 481.424
399 0 48.0234 12.3898 595 116.398 493.091 482.355
400 0 49.0334 11.3596 557 114.16 493.276 483.293
401 0 51.0254 11.4257 583 112.655 492.467 482.604
402 0 51.0381 11.8147 603 112.299 492.063 482.658
403 0 53.0211 10.8636 576 113.866 492.266 481.422
404 0 53.0382 12.1422 644 112.166 492.36 479.981
405 0 57.0448 12.797 730 110.155 491.395 478.345
406 0 57.0258 11.2756 643 114.271 491.747 479.415
407 0 59.0397 12.0766 713 113.973 491.614 475.547
408 0 61.0458 12.3514 754 111.289 491.286 477.528
409 0 64.0465 12.7095 814 110.693 490.579 474.904
410 0 66.0808 11.6827 772 114.15 490.665 474.006
411 0 68.0519 12.079 822 113.027 491.038 473.816
412 0 70.0925 12.5548 880 113.482 490.52 472.232
413 0 74.0567 13.0711 968 111.85 491.479 471.408
414 0 75.0485 13.2847 997 113.443 491.282 468.364
415 1 39.0022 11.8968 464 111.453 491.705 486.129
416 0 41.029 11.0897 455 112.743 490.782 485.2
417 0 43.0716 11.3996 491 111.509 491.426 483.251
418 0 43.0336 11.1076 478 112.866 491.628 485.126
419 0 42.0066 11.0697 465 108.688 491.871 484.316
420 0 44.0831 11.3195 499 107.982 491.148 481.749
421 0 46.1167 11.3191 522 107.967 491.197 479.623
422 0 47.1048 10.8906 513 110.195 491.183 481.542
423 0 47.1067 10.8477 511 134.384 492.16 481.556
424 0 48.0683 12.5863 605 107.446 490.274 479.387
425 0 51.0729 12.6877 648 107.702 490.414 478.383
426 0 54.0613 14.2616 771 102.546 490.926 478.956
427 0 55.0721 12.2567 675 107.978 490.994 479.514
428 0 56.1032 12.2809 689 108.894 490.774 477.549
429 0 57.1076 12.5202 715 109.378 491.055 476.593
430 0 60.0423 13.3572 802 106.401 490.855 476.155
431 0 61.057 13.6921 836 107.289 490.994 472.836
432 0 64.1238 13.9106 892 105.469 491.159 473.706
433 0 67.1303 13.5557 910 106.768 490.567 472.26
434 0 67.1212 12.4253 834 111.211 490.308 473.182
435 0 69.0928 12.722 879 111.915 491.487 471.613
436 0 72.0729 13.8471 998 109.805 491.646 469.429
437 0 76.1539 13.197 1005 112.124 491.53 467.419
438 0 76.1028 13.3372 1015 113.809 491.49 466.981
439 0 80.1279 12.8545 1030 114.698 491.786 464.886
440 0 82.1619 13.6438 1121 112.557 491.456 464.454
441 0 86.2042 13.3288 1149 112.831 491.72 457.661
442 0 90.2318 13.1993 1191 112.878 491.989 460.641
443 1 46.1197 10.6896 493 113.181 490.72 483.398
444 0 47.063 10.0079 471 116.979 490.911 479.822
445 0 52.0659 11.1781 582 111.966 490.089 478.098
446 0 50.1217 10.275 515 105.414 492.064 476.899
447 0 53.0448 11.6505 618 104.578 490.998 478.235
448 0 55.0239 12.2129 672 107.515 492.327 480.07
449 0 54.0644 13.3174 720 108.25 491.603 477.442
450 0 58.0213 11.8749 689 110.981 491.544 478.107
451 0 59.0599 13.3593 789 110.176 491.948 475.986
452 0 61.0519 13.4148 819 111.027 492.681 474.84
453 0 64.0975 12.8242 822 113.05 492.174 474.659
454 0 65.0668 13.709 892 112.062 492.59 473.367
455 0 69.1292 14.4223 997 110.271 492.349 470.493
456 0 71.2025 13.89 989 112.982 492.317 468.702
457 0 73.0476 13.2243 966 113.138 493.018 467.531
458 0 74.0289 12.6842 939 114.605 492.482 468.117
459 0 77.0238 13.1777 1015 114.037 492.238 467.125
460 0 78.1106 12.2647 958 116.287 491.939 466.216
461 0 85.0831 13.2929 1131 112.08 491.651 464.989
462 0 87.1149 13.0173 1134 113.934 492.004 462.697
463 0 89.0759 12.7195 1133 116.018 492.235 460.429
464 0 91.0675 14.6485 1334 112.801 492.401 458.214
465 0 94.0743 12.8834 1212 116.774 493.054 458.715
466 0 97.1445 11.8895 1155 119.84 493.87 455.874
467 0 100.095 13.1375 1315 116.621 493.094 454.207
468 0 104.071 11.1077 1156 119.01 491.416 448.408
469 0 108.072 11.2517 1216 119.393 492.143 446.398
470 0 111.137 12.4441 1383 116.522 492.129 448.57
471 0 114.143 10.8811 1242 119.466 491.942 449.915
472 1 64.1259 12.3039 789 113.003 491.455 473.079
473 0 65.0892 11.3844 741 112.756 492.135 470.212
474 0 68.0247 12.5543 854 112.286 493.311 472.655
475 0 68.0546 11.3732 774 112.253 493.087 473.903
476 0 71.1105 11.4329 813 112.358 493.177 471.047
477 0 75.0636 12.1497 912 112.919 493.128 469.261
478 0 75.0928 12.4779 937 114.269 493.241 468.22
479 0 80.1656 13.285 1065 112.628 493.126 464.774
480 0 81.0759 12.5561 1018 115.462 492.859 464.995
481 0 84.1347 13.0505 1098 114.957 492.989 463.85
482 0 87.1271 13.3713 1165 114.081 492.478 461.431
483 0 89.2928 12.9126 1153 115.08 492.167 462.373
484 0 90.0927 13.0754 1178 115.807 492.72 458.252
485 0 95.0738 13.7577 1308 113.382 492.641 455.9
486 0 96.1837 13.3703 1286 114.741 492.22 453.593
487 0 101.175 13.8374 1400 112.664 493.162 454.019
488 0 105.116 13.1473 1382 114.286 493.141 450.676
489 0 108.085 12.592 1361 115.048 492.842 449.319
490 0 111.25 12.6202 1404 115.67 492.923 447.528
491 0 115.273 13.9322 1606 112.176 493.006 444.154
492 0 119.237 12.6807 1512 113.97 492.972 443.877
493 0 122.184 12.1456 1484 115.953 492.117 439.654
494 0 128.197 12.629 1619 113.847 492.92 438.432
495 0 132.365 12.0274 1592 116.947 492.669 433.995
496 1 68.1477 10.3452 705 116.857 493.067 467.891
497 0 74.1286 12.0466 893 112.008 492.559 466.717
498 0 78.1432 11.351 887 113.313 493.072 466.393
499 0 78.1616 11.9368 933 111.618 492.92 464.133
500 0 82.1318 12.4556 1023 113.578 493.339 463.412
501 0 85.1234 11.9239 1015 117.794 493.142 463.032
502 0 88.1233 13.2428 1167 116.989 492.822 461.223
503 0 93.052 12.3802 1152 117.927 492.898 460.658
504 0 96.143 13.3655 1285 116.971 492.958 458.432
505 0 94.1791 11.5525 1088 123.959 493.234 454.773
506 0 101.098 13.0962 1324 120.514 493.025 453.608
507 0 104.199 12.7064 1324 121.091 492.674 452.11
508 0 107.074 12.7575 1366 120.698 492.643 452.067
509 0 110.134 12.7572 1405 121.438 493.191 448.684
510 0 115.149 12.9485 1491 115.581 493.101 448.711
511 0 118.208 12.698 1501 116.794 492.815 445.52
512 0 122.098 13.0796 1597 117.446 492.868 442.634
513 0 122.15 11.0847 1354 125.291 492.903 438.449
514 1 68.1085 9.41146 641 119.209 492.479 473.193
515 0 70.0851 11.6715 818 114.822 491.968 469.841
516 0 70.1589 11.2174 787 114.116 492.254 468.771
517 0 75.0314 12.3415 926 108.995 492.997 469.755
518 0 75.0639 10.6976 803 114.11 492.33 467.864
519 0 79.1365 11.8656 939 113.276 492.887 463.329
520 0 81.1706 11.753 954 115.857 491.936 464.658
521 0 81.1413 10.5372 855 118.439 492.007 465.699
522 0 86.2247 12.1079 1044 114.509 491.551 461.872
523 0 89.3689 10.5742 945 118.314 491.684 456.971
524 0 95.1515 11.0666 1053 115.053 492.097 458.025
525 0 97.1611 10.3642 1007 114.156 492.363 457.929
526 0 102.105 11.8799 1213 111.228 491.866 455.71
527 0 107.164 11.5057 1233 112.361 491.846 452.442
528 1 56.074 11.0747 621 108.633 490.96 476.324
529 0 59.0579 11.8189 698 107.232 491.143 476.404
530 0 58.0498 11.2834 655 107.095 491.91 474.711
531 0 61.0264 13.1419 802 100.767 491.838 473.597
532 0 64.1319 11.3516 728 104.701 492.26 473.795
533 0 66.065 12.7904 845 102.527 493.072 472.021
534 0 68.0593 12.9299 880 104.415 492.789 471.669
535 0 69.03 11.1835 772 111.025 492.817 469.491
536 0 72.0733 12.5983 908 108.781 492.691 468.533
537 0 75.0899 13.0777 982 108.299 492.733 467.254
538 0 77.0663 13.0926 1009 110.289 493.1 465.525
539 0 83.0843 13.9738 1161 108.51 492.801 466.866
540 0 82.0614 12.1373 996 115.581 492.396 464.969
541 0 87.1092 13.3511 1163 111.703 492.553 464.739
542 0 88.1348 12.6511 1115 115.405 492.086 461.851
543 0 90.1363 12.6697 1142 115.466 492.283 460.544
544 0 94.0851 13.137 1236 113.05 492.529 458.006
545 0 97.1257 12.5199 1216 114.935 492.635 454.904
546 1 50.0589 9.8484 493 118.183 494.093 478.988
547 0 51.1839 11.742 601 114.572 491.351 474.988
548 0 53.1881 11.1115 591 111.915 493.059 479.953
549 0 54.2264 11.6733 633 116.943 491.216 476.665
550 0 59.0525 12.5312 740 112.336 493.543 478.155
551 0 59.0961 10.8806 643 116.666 492.593 476.235
552 0 60.1128 11.1291 669 108.595 492.735 469.021
553 0 59.0672 9.56537 565 113.664 492.575 469.927
554 0 63.1838 11.2054 708 109.088 492.148 470.121
555 0 64.0749 10.9715 703 111.411 492.122 466.913
556 0 66.0876 11.4394 756 110.306 492.095 468.415
557 0 69.0453 10.6452 735 112.124 491.805 467.171
558 0 71.0603 12.4683 886 107.123 491.783 466.315
559 0 74.0341 12.2241 905 115.989 492.486 469.455
560 0 77.0404 12.1884 939 116.813 492.405 467.328
561 0 80.0779 13.1747 1055 112.737 493.174 465.983
562 0 82.0993 12.2656 1007 115.96 493.324 464.833
563 0 84.1353 12.7414 1072 117.52 493.037 463.446
564 0 88.0725 13.205 1163 116.454 492.889 462.344
565 0 93.1656 13.6209 1269 114.044 493.108 461.892
566 0 93.2766 13.4653 1256 117.752 492.127 457.354
567 0 97.12 14.5387 1412 115.072 492.072 455.13
568 0 99.2083 14.9584 1484 113.794 493.08 457.154
569 0 103.237 13.7451 1419 118.295 492.715 452.291
570 0 107.196 13.6665 1465 115.091 492.439 450.19
571 0 107.081 12.4859 1337 119.596 492.821 445.982
572 0 111.301 12.1652 1354 120.88 493.05 444.502
573 0 116.165 13.1881 1532 118.643 492.452 442.35
574 1 62.0204 10.3514 642 116.025 492.065 470.352
575 0 63.043 11.9284 752 111.35 492.68 469.561
576 0 66.0583 12.822 847 109.529 491.822 467.496
577 0 69.06 11.4248 789 107.475 491.651 466.143
578 0 70.1139 11.8807 833 105.837 492.277 466.109
579 0 69.0685 10.41 719 112.035 492.036 465.712
580 0 74.196 12.0896 897 119.026 493.119 469.057
581 0 79.1611 13.1125 1038 114.06 493.088 469.498
582 0 80.1389 14.113 1131 112.167 492.351 467.68
583 0 82.3271 13.5314 1114 115.408 492.313 465.285
584 0 85.2308 12.7653 1088 117.31 493.134 464.706
585 0 88.2819 13.5928 1200 115.75 492.223 464.081
586 0 90.2388 13.021 1175 118.476 490.715 460.562
587 0 94.136 12.9493 1219 116.942 491.515 459.326
588 0 96.1725 12.228 1176 118.605 491.313 458.009
589 0 100.156 12.7501 1277 116.996 490.934 456.715
590 0 105.187 13.6899 1440 113.264 491.181 453.861
591 1 55.0471 11.1178 612 113.317 490.773 480.998
592 0 56.0325 12.0644 676 116.176 492.967 478.626
593 0 57.0331 11.9229 680 115.582 492.857 478.615
594 0 59.0322 12.7557 753 108.242 491.914 479.375
595 0 60.1581 12.2344 736 111.284 491.496 477.361
596 0 61.1141 11.4703 701 113.421 492.347 476.943
597 0 63.071 12.1768 768 112.514 492.108 475.165
598 0 66.0618 13.1089 866 110.314 493.028 473.658
599 0 68.1191 12.6249 860 112.801 493.549 473.41
600 0 70.0445 12.1209 849 115.053 493.356 473.319
601 0 72.0418 11.9375 860 118.297 493.133 470.931
602 0 76.0477 12.8603 978 115.787 491.66 469.93
603 0 77.0681 11.4963 886 120.837 491.262 465.718
604 0 81.1449 13.7655 1117 114.693 491.731 463.753
605 0 82.0835 12.2924 1009 119.489 491.76 461.935
606 0 87.1183 13.7514 1198 115.947 492.285 462.621
607 0 90.0326 13.0508 1175 116.541 491.444 462.125
608 1 47.07 10.1126 476 117.168 491.968 483.758
609 0 50.0884 11.4198 572 112.764 492.208 481.259
610 0 49.0615 11.1289 546 113.476 491.914 479.546
611 0 52.0197 11.5341 600 108.017 491.755 480.865
612 0 53.0425 11.8961 631 107.333 493.3 479.932
613 0 55.0359 11.5924 638 107.92 492.781 479.95
614 0 56.0479 11.5794 649 107.949 492.418 478.524
615 0 58.022 12.5642 729 105.154 492.136 478.687
616 0 58.0663 11.418 663 107.872 491.205 477.67
617 0 61.0305 11.568 706 107.486 491.857 477.207
618 0 64.0711 12.611 808 104.387 491.474 474.582
619 0 66.0635 11.5495 763 106.765 492.359 474.163
620 0 68.0413 12.4189 845 104.845 492.036 473.427
621 0 71.0695 12.6777 901 104.363 492.374 471.908
622 0 73.0122 12.4089 906 106.443 492.268 470.439
623 0 74.1139 11.2394 833 111.511 492.339 469.395
624 0 77.1515 11.9635 923 111.563 492.246 468.573
625 0 80.0807 12.5873 1008 111.039 492.791 466.039
626 0 83.1174 12.0432 1001 112.242 492.235 466.486
627 0 85.2509 12.2697 1046 113.687 493.16 460.231
628 1 47.0391 10.6082 499 111.645 492.794 481.85
629 0 48.0639 12.1921 586 111.244 492.21 481.026
630 0 49.1762 10.5335 518 118.919 491.703 480.907
631 0 51.2757 12.072 619 115.313 491.168 479.964
632 0 51.1358 12.4961 639 115.141 491.626 480.615
633 0 53.0512 12.4785 662 115.535 490.843 477.647
634 0 56.0259 12.1372 680 115.649 490.576 478.1
635 0 56.0636 11.4334 641 118.822 490.785 477.181
636 0 59.0891 12.8281 758 115.736 491.454 475.871
637 0 60.1174 12.7251 765 115.728 491.554 475.771
638 0 60.0537 11.5563 694 119.599 490.755 474.506
639 0 62.1256 12.4908 776 117.519 491.561 475.299
640 0 64.0899 12.7009 814 117.05 492.263 475.66
641 0 66.1782 12.4059 821 117.627 491.274 473.302
642 0 68.0574 12.7246 866 116.902 491.165 472.17
643 0 71.1213 13.1747 937 115.205 490.447 471.549
644 0 74.0483 13.7883 1021 112.933 491.027 470.82
645 0 75.1839 13.3672 1005 116.11 491.408 467.564
646 0 77.041 12.4349 958 116.081 491.361 467.586
647 0 82.1096 12.8365 1054 114.609 491.902 466.639
648 0 84.0893 12.8316 1079 115.495 492.113 466.021
649 0 88.1318 12.6061 1111 116.283 492.059 462.859
650 1 46.2142 11.6631 539 116.464 492.265 480.538
651 0 47.2053 11.9054 562 116.198 491.875 481.717
652 0 49.2812 12.3171 607 115.774 491.909 482.781
653 0 48.2146 11.594 559 120.322 492.281 481.893
654 0 51.3462 12.6786 651 117.347 492.55 482.591
655 0 52.3609 12.5666 658 119.026 492.816 479.906
656 0 53.1832 12.3159 655 121.344 492.684 478.971
657 0 55.1876 12.0679 666 121.826 492.571 478.095
658 0 57.2185 13.7019 784 117.991 492.548 478.795
659 0 58.2259 11.9019 693 123.004 491.864 478.973
660 0 61.2852 13.1679 807 118.401 491.714 477.363
661 0 62.2177 12.2312 761 121.778 491.637 475.67
662 0 64.1812 12.9321 830 120.258 491.587 475.065
663 0 69.1839 14.3241 991 114.245 491.972 473.673
664 0 68.1559 13.5425 923 118.469 491.887 471.712
665 0 70.1172 12.7216 892 118.307 491.812 470.58
666 0 74.1432 13.8111 1024 115.713 492.082 469.176
667 0 78.1302 14.2839 1116 116.033 491.927 467.75
668 0 80.1237 12.4932 1001 121.291 491.942 467.689
669 0 84.0937 13.5801 1142 118.666 492.09 464.926
670 0 88.1031 13.7112 1208 118.237 492.257 463.547
671 0 89.0577 13.2386 1179 121.628 492.243 461.576
672 0 94.0685 12.8098 1205 122.296 492.287 461.379
673 1 49.0598 12.0262 590 118.958 491.488 478.203
674 0 52.0922 11.9212 621 118.34 492.776 481.113
675 0 54.0453 11.5644 625 113.074 493.173 480.454
676 0 55.1096 11.5951 639 112.286 492.153 475.216
677 0 56.041 12.6158 707 118.689 491.43 465.028
678 0 59.197 11.9938 710 120.318 492.097 469.732
679 0 60.2519 12.4809 752 117.854 491.626 471.846
680 0 63.1377 11.7204 740 115.322 491.276 474.65
681 0 64.0676 12.2059 782 116.632 491.903 473.583
682 0 65.0743 12.0939 787 121.183 491.416 474.281
683 0 68.1187 11.891 810 123.096 491.909 473.884
684 0 72.1468 13.0983 945 124.795 492.16 471.211
685 0 75.1408 13.7741 1035 122.762 491.896 469.745
686 0 79.1323 14.5958 1155 119.992 491.705 466.149
687 0 79.1281 13.2317 1047 125.99 492.133 467.543
688 0 84.221 14.6519 1234 120.968 491.763 466.929
689 0 86.1382 13.9892 1205 124.993 491.556 463.778
690 0 90.2833 12.3943 1119 126.835 491.836 465.368
691 0 92.2073 13.2094 1218 125.604 491.852 462.635
692 0 98.3224 13.1811 1296 124.55 491.844 460.708
693 1 52.1674 10.7538 561 121.863 491.938 473.449
694 0 53.0974 11.1117 590 123.203 491.398 473.5
695 0 54.0792 12.4447 673 119.18 492.104 474.73
696 0 57.0682 11.7579 671 120.566 492.219 474.328
697 0 58.2207 10.8724 633 122.687 492.439 477.893
698 0 61.1358 13.4291 821 116.129 492.264 475.203
699 0 63.227 11.8146 747 119.007 492.115 475.373
700 0 65.107 13.593 885 115.519 491.629 472.454
701 0 66.2111 11.8862 787 119.992 491.85 473.014
702 0 69.2092 12.0649 835 119.044 491.868 469.529
703 0 72.2563 11.4592 828 119.818 491.931 469.4
704 0 73.0464 11.965 874 116.65 492.024 467.394
705 0 76.0754 12.251 932 114.317 491.092 466.69
706 0 80.0641 12.465 998 113.597 490.579 461.747
707 0 84.0863 12.9985 1093 111.758 490.799 464.235
708 0 86.1536 12.617 1087 113.507 490.822 458.672
709 0 89.4608 12.2065 1092 115.749 490.252 455.523
710 0 95.1351 13.2443 1260 112.029 490.615 456.674
711 0 98.1764 12.3859 1216 114.17 490.364 452.986
712 1 55.0593 10.298 567 109.852 489.944 471.127
713 0 54.0548 9.98986 540 111.798 490.094 473.996
714 0 57.035 11.3965 650 108.788 490.74 472.472
715 0 60.0895 12.6478 760 106.271 490.141 471.397
716 0 61.0676 12.8055 782 104.485 490.616 473.918
717 0 62.0717 11.4384 710 110.817 491.942 473.169
718 0 65.0507 12.252 797 114.742 491.117 472.359
719 0 67.0835 11.5379 774 117.429 490.864 470.039
720 0 70.0202 12.3393 864 112.762 491.995 470.525
721 0 69.0486 12.006 829 114.736 492.59 469.719
722 0 75.0981 11.6381 874 113.355 492.413 468.42
723 0 78.0535 13.1192 1024 109.317 492.395 465.987
724 0 77.0824 11.2477 867 115.573 492.275 465.532
725 0 80.0986 11.8854 952 114.992 491.473 464.178
726 0 85.0485 12.3812 1053 114.188 491.259 462.943
727 0 87.0489 12.1541 1058 115.437 491.548 463.747
728 0 90.1617 14.1634 1277 111.99 491.767 463.153
729 0 93.1606 12.5268 1167 119.155 491.114 460.416
730 0 94.2063 11.6128 1094 120.799 492.498 454.245
731 0 98.1468 12.2571 1203 119.875 492.12 451.111
732 0 102.358 13.57 1389 114.925 492.302 453.587
733 0 106.186 13.1656 1398 117.041 492.433 449.839
734 1 55.0515 10.2268 563 115.973 492.86 477.847
735 0 58.0089 12.3085 714 110.758 491.357 477.996
736 0 59.0249 11.6053 685 117.182 492.058 475.422
737 0 61.0848 12.8182 783 114.299 491.326 475.702
738 0 62.0617 11.4563 711 111.848 491.679 477.142
739 0 63.0353 10.6924 674 114.958 491.228 474.868
740 0 65.0541 10.8679 707 115.338 491.024 474.571
741 0 67.057 11.8407 794 114.204 490.608 472.325
742 0 68.0862 10.3251 703 118.222 491.384 472.275
743 0 71.1203 11.5157 819 116.247 491.468 471.531
744 0 76.1791 12.3394 940 117.495 490.583 461.915
745 0 80.2156 13.6258 1093 113.884 490.777 463.738
746 0 82.1248 12.4567 1023 117.111 490.864 464.664
747 0 85.1449 14.0231 1194 114.348 490.885 464.296
748 0 85.0807 12.7291 1083 118.983 491.235 464.062
749 0 91.1896 13.3678 1219 116.706 490.666 459.543
750 0 91.1113 12.6988 1157 117.369 490.453 458.124
751 0 92.1402 12.6438 1165 118.604 491.147 456.861
752 1 50.0239 10.0152 501 117.192 492.822 482.022
753 0 52.0392 11.7219 610 112.536 493.426 480.474
754 0 53.024 11.0893 588 115.837 493.287 479.395
755 0 52.1818 10.6742 557 111.045 492.273 481.047
756 0 57.0942 11.157 637 109.738 492.732 480.929
757 0 58.1051 11.4104 663 110.934 493.591 478.653
758 0 60.0587 12.1048 727 109.915 493.08 475.828
759 0 62.0527 12.2315 759 108.972 492.729 474.644
760 0 65.0571 12.5736 818 108.418 492.555 474.396
761 0 66.0757 12.6522 836 108.755 492.502 471.537
762 0 69.0771 12.3485 853 110.951 492.592 471.742
763 0 70.1374 11.8339 830 113.892 492.83 469.865
764 0 73.0828 11.357 830 115.716 492.924 469.659
765 0 78.1171 13.6334 1065 110.078 492.254 468.044
766 0 80.1966 12.2324 981 113.44 491.999 467.307
767 0 82.046 13.1512 1079 112.196 491.914 465.062
768 0 85.0547 12.2157 1039 113.954 492.079 465.188
769 0 89.0863 12.0221 1071 114.12 491.913 463.136
770 1 49.0451 11.2346 551 112.169 493.025 480.893
771 0 51.0634 12.1026 618 110.537 492.62 478.948
772 0 51.0746 12.5111 639 109.984 492.689 480.854
773 0 54.0586 12.468 674 109.028 492.588 480.249
774 0 56.0759 12.5901 706 109.037 493.072 479.987
775 0 56.0842 13.765 772 108.051 492.663 477.079
776 0 59.1032 13.874 820 106.807 492.722 477.256
777 0 61.1144 12.4684 762 110.991 493.547 476.57
778 0 60.0354 12.7092 763 110.974 493.308 476.7
779 0 64.1274 12.9274 829 110.542 493.118 474.678
780 0 65.1519 13.3381 869 111.632 492.452 472.665
781 0 65.0733 14.0764 916 112.047 492.476 470.889
782 0 69.1257 13.6129 941 112.028 491.883 473.252
783 0 70.2755 12.451 875 115.917 492.535 471.073
784 0 73.1578 14.3252 1048 111.744 492.294 468.906
785 0 76.2746 13.7398 1048 113.597 490.968 469.417
786 0 78.1891 13.5697 1061 114.558 491.612 467.913
787 0 82.2747 13.382 1101 115.006 491.738 467.552
788 0 82.1979 13.6986 1126 116.258 491.778 464.847
789 0 87.2896 13.9879 1221 115.662 491.16 462.485
790 0 91.1977 14.2876 1303 114.108 492.375 461.708
791 1 46.2036 11.1463 515 119.085 490.637 480.74
792 0 49.0993 12.933 635 114.328 491.683 473.866
793 0 51.0523 11.7135 598 114.184 490.584 474.722
794 0 51.0208 12.8771 657 115.854 490.154 478.169
795 0 50.0217 11.8149 591 121.305 490.58 479.934
796 0 54.0166 12.6998 686 117.86 490.175 475.418
797 0 57.0348 13.6408 778 116.095 489.865 477.343
798 0 57.0645 12.7926 730 119.751 491.207 478.334
799 0 61.1433 12.806 783 118.886 491.466 478.479
800 0 61.0856 12.2942 751 121.803 490.949 475.751
801 0 63.104 12.6616 799 120.824 490.717 476.573
802 0 67.0716 13.5229 907 119.036 491.389 475.139
803 0 68.1165 13.7852 939 119.004 491.465 472.691
804 0 71.0403 13.795 980 118.76 491.562 472.697
805 0 73.0611 14.0294 1025 118.122 491.995 470.703
806 0 81.1551 15.0699 1223 111.092 492.303 465.397
807 0 82.112 15.1988 1248 112.763 491.478 464.595
808 0 85.187 16.2349 1383 109.833 491.581 462.576
809 0 86.1445 14.7543 1271 116.456 492.083 462.385
810 0 87.1035 15.3381 1336 116.318 491.373 464.347
811 0 90.0932 14.6293 1318 119.647 491.24 462.118
812 0 94.0642 13.3845 1259 121.214 491.514 455.272
813 1 47.147 11.3051 533 122.863 491.964 479.931
814 0 48.0411 10.4078 500 126.236 490.596 481.376
815 0 51.0923 13.3484 682 117.862 489.997 480.912
816 0 52.0535 13.1019 682 119.692 490.248 478.614
817 0 53.0556 12.4398 660 119.486 491.747 480.509
818 0 55.039 13.0998 721 118.424 492.619 478.105
819 0 58.0591 13.624 791 116.791 492.589 477.286
820 0 59.236 13.1845 781 118.513 490.489 476.061
821 0 59.1549 12.5264 741 121.514 490.429 477.188
822 0 62.0848 12.9822 806 112.287 490.938 477.37
823 0 63.1012 12.1868 769 114.865 490.823 476.235
824 0 65.2314 12.8466 838 114.167 490.668 474.833
825 0 67.0303 12.0692 809 117.508 490.744 472.781
826 0 70.0881 12.9694 909 117.355 490.554 471.55
827 0 75.2056 14.2277 1070 115.632 490.619 470.838
828 0 77.1115 14.7579 1138 117.092 491.285 467.872
829 0 80.1148 14.1297 1132 118.261 491.419 469.37
830 0 80.1133 13.1189 1051 124.516 491.924 464.964
831 0 83.1186 13.6191 1132 123.386 491.412 466.073
832 0 86.0661 14.5353 1251 121.297 491.444 464.41
833 0 90.1913 14.9682 1350 118.827 491.097 464.807
834 0 92.2737 14.2836 1318 122.018 491.249 461.436
835 0 95.1843 13.7838 1312 123.515 491.612 460.508
836 0 99.122 13.781 1366 121.603 491.234 458.693
837 0 102.174 12.9093 1319 124.723 491.463 454.81
838 1 53.094 11.3949 605 122.922 492.231 480.045
839 0 56.0415 10.9562 614 119.603 491.682 479.63
840 0 59.0822 12.1864 720 116.333 491.939 478.089
841 0 58.0368 10.7863 626 119.593 491.693 478.96
842 0 62.0416 11.6857 725 117.247 491.281 477.377
843 0 64.0773 12.1728 780 117.121 491.368 474.936
844 0 67.0977 12.4147 833 118.115 490.665 471.683
845 0 69.0874 13.1138 906 115.806 491.344 472.88
846 0 71.1033 12.8123 911 118.212 491.829 470.805
847 0 72.0684 12.1412 875 121.418 490.958 471.97
848 0 76.1054 12.8769 980 120.26 491.245 470.092
849 0 79.3395 12.4276 986 120.683 491.749 468.613
850 0 82.1703 12.4376 1022 120.663 491.764 467.269
851 0 86.0883 12.9402 1114 118.66 492.25 465.336
852 0 87.3616 13.7131 1198 118.629 492.223 459.913
853 0 92.2323 13.0757 1206 119.334 491.881 462.189
854 0 93.241 13.1273 1224 120.953 491.703 457.948
855 0 96.2476 12.8834 1240 121.019 491.542 456.755
856 0 99.3114 13.7849 1369 118.104 491.774 458.302
857 0 103.376 13.3783 1383 119.779 491.244 451.748
858 0 107.298 13.4951 1448 118.078 492.115 452.967
859 1 58.3846 10.7905 630 115.362 492.022 475.925
860 0 58.145 11.6261 676 116.577 491.756 476.484
861 0 61.0876 11.6718 713 118.321 491.247 476.464
862 0 60.0558 12.172 731 119.711 492.133 476.075
863 0 63.1927 12.1691 769 118.159 491.775 473.646
864 0 66.173 11.8175 782 118.427 491.395 473.216
865 0 69.0915 12.5341 866 116.611 492.02 470.673
866 0 69.1776 12.5185 866 117.247 491.71 470.129
867 0 73.3539 12.1466 891 118.393 491.866 468.559
868 0 76.1295 13.6347 1038 113.938 492.024 467.911
869 0 78.1841 12.3299 964 118.134 491.633 466.996
870 0 82.0821 13.7911 1132 114.341 492.121 465.417
871 0 83.0697 13.0613 1085 117.279 491.879 465.846
872 0 86.0886 13.4977 1162 117.379 492.062 466.423
873 0 90.0942 13.6191 1227 119.578 492.329 461.654
874 0 92.072 13.055 1202 122.097 491.656 460.683
875 0 95.1801 13.2381 1260 122.271 492.603 459.198
876 0 98.0762 12.8573 1261 124.208 492.934 456.496
877 0 102.077 13.3526 1363 122.184 492.443 455.795
878 0 106.115 13.6267 1446 123.017 492.194 453.092
879 0 110.209 13.3746 1474 122.476 491.569 446.478
880 1 54.1689 11.778 638 123.77 491.839 476.859
881 0 58.0708 13.2941 772 119.78 491.512 476.159
882 0 60.0447 13.823 830 119.248 492.071 477.808
883 0 60.1049 11.7128 704 118.45 491.057 478.209
884 0 60.1036 11.4968 691 121.232 490.878 476.346
885 0 64.1273 12.3816 794 117.13 490.858 477.539
886 0 67.0611 12.7496 855 118.08 491.219 475.2
887 0 68.05 12.9904 884 117.39 491.196 474.923
888 0 72.0733 13.181 950 117.185 491.092 471.46
889 0 74.0501 14.2471 1055 116.028 491.435 470.34
890 0 73.1306 12.5529 918 122.294 491.113 469.118
891 0 78.0904 13.2154 1032 117.425 491.787 469.791
892 0 83.0454 15.4253 1281 111.455 492.091 463.819
893 0 85.0594 13.8962 1182 115.971 491.937 461.913
894 0 87.1051 14.7753 1287 113.292 491.928 464.006
895 0 90.0752 14.7321 1327 113.941 491.696 461.044
896 0 94.1426 14.085 1326 114.758 491.808 460.993
897 0 96.131 13.7833 1325 116.82 491.697 457.207
898 0 100.152 13.4197 1344 117.153 491.416 454.188
899 0 104.129 13.5313 1409 115.257 491.839 452.172
900 1 59.0863 12.6933 750 108.187 491.745 478.424
901 0 61.0465 12.384 756 108.347 491.201 476.157
902 0 64.0633 12.0194 770 109.251 491.561 474.453
903 0 65.0527 13.6197 886 106.235 491.936 472.756
904 0 67.1269 12.6328 848 109.311 491.965 472.005
905 0 71.0611 12.5385 891 110.584 492.426 471.846
906 0 73.0868 12.232 894 114.367 492.356 470.952
907 0 74.0629 12.935 958 114.101 492.045 468.827
908 0 78.1538 13.1024 1024 113.288 492.069 468.762
909 0 81.0661 12.7057 1030 114.532 491.271 466.383
910 0 83.0498 13.2089 1097 114.325 491.339 464.869
911 0 87.0631 13.1054 1141 114.5 490.789 463.535
912 0 89.1131 12.3775 1103 117.601 491.468 462.291
913 0 92.1141 13.3421 1229 116.924 491.219 460.562
914 0 94.2534 13.294 1253 118.821 491.449 458.959
915 0 97.1386 12.9712 1260 120.566 491.323 457.694
916 0 102.103 12.7323 1300 121.413 491.248 456.805
917 0 105.088 12.7988 1345 121.189 491.23 450.23
918 0 107.189 11.9415 1280 125.348 491.178 450.851
919 0 113.264 13.111 1485 119.358 492.117 452.211
920 0 116.082 12.6893 1473 118.921 491.27 447.564
921 0 116.082 12.672 1471 144.065 491.277 447.634
922 1 68.0836 12.044 820 116.216 492.44 473.745
923 0 70.0679 13.0159 912 115.644 492.126 471.065
924 0 71.0695 11.6787 830 117.584 491.048 471.776
925 0 76.0778 12.014 914 115.023 491.752 470.526
926 0 75.0473 11.2596 845 119.018 491.441 467.922
927 0 77.0884 11.8435 913 118.556 490.413 463.805
928 0 83.0419 12.9694 1077 114.126 490.938 465.004
929 0 85.0998 12.8437 1093 113.292 491.952 464.944
930 0 87.0451 11.9134 1037 116.982 491.502 462.865
931 0 90.0891 12.2323 1102 116.867 491.129 459.645
932 0 95.0896 12.199 1160 115.535 491.336 460.916
933 0 100.156 13.7785 1380 112.546 491.357 458.622
934 0 104.147 13.9034 1448 111.289 491.181 448.698
935 0 104.102 12.5069 1302 116.289 491.037 449.503
936 1 57.0685 11.3197 646 112.404 491.017 476.613
937 0 57.1688 13.224 756 109.377 492.139 475.807
938 0 60.0801 14.4973 871 108.045 490.641 470.559
939 0 63.0923 13.9161 878 109.114 490.688 471.289
940 0 65.0798 12.7689 831 111.108 491.053 469.639
941 0 67.0387 13.7234 920 107.498 492.058 471.447
942 0 68.0629 13.0321 887 109.201 492.627 473.355
943 0 72.1189 12.618 910 111.075 492.349 469.781
944 0 72.1614 12.8462 927 112.832 491.957 468.822
945 0 77.1571 13.2068 1019 112.235 492.389 467.171
946 0 80.1555 12.7752 1024 113.793 492.237 466.474
947 0 83.1713 12.1075 1007 114.914 491.877 463.987
948 0 83.0758 12.4826 1037 116.521 492.348 464.643
949 0 89.135 13.4964 1203 114.366 492.247 462.49
950 0 90.153 14.6196 1318 113.608 492.269 461.149
951 0 95.1289 14.9902 1426 113.246 492.281 459.41
952 0 95.0808 12.989 1235 117.673 492.304 456.781
953 0 96.1085 12.8501 1235 119.629 492.343 457.613
954 0 98.1592 13.58 1333 117.291 492.626 455.596
955 0 101.17 12.6223 1277 120.517 493.127 458.928
956 0 104.143 13.4431 1400 120.373 492.384 452.149
957 0 108.194 14.1136 1527 114.145 492.295 447.92
958 0 111.2 14.0287 1560 116.354 492.815 447.393
959 0 115.239 14.4829 1669 114.999 491.982 443.149
960 1 63.2162 11.4844 726 115.736 492.136 472.079
961 0 64.199 11.3553 729 120.883 492.636 471.251
962 0 67.1864 13.0532 877 121.929 493.051 471.665
963 0 69.0837 13.0422 901 115.077 491.582 471.963
964 0 71.0605 12.1587 864 118.584 491.345 469.436
965 0 76.285 13.7511 1049 116.534 491.561 467.357
966 0 77.2187 13.6754 1056 118.858 491.229 465.251
967 0 80.2956 13.7741 1106 117.467 491.382 465.585
968 0 81.1799 12.5524 1019 119.561 491.179 463.296
969 0 85.2375 12.7643 1088 114.312 490.938 464.847
970 0 91.118 13.6416 1243 110.957 491.2 461.608
971 0 90.2031 12.5605 1133 115.166 490.892 460.322
972 0 95.1585 13.6404 1298 111.415 490.98 458.552
973 0 97.2287 13.8437 1346 111.037 491.004 459.214
974 0 100.12 11.8557 1187 115.808 491.211 456.3
975 0 103.094 11.4265 1178 115.952 491.29 454.854
976 0 108.31 13.6645 1480 110.678 490.524 449.532
977 0 110.227 12.3835 1365 112.541 491.663 449.15
978 0 112.25 12.0356 1351 114.349 491.318 448.383
979 1 64.0942 12.5284 803 106.243 491.974 474.658
980 0 66.0766 11.5169 761 108.58 491.453 474.068
981 0 70.0662 12.0743 846 109.528 492.779 470.884
982 0 73.2281 13.8062 1011 108.594 492.822 468.083
983 0 76.3701 12.662 967 107.479 492.253 465.432
984 0 75.1376 12.4705 937 109.499 491.651 465.715
985 0 79.1063 15.1189 1196 105.757 490.811 465.329
986 0 81.1443 12.8413 1042 111.451 491.242 464.174
987 0 84.0927 12.7122 1069 111.607 491.196 464.062
988 0 85.1498 12.4486 1060 112.437 491.71 463.908
989 0 90.126 13.5921 1225 110.343 491.936 460.467
990 0 93.1891 13.5746 1265 111.05 491.824 459.171
991 0 92.1354 12.0475 1110 116.262 491.614 458.094
992 0 98.1479 13.1434 1290 113.003 491.348 457.864
993 0 102.1 14.1822 1448 110.71 492.233 456.449
994 0 105.246 13.4732 1418 113.028 490.943 449.773
995 0 107.301 14.1937 1523 112.102 491.133 450.11
996 0 112.16 13.9889 1569 111.276 491.141 449.826
997 1 61.0864 11.0172 673 111.311 491.52 475.868
998 0 63.1543 11.844 748 109.592 491.988 472.618
999 0 63.0682 11.6699 736 110.659 492.341 472.465
1000 0 66.115 12.1606 804 109.277 493.002 471.903
1001 0 70.0728 13.5288 948 106.101 492.063 469.873
1002 0 73.0428 11.7739 860 111.122 492.502 469.955
1003 0 75.2242 12.7486 959 109.52 493.284 468.276
1004 0 78.0699 13.2189 1032 109.223 492.361 465.306
1005 0 80.1936 11.8588 951 112.007 492 465.707
1006 0 82.0678 12.709 1043 111.128 492.31 462.757
1007 0 86.0696 13.6634 1176 108.41 491.747 461.986
1008 0 89.1099 13.186 1175 108.166 491.7 464.082
1009 0 92.0547 13.4051 1234 109.271 491.917 459.185
1010 0 97.0756 13.6492 1325 107.531 492.407 458.024
1011 0 100.133 14.2011 1422 106.578 491.951 447.496
1012 0 100.101 11.808 1182 111.494 491.938 446.029
1013 0 104.115 11.9772 1247 110.666 492.322 446.22
1014 0 109.25 13.5103 1476 105.735 490.962 447.203
1015 0 113.161 12.8577 1455 106.506 491.038 448.898
1016 1 61.1216 10.2091 624 105.538 492.135 476.288
1017 0 64.0971 10.9521 702 107.534 492.444 474.158
1018 0 65.1209 11.7474 765 104.958 492.573 474.486
1019 0 68.0843 12.3964 844 103.351 492.3 469.966
1020 0 70.0348 13.6218 954 100.986 493.342 471.858
1021 0 72.0228 12.8154 923 104.2 492.351 468.576
1022 0 72.1431 12.6 909 104.872 492.078 466.867
1023 0 76.1255 12.5582 956 104.427 492.881 467.839
1024 0 79.162 12.4049 982 105.171 492.572 465.316
1025 0 83.0619 15.1574 1259 98.2986 492.269 464.174
1026 0 85.08 13.3874 1139 102.771 492.319 463.976
1027 0 85.1952 12.5829 1072 106.589 492.128 461.261
1028 0 91.1683 14.0619 1282 103.729 491.605 458.558
1029 0 93.1657 13.4599 1254 105.059 491.887 458.04
1030 0 94.0931 13.7948 1298 105.399 492.012 458.26
1031 0 100.111 13.4051 1342 105.224 491.826 456.99
1032 0 101.159 13.1772 1333 106.803 491.321 448.149
1033 0 107.199 13.293 1425 105.582 491.131 448.265
1034 0 107.202 14.5519 1560 103.387 491.439 450.828
1035 0 112.302 13.8466 1555 104.871 491.589 449.906
1036 1 61.1335 12.9062 789 99.1103 492.33 476.735
1037 0 62.0499 12.361 767 100.378 491.948 474.876
1038 0 64.055 13.0044 833 100.026 492.393 475.682
1039 0 66.0905 13.1789 871 100.636 493.204 473.534
1040 0 66.035 12.3874 818 104.231 492.632 473.002
1041 0 71.081 12.5209 890 103.044 493.34 471.449
1042 0 72.095 12.4558 898 105.061 492.913 470.012
1043 0 76.0524 13.6748 1040 103.014 492.245 468.261
1044 0 78.0617 14.6166 1141 101.862 492.814 469.906
1045 0 78.0647 13.5913 1061 107.345 492.411 466.139
1046 0 82.1024 13.1178 1077 109.497 492.397 466.386
1047 0 83.1507 13.5297 1125 110.229 492.592 463.833
1048 0 87.0837 14.3081 1246 108.922 492.465 465.754
1049 0 89.1041 12.895 1149 113.903 492.046 462.291
1050 0 91.1672 13.3601 1218 113.805 492.562 459.88
1051 0 95.1319 13.6547 1299 113.76 492.827 461.227
1052 0 98.1163 14.1771 1391 113.53 492.244 458.921
1053 0 101.189 14.0727 1424 113.56 492.229 459.237
1054 0 104.173 12.0856 1259 118.569 493.148 456.298
1055 0 109.228 13.3299 1456 115.163 492.269 453.127
1056 1 59.0965 12.725 752 113.581 492.088 476.658
1057 0 60.2409 12.865 775 115.921 492.672 474.169
1058 0 63.144 12.907 815 116.472 492.277 476.461
1059 0 64.0801 13.4051 859 117.68 492.029 474.838
1060 0 65.0598 14.2792 929 116.031 491.385 474.287
1061 0 68.0502 13.6517 929 117.877 491.072 471.976
1062 0 70.1189 13.3345 935 119.215 490.675 470.645
1063 0 73.0898 14.0649 1028 117.901 490.784 470.343
1064 0 75.0825 13.8115 1037 118.761 491.053 469.674
1065 0 76.1219 13.2156 1006 121.513 490.5 468.799
1066 0 79.0669 13.0269 1030 122.296 490.698 466.32
1067 0 82.1048 13.1052 1076 123.103 491.056 467.082
1068 0 84.0558 13.7409 1155 121.991 491.008 464.826
1069 0 85.0912 12.8686 1095 125.592 490.997 463.093
1070 0 88.0393 13.4826 1187 123.601 491.272 462.577
1071 0 93.0772 13.6553 1271 123.998 491.661 460.652
1072 0 95.1619 14.1863 1350 123.792 491.555 459.203
1073 0 98.1059 14.2703 1400 123.948 491.902 458.899
1074 0 102.158 15.2412 1557 121.642 491.394 457.198
1075 1 54.0551 11.1368 602 126.842 490.243 479.216
1076 0 56.0181 11.8355 663 122.119 491.063 478.851
1077 0 59.03 12.6038 744 117.935 491.911 475.267
1078 0 59.1875 12.6547 749 117.087 491.453 477.665
1079 0 61.0724 12.9355 790 119.868 491.409 476.818
1080 0 61.0962 12.8486 785 120.396 491.46 476.801
1081 0 64.0269 13.4162 859 118.277 491.807 476.789
1082 0 66.0519 13.4743 890 120.216 492.115 473.002
1083 0 69.0413 14.2813 986 124.137 491.62 471.628
1084 0 71.0386 13.6827 972 125.248 491.793 471.639
1085 0 72.0749 13.4582 970 126.414 491.866 470.314
1086 0 75.0866 14.5432 1092 123.991 491.346 469.463
1087 0 78.0476 14.5808 1138 123.695 490.832 468.497
1088 0 82.0256 14.9953 1230 121.272 491.201 462.796
1089 0 82.0659 14.269 1171 126.472 491.018 464.128
1090 0 85.0668 14.5415 1237 126.392 491.814 463.598
1091 0 88.0537 14.6615 1291 126.118 491.692 463.445
1092 0 92.0446 13.8085 1271 128.085 491.917 460.956
1093 0 93.0823 13.5794 1264 130.863 491.729 458.15
1094 0 98.0786 14.1723 1390 128.393 492.265 458.133
1095 0 99.2077 13.6985 1359 130.711 491.408 454.77
1096 0 104.185 13.62 1419 129.601 491.736 455.919
1097 0 107.096 12.7456 1365 131.236 491.795 452.528
1098 0 111.077 13.8012 1533 128.135 491.208 451.446
1099 1 59.0222 11.4194 674 129.226 491.708 475.467
1100 0 59.0548 11.9889 708 129.054 491.674 474.993
1101 0 62.0292 12.5102 776 126.987 491.666 473.207
1102 0 64.052 12.5367 803 123.457 491.453 474.73
1103 0 66.0311 10.9494 723 129.502 491.156 472.629
1104 0 70.0519 12.4051 869 126.591 491.725 468.044
1105 0 72.0635 12.5584 905 125.701 491.888 469.818
1106 0 73.0554 12.2099 892 127.192 491.343 467.811
1107 0 77.0605 12.7173 980 124.463 491.774 467.334
1108 0 80.1637 12.3996 994 125.484 491.355 466.603
1109 0 80.1297 11.8683 951 128.137 491.464 463.916
1110 0 85.0608 13.7901 1173 122.012 490.746 464.083
1111 0 89.0674 14.3487 1278 121.143 491.425 460.847
1112 0 90.1041 13.4067 1208 124.79 491.245 460.006
1113 0 94.1391 13.1508 1238 124.053 490.827 458.333
1114 0 98.2182 13.7653 1352 122.216 491.277 456.891
1115 0 101.114 13.4502 1360 123.291 491.304 454.379
1116 0 105.16 14.3876 1513 118.34 491.299 452.67
1117 0 106.091 12.8852 1367 120.481 491.751 452.797
1118 0 109.108 12.9596 1414 119.042 491.591 451.426
1119 0 115.226 13.4952 1555 117.563 491.925 450.675
1120 1 62.1321 10.0592 625 122.259 492.398 474.771
1121 0 65.0902 12.306 801 119.702 492.779 472.833
1122 0 66.1935 12.9016 854 118.557 492.845 469.707
1123 0 70.1276 13.4327 942 117.251 492.143 471.204
1124 0 72.0837 12.7629 920 119.521 492.345 469.801
1125 0 73.1729 12.737 932 121.974 492.73 469
1126 0 76.1075 12.4035 944 122.881 492.459 465.529
1127 0 78.1308 13.4646 1052 120.073 491.735 465.115
1128 0 82.1467 14.4254 1185 116.797 491.67 463.726
1129 0 83.0871 12.9262 1074 120.514 491.274 462.142
1130 0 86.1252 13.4339 1157 120.195 491.437 460.816
1131 0 90.118 12.7943 1153 121.425 491.788 460.644
1132 0 91.1194 12.961 1181 123.194 491.544 459.344
1133 0 94.2507 14.0901 1328 121.002 491.49 457.335
1134 0 95.1708 12.9241 1230 125.4 491.615 452.716
1135 0 101.132 12.1919 1233 124.106 492.12 449.105
1136 0 104.263 13.1111 1367 119.159 491.593 445.628
1137 0 106.295 12.8135 1362 121.209 492.399 447.265
1138 0 110.155 12.6277 1391 121.923 492.293 449.899
1139 1 60.049 11.474 689 116.273 492.229 475.321
1140 0 64.1366 12.4578 799 116.912 491.232 473.161
1141 0 66.0921 12.5734 831 114.781 491.783 473.047
1142 0 68.0516 12.7844 870 116.308 492.122 471.913
1143 0 69.0323 11.4729 792 122.803 491.737 470.451
1144 0 72.2313 11.6293 840 122.445 491.302 470.126
1145 0 75.2061 12.8713 968 121.018 492.12 465.872
1146 0 77.1842 12.3212 951 122.512 491.767 465.861
1147 0 82.2693 13.1762 1084 119.501 490.161 465.708
1148 0 82.2431 12.5846 1035 123.234 490.762 462.243
1149 0 85.1903 13.1353 1119 122.032 490.019 460.343
1150 0 89.0929 13.6262 1214 119.217 490.263 460.023
1151 0 94.1251 14.7145 1385 114.731 490.88 456.801
1152 0 95.0933 13.6497 1298 119.152 490.967 457.923
1153 0 98.1542 13.8252 1357 118.65 491.48 455.493
1154 0 101.173 14.0947 1426 118.388 491.316 452.109
1155 0 103.186 13.6453 1408 119.961 490.502 448.177
1156 0 106.214 14.2166 1510 117.935 490.44 449.164
1157 0 108.136 12.5121 1353 122.358 490.469 449.395
1158 0 112.076 13.7139 1537 117.805 489.779 445.238
1159 0 116.056 14.0535 1631 116.832 490.6 446.026
1160 0 120.245 12.7074 1528 120.845 490.874 434.659
1161 0 125.227 14.1582 1773 117.418 491.152 436.819
1162 1 70.1102 10.6974 750 115.771 492.065 469.192
1163 0 72.0542 11.4913 828 115.001 491.982 468.635
1164 0 78.1509 11.9128 931 114.987 491.744 466.305
1165 0 78.1389 11.8123 923 116.506 492.439 462.961
1166 0 83.0602 13.123 1090 111.839 492.374 457.741
1167 0 84.1847 12.3538 1040 113.945 491.593 459.703
1168 0 88.239 13.4408 1186 110.342 491.986 459.508
1169 0 89.1789 11.5386 1029 115.724 491.904 458.75
1170 0 93.2747 13.4334 1253 110.8 491.815 459.844
1171 0 95.1139 11.8489 1127 114.61 491.033 454.439
1172 0 96.331 11.2944 1088 115.924 491.446 452.134
1173 0 101.194 12.6687 1282 111.204 490.084 452.668
1174 0 103.257 10.8564 1121 115.61 490.495 451.017
1175 0 107.278 12.3044 1320 110.77 491.114 451.444
1176 0 109.276 11.4664 1253 113.584 491.528 449.437
1177 0 112.507 12.2304 1376 114.113 491.427 445.493
1178 1 62.2361 10.8297 674 108.788 491.948 473.623
1179 0 65.162 10.7271 699 107.672 490.874 472.408
1180 0 67.174 12.6388 849 103.219 491.107 470.975
1181 0 68.3278 11.7229 801 106.421 491.04 468.727
1182 0 70.3087 12.2175 859 105.737 490.902 469.844
1183 0 73.3066 11.7043 858 108.424 490.645 469.441
1184 0 76.296 11.8486 904 109.5 490.285 464.497
1185 0 79.2594 12.9953 1030 109.153 491.503 464.711
1186 0 80.3423 13.3678 1074 109.554 491.375 464.814
1187 0 82.368 12.3106 1014 113.126 491.303 463.43
1188 0 84.4109 13.1026 1106 112.656 490.533 463.134
1189 0 87.3086 12.3356 1077 114.48 490.722 460.479
1190 0 90.4571 13.476 1219 111.72 491.438 458.852
1191 0 89.447 10.9227 977 119.102 490.833 460.425
1192 0 93.2617 12.5561 1171 113.868 490.935 453.741
1193 0 95.2437 12.6098 1201 114.556 490.377 455.235
1194 0 96.2361 11.0354 1062 119.03 490.556 451.706
1195 0 99.2694 11.8667 1178 117.233 491.141 445.84
1196 0 104.294 12.5799 1312 114.777 491.163 443.301
1197 0 105.185 12.787 1345 115.584 490.863 444.665
1198 0 110.229 12.982 1431 115.332 491.378 443.024
1199 0 115.467 12.0554 1392 115.538 491.82 440.886
1200 0 119.374 12.9341 1544 113.062 491.394 439.838
1201 0 123.401 12.9577 1599 112.357 491.323 436.66
1202 1 67.1542 10.2302 687 108.991 491.952 469.718
1203 0 67.0957 10.4925 704 109.538 492.185 468.858
1204 0 71.1481 12.1718 866 110.528 492.242 468.761
1205 0 72.1682 13.1083 946 108.879 492.135 467.72
1206 0 76.2205 12.7525 972 109.861 492.674 466.68
1207 0 78.1534 12.9873 1015 110.853 491.9 466.295
1208 0 81.0971 12.3679 1003 114.633 491.83 459.782
1209 0 83.2361 11.0289 918 111.136 492.173 464.255
1210 0 88.1173 11.9046 1049 109.15 491.834 463.357
1211 0 90.1282 13.2367 1193 108.614 491.675 462.068
1212 0 92.247 13.1928 1217 110.284 491.358 457.886
1213 0 96.1995 13.1082 1261 110.251 492.063 458.1
1214 0 100.155 13.7787 1380 108.646 491.522 455.283
1215 0 100.242 13.6171 1365 108.762 490.802 458.253
1216 0 104.46 13.5267 1413 109.312 490.937 450.845
1217 0 105.412 13.12 1383 108.317 490.928 445.766
1218 0 110.341 13.1682 1453 108.202 490.443 445.698
1219 0 113.191 13.3226 1508 107.924 490.759 448.004
1220 0 116.178 12.7563 1482 110.545 491.131 448.838
1221 0 121.133 13.6296 1651 108.472 491.012 447.525
1222 1 67.0685 12.9122 866 102.132 491.224 473.771
1223 0 69.1133 13.1523 909 102.679 492.02 471.849
1224 0 68.1058 12.1135 825 106.516 491.754 471.508
1225 0 74.0731 12.7037 941 106.455 491.511 469.145
1226 0 75.1285 12.2057 917 108.369 492.344 469.624
1227 0 79.1849 12.4266 984 109.134 492.057 467.334
1228 0 81.2734 12.3657 1005 111.179 491.525 465.001
1229 0 84.0999 12.7467 1072 109.792 491.57 465.634
1230 0 85.1295 12.4751 1062 111.731 491.459 461.762
1231 0 89.1799 12.7944 1141 110.497 491.021 460.572
1232 0 92.0888 13.4978 1243 108.615 490.924 461.27
1233 0 94.0836 12.9247 1216 110.521 491.14 461.865
1234 0 98.1441 13.4292 1318 110.041 491.242 457.542
1235 0 98.1971 11.6399 1143 116.201 491.31 454.949
1236 0 104.184 12.8138 1335 112.72 490.909 452.375
1237 0 108.123 13.1702 1424 110.452 491.05 452.037
1238 0 110.127 12.6671 1395 111.208 490.239 442.336
1239 1 60.301 10.4973 633 111.736 491.605 474.314
1240 0 62.1304 12.8601 799 104.686 490.806 472.215
1241 0 64.1673 11.0804 711 105.871 491.015 474.712
1242 0 67.1091 12.2934 825 103.338 491.168 472.407
1243 0 70.0944 12.8398 900 102.491 491.463 472.133
1244 0 71.0776 12.62 897 104.271 490.779 470.836
1245 0 74.1374 13.0973 971 103.699 491.034 468.849
1246 0 75.0786 12.5335 941 106.537 490.996 466.587
1247 0 77.0925 12.6212 973 107.442 491.53 464.802
1248 0 80.1084 12.9325 1036 107.236 491.149 465.596
1249 0 84.0855 13.2722 1116 106.251 491.522 463.924
1250 0 82.0641 10.7111 879 113.312 491.22 463.193
1251 0 87.3903 13.3539 1167 108.789 490.222 459.746
1252 0 90.4437 13.091 1184 109.486 490.243 458.503
1253 0 93.1957 13.0478 1216 109.502 490.729 456.891
1254 0 95.2679 12.5751 1198 111.661 490.593 456.66
1255 1 51.1087 12.3071 629 109.135 491.445 478.553
1256 0 50.1224 11.1926 561 107.982 490.873 471.217
1257 0 50.0779 11.7816 590 108.347 490.214 475.641
1258 0 53.2304 11.8166 629 108.229 491.178 477.458
1259 0 55.1081 11.2325 619 109.436 490.304 476.57
1260 0 57.0857 11.8243 675 108.338 490.927 475.766
1261 0 59.2158 13.0877 775 105.377 490.868 473.425
1262 0 63.0469 12.1655 767 106.963 490.027 473.454
1263 0 63.1592 13.4581 850 104.798 490.219 471.374
1264 0 65.0941 13.5189 880 110.78 490.439 471.624
1265 0 67.0693 11.8832 797 111.045 490.435 470.876
1266 0 71.0433 12.3587 878 111.897 490.255 469.148
1267 0 71.1124 12.8388 913 113.274 491.648 467.724
1268 0 73.0717 13.2062 965 113.523 490.835 465.887
1269 0 78.1176 14.235 1112 110.64 491.224 464.28
1270 0 78.0635 12.6179 985 116.293 490.749 465.549
1271 0 81.0743 12.9017 1046 116.739 490.73 462.051
1272 0 85.296 14.4438 1232 115.441 490.747 461.538
1273 0 86.2126 14.499 1250 117.126 490.585 459.407
1274 0 89.3579 13.8544 1238 119.365 490.918 458.591
1275 0 93.2855 13.7428 1282 119.179 491.115 458.388
1276 0 98.2086 14.7441 1448 116.586 490.765 455.452
1277 0 99.1504 12.8391 1273 122.455 491.476 454.577
1278 0 102.154 14.4684 1478 117.281 490.856 453.488
1279 0 107.144 14.0466 1505 118.467 490.56 453.15
1280 0 112.17 15.1913 1704 114.461 490.98 447.994
1281 1 58.045 11.1637 648 119.901 490.909 475.989
1282 0 62.0241 12.608 782 118.602 490.18 472.953
1283 0 63.0548 12.7191 802 121.213 490.096 472.458
1284 0 66.1742 13.1925 873 118.881 491.668 472.053
1285 0 66.1087 12.3433 816 124.29 491.494 470.61
1286 0 69.1148 12.9784 897 123.366 491.68 469.31
1287 0 72.1221 13.7129 989 122.799 491.476 467.427
1288 0 75.1814 14.3254 1077 120.511 491.458 467.027
1289 0 75.182 13.9661 1050 123.926 492.099 465.694
1290 0 80.1313 15.849 1270 116.568 491.57 466.422
1291 0 81.1649 14.2549 1157 122.176 491.686 462.953
1292 0 82.0862 13.0838 1074 124.833 492.277 464.957
1293 0 87.1993 15.9978 1395 116.561 492.133 461.06
1294 0 88.153 14.2366 1255 121.669 492.025 460.634
1295 0 89.3361 14.0817 1258 123.153 491.646 457.21
1296 0 92.2482 14.0274 1294 122.448 492.145 453.834
1297 0 95.1922 13.7301 1307 123.314 491.65 453.353
1298 0 99.1403 14.3433 1422 119.874 491.86 452.312
1299 0 102.148 13.4805 1377 121.784 491.44 444.232
1300 0 105.126 13.4885 1418 121.347 491.161 444.855
1301 0 108.138 14.6573 1585 116.931 491.326 447.695
1302 0 111.22 13.4508 1496 119.648 491.96 445.742
1303 0 116.14 13.8626 1610 116.552 491.942 445.366
1304 0 120.122 12.9535 1556 120.528 490.84 438.322
1305 1 68.0583 10.5939 721 117.098 491.257 466.92
1306 0 73.0975 12.0387 880 113.411 490.899 445.643
1307 0 74.0963 12.9426 959 108.861 491.111 448.055
1308 0 76.1448 13.737 1046 107.185 491.365 451.817
1309 0 78.0694 12.1174 946 111.545 491.4 453.605
1310 0 80.1353 12.6411 1013 112.507 490.827 455.719
1311 0 83.0878 12.3725 1028 114.918 490.91 458.91
1312 0 88.0295 13.2456 1166 113.333 490.557 456.726
1313 0 91.0502 12.3998 1129 114.508 490.735 456.872
1314 0 92.0907 12.6506 1165 113.597 490.143 450.371
1315 0 95.137 12.6975 1208 114.166 491.001 449.493
1316 0 95.1915 11.2405 1070 118.543 491.055 444.179
1317 0 101.247 11.4868 1163 118.13 490.819 441.729
1318 0 103.141 12.1872 1257 117.348 490.951 441.714
1319 0 110.294 12.113 1336 117.314 490.999 443.122
1320 1 60.0827 10.7685 647 110.006 491.206 464.13
1321 0 65.2299 12.6936 828 112.232 491.691 468.109
1322 0 69.0548 11.9615 826 112.838 491.496 468.981
1323 0 68.1427 11.4612 781 114.711 490.972 467.27
1324 0 75.0881 11.7995 886 111.578 491.144 467.463
1325 0 75.1969 12.2478 921 111.332 491.199 466.959
1326 0 78.2081 11.8274 925 113.389 491.825 464.754
1327 0 82.2424 11.8552 975 112.106 490.916 464.717
1328 0 85.1965 11.7845 1004 112.057 491.159 458.806
1329 0 86.2273 13.36 1152 109.303 491.429 458.965
1330 0 88.3004 11.4043 1007 113.723 491.879 460.26
1331 0 90.3935 11.9809 1083 113.173 491.138 456.467
1332 0 93.5661 11.0189 1031 114.941 490.53 457.864
1333 0 97.2331 11.3953 1108 113.453 491.064 458.734
1334 0 100.432 11.4605 1151 114.829 490.267 453.1
1335 0 104.384 12.0803 1261 113.013 490.898 452.615
1336 0 108.4 12.0387 1305 111.804 490.257 450.759
1337 1 59.1859 10.1375 600 110.833 491.02 474.845
1338 0 59.0721 10.3602 612 110.529 490.822 472.763
1339 0 63.132 11.8323 747 109.076 489.617 470.49
1340 0 64.2017 10.9187 701 112.96 491.18 469.458
1341 0 67.2675 11.7293 789 110.544 491.177 469.01
1342 0 71.2175 11.5983 826 109.817 491.354 465.978
1343 0 74.3352 11.7306 872 108.779 491.313 462.786
1344 0 78.1443 12.8352 1003 103.822 490.979 464.695
1345 0 80.0746 12.1886 976 105.083 491.374 463.059
1346 0 81.1841 11.7634 955 106.024 490.669 460.73
1347 0 83.042 11.4641 952 105.714 491.186 460.214
1348 0 87.2787 12.1106 1057 100.284 489.7 459.137
1349 0 89.2031 12.2866 1096 101.622 490.66 457.229
1350 0 93.0873 12.7515 1187 100.74 490.965 456.03
1351 0 93.068 11.1531 1038 105.568 491.593 452.793
1352 0 99.1215 12.7016 1259 102.392 491.62 452.689
1353 0 101.22 11.2033 1134 106.028 491.012 449.128
1354 0 104.096 12.2002 1270 104.781 489.957 449.269
1355 1 57.0775 10.6347 607 100.998 489.234 473.741
1356 0 59.1296 9.58911 567 104.723 489.531 470.413
1357 0 64.3042 12.2387 787 99.0368 490.324 473.376
1358 0 63.0444 11.0557 697 102.103 490.126 471.677
1359 0 64.0108 11.3731 728 103.389 490.834 469.012
1360 0 67.029 12.0396 807 102.86 489.734 471.265
1361 0 70.1069 11.9532 838 105.186 489.371 468.307
1362 0 72.0435 13.5751 978 104.601 489.691 466.843
1363 0 75.0538 14.2964 1073 101.737 490.473 468.752
1364 0 77.032 12.8129 987 107.465 490.603 464.241
1365 0 80.0717 12.7636 1022 106.886 490.614 464.722
1366 0 82.2182 12.9533 1065 108.434 489.544 464.468
1367 0 84.2173 12.824 1080 111.278 490.299 461.875
1368 0 87.1698 11.8275 1031 114.172 490.24 462.861
1369 0 90.2395 12.7217 1148 114.058 489.651 459.852
1370 0 93.3508 13.3154 1243 112.301 489.858 459.594
1371 0 96.2214 12.8246 1234 114.215 490.72 456.43
1372 0 100.107 12.3768 1239 114.222 490.633 448.253
1373 1 54.1412 9.82616 532 110.226 489.703 474.633
1374 0 57.0606 11.2687 643 106.922 489.995 475.25
1375 0 58.1121 12.4071 721 112.583 491.569 476.623
1376 0 61.1419 13.1007 801 111.507 491.22 473.861
1377 0 61.0358 11.9766 731 109.159 491.373 477.097
1378 0 62.0918 12.3849 769 109.384 491.622 475.91
1379 0 65.0795 13.0763 851 109.402 490.858 473.946
1380 0 66.0449 11.9616 790 112.578 491.558 475.123
1381 0 67.0777 12.7613 856 112.404 491.143 472.616
1382 0 72.0468 13.0748 942 114.075 491.434 470.617
1383 0 72.0541 13.9062 1002 113.093 490.584 471.454
1384 0 73.0715 13.0146 951 116.575 489.922 468.376
1385 0 77.2662 13.0976 1012 115.723 490.627 467.966
1386 0 79.1309 13.8505 1096 114.626 489.654 457.32
1387 0 82.0838 13.6324 1119 115.697 488.998 458.004
1388 0 85.1294 14.4721 1232 113.91 489.296 458.121
1389 0 86.1581 13.2315 1140 117.819 489.896 456.464
1390 0 89.0954 13.4687 1200 117.164 490.02 456.807
1391 0 91.1168 13.8504 1262 115.994 490.663 451.388
1392 0 95.1668 14.2592 1357 115.103 490.277 452.043
1393 0 97.2186 13.8451 1346 116.154 489.866 454.598
1394 0 98.0948 14.3535 1408 117.806 489.588 451.372
1395 0 101.193 13.7262 1389 116.857 490.5 452.134
1396 0 105.087 13.408 1409 115.872 489.325 448.908
1397 0 106.206 13.3044 1413 116.272 490.037 446.884
1398 0 106.209 13.2663 1409 150.277 491.035 446.811
1399 0 115.105 13.9524 1606 116.413 489.78 441.745
1400 0 119.127 13.9263 1659 116.13 489.807 445.311
1401 1 68.0693 12.0465 820 111.843 489.123 466.307
1402 0 69.0698 12.4512 860 109.874 489.842 466.747
1403 0 72.2145 12.3936 895 108.48 490.968 468.561
1404 0 74.0945 11.2964 837 108.362 489.725 466.933
1405 0 76.1633 10.8189 824 109.425 490.589 466.897
1406 0 79.1451 12.0159 951 107.965 490.283 465.217
1407 0 83.1868 11.5042 957 109.242 490.413 463.721
1408 0 85.0626 12.5202 1065 109.52 490.069 461.866
1409 0 88.1068 12.3486 1088 110.169 490.354 459.356
1410 0 90.0861 12.1883 1098 110.122 490.525 459.894
1411 0 94.1549 11.5661 1089 111.472 490.621 456.605
1412 0 93.0992 11.8798 1106 111.649 491.32 454.647
1413 0 98.181 12.314 1209 110.11 491.31 454.125
1414 0 102.083 12.0686 1232 109.766 490.265 453.381
1415 0 104.098 12.1809 1268 109.862 490.293 447.308
1416 0 109.158 12.6331 1379 107.643 490.59 449.774
1417 0 112.167 11.6701 1309 109.651 490.093 448.532
1418 0 116.283 12.0052 1396 110.187 489.898 444.74
1419 0 120.124 12.562 1509 109.337 490.689 441.783
1420 1 70.0619 12.389 868 104.138 490.624 469.608
1421 0 72.1583 13.0131 939 106.445 489.06 461.557
1422 0 73.1683 11.7401 859 113.598 490.352 465.582
1423 0 75.1737 12.4379 935 113.618 490.917 463.59
1424 0 78.133 12.3251 963 111.519 490.918 464.513
1425 0 78.1285 11.5579 903 115.369 491.652 460.422
1426 0 80.2907 12.3426 991 114.786 491.478 458.402
1427 0 82.3054 12.4658 1026 114.422 492.116 455.467
1428 0 87.0746 12.9889 1131 111.06 491.674 457.297
1429 0 88.1005 12.883 1135 112.804 490.923 455.516
1430 0 91.0734 12.8578 1171 113.388 490.741 455.373
1431 0 95.0674 12.7804 1215 112.958 489.942 452.108
1432 0 97.1882 12.6661 1231 112.563 491.064 446.566
1433 0 102.125 12.5631 1283 113.062 489.801 443.302
1434 0 105.169 12.7414 1340 113.443 489.622 441.02
1435 0 113.213 12.4279 1407 113.703 489.883 438.82
1436 1 60.043 13.4737 809 106.925 489.797 463.389
1437 0 60.1255 11.3097 680 114.557 489.678 462.394
1438 0 61.0398 11.1894 683 115.476 490.299 462.161
1439 0 63.0806 12.4761 787 112.759 490.095 462.211
1440 0 65.0776 11.8781 773 113.186 490.748 462.717
1441 0 66.0829 11.9395 789 115.494 489.833 458.895
1442 0 70.0279 12.2237 856 114.067 490.662 461.204
1443 0 72.0268 12.898 929 115.915 490.806 461.21
1444 0 75.2016 13.7497 1034 118.113 491.133 463.268
1445 0 78.1365 14.6922 1148 115.943 490.688 462.599
1446 0 81.1891 15.4331 1253 114.098 490.939 461.02
1447 0 79.156 14.0482 1112 119.56 491.068 460.621
1448 0 83.0843 14.8403 1233 116.297 491.38 458.413
1449 0 84.1927 12.899 1086 121.734 491.029 453.884
1450 0 88.1249 14.0255 1236 118.237 491.352 453.316
1451 0 89.1173 13.8581 1235 120.219 491.512 452.909
1452 0 94.1017 13.2941 1251 119.62 491.54 444.195
1453 0 97.0738 13.773 1337 118.372 490.8 446.827
1454 0 100.284 14.5487 1459 117.114 491.114 447.254
1455 0 101.111 13.7869 1394 120.455 490.813 448.378
1456 0 103.052 14.3229 1476 119.628 491.543 448.517
1457 0 107.12 13.6669 1464 121.151 491.844 447.512
1458 0 112.131 12.9224 1449 122.825 491.441 448.637
1459 1 59.0772 12.8984 762 117.331 490.881 473.976
1460 0 62.1709 12.5622 781 119.378 491.499 472.173
1461 0 66.0607 14.85 981 112.436 491.793 473.068
1462 0 69.0625 15.1457 1046 113.611 491.546 469.35
1463 0 70.1888 14.8314 1041 117.866 491.775 469.017
1464 0 69.0743 13.6954 946 123.299 491.663 466.789
1465 0 74.0837 14.7536 1093 119.67 492.105 466.464
1466 0 76.103 13.8891 1057 121.918 492.055 465.34
1467 0 83.0792 17.2606 1434 109.547 491.837 461.105
1468 0 85.1392 18.1585 1546 108.52 491.741 459.833
1469 0 84.2715 15.984 1347 116.769 492.376 459.489
1470 0 86.1359 15.3711 1324 119.523 492.034 459.236
1471 0 90.1331 15.6435 1410 119.021 491.826 459.348
1472 0 89.1405 14.8754 1326 123.887 491.678 458.112
1473 0 94.2323 14.9524 1409 122.446 491.989 456.946
1474 0 98.1979 16.1001 1581 118.782 491.53 457.028
1475 0 100.238 16.7302 1677 117.306 491.639 454.827
1476 0 104.366 15.1774 1584 121.611 492.555 446.956
1477 0 105.204 15.0184 1580 121.883 492.049 446.803
1478 0 110.27 15.317 1689 120.201 491.211 447.391
1479 0 114.204 14.5967 1667 121.761 490.756 445.712
1480 0 119.11 15.4311 1838 119.521 491.319 443.501
1481 1 65.1151 12.3934 807 120.827 491.378 472.346
1482 0 68.0913 12.1308 826 121.418 491.238 471.5
1483 0 71.2384 12.9144 920 120.166 491.53 469.587
1484 0 74.0921 13.8881 1029 118.339 491.427 466.652
1485 0 78.0812 13.9854 1092 117.03 491.716 465.775
1486 0 78.0691 12.553 980 122.113 491.187 464.129
1487 0 86.1512 15.3915 1326 111.87 491.689 459.569
1488 0 87.1401 15.0103 1308 114.522 491.47 460.381
1489 0 88.1641 14.1554 1248 118.083 491.658 458.766
1490 0 91.17 13.6778 1247 119.824 491.256 459.781
1491 0 92.1988 14.4904 1336 118.754 491.662 457.47
1492 0 93.1336 13.1531 1225 124.29 491.623 457.169
1493 0 98.1949 14.4508 1419 122.49 491.741 455.356
1494 0 102.173 14.3775 1469 123.201 491.477 453.402
1495 0 104.189 13.0052 1355 129.104 491.073 452.636
1496 0 108.256 14.826 1605 124.444 490.698 450.338
1497 0 111.167 14.1679 1575 127.604 490.929 448.112
1498 0 113.131 13.4888 1526 129.366 491.352 448.856
1499 0 119.141 13.2952 1584 130.36 490.445 446.527
1500 0 124.182 14.6317 1817 127.691 490.694 441.646
1501 1 68.0671 11.6356 792 128.788 491.309 470.048
1502 0 69.0453 12.2818 848 128.771 491.193 469.884
1503 0 73.0816 11.9592 874 128.297 492.04 467.126
1504 0 75.0367 13.7266 1030 120.339 491.664 466.398
1505 0 75.0474 12.5121 939 127.485 491.676 464.475
1506 0 76.0305 12.8238 975 130.624 491.507 466.537
1507 0 77.0673 12.4307 958 133.67 491.934 463.947
1508 0 78.0788 13.115 1024 133.854 491.225 462.974
1509 0 78.0702 13.3085 1039 135.944 491.054 463.719
1510 0 80.0871 13.6352 1092 135.702 490.942 464.311
1511 0 80.1772 12.6345 1013 138.538 491.147 464.084
1512 0 84.0701 13.8456 1164 133.985 490.57 460.219
1513 0 86.0447 13.5511 1166 132.585 491.063 460.185
1514 0 89.0729 13.8987 1238 131.434 490.943 458.107
1515 0 91.1405 13.2982 1212 131.76 490.761 456.915
1516 0 93.0721 13.6238 1268 129.82 490.303 456.522
1517 0 95.0729 12.99 1235 131.861 490.928 453.436
1518 0 98.0477 14.0442 1377 129.073 490.46 452.907
1519 0 99.0556 12.3062 1219 135.249 490.042 449.445
1520 0 103.063 13.3899 1380 130.991 489.621 444.151
1521 0 105.1 13.7298 1443 129.784 490.153 443.686
1522 0 109.289 13.6061 1487 130.421 489.609 442.161
1523 0 112.098 13.0689 1465 132.769 489.82 438.973
1524 1 64.1454 10.8348 695 129.168 489.21 467.796
1525 0 66.0763 9.83711 650 136.103 489.468 467.631
1526 0 68.0481 12.55 854 129.406 489.737 469.708
1527 0 71.108 12.4599 886 130.843 490.132 467.143
1528 0 72.1013 11.8722 856 134.65 490.173 469.52
1529 0 76.1007 12.1418 924 134.826 489.902 467.18
1530 0 76.1163 12.3627 941 136.384 489.753 466.917
1531 0 77.089 11.9602 922 139.799 489.491 464.369
1532 0 81.2073 13.0284 1058 136.24 489.817 463.947
1533 0 84.1664 12.9624 1091 137.324 489.675 463.341
1534 0 87.2562 12.6295 1102 138.152 490.45 460.901
1535 0 88.1408 12.4346 1096 139.925 491.078 460.424
1536 0 89.1515 11.8226 1054 145.681 490.341 457.07
1537 0 95.1511 13.3262 1268 138.017 490.067 459.849
1538 0 99.1834 12.7138 1261 139.544 490.592 453.993
1539 0 101.223 12.7639 1292 137.89 490.182 455.41
1540 1 57.1156 10.9427 625 131.827 489.13 478.526
1541 0 57.0413 11.4829 655 134.734 488.649 477.305
1542 0 60.0748 12.5843 756 133.03 489.056 477.91
1543 0 61.0918 12.2111 746 136.277 488.493 475.819
1544 0 63.068 12.0505 760 137.825 488.832 471.376
1545 0 64.0746 12.4698 799 135.599 488.494 474.169
1546 0 67.1255 12.782 858 133.95 488.225 471.028
1547 0 68.0885 12.1606 828 134.407 488.017 470.728
1548 0 71.0628 12.3271 876 133.484 489.025 468.854
1549 0 73.0842 13.9018 1016 128.569 489.578 469.172
1550 0 75.0477 12.4054 931 133.437 489.521 468.325
1551 0 77.0791 13.5575 1045 130.445 489.098 466.375
1552 0 78.07 13.3726 1044 131.449 489.187 465.03
1553 0 82.1128 13.2988 1092 130.285 489.32 464.32
1554 0 85.0516 12.9098 1098 131.149 488.556 460.729
1555 0 86.1127 13.5636 1168 128.467 488.91 462.543
1556 0 89.1371 13.0698 1165 129.342 488.902 459.987
1557 0 92.1826 12.9851 1197 129.604 489.02 457.376
1558 0 96.0989 13.6734 1314 127.158 488.23 456.572
1559 0 99.0785 13.3329 1321 127.505 489.312 456.067
1560 0 102.21 13.9321 1424 125.945 489.245 454.331
1561 0 105.097 12.5503 1319 130.935 488.82 451.739
1562 1 60.1216 10.5619 635 125.389 489.357 476.822
1563 0 62.1369 12.1989 758 123.917 487.636 471.195
1564 0 64.0744 13.3751 857 121.419 489.086 473.002
1565 0 66.0803 13.075 864 122.096 489.573 472.532
1566 0 69.0872 13.4468 929 120.324 489.413 471.169
1567 0 70.1496 13.1719 924 121.413 489.663 471.746
1568 0 72.1457 12.8767 929 122.076 489.566 468.957
1569 0 75.1322 13.8023 1037 119.21 489.773 467.058
1570 0 78.1332 13.4386 1050 119.695 489.149 466.56
1571 0 80.1406 13.5013 1082 120.471 489.079 465.562
1572 0 83.1015 13.7061 1139 121.284 489.277 458.951
1573 0 84.121 12.7079 1069 124.731 488.8 458.646
1574 0 89.1666 14.1757 1264 119.534 489.083 460.768
1575 0 90.178 12.2868 1108 125.724 489.635 457.861
1576 0 89.1792 12.3908 1105 155.569 490.641 457.786
1577 0 96.1977 13.8673 1334 120.793 490.384 458.469
1578 0 98.0885 13.549 1329 121.995 490.058 455.982
1579 0 103.168 13.9772 1442 118.987 489.973 449.625
1580 0 106.126 13.5029 1433 120.38 489.92 449.094
1581 0 108.157 13.6375 1475 119.047 488.413 451.066
1582 0 111.236 13.0263 1449 120.877 488.384 450.662
1583 0 116.219 14.0425 1632 117.661 488.45 448.936
1584 1 65.0912 12.7206 828 115.802 487.395 472.842
1585 0 67.0824 12.1343 814 117.962 487.469 470.849
1586 0 69.0986 11.7079 809 118.957 487.836 470.817
1587 0 72.1406 12.9608 935 116.185 489.128 463.006
1588 0 72.1102 12.5364 904 115.961 487.32 465.177
1589 0 75.1322 13.1635 989 118.52 487.837 468.92
1590 0 78.2411 13.2922 1040 118.981 489.127 464.163
1591 0 80.1028 12.7087 1018 120.756 488.743 463.884
1592 0 83.1774 13.0444 1085 119.065 488.826 463.321
1593 0 86.2687 13.0754 1128 118.724 488.904 463.133
1594 0 89.1364 13.4513 1199 119.082 489.675 454.138
1595 0 92.3212 12.9006 1191 119.226 490.031 457.304
1596 0 93.318 12.7521 1190 118.848 490.236 456.062
1597 0 98.2272 12.8478 1262 116.056 490.212 454.587
1598 0 100.211 12.6234 1265 115.87 489.607 454.003
1599 0 105.148 12.3255 1296 116.066 489.838 452.413
1600 0 108.206 13.1694 1425 114.185 490.722 449.189
1601 0 112.287 13.2251 1485 113.791 489.397 448.697
1602 0 114.151 12.5185 1429 115.3 489.42 448.964
1603 0 119.137 13.4803 1606 113.557 488.75 445.651
1604 0 122.129 12.4868 1525 116.861 488.768 444.418
1605 0 125.223 12.9688 1624 117.142 488.8 442.581
1606 1 69.0754 11.7842 814 112.633 489.424 471.6
1607 0 71.0864 11.8729 844 114.603 488.505 466.895
1608 0 75.03 11.9952 900 112.664 488.97 466.06
1609 0 73.0713 10.3461 756 118.155 489.205 467.364
1610 0 78.0991 12.3945 968 114.08 490.598 462.438
1611 0 81.0294 11.6378 943 115.143 490.016 465.573
1612 0 85.0807 13.4696 1146 110.56 489.244 462.126
1613 0 88.173 13.4735 1188 109.919 488.586 458.685
1614 0 89.2076 12.5214 1117 113.236 488.379 459.934
1615 0 93.2145 12.2942 1146 113.787 488.832 458.019
1616 0 96.1376 13.5119 1299 110.344 489.681 453.517
1617 0 98.1479 13.2861 1304 111.545 489.262 439.265
1618 0 103.201 12.7227 1313 111.096 489.772 444.541
1619 0 104.186 12.065 1257 113.068 489.056 443.523
1620 0 108.336 13.0704 1416 109.817 489.059 446.629
1621 0 111.321 11.8666 1321 111.825 489.1 446.958
1622 0 116.22 12.4505 1447 109.373 488.929 445.558
1623 0 118.364 11.7265 1388 111.664 489.151 443.834
1624 1 67.1007 10.7748 723 109.402 488.768 470.768
1625 0 68.1574 10.7252 731 110.166 489.558 464.079
1626 0 73.1677 13.9406 1020 102.341 490.084 462.628
1627 0 75.0751 12.2944 923 105.823 489.843 463.283
1628 0 79.1998 11.8056 935 108.996 488.548 463.973
1629 0 82.2869 12.5536 1033 107.133 488.116 462.242
1630 0 84.2936 11.6853 985 108.571 487.386 459.545
1631 0 87.2428 12.2417 1068 108.416 487.548 458.684
1632 0 89.2725 12.1202 1082 107.219 486.803 454.956
1633 0 92.0968 12.1611 1120 107.558 486.979 451.89
1634 0 96.1197 11.4129 1097 108.744 487.129 453.638
1635 0 98.1549 10.677 1048 110.119 487.793 451.462
1636 0 103.217 13.1374 1356 104.496 488.541 446.122
1637 0 106.206 12.118 1287 106.639 488.51 446.017
1638 0 109.146 12.0023 1310 107.464 488.189 445.079
1639 0 111.214 11.878 1321 108.497 487.582 442.783
1640 0 115.326 11.4458 1320 109.346 488.219 446.195
1641 0 119.255 11.8821 1417 109.895 487.783 443.049
1642 0 121.129 10.4682 1268 112.63 488.428 441.495
1643 0 127.108 11.3132 1438 111.124 488.048 440.051
1644 0 130.233 12.946 1686 112.993 487.45 429.368
1645 0 134.229 12.4563 1672 113.599 487.237 433.594
1646 0 139.234 12.1738 1695 112.86 487.395 425.148
1647 1 76.1321 9.54919 727 112.809 487.323 460.21
1648 0 79.1 11.6688 923 108.158 487.428 459.836
1649 0 81.2149 11.685 949 110.788 487.783 458.76
1650 0 85.3271 11.8251 1009 109.633 489.709 460.443
1651 0 87.2293 11.3494 990 110.177 489.473 461.986
1652 0 88.1658 11.7052 1032 111.581 489.345 457.745
1653 0 94.1408 11.7377 1105 110.285 487.82 454.18
1654 0 96.0551 11.4309 1098 108.646 488.504 454.74
1655 0 98.2535 11.6535 1145 106.299 489.031 451.128
1656 0 99.1653 11.9497 1185 104.846 489.313 448.614
1657 0 103.238 10.8002 1115 110.055 488.964 447.937
1658 0 107.065 12.3944 1327 104.726 488.311 447.433
1659 0 113.134 12.5338 1418 103.765 487.551 444.81
1660 0 117.116 11.7661 1378 105.046 487.807 445.706
1661 0 120.206 13.011 1564 108.084 487.554 439.255
1662 0 123.311 12.5699 1550 106.617 487.485 436.836
1663 0 127.32 11.4201 1454 107.946 487.249 434.32
1664 1 72.1164 10.5246 759 101.265 487.509 463.829
1665 0 73.1531 7.80555 571 103.613 486.984 450.212
1666 0 74.1999 9.70351 720 101.8 487.206 451.397
1667 0 79.0638 9.32159 737 103.087 487.623 462.631
1668 0 77.0851 10.4171 803 101.812 488.217 459.776
1669 0 80.1433 10.1568 814 103.095 488.283 460.209
1670 0 86.1681 10.9089 940 101.446 489.721 457.334
1671 0 91.2058 11.4357 1043 99.116 488.742 459.311
1672 0 93.1156 10.8145 1007 100.612 489.255 458.514
1673 0 95.0538 11.6671 1109 98.9432 488.63 459.78
1674 0 98.0497 11.637 1141 98.8913 488.664 455.122
1675 0 102.08 12.7743 1304 96.964 488.878 453.325
1676 0 104.11 11.3822 1185 100.899 488.273 451.711
1677 0 109.116 11.1532 1217 101.611 488.946 450.131
1678 0 111.115 12.7975 1422 100.194 488.925 448.214
1679 0 115.157 12.7305 1466 100.738 488.905 447.192
1680 0 119.109 12.8286 1528 101.064 489.491 441.427
1681 0 121.126 14.035 1700 99.3112 489.206 446.161
1682 0 125.227 13.0883 1639 103.16 488.694 437.78
1683 0 127.109 12.2414 1556 106.183 488.513 436.407
1684 0 130.134 12.7407 1658 104.799 488.427 438.552
1685 0 136.143 12.1122 1649 104.288 488.3 434.173
1686 0 139.282 12.3922 1726 104.816 488.505 433.662
1687 1 77.082 11.1051 856 104.964 488.949 463.032
1688 0 81.112 11.1574 905 105.351 488.583 462.282
1689 0 83.1203 11.4413 951 105.471 489.116 460.682
1690 0 86.2513 12.7882 1103 102.966 489.161 459.066
1691 0 88.1727 12.5322 1105 103.643 489.543 458.37
1692 0 91.2078 11.8411 1080 106.117 489.35 457.9
1693 0 94.131 11.8771 1118 106.797 489.239 457.2
1694 0 97.1399 13.2489 1287 104.572 488.818 455.79
1695 0 100.129 12.8334 1285 106.035 489.184 454.173
1696 0 103.234 13.1836 1361 106.024 489.58 452.198
1697 0 105.203 12.7848 1345 108.126 489.181 450.015
1698 0 108.316 12.7221 1378 107.53 490.284 451.262
1699 0 112.268 12.292 1380 107.936 489.502 444.897
1700 0 112.256 12.3914 1391 129.584 489.517 444.793
1701 0 118.289 11.81 1397 108.596 489.236 442.145
1702 0 122.204 12.3564 1510 107.577 488.497 439.255
1703 0 126.215 12.5817 1588 107.932 487.821 437.368
1704 0 131.296 12.2243 1605 106.3 488.193 435.521
1705 1 72.2527 11.7089 846 105.09 487.817 464.357
1706 0 70.0487 10.4356 731 111.057 488.715 459.172
1707 0 76.1102 9.63077 733 108.363 489.1 457.044
1708 0 81.1149 11.946 969 104.531 488.489 454.418
1709 0 81.1233 11.5257 935 106.18 488.852 452.585
1710 0 83.2691 12.5016 1041 104.906 489 454.828
1711 0 85.1333 11.5466 983 107.837 488.227 454.084
1712 0 89.2761 11.6941 1044 107.599 488.433 452.999
1713 0 89.0854 11.6742 1040 112.958 489.217 447.987
1714 0 92.1016 12.0736 1112 111.995 489.006 448.735
1715 0 95.1098 12.9429 1231 109.721 489.176 449.813
1716 0 98.0982 12.1205 1189 113.407 489.538 444.998
1717 0 103.124 13.3237 1374 109.553 489.107 444.608
1718 0 105.085 12.8943 1355 111.295 488.877 445.642
1719 0 108.107 13.1814 1425 111.931 488.006 441.574
1720 0 112.186 12.9428 1452 112.577 488.147 441.729
1721 0 116.165 14.2125 1651 111.173 488.318 436.374
1722 0 120.175 13.2057 1587 114.12 487.99 434.943
1723 1 63.1053 10.8866 687 115.14 489.188 463.338
1724 0 66.0818 10.1087 668 111.196 488.864 466.555
1725 0 71.0724 12.9164 918 110.704 489.356 467.056
1726 0 72.1157 12.8821 929 113.832 488.709 466.867
1727 0 77.1416 12.7169 981 112.708 488.943 466.418
1728 0 77.1212 12.9666 1000 115.173 489.072 466.475
1729 0 81.2287 14.2437 1157 110.652 489.743 465.483
1730 0 82.114 12.848 1055 115.645 488.945 463.005
1731 0 85.2868 12.8039 1092 116.263 488.734 462.757
1732 0 86.2157 12.3179 1062 120.218 488.721 459.435
1733 0 89.2732 13.9124 1242 116.771 489.116 459.581
1734 0 93.3215 14.1982 1325 116.039 487.725 452.607
1735 0 96.3329 13.6506 1315 117.798 487.998 452.995
1736 0 98.2645 14.6849 1443 115.03 487.718 452.912
1737 0 100.378 14.6347 1469 116.046 488.169 451.536
1738 0 103.278 14.6886 1517 115.303 487.414 451.406
1739 0 106.217 14.1314 1501 117.989 488.122 450.042
1740 0 109.219 13.862 1514 119.108 488.125 448.853
1741 0 110.152 13.3543 1471 119.939 488.874 448.053
1742 0 116.17 14.3841 1671 116.031 489.286 448.901
1743 0 118.218 14.6932 1737 116.397 489.06 447.111
1744 0 118.157 13.6514 1613 119.698 488.482 443.379
1745 0 126.223 14.712 1857 115.088 487.995 443.553
1746 0 131.114 14.4836 1899 115.449 488.395 440.483
1747 0 132.144 12.9782 1715 121.023 487.96 437.257
1748 1 79.1078 13.3868 1059 112.688 488.981 466.792
1749 0 79.1983 11.9321 945 116.945 489.185 466.382
1750 0 82.2467 13.1312 1080 115.976 488.508 463.577
1751 0 86.0796 12.8718 1108 117.11 487.6 460.549
1752 0 87.0905 13.8706 1208 116.237 488.502 460.54
1753 0 91.0733 12.6821 1155 118.997 488.703 460.063
1754 0 94.103 13.6234 1282 115.741 488.47 459.927
1755 0 99.1774 14.3984 1428 114.249 489.076 452.197
1756 0 99.1846 12.7036 1260 119.856 488.636 454.344
1757 0 101.142 12.9027 1305 119.7 488.818 453.838
1758 0 105.128 12.8605 1352 120.829 488.838 449.808
1759 0 109.188 14.5986 1594 115.789 488.836 451.763
1760 0 112.198 13.494 1514 119.604 489.072 449.509
1761 0 115.116 13.6992 1577 118.185 489.485 448.668
1762 0 119.185 13.0134 1551 120.371 489.074 447.264
1763 0 123.149 13.7314 1691 119.054 488.303 443.996
1764 0 127.229 14.9337 1900 117.325 488.703 440.941
1765 1 72.0758 10.6693 769 117.394 487.642 469.958
1766 0 73.1907 10.8211 792 118.038 486.92 467.033
1767 0 76.2656 13.6234 1039 114.325 487.058 468.269
1768 0 77.0776 13.3891 1032 114.063 488.103 468.365
1769 0 82.2266 14.983 1232 109.994 486.903 461.003
1770 0 84.1113 13.4702 1133 115.52 487.194 463.683
1771 0 85.1647 12.2703 1045 119.691 488.371 462.053
1772 0 87.1829 13.271 1157 118.293 488.879 457.59
1773 0 91.28 13.8475 1264 116.51 488.805 457.062
1774 0 93.1507 13.0971 1220 118.721 488.787 458.009
1775 0 96.0885 13.269 1275 116.16 489.893 456.405
1776 0 99.1263 13.3567 1324 116.375 489.558 454.402
1777 0 101.143 13.4364 1359 117.885 490.055 454.205
1778 0 102.163 13.1555 1344 119.897 489.896 451.027
1779 0 105.093 13.0361 1370 119.449 489.517 453.004
1780 0 110.144 12.8559 1416 120.796 488.734 449.503
1781 0 111.242 11.893 1323 124.551 489.059 448.128
1782 0 117.178 13.3472 1564 119.368 489.24 448.004
1783 0 118.106 13.1408 1552 122.338 488.206 444.636
1784 0 121.172 13.9306 1688 121.121 487.909 443.142
1785 0 125.116 14.6744 1836 119.681 488.572 439.233
1786 0 129.149 13.7825 1780 121.34 487.816 438.192
1787 0 131.191 12.8667 1688 123.565 488.18 435.293
1788 0 137.172 13.9314 1911 119.555 488.597 434.586
1789 0 141.115 12.5359 1769 121.764 487.963 425.971
1790 0 147.133 12.8319 1888 120.861 487.741 427.893
1791 1 83.0843 11.2055 931 117.266 489.754 455.65
1792 0 81.0926 11.5054 933 116.412 488.618 453.305
1793 0 88.1368 12.7302 1122 116.528 488.333 456.193
1794 0 88.0813 11.7392 1034 120.734 488.342 455.607
1795 0 93.0873 12.6333 1176 118.366 487.989 456.424
1796 0 96.2413 13.5493 1304 116.837 487.243 451.656
1797 0 100.099 13.6764 1369 117.212 488.279 451.289
1798 0 102.153 11.9037 1216 121.384 488.042 450.377
1799 0 104.067 12.0787 1257 121.002 487.99 446.328
1800 0 107.18 12.3903 1328 120.676 488.424 446.676
1801 0 112.175 13.2204 1483 117.618 489.024 446.283
1802 0 114.084 13.122 1497 119.176 488.621 442.839
1803 0 118.201 12.5549 1484 120.72 488.794 443.931
1804 0 124.184 13.1498 1633 119.038 488.446 439.426
1805 0 125.068 11.8335 1480 122.297 487.761 441.357
1806 0 130.186 12.8739 1676 122.016 487.177 432.413
1807 0 134.21 13.3821 1796 121.111 487.614 432.163
1808 0 138.304 13.8897 1921 119.551 488.237 434.912
1809 0 145.21 14.6684 2130 116.845 488.138 429.753
1810 0 148.273 12.6254 1872 123.101 488.202 429.193
1811 0 151.297 13.0471 1974 123.711 487.715 424.248
1812 0 157.301 13.3311 2097 123.469 488.311 423.324
1813 1 91.2524 11.9997 1095 117.517 488.674 459.26
1814 0 92.2542 12.3463 1139 116.986 489.219 454.389
1815 0 95.2977 12.3403 1176 117.839 489.724 452.04
1816 0 97.1798 11.7205 1139 120.681 489.44 449.3
1817 0 102.266 13.856 1417 114.489 489.189 450.522
1818 0 105.208 12.8888 1356 116.904 489.813 450.281
1819 0 107.271 13.9274 1494 115.641 489.351 446.575
1820 0 110.265 12.5153 1380 118.615 489.289 446.379
1821 0 114.399 12.3864 1417 118.67 489.14 444.949
1822 0 116.325 12.2416 1424 119.611 488.9 442.301
1823 0 121.215 13.6452 1654 116.08 489.53 438.605
1824 0 126.32 13.157 1662 116.752 488.99 437.531
1825 0 129.232 12.5511 1622 118.996 488.914 438.8
1826 0 131.29 12.3772 1625 120.805 488.694 433.203
1827 0 138.403 13.4029 1855 118.604 488.365 431.081
1828 0 143.331 12.963 1858 119.177 488.594 429.724
1829 0 150.355 13.8339 2080 116.008 488.794 429.355
1830 1 86.2419 11.92 1028 114.271 489.543 457.938
1831 0 87.0789 12.1958 1062 115.27 487.793 458.89
1832 0 90.1342 12.9695 1169 113.858 487.359 457.358
1833 0 91.1541 13.0548 1190 114.873 487.782 455.198
1834 0 96.093 13.7783 1324 112.819 488.111 454.188
1835 0 97.1405 11.6738 1134 119.235 487.304 448.693
1836 0 101.064 13.071 1321 115.002 487.702 449.176
1837 0 103.165 13.2796 1370 114.896 487.959 446.711
1838 0 107.139 12.8991 1382 115.918 488.198 443.086
1839 0 107.17 13.4833 1445 116.666 487.873 438.338
1840 0 114.219 13.3165 1521 116.748 487.833 438.862
1841 0 115.219 13.4787 1553 118.337 488.575 437.312
1842 0 121.162 12.3719 1499 121.245 488.189 436.165
1843 0 127.184 14.1056 1794 117.176 488.109 436.984
1844 0 131.123 13.7734 1806 118.482 488.455 433.012
1845 0 131.129 12.8271 1682 122.528 488.256 431.973
1846 0 136.149 13.3236 1814 120.202 487.847 428.368
1847 0 141.26 13.054 1844 118.625 487.215 421.997
1848 0 145.192 12.7487 1851 119.039 487.724 415.082
1849 0 151.204 14.6292 2212 115.289 487.643 415.596
1850 1 81.131 9.23199 749 119.028 487.762 451.979
1851 0 83.071 10.7137 890 117.684 487.526 450.228
1852 0 88.1425 13.3874 1180 113.392 487.55 448.819
1853 0 91.0807 13.9107 1267 112.336 487.713 449.794
1854 0 92.1497 11.9045 1097 118.533 487.971 448.459
1855 0 94.0711 11.7677 1107 120.358 487.744 448.513
1856 0 99.249 12.917 1282 115.7 487.886 447.953
1857 0 100.132 12.124 1214 118.882 488.211 445.151
1858 0 103.065 12.6231 1301 116.237 488.393 445.006
1859 0 103.086 12.4168 1280 117.709 488.044 440.982
1860 0 107.206 11.6132 1245 120.414 487.889 438.604
1861 0 110.306 11.8126 1303 120.015 488.186 437.988
1862 0 113.273 12.2713 1390 118.503 488.347 438.701
1863 0 118.334 12.2027 1444 119.518 488.314 435.392
1864 0 127.249 15.8272 2014 107.884 488.563 430.005
1865 0 125.242 12.7353 1595 118.191 488.76 432.264
1866 0 130.25 12.9904 1692 117.464 487.928 431.076
1867 0 133.231 12.1368 1617 120.44 487.656 426.405
1868 0 139.223 12.857 1790 118.384 488.297 425.258
1869 0 143.261 12.5226 1794 120.247 487.934 424.868
1870 0 148.248 11.9124 1766 121.681 487.727 419.533
1871 0 154.139 12.5666 1937 119.145 488.241 421
1872 1 81.1015 10.3204 837 117.483 488.344 453.95
1873 0 85.122 12.2178 1040 113.959 488.353 450.813
1874 0 84.0593 10.8138 909 118.678 488.491 451.024
1875 0 90.0803 11.5452 1040 115.008 488.784 455.34
1876 0 91.0492 13.1797 1200 112.547 487.838 451.39
1877 0 94.0985 13.2839 1250 112.948 487.872 447.453
1878 0 97.0866 13.7815 1338 111.353 488.419 449.337
1879 0 100.103 12.9167 1293 114.023 487.94 448.12
1880 0 105.091 13.1696 1384 113.76 487.257 444.775
1881 0 106.093 13.2337 1404 114.23 487.916 442
1882 0 108.06 12.5579 1357 116.413 487.676 437.26
1883 0 112.099 13.9965 1569 112.414 487.795 440.122
1884 0 115.083 12.7474 1467 115.845 487.833 437.929
1885 0 119.107 13.0387 1553 114.643 488.062 438.365
1886 0 124.137 13.2675 1647 113.613 488.275 432.498
1887 0 128.056 13.8455 1773 112.256 488.208 432.345
1888 0 131.139 13.4666 1766 114.018 488.172 431.156
1889 0 134.105 14.0114 1879 112.889 488.245 431.426
1890 0 138.083 13.7236 1895 114.262 487.9 427.093
1891 0 142.208 12.6786 1803 117.341 487.602 426.599
1892 0 147.199 14.1169 2078 113.452 488.15 421.031
1893 0 152.258 13.661 2080 114.781 487.788 418.995
1894 0 156.171 13.9462 2178 114.898 487.77 414.966
1895 0 160.36 13.8813 2226 115.588 487.467 415.83
1896 0 169.249 14.3103 2422 113.78 487.716 415.486
1897 0 173.251 14.0201 2429 115.219 487.61 412.196
1898 0 179.185 13.7232 2459 116.898 487.8 408.687
1899 0 181.24 13.9815 2534 117.861 487.773 404.91
1900 0 187.274 13.6805 2562 119.529 487.498 408.1
1901 0 194.392 14.0798 2737 120.121 487.718 403.077
1902 0 201.261 14.6427 2947 119.094 488.376 400.475
1903 0 203.316 13.2208 2688 123.981 487.222 393.225
1904 0 210.447 14.032 2953 121.466 487.708 391.792
1905 0 220.411 15.5618 3430 117.201 487.589 388.564
1906 0 224.426 13.9022 3120 123.695 487.647 383.833
1907 1 52.1277 6.57999 343 98.3294 487.802 467.595
1908 0 57.2085 10.6628 610 100.008 487.37 469.716
1909 0 60.09 11.7657 707 98.8967 486.61 472.405
1910 0 60.1267 11.6421 700 99.9557 486.4 472.681
1911 0 63.1385 12.0054 758 99.5633 486.714 471.276
1912 0 63.0638 11.0206 695 102.813 487.653 470.977
1913 0 66.0982 10.2121 675 104.064 487.471 471.212
1914 0 69.2145 11.9484 827 101.334 487.729 467.981
1915 0 70.175 11.8561 832 103.648 488.089 467.026
1916 0 72.0861 12.4573 898 103.048 488.412 465.885
1917 0 72.0298 10.9955 792 108.068 488.569 464.455
1918 0 77.0428 12.5385 966 103.46 488.276 466.835
1919 0 77.0847 11.1566 860 108.408 488.531 463.764
1920 0 78.0708 10.8363 846 109.314 489.186 462.697
1921 0 78.1447 9.58479 749 112.987 489.968 458.931
1922 0 80.0621 10.8416 868 111.988 488.93 459.671
1923 0 82.0605 11.26 924 110.9 489.341 462.975
1924 0 89.1819 13.8817 1238 105.593 488.517 456.705
1925 0 89.0763 11.3161 1008 112.632 488.04 458.937
1926 0 91.1732 10.4746 955 115.188 488.281 455.933
1927 0 95.1425 11.7823 1121 112.021 487.761 448.003
1928 0 99.1273 11.2986 1120 112.01 487.558 444.248
1929 0 102.127 12.6509 1292 109.112 487.934 447.845
1930 0 102.099 10.0196 1023 116.715 488.19 448.171
1931 0 102.099 10.049 1026 138.948 489.181 448
1932 0 111.145 11.4985 1278 118.033 488.34 445.84
1933 0 112.119 10.7296 1203 121.113 488.614 442.789
1934 0 113.094 10.478 1185 120.279 487.97 436.456
1935 1 65.0454 8.34801 543 109.687 488.335 461.471
1936 0 60.0444 8.22725 494 114.255 488.773 454.575
1937 0 71.0427 8.92421 634 110.972 488.751 458.888
1938 0 74.0608 12.1522 900 110.409 489.107 464.449
1939 0 78.0945 11.4221 892 111.331 490.419 460.442
1940 0 78.1587 11.1696 873 113.245 490.281 460.891
1941 0 80.135 12.3167 987 111.805 489.367 460.733
1942 0 82.1431 12.88 1058 111.419 489.503 459.402
1943 0 83.2159 11.0676 921 116.391 489.891 461.294
1944 0 87.1125 13.2013 1150 112.65 489.782 460.098
1945 0 89.1161 11.0306 983 117.996 489.604 456.759
1946 0 90.211 12.759 1151 114.935 489.828 456.883
1947 0 92.1167 12.5602 1157 117.246 490.468 455.274
1948 0 95.098 12.4714 1186 117.466 490.599 455.574
1949 0 94.1424 12.3324 1161 118.084 489.804 453.482
1950 0 99.1849 12.4212 1232 118.062 489.482 452.107
1951 0 101.194 13.4396 1360 115.065 489.335 449.624
1952 0 103.166 12.4072 1280 115.871 488.996 443.144
1953 0 106.176 11.8482 1258 118.957 488.556 441.698
1954 0 106.119 11.6379 1235 121.045 488.642 437.262
1955 0 110.166 11.8821 1309 120.801 489.096 438.958
1956 0 115.129 13.0984 1508 117.761 487.723 438.82
1957 0 119.143 12.976 1546 119.132 488.836 437.856
1958 0 119.117 12.1057 1442 123.714 488.422 435.718
1959 0 126.185 14.5263 1833 117.457 488.198 430.384
1960 0 126.192 13.2575 1673 123.124 488.655 428.66
1961 0 134.237 14.7575 1981 117.759 488.504 430.546
1962 0 136.154 13.852 1886 120.963 488.891 428.615
1963 1 77.1653 9.29174 717 124.099 488.718 452.877
1964 0 78.1676 11.0404 863 119.81 489.67 454.845
1965 0 83.2291 11.8949 990 118.026 489.624 451.968
1966 0 85.2316 12.7887 1090 116.304 489.185 451.527
1967 0 88.1947 13.5269 1193 113.93 489.534 457.217
1968 0 89.2548 12.6604 1130 117.1 489.461 455.83
1969 0 92.095 13.0626 1203 116.751 489.746 457.855
1970 0 93.1366 12.3689 1152 120.243 489.105 456.595
1971 0 95.0788 13.3573 1270 118.309 489.076 455.593
1972 0 96.1003 13.0489 1254 120.746 488.836 453.179
1973 0 100.074 13.7099 1372 119.547 488.827 451.822
1974 0 103.052 14.6625 1511 117.336 488.733 452.592
1975 0 107.11 15.0687 1614 116.98 488.492 449.677
1976 0 107.16 14.1937 1521 121.745 488.965 447.319
1977 0 109.167 13.3831 1461 125.478 488.353 446.258
1978 0 114.113 13.8722 1583 123.703 487.903 445.785
1979 0 118.126 13.5448 1600 125.182 488.967 444.373
1980 0 119.128 13.1623 1568 127.925 488.36 440.96
1981 0 124.166 13.9733 1735 126.647 488.139 439.093
1982 0 127.128 13.978 1777 127.031 488.608 438.555
1983 0 129.102 13.6869 1767 129.148 488.545 435.768
1984 0 132.078 13.0983 1730 128.874 488.701 435.739
1985 0 136.122 13.2454 1803 130.708 488.638 430.814
1986 0 142.122 14.3891 2045 126.134 488.696 431.989
1987 0 145.09 14.4876 2102 127.672 489.379 425.415
1988 0 150.11 13.2569 1990 131.152 488.268 419.868
1989 0 155.242 13.8042 2143 124.063 489.175 422.152
1990 0 159.29 13.8301 2203 124.81 489.446 420.1
1991 0 164.178 13.5524 2225 125.686 488.753 417.9
1992 0 169.319 13.3181 2255 130.392 488.096 410.681
1993 0 174.264 13.3877 2333 128.779 488.307 412.881
1994 0 178.253 13.7108 2444 130.261 488.062 409.505
1995 0 182.211 14.1868 2585 128.928 487.888 408.074
1996 0 182.209 14.1266 2574 154.705 486.89 407.925
1997 1 195.37 14.383 2810 128.025 487.918 401.795
1998 0 200.252 14.2121 2846 128.291 487.073 398.08
1999 0 204.382 13.7928 2819 130.652 487.074 395.026
2000 0 212.265 14.6939 3119 127.589 486.944 386.92
2001 1 148.182 13.5307 2005 127.815 486.753 423.051
2002 0 154.308 13.4472 2075 127.565 486.845 422.846
2003 0 156.21 12.5728 1964 125.148 487.154 414.966
2004 0 162.218 11.879 1927 127.108 487.061 411.1
2005 0 167.173 11.7723 1968 127.391 487.332 410.96
2006 0 173.226 12.5443 2173 126.704 487.405 408.264
2007 0 179.182 12.5012 2240 127.618 487.491 403.272
2008 0 182.313 13.2684 2419 125.883 487.575 403.516
2009 0 189.343 11.9783 2268 131.145 487.053 399.706
2010 0 197.272 13.1697 2598 129.612 486.798 395.29
2011 0 201.361 12.2516 2467 132.895 487.064 390.269
2012 0 210.23 13.4519 2828 130.115 486.802 389.613
2013 0 216.388 13.3048 2879 131.468 486.72 386.868
2014 0 222.339 12.6024 2802 136.891 486.263 384.691
2015 1 16.0057 5.12318 82 98.3049 483.866 490.293
2016 0 16.0118 5.24613 84 96.7381 484.714 493.405
2017 0 17.007 5.70353 97 93.6082 484.216 491.67
2018 0 20.0066 6.94772 139 95.2086 485.072 490.432
2019 0 14.0087 4.56858 64 98.7031 485.109 491.719
2020 0 18.0136 6.10649 110 96.0455 489.036 494.264
2021 1 79.0877 10.874 860 112.598 488.534 463.028
2022 0 78.1167 10.894 851 115.1 488.492 458.717
2023 1 13.0003 5.30757 69 98.3478 490.101 493.797
2024 0 15.0092 3.99755 60 99.1 489.55 495.45
2025 0 16.0009 4.74972 76 98.6184 489.474 493.461
2026 0 16.0085 4.56008 73 98.9452 489.329 493.096
2027 0 13.015 4.30273 56 94.8214 490.304 495.5
2028 0 17.016 4.34886 74 93.6622 491.405 492
2029 0 19.0179 4.4169 84 88.5595 489.738 492.75
2030 0 15.0011 5.06629 76 89.4868 489.921 491.211
2031 0 18.0022 3.83286 69 87.4348 491.13 491.754
2032 0 10.001 2.59974 26 85.1154 490.885 485.808
2033 0 7 1.28571 9 91.1111 491.111 484.778
2034 0 12.0023 5.6656 68 80.0147 488.074 486.5
2035 0 12.0015 7.83232 94 77.6596 487.628 487.096
2036 0 15.0382 5.78525 87 79.092 488.299 487.678
2037 0 10.001 2.79973 28 84.9643 488.643 486.714
2038 0 7 2 14 88.2857 491.571 487.5
2039 0 15.0055 2.39912 36 84.25 490.972 488.139
2040 0 4 6 24 82.2917 491.333 487.875
2041 0 6 4 24 83.125 491.833 488.5
2042 0 3 6.33333 19 81.0526 491.316 487.263
2043 0 0 0 0 -nan -nan -nan
2044 0 13.0004 3.23066 42 83.2857 490.31 493.833
2045 0 11 1 11 85.8182 489.909 490.818
2046 1 90.1358 9.29709 838 110.175 488.223 444.354
2047 0 88.0818 10.9557 965 106.951 487.764 445.934
2048 0 96.1603 11.2 1077 116.932 488.158 446.47
2049 0 104.108 13.3324 1388 108.909 488.568 451.478
2050 0 104.152 11.7425 1223 113.756 488.805 449.164
2051 0 110.239 12.5273 1381 112.756 489.505 443.786
2052 0 110.231 11.9113 1313 114.907 489.082 444.401
2053 0 113.191 11.2111 1269 117.156 489.245 440.933
2054 0 117.121 10.9886 1287 117.839 488.453 440.95
2055 0 119.233 11.5655 1379 118.16 488.593 436.742
2056 1 72.1944 8.46326 611 103.475 488.818 459.373
2057 0 69.0239 8.48981 586 109.102 487.07 456.106
2058 0 70.056 8.15062 571 110.433 487.632 452.459
2059 0 77.1369 9.6063 741 103.138 487.124 455.822
2060 0 72.0747 9.44853 681 103.057 487.235 457.65
2061 0 79.1141 9.97294 789 102.11 487.578 456.785
2062 0 80.1041 10.2117 818 103.631 487.752 454.713
2063 0 77.1081 8.77988 677 110.204 487.835 449.353
2064 0 82.0788 10.4777 860 105.694 488.099 446.614
2065 0 84.1099 9.80859 825 109.743 488.39 448.001
2066 0 86.2398 9.03295 779 110.908 488.336 446.365
2067 0 87.1471 11.165 973 107.605 488.918 443.584
2068 0 96.1198 10.9655 1054 107.39 488.572 446.751
2069 0 98.165 11.0426 1084 107.565 488.855 448.09
2070 0 103.14 11.7122 1208 106.472 488.408 443.717
2071 0 106.181 12.0737 1282 106.704 488.693 442.344
2072 0 109.161 12.3305 1346 106.921 489.194 443.603
2073 0 111.214 10.8799 1210 111.26 488.365 440.42
2074 0 113.168 11.9822 1356 110.635 488.302 439.223
2075 0 116.13 11.8144 1372 110.531 488.685 439.778
2076 0 121.113 12.8145 1552 108.966 488.352 439.874
2077 0 122.214 11.079 1354 113.232 487.978 439.435
2078 0 124.215 11.6089 1442 113.291 487.646 433.288
2079 0 128.175 11.2503 1442 113.825 488.037 431.765
2080 0 132.214 12.2983 1626 110.678 488.323 433.626
2081 0 138.203 11.91 1646 110.999 487.456 421.999
2082 0 142.244 11.6279 1654 111.104 488.037 423.48
2083 1 81.3969 9.70552 790 105.354 488.077 446.728
2084 0 84.1948 11.1765 941 105.623 488.436 445.955
2085 0 86.2737 12.6574 1092 104.814 489.135 448.936
2086 0 87.2069 11.4326 997 107.189 489.296 450.33
2087 0 90.2197 12.4474 1123 105.169 489.159 453.098
2088 0 92.2 12.3536 1139 105.539 487.809 453.148
2089 0 95.2039 12.4365 1184 105.05 487.826 453.286
2090 0 98.2809 12.5966 1238 104.643 487.959 450.748
2091 0 100.259 11.6099 1164 107.206 487.813 447.341
2092 0 103.432 12.4913 1292 106.206 488.28 441.797
2093 0 107.418 11.7857 1266 107.922 488.17 442.973
2094 0 106.449 12.0715 1285 108.629 487.713 438.182
2095 0 111.547 12.999 1450 106.117 488.304 442.309
2096 0 114.373 12.4855 1428 108.275 488.207 439.26
2097 0 116.289 11.5746 1346 111.238 488.144 434.738
2098 0 120.297 13.4251 1615 106.012 488.43 439.627
2099 0 123.32 14.1989 1751 105.303 488.495 435.547
2100 0 126.366 12.9781 1640 109.212 487.588 432.883
2101 0 129.333 12.9975 1681 109.22 488.033 432.352
2102 0 130.151 12.1628 1583 112.064 487.491 425.776
2103 0 130.293 12.0651 1572 113.405 487.738 419.466
2104 0 136.146 12.2369 1666 111.628 487.906 420.959
2105 0 137.186 11.991 1645 113.018 487.505 419.892
2106 0 143.321 12.6359 1811 112.453 486.574 415.744
2107 0 149.153 13.1811 1966 111.397 487.096 416.404
2108 0 151.12 12.7978 1934 113.368 487.588 415.046
2109 0 154.119 12.5747 1938 115.517 487.821 407.806
2110 0 158.183 12.8649 2035 116.564 487.475 404.978
2111 0 158.178 12.1319 1919 118.824 487.624 402.436
2112 0 157.218 12.8038 2013 119.533 487.349 396.331
2113 0 170.226 13.905 2367 115.371 487.279 397.439
2114 0 176.192 13.5648 2390 116.666 487.994 398.442
2115 0 183.268 14.547 2666 114.96 487.95 392.8
2116 0 186.392 14.4588 2695 115.569 487.794 389.926
2117 1 270.503 9.71892 2629 125.935 487.381 376.258
2118 0 279.339 7.36381 2057 125.375 487.092 385.175
2119 0 273.578 6.74395 1845 128.407 487.485 381.344
2120 0 270.393 9.07198 2453 127.503 487.264 370.925
2121 1 56.106 9.60681 539 100.725 486.644 472.286
2122 0 57.0833 10.3358 590 98.6542 487.149 473.902
2123 0 60.0339 10.061 604 100.949 486.166 469.871
2124 0 62.0471 8.6386 536 103.211 486.338 469.547
2125 0 62.0412 8.31706 516 99.8546 487.773 469.932
2126 0 67.0637 8.81252 591 98.022 487.868 468.993
2127 0 66.1075 9.33328 617 98.2626 486.733 464.284
2128 0 71.0318 9.67172 687 98.4702 487.611 466.725
2129 0 73.1058 10.478 766 96.7559 487.275 464.547
2130 0 73.0576 9.49935 694 99.8328 487.836 462.607
2131 0 77.0459 9.3321 719 100.078 488.111 461.616
2132 0 79.0663 11.092 877 97.577 487.808 462.123
2133 0 81.095 9.43338 765 100.561 487.69 462.608
2134 0 84.0579 9.49345 798 99.6955 488.729 464.058
2135 0 86.0657 10.6547 917 99.0829 487.93 458.555
2136 0 85.1454 10.4292 888 101.595 488.313 456.204
2137 0 91.16 11.7266 1069 99.768 488.037 455.205
2138 0 94.3542 10.8739 1026 103.121 488.564 455.242
2139 0 95.1238 9.75571 928 106.578 488.204 454.99
2140 0 101.2 11.0277 1116 104.071 488.109 453.504
2141 1 61.1504 9.9427 608 101.304 488.883 470.355
2142 0 63.0918 11.4912 725 99.3917 489.298 470.015
2143 0 66.1307 10.6758 706 101.506 489.458 467.608
2144 0 64.2163 10.8228 695 103.083 489.04 468.306
2145 0 69.1817 11.5493 799 102.065 488.37 468.327
2146 0 70.2116 11.4226 802 105.057 488.749 467.072
2147 0 69.1902 10.276 711 110.28 488.522 463.146
2148 0 72.2338 9.60768 694 110.852 488.128 462.683
2149 0 75.2089 11.2354 845 107.292 488.586 464.889
2150 0 76.3537 9.87509 754 110.528 488.294 462.062
2151 0 80.3617 12.1824 979 104.679 488.488 462.4
2152 0 81.3301 12.5907 1024 104.329 488.713 463.276
2153 0 82.3602 13.016 1072 104.467 488.103 460.993
2154 0 86.4391 15.9072 1375 98.4698 487.593 459.449
2155 0 87.3764 13.2645 1159 106.242 487.495 459.023
2156 0 88.4634 11.7337 1038 109.349 488.43 458.249
2157 0 90.3383 11.9993 1084 107.585 487.165 456.399
2158 0 91.277 11.0871 1012 109.414 487.88 456.592
2159 0 95.3011 12.4238 1184 106.048 487.262 453.016
2160 0 96.2843 11.6738 1124 108.317 487.907 450.744
2161 0 100.242 12.7093 1274 106.21 487.248 449.559
2162 0 101.316 11.7849 1194 109.006 487.804 450.51
2163 0 104.174 10.972 1143 111.32 487.714 450.127
2164 0 108.124 12.7724 1381 107.949 487.306 449.288
2165 0 109.094 13.2088 1441 108.347 487.562 446.127
2166 0 114.174 11.6489 1330 111.611 487.202 445.915
2167 0 115.193 13.3168 1534 108.794 487.062 442.042
2168 0 120.122 13.7278 1649 107.859 487.062 441.491
2169 0 121.186 12.3282 1494 112.418 487.161 440.767
2170 1 70.1598 10.0057 702 107.695 487.016 468.96
2171 0 70.1582 11.0892 778 107.817 486.261 468.33
2172 0 74.1568 11.1925 830 107.886 487.966 459.228
2173 0 76.1055 13.0214 991 103.394 488.694 462.419
2174 0 78.0545 12.8244 1001 104.582 487.835 464.431
2175 0 80.1786 12.8962 1034 104.998 487.317 462.046
2176 0 80.1431 10.8431 869 110.132 488.284 460.831
2177 0 81.3717 11.81 961 112.707 487.383 456.662
2178 0 86.551 11.8081 1022 110.92 486.614 456.481
2179 0 89.3066 11.914 1064 110.01 486.928 454.807
2180 0 92.3747 12.7416 1177 107.435 487.025 455.182
2181 0 94.3726 13.2242 1248 106.596 486.917 454.19
2182 0 97.338 12.6158 1228 107.695 486.549 452.143
2183 0 97.424 12.3583 1204 109.506 486.669 450.217
2184 0 100.285 13.1525 1319 107.756 486.876 447.247
2185 0 104.411 12.9201 1349 108.366 486.99 448.905
2186 0 103.299 12.459 1287 110.829 486.865 449.172
2187 0 109.352 12.6839 1387 109.446 486.802 447.158
2188 0 109.321 11.983 1310 112.751 486.764 444.899
2189 0 114.376 11.5933 1326 114.273 487.448 442.761
2190 0 120.201 13.1613 1582 111.601 487.602 440.353
2191 0 122.18 12.6698 1548 114.436 487.846 440.902
2192 0 126.208 13.4857 1702 114.58 487.73 438.959
2193 0 131.109 13.0579 1712 115.518 487.869 437.71
2194 0 134.295 12.7927 1718 116.325 488.13 435.973
2195 1 78.1356 11.3137 884 113.723 488.421 461.919
2196 0 82.1755 11.9379 981 113.415 488.12 460.512
2197 0 84.1496 12.3352 1038 113.198 488.436 458.954
2198 0 85.1858 11.9151 1015 115.067 489.022 458.052
2199 0 89.234 12.1478 1084 115.602 488.176 455.984
2200 0 94.1727 13.4859 1270 111.052 488.563 456.685
2201 0 96.1038 11.7061 1125 115.451 487.696 455.3
2202 0 98.2659 11.4282 1123 117.03 486.525 448.517
2203 0 103.272 13.8469 1430 111.71 487.417 447.059
2204 0 104.204 12.6195 1315 115.796 487.944 443.716
2205 0 107.272 12.5103 1342 116.326 488.277 443.622
2206 0 111.263 12.9603 1442 115.114 487.94 444.359
2207 0 116.23 13.2496 1540 113.435 488.136 444.69
2208 0 118.157 14.0068 1655 112.87 488.704 441.844
2209 0 122.312 13.0486 1596 114.769 487.754 439.016
2210 0 125.167 13.2463 1658 114.642 487.684 437.308
2211 0 130.255 13.059 1701 115.852 488.286 433.884
2212 0 136.178 13.4383 1830 114.736 487.678 433.79
2213 0 140.156 13.5849 1904 115.209 487.425 432.636
2214 0 144.297 13.1118 1892 114.673 486.662 422.105
2215 1 85.1916 11.1631 951 109.368 487.139 453.074
2216 0 89.1325 11.4885 1024 114.516 486.564 457.3
2217 0 92.1573 11.7733 1085 113.657 486.556 457.353
2218 0 93.1408 13.4742 1255 112.432 487.901 453.466
2219 0 96.196 13.223 1272 112.846 487.964 452.818
2220 0 101.187 13.8555 1402 112.086 488.269 448.17
2221 0 102.136 13.6778 1397 113.89 487.78 450.151
2222 0 104.111 13.7833 1435 115.164 488.247 448.308
2223 0 109.175 12.5853 1374 118.691 487.097 447.12
2224 0 111.036 14.1035 1566 116.338 487.801 445.531
2225 0 113.054 12.4631 1409 120.73 488.3 441.93
2226 0 115.098 13.4929 1553 118.408 488.595 438.951
2227 0 119.195 13.0291 1553 121.615 488.096 438.4
2228 0 123.114 13.9708 1720 119.577 487.973 439.32
2229 0 126.166 12.8641 1623 122.622 487.839 436.99
2230 0 129.084 13.1775 1701 121.894 487.835 435.761
2231 0 133.132 13.6631 1819 122.631 487.199 431.714
2232 0 136.183 13.5553 1846 123.431 487.876 433.932
2233 0 139.289 14.416 2008 123.397 487.968 428.624
2234 0 145.309 13.6261 1980 124.415 488.541 428.926
2235 0 151.418 13.6245 2063 124.988 488.146 424.281
2236 1 85.2689 10.8949 929 122.826 488.812 456.218
2237 0 89.2359 11.8114 1054 122.813 488.735 456.621
2238 0 91.1928 12.501 1140 123.014 488.894 455.602
2239 0 92.2606 11.836 1092 126.64 489.082 452.942
2240 0 99.1795 12.7849 1268 122.283 488.834 449.489
2241 0 99.194 12.3999 1230 125.044 488.026 449.284
2242 0 102.105 12.7516 1302 124.363 488.237 447.877
2243 0 106.141 14.0944 1496 121.168 488.376 446.278
2244 0 109.259 12.6672 1384 126.255 487.44 440.767
2245 0 111.104 12.6368 1404 125.063 486.995 441.526
2246 0 112.177 11.9008 1335 126.883 487.431 437.784
2247 0 118.193 12.5642 1485 124.549 486.897 437.778
2248 0 121.174 13.4518 1630 122.49 486.761 439.862
2249 0 125.12 12.7398 1594 124.159 486.781 439.242
2250 0 128.23 12.6024 1616 125.223 487.068 432.2
2251 0 135.242 12.888 1743 123.608 486.54 433.788
2252 0 137.345 12.829 1762 123.39 487.028 432.591
2253 0 143.395 12.8666 1845 124.371 487.436 432.631
2254 0 153.378 15.8954 2438 115.146 487.442 423.449
2255 0 153.316 13.1493 2016 126.687 486.957 421.287
2256 0 159.241 13.9286 2218 120.193 486.928 420.962
2257 0 162.141 12.6002 2043 125.475 487.012 415.667
2258 0 169.356 13.1557 2228 127.314 486.686 414.067
2259 0 174.295 13.7927 2404 124.114 486.898 417.393
2260 0 180.241 13.8204 2491 125.069 487.354 408.995
2261 0 186.206 13.9415 2596 125.791 486.383 411.118
2262 0 189.272 14.112 2671 127.519 486.411 407.399
2263 0 192.347 12.8725 2476 131.65 486.316 406.542
2264 0 199.191 13.2436 2638 133.093 486.587 401.21
2265 0 204.309 12.5741 2569 134.783 485.414 398.692
2266 0 211.287 13.716 2898 130.325 485.086 390.031
2267 0 216.383 13.319 2882 133.246 484.924 385.332
2268 0 225.5 13.5255 3050 132.47 484.375 389.857
2269 0 235.516 13.4471 3167 130.09 484.276 390.24
2270 0 244.368 13.5247 3305 130.051 484.542 384.065
2271 0 251.35 12.5283 3149 133.409 484.056 384.689
2272 1 60.0122 10.1146 607 112.379 484.427 485.084
2273 0 62.1139 10.1105 628 112.707 483.519 484.315
2274 0 64.0785 10.9553 702 111.246 483.774 484.044
2275 0 66.0995 11.1045 734 111.858 483.86 484.208
2276 0 68.0685 11.6941 796 111.682 483.308 483.054
2277 0 70.142 11.8617 832 112.125 482.74 481.24
2278 0 70.1958 10.2143 717 116.59 484.947 476.006
2279 0 73.2464 11.1268 815 116.266 484.191 476.044
2280 0 77.1463 12.068 931 114.881 482.676 477.073
2281 0 77.1921 10.9208 843 119.89 481.805 477.288
2282 0 78.0893 11.4997 898 119.354 482.085 476.414
2283 0 78.0918 10.9615 856 121.651 481.887 476.099
2284 0 84.0989 11.6173 977 118.899 481.42 474.585
2285 0 84.121 10.9485 921 121.85 482.337 472.886
2286 0 84.0774 10.1692 855 126.188 481.463 471.406
2287 0 92.1443 13.3595 1231 116.455 481.04 467.456
2288 0 93.0994 12.4061 1155 120.969 481.539 469.608
2289 0 91.2278 11.4548 1045 126.957 481.034 467.419
2290 0 96.1421 12.4919 1201 122.235 481.48 469.55
2291 0 97.1094 11.173 1085 126.829 481.888 465.458
2292 0 102.136 12.1701 1243 124.056 482.322 467.874
2293 0 107.222 13.4208 1439 121.057 480.274 457.464
2294 0 108.197 12.1353 1313 124.77 481.285 445.077
2295 0 114.323 13.5494 1549 117.897 481.44 447.862
2296 1 69.121 9.95356 688 117.151 481.33 475.554
2297 0 71.1181 11.0942 789 114.953 481.944 470.067
2298 0 74.2038 13.153 976 114.785 481.214 462.267
2299 0 75.2309 12.4018 933 118.15 480.867 463.93
2300 0 77.1486 12.7416 983 117.789 481.26 462.082
2301 0 78.1471 12.3869 968 118.255 482.223 461.455
2302 0 81.0928 12.6768 1028 117.012 481.677 462.408
2303 0 82.1508 12.5257 1029 119.343 481.502 460.332
2304 0 85.1736 13.3844 1140 115.789 482.419 459.472
2305 0 89.2505 13.6022 1214 114.574 483.128 459.656
2306 0 90.1402 13.6343 1229 114.744 482.869 462.007
2307 0 93.1257 12.5529 1169 119.063 482.33 459.134
2308 0 95.146 13.7788 1311 116.433 482.568 457.727
2309 0 98.1748 13.8528 1360 115.871 482.25 459.022
2310 0 102.166 13.527 1382 116.46 482.708 461.23
2311 0 102.127 13.2287 1351 119.393 481.896 457.915
2312 0 105.176 14.0336 1476 116.7 482.482 458.642
2313 0 107.16 12.3553 1324 121.608 482.449 458.813
2314 0 113.153 13.2652 1501 117.364 482.633 460.382
2315 0 114.151 13.7449 1569 116.665 482.788 458.41
2316 0 119.264 13.9187 1660 116.631 482.757 455.468
2317 0 120.308 12.6924 1527 120.079 482.511 451.889
2318 0 122.219 13.6967 1674 117.603 482.499 451.556
2319 0 125.334 13.4201 1682 118.252 481.259 448.878
2320 0 131.315 13.9207 1828 115.653 480.913 445.499
2321 0 134.263 14.0992 1893 115.454 481.493 444.609
2322 0 138.388 13.9679 1933 115.361 481.584 443.222
2323 0 141.334 13.0046 1838 117.171 482.298 431.178
2324 0 146.293 13.9788 2045 113.7 481.666 431.266
2325 0 149.306 13.4489 2008 115.294 481.976 429.729
2326 0 155.384 13.8109 2146 114.013 481.833 430.658
2327 0 161.357 14.5144 2342 112.863 481.808 426.768
2328 1 94.1043 7.75735 730 114.651 481.988 459.422
2329 0 97.0545 11.6326 1129 111.391 482.144 460.394
2330 0 100.063 10.6532 1066 112.982 481.759 462.494
2331 0 101.145 11.0732 1120 116.022 482.782 458.819
2332 0 104.177 11.5093 1199 115.498 482.49 456.775
2333 0 107.209 11.5196 1235 114.577 483.036 454.524
2334 0 112.165 10.9838 1232 113.683 482.642 447.601
2335 0 114.155 10.8536 1239 114.115 481.848 445.294
2336 0 115.145 11.0556 1273 115.637 481.886 443.515
2337 0 116.068 10.1923 1183 118.586 482.254 438.69
2338 0 121.225 10.3279 1252 115.608 482.174 429.878
2339 0 127.15 9.52421 1211 117.364 482.832 431.571
2340 0 131.106 11.586 1519 113.355 482.518 434.706
2341 0 136.18 11.8226 1610 113.181 482.234 435.115
2342 0 138.172 12.3542 1707 112.606 482.148 432.339
2343 0 138.161 9.57579 1323 121.279 482.608 425.664
2344 0 146.163 11.1177 1625 113.341 482.658 429.818
2345 0 153.161 12.9015 1976 108.079 482.175 419.266
2346 0 155.193 12.1913 1892 110.004 483.204 421.833
2347 0 160.181 11.4995 1842 112.391 482.364 417.47
2348 1 15.0186 4.52771 68 84.9559 482.221 498.221
2349 0 15.0081 7.52929 113 80.5133 482.46 496.496
2350 0 12.0017 4.66601 56 84.6607 482.161 498.321
2351 0 10.0009 4.09964 41 85.3415 482 497.829
2352 0 15.0183 6.45879 97 82.0515 482.464 495.948
2353 0 12.0047 6.16427 74 83.1757 483.068 495.122
2354 0 13.0039 4.15261 54 84.3889 483.093 497.63
2355 0 12.0033 4.08222 49 86.8571 482.98 494.02
2356 0 24.0198 6.82771 164 83.5061 483.659 492.951
2357 1 12.0018 6.66564 80 82.875 483.688 496.312
2358 0 11.0026 4.27171 47 88.4894 484.085 496.234
2359 0 13.0006 6.07666 79 85.6962 484.722 496.418
2360 0 16.0106 5.49635 88 85.8068 484.58 495.364
2361 1 58.023 8.37598 486 96.751 486.265 476.002
2362 0 56.0899 8.09414 454 99.4449 485.352 474.284
2363 0 61.1026 9.27947 567 98.1376 485.247 473.578
2364 0 63.0826 10.5576 666 97.9009 486.703 470.057
2365 0 64.1031 10.7327 688 97.6076 486.743 470.509
2366 0 65.0174 8.88993 578 101.327 486.111 471.085
2367 0 69.0467 11.5864 800 97.0212 485.428 470.256
2368 0 70.0801 9.80307 687 102.298 484.897 466.719
2369 0 72.0585 10.5747 762 102.415 485.01 467.014
2370 0 74.0527 10.4385 773 102.69 485.953 467.709
2371 0 78.092 11.1791 873 101.717 486.332 466.281
2372 0 77.1347 10.3066 795 106.214 486.502 462.509
2373 0 81.1662 10.3615 841 105.998 486.297 462.147
2374 0 81.1281 10.7115 869 107.17 486.396 460.644
2375 0 85.1017 10.4581 890 106.969 485.945 460.081
2376 0 87.1681 10.4625 912 108.582 485.924 454.69
2377 0 91.125 11.0727 1009 107.847 485.56 455.829
2378 0 94.1608 11.1193 1047 106.641 486.66 455.674
2379 0 95.1877 10.8312 1031 107.937 485.864 455.381
2380 0 100.179 12.1383 1216 104.562 485.304 454.063
2381 0 102.147 10.7003 1093 108.905 486.016 450.49
2382 1 59.062 9.9895 590 101.232 485.773 474.644
2383 0 60.2787 9.33995 563 102.469 484.675 472.682
2384 0 60.1116 9.61545 578 102.682 485.586 471.258
2385 0 61.1118 9.60535 587 115.342 487.564 471.613
2386 0 66.1281 10.3284 683 100.501 485.53 452.965
2387 0 57.0738 9.3563 534 100.755 486.285 460.242
2388 0 66.0526 11.839 782 102.781 486.96 468.706
2389 0 71.1955 11.8968 847 101.962 486.732 466.119
2390 0 70.0799 9.4749 664 108.87 487.274 468.131
2391 0 74.2013 12.493 927 101.936 487.036 467.344
2392 0 75.1504 11.6832 878 104.417 487.11 466.476
2393 0 79.1675 12.8588 1018 101.417 486.481 467.534
2394 0 80.1453 11.8909 953 104.898 486.857 467.203
2395 0 81.1439 11.646 945 107.457 486.372 465.63
2396 0 83.1299 12.282 1021 107.464 486.67 462.976
2397 0 86.1357 13.2001 1137 105.887 486.157 461.181
2398 0 88.2221 12.1965 1076 107.581 486.779 462.347
2399 0 89.2432 12.3931 1106 108.555 486.121 459.256
2400 0 91.1602 11.6718 1064 111.105 486.248 458.163
2401 0 94.2266 12.3638 1165 108.58 486.235 454.603
2402 0 97.3603 12.3664 1204 110.228 486.098 448.628
2403 0 101.217 12.7647 1292 110.644 486.405 446.433
2404 0 104.258 13.764 1435 109.929 485.631 448.055
2405 0 106.464 14.775 1573 108.375 486.463 445.067
2406 0 110.265 13.9664 1540 111.284 486.355 442.773
2407 0 111.286 13.7304 1528 112.666 486.385 445.688
2408 0 116.272 15.739 1830 105.832 486.411 449.127
2409 0 118.183 14.7144 1739 109.836 486.928 445.003
2410 0 124.138 14.8544 1844 108.784 487.258 440.416
2411 0 124.295 14.5299 1806 111.44 486.56 439.703
2412 0 128.166 14.2237 1823 111.945 486.209 436.716
2413 1 70.0756 11.2735 790 112.801 486.804 465.582
2414 0 73.1245 10.6394 778 113.522 486.308 465.895
2415 0 76.1211 11.8101 899 111.656 487.009 456.831
2416 0 79.1959 12.8163 1015 108.977 486.588 454.212
2417 0 81.1038 11.6148 942 112.725 485.622 453.23
2418 0 82.1617 12.232 1005 111.948 485.845 455.07
2419 0 85.1644 13.1628 1121 110.769 486.217 452.022
2420 0 88.1649 13.5882 1198 108.926 486.498 456.695
2421 0 90.1598 13.709 1236 109.977 486.059 455.737
2422 0 93.1502 13.9882 1303 109.346 485.883 456.028
2423 0 97.1648 13.4617 1308 110.466 486.391 453.525
2424 0 100.124 13.2136 1323 110.905 485.658 452.474
2425 0 102.131 13.3064 1359 109.776 485.851 453.021
2426 0 104.16 12.6536 1318 112.338 486.483 449.271
2427 1 63.0728 10.8763 686 111.882 485.867 472.359
2428 0 64.0753 12.7974 820 107.644 487.355 469.222
2429 0 65.135 12.0826 787 108.784 487.31 467.736
2430 0 68.1056 12.4219 846 110.045 485.736 470.344
2431 0 70.1033 13.2519 929 109.21 485.734 467.368
2432 0 71.1863 13.0222 927 110.133 485.839 468.512
2433 0 74.1019 12.8472 952 109.157 485.787 467.524
2434 0 77.1613 12.8951 995 106.528 487.025 466.313
2435 0 79.1324 12.7255 1007 107.009 487.052 464.591
2436 0 81.0672 13.1989 1070 106.521 487.45 462.965
2437 0 83.0466 12.8723 1069 107.474 487.223 463.861
2438 0 85.2816 12.9923 1108 110.458 486.389 457.33
2439 0 83.2192 12.9658 1079 112.716 486.839 454.713
2440 0 87.1788 12.7554 1112 113.235 486.493 457.013
2441 0 91.2136 14.1755 1293 110.594 487.029 455.616
2442 0 91.2642 13.9156 1270 113.013 487.268 455.598
2443 0 95.2244 14.4816 1379 111.708 487.35 454.46
2444 0 95.1206 13.0781 1244 116.1 488.005 447.859
2445 0 98.279 13.7873 1355 117.236 487.942 446.973
2446 0 101.162 13.3647 1352 118.334 487.598 446.505
2447 0 103.077 14.3484 1479 118.211 487.813 445.597
2448 0 106.258 12.5732 1336 122.445 487.141 446.131
2449 0 110.128 13.0666 1439 121.876 486.55 444.121
2450 0 113.147 13.319 1507 122.04 486.659 444.684
2451 0 116.253 13.7889 1603 120.499 486.734 442.726
2452 0 119.295 14.133 1686 119.572 485.993 440.937
2453 0 125.185 15.1056 1891 116.944 486.514 436.848
2454 0 128.236 13.6935 1756 121.429 486.687 434.836
2455 0 133.228 15.162 2020 117.574 487.558 432.035
2456 0 137.264 14.0313 1926 120.629 486.869 431.514
2457 0 143.219 13.8529 1984 119.951 486.672 428.114
2458 0 148.216 14.7959 2193 117.739 486.993 424.72
2459 0 153.16 14.3576 2199 118.07 486.482 425.736
2460 0 159.272 15.621 2488 115.878 485.837 423.832
2461 0 161.196 13.3688 2155 121.984 485.811 420.853
2462 0 168.376 13.8797 2337 120.981 486.528 419.627
2463 0 175.154 14.1818 2484 119.932 486.572 412.787
2464 1 90.1478 10.7823 972 116.028 486.343 458.872
2465 0 90.1034 10.4103 938 118.716 485.983 455.764
2466 0 93.1519 11.7228 1092 116.186 487.114 450.938
2467 0 100.211 12.8928 1292 111.351 486.834 450.885
2468 0 101.17 12.6817 1283 112.578 486.836 448.046
2469 0 104.184 12.1036 1261 113.476 487.515 448.417
2470 0 106.129 11.7121 1243 115.058 487.046 445.079
2471 0 110.148 12.6829 1397 111.571 486.351 447.635
2472 0 114.283 12.3815 1415 110.067 486.541 440.328
2473 0 117.446 13.1805 1548 109.274 486.336 439.208
2474 0 123.294 13.0825 1613 108.285 486.238 442.05
2475 0 127.178 13.0997 1666 108.92 486.13 437.348
2476 0 133.182 12.5767 1675 107.775 486.462 439.871
2477 0 137.338 13.4704 1850 104.119 487.163 428.681
2478 0 142.382 13.0213 1854 103.902 487.009 429.19
2479 1 61.0739 10.1025 617 100.921 487.642 467.566
2480 0 62.1649 11.936 742 100.544 487.616 469.584
2481 0 63.2049 12.5149 791 103.274 486.877 470.893
2482 0 67.1414 13.479 905 105.752 487.692 470.076
2483 0 69.1134 13.0221 900 105.629 487.21 470.329
2484 0 69.086 12.4193 858 109.149 487.023 468.427
2485 0 71.1684 12.084 860 109.501 487.26 467.59
2486 0 75.2303 12.8406 966 106.742 487.048 465.273
2487 0 76.1726 12.5505 956 109.176 486.934 465.667
2488 0 78.3577 12.9151 1012 108.343 486.969 466.275
2489 0 81.1993 12.4262 1009 109.838 486.907 461.097
2490 0 83.2896 12.1144 1009 110.971 486.831 457.736
2491 0 86.3255 13.3217 1150 108.382 487.24 456.711
2492 0 89.3849 13.7943 1233 107.762 487.134 457.071
2493 0 92.3492 13.6764 1263 109.43 486.906 454.623
2494 0 99.2892 17.1116 1699 98.6716 486.43 449.609
2495 0 98.4791 14.0842 1387 110.072 486.266 447.081
2496 0 98.3935 12.2569 1206 116.871 486.502 446.28
2497 0 104.411 14.4333 1507 111.414 486.416 447.097
2498 0 107.403 14.4595 1553 112.265 486.319 446.068
2499 0 112.332 13.5402 1521 111.473 485.867 442.837
2500 0 113.29 13.8406 1568 112.811 486.04 440.712
2501 1 68.0911 11.7343 799 116.8 486.249 464.728
2502 0 68.1045 12.6423 861 117.384 486.016 465.474
2503 0 72.128 12.9908 937 115.919 485.951 465.735
2504 0 74.1538 13.2158 980 117.069 486.174 454.953
2505 0 78.1499 13.7428 1074 114.992 486.288 452.131
2506 0 79.095 14.413 1140 113.577 486.365 454.746
2507 0 80.2328 12.8252 1029 118.923 486.151 455.315
2508 0 81.1867 12.8346 1042 119.767 486.765 457.315
2509 0 85.1464 13.5296 1152 117.875 486.618 456.938
2510 0 87.0549 13.9108 1211 117.332 486.193 455.976
2511 0 91.0743 13.78 1255 117.61 486.626 456.935
2512 0 92.1432 13.479 1242 119.204 486.49 455.841
2513 0 96.1848 13.2765 1277 120.261 486.054 453.807
2514 0 101.145 14.6128 1478 115.941 486.461 453.746
2515 0 104.203 14.8652 1549 115.974 486.657 452.568
2516 0 107.077 14.158 1516 118.87 486.513 449.825
2517 0 110.167 14.3146 1577 118.918 486.003 448.907
2518 0 113.092 14.139 1599 120.173 486.576 447.438
2519 1 66.073 11.1392 736 114.537 487.461 473.315
2520 0 69.0709 11.4375 790 115.314 487.297 471.761
2521 0 72.1049 12.0103 866 115.098 487.652 469.173
2522 0 74.0569 11.6127 860 115.62 487.109 468.73
2523 0 77.1654 12.8425 991 115.562 488.029 466.431
2524 0 78.0908 12.2678 958 118.7 487.352 465.353
2525 0 80.0826 12.1999 977 118.027 487.427 466.381
2526 0 82.1464 11.8447 973 119.758 487.732 464.316
2527 0 86.0994 13.6354 1174 115.187 487.971 463.379
2528 0 88.1531 12.4443 1097 117.785 488.075 461.903
2529 0 91.177 12.7774 1165 116.861 487.547 460.6
2530 0 94.2668 13.5573 1278 116.048 488.297 457.963
2531 0 97.1357 12.5083 1215 119.44 487.845 454.458
2532 0 98.1363 11.6878 1147 122.555 488.14 452.269
2533 0 103.202 11.9474 1233 122.177 488.526 450.521
2534 0 106.226 13.3301 1416 118.505 487.852 450.737
2535 0 108.296 13.1491 1424 120.136 487.845 448.07
2536 0 111.159 11.9199 1325 121.812 488.804 448.906
2537 0 112.311 10.3641 1164 124.629 488.442 448.351
2538 0 119.242 13.0575 1557 119.306 488.033 444.13
2539 0 121.242 11.4564 1389 123.418 487.651 440.919
2540 0 128.23 13.6396 1749 117.23 486.931 436.408
2541 1 68.1572 10.0356 684 119.734 486.82 465.152
2542 0 73.0574 11.4294 835 115.768 487.087 465.922
2543 0 75.0733 11.9616 898 113.901 487.55 465.488
2544 0 78.0218 11.8941 928 115.2 487.884 463.523
2545 0 83.2122 12.4141 1033 113.214 488.053 461.07
2546 0 83.0566 11.0286 916 116.721 488.118 459.178
2547 0 87.07 12.7369 1109 112.782 487.911 456.94
2548 0 90.0878 13.4868 1215 111.023 488.07 456.794
2549 0 92.053 12.3516 1137 113.951 488.333 453.878
2550 0 94.0779 11.8838 1118 115.814 488.003 451.669
2551 0 99.0818 12.737 1262 113.059 487.498 449.578
2552 0 101.094 12.0779 1221 115.215 487.974 448.627
2553 0 105.082 12.0192 1263 115.559 488.091 449.197
2554 0 109.217 12.9742 1417 113.799 487.862 445.2
2555 0 110.163 11.7917 1299 117.27 487.186 444.654
2556 0 114.138 12.3972 1415 116.677 487.578 440.476
2557 0 117.21 12.2174 1432 116.874 487.473 441.851
2558 0 123.137 13.7976 1699 113.861 487.044 439.212
2559 0 127.13 13.6632 1737 115.067 487.344 437.024
2560 0 130.101 14.3427 1866 114.904 487.565 434.847
2561 0 133.171 13.2311 1762 117.984 488.184 434.264
2562 0 140.16 14.6832 2058 114.664 487.672 430.178
2563 0 144.202 15.617 2252 113.133 487.428 429.461
2564 0 149.443 13.4432 2009 117.993 487.767 427.467
2565 1 86.2263 14.2648 1230 111.428 488.246 458.571
2566 0 87.3037 13.6649 1193 114.979 487.658 456.011
2567 0 89.2385 14.0186 1251 114.612 487.679 454.371
2568 0 93.2687 15.9432 1487 109.511 487.196 452.793
2569 0 94.2171 14.0951 1328 115.741 487.245 451.177
2570 0 97.5179 14.3974 1404 115.541 487.534 448.528
2571 0 98.1822 14.2185 1396 118.248 487.172 451.893
2572 0 103.19 14.73 1520 117.684 487.683 447.761
2573 0 104.362 14.8138 1546 118.539 488.156 447.26
2574 0 109.128 15.2207 1661 117.58 488.125 447.801
2575 0 110.223 14.2983 1576 121.451 488.046 446.559
2576 0 114.134 14.3604 1639 120.243 488.235 444.607
2577 0 120.285 14.6985 1768 119.367 487.981 442.395
2578 0 122.191 15.4594 1889 119.087 487.35 439.46
2579 0 126.45 14.5829 1844 120.882 487.491 439.893
2580 0 132.328 14.6757 1942 120.814 487.144 439.142
2581 0 136.272 15.946 2173 120.067 487.453 433.184
2582 0 141.256 15.5674 2199 121.588 486.662 432.302
2583 0 141.261 15.5598 2198 163.339 485.648 432.399
2584 1 87.2143 12.1884 1063 125.108 487.619 462.643
2585 0 87.1779 12.9276 1127 127.173 487.178 460.249
2586 0 86.0997 13.4844 1161 129.283 487.281 458.848
2587 0 90.3208 15.8657 1433 123.828 487.616 457.065
2588 0 92.0682 14.3589 1322 130.438 487.988 454.098
2589 0 95.2004 15.3256 1459 128.693 487.653 453.204
2590 0 98.0829 15.0995 1481 129.93 487.855 453.151
2591 0 101.167 15.519 1570 129.601 487.901 452.733
2592 0 104.127 16.1245 1679 128.076 487.44 449.628
2593 0 108.151 15.7096 1699 129.137 487.976 449.012
2594 0 110.233 15.2495 1681 131.255 487.434 447.924
2595 0 115.174 16.0366 1847 128.666 487.833 444.136
2596 0 118.221 16.5623 1958 127.441 487.554 443.577
2597 0 121.116 15.3655 1861 130.778 487.893 443.097
2598 0 129.244 18.91 2444 118.2 487.905 437.063
2599 0 128.22 14.8339 1902 132.031 488.368 438.106
2600 0 134.193 15.2318 2044 129.615 488.04 437.44
2601 1 69.2572 13.7025 949 134.987 489.007 466.086
2602 0 72.1105 13.7705 993 135.452 488.034 466.332
2603 0 75.1174 14.2577 1071 136.258 488.625 463.028
2604 0 79.0817 16.5272 1307 128.181 488.692 460.351
2605 0 83.1763 18.6351 1550 120.733 489.141 457.628
2606 0 85.1437 16.5133 1406 128.972 488.573 457.514
2607 0 86.1736 16.4784 1420 130.59 488.903 456.51
2608 0 87.087 16.2596 1416 132.607 488.906 458.328
2609 0 91.067 15.4502 1407 134.871 489.451 456.849
2610 0 94.0965 15.8454 1491 133.924 489.781 453.753
2611 0 96.1034 14.3595 1380 137.722 489.566 453.274
2612 0 100.141 16.3569 1638 131.458 488.868 451.69
2613 0 105.112 17.1721 1805 126.519 489.305 450.271
2614 0 108.116 16.177 1749 128.226 489.287 449.453
2615 0 112.186 14.4047 1616 132.718 489.074 447.809
2616 0 116.144 16.0147 1860 129.199 489.066 443.688
2617 0 119.153 14.729 1755 132.173 489.038 441.524
2618 0 121.198 14.9012 1806 132.333 488.276 434.195
2619 0 127.367 14.9803 1908 132.148 488.483 434.362
2620 0 131.285 14.4266 1894 132.18 488.42 435.005
2621 0 135.144 15.7684 2131 129.656 488.304 431.955
2622 0 140.239 15.0315 2108 131.791 488.63 432.284
2623 0 144.269 14.667 2116 133.41 488.113 430.876
2624 0 150.248 15.8604 2383 129.377 488.508 430.406
2625 0 153.192 15.745 2412 131.294 488.431 427.514
2626 0 160.211 15.3548 2460 131.105 488.123 425.82
2627 0 164.146 15.9492 2618 130.96 488.209 421.803
2628 0 168.216 15.2126 2559 133.988 488.048 416.499
2629 0 174.251 15.9425 2778 131.582 487.902 415.03
2630 0 180.257 15.7553 2840 131.246 487.805 410.909
2631 0 184.121 16.1905 2981 132.063 487.013 395.906
2632 0 191.377 16.3969 3138 130.825 486.643 394.969
2633 0 197.361 16.2595 3209 131.447 486.692 396.142
2634 0 204.39 16.0918 3289 132.635 486.656 392.989
2635 0 210.38 15.7857 3321 134.171 486.11 393.47
2636 0 213.379 15.1842 3240 138.338 486.248 389.681
2637 0 223.287 15.8809 3546 136.642 485.574 387.303
2638 0 231.361 16.377 3789 135.96 485.439 383.852
2639 0 239.485 15.788 3781 137.804 485.514 384.003
2640 0 249.573 16.6445 4154 136.539 485.6 377.984
2641 1 183.366 14.0103 2569 142.201 485.804 406.919
2642 0 188.249 12.8553 2420 147.019 486.369 404.639
2643 0 197.257 15.457 3049 140.137 485.411 403.299
2644 0 207.387 16.8284 3490 136.635 485.171 390.635
2645 0 212.169 15.7186 3335 142.052 485.581 392.855
2646 0 218.226 13.8389 3020 148.683 485.147 387.964
2647 0 228.404 15.1398 3458 143.554 485.308 382.124
2648 0 236.221 14.3214 3383 145.888 485.202 379.589
2649 0 244.342 13.7881 3369 149.642 485.226 374.285
2650 1 196.455 13.3059 2614 144.173 485.056 405.401
2651 0 202.241 12.9845 2626 147.361 485.234 397.653
2652 0 214.585 16.9164 3630 135.467 485.226 391.556
2653 0 219.329 14.6538 3214 143.361 484.034 391.137
2654 0 228.407 13.6029 3107 145.417 484.433 387.541
2655 0 237.4 13.2687 3150 147.532 485.077 376.525
2656 0 236.483 8.74482 2068 151.113 484.475 393.071
2657 0 238.349 9.19661 2192 145.839 484.953 397.133
2658 1 64.1258 10.3858 666 120.359 486.91 472.156
2659 0 65.0608 10.006 651 113.601 485.025 471.897
2660 0 70.0764 10.7311 752 119.11 484.931 468.363
2661 0 68.1117 8.32456 567 125.739 485.16 465.709
2662 0 74.1237 10.8332 803 119.579 485.822 466.423
2663 1 18.0357 5.26734 95 102.737 487.905 495.947
2664 0 16.0127 3.68459 59 105.034 487.22 495.051
2665 0 19.0786 4.76975 91 103.582 487.242 494.055
2666 0 20.0033 5.89903 118 102.712 487.161 493.686
2667 0 19.0332 7.98603 152 97.625 487.092 494.697
2668 0 21.0072 6.18836 130 101.715 487.462 493.231
2669 0 18.0375 5.59944 101 97.5248 483.277 489.475
2670 0 24.0267 7.24193 174 95.3966 484.454 487.994
2671 0 23.159 5.87246 136 95.7868 483.691 487.559
2672 0 22.0203 7.99261 176 99.6193 483.108 490.949
2673 0 21.0521 6.74516 142 100.162 483.634 491.993
2674 0 18.0446 5.26474 95 103.958 482.684 491.442
2675 0 26.0334 6.99101 182 103.099 483.445 487.571
2676 0 27.0479 8.50344 230 100.078 483.77 487.322
2677 0 24.1717 7.03303 170 98.3235 484.765 481.347
2678 1 118.338 11.9911 1419 121.109 484.961 437.661
2679 0 135.27 13.255 1793 106.925 485.731 421.4
2680 0 129.298 15.7389 2035 107.065 486.028 430.921
2681 0 129.328 13.8175 1787 114.567 485.744 432.83
2682 0 134.517 13.909 1871 115.154 485.643 431.978
2683 1 64.3798 9.66142 622 109.254 486.203 464.741
2684 0 68.491 11.3446 777 104.852 486.426 466.78
2685 0 70.0931 12.2837 861 106.206 486.84 460.006
2686 0 68.156 11.5177 785 112.222 487.197 458.84
2687 0 72.1191 12.3684 892 110.464 486.867 462.568
2688 0 72.2062 10.3869 750 116.125 486.956 465.192
2689 0 74.1726 12.7945 949 111.479 487.205 463.712
2690 0 76.1091 12.4427 947 113.4 487.028 460.111
2691 0 77.2082 12.2267 944 114.639 486.856 462.464
2692 0 78.1946 11.5609 904 116.868 487.508 459.721
2693 0 82.2563 12.5097 1029 112.527 487.215 460.514
2694 0 81.1352 12.2512 994 115.703 487.229 456.892
2695 0 85.3117 13.2221 1128 113.705 486.442 455.29
2696 0 89.2207 12.8446 1146 114.769 486.442 455.355
2697 0 89.1422 12.3286 1099 116.974 486.571 451.245
2698 0 93.0888 15.5228 1445 107.575 486.173 450.671
2699 0 94.0802 13.9243 1310 113.484 486.378 447.867
2700 0 96.0827 13.7069 1317 115.577 486.475 448.897
2701 0 99.091 12.3523 1224 119.74 485.702 448.228
2702 0 100.046 12.1644 1217 121.476 485.631 447.477
2703 0 110.05 17.3103 1905 104.882 485.998 439.035
2704 0 107.245 13.8654 1487 118.734 486.231 441.549
2705 0 109.267 13.2154 1444 121.307 486.461 440.751
2706 0 113.207 13.5504 1534 119.177 486.211 438.22
2707 0 115.113 14.0992 1623 116.959 486.481 439.261
2708 0 117.34 13.0817 1535 120.332 486.076 436.418
2709 0 122.181 12.9562 1583 118.946 485.979 433.496
2710 0 125.19 13.3557 1672 117.396 486.052 432.776
2711 0 121.094 12.0319 1457 121.178 486.44 424.149
2712 0 130.18 13.3584 1739 116.113 486.281 427.501
2713 0 134.219 13.7015 1839 113.322 486.106 429.22
2714 0 138.206 12.7057 1756 115.749 485.766 426.132
2715 0 143.077 13.8876 1987 113.537 485.929 426.55
2716 0 145.099 12.8395 1863 116.68 486.247 420.504
2717 0 148.241 13.1745 1953 116.838 486.485 421.735
2718 0 153.114 14.486 2218 114.324 486.294 416.435
2719 1 94.1887 11.3177 1066 112.786 486.83 445.891
2720 0 99.0894 9.5772 949 116.949 486.713 442.49
2721 0 98.0928 10.9386 1073 114.276 486.005 441.58
2722 0 104.088 11.9227 1241 110.277 485.746 443.524
2723 0 108.268 12.4229 1345 108.787 487.195 440.588
2724 0 111.137 13.5599 1507 108.141 487.052 436.705
2725 0 110.22 11.2049 1235 113.48 486.915 433.782
2726 0 116.151 11.5798 1345 111.927 486.803 433.909
2727 0 117.155 12.7864 1498 109.737 486.988 433.182
2728 0 122.087 12.9908 1586 108.987 486.742 430.376
2729 0 126.274 12.0848 1526 110.612 486.741 428.356
2730 0 128.106 13.2468 1697 107.793 487.694 427.298
2731 0 131.186 12.326 1617 109.148 488.048 425.71
2732 0 134.13 12.6519 1697 108.947 487.354 420.796
2733 0 137.133 12.6155 1730 108.194 487.427 421.341
2734 0 142.07 12.3882 1760 108.386 487.441 420.677
2735 0 152.269 16.0899 2450 98.5163 486.654 407.361
2736 0 152.184 14.949 2275 102.629 486.746 413.589
2737 0 155.199 12.5323 1945 108.724 486.671 414.622
2738 0 160.195 12.9405 2073 108.176 486.836 409.439
2739 0 161.151 12.1253 1954 109.29 486.917 406.967
2740 0 167.205 11.2915 1888 111.302 486.821 402.361
2741 0 171.231 13.508 2313 107.113 486.738 400.971
2742 1 181.289 13.6247 2470 107.242 486.201 399.853
2743 0 182.202 12.0581 2197 113.213 486.415 396.163
2744 0 188.223 14.8919 2803 105.462 486.583 393.126
2745 0 193.212 13.3015 2570 108.369 487.099 393.719
2746 0 195.285 12.7403 2488 109.67 487.046 389.619
2747 0 202.265 12.6072 2550 111.922 486.581 384.927
2748 0 208.285 13.3327 2777 111.243 486.927 381.248
2749 0 214.34 13.278 2846 113.626 486.69 375.046
2750 1 226.3 14.9889 3392 108.169 486.659 367.251
2751 0 234.338 14.2785 3346 109.018 486.741 369.988
2752 0 240.391 13.4573 3235 111.255 487.576 364.516
2753 0 249.322 14.1023 3516 109.948 486.625 365.364
2754 0 248.288 13.5125 3355 111.975 487.29 360.331
2755 1 354.518 4.69087 1663 122.799 487.456 370.256
2756 0 357.493 6.95399 2486 118.917 487.177 363.596
2757 1 196.468 12.1394 2385 108.513 487.524 396.496
2758 0 204.344 10.3062 2106 112.254 487.978 394.233
2759 0 214.538 13.261 2845 106.669 487.788 395.549
2760 0 220.422 13.0976 2887 109.143 486.387 390.569
2761 0 226.446 13.023 2949 109.978 486.326 385.053
2762 0 234.358 14.7766 3463 106.18 486.693 386.427
2763 0 241.428 14.116 3408 108.665 486.58 378.205
2764 0 248.52 13.9948 3478 110.271 486.309 373.345
2765 0 255.431 14.8651 3797 109.093 486.78 366.7
2766 0 263.312 12.715 3348 111.935 486.013 357.136
2767 0 270.398 13.9165 3763 112.576 485.657 350.242
2768 0 280.56 13.4909 3785 113.717 486.133 346.904
2769 1 290.456 14.4704 4203 111.039 485.896 345.441
2770 0 310.625 22.2841 6922 91.8171 486.438 318.243
2771 1 283.44 7.2996 2069 111.345 486.656 400.701
2772 0 284.434 7.95966 2264 116.151 486.301 381.655
2773 0 287.542 10.3568 2978 113.866 486.462 378.114
2774 0 285.595 13.26 3787 112.814 486.603 355.866
2775 0 296.433 13.9863 4146 112.028 486.676 350.32
2776 1 174.229 11.4046 1987 112.14 486.766 405.372
2777 0 181.417 13.6867 2483 108.192 486.702 404.437
2778 0 184.332 11.6909 2155 113.327 486.6 398.354
2779 0 194.305 11.9863 2329 111.816 486.42 399.98
2780 0 199.492 12.7474 2543 111.072 486.756 394.558
2781 0 205.29 11.7151 2405 114.397 486.045 388.446
2782 0 215.459 12.4989 2693 111.727 486.077 392.114
2783 0 219.293 12.8321 2814 112.65 486.265 384.468
2784 0 227.289 12.8867 2929 113.051 485.953 380.252
2785 0 235.287 13.8639 3262 111.251 485.604 377.559
2786 0 240.321 12.862 3091 114.151 485.935 372.578
2787 0 249.339 13.4315 3349 112.207 486.66 374.85
2788 0 258.387 13.9868 3614 112.075 486.091 350.765
2789 0 265.511 15.5963 4141 107.134 486.242 339.333
2790 0 272.567 15.4714 4217 107.601 486.961 337.957
2791 1 78.1878 7.62267 596 99.5419 487.834 443.878
2792 0 79.1758 8.62637 683 97.8785 486.982 445.337
2793 0 80.1732 10.5896 849 95.6196 487.36 442.655
2794 0 82.2115 9.54855 785 98.7567 487.727 442.149
2795 0 83.1747 9.07728 755 99.1894 487.554 448.355
2796 0 88.1498 9.93763 876 97.5559 487.975 450.784
2797 0 89.1863 10.6406 949 100.349 487.92 450.896
2798 0 93.1429 11.0475 1029 100.039 487.689 449.299
2799 0 96.0967 11.0826 1065 100.286 487.331 449.421
2800 0 98.1082 11.0083 1080 99.3602 488.105 452.573
2801 0 102.089 12.0091 1226 98.9666 487.932 449.234
2802 0 102.209 12.2689 1254 99.8868 487.374 447.868
2803 0 106.112 11.893 1262 101.208 486.607 448.567
2804 0 106.051 10.4006 1103 106.85 486.816 444.939
2805 0 110.062 11.0665 1218 106.284 486.574 440.636
2806 0 113.128 12.614 1427 104.224 486.072 441.092
2807 0 116.114 12.126 1408 107.484 486.423 432.453
2808 0 119.116 11.3503 1352 109.152 486.615 437.246
2809 0 120.078 11.4176 1371 110.628 487.244 434.39
2810 0 125.092 12.3669 1547 108.747 487.089 433.39
2811 0 129.086 12.6273 1630 109.644 486.711 429.537
2812 0 136.225 14.7476 2009 103.298 486.455 427.319
2813 0 142.13 15.9854 2272 101.154 486.575 425.439
2814 0 415.002 12.9493 5374 115.112 486.521 274.197
2815 0 146.185 16.7596 2450 101.871 486.696 422.015
2816 0 148.173 15.5494 2304 106.365 486.866 420.117
2817 0 150.136 15.8123 2374 106.799 486.445 421.665
2818 0 153.289 15.6763 2403 109.539 486.559 402.801
2819 0 157.224 15.1504 2382 111.361 486.405 404.482
2820 0 161.279 15.8049 2549 108.557 486.471 399.938
2821 0 163.22 15.3107 2499 111.214 486.671 407.288
2822 0 168.155 15.8188 2660 108.801 486.412 404.864
2823 0 171.292 14.846 2543 112.892 486.001 400.368
2824 1 16.0169 4.99471 80 82.275 488.175 485.8
2825 0 11.0026 4.27173 47 82.1702 487.808 488.532
2826 0 17.0209 5.28763 90 79.7778 487.022 489.122
2827 0 13.0102 5.22666 68 80.6912 487.147 490.471
2828 0 19.0346 3.99272 76 86.1842 485.408 488.829
2829 1 139.211 9.71185 1352 124.697 485.538 431.939
2830 0 143.158 11.9239 1707 121.201 485.94 430.583
2831 0 146.195 11.3889 1665 125.003 486.366 423.969
2832 0 152.204 12.9432 1970 117.834 486.161 427.477
2833 0 154.187 13.2696 2046 118.061 486.064 424.409
2834 0 158.117 12.5919 1991 119.227 486.736 425.309
2835 0 165.242 13.7132 2266 117.177 486.77 420.295
2836 0 169.524 13.4258 2276 118.051 486.14 420.423
2837 0 173.25 13.2525 2296 121.178 485.382 411.14
2838 0 180.214 13.0678 2355 120.851 486.367 412.983
2839 0 182.168 11.7639 2143 126.956 485.79 399.523
2840 0 194.235 19.0646 3703 105.461 485.566 393.306
2841 0 198.402 15.4081 3057 115.416 485.948 398.458
2842 1 34.0231 6.31924 215 91.6233 487.484 491.149
2843 0 36.0246 8.2166 296 90.1655 487.044 486.307
2844 0 39.1698 6.12718 240 93.2042 487.846 486.008
2845 0 40.2323 7.40698 298 90.5738 487.074 485.96
2846 0 37.0531 6.50418 241 92.3859 487.407 487.556
2847 0 38.0518 6.54371 249 91.3775 486.47 486.839
2848 0 40.0642 8.81087 353 87.8924 485.601 483.822
2849 0 38.0963 6.90356 263 91.057 484.471 485.399
2850 0 40.1374 7.39958 297 90.4613 484.808 480.226
2851 0 43.1193 8.67361 374 88.1497 484.192 479.313
2852 0 43.1175 7.49115 323 91.161 483.827 480.142
2853 0 42.2041 8.22195 347 88.8991 484.686 476.66
2854 0 43.235 8.85856 383 86.8538 484.702 479.969
2855 0 44.1874 7.0382 311 89.5434 484.376 477.17
2856 0 46.0585 8.72803 402 86.6144 484.739 477.398
2857 0 46.3782 8.45226 392 89.324 484.778 476.944
2858 0 46.2225 7.48553 346 89.8006 484.393 478.159
2859 0 47.1914 7.84041 370 89.573 484.514 479.914
2860 0 49.1691 10.4334 513 85.4094 484.934 469.721
2861 0 50.212 10.0972 507 84.8915 484.485 467.578
2862 0 48.1971 8.21625 396 87.8005 484.884 469.909
2863 0 51.2106 9.7636 500 85.922 484.864 465.24
2864 0 52.2648 8.80133 460 86.8304 484.511 468.846
2865 0 49.2248 8.93858 440 87.6659 484.302 471.639
2866 0 53.1276 10.4089 553 85.3128 484.548 473.781
2867 0 50.1139 9.01946 452 87.7389 484.907 479.832
2868 0 52.1767 8.49038 443 88.4537 485.269 476.14
2869 0 52.1205 9.66991 504 86.3929 485.468 476.514
2870 0 51.127 8.35174 427 89.178 484.948 476.201
2871 0 52.125 8.63309 450 87.66 485.564 477.367
2872 0 57.2352 8.71842 499 84.5611 486.693 477.232
2873 1 35.1162 8.60001 302 90.1821 483.732 478.709
2874 0 32.039 7.24117 232 86.806 483.957 473.276
2875 0 30.1591 7.0957 214 83.2336 485.575 479.883
2876 0 33.0691 8.58807 284 89.912 486.75 485.57
2877 0 35.1067 10.7672 378 89.0952 486.347 488.36
2878 0 34.1137 10.2598 350 92.42 485.763 488.231
2879 0 34.1075 9.20618 314 93.4108 486.083 486.634
2880 0 36.0931 10.0296 362 93.7597 486.365 487.539
2881 0 36.1244 10.4915 379 94.1926 485.921 487.955
2882 0 38.1029 9.63182 367 94.951 486.967 485.428
2883 0 38.096 9.37105 357 94.042 486.286 485.314
2884 0 38.0348 9.38614 357 95.3501 485.969 484.095
2885 0 38.0142 10.0489 382 95.3403 485.762 486.005
2886 0 37.0848 10.9209 405 98.8988 486.565 487.553
2887 0 38.1412 11.405 435 97.7908 486.586 487.467
2888 0 38.0291 11.123 423 99.1324 486.884 486.501
2889 0 36.045 9.98751 360 104.653 486.761 488.153
2890 0 38.0597 10.1157 385 103.891 486.935 486.904
2891 0 37.0409 9.476 351 104.356 487.034 484.983
2892 0 37.2233 9.2684 345 103.342 486.186 484.754
2893 0 38.2653 9.72159 372 103.118 485.895 483.976
2894 0 38.2101 11.2797 431 99.1995 486.172 484.267
