time division length width area intensity CMx CMy
0 0 83.1406 13.8921 1155 106.757 437.049 458.879
1 0 85.1469 12.9189 1100 110.026 436.375 456.316
2 0 89.364 12.8128 1145 109.231 436.251 456.137
3 0 91.0652 12.7711 1163 109.745 435.819 455.11
4 1 41.0407 10.8673 446 103.274 436.928 478.043
5 0 45.055 11.5193 519 102.418 436.794 479.324
6 0 47.0223 11.2287 528 102.513 436.47 480.267
7 0 45.0218 9.75082 439 107.41 436.599 480.569
8 0 48.0301 11.8676 570 103.577 437.437 478.723
9 0 59.0895 12.7095 751 93.3475 437.587 473.337
10 0 63.2102 14.871 940 87.2979 436.783 469.448
11 0 68.1778 13.9488 951 88.6204 437.283 470.02
12 0 69.1262 12.1662 841 94.692 439.319 470.076
13 0 67.1619 14.9489 1004 91.1703 438.962 468.54
14 0 65.1399 16.549 1078 90.4304 439.23 466.163
15 0 64.041 14.3033 916 99.5939 439.263 470.023
16 0 64.285 13.549 871 103.157 438.194 471.289
17 0 65.0934 11.7523 765 114.665 438.644 466.765
18 0 68.0557 12.6073 858 111.424 438.452 469.253
19 0 69.0709 13.6961 946 108.857 437.803 467.418
20 0 72.1072 14.2704 1029 107.109 437.465 466.386
21 0 73.0635 12.934 945 110.502 437.898 465.042
22 0 76.1157 13.8605 1055 108.209 438.071 463.877
23 0 79.1832 13.4751 1067 109.67 437.514 461.971
24 0 80.0663 13.2016 1057 111.406 437.215 461.732
25 0 84.2219 13.2626 1117 111.088 438.011 460.392
26 0 85.1182 12.841 1093 112.312 438.249 460.436
27 0 90.2405 13.0429 1177 111.143 437.031 457.884
28 0 94.1276 14.1191 1329 109.445 438.525 454.991
29 0 98.1081 14.0559 1379 109.425 437.948 454.395
30 1 51.0779 13.5871 694 108.415 437.978 475.764
31 0 54.0397 13.6196 736 108.299 438.046 475.77
32 0 54.0318 12.4741 674 114.476 438.172 475.282
33 0 55.0515 13.0242 717 108.774 437.849 476.859
34 0 58.0318 13.8545 804 107.199 438.522 475.131
35 0 60.0649 13.1524 790 109.554 438.524 472.673
36 0 62.094 12.771 793 110.724 437.276 470.488
37 0 63.1814 12.9785 820 111.955 437.733 470.168
38 0 67.0323 13.1877 884 111.023 437.507 469.275
39 0 69.0741 13.4493 929 111.537 437.355 467.618
40 0 72.1428 14.2357 1027 109.652 437.409 466.429
41 0 77.2066 14.105 1089 111 437.931 464.507
42 0 77.1356 13.9106 1073 111.678 438.651 462.84
43 0 82.1197 14.7224 1209 109.553 437.951 461.352
44 0 84.1393 14.8088 1246 108.828 438.498 459.629
45 0 88.1066 14.3349 1263 110.548 437.804 459.017
46 0 90.1078 13.4062 1208 112.099 438.157 459.197
47 1 48.1193 11.8663 571 116.706 437.877 477.562
48 0 49.0981 12.6685 622 115.682 437.707 476.248
49 0 50.0752 12.5212 627 114.793 437.558 475.099
50 0 49.149 12.6554 622 112.059 438.053 475.111
51 0 52.2848 13.3691 699 110.064 437.731 474.454
52 0 54.0965 13.1062 709 110.618 437.969 475.137
53 0 55.0687 13.2925 732 111.572 438.22 472.794
54 0 58.0928 14.1498 822 108.911 438.667 472.669
55 0 62.16 13.3526 830 109.02 438.493 473.741
56 0 62.0772 13.5638 842 110.321 438.476 472.945
57 0 63.0931 12.9174 815 113.709 437.675 470.388
58 0 68.2173 13.5156 922 110.999 438.247 469.666
59 0 68.0948 13.5546 923 112.829 438.415 466.309
60 0 71.1519 13.8155 983 112.549 437.752 465.45
61 0 73.1601 13.3269 975 113.628 437.625 464.264
62 0 76.1901 13.6632 1041 112.409 438.046 463.845
63 0 79.0789 13.4296 1062 113.298 437.341 461.685
64 0 82.1048 12.9712 1065 114.088 438.191 460.705
65 0 84.0801 13.3325 1121 112.904 439.051 459.703
66 0 86.1798 13.4486 1159 113.465 438.509 457.464
67 0 91.2541 13.7638 1256 113.317 438.826 457.932
68 1 48.1259 11.8231 569 112.886 438.601 476.984
69 0 47.0929 11.8702 559 114.343 438.662 474.615
70 0 52.0823 13.0371 679 115.321 438.919 477.345
71 0 54.045 12.4526 673 116.75 439.189 478.204
72 0 56.0553 13.8078 774 114.652 438.283 474.049
73 0 58.0817 12.9473 752 115.311 438.247 474.524
74 0 60.0548 13.3545 802 114.723 437.707 474.052
75 0 62.131 12.8277 797 116.334 438.114 473.188
76 0 63.2663 13.3404 844 116.251 438.037 471.961
77 0 64.1228 12.4449 798 119.313 438.33 472.381
78 0 66.221 13.8476 917 116.504 437.725 469.239
79 0 70.1305 13.3608 937 116.724 437.263 467.776
80 0 72.1684 12.942 934 118.355 437.345 466.179
81 0 75.0726 12.7477 957 117.979 437.498 465.357
82 0 78.0929 12.8437 1003 117.269 437.706 464.952
83 0 79.0888 12.7705 1010 117.373 437.918 464.129
84 0 83.1156 12.5127 1040 117.809 437.819 463.512
85 0 87.1144 12.3516 1076 116.849 437.784 462.167
86 0 89.0654 11.9912 1068 117.965 438.304 460.799
87 1 46.016 12.6261 581 111.105 437.83 480.587
88 0 49.0347 13.7454 674 108.789 437.96 479.994
89 0 49.0709 12.757 626 112.537 437.936 479.92
90 0 50.0289 11.1336 557 114.126 438.237 480.047
91 0 52.0381 11.972 623 112.44 437.995 478.185
92 0 54.112 12.3633 669 112.154 438.466 476.647
93 0 56.1185 12.6162 708 110.846 438.579 477.072
94 0 58.0289 11.994 696 112.397 437.075 475.53
95 0 61.0449 13.4163 819 117.076 437.853 473.205
96 0 65.029 12.9942 845 117.917 437.059 472.17
97 0 65.1132 12.2095 795 121.823 436.438 470.912
98 0 68.0265 13.774 937 117.511 436.173 468.81
99 0 69.1092 12.6756 876 113.428 436.255 469.682
100 0 73.1093 13.4593 984 107.586 436.547 467.581
101 0 75.0514 13.6573 1025 108.211 436.079 465.691
102 0 76.0737 13.5526 1031 109.458 435.835 464.513
103 0 79.04 12.8543 1016 111.194 436.71 465.362
104 0 80.1879 12.0218 964 114.243 436.23 463.399
105 0 86.0825 12.9759 1117 110.716 436.639 463.625
106 0 87.2027 12.7978 1116 111.127 436.252 462.72
107 1 45.0463 11.8767 535 108.606 436.252 479.987
108 0 46.0531 11.617 535 109.325 436.716 478.456
109 0 48.0101 12.7681 613 105.819 436.268 478.646
110 0 49.0541 11.3548 557 105.269 436.09 477.953
111 0 49.0831 11.5315 566 105.541 436.701 479.481
112 0 52.0241 11.8599 617 104.284 436.658 479.405
113 0 54.1052 11.9951 649 99.2666 437.079 479.716
114 0 55.042 11.8092 650 97.2569 436.351 475.954
115 0 56.1144 11.2449 631 98.1363 437.095 476.087
116 0 61.0257 13.4697 822 93.6533 436.631 475.533
117 0 61.0637 12.4952 763 97.0026 436.444 476.553
118 0 61.1777 12.5699 769 98.3212 436.698 472.142
119 0 64.2516 11.6729 750 99.7227 437.193 470.903
120 1 78.1243 14.2465 1113 90.7493 437.051 466.252
121 0 79.1794 15.6228 1237 88.7939 436.591 461.477
122 0 82.1214 16.5487 1359 88.6439 437.494 465.288
123 0 76.1708 11.9074 907 102.06 436.88 458.989
124 0 79.0612 11.8769 939 105.482 437.044 455.45
125 1 41.0864 11.0499 454 105.531 436.293 479.491
126 0 44.1073 12.6963 560 101.763 435.995 479.693
127 0 44.2972 12.3484 547 104.333 436.837 479.636
128 0 45.0103 12.3527 556 106.36 436.926 482.167
129 0 47.0602 12.4096 584 114.908 436.945 481.498
130 0 47.1147 11.7161 552 116.353 436.243 480.457
131 0 50.0549 11.9669 599 115.214 436.549 480.332
132 0 51.0442 12.9496 661 112.593 435.498 478.551
133 0 54.0135 12.9042 697 113.093 436.24 475.323
134 0 58.1057 13.8024 802 110.206 436.261 475.09
135 0 59.0529 12.9206 763 111.022 436.788 476.05
136 0 58.0988 12.5476 729 113.789 436.786 472.864
137 0 61.0779 12.1648 743 114.116 436.03 471.258
138 0 62.1103 11.383 707 114.736 435.743 472.692
139 0 67.1324 12.6913 852 111.457 436.614 469.785
140 0 69.1326 13.004 899 110.274 435.467 470.654
141 0 70.0704 13.3865 938 110.86 436.333 468.531
142 0 73.1792 13.2141 967 110.26 435.846 467.309
143 0 77.2106 12.7573 985 111.49 436.238 466.165
144 0 78.2318 12.8848 1008 110.509 435.688 463.938
145 0 82.1854 13.4574 1106 109.362 436.159 462.701
146 0 85.1761 12.6796 1080 111.173 435.555 461.683
147 0 87.1524 14.2739 1244 108.032 435.755 458.178
148 0 91.2328 13.1093 1196 111.061 435.572 457.864
149 1 45.0172 11.7511 529 112.722 435.461 480.257
150 0 47.1126 13.1599 620 112.161 435.526 478.839
151 0 48.0718 12.0029 577 117.776 436.835 478.357
152 0 51.0521 13.6331 696 113.838 435.578 476.093
153 0 51.0323 12.4235 634 116.366 435.931 475.584
154 0 54.0419 12.8789 696 115.455 437.118 474.108
155 0 57.0381 13.0965 747 113.648 436.793 475.171
156 0 59.031 12.6882 749 114.78 436.278 473.348
157 0 59.0275 12.7568 753 115.375 436.467 473.064
158 0 61.0635 12.79 781 117.707 436.665 471.777
159 0 65.086 14.381 936 113.496 436.291 469.526
160 0 67.0631 13.9719 937 115.752 436.134 469.17
161 0 68.1035 12.8628 876 120.461 435.782 468.12
162 0 70.242 13.183 926 120.041 436.795 467.833
163 0 74.2037 13.7864 1023 118.413 436.884 467.26
164 0 76.0752 13.8153 1051 120.945 435.74 463.878
165 0 78.0644 13.7451 1073 123.247 436.081 464.097
166 0 335.048 14.3412 4805 113.076 434.754 336.526
167 0 335.656 10.9398 3672 121.815 433.901 358.958
168 0 336.724 9.82407 3308 125.472 434.96 362.246
169 1 46.0401 12.2719 565 118.326 435.984 480.476
170 0 49.0319 12.1146 594 115.734 435.399 477.138
171 0 49.028 12.1359 595 120.955 435.259 476.03
172 0 51.1073 13.6575 698 125.579 436.658 441.699
173 0 54.1093 13.1401 711 125.871 435.879 431.83
174 0 56.0805 13.5698 761 124.791 435.453 429.088
175 0 57.0874 13.8384 790 124.506 435.154 429.711
176 0 56.0778 12.8928 723 129.041 435.357 432.458
177 0 58.0556 14.2966 830 123.594 435.139 434.593
178 0 63.1088 13.1836 832 124.821 435.965 435.29
179 0 62.0708 13.0174 808 126.927 435.621 435.679
180 0 65.0912 13.5809 884 124.587 436.232 437.019
181 0 66.0618 13.003 859 126.403 436.817 438.413
182 0 71.095 13.6718 972 122.437 436.39 439.538
183 0 72.1461 14.429 1041 121.063 437.062 441.39
184 0 72.0736 14.0412 1012 123.466 437.163 441.704
185 0 77.053 13.8865 1070 120.994 437.021 443.067
186 0 80.1191 14.129 1132 121.134 437.124 443.326
187 0 81.1438 13.778 1118 120.668 436.629 445.335
188 0 86.1372 13.1418 1132 122.422 436.845 447.394
189 0 87.0764 13.5743 1182 121.923 436.124 448.563
190 0 89.0898 13.3124 1186 121.682 436.973 449.132
191 0 93.0887 13.6107 1267 118.584 436.039 450.498
192 1 48.0851 10.9389 526 108.964 436.542 477.3
193 0 49.0762 11.798 579 111.817 435.782 477.064
194 0 49.0456 11.1121 545 107.257 435.446 477.855
195 0 53.0204 12.5235 664 104.831 435.077 475.441
196 0 55.0724 12.4926 688 104.554 436.235 473.525
197 0 57.0218 12.3461 704 104.268 435.513 472.172
198 0 58.0269 11.3913 661 105.573 435.92 471.932
199 0 61.1471 11.4478 700 104.901 435.853 471.309
200 0 62.1105 12.1397 754 104.393 435.118 470.96
201 0 65.0756 11.7402 764 104.448 436.175 470.308
202 0 68.0631 12.8263 873 102.2 435.03 467.167
203 0 69.0381 10.9505 756 106.161 435.655 466.168
204 0 74.133 12.7878 948 101.126 435.488 465.756
205 0 77.1113 11.9567 922 103.463 435.344 464.54
206 0 78.0572 12.3627 965 103.299 435.338 463.419
207 0 79.112 12.1094 958 105.4 435.433 460.322
208 0 84.1489 12.1689 1024 104.482 436.396 459.198
209 0 85.121 11.936 1016 104.351 435.218 458.807
210 0 88.1269 10.5189 927 106.749 436.376 458.32
211 0 93.1465 11.7342 1093 104.707 435.617 454.5
212 1 47.1306 9.37819 442 102.885 436.314 479.921
213 0 49.0779 12.0013 589 99.2003 436.087 476.382
214 0 50.0587 11.7862 590 99.5831 436.251 474.186
215 0 51.0291 10.8761 555 102.744 437.905 475.483
216 0 53.0558 10.9319 580 100.495 436.731 475.266
217 0 54.0552 10.8593 587 102.027 437.107 473.78
218 0 57.088 11.4385 653 99.9587 435.864 473.666
219 0 57.0386 11.0101 628 102.113 436.347 472.424
220 0 60.0437 11.9913 720 99.6444 436.379 472.289
221 0 63.0959 12.2671 774 99.7351 436.314 468.898
222 0 64.0463 11.0233 706 103.152 436.439 469.385
223 0 67.0895 12.5653 843 99.8814 436.6 467.274
224 0 69.0863 11.5073 795 102.901 435.691 465.479
225 0 67.0716 10.7646 722 104.342 434.807 464.486
226 0 74.1041 13.1302 973 98.5344 435.175 464.004
227 0 79.1451 12.2433 969 110.665 435.72 461.635
228 0 80.1455 10.9551 878 114.256 436.113 462.894
229 0 83.0734 11.5801 962 113.998 435.494 458.426
230 0 86.073 12.7218 1095 111.605 435.799 457.052
231 0 89.1911 12.3891 1105 111.987 435.105 455.469
232 0 94.1298 12.6527 1191 110.425 435.129 455.301
233 1 49.0879 11.8563 582 104.847 436.014 478.368
234 0 48.0162 9.95498 478 111.393 435.538 475.718
235 0 54.1159 11.2167 607 111.717 435.351 475.558
236 0 53.0565 12.138 644 109.604 435.005 474.469
237 0 54.0423 12.1941 659 111.757 435.407 473.153
238 0 58.1249 11.9226 693 111.074 436.394 474.89
239 0 58.0709 13.0013 755 108.25 435.898 473.552
240 0 61.0881 13.1449 803 108.321 436.137 471.603
241 0 61.1131 12.1742 744 112 436.2 472.082
242 0 64.0882 12.67 812 111.132 436.022 470.607
243 0 66.2147 12.9729 859 110.281 436.594 467.913
244 0 65.1221 12.1311 790 114.011 435.477 468.257
245 0 70.1003 11.6119 814 111.8 435.865 467.789
246 0 69.1095 10.6208 734 114.756 435.435 467.296
247 0 74.1067 12.2931 911 110.599 435.955 466.73
248 0 75.1129 11.8888 893 111.611 435.539 466.202
249 0 78.0782 11.1171 868 113.252 435.764 463.275
250 0 81.1068 11.9349 968 109.762 434.429 463.471
251 0 83.1072 12.2853 1021 109.857 434.581 461.302
252 0 85.0749 11.9189 1014 110.862 435.805 462.032
253 0 89.1317 12.2179 1089 110.202 435.452 458.364
254 0 91.0942 12.5145 1140 107.985 435.489 458.903
255 0 92.1924 10.4347 962 106.586 435.447 457.998
256 1 49.1247 11.3996 560 100.748 436.327 476.171
257 0 51.1434 12.1228 620 99.4968 435.584 474.556
258 0 51.124 9.74103 498 96.4378 436.791 474.946
259 0 54.1015 10.277 556 96.6313 436.408 473.734
260 0 54.058 11.1177 601 96.8602 436.16 470.757
261 0 53.1223 11.3135 601 95.6705 436.057 469.76
262 0 55.123 12.2816 677 94.4343 435.793 466.474
263 0 57.1029 10.7875 616 97.1429 436.308 468.745
264 0 58.0476 10.9565 636 97.0236 436.522 467.392
265 0 62.2077 10.3203 642 98.0779 435.056 466.583
266 0 59.062 10.8869 643 99.8911 436.703 463.375
267 0 65.1339 11.3459 739 98.253 436.424 464.632
268 0 66.0447 10.3112 681 100.93 435.573 463.747
269 0 70.1275 11.2652 790 98.4418 436.092 463.492
270 0 71.1268 11.2897 803 98.9801 435.478 461.823
271 0 75.1093 10.4248 783 100.14 434.599 460.779
272 0 77.1991 12.1633 939 97.0618 435.599 459.487
273 0 82.0866 11.7437 964 97.3382 435.79 456.578
274 1 37.0651 8.84929 328 95.3689 436.256 478.732
275 0 42.2139 10.9679 463 112.883 436.801 480.603
276 0 46.0473 11.4882 529 112.577 436.378 481.119
277 0 43.1423 11.9372 515 114.317 435.961 478.344
278 0 48.145 11.6938 563 111.352 436.691 479.389
279 0 49.1955 12.1759 599 109.861 436.624 478.032
280 0 49.2379 11.2312 553 112.042 436.322 478.23
281 0 48.2147 10.2251 493 115.172 436.972 479.103
282 0 48.272 10.503 507 115.663 437.225 475.955
283 0 53.1065 11.4863 610 111.187 436.241 475.323
284 0 54.135 11.5637 626 110.711 437.355 476.101
285 0 56.1047 11.4251 641 109.991 436.295 472.936
286 0 57.208 12.271 702 107.86 437.097 473.147
287 0 59.182 12.2165 723 107.212 437.646 472.398
288 0 60.1422 11.5892 697 108.113 436.871 471.643
289 0 61.175 11.2628 689 108.848 437.097 470.694
290 0 65.216 11.7149 764 106.668 437.277 470.428
291 0 67.1739 11.5074 773 105.653 436.748 471.223
292 0 70.1943 13.0637 917 103.381 436.786 466.291
293 0 70.2255 11.6624 819 107.092 438.061 467.668
294 0 71.2319 12.3119 877 106.097 437.424 465.803
295 0 73.0685 12.6593 925 106.576 437.256 462.977
296 0 76.2072 12.0199 916 107.846 437.642 462.472
297 0 78.2303 12.2076 955 107.918 437.027 461.234
298 0 82.1553 12.2694 1008 106.927 437.308 461.284
299 0 83.1045 11.0824 921 111.126 437.034 459.708
300 0 85.114 12.0662 1027 109.224 437.332 459.083
301 1 42.0229 10.8988 458 107.539 437.347 478.079
302 0 45.1581 11.4487 517 104.267 437.325 478.557
303 0 46.1611 12.608 582 101.015 437.029 474.68
304 0 47.3103 12.5554 594 101.84 436.771 474.623
305 0 47.1016 11.507 542 105.572 437.076 474.828
306 0 52.1988 12.4141 648 101.872 436.61 475.531
307 0 51.1731 12.5066 640 103.987 436.166 473.536
308 0 53.3376 12.6177 673 102.568 436.134 474.027
309 0 53.1789 12.7306 677 104.38 435.514 471.994
310 0 55.1916 12.7918 706 104.688 436.37 469.738
311 0 56.1819 13.0291 732 104.163 435.527 470.945
312 0 59.112 12.7724 755 104.36 436.348 468.845
313 0 63.1946 14.0677 889 99.0292 435.056 469.789
314 0 61.1998 12.6634 775 105.169 436.061 468.191
315 0 64.207 13.3007 854 103.999 437.338 466.502
316 0 68.2066 13.4738 919 102.219 436.112 468.736
317 1 81.2149 19.0729 1549 81.3079 436.802 455.066
318 0 80.1586 15.2448 1222 92.7471 436.412 460.906
319 0 74.1701 15.2622 1132 97.1502 436.484 460.531
320 0 75.097 14.2216 1068 100.913 437.289 460.601
321 0 82.2638 14.259 1173 99.2361 437.323 459.949
322 0 81.2139 12.227 993 106.554 436.377 459.413
323 1 45.0904 10.7562 485 105.491 438.056 481.035
324 0 44.2434 11.1429 493 98.3732 437.31 474.779
325 0 44.1025 11.0651 488 96.0922 436.75 475.77
326 0 45.0822 9.51596 429 99.6434 437.434 471.485
327 0 46.103 9.65229 445 98.4742 437.863 472.764
328 0 48.0422 10.2826 494 99.2449 437.348 472.269
329 0 52.1269 10.7622 561 97.5686 437.784 472.189
330 0 53.0588 10.9501 581 97.1377 436.432 468.392
331 0 55.0497 10.4088 573 97.8464 437.747 469.195
332 0 55.0739 10.1682 560 99.2768 437.671 465.557
333 0 57.111 9.54282 545 99.3633 437.411 466.894
334 0 60.1627 11.8013 710 94.6338 437.386 465.503
335 0 61.0898 11.9332 729 95.6365 436.492 463.257
336 0 61.0652 10.6935 653 98.5314 436.956 464.735
337 0 66.0665 11.7457 776 96.2191 436.293 466.264
338 0 68.0619 10.3582 705 99.2411 436.986 463.739
339 0 74.1611 11.9874 889 94.7593 436.745 462.747
340 0 76.1011 11.5504 879 96.0523 436.259 461.33
341 0 79.1388 12.8256 1015 91.9773 436.394 459.592
342 0 79.0651 11.8383 936 94.9124 436.319 457.854
343 0 82.2472 11.0764 911 95.1888 436.608 448.791
344 0 84.1762 10.5968 892 94.6827 435.642 452.128
345 1 41.0411 9.23464 379 91.3931 436.799 473.76
346 0 45.0705 11.5597 521 87.975 437.194 472.601
347 0 46.0381 9.53559 439 88.6879 436.633 472.806
348 0 44.0566 10.3957 458 89.2882 436.738 475.797
349 0 44.0441 9.33157 411 92.0268 436.54 475.326
350 0 45.0606 8.10019 365 92.7452 436.8 476.789
351 0 51.0587 10.5173 537 88.568 435.912 471.858
352 0 49.0314 9.03504 443 93.4921 436.847 470.26
353 0 51.0638 10.9863 561 90.0695 436.578 471.396
354 0 55.0944 12.4876 688 87.218 436.94 467.324
355 0 55.0728 10.5315 580 91.6655 436.519 469.788
356 0 56.1354 11.2229 630 92.0143 436.873 467.733
357 0 58.19 10.8438 631 93.1775 437.563 466.842
358 0 58.0495 10.5772 614 93.9137 436.927 464.383
359 0 61.0867 10.5915 647 93.9645 436.751 465.19
360 0 67.0681 12.0027 805 89.5528 435.681 463.381
361 0 68.1569 11.5762 789 91.403 436.753 463.849
362 0 69.1384 10.1102 699 94.8956 435.808 459.31
363 0 73.0703 11.3179 827 93.0375 436.44 460.285
364 0 74.1968 11.3886 845 93.8935 436.072 459.034
365 0 76.0653 11.8714 903 92.7187 436.177 458.868
366 0 80.1158 13.6677 1095 89.3699 435.481 459.617
367 0 81.2141 10.54 856 96.2371 435.974 459.614
368 0 85.0889 13.3155 1133 92.5684 434.771 457.867
369 0 87.2174 12.8185 1118 95.6556 435.769 454.848
370 0 89.1446 13.2033 1177 95.5293 435.783 453.476
371 0 93.1995 11.1911 1043 101.584 434.64 454.187
372 1 47.0328 10.2269 481 103.01 436.089 471.516
373 0 51.1987 10.6253 544 101.015 435.849 471.412
374 0 51.1364 13.2587 678 96.0251 436.118 471.255
375 0 54.1201 11.7701 637 99.0487 435.521 468.98
376 0 56.1553 10.2929 578 101.763 435.493 469.851
377 0 58.1234 13.1616 765 95.9098 435.344 468.166
378 0 59.096 13.1819 779 97.6175 435.656 467.765
379 0 60.0553 12.1388 729 100.51 436.086 466.519
380 0 62.1899 12.4779 776 99.4716 434.62 466.018
381 0 64.1689 11.5944 744 101.332 436.298 465.114
382 0 65.1263 12.1763 793 101.711 436.999 462.477
383 0 68.176 12.7024 866 100.781 436.539 463.554
384 0 73.2208 12.3462 904 100.686 435.918 463.543
385 0 73.1786 12.121 887 103.246 435.64 459.692
386 0 75.2317 12.2821 924 102.394 436.165 460.121
387 0 77.1019 12.3992 956 102.308 435.217 458.744
388 0 81.2392 13.0971 1064 100.795 436.027 459.764
389 0 82.1614 13.4491 1105 101.325 435.825 456.888
390 0 87.1905 13.178 1149 101.326 436.124 456.95
391 0 87.1222 11.5011 1002 103.372 436.222 457.064
392 0 92.0766 14.3359 1320 98.5235 436.036 453.679
393 0 91.1678 12.8664 1173 103.3 435.472 456.565
394 0 93.1449 12.4537 1160 106.353 435.407 451.014
395 0 100.14 13.561 1358 102.945 434.643 449.23
396 1 50.086 10.2024 511 100.198 435.755 475.673
397 0 51.1008 10.3717 530 101.868 435.592 475.085
398 0 53.0221 11.1274 590 97.3254 436.59 474.358
399 0 57.083 11.1066 634 95.5032 435.812 476.644
400 0 58.0524 12.0064 697 96.2324 436.476 471.683
401 0 60.0736 11.952 718 96.4429 435.983 470.969
402 0 62.0758 12.4364 772 96.0492 435.316 469.396
403 0 65.1026 13.9318 907 92.3638 435.041 468.308
404 0 70.0587 13.503 946 92.4937 435.836 464.743
405 0 71.0453 13.3999 952 92.2447 435.634 466.729
406 0 67.0735 11.7781 790 99.1873 436.116 462.544
407 0 72.1021 11.5115 830 98.6024 435.707 464.572
408 0 76.1059 12.0096 914 98.7932 436.584 462.72
409 0 82.0791 15.4485 1268 88.4125 435.875 455.859
410 0 85.148 13.9052 1184 93.8176 436.465 459.073
411 0 87.1357 14.2077 1238 95.0961 436.09 456.946
412 0 86.0686 11.9672 1030 102.543 436.029 456.48
413 1 47.086 11.1073 523 99.1816 436.553 477.369
414 0 51.0982 11.9182 609 104.934 436.197 479.929
415 0 51.0868 13.1541 672 102.682 436.714 478.929
416 0 53.0506 12.7425 676 104.283 435.871 478.75
417 0 53.0333 13.1427 697 104.043 436.103 478.433
418 0 56.0688 12.3063 690 105.207 435.984 476.823
419 0 55.0904 12.0166 662 108.412 436.387 476.178
420 0 61.1443 13.738 840 102.194 436.262 473.275
421 0 61.1441 13.6399 834 103.859 436.118 474.098
422 0 61.0979 13.2738 811 106.975 436.335 472.141
423 0 64.0542 13.0983 839 107.508 434.943 470.925
424 0 67.0455 13.3939 898 107.988 435.598 470.351
425 0 70.0637 14.1728 993 104.755 434.98 467.968
426 0 71.0454 13.8222 982 106.599 435.15 466.185
427 0 73.0952 13.1199 959 108.667 434.301 467.003
428 0 77.1831 13.7077 1058 106.349 434.98 464.252
429 0 79.1547 13.9979 1108 106.126 435.493 463.476
430 0 82.086 14.4848 1189 104.754 434.318 463.765
431 0 86.1463 13.5467 1167 106.332 434.731 462.8
432 1 47.1246 11.3529 535 112.877 434.701 480.501
433 0 47.0191 12.1227 570 108.537 435.66 480.472
434 0 49.1179 11.2179 551 105.002 435.29 481.543
435 0 49.058 11.7004 574 106.43 435.829 479.646
436 0 51.0493 11.9296 609 106.228 435.373 479.502
437 0 54.0408 12.7866 691 104.182 435.114 477.592
438 0 54.029 12.2712 663 106.066 435.977 477.537
439 0 57.0395 12.2196 697 105.448 434.61 476.753
440 0 57.1625 12.3857 708 105.662 435.653 474.25
441 0 59.0534 12.1077 715 106.446 434.582 474.78
442 0 63.0803 13.6651 862 100.986 435.383 474.766
443 0 65.0772 12.1855 793 104.589 435.352 474.231
444 0 66.0352 12.039 795 105.672 435.747 472.815
445 0 66.1345 12.3083 814 106.783 435.278 469.743
446 0 73.1036 13.474 985 102.849 436.004 470.572
447 0 75.0917 12.4781 937 113.471 433.937 468.129
448 0 77.0609 12.5226 965 113.976 434.577 467.051
449 0 80.0827 12.9491 1037 113.045 434.854 466.207
450 0 84.1027 13.436 1130 111.753 435.251 464.668
451 0 87.135 12.7733 1113 113.166 435.005 461.352
452 0 87.2701 13.4296 1172 115.456 435.043 458.138
453 1 47.1442 10.5845 499 109.826 435.623 482.992
454 0 49.1242 11.2572 553 110.463 436.027 479.984
455 0 48.0472 12.2172 587 102.932 436.261 479.342
456 0 52.118 12.9322 674 103.23 436.38 478.352
457 0 54.0521 12.932 699 102.326 436.454 479.668
458 0 55.1251 12.4989 689 104.245 437.145 478.134
459 0 56.1384 11.2935 634 107.192 435.902 476.733
460 0 56.0725 12.1985 684 105.92 436.218 476.806
461 0 61.0728 14.5236 887 99.1511 436.188 475.378
462 0 59.1094 12.2316 723 104.947 436.264 475.75
463 0 66.1886 13.0838 866 101.271 435.956 470.717
464 0 65.0968 13.6566 889 101.76 436.114 470.477
465 0 68.1149 12.2734 836 104.865 435.964 472.738
466 0 72.0764 13.6938 987 100.272 435.275 471.486
467 0 77.1551 15.0347 1160 95.7914 435.984 466.397
468 0 82.1792 16.3058 1340 91.0537 436.131 462.418
469 0 83.0927 15.8738 1319 93.9098 436.484 462.011
470 0 81.0848 13.3687 1084 102.742 435.818 462.412
471 0 86.0872 14.3227 1233 100.044 435.887 459.594
472 0 87.1376 14.5058 1264 102.14 435.839 460.554
473 0 91.1167 14.0918 1284 103.014 436.519 456.747
474 0 90.133 13.2693 1196 106.998 436.124 458.392
475 0 95.0973 13.544 1288 106.1 436.559 456.478
476 0 98.0821 13.3867 1313 107.538 435.816 455.781
477 0 99.3483 12.9846 1290 109.263 436.878 452.729
478 0 102.227 12.6777 1296 110.616 436.448 451.598
479 0 107.206 13.2921 1425 109.598 436.507 445.459
480 0 110.302 12.2029 1346 110.543 435.961 449.024
481 0 116.379 13.4303 1563 106.729 435.901 447.044
482 0 121.209 13.0188 1578 106.772 434.963 446.589
483 0 126.178 14.3685 1813 106.017 435.395 439.601
484 1 59.0222 10.945 646 105.667 436.221 467.427
485 0 60.1189 11.1612 671 104.37 436.151 465.714
486 0 64.1054 11.4655 735 102.596 435.335 466.223
487 0 71.0813 14.6593 1042 92.0845 435.652 462.518
488 0 76.1008 15.0984 1149 89.5796 434.975 460.179
489 0 80.3048 14.2706 1146 90.0803 435.479 457.731
490 0 81.1321 17.2065 1396 84.9979 434.764 455.395
491 0 83.0571 13.4967 1121 95.066 435.69 456.799
492 0 82.1519 14.1445 1162 96.4923 435.058 455.443
493 0 87.0435 14.2802 1243 94.9984 435.649 454.455
494 0 88.1196 13.4363 1184 98.2221 435.196 451.439
495 0 93.159 14.6309 1363 95.504 435.175 452.116
496 0 92.0771 12.294 1132 102.995 434.426 450.198
497 0 98.1122 14.0146 1375 97.6567 435.695 447.331
498 0 97.1384 12.0344 1169 104.764 436.314 448.75
499 0 99.2744 11.9769 1189 106.728 434.866 447.804
500 1 54.1623 11.2994 612 106.24 437.518 476.953
501 0 57.0467 11.1488 636 105.914 436.381 475.45
502 0 61.1356 11.8098 722 100.81 435.449 473.658
503 0 62.0984 11.9971 745 100.77 434.875 473.164
504 0 66.1608 12.0011 794 98.2884 434.966 472.598
505 0 68.0969 12.2179 832 96.5962 434.501 472.632
506 0 70.0693 12.4876 875 95.8914 433.727 472.531
507 0 70.0726 11.6165 814 99.4017 434.693 471.383
508 0 75.103 11.9969 901 98.0044 434.355 470.992
509 0 75.073 12.5611 943 98.2439 435.131 469.264
510 0 77.0601 10.9265 842 102.355 434.956 467.178
511 0 80.108 12.1461 973 99.8479 433.906 467.439
512 0 82.1139 11.0943 911 102.811 435.115 465.535
513 0 85.1412 12.6966 1081 99.8649 434.259 463.025
514 0 88.1029 13.9042 1225 98.8196 434.509 462.418
515 0 90.0327 12.4844 1124 101.882 434.685 461.82
516 0 95.1674 13.3554 1271 97.5429 435.77 459.141
517 0 103.066 14.1754 1461 93.8063 434.859 453.443
518 0 105.206 14.7806 1555 93.3743 435.113 451.692
519 1 53.0379 11.8783 630 100.817 435.119 480.503
520 0 55.2531 11.8002 652 100.327 435.212 477.968
521 0 56.0907 12.0519 676 100.769 436.114 477.172
522 0 56.1075 11.6206 652 102.905 435.724 477.779
523 0 59.0628 13.8497 818 97.9914 434.666 477.899
524 0 61.0519 11.3019 690 101.672 435.212 479.207
525 0 64.0961 12.8713 825 99.1564 435.278 474.976
526 0 65.1896 12.1338 791 100.353 435.539 470.863
527 0 72.3382 13.5475 980 93.7969 436.47 466.414
528 0 75.2102 14.9847 1127 91.6673 435.989 464.936
529 0 75.218 13.3213 1002 96.7685 435.951 467.581
530 0 74.3375 11.4343 850 100.505 436.607 470.127
531 0 78.2577 12.9572 1014 103.405 435.62 465.216
532 0 82.4536 12.7223 1049 103.933 436.107 461.042
533 0 87.2427 15.7262 1372 96.0576 435.811 457.874
534 0 86.3067 13.2782 1146 103.12 435.637 459.738
535 0 90.1188 12.7165 1146 102.128 435.334 459.599
536 0 91.2027 12.2255 1115 104.427 434.714 454.9
537 0 96.1457 12.9075 1241 100.868 435.006 438.069
538 0 100.244 13.118 1315 99.9787 435.968 444.572
539 0 102.168 12.7731 1305 100.649 435.326 453.254
540 1 54.0952 10.8328 586 97.4642 435.604 476.415
541 0 56.1074 11.1928 628 95.035 435.863 475.239
542 0 57.307 11.8136 677 100.285 434.957 470.004
543 0 62.2771 12.9261 805 98.3963 435.299 472.384
544 0 64.2569 12.4189 798 100.362 436.366 471.247
545 0 66.1256 12.0074 794 101.589 434.645 467.756
546 0 68.1459 13.0896 892 99.1166 435.417 468.508
547 0 71.233 12.8031 912 99.523 435.716 469.698
548 0 69.3304 10.587 734 105.053 435.97 466.62
549 0 75.1282 12.685 953 98.3882 435.509 464.205
550 0 77.1729 12.1157 935 100.057 436.594 465.468
551 0 79.1903 12.0974 958 100.507 435.109 463.556
552 0 82.0685 12.0144 986 98.572 435.632 464.886
553 0 85.0867 12.1053 1030 93.8058 435.591 462.06
554 0 88.1387 11.5613 1019 95.7694 435.521 460.795
555 0 90.1097 9.72149 876 99.0879 435.563 457.541
556 0 93.0517 11.8751 1105 97.6932 436.949 455.602
557 0 95.0656 11.3921 1083 101.147 436.011 453.915
558 0 98.129 13.3396 1309 90.0015 435.276 457.283
559 0 98.1555 10.8705 1067 98.1968 435.969 455.574
560 1 54.1132 11.0509 598 95.9649 436.537 477.711
561 0 50.0374 11.1317 557 99.2442 436.781 477.14
562 0 54.0612 13.0593 706 97.8074 436.174 478.499
563 0 52.0528 12.9292 673 102.681 435.969 476.499
564 0 54.0472 11.897 643 104.585 435.949 478.558
565 0 53.038 11.652 618 107.534 435.914 477.971
566 0 56.0374 12.4917 700 103.6 436.409 476.98
567 0 57.0329 10.9586 625 104.822 435.477 478.678
568 0 58.1155 11.9417 694 103.561 436.36 474.958
569 0 59.0604 11.2427 664 103.012 435.726 476.509
570 0 62.0674 11.4714 712 101.275 436.267 474.098
571 0 66.141 12.2617 811 96.6708 436.011 474.387
572 0 67.0353 11.8893 797 98.1154 436.174 471.048
573 0 68.0564 11.4464 779 98.5841 434.891 470.199
574 0 69.0481 12.0496 832 97.0433 435.605 468.732
575 0 76.0596 16.0006 1217 86.2588 435.77 466.138
576 0 75.1541 13.6653 1027 93.4528 436.137 466.787
577 0 81.1397 15.2576 1238 87.6438 435.221 463.614
578 0 80.1157 12.769 1023 95.9198 435.6 462.246
579 0 78.0558 11.4021 890 101.801 434.878 464.494
580 1 40.0079 9.72308 389 100.262 435.434 484.63
581 0 43.0293 9.92347 427 100.667 435.115 484.286
582 0 42.0188 11.1617 469 97.4542 435.872 482.503
583 0 44.067 11.9591 527 97.7666 435.518 482.298
584 0 44.0371 11.1951 493 100.996 436.527 482.955
585 0 51.0501 14.6914 750 87.196 435.968 477.872
586 0 51.1034 13.2281 676 92.0621 435.899 478.698
587 0 50.0653 12.224 612 95.8464 435.676 476.453
588 0 56.0345 13.9021 779 90.389 436.617 477.985
589 0 54.1524 13.462 729 93.8381 436.247 477.1
590 0 54.0836 13.2942 719 96.7204 436.524 476.914
591 0 54.0673 12.8174 693 99.0173 436.113 475.85
592 0 51.0775 11.6098 593 107.487 436.582 477.445
593 0 55.1743 13.0133 718 102.675 435.987 476.06
594 0 55.0386 12.2096 672 107.036 436.167 476.604
595 0 52.0698 11.523 600 111.593 435.532 475.877
596 0 65.0638 15.5078 1009 92.6234 435.786 471.151
597 0 70.3646 13.7569 968 95.0196 435.292 470.902
598 0 69.113 14.0639 972 96.7469 435.035 470.423
599 0 75.2636 13.167 991 97.9526 435.599 470.77
600 0 75.162 16.2316 1220 89.9984 434.18 465.424
601 0 73.1348 17.4336 1275 90.8863 435.453 464.609
602 0 70.0944 14.2522 999 104.935 435.09 469.005
603 0 72.0903 14.1073 1017 106.146 434.752 468.053
604 0 72.0514 13.3793 964 109.946 434.144 467.966
605 0 73.0631 13.0161 951 112.875 434.861 466.277
606 0 75.2125 13.4552 1012 112.448 433.946 463.821
607 0 78.1312 14.0661 1099 111.315 434.327 459.851
608 0 80.1057 13.3199 1067 113.96 434.482 459.145
609 0 83.1894 13.8119 1149 112.183 434.329 460.468
610 0 86.142 13.3733 1152 113.27 434.195 458.003
611 1 45.1385 10.501 474 115.707 434.222 477.382
612 0 49.0639 11.3729 558 105.504 433.55 473.41
613 0 51.0269 11.7585 600 105.013 433.775 468.237
614 0 51.0749 11.6887 597 107.109 433.645 462.35
615 0 53.1201 11.9352 634 107.202 434.066 464.861
616 0 53.093 12.0355 639 108.493 433.761 465.767
617 0 56.1727 12.2657 689 105.643 434.351 475.221
618 0 58.1083 12.5283 728 104.481 434.626 477.181
619 0 60.0371 12.359 742 104.962 433.195 477.972
620 0 61.0849 12.5399 766 105.743 435.123 476.123
621 0 65.073 13.1698 857 104.285 434.965 474.523
622 0 66.1795 13.2972 880 110.934 434.275 470.751
623 0 68.0831 12.9401 881 111.863 434.149 457.577
624 0 71.18 12.5457 893 112.875 434.697 465.794
625 0 73.13 11.2813 825 114.274 434.633 469.595
626 0 77.1033 12.6454 975 109.988 432.491 469.221
627 0 78.0925 11.3839 889 114.048 433.031 456.786
628 0 82.1098 13.5915 1116 107.476 432.633 463.488
629 0 86.1471 14.1038 1215 106.491 433.444 463.358
630 0 88.0573 12.3897 1091 111.496 433.936 464.858
631 1 47.0906 10.724 505 107.022 434.749 485.364
632 0 48.1593 11.5865 558 109.507 433.957 481.271
633 0 49.2959 10.9948 542 106.133 434.993 474.072
634 0 51.1159 10.6033 542 98.6144 434.507 477.697
635 0 54.0589 11.8574 641 96.7426 435.027 481.61
636 0 55.1927 12.103 668 96.0554 434.419 478.253
637 0 54.0191 11.9032 643 101.235 434.669 478.551
638 0 57.0529 11.9889 684 100.405 433.776 478.846
639 0 59.1875 11.0496 654 102.635 434.639 478.301
640 0 62.149 11.6977 727 100.708 433.48 477.194
641 0 61.0911 11.7857 720 102.178 434.176 475.446
642 0 67.0782 12.2245 820 99.572 434.773 475.304
643 0 68.1058 11.9667 815 101.4 434.177 472.763
644 0 71.0745 12.1563 864 100.913 434.021 471.05
645 0 74.1164 11.8058 875 101.859 433.961 471.062
646 0 76.0642 11.9504 909 102.461 433.765 468.755
647 0 79.3959 12.7463 1012 101.294 434.777 462.933
648 0 83.373 12.1982 1017 102.375 435.283 463.136
649 0 84.2624 11.7015 986 104.233 434.811 460.045
650 0 88.1719 11.1714 985 104.844 435.366 458.647
651 0 91.2956 12.8703 1175 101.647 434.74 457.71
652 1 48.0865 11.0634 532 95.5602 435.652 483.406
653 0 48.011 10.6226 510 97.9176 435.565 479.559
654 0 49.1576 9.21525 453 97.5121 436.168 484.051
655 0 51.044 11.5782 591 94.0372 434.543 480.274
656 0 52.0619 10.257 534 97.9906 434.453 479.727
657 0 55.024 11.6495 641 95.7254 434.317 479.265
658 0 57.0673 11.4076 651 96.1536 435.402 478.171
659 0 59.0691 10.8009 638 97.5862 435.238 476.473
660 0 62.0804 11.1629 693 97.088 435.602 474.483
661 0 63.062 10.9733 692 98.5491 434.821 474.233
662 0 66.1196 12.4018 820 96.4134 435.129 471.448
663 0 68.074 12.4423 847 95.8253 435.388 473.649
664 0 70.0836 12.5707 881 96.8831 434.423 469.73
665 0 75.0545 12.311 924 97.5206 434.149 468.51
666 0 76.112 11.1546 849 101.267 434.684 465.099
667 0 77.06 11.6662 899 102.832 434.293 464.78
668 0 81.1114 11.4534 929 103.129 434.494 464.46
669 1 44.1018 10.0903 445 98.8831 435.926 484.721
670 0 47.059 10.6462 501 97.2295 435.649 483.295
671 0 48.1311 11.6557 561 103.262 435.656 479.788
672 0 49.0765 12.939 635 103.77 435.069 481.006
673 0 51.0676 12.9632 662 105.095 435.017 479.399
674 0 51.0375 13.2844 678 106.254 434.549 477.034
675 0 54.0988 12.8099 693 107.117 433.876 477.319
676 0 56.0725 12.6979 712 107.813 435.173 475.556
677 0 58.0392 13.0084 755 105.736 434.858 477.832
678 0 59.0987 12.8768 761 107.03 436.18 475.306
679 0 62.0609 13.0517 810 106.291 435.481 473.321
680 0 63.1352 12.3703 781 109.055 435.309 473.05
681 0 65.0489 13.5744 883 106.784 434.992 470.502
682 0 66.114 12.7053 840 110.026 434.904 469.287
683 0 67.0544 11.2148 752 114.314 434.795 466.702
684 1 81.0864 16.4023 1330 94.7977 434.484 462.012
685 0 82.1474 15.3261 1259 98.2017 433.253 462.523
686 0 79.0816 12.9992 1028 107.938 434.651 460.446
687 0 80.0857 13.0485 1045 108.158 434.993 461.576
688 0 83.0709 11.8212 982 110.364 435.521 461.901
689 0 88.0952 14.7795 1302 102.252 433.799 455.68
690 0 89.0955 13.4463 1198 107.217 434.663 454.288
691 0 93.1689 13.3628 1245 103.815 435.276 455.712
692 1 48.0504 11.9666 575 108.193 435.664 475.546
693 0 49.069 10.5769 519 112.576 436.135 475.376
694 0 51.1422 11.1845 572 108.967 435.881 477.752
695 0 52.0607 10.4685 545 113.987 436.516 473.435
696 0 55.0753 11.2028 617 111.844 435.387 474.154
697 0 55.0961 11.4527 631 112.578 435.423 473.309
698 0 60.1348 11.7569 707 110.518 435.932 473.989
699 0 62.1191 11.0111 684 112.58 435.991 472.158
700 0 63.1267 11.7383 741 113.117 435.359 469.609
701 0 63.145 10.8322 684 116.939 435.624 469.338
702 0 68.0677 11.8118 804 112.434 435.833 469.284
703 0 67.1065 11.3849 764 115.832 436.335 465.688
704 0 71.1023 11.9968 853 114.3 435.373 465.26
705 0 72.0681 10.4068 750 117.987 435.439 465.255
706 0 79.1556 12.646 1001 110.784 436.568 462.187
707 0 80.0899 11.5121 922 112.351 436.192 461.175
708 0 81.1821 12.4042 1007 108.232 435.203 460.817
709 0 84.2707 12.4124 1046 110.579 435.72 458.274
710 1 43.1382 11.2429 485 108.264 435.913 478.021
711 0 47.0502 11.4771 540 105.6 436.717 480.061
712 0 50.2517 12.2782 617 110.092 436.528 479.809
713 0 51.0407 11.8533 605 112.165 436.831 478.993
714 0 54.0362 12.3806 669 110.595 436.782 477.813
715 0 57.0463 12.3233 703 110.282 436.819 478.27
716 0 58.1573 13.1024 762 109.682 436.396 476.736
717 0 59.2481 13.2663 786 110.999 436.814 475.304
718 0 61.238 13.9456 854 108.905 435.488 473.111
719 0 63.371 13.6024 862 110.426 436.175 469.013
720 0 64.3927 13.7127 883 110.342 435.823 470.558
721 0 67.2141 13.3008 894 110.082 436.376 468.919
722 0 66.3675 13.1842 875 111.973 436.638 469.833
723 0 67.085 13.699 919 107.6 437.163 470.832
724 0 69.1884 13.5572 938 108.842 436.075 470.344
725 0 75.0327 14.3804 1079 105.752 436.307 465.911
726 0 72.1279 13.2404 955 111.964 435.832 467.358
727 0 75.2891 14.1056 1062 110.875 435.248 464.13
728 0 79.1267 13.1056 1037 113.907 436.428 463.735
729 0 83.1212 13.739 1142 110.776 435.453 463.961
730 0 85.1873 13.0419 1111 113.571 435.756 460.952
731 0 86.0884 12.9402 1114 113.613 435.348 457.464
732 1 49.1269 10.8902 535 113.979 436.402 476.393
733 0 50.0992 12.2557 614 111.406 436.015 475.375
734 0 51.0591 11.9665 611 112.889 435.83 476.738
735 0 49.1105 12.2581 602 112.339 436.487 473.35
736 0 52.039 12.8557 669 111.374 435.335 474.055
737 0 52.0795 11.1752 582 117.177 435.978 473.29
738 0 59.1816 15.1398 896 103.242 435.462 470.017
739 0 61.0196 14.7821 902 104.002 435.205 467.682
740 0 63.061 15.3185 966 103.287 435.038 469.146
741 0 64.0894 14.9167 956 105.569 435.137 467.147
742 0 62.1275 13.1665 818 113.49 435.502 469.6
743 0 66.0387 13.3407 881 111.779 434.169 471.625
744 0 67.1619 12.9538 870 112.806 434.863 469.576
745 0 69.0866 12.5205 865 113.862 434.2 471.872
746 0 71.0417 13.3161 946 112.815 434.909 467.643
747 0 64.0538 11.1157 712 122.801 434.899 461.959
748 1 76.0437 12.7558 970 114.726 434.793 464.981
749 0 81.0548 12.7815 1036 112.307 434.278 464.375
750 0 83.1713 12.8289 1067 113.73 435.381 462.558
751 0 83.1125 12.3206 1024 117.593 434.209 460.345
752 0 89.1117 13.0735 1165 115.281 435.05 458.437
753 0 93.2459 13.6414 1272 113.127 434.459 456.154
754 0 97.0924 14.5222 1410 111.342 434.902 454.295
755 0 100.175 16.2216 1625 105.561 434.218 449.463
756 0 102.271 13.6696 1398 113.026 435.072 446.424
757 0 105.139 13.2966 1398 113.562 434.187 447.769
758 1 58.1791 11.0349 642 112.055 433.771 470.914
759 0 60.1682 12.1991 734 109.29 433.971 470.89
760 0 64.1847 13.4611 864 104.64 435.128 469.106
761 0 72.2248 17.5286 1266 90.1319 434.648 464.675
762 0 74.0767 16.8744 1250 91.3672 434.642 463.249
763 0 76.1518 14.3529 1093 97.8262 433.519 462.42
764 0 78.308 14.443 1131 98.008 433.442 461.477
765 0 79.1908 16.6307 1317 94.4358 434.024 461.78
766 0 84.3043 15.4559 1303 94.3968 434.764 458.589
767 0 85.1149 15.344 1306 95.0031 433.65 456.597
768 0 95.1958 16.3348 1555 83.9614 433.731 454.217
769 0 95.1219 16.2318 1544 87.2947 433.903 453.043
770 0 94.2313 15.8228 1491 91.4038 434.818 455.455
771 0 92.2477 14.7863 1364 95.9597 433.419 456.489
772 0 93.0894 14.3733 1338 99.5441 433.954 454.593
773 0 94.0711 11.5445 1086 108.651 433.21 450.646
774 0 97.1907 11.6266 1130 107.44 433.866 453.953
775 0 101.139 11.6275 1176 109.319 433.179 440.291
776 0 106.07 12.3975 1315 106.471 434.381 444.081
777 0 109.198 12.8208 1400 107.469 433.549 445.385
778 1 61.0752 11.0356 674 112.131 435.224 477.123
779 0 65.0646 12.111 788 109.325 434.122 474.796
780 0 68.1093 12.8176 873 108.372 433.173 471.405
781 0 70.0236 12.9385 906 112.743 432.738 468.841
782 0 73.0405 13.294 971 110.336 433.91 467.853
783 0 79.0835 14.0358 1110 106.375 433.092 468.815
784 0 79.0768 12.9874 1027 111.131 433.574 464.656
785 0 82.0774 13.1096 1076 114.516 432.813 465.41
786 1 109.238 14.9033 1628 95.9711 432.281 456.047
787 0 103.235 15.7407 1625 98.2215 432.079 455.373
788 0 111.256 16.8082 1870 93.492 433.06 451.439
789 0 117.361 19.4784 2286 86.3421 432.164 446.079
790 0 117.205 16.3303 1914 94.5956 431.685 447.644
791 1 208.647 11.1768 2332 113.771 432.333 413.674
792 0 209.5 12.9022 2703 111.856 432.525 403.797
793 1 56.0365 12.0636 676 108.914 430.991 478.754
794 0 59.0776 13.4061 792 112.473 433.52 456.207
795 0 62.1023 11.6582 724 115.537 432.481 463.807
796 0 63.0625 12.6858 800 114.993 433.761 468.055
797 0 64.1365 13.5024 866 112.219 433.105 470.128
798 0 68.1355 14.163 965 110.225 432.876 471.807
799 0 68.0698 12.7663 869 115.135 432.833 474.412
800 0 69.0465 12.1223 837 117.571 432.912 473.164
801 0 72.1286 13.7394 991 113.279 433.614 473.662
802 0 77.1342 17.0741 1317 102.35 433.142 468.712
803 0 79.1469 16.4378 1301 104.829 433.618 467.903
804 0 79.069 14.1775 1121 112.515 432.398 468.758
805 0 81.1596 14.071 1142 113.633 433.512 467.859
806 0 82.1389 13.2093 1085 113.538 433.626 465.348
807 0 86.0799 12.8137 1103 111.582 432.979 465.185
808 0 89.0568 12.5201 1115 108.812 433.142 462.561
809 0 92.0659 12.4585 1147 108.146 433.358 459.747
810 1 49.0858 10.8178 531 105.618 433.949 484.49
811 0 51.1386 12.1044 619 102.855 433.525 481.149
812 0 52.0181 13.3223 693 104.709 433.999 478.869
813 0 54.0957 12.6258 683 110.958 433.381 480.176
814 0 56.2243 11.4719 645 114.364 431.957 480.364
815 0 59.0577 13.817 816 108.661 433.847 477.392
816 0 61.1574 13.7187 839 108.094 433.687 478.222
817 0 63.0654 13.4464 848 109.847 433.022 475.537
818 0 65.0612 13.203 859 110.236 433.256 474.892
819 0 68.0518 13.4456 915 108.616 433.954 474.507
820 0 68.1051 12.7744 870 111.23 433.987 472.785
821 0 72.1219 12.881 929 110.409 433.276 471.724
822 0 75.0898 13.89 1043 108.02 433.222 469.43
823 0 79.0785 14.6943 1162 105.247 432.715 469.473
824 0 80.1001 14.8939 1193 105.977 433.184 468.082
825 0 81.0695 13.4206 1088 111.07 433.893 463.83
826 0 87.058 14.5535 1267 106.233 433.759 465.29
827 0 89.1636 14.064 1254 107.572 433.475 462.628
828 0 92.0691 13.0446 1201 110.067 434.208 462.779
829 0 93.0764 13.5588 1262 109.257 433.669 459.851
830 1 49.1432 11.6395 572 108.084 434.666 481.117
831 0 54.0264 12.4384 672 102.908 433.876 481.293
832 0 54.1005 12.181 659 103.036 433.845 480.375
833 0 56.1099 12.5646 705 100.922 433.145 479.194
834 0 58.0573 11.592 673 101.988 432.886 478.541
835 0 61.0185 12.7502 778 99.374 432.875 477.523
836 0 65.0875 13.3205 867 98.1546 432.554 475.621
837 0 66.1199 12.8252 848 100.343 433.481 474.781
838 0 70.0936 12.1552 852 109.034 432.653 472.055
839 0 72.0601 12.8365 925 107.065 433.275 471.994
840 0 75.0926 11.9053 894 108.547 432.672 469.906
841 0 74.1833 11.7681 873 109.741 432.921 467.789
842 0 79.1123 12.5518 993 106.952 432.807 466.532
843 0 81.093 11.123 902 108.457 434.333 466.557
844 0 83.0962 11.962 994 108.653 433.35 463.093
845 0 87.1951 12.9021 1125 105.068 434.131 462.66
846 0 91.1395 12.5412 1143 104.969 433.976 462.969
847 0 94.1056 13.4636 1267 102.435 433.205 459.901
848 0 94.1613 12.3618 1164 108.376 434.37 458.763
849 0 98.2101 12.5343 1231 106.868 434.247 458.332
850 0 102.098 11.9787 1223 107.648 433.782 456.114
851 0 102.277 9.90446 1013 112.515 433.866 451.838
852 0 110.25 13.2607 1462 105.331 433.915 450.179
853 0 115.274 13.2207 1524 105.012 433.809 446.374
854 1 62.0714 11.1807 694 99.8458 434.042 474.594
855 0 64.1077 11.0439 708 100.199 434.537 475.5
856 0 68.1642 12.2205 833 98.7527 433.109 472.377
857 0 70.0695 12.9157 905 97.9193 434.506 471.522
858 0 72.037 12.3131 887 99.2244 434.304 471.643
859 0 73.2235 11.144 816 102.234 433.993 470.251
860 0 78.1206 12.9159 1009 99.003 433.383 467.927
861 0 80.1793 13.6569 1095 98.3461 433.837 464.29
862 0 81.1416 12.5336 1017 101.683 433.89 461.837
863 0 85.0722 12.5423 1067 104.035 433.379 465.942
864 0 86.118 12.2274 1053 103.029 433.099 463.327
865 0 89.1263 12.1513 1083 103.933 433.643 461.38
866 0 93.2017 13.7658 1283 102.233 433.474 460.221
867 0 95.1585 11.8854 1131 105.454 434.378 459.928
868 0 99.0674 13.0719 1295 104.826 433.961 458.272
869 0 102.176 13.3495 1364 105.402 433.359 456.265
870 0 105.262 13.6042 1432 107.082 434.312 451.548
871 0 107.366 13.7939 1481 107.534 434.075 448.961
872 0 112.235 11.6809 1311 110.41 433.706 448.881
873 0 116.175 13.23 1537 106.75 433.92 447.471
874 0 119.103 12.846 1530 107.569 433.792 445.058
875 0 125.211 13.058 1635 107.092 434.133 443.415
876 1 69.0821 12.0002 829 100.279 433.61 470.273
877 0 71.0749 12.2828 873 100.411 433.82 467.029
878 0 73.1268 12.8817 942 99.4522 433.218 468.395
879 0 77.1218 12.9535 999 99.1301 433.251 466.584
880 0 80.0892 12.3113 986 101.05 433.903 465.307
881 0 82.1161 12.5798 1033 101.638 434.489 462.022
882 0 85.2308 12.6363 1077 100.596 434.677 463.257
883 0 89.1033 14.096 1256 99.0701 433.579 459.719
884 0 92.1394 12.5136 1153 103.685 433.983 457.915
885 0 96.1129 12.5373 1205 106.023 434.564 457.594
886 0 100.142 12.8617 1288 105.3 434.481 455.263
887 0 102.18 13.2512 1354 105.836 434.614 449.231
888 0 105.173 12.6078 1326 107.949 434.663 450.48
889 1 56.1138 10.0867 566 104.675 434.996 475.655
890 0 61.1086 10.7514 657 100.393 434.282 476.239
891 0 64.0319 13.4464 861 96.1905 434.81 472.4
892 0 65.0591 11.6048 755 101.164 434.385 471.963
893 0 66.0767 10.5181 695 104.676 434.246 470.535
894 0 66.0476 10.6893 706 105.86 433.84 469.102
895 0 71.0911 12.2378 870 102.441 434.959 469.772
896 0 73.1762 11.2332 822 106.114 435.196 465.786
897 0 78.185 13.2634 1037 101.566 434.47 466.919
898 0 81.1057 12.5145 1015 103.146 433.87 465.705
899 0 85.1342 13.3436 1136 101.934 434.443 463.012
900 0 87.0963 12.6527 1102 104.153 433.72 461.214
901 0 89.0709 12.9111 1150 104.422 434.203 459.955
902 0 92.1108 13.2449 1220 102.351 433.875 459.95
903 0 97.0842 13.617 1322 107.754 433.812 456.79
904 0 99.1265 13.6896 1357 108.986 434.122 453.673
905 0 105.099 14.8432 1560 105.992 434.656 452.256
906 0 107.153 14.0173 1502 107.756 433.406 451.03
907 0 110.071 13.2914 1463 109.77 434.35 449.625
908 0 116.11 13.16 1528 108.788 433.626 448.778
909 0 120.12 13.6114 1635 107.845 433.911 442.584
910 1 66.0978 12.3302 815 101.845 434.21 473.485
911 0 70.1723 12.284 862 100.681 433.037 468.691
912 0 72.1174 13.7692 993 97.9174 433.012 466.916
913 0 72.2177 11.133 804 102.006 433.908 467.852
914 0 74.1668 11.0157 817 103.341 433.656 464.798
915 0 78.178 11.9087 931 100.505 433.265 462.849
916 0 80.1174 12.6065 1010 99.9069 433.662 462.788
917 0 83.3518 12.6932 1058 99.586 433.26 458.168
918 0 86.0825 12.5345 1079 98.8675 433.554 460.027
919 0 89.1541 12.6074 1124 98.121 433.585 455.818
920 0 93.1571 12.7849 1191 97.0403 434.249 457.47
921 0 95.1014 13.2911 1264 97.0625 433.792 453.461
922 0 99.0875 12.2316 1212 98.7228 432.851 453.7
923 0 104.065 13.4531 1400 96.2457 433.122 451.165
924 0 107.256 13.5097 1449 95.6211 433.134 449.777
925 0 111.085 12.4139 1379 97.9217 433.816 447.675
926 0 115.141 12.7583 1469 97.8856 434.023 446.15
927 0 117.179 12.6986 1488 99.3078 433.003 443.965
928 1 67.0633 11.6755 783 99.4049 432.622 469.004
929 0 70.1227 13.1626 923 93.9187 434.163 467.324
930 0 71.0739 10.7775 766 94.453 433.531 466.292
931 0 73.1143 11.1606 816 89.3885 434.325 463.504
932 0 74.1093 10.2551 760 90.9868 433.668 461.761
933 0 79.1753 12.4281 984 87.6677 434.382 459.17
934 0 82.0731 12.2574 1006 88.3628 433.998 458.574
935 0 85.0999 11.8684 1010 89.502 433.657 457.294
936 0 88.1246 11.4497 1009 92.3617 434.367 459.429
937 0 92.0764 12.4679 1148 90.8615 433.423 457.457
938 0 95.0908 13.1664 1252 90.2085 433.919 453.826
939 0 97.1144 12.1918 1184 92.1326 434.247 454.582
940 0 100.094 12.5582 1257 92.821 434.191 450.922
941 0 104.088 12.4414 1295 92.5166 434.741 450.915
942 1 57.1098 11.3115 646 92.4211 434.647 475.842
943 0 58.1524 11.6418 677 93.8183 434.846 473.035
944 0 59.1107 11.9268 705 97.0723 434.363 473.386
945 0 61.1393 12.1689 744 94.086 435.019 472.586
946 0 63.0777 12.3974 782 94.3875 434.168 471.711
947 0 66.1338 12.3084 814 96.0369 434.711 468.428
948 0 67.0682 12.5842 844 96.4917 434.303 469.482
949 0 70.0685 13.4583 943 94.9565 435.201 467.368
950 0 73.0814 13.396 979 94.9745 435.033 467.333
951 0 74.1132 12.6833 940 97.5585 434.905 465.147
952 0 75.1559 12.9198 971 97.6674 434.601 464.628
953 0 78.054 13.2857 1037 98.1948 434.76 461.787
954 0 83.1471 13.7948 1147 95.6364 434.103 460.44
955 0 84.1012 13.888 1168 95.7183 434.402 459.974
956 0 87.1606 13.6989 1194 96.9363 433.539 460.112
957 0 90.1905 13.6932 1235 98.0049 433.98 455.643
958 0 94.1049 15.0152 1413 96.1741 433.598 454.563
959 0 97.1926 14.9291 1451 96.7112 433.915 451.167
960 0 99.1486 12.8191 1271 102.533 432.637 449.549
961 0 103.13 13.5557 1398 101.333 434.246 448.648
962 0 106.212 14.3675 1526 100.016 433.168 445.269
963 0 106.052 13.2577 1406 103.999 433.874 440.536
964 1 57.1024 11.1554 637 102.892 433.904 467.355
965 0 63.04 12.2938 775 97.2529 434.323 467.181
966 0 61.092 12.653 773 98.282 433.92 463.442
967 0 66.0704 12.7137 840 96.9536 433.349 458.974
968 0 68.0314 14.3022 973 93.9733 433.55 460.613
969 0 70.0667 11.7745 825 101.32 433.819 462.152
970 0 72.093 13.2606 956 99.5889 433.551 462.675
971 0 75.1001 13.0226 978 105.04 433.52 463.532
972 0 76.2757 13.9232 1062 102.03 433.599 462.192
973 0 79.4213 13.9383 1107 102.427 434.502 461.331
974 0 81.2085 12.8804 1046 105.686 433.435 459.867
975 0 81.2268 13.1114 1065 105.886 434.597 458.987
976 0 85.1365 14.1537 1205 102.953 433.768 455.661
977 0 85.1296 12.6161 1074 107.223 433.366 453.573
978 0 92.1339 13.5672 1250 103.724 433.801 452.33
979 0 94.2528 13.1455 1239 105.006 433.068 449.737
980 0 97.1007 13.7692 1337 103.544 433.196 448.412
981 0 98.2845 13.6339 1340 104.032 433.031 445.726
982 1 53.1079 9.09469 483 103.381 433.41 467.222
983 0 59.1558 10.7513 636 106.967 433.23 471.028
984 0 61.0373 11.239 686 103.611 434.134 472.477
985 0 66.1399 13.2144 874 97.8547 433.977 469.505
986 0 65.0342 11.9937 780 101.879 433.558 468.023
987 0 67.0606 11.2137 752 103.166 433.973 466.828
988 0 72.0386 13.2984 958 97.7182 434.283 466.339
989 0 72.0937 11.4018 822 102.709 433.219 464.736
990 0 74.0863 11.986 888 101.704 434.359 463.22
991 0 79.1017 13.0971 1036 99.8156 433.625 461.455
992 0 81.083 12.0617 978 101.857 433.358 460.831
993 0 83.1413 12.4727 1037 101.422 433.365 459.595
994 0 85.104 11.7268 998 103.987 433.963 457.137
995 0 87.0399 12.523 1090 103.134 433.099 455.372
996 0 90.1421 11.9589 1078 104.404 433.14 455.468
997 0 92.0748 13.4239 1236 102.422 433.752 454.515
998 0 93.2722 12.2223 1140 104.809 434.407 453.086
999 0 98.1552 12.0422 1182 105.43 434.084 451.194
1000 0 101.144 11.8741 1201 105.932 433.182 450.311
1001 0 103.24 12.7567 1317 106.047 433.518 447.466
1002 0 106.117 11.1386 1182 109.446 433.918 445.464
1003 0 111.216 13.0377 1450 106.114 433.995 443.894
1004 0 115.159 12.0529 1388 109.799 433.949 438.838
1005 0 117.155 12.0951 1417 111.32 433.692 436.164
1006 0 126.322 13.0698 1651 109.07 434.15 437.49
1007 1 72.1768 12.1646 878 106.566 433.762 461.795
1008 0 74.0918 11.6747 865 107.998 434.698 462.317
1009 0 75.0893 12.5584 943 105.294 434.45 460.661
1010 0 80.1014 13.2582 1062 102.551 434.644 461.462
1011 0 79.0425 12.0315 951 107.203 434.895 459.352
1012 0 85.1061 12.878 1096 104.996 435.011 458.488
1013 0 87.0865 13.2397 1153 105.07 434.686 457.015
1014 0 90.2032 12.4829 1126 106.631 434.339 455.456
1015 0 95.1205 13.6774 1301 104.211 434.59 453.817
1016 0 99.1008 13.1684 1305 105.372 433.922 451.792
1017 0 100.169 12.5787 1260 106.752 434.485 450.748
1018 0 102.114 12.5742 1284 108.165 434.392 445.076
1019 0 109.106 13.4365 1466 105.653 435.499 447.164
1020 0 110.122 12.8403 1414 108.262 434.732 444.682
1021 0 116.127 13.9847 1624 105.826 433.898 442.847
1022 1 65.0578 11.5897 754 105.566 434.512 467.576
1023 0 67.113 11.2348 754 103.35 434.009 467.492
1024 0 66.0585 11.6563 770 98.1156 434.738 467.683
1025 0 70.1511 10.9478 768 97.7578 435.863 468.443
1026 0 72.1727 11.1677 806 98.0335 435.012 467.065
1027 0 73.091 10.9453 800 100.052 434.755 462.646
1028 0 77.168 12.0646 931 98.8324 434.785 462.212
1029 0 80.0727 11.4396 916 99.3079 434.634 461.026
1030 0 83.1009 10.758 894 100.918 434.416 462.376
1031 0 82.0764 11.1847 918 102.685 435.46 458.572
1032 0 85.1094 12.0081 1022 101.493 435.387 455.788
1033 0 91.0594 12.102 1102 99.9111 434.432 456.112
1034 0 94.0779 11.7775 1108 102.082 436.167 455.491
1035 0 94.0994 12.083 1137 102.442 435.18 454.375
1036 0 98.143 11.5342 1132 104.383 434.86 451.321
1037 0 101.248 12.8496 1301 102.513 434.482 449.459
1038 0 105.094 12.6077 1325 104.466 435.038 448.335
1039 0 108.204 13.0864 1416 106.02 435.1 446.919
1040 0 111.276 12.9228 1438 107.14 434.299 444.598
1041 0 115.299 12.0035 1384 108.363 434.867 442.538
1042 0 120.207 11.8962 1430 107.49 434.861 442.541
1043 0 124.186 12.8276 1593 105.514 435.02 437.011
1044 0 122.173 12.4905 1526 103.231 434.826 429.685
1045 0 131.31 13.4187 1762 102.804 434.159 425.952
1046 1 65.0888 10.0324 653 99.7672 434.317 458.585
1047 0 73.2156 12.6476 926 97.8099 433.942 462.675
1048 0 78.1175 12.7756 998 100.853 434.624 460.286
1049 0 78.0569 12.0937 944 103.372 434.798 460.573
1050 0 81.0965 12.8859 1045 101.964 435.096 458.47
1051 0 87.1294 12.843 1119 100.49 434.534 458.362
1052 0 90.0978 12.3311 1111 101.503 435.005 455.536
1053 0 92.0473 12.5696 1157 101.514 435.035 453.438
1054 0 95.0526 12.6667 1204 101.694 435.287 452.216
1055 0 98.0929 13.2527 1300 100.805 435.288 450.949
1056 0 101.093 12.6121 1275 102.424 435.068 448.494
1057 0 105.135 13.2972 1398 100.617 435.034 448.194
1058 0 109.116 12.4821 1362 102.205 435.015 444.623
1059 1 55.1668 11.6012 640 95.1797 435.036 474.113
1060 0 57.0583 13.8455 790 87.2367 434.018 471.88
1061 0 59.0228 11.1313 657 93.2679 435.199 472.327
1062 0 60.0449 10.642 639 94.1909 435.588 469.797
1063 0 63.0798 11.8739 749 92.0881 435.618 468.579
1064 0 66.0977 12.1638 804 91.8234 434.907 468.784
1065 0 67.1837 12.6221 848 91.4764 435.612 467.43
1066 0 70.0293 11.7522 823 92.5431 434.614 464.382
1067 0 73.0557 12.3741 904 91.8108 434.712 463.258
1068 0 75.0516 10.7126 804 95.6542 435.27 461.463
1069 0 78.1098 12.06 942 93.5372 435.707 462.289
1070 0 80.1464 12.4647 999 93.7838 434.121 459.595
1071 0 80.111 11.7212 939 96.3738 434.442 458.105
1072 0 85.197 12.8526 1095 94.5626 435.431 457.881
1073 0 89.0978 14.4336 1286 92.3686 435.06 453.98
1074 0 91.1172 13.4003 1221 95.0983 435.15 453.729
1075 0 95.0987 14.2063 1351 96.624 434.496 451.836
1076 0 98.2697 13.4222 1319 98.3973 434.454 449.866
1077 1 55.0706 10.3504 570 103.37 433.833 471.882
1078 0 54.1338 9.19944 498 106.88 434.275 470.161
1079 0 57.1183 10.8372 619 102.228 435.91 470.276
1080 0 62.1732 13.4946 839 97.4708 435.545 469.555
1081 0 64.1727 12.9962 834 97.7722 436.275 469.874
1082 0 64.0659 12.175 780 101.994 435.654 467.263
1083 0 67.2025 13.065 878 100.882 435.441 465.886
1084 0 70.1881 12.8369 901 101.518 435.646 464.659
1085 0 72.138 12.7395 919 103.112 436.444 463.269
1086 0 75.2163 13.7204 1032 100.858 437.019 464.078
1087 0 78.1167 13.5566 1059 101.721 435.925 462.978
1088 0 80.193 13.6795 1097 102.311 435.783 460.343
1089 0 84.1421 15.1173 1272 97.8608 436.197 459.093
1090 0 84.0502 12.9803 1091 103.511 436.163 456.252
1091 0 89.224 13.8416 1235 100.764 436.642 457.455
1092 0 90.1434 12.2582 1105 105.577 434.841 455.23
1093 0 93.0649 13.4745 1254 101.192 436.482 455.592
1094 0 96.124 12.744 1225 101.86 434.938 450.415
1095 0 99.2429 12.7062 1261 96.1538 435.112 448.5
1096 1 55.1088 9.94396 548 94.3485 435.363 471.982
1097 0 58.071 11.5032 668 94.1617 435.299 471.111
1098 0 61.0854 12.1633 743 92.6083 435.483 471.249
1099 0 60.1441 11.3561 683 93.1142 435.397 467.952
1100 0 64.0568 11.24 720 93.9472 435.957 468.017
1101 0 64.0722 10.894 698 95.8181 435.883 467.646
1102 0 66.0627 10.9896 726 95.708 434.824 467.036
1103 0 69.1406 11.0933 767 95.9283 435.772 465.874
1104 0 72.1031 11.8025 851 94.0024 436.08 465.692
1105 0 76.1565 12.5662 957 93.0669 435.841 463.053
1106 0 78.07 12.0661 942 94.5541 435.609 461.435
1107 0 83.124 12.7159 1057 92.7843 435.418 456.639
1108 0 83.1378 11.7035 973 98.038 435.818 454.499
1109 0 83.1125 9.97443 829 101.697 435.852 456.415
1110 0 89.0774 12.158 1083 98.7516 435.908 454.026
1111 0 92.1257 13.1017 1207 96.9975 436.476 453.642
1112 0 95.1369 12.2245 1163 99.1771 436.067 451.625
1113 0 98.137 11.7998 1158 100.054 435.865 451.667
1114 0 101.107 12.4027 1254 99.8732 434.862 447.4
1115 0 101.103 11.4042 1153 103.017 435.709 444.042
1116 0 108.12 12.0422 1302 100.154 435.098 447.231
1117 0 112.323 13.0161 1462 98.803 434.67 442.064
1118 0 117.143 11.3707 1332 101.658 434.195 439.848
1119 1 61.0447 10.2548 626 98.1214 434.374 467.187
1120 0 63.0932 10.7619 679 98.2459 434.231 466.242
1121 0 66.1243 11.6296 769 100.087 435.152 461.104
1122 0 72.0947 11.7623 848 94.6804 435.041 463.031
1123 0 72.2088 11.6052 838 95.3425 435.504 461.452
1124 0 78.1328 12.53 979 93.6793 435.811 452.701
1125 0 79.257 11.9485 947 96.6832 434.846 454.335
1126 0 82.1273 12.4197 1020 97.7902 435.741 450.865
1127 0 84.1686 12.772 1075 99.1247 434.624 453.174
1128 0 88.3201 12.5679 1110 100.438 435.414 450.723
1129 0 92.181 12.4863 1151 99.8749 435.067 451.004
1130 0 93.0782 12.9569 1206 101.823 434.981 439.789
1131 0 95.1993 12.4371 1184 102.807 434.416 438.699
1132 0 98.1387 14.021 1376 100.182 434.806 437.06
1133 0 103.112 12.9471 1335 102.475 433.778 438.235
1134 0 105.217 12.612 1327 103.424 433.899 436.3
1135 0 110.101 14.2687 1571 100.163 435.008 443.204
1136 0 112.119 14.877 1668 100.959 434.526 441.761
1137 0 115.113 13.3956 1542 103.781 434.348 440.518
1138 0 117.095 12.6223 1478 106.507 434.643 439.98
1139 0 123.274 12.963 1598 105.697 434.584 438.523
1140 0 128.363 13.9682 1793 103.785 433.979 435.808
1141 0 131.394 12.9306 1699 106.529 435.055 431.637
1142 0 138.302 13.8032 1909 103.377 434.194 429.79
1143 0 141.394 12.4546 1761 104.708 435.332 427.102
1144 1 81.105 13.3161 1080 99.7639 434.706 454.369
1145 0 84.2562 13.0198 1097 102.927 435.02 452.449
1146 0 87.184 13.4658 1174 108.014 434.712 454.798
1147 0 89.206 12.4095 1107 109.244 435.139 454.804
1148 0 92.1296 13.0794 1205 109.066 435.246 452.53
1149 0 96.2057 14.6457 1409 100.71 434.918 451.924
1150 0 98.179 13.2411 1300 105.232 434.591 449.708
1151 0 100.203 14.4207 1445 102.539 434.591 448.4
1152 0 103.273 14.0018 1446 103.205 435.432 449.64
1153 0 106.187 12.186 1294 108.606 435.753 444.341
1154 0 111.176 13.726 1526 103.476 434.304 445.075
1155 1 59.1027 10.744 635 108.364 436.006 467.883
1156 0 63.1101 12.0107 758 103.067 435.449 466.592
1157 0 65.143 13.0482 850 101.518 435.532 466.325
1158 0 63.1854 11.1893 707 104.707 435.423 467.028
1159 0 68.1406 11.2561 767 102.4 435.417 467.614
1160 0 70.1552 12.23 858 101.862 435.24 464.464
1161 0 72.1868 12.814 925 99.9535 434.183 464.102
1162 0 76.0351 13.0203 990 98.9606 435.096 462.016
1163 0 77.1087 13.8246 1066 97.8133 434.181 460.178
1164 0 80.1409 14.6866 1177 95.1793 435.024 460.145
1165 0 81.2619 12.1705 989 103.063 434.91 456.446
1166 0 87.0957 13.6861 1192 98.5277 434.607 456.657
1167 0 92.1127 15.8827 1463 71.2413 434.388 451.705
1168 0 88.2029 13.4236 1184 101.191 434.397 451.307
1169 0 92.0987 13.3878 1233 100.907 433.848 452.203
1170 0 95.1672 12.3887 1179 103.615 434.613 449.578
1171 0 101.225 14.611 1479 97.8844 434.501 447.458
1172 0 101.143 13.387 1354 102.621 434.997 447.665
1173 0 106.066 12.8882 1367 103.439 434.294 446.351
1174 0 109.138 13.1759 1438 103.139 435.501 445.22
1175 0 111.091 13.3674 1485 103.931 434.733 441.104
1176 0 114.135 11.8456 1352 106.81 434.22 443.268
1177 0 122.11 13.2012 1612 103.293 434.69 438.024
1178 1 65.1214 12.2387 797 104.907 435.476 466.238
1179 0 68.0478 13.3729 910 102.192 435.503 463.5
1180 0 69.1309 13.1924 912 103.568 435.689 464.758
1181 0 72.1779 13.5221 976 102.347 435.224 464.528
1182 0 76.2315 14.3641 1095 99.3562 435.037 462.496
1183 0 75.1219 13.8974 1044 102.597 435.218 461.834
1184 0 77.0774 14.6865 1132 100.961 435.915 460.011
1185 0 81.1904 14.5091 1178 101.638 435.844 458.577
1186 0 82.0689 14.8534 1219 101.642 435.415 457.43
1187 0 85.1655 15.7458 1341 99.4422 435.604 456.16
1188 0 86.1781 14.6789 1265 102.175 435.505 455.175
1189 0 89.1687 13.6819 1220 104.534 435.854 452.594
1190 0 93.1048 13.9735 1301 103.941 435.038 450.992
1191 0 92.1016 13.4634 1240 106.635 434.994 450.845
1192 0 99.1535 14.5734 1445 103.952 435.155 447.703
1193 0 102.048 14.0816 1437 106.116 435.542 445.358
1194 0 104.376 14.0167 1463 106.364 435.053 443.049
1195 0 110.086 13.4259 1478 107.775 434.974 440.558
1196 1 55.1343 11.1546 615 104.335 434.67 467.002
1197 0 56.0535 10.8646 609 104.388 434.43 468.555
1198 0 57.1089 12.1872 696 102.856 435.421 466.816
1199 0 57.1759 12.4003 709 103.794 434.072 466.661
1200 0 62.1674 12.3859 770 102.701 435.664 465.27
1201 0 60.1108 11.4289 687 107.048 434.955 462.94
1202 0 64.1171 11.6194 745 106.227 434.954 461.709
1203 0 69.0882 14.6045 1009 97.3726 434.524 460.023
1204 0 71.1246 13.863 986 99.6805 434.889 459.874
1205 0 70.1066 13.4937 946 101.862 434.893 461.039
1206 0 72.0928 13.33 961 102.863 435.116 459.57
1207 0 77.1274 12.3432 952 105.962 435.009 460.98
1208 0 78.136 12.875 1006 108.173 434.97 460.482
1209 0 80.0916 13.5095 1082 107.035 435.53 460.635
1210 0 81.0824 13.2211 1072 108.888 436.019 458.518
1211 0 84.0709 13.3935 1126 108.744 435.532 455.863
1212 0 85.1547 12.3775 1054 110.37 435.751 457.965
1213 0 87.0765 12.4948 1088 110.449 435.672 453.14
1214 0 92.1534 13.9984 1290 104.619 434.873 452.417
1215 0 94.0787 12.0112 1130 109.895 436.436 451.448
1216 0 97.1197 12.2426 1189 108.47 435.731 452.078
1217 0 99.1425 13.0217 1291 108.546 434.999 447.596
1218 0 104.192 14.0414 1463 103.848 434.431 444.797
1219 0 106.166 14.3925 1528 102.622 434.224 442.674
1220 0 107.089 12.0647 1292 108.429 434.473 439.801
1221 0 111.145 13.5678 1508 106.053 434.365 437.75
1222 0 116.072 13.9052 1614 104.131 434.398 436.245
1223 0 119.133 13.2793 1582 104.987 434.578 434.387
1224 0 124.18 12.4818 1550 107.145 434.41 430.25
1225 1 71.0843 9.70679 690 101.288 435.396 461.412
1226 0 72.0872 11.6803 842 96.4798 435.437 462.493
1227 0 78.1394 12.3497 965 99.8684 434.426 462.848
1228 0 80.2728 13.1801 1058 99.1059 434.991 460.352
1229 0 81.0641 13.7545 1115 99.357 434.913 460.347
1230 0 84.1156 13.7787 1159 99.2114 434.613 460.856
1231 0 85.088 13.727 1168 100.292 434.251 458.94
1232 0 88.124 13.2314 1166 101.521 434.344 454.514
1233 0 91.1056 13.2593 1208 100.7 434.769 455.794
1234 0 90.1522 12.612 1137 103.912 435.47 451.2
1235 0 95.0669 12.5175 1190 102.873 435.487 452.651
1236 0 94.0899 12.5199 1178 105.933 435.681 448.553
1237 0 99.1187 14.0942 1397 101.485 435.49 448.329
1238 0 99.0929 11.6557 1155 107.938 435.338 447.84
1239 0 104.245 13.4779 1405 104.827 436.458 443.456
1240 0 106.14 13.812 1466 104.506 435.543 439.754
1241 0 110.1 14.3506 1580 102.742 436.552 444.067
1242 0 111.099 13.1684 1463 106.505 434.887 440.817
1243 0 118.143 12.9758 1533 106.153 436.074 438.367
1244 0 122.19 13.7163 1676 104.587 435.903 437.981
1245 0 126.134 13.2241 1668 106.132 435.608 433.517
1246 0 131.23 14.5927 1915 103.256 436.126 431.162
1247 1 72.1094 11.8708 856 105.985 435.678 460.723
1248 0 73.0693 11.5507 844 107.895 434.859 458.967
1249 0 75.2176 11.6595 877 107.262 435.659 458.95
1250 0 80.0942 13.0346 1044 104.135 435.53 460.361
1251 0 82.0789 12.1347 996 106.839 436.089 459.289
1252 0 84.0957 12.1766 1024 107.472 435.626 457.155
1253 0 87.1222 12.603 1098 106.07 436.08 455.243
1254 0 91.1103 14.3233 1305 101.19 435.258 449.588
1255 0 92.0907 14.1057 1299 103.062 434.808 449.283
1256 0 95.1118 13.2265 1258 104.959 434.337 450.932
1257 0 94.1122 12.1132 1140 109.122 434.63 445.143
1258 0 97.1196 14.1681 1376 104.355 433.853 442.23
1259 0 99.1814 11.8369 1174 109.488 435.573 439.915
1260 0 102.124 12.8569 1313 108.427 434.966 437.05
1261 0 101.152 13.1881 1334 108.25 434.934 439.738
1262 0 104.098 11.883 1237 111.299 434.716 434.832
1263 0 110.153 12.41 1367 109.888 435.11 437.174
1264 0 115.277 13.0468 1504 107.884 434.828 432.938
1265 0 121.19 12.8724 1560 107.462 434.829 430.051
1266 0 124.137 13.3804 1661 106.359 433.716 426.435
1267 1 67.0479 11.3948 764 105.029 434.327 457.571
1268 0 74.0808 11.9329 884 104.965 434.268 457.9
1269 0 78.0962 12.5998 984 103.484 434.813 460.13
1270 0 80.0676 11.6651 934 105.868 434.936 460.872
1271 0 82.0697 12.6356 1037 103.503 434.901 451.056
1272 0 84.0482 12.3144 1035 105.187 435.908 439.381
1273 0 87.035 12.765 1111 104.621 434.95 435.814
1274 0 88.0886 12.6918 1118 104.606 435.842 432.89
1275 0 91.1494 12.5069 1140 104.93 435.598 434.217
1276 0 95.1724 13.4072 1276 102.542 435.139 433.399
1277 0 97.1148 13.6848 1329 101.614 435.123 432.409
1278 0 100.102 12.797 1281 102.966 435.173 438.528
1279 0 103.128 14.1474 1459 101.231 434.968 437.297
1280 0 105.179 12.3693 1301 104.643 434.549 437.244
1281 0 108.109 12.5244 1354 103.953 435.42 444.335
1282 0 111.274 13.5342 1506 101.793 435.192 437.193
1283 0 115.171 13.0068 1498 101.9 435.917 436.547
1284 0 118.231 13.2537 1567 101.945 435.459 438.116
1285 0 122.196 12.2262 1494 105.295 435.656 432.958
1286 1 70.2139 10.7956 758 100.844 435.484 457.85
1287 0 70.1985 12.2937 863 100.321 435.539 454.241
1288 0 79.2426 12.1021 959 101.976 435.449 460.554
1289 0 82.4166 12.6795 1045 101.739 436.581 457.024
1290 0 83.3637 12.0436 1004 103.422 436.248 456.868
1291 0 87.1867 13.8783 1210 98.2669 436.169 453.205
1292 0 85.2643 11.3881 971 105.633 436.791 450.655
1293 0 91.2477 13.8414 1263 99.7268 436.971 451.602
1294 0 93.3001 12.7331 1188 102.189 437.195 448.391
1295 0 97.3119 12.6192 1228 102.582 437.394 446.707
1296 0 101.373 13.0015 1318 101.238 436.585 446.848
1297 0 104.343 13.839 1444 99.8289 436.447 443.72
1298 0 106.291 12.9738 1379 101.927 436.958 441.182
1299 0 105.133 13.6493 1435 100.192 435.891 440.26
1300 0 108.122 12.2084 1320 104.967 435.812 433.998
1301 0 114.308 13.8573 1584 100.815 435.775 435.047
1302 0 117.28 14.1712 1662 101.381 435.679 431.874
1303 0 117.216 13.8974 1629 102.821 436.567 429.06
1304 0 122.228 13.5321 1654 103.217 436.956 428.831
1305 0 126.206 13.7552 1736 104.208 436.677 428.461
1306 0 125.3 13.1923 1653 105.622 436.737 429.221
1307 0 130.282 11.6516 1518 108.444 437.382 425.117
1308 0 134.285 13.531 1817 105.261 436.997 420.483
1309 0 137.238 12.7443 1749 106.395 436.942 417.823
1310 0 144.398 14.2038 2051 102.798 436.071 417.188
1311 1 78.1354 9.86748 771 99.869 436.227 452.258
1312 0 82.1397 12.637 1038 97.0096 435.609 454.679
1313 0 81.0953 10.5801 858 101.992 435.818 453.142
1314 0 84.217 9.96236 839 89.3945 435.945 453.008
1315 0 88.0884 10.6824 941 89.0011 435.902 453.994
1316 0 90.0615 10.3374 931 88.9624 435.532 452.902
1317 0 92.1961 10.4451 963 87.7124 434.786 450.429
1318 0 95.2584 9.96238 949 88.9125 434.639 450.704
1319 0 100.174 12.6879 1271 86.5083 434.436 453.106
1320 0 92.1249 8.42335 776 90.4845 435.726 443.211
1321 0 97.1156 11.0075 1069 91.6819 434.2 444.79
1322 0 99.177 11.8878 1179 90.2867 434.539 438.382
1323 0 95.121 10.1029 961 95.2685 434.133 439.827
1324 0 100.14 9.95611 997 95.5878 434.128 446.497
1325 0 105.445 12.6796 1337 95.2506 434.16 449.411
1326 0 104.328 11.2338 1172 97.6365 435.16 451.138
1327 0 109.408 12.3208 1348 95.7871 434.986 448.749
1328 0 108.208 11.672 1263 98.4196 434.414 447.135
1329 0 111.353 12.3751 1378 96.7315 434.071 445.97
1330 0 114.165 13.0863 1494 95.3829 434.349 444.507
1331 0 116.235 13.0855 1521 96.1861 434.159 445.817
1332 0 119.114 13.6424 1625 95.0418 434.566 444.026
1333 0 121.303 12.3163 1494 98.9043 433.539 440.634
1334 0 124.168 15.2858 1898 93.0332 434.174 439.369
1335 0 124.201 12.6408 1570 103.478 434.019 436.471
1336 0 126.16 13.3481 1684 104.095 433.766 434.996
1337 0 130.126 14.6627 1908 94.7165 434.031 434.797
1338 0 130.228 12.3169 1604 101.342 433.51 433.175
1339 0 135.314 13.4281 1817 104.021 433.521 433.769
1340 0 138.109 13.9093 1921 103.234 432.851 430.52
1341 0 139.169 13.3148 1853 105.009 433.655 430.37
1342 0 142.27 13.868 1973 103.791 433.055 429.775
1343 0 145.25 14.1756 2059 102.799 433.458 428.578
1344 0 149.371 14.0991 2106 102.939 432.83 426.438
1345 0 151.144 13.6558 2064 104.726 433.063 427.215
1346 0 153.192 13.8128 2116 105.722 432.523 421.74
1347 1 110.171 12.9162 1423 102.71 433.732 449.459
1348 0 111.231 13.3057 1480 103.626 433.258 445.75
1349 0 114.348 12.3308 1410 106.334 434.457 442.13
1350 0 116.14 13.191 1532 105.64 433.931 443.305
1351 0 119.155 13.3691 1593 106.763 434.272 439.263
1352 0 121.185 12.188 1477 109.864 432.949 437.652
1353 0 126.219 14.4828 1828 104.598 434.277 437.493
1354 0 126.171 11.96 1509 110.822 432.71 432.716
1355 0 130.256 11.7537 1531 111.169 432.815 433.73
1356 0 139.246 15.8425 2206 100.389 433.727 431.359
1357 0 143.43 15.45 2216 101.1 432.747 425.471
1358 0 148.246 15.3124 2270 100.805 432.808 420.95
1359 0 151.274 15.5149 2347 100.971 432.313 420.57
1360 0 158.417 15.5539 2464 99.7963 433.39 416.09
1361 0 167.672 16.7171 2803 95.9622 433.519 415.093
1362 0 172.364 20.7526 3577 87.3372 433.095 407.504
1363 1 128.368 12.1526 1560 105.609 433.29 438.327
1364 0 132.189 12.5805 1663 105.981 432.909 432.559
1365 0 136.356 13.3914 1826 104.636 432.867 431.752
1366 0 140.302 13.4567 1888 104.32 432.905 433.027
1367 0 143.407 13.2839 1905 106.632 432.357 426.48
1368 0 148.313 13.0737 1939 107.501 433.02 425.804
1369 0 150.251 13.7969 2073 106.889 432.324 424.173
1370 0 155.203 13.5564 2104 107.712 431.99 421.519
1371 0 159.252 13.8271 2202 107.287 431.911 419.126
1372 0 163.282 14.0064 2287 108.246 432.407 414.35
1373 0 168.396 14.6441 2466 107.263 432.069 412.725
1374 0 175.256 16.5073 2893 102.741 432.223 414.926
1375 0 182.39 16.6675 3040 102.337 432.167 411.707
1376 0 185.407 14.6165 2710 109.347 432.714 409.958
1377 0 191.252 14.792 2829 109.557 432.87 409.284
1378 0 195.218 15.0294 2934 110.721 432.729 403.962
1379 0 201.402 14.6275 2946 111.757 431.257 405.099
1380 0 209.343 15.5868 3263 109.593 431.894 398.434
1381 1 150.209 12.4293 1867 111.862 431.294 432.638
1382 0 154.244 13.4722 2078 111.929 431.373 426.046
1383 0 157.253 13.2016 2076 113.345 432.255 425.524
1384 0 162.255 14.1876 2302 111.876 432.762 421.787
1385 0 166.235 13.4809 2241 115.237 432.2 421.855
1386 0 169.19 12.8081 2167 116.861 432.802 417.584
1387 0 177.23 12.7687 2263 116.329 432.694 416.733
1388 0 183.288 13.6288 2498 115.506 432.4 412.112
1389 0 188.23 13.611 2562 116.679 431.624 409.225
1390 0 191.213 14.5283 2778 116.468 433.081 399.657
1391 0 200.142 13.4204 2686 119.205 431.741 400.217
1392 0 206.234 13.5865 2802 119.46 431.207 397.214
1393 1 160.174 12.0307 1927 117.627 431.677 425.794
1394 0 164.343 12.4678 2049 118.418 431.54 415.114
1395 0 170.265 13.5789 2312 115.574 431.481 414.212
1396 0 178.238 13.5998 2424 115.245 432.09 412.139
1397 0 181.241 12.8503 2329 117.489 430.852 405.081
1398 0 187.181 12.8058 2397 118.084 430.74 402.159
1399 0 196.25 13.0446 2560 116.837 431.163 402.523
1400 0 204.356 13.5254 2764 116.036 431.242 397.942
1401 0 211.312 13.5203 2857 116.909 431.35 390.995
1402 0 215.311 13.6408 2937 117.634 432.206 383.67
1403 0 225.432 14.674 3308 114.256 430.935 373.622
1404 0 230.25 13.2986 3062 119.13 431.231 376.929
1405 0 238.162 13.5706 3232 119.122 431.55 378.16
1406 0 243.151 13.2222 3215 120.283 430.893 370.606
1407 1 61.0807 7.23633 442 107.357 432.283 457.242
1408 0 64.0868 7.20897 462 100.968 433.102 466.015
1409 0 69.0557 9.64438 666 99.9895 432.473 463.515
1410 0 73.1235 11.1182 813 100.931 431.825 468.477
1411 0 76.161 11.3838 867 100.266 433.567 464.984
1412 0 77.0784 10.8461 836 101.929 432.35 466.77
1413 0 80.0769 12.8876 1032 97.2229 432.18 462.37
1414 0 83.0584 12.3528 1026 98.0351 433.034 460.267
1415 0 85.0531 12.792 1088 97.92 432.949 460.785
1416 0 85.1409 11.111 946 100.332 433.017 460.282
1417 0 87.0949 12.8595 1120 95.3598 432.105 455.782
1418 0 93.1205 12.6395 1177 95.1631 432.65 452.469
1419 0 94.1939 9.95818 938 101.493 432.709 454.744
1420 0 98.0388 12.2094 1197 98.8538 433.784 455.322
1421 0 101.113 12.224 1236 100.553 432.782 452.743
1422 0 104.154 11.0797 1154 103.719 433.235 454.046
1423 0 106.166 11.0394 1172 104.039 432.613 451.565
1424 0 113.236 14.7479 1670 94.9569 432.146 440.227
1425 0 120.185 15.3347 1843 93.0684 432.061 440.262
1426 0 120.152 14.4067 1731 95.6089 432.148 440.703
1427 0 121.209 11.6245 1409 102.004 431.63 443.884
1428 0 125.185 11.3991 1427 101.197 431.381 443.386
1429 0 130.205 12.1501 1582 99.9646 431.37 438.401
1430 1 78.1363 12.0558 942 90.7293 432.626 455.402
1431 0 80.0787 10.1026 809 97.131 432.564 452.548
1432 0 83.1223 11.441 951 95.4374 431.945 452.336
1433 0 87.0403 11.1672 972 99.3261 432.2 455.256
1434 0 87.1368 11.35 989 100.583 431.649 456.323
1435 0 89.1431 12.1939 1087 100.301 431.575 458.643
1436 0 92.0636 12.7521 1174 99.1652 431.034 460.204
1437 0 95.0851 12.8516 1222 98.7807 431.164 459.366
1438 0 97.1784 12.1117 1177 100.669 431.631 458.363
1439 0 97.1416 11.2413 1092 103.053 430.86 455.644
1440 0 102.243 13.0278 1332 96.8356 431.737 455.827
1441 0 108.313 15.1043 1636 90.8918 430.861 438.307
1442 0 111.152 14.8445 1650 92.3703 431.607 440.355
1443 0 112.145 13.5896 1524 96.2448 432.158 438.375
1444 0 113.185 11.5122 1303 101.523 431.688 439.697
1445 0 116.23 12.372 1438 99.6759 431.857 441.822
1446 0 118.302 11.8003 1396 100.302 431.587 444.918
1447 0 122.203 13.0356 1593 98.0345 431.922 443.566
1448 0 125.502 12.3822 1554 99.6184 432.053 441.573
1449 0 130.329 12.9442 1687 96.3094 430.749 442.321
1450 0 132.5 12.0151 1592 97.309 431.361 441.403
1451 1 76.2645 10.8045 824 93.7512 430.785 463.316
1452 0 78.3939 11.6846 916 91.5044 430.883 463.497
1453 0 80.4346 11.8481 953 94.5456 430.51 465.511
1454 0 84.2791 12.8502 1083 95.2428 431.008 462.202
1455 0 83.3054 12.028 1002 101.508 431.479 459.932
1456 0 88.319 12.8738 1137 98.9894 431.598 458.328
1457 0 91.6643 12.0549 1105 99.9982 430.966 460.599
1458 0 95.408 13.0283 1243 98.8101 432.138 457.015
1459 0 95.4721 12.0559 1151 101.981 431.273 454.492
1460 0 94.0849 11.7766 1108 102.592 431.701 453.386
1461 0 98.1526 11.961 1174 101.987 431.519 449.978
1462 0 101.231 11.2514 1139 102.703 430.385 449.942
1463 0 105.19 12.0733 1270 99.9976 430.543 451.142
1464 0 105.202 12.5568 1321 100.272 430.597 447.537
1465 0 110.144 13.2554 1460 98.3082 432.051 445.277
1466 0 110.157 11.9829 1320 101.869 431.878 445.052
1467 0 115.258 13.422 1547 98.6206 432.149 441.846
1468 0 118.173 12.431 1469 100.956 432.192 439.133
1469 0 121.293 13.7354 1666 97.8013 431.257 436.2
1470 0 124.209 12.7205 1580 99.2551 432.008 436.495
1471 0 129.384 13.4097 1735 97.0444 431.742 432.2
1472 0 135.181 14.4843 1958 94.1629 432.633 435.014
1473 0 139.3 13.855 1930 95.1228 432.61 428.512
1474 0 142.179 13.5393 1925 96.5881 432.67 425.089
1475 0 148.237 14.4701 2145 95.4462 433.078 425.846
1476 1 81.1309 10.8836 883 98.8358 432.595 457.914
1477 0 82.2013 11.0217 906 99.7351 432.756 455.009
1478 0 85.091 11.5406 982 99.0784 432.798 452.62
1479 0 91.1463 12.1234 1105 95.9891 432.253 456.092
1480 0 92.1417 13.1754 1214 95.8328 432.345 450.643
1481 0 95.0538 13.0452 1240 95.8774 431.948 450.915
1482 0 97.1219 12.6851 1232 96.5511 433.035 451.613
1483 0 101.115 11.4721 1160 98.8603 432.228 449.739
1484 0 102.126 13.1993 1348 96.2181 431.594 449.761
1485 0 104.087 12.4511 1296 98.4267 432.59 446.607
1486 0 104.335 11.8656 1238 101.09 432.141 443.788
1487 0 108.253 13.0066 1408 98.9986 432.052 444.283
1488 0 114.243 13.2699 1516 97.2177 432.704 444.465
1489 0 115.307 14.1189 1628 97.621 431.752 441.346
