time division length width area intensity CMx CMy
0 0 27.0296 10.47 283 147.152 656.738 488.873
1 0 26.0434 10.3673 270 149.881 657.174 488.463
2 0 29.0091 11.1689 324 142.222 656.531 488.222
3 0 30.0465 11.5488 347 140.133 656.775 488.239
4 0 31.0142 11.6721 362 140.539 657.102 487.329
5 0 30.0466 11.1826 336 142.554 657.628 487.756
6 0 30.0131 12.1613 365 140.6 657.318 486.411
7 0 30.0181 11.3931 342 142.044 656.936 487.538
8 0 34.0159 12.4059 422 136.427 656.792 487.417
9 0 33.0043 12.1499 401 139.347 657.222 486.03
10 0 32.0103 10.4342 334 147.045 657.488 486.482
11 0 34.0236 11.5214 392 142.551 657.582 486.168
12 0 36.0377 10.711 386 143.528 657.339 486.767
13 0 36.0371 11.9321 430 142.54 657.251 485.77
14 0 36.0316 12.1005 436 141.323 656.789 486.45
15 0 39.0982 12.1233 474 140.118 655.949 486.19
16 0 39.016 11.6875 456 142.842 656.184 485.877
17 0 40.0767 12.0768 484 141.079 655.948 486.159
18 0 42.0279 13.1817 554 137.069 655.942 485.572
19 0 44.0307 12.8092 564 138.16 656.3 484.206
20 0 43.0328 11.6423 501 143.082 655.511 485.128
21 0 46.0229 12.4938 575 138.477 654.489 484.539
22 0 46.0486 12.7257 586 139.362 654.053 484.461
23 0 48.0287 11.7222 563 140.973 654.583 485.508
24 0 50.0188 12.5753 629 138.186 655.453 484.277
25 0 51.0514 12.1446 620 137.403 654.903 484.658
26 0 53.0661 13.4549 714 134.209 654.171 481.944
27 0 53.037 12.3876 657 137.242 653.516 481.009
28 0 56.084 13.1945 740 132.778 654.374 481.936
29 0 58.0408 13.1632 764 132.87 654.898 480.113
30 0 62.0204 13.5923 843 130.189 654.666 479.192
31 0 61.0448 11.9093 727 135.704 654.403 478.231
32 0 65.0554 12.5278 815 130.923 654.249 476.804
33 0 67.0737 12.7919 858 129.4 653.702 475.901
34 0 69.0349 11.965 826 130.314 653.186 475.943
35 0 70.0511 12.1626 852 129.85 653.363 475.384
36 0 73.0799 12.5069 914 126.689 654.204 474.668
37 0 77.1071 12.5021 964 126.258 653.934 472.519
38 0 79.1051 12.338 976 126.138 654.023 470.971
39 1 41.0778 12.6346 519 126.162 653.981 489.083
40 0 43.1094 13.1526 567 123.411 653.702 487.956
41 0 43.1258 12.9853 560 124.889 653.371 486.53
42 0 44.0524 12.8937 568 121.671 653.083 486.356
43 0 44.0243 12.5158 551 125.539 652.978 486.657
44 0 47.0218 13.3768 629 120.164 652.997 486.547
45 0 50.059 12.9248 647 120.425 652.915 485.641
46 0 52.1207 13.0466 680 118.64 652.457 484.847
47 0 52.096 13.0528 680 120.063 652.39 482.938
48 0 55.0578 14.9298 822 115.197 652.85 481.314
49 0 56.0764 13.446 754 117.369 652.26 483.285
50 0 59.0673 13.9333 823 117.255 652.674 480.571
51 0 61.0866 13.1453 803 118.908 652.57 480.09
52 0 63.1233 13.4974 852 117.778 653.385 480.371
53 0 67.06 13.4208 900 118.716 653.51 478.887
54 0 67.0868 13.5943 912 120.193 652.834 476.834
55 0 72.0347 14.6041 1052 117.455 652.331 475.972
56 0 76.0507 14.3588 1092 117.353 651.925 476.263
57 0 78.1318 14.1556 1106 120.52 652.194 475.507
58 0 79.0598 13.5973 1075 125.432 652.433 472.556
59 0 82.0768 13.7676 1130 126.112 652.373 472.828
60 0 85.1989 13.7913 1175 128.616 652.048 468.511
61 0 85.1989 13.9321 1187 153.159 653.034 468.456
62 0 91.1005 14.1821 1292 127.942 652.242 466.26
63 0 96.1402 14.6037 1404 127.866 652.112 463.681
64 1 51.0991 10.9004 557 133.548 650.962 485.431
65 0 54.087 12.5723 680 128.851 650.847 484.243
66 0 54.0301 13.6776 739 124.198 650.836 484.497
67 0 57.0575 14.3715 820 123.248 651.24 481.601
68 0 58.1844 12.976 755 129.43 651.057 483.343
69 0 61.133 13.577 830 126.953 651.322 481.801
70 0 62.0576 14.0192 870 126.387 651.368 480.229
71 0 65.1409 13.8776 904 126.543 651.492 479.424
72 0 67.1474 12.6885 852 128.952 651.445 480.32
73 0 70.1531 13.4278 942 127.571 651.065 476.59
74 0 72.1595 12.999 938 128.344 651 477.113
75 0 76.2051 13.2275 1008 126.69 651.097 475.148
76 0 79.2365 14.0087 1110 125.784 651.037 473.848
77 0 81.3286 13.759 1119 127.702 651.432 472.307
78 0 86.2898 14.9264 1288 122.535 651.217 470.575
79 0 87.2786 14.574 1272 125.252 651.568 466.998
80 0 89.2605 13.9479 1245 127.867 652.174 464.584
81 0 95.0468 14.3929 1368 126.965 652.321 465.083
82 1 47.0976 11.0409 520 129.077 651.694 489.198
83 0 49.0813 12.6729 622 125.252 651.852 487.463
84 0 50.11 12.9715 650 128.209 651.532 485.782
85 0 50.063 12.2246 612 130.572 651.868 486.386
86 0 53.0411 12.2169 648 128.742 652.134 486.798
87 0 55.0618 12.5495 691 127.197 651.994 486.187
88 0 58.089 13.6687 794 123.702 652.948 484.302
89 0 58.1317 12.7125 739 126.824 652.609 482.216
90 0 58.0698 12.4505 723 128.627 652.326 481.007
91 0 61.1155 12.7954 782 118.93 652.646 483.962
92 0 61.0824 12.9333 790 121.553 651.738 481.582
93 0 65.0392 12.4233 808 123.662 651.589 480.288
94 0 69.0562 12.9025 891 123.377 651.553 479.45
95 0 70.0858 13.2409 928 125.448 651.57 479.334
96 0 73.1047 13.3507 976 126.064 650.997 476.719
97 0 76.1885 13.8735 1057 125.277 651.132 476.903
98 0 76.2146 13.7638 1049 127.663 651.35 474.781
99 0 79.2258 13.7077 1086 129.17 651.491 471.459
100 0 83.3029 14.0932 1174 127.673 651.499 469.491
101 0 87.2272 14.147 1234 127.01 650.698 467.848
102 0 88.355 13.525 1195 130.223 651.114 465.684
103 0 91.1666 14.3035 1304 126.037 650.837 464.924
104 1 47.1257 11.0343 520 125.281 650.548 488.263
105 0 50.1343 11.1301 558 125.799 650.475 486.455
106 0 52.0952 11.8437 617 122.572 650.29 486.086
107 0 54.0686 13.2239 715 118.51 651.064 487.462
108 0 56.0905 12.4442 698 120.158 651.507 485.835
109 0 58.0548 11.9714 695 129.846 651.765 485.384
110 0 59.1785 12.6904 751 127.439 652.116 484.815
111 0 61.1577 12.0999 740 131.192 651.903 482.095
112 0 64.1194 13.74 881 125.83 651.516 481.759
113 0 65.0986 12.3659 805 130.322 651.68 481.738
114 0 68.1742 13.5389 923 127.068 651.596 480.135
115 0 69.2368 14.0099 970 127.581 650.692 478.126
116 0 71.1935 13.2315 942 130.447 651.395 477.201
117 0 71.245 12.5061 891 134.688 651.372 475.139
118 0 76.29 13.8944 1060 129.901 651.983 474.607
119 0 78.1819 12.7139 994 133.409 652.334 474.877
120 0 81.1932 13.4371 1091 131.071 651.507 472.818
121 0 83.1491 12.5678 1045 134.087 651.094 471.635
122 0 85.1171 13.0174 1108 131.519 651.008 467.551
123 0 89.2872 12.8574 1148 130.788 651.294 467.895
124 0 92.1782 12.4867 1151 131.916 651.233 467.069
125 0 96.3793 12.6583 1220 131.557 651.764 464.359
126 1 50.1422 11.2281 563 130.583 651.689 485.236
127 0 53.2127 12.7225 677 126.919 651.303 484.061
128 0 53.1668 11.1348 592 133.28 651.36 482.677
129 0 51.0519 10.695 546 126.104 650.707 486.491
130 0 55.0984 11.6882 644 121.472 650.884 487.276
131 0 55.0597 11.987 660 123.924 650.485 483.512
132 0 57.0409 11.4129 651 124.111 650.2 483.488
133 0 58.1078 11.2722 655 123.748 650.038 484.704
134 0 62.1434 12.3424 767 122.039 650.777 481.274
135 0 64.0489 12.5685 805 122.658 650.412 481.276
136 0 65.0593 11.9891 780 125.276 650.585 481.254
137 0 68.0425 12.3893 843 125.299 649.81 479.013
138 0 69.0415 12.3694 854 127.204 650.388 476.982
139 0 71.0241 10.9963 781 130.805 650.849 477.328
140 0 77.0552 12.1342 935 128.658 650.546 475.491
141 0 79.0224 12.8698 1017 128.031 650.146 472.655
142 0 82.0462 13.6387 1119 125.648 650.166 472.002
143 1 40.0566 9.76119 391 129.99 650.928 491.054
144 0 44.0743 9.89239 436 127.156 651.294 491.725
145 0 45.0974 11.7523 530 122.34 651.091 490.977
146 0 47.0672 11.6429 548 123.412 651.473 489.522
147 0 46.1532 10.9418 505 127.127 650.576 488.901
148 0 48.049 10.6974 514 127.467 650.605 489.992
149 0 51.1049 12.308 629 123.623 650.547 488.103
150 0 52.1963 11.61 606 126.046 650.053 487.439
151 0 53.1057 12.3904 658 123.658 650.268 484.936
152 0 55.0561 12.6235 695 122.965 650.636 485.783
153 0 56.1703 11.839 665 124.871 651.077 485.233
154 0 60.1109 12.976 780 120.751 651.233 483.496
155 0 61.0909 12.4241 759 123.436 650.926 481.245
156 0 61.0913 12.4731 762 131.076 650.714 479.528
157 0 63.1082 11.9794 756 130.881 650.577 480.222
158 0 68.164 12.734 868 127.028 650.547 479.452
159 0 68.1199 12.7569 869 129.208 650.518 475.952
160 0 70.1096 12.3236 864 129.736 650.463 475.329
161 0 73.1467 12.5091 915 127.187 650.569 476.263
162 0 76.0655 13.3306 1014 124.367 650.776 474.918
163 0 77.0767 12.1956 940 127.521 650.331 472.717
164 0 80.1563 12.2136 979 127.559 650.89 470.239
165 0 82.1767 12.2541 1007 127.468 651.291 469.448
166 0 86.1438 13.5936 1171 122.781 651.051 468.445
167 0 88.0999 12.3723 1090 126.818 651.402 466.558
168 1 46.038 9.92658 457 121.716 651.823 489
169 0 45.0837 10.0923 455 123.622 651.604 486.985
170 0 48.0368 11.741 564 119.55 650.41 486.092
171 0 52.0703 11.9646 623 116.987 650.648 486.185
172 0 54.1151 13.1756 713 114.548 650.379 484.917
173 0 53.1095 11.6552 619 116.956 650.137 484.49
174 0 56.0416 12.3837 694 114.412 650.53 482.751
175 0 58.0742 11.4853 667 116.316 650.654 482.63
176 0 58.0237 12.3743 718 115.446 650.277 482.563
177 0 60.0833 11.1845 672 118.222 650.327 482.042
178 0 62.0923 12.3687 768 115.835 650.465 480.598
179 0 65.0861 12.6909 826 114.115 649.935 478.004
180 0 64.0545 12.3801 793 115.127 649.214 476.757
181 0 69.2979 13.2039 915 111.134 650.42 476.92
182 0 70.1414 12.1469 852 114.825 650.224 475.252
183 0 73.038 12.692 927 113.869 650.215 473.825
184 0 76.1158 11.3774 866 116.76 650.468 474.364
185 0 79.1368 11.4991 910 116.687 650.651 470.794
186 0 81.092 12.8373 1041 114.291 651.289 469.396
187 0 82.076 11.5137 945 118.783 651.079 469.403
188 0 87.1989 12.7181 1109 118.179 650.467 469.682
189 0 88.0743 11.7287 1033 119.917 650.95 467.263
190 0 90.1082 11.8746 1070 118.291 650.558 466.154
191 0 93.1319 11.6716 1087 119.16 650.258 462.861
192 0 96.1442 11.8572 1140 119.416 650.073 460.614
193 0 97.2378 11.6827 1136 120.559 650.269 455.805
194 0 102.228 12.5405 1282 117.732 649.971 456.856
195 0 106.259 12.7048 1350 116.856 649.651 455.47
196 0 109.427 12.008 1314 118.591 649.933 453.712
197 1 51.1247 10.6798 546 114.423 651.073 482.8
198 0 53.1419 12.6266 671 114.358 650.61 479.347
199 0 56.1855 13.2063 742 115.41 650.162 475.918
200 0 58.1253 13.815 803 112.026 650.116 479.9
201 0 61.1242 13.0881 800 113.121 650.629 481.174
202 0 61.0871 13.5544 828 114.784 650.546 479.017
203 0 63.1368 13.2253 835 114.303 650.362 478.884
204 0 67.1523 12.494 839 115.269 650.303 477.416
205 0 68.1796 13.6551 931 112.407 650.403 474.623
206 0 70.0593 13.1032 918 114.02 650.269 473.633
207 0 73.092 13.5035 987 112.895 650.276 470.946
208 0 77.1974 13.8865 1072 110.233 649.98 471.38
209 0 79.0986 13.9067 1100 109.407 650.081 469.336
210 0 81.1224 14.0035 1136 110.445 650.26 468.901
211 0 83.0971 13.045 1084 113.566 650.255 464.949
212 0 88.1922 14.3777 1268 109.266 650.595 465.92
213 0 89.1525 13.0339 1162 112.921 649.929 464.95
214 0 93.1069 14.2632 1328 109.005 650.352 462.978
215 0 94.0888 14.5395 1368 109.702 651.649 451.432
216 1 47.0755 10.5787 498 111.388 651.374 477.878
217 0 48.0316 10.0559 483 108.876 650.097 482.6
218 0 50.0953 12.1169 607 109.157 649.816 485.275
219 0 51.1073 11.3487 580 112.56 651.012 483.766
220 0 55.072 12.4201 684 109.636 651.192 483.728
221 0 56.1887 11.3546 638 112.221 649.92 484.823
222 0 58.1051 11.9955 697 111.222 651.082 481.716
223 0 59.171 11.9315 706 104.535 649.754 481.517
224 0 62.0544 12.618 783 110.948 650.862 480.188
225 0 63.0842 11.6194 733 108.593 650.458 479.457
226 0 65.0955 13.0424 849 107.007 650.311 478.828
227 0 67.067 12.1222 813 109.95 650.927 478.798
228 0 69.0808 12.0004 829 115.808 650.71 478.872
229 0 70.2407 12.6422 888 111.7 650.499 475.483
230 0 70.1415 10.8923 764 121.558 650.908 475.92
231 0 75.151 11.8827 893 119.072 651.457 474.77
232 0 74.0653 10.9768 813 122.946 651.271 474.279
233 0 78.0924 11.8449 925 120.239 651.065 472.933
234 0 82.1142 12.0564 990 119.267 651.062 470.962
235 0 85.1991 11.0799 944 121.424 651.276 470.377
236 0 87.0534 12.3028 1071 118.537 651.112 470.044
237 0 90.1503 11.8025 1064 120.934 650.279 467.709
238 1 43.0098 10.3232 444 116.55 650.462 490.901
239 0 44.0527 10.6463 469 116.021 651.13 491.471
240 0 46.0733 11.5902 534 114.762 651.103 488.788
241 0 47.0299 10.9505 515 117.563 651.198 487.924
242 0 49.0836 11.022 541 114.582 650.712 489.73
243 0 50.0754 12.2415 613 112.808 650.729 488.716
244 0 51.0586 10.8503 554 116.578 650.209 488.41
245 0 53.0893 11.5277 612 114.859 650.518 487.013
246 0 54.1174 11.5305 624 115.74 650.082 486.46
247 0 56.0884 11.8919 667 116.352 650.261 483.462
248 0 57.0763 10.9502 625 118.885 650.371 484.253
249 0 61.0818 11.3618 694 115.441 650.245 484.661
250 0 63.1064 11.9322 753 117.092 650.558 480.932
251 0 64.1413 11.3811 730 118.268 650.245 480.629
252 0 69.1095 12.6611 875 114.255 650.305 478.96
253 0 69.0604 11.7578 812 118.599 650.947 478.422
254 0 72.0249 11.9681 862 117.71 650.617 477.833
255 0 73.1125 11.4481 837 119.013 651.344 477.846
256 0 76.1293 11.8877 905 117.326 651.544 477.786
257 0 77.1539 12.0409 929 119.117 651.018 474.321
258 0 81.1604 12.8881 1046 115.946 650.997 474.377
259 0 83.1411 12.3164 1024 118.127 651.117 473.01
260 0 84.0967 11.2608 947 121.701 650.864 471.563
261 0 87.0885 11.1955 975 122.357 651.005 469.738
262 1 45.0277 11.7261 528 117.886 649.998 490.044
263 0 48.0528 11.4457 550 116.827 650.273 489.685
264 0 49.0569 12.7811 627 112.38 649.671 489.53
265 0 49.0638 11.3729 558 116.959 650.278 489.548
266 0 52.0473 13.238 689 110.399 650.329 487.247
267 0 53.0661 11.5516 613 114.953 650.39 486.85
268 0 53.0384 12.9152 685 112.72 650.415 485.362
269 0 52.0667 11.831 616 117.403 650.552 484.904
270 0 56.157 13.5335 760 111.624 650.87 483.539
271 0 57.1579 12.0893 691 114.932 651.12 483.35
272 0 60.2046 12.9558 780 111.662 650.494 483.415
273 0 62.148 12.4542 774 113.016 651.043 482.766
274 0 64.0912 12.7787 819 112.609 650.759 480.672
275 0 64.1186 12.8668 825 112.905 650.64 480.143
276 0 68.0735 12.8978 878 111.973 650.885 479.191
277 0 70.23 13.3419 937 110.971 651.059 478.829
278 0 72.0269 13.8976 1001 110.288 650.979 475.528
279 0 77.1242 12.3697 954 113.749 651.814 477.106
280 0 78.0406 11.9938 936 124.464 651.624 473.804
281 0 79.1155 12.349 977 123.073 652.329 474.652
282 0 82.1656 12.7791 1050 121.444 652.179 473.44
283 0 85.116 12.3244 1049 121.9 652.061 471.66
284 0 88.1294 11.5058 1014 123.818 652.017 469.562
285 1 43.1374 10.6172 458 115.648 652 491.26
286 0 43.0814 9.93467 428 117.143 652.675 492.944
287 0 45.0624 11.1401 502 116.028 652.191 491.295
288 0 47.0561 12.3682 582 113.639 651.137 489.73
289 0 49.071 12.3902 608 111.202 651.574 488.492
290 0 49.0365 12.9291 634 111.388 651.708 486.484
291 0 51.0742 12.6287 645 111.313 651.819 486.831
292 0 53.045 13.1775 699 109.847 651.857 486.854
293 0 54.1195 12.8235 694 112.182 652.072 484.751
294 0 56.0644 12.8067 718 110.883 652.063 484.636
295 0 57.0218 12.8021 730 111.015 652.663 484.662
296 0 60.0627 13.5691 815 109.157 651.804 483.068
297 0 61.0578 12.2179 746 113.95 652.13 482.706
298 0 63.0791 14.3154 903 109.607 652.043 482.186
299 0 66.0924 12.9516 856 113.704 651.829 479.752
300 0 67.0382 13.4998 905 113.383 651.492 479.228
301 0 68.1577 12.3684 843 117.038 651.588 477.987
302 0 69.1671 11.6529 806 120.287 651.192 477.633
303 0 75.1141 12.3545 928 116.855 651.204 476.306
304 0 77.0932 13.3086 1026 115.194 651.225 476.026
305 0 79.1688 12.1765 964 118.151 651.202 476.567
306 0 80.0741 12.0139 962 120.568 651.429 474.368
307 0 83.1499 12.2069 1015 122.468 651.466 468.406
308 0 87.2723 12.3636 1079 121.48 651.198 469.715
309 0 90.0815 13.6099 1226 118.212 651.63 468.234
310 0 92.0959 12.7042 1170 121.221 651.392 466.647
311 0 97.2453 12.813 1246 122.31 650.592 464.39
312 1 51.0775 11.7664 601 117.131 651.241 486.348
313 0 52.0276 11.1095 578 118.239 651.324 486.08
314 0 55.0486 12.716 700 113.72 651.304 486.089
315 0 54.068 11.6335 629 115.703 651.884 486.13
316 0 57.0768 13.1402 750 111.951 651.273 483.38
317 0 59.0458 12.2278 722 112.597 651.813 482.95
318 0 60.0603 12.2211 734 113.283 652.065 482.052
319 0 63.0644 12.2097 770 112.614 652.082 480.565
320 0 64.0817 11.9535 766 114.355 651.67 480.667
321 0 67.1029 11.609 779 114.677 651.828 480.792
322 0 69.0377 11.6024 801 114.251 651.461 480.137
323 0 69.153 11.5541 799 115.638 651.652 477.847
324 0 75.1602 11.4821 863 114.514 651.341 478.061
325 0 76.1253 11.573 881 116.043 651.404 474.07
326 0 79.1791 11.7329 929 115.649 651.535 472.931
327 0 81.2811 11.3434 922 115.996 651.731 473.667
328 0 85.1861 10.6121 904 117.521 651.966 473.598
329 0 89.1342 12.2848 1095 115.49 651.246 469.124
330 1 42.0346 10.872 457 115.786 651.409 491.289
331 0 47.0549 11.8797 559 110.229 650.428 492.174
332 0 46.0522 11.791 543 113.05 651.317 489.017
333 0 49.0606 12.7393 625 110.731 651.944 488.757
334 0 50.0627 13.4432 673 109.508 651.734 487.146
335 0 51.0249 12.0921 617 111.105 652.199 485.951
336 0 53.1172 11.6911 621 111.221 650.148 485.694
337 0 54.0607 12.338 667 109.162 650.319 486.727
338 0 55.0541 12.6784 698 108.94 650.222 485.282
339 0 56.0674 13.7692 772 106.448 649.734 485.067
340 0 60.0562 12.9046 775 107.603 650.136 483.948
341 0 62.0258 13.3654 829 106.277 650.351 482.103
342 0 62.0591 12.5042 776 108.469 650.357 482.168
343 0 64.1073 11.4184 732 111.62 650.6 480.342
344 0 67.0685 12.4649 836 109.727 651.061 480.511
345 0 69.1026 12.7202 879 108.917 652.16 476.521
346 0 71.0361 12.7118 903 108.937 652.619 476.668
347 0 71.0853 12.0137 854 112.471 652.427 476.796
348 0 74.081 12.3513 915 110.812 651.499 476.949
349 0 77.1045 12.3988 956 111.306 651.615 473.903
350 0 82.1064 13.178 1082 110.303 651.802 471.891
351 0 82.0644 10.2115 838 122.162 652.336 471.7
352 1 42.0245 10.2083 429 110.632 653.019 493.329
353 0 43.0404 10.8038 465 108.256 652.729 492.168
354 0 45.0197 12.017 541 105.457 652.126 491.536
355 0 47.0777 12.0652 568 105.891 653.093 488.769
356 0 50.0319 10.8531 543 106.123 652.829 490.98
357 0 47.0288 12.0352 566 106.933 652.115 488.648
358 0 50.0482 11.9685 599 105.088 651.982 488.776
359 0 51.0665 12.6306 645 104.851 652.152 486.431
360 0 53.0374 11.3316 601 107.774 651.641 486.614
361 0 55.0474 12.0987 666 105.776 652.371 484.529
362 0 58.1692 12.7215 740 104.591 651.881 483.415
363 0 58.1074 11.7369 682 107.361 652.101 482.928
364 0 59.1185 12.0605 713 107.645 652.125 481.084
365 0 61.0832 13.5225 826 104.301 652.184 481.708
366 0 63.0962 13.2813 838 106.035 652.372 479.279
367 0 66.0844 12.7715 844 106.353 652.226 480.094
368 0 68.0658 15.294 1041 101.291 651.899 478.711
369 0 69.1921 13.701 948 104.9 652.421 478.162
370 0 70.2247 12.5597 882 108.87 652.26 476.246
371 0 74.1751 12.2817 911 109.226 651.853 476.645
372 0 75.1268 12.2992 924 109.696 652.198 476.883
373 0 78.1237 12.5058 977 110.625 651.848 473.294
374 0 80.17 13.1845 1057 109.534 651.961 473.035
375 0 83.1647 11.4231 950 114.759 651.527 472.223
376 0 84.1183 12.4468 1047 115.406 651.643 470.819
377 0 89.1785 12.3797 1104 117.106 651.75 469.066
378 1 45.0792 11.9567 539 111.98 651.547 490.822
379 0 45.1204 11.4582 517 115.538 651.211 489.681
380 0 48.0527 12.8817 619 111.444 650.963 490.081
381 0 48.0523 12.861 618 114.905 650.61 488.828
382 0 51.0548 13.1232 670 113.603 651.112 488.306
383 0 52.093 14.0902 734 111.462 650.94 487.136
384 0 53.0421 13.5553 719 114.558 651.558 487.074
385 0 55.11 13.9358 768 113.318 651.746 485.423
386 0 57.0698 12.6687 723 116.214 651.241 485.354
387 0 59.1128 12.4339 735 117.095 651.789 484.516
388 0 60.1761 13.527 814 115.934 651.919 482.864
389 0 60.0845 13.3146 800 117.944 651.799 482.885
390 0 62.1128 13.4111 833 118.529 652.116 481.4
391 0 65.0544 14.265 928 117.077 651.61 478.859
392 0 68.0931 14.9354 1017 115.771 651.662 478.674
393 0 69.1165 13.1083 906 121.643 651.468 477.157
394 0 71.1901 13.6395 971 121.095 651.74 477.485
395 0 74.0867 13.4572 997 121.49 651.967 474.825
396 0 76.2494 13.6526 1041 121.077 652.028 473.618
397 0 79.1026 16.5987 1313 113.395 651.667 471.078
398 0 80.1974 13.8907 1114 121.489 652.456 471.943
399 0 83.0607 13.7369 1141 121.512 651.939 470.52
400 0 85.0934 14.0434 1195 121.241 651.807 467.19
401 0 86.2037 14.4773 1248 120.392 651.974 467.614
402 0 90.1704 14.9606 1349 118.648 652.474 464.557
403 0 91.1774 13.7534 1254 123.192 652.23 462.089
404 0 94.2735 14.5958 1376 121.443 652.829 458.422
405 0 99.1957 15.9483 1582 118.177 651.968 454.581
406 0 101.085 14.651 1481 122.825 652.105 455.102
407 0 103.188 12.4918 1289 129.413 652.279 456.016
408 0 109.232 14.2632 1558 124.044 652.239 452.028
409 0 113.23 14.1217 1599 124.421 652.224 451.278
410 0 118.25 15.222 1800 121.383 651.806 447.695
411 0 122.22 15.1448 1851 122.989 652.106 445.399
412 1 61.0604 10.94 668 123.672 652.117 475.72
413 0 64.1258 11.8205 758 121.768 652.243 475.27
414 0 67.1081 11.6379 781 119.241 651.43 474.662
415 0 68.2054 11.612 792 121.874 651.902 474.532
416 0 71.051 11.4988 817 121.951 652.002 474.531
417 0 73.1064 13.0221 952 124.089 650.978 477.008
418 0 76.15 12.6724 965 127.169 651.34 476.25
419 0 78.0369 12.571 981 126.621 651.217 475.067
420 0 82.1625 12.9134 1061 124.161 651.226 474.198
421 0 84.081 12.9518 1089 125.225 651.547 470.094
422 0 88.1167 13.0055 1146 126.203 651.731 470.02
423 0 92.0638 12.9041 1188 124.859 652.107 470.571
424 1 47.0126 10.5504 496 127.375 650.936 490.673
425 0 49.0797 11.1248 546 127.051 651.311 488.077
426 0 50.0204 10.0959 505 128.901 651.368 488.022
427 0 53.0639 12.0609 640 123.27 653.156 487.473
428 0 55.0324 12.0293 662 123.024 652.612 487.598
429 0 56.0621 11.7013 656 124.934 653.5 485.404
430 0 56.1877 11.0166 619 127.32 652.942 484.179
431 0 59.0816 11.8819 702 125.842 652.842 483.546
432 0 63.0908 13.0764 825 120.491 653.27 482.593
433 0 64.0977 12.3405 791 123.126 653.546 482.014
434 0 66.1591 11.6991 774 124.276 652.403 481.127
435 0 70.0741 13.3288 934 120.209 652.892 480.74
436 0 72.1463 12.8073 924 122.922 653.088 478.15
437 0 71.0633 11.3842 809 127.68 653.2 478.576
438 0 74.1016 12.5503 930 124.3 652.728 475.719
439 0 77.0695 11.7037 902 125.981 652.451 474.859
440 0 79.0967 12.1623 962 124.493 652.898 475.51
441 0 82.1097 11.716 962 124.665 652.826 473.257
442 0 84.1186 10.9488 921 126.844 652.63 472.441
443 0 87.0485 11.0054 958 127.181 652.612 468.243
444 1 45.0442 10.8338 488 120.645 651.65 489.818
445 0 45.0517 11.0762 499 117.421 651.511 489.445
446 0 47.0164 12.251 576 115.547 651.882 488.316
447 0 47.0963 10.9775 517 116.015 652.215 488.522
448 0 48.1752 11.126 536 115.698 652.248 487.937
449 0 49.2152 11.3989 561 115.56 652.316 487.667
450 0 53.158 12.6228 671 81.5365 652.119 488.067
451 0 54.2137 11.6207 630 113.784 652.162 486.068
452 0 55.1027 12.0321 663 113.602 652.382 484.887
453 0 58.1592 13.0504 759 110.851 651.253 485.055
454 0 59.0655 11.5973 685 114.575 651.956 484.574
455 0 58.1299 11.6979 680 116.853 652.032 484.578
456 0 59.0913 11.4907 679 117.757 652.754 483.299
457 0 63.1031 12.8203 809 113.151 652.918 481.585
458 0 64.1453 11.8325 759 116.286 652.817 481.053
459 0 67.155 12.151 816 115.457 652.825 479.853
460 0 68.1355 11.712 798 116.954 653.04 478.847
461 0 73.1572 13.3001 973 111.948 653.084 477.961
462 0 74.1674 13.1864 978 113.378 652.888 476.168
463 0 78.1447 12.8096 1001 114.084 652.771 475.707
464 0 78.076 12.142 948 116.467 652.793 473.809
465 0 81.1408 11.745 953 118.577 652.839 472.136
466 0 84.1199 11.7214 986 119.411 653.631 472.54
467 0 88.0751 11.4448 1008 119.182 653.227 470.071
468 1 45.024 11.3273 510 120.724 652.661 489.251
469 0 47.0362 11.5443 543 120.096 652.814 489.578
470 0 47.0229 12.1005 569 121.294 652.865 488.998
471 0 48.024 12.2022 586 121.065 652.551 487.8
472 0 48.0425 13.6754 657 117.377 652.548 488.326
473 0 51.0582 13.7098 700 116.756 651.533 488.377
474 0 52.0702 12.5408 653 120.452 651.853 488.086
475 0 53.03 13.5395 718 118.571 651.694 487.262
476 0 56.0826 12.7847 717 119.428 652.02 486.653
477 0 58.1089 13.2682 771 118.37 651.754 487.232
478 0 59.0614 13.4944 797 119.237 651.566 484.689
479 0 58.035 11.9583 694 124.739 651.813 484.582
480 0 63.0968 13.3921 845 119.527 651.832 483.075
481 0 65.0944 13.1962 859 121.058 651.902 482.139
482 0 67.0773 12.5229 840 123.801 652.218 481.774
483 0 68.1148 12.244 834 124.645 650.929 480.902
484 0 71.0418 13.2317 940 122.602 651.032 478.865
485 0 73.15 11.8934 870 126.124 651.651 478.46
486 0 76.053 12.9778 987 120.823 651.686 476.89
487 0 81.0348 13.2536 1074 118.53 651.835 476.303
488 0 81.1135 12.2544 994 123.36 652.033 474.091
489 0 84.0593 13.3953 1126 121.764 651.295 472.557
490 0 89.0633 11.9802 1067 125.436 651.797 470.508
491 0 91.1173 12.6979 1157 121.928 651.618 469.149
492 0 92.1346 11.3312 1044 123.442 653.169 464.838
493 1 49.0494 10.6627 523 121.635 653.51 489.855
494 0 51.0658 12.8462 656 117.48 653.672 487.277
495 0 50.0905 12.2179 612 120.51 651.415 487.201
496 0 52.0324 12.2616 638 120.434 651.588 487.486
497 0 55.029 13.5928 748 115.868 651.328 485.937
498 0 55.0366 13.5001 743 116.572 652.312 485.988
499 0 58.0993 13.3564 776 116.303 652.039 484.747
500 0 59.0612 11.7505 694 124.195 652.673 484.218
501 0 59.0693 12.206 721 127.014 652.742 481.519
502 0 62.0375 13.0244 808 124.261 653.062 481.907
503 0 65.0443 13.3448 868 123.247 652.2 480.995
504 0 65.0432 11.9305 776 127.697 652.037 480.339
505 0 69.0388 12.1526 839 126.441 652.337 479.334
506 0 71.0665 12.8049 910 124.327 653.064 476.964
507 0 73.1456 12.4683 912 124.259 652.093 475.901
508 0 77.0422 11.0589 852 126.735 652.349 471.739
509 0 79.0719 13.5952 1075 116.187 652.42 471.808
510 0 82.0954 12.7291 1045 120.744 653.081 471.76
511 0 83.145 12.0873 1005 124.118 652.315 470.566
512 0 86.0607 11.062 952 126.796 652.715 467.173
513 0 90.0587 12.0366 1084 123.594 652.625 467.572
514 0 93.1402 12.2181 1138 125.433 652.622 465.411
515 1 49.0273 10.9531 537 125.331 652.728 487.726
516 0 50.064 10.7662 539 127.045 652.384 486.573
517 0 50.0341 11.4322 572 125.85 652.54 486.514
518 0 51.0696 11.7487 600 117.912 651.758 487.813
519 0 52.0639 9.83406 512 122.32 651.604 487.234
520 0 55.0294 11.2667 620 119.837 651.129 485.945
521 0 54.092 11.1107 601 120.92 651.807 486.413
522 0 57.0343 10.3797 592 122.694 651.505 486.252
523 0 60.0301 12.2605 736 118.61 650.959 481.69
524 0 60.0819 10.3026 619 122.979 651.068 482.057
525 0 64.0487 11.4444 733 119.656 651.896 483.3
526 0 65.0908 11.1844 728 121.665 651.756 481.287
527 0 66.091 10.6066 701 122.952 651.321 481.917
528 0 71.0613 11.7645 836 119.538 651.599 480.364
529 0 73.1116 12.4878 913 118.491 651.57 476.171
530 0 78.1118 13.7623 1075 114.793 651.704 475.854
531 0 81.1247 14.1017 1144 113.739 651.154 473.592
532 0 82.0698 13.9637 1146 116.663 650.711 475.472
533 0 86.0861 14.137 1217 115.144 651.075 470.607
534 0 90.1052 14.139 1274 114.664 651.553 470.706
535 0 92.0766 12.9132 1189 118.918 650.811 468.693
536 1 49.035 12.7868 627 121.34 650.512 488.348
537 0 51.0244 11.5827 591 121.797 650.432 486.86
538 0 49.0729 12.7362 625 115.306 651.214 484.53
539 0 52.0155 11.9964 624 119.473 651.809 489.163
540 0 55.0274 12.5392 690 117.567 651.667 487.668
541 0 57.0198 12.6447 721 116.882 651.942 486.932
542 0 58.0413 13.3009 772 115.683 651.36 485.42
543 0 59.0607 12.0893 714 118.685 651.532 483.916
544 0 62.0625 12.6002 782 116.85 651.023 482.951
545 0 65.1673 13.1815 859 115.014 651.243 482.304
546 0 66.0456 12.1885 805 119.092 651.21 482.563
547 0 67.0919 13.1014 879 121.297 651.052 480.859
548 0 69.0766 12.6092 871 122.32 651.758 479.891
549 0 74.1648 13.1734 977 119.777 651.393 478.584
550 0 75.0867 13.6109 1022 119.402 652.114 478.008
551 0 78.1213 13.159 1028 121.254 651.705 475.667
552 0 80.1496 12.9258 1036 122.765 652.419 473.859
553 0 84.1381 13.4897 1135 121.257 651.798 473.678
554 0 86.161 13.4284 1157 122.965 652.147 470.433
555 0 93.2136 15.148 1412 116.356 652.305 466.513
556 0 91.0599 12.5412 1142 126.912 651.663 468.419
557 1 49.0884 11.1839 549 129.049 651.76 487.692
558 0 51.0595 12.5344 640 119.302 651.062 486.009
559 0 54.033 13.0846 707 119.307 652.523 488.007
560 0 55.0543 12.5331 690 121.197 651.706 488.572
561 0 56.0276 12.4224 696 122.815 652.471 487.034
562 0 58.0977 13.9765 812 119.803 652.633 484.7
563 0 59.0938 13.2332 782 120.398 653.012 483.005
564 0 61.0841 13.4241 820 121.852 652.434 484.996
565 0 64.1452 12.7211 816 122.516 653.374 480.847
566 0 65.0419 12.9916 845 123.46 652.799 480.684
567 0 68.0719 14.1027 960 121.235 652.316 480.761
568 0 70.163 13.1836 925 122.65 652.469 479.522
569 0 73.2233 13.2471 970 123.749 652.74 478.91
570 0 75.1406 13.8673 1042 123.053 652.068 476.124
571 0 78.1442 13.7438 1074 121.462 652.664 476.224
572 0 80.1983 13.0926 1050 124.607 652.13 475.813
573 0 85.1364 13.1436 1119 131.675 652.068 472.105
574 0 87.0706 14.2413 1240 128.564 651.795 470.69
575 0 89.2038 12.7125 1134 133.132 651.912 470.625
576 0 94.1318 14.0229 1320 130.164 652.086 467.286
577 1 46.0676 10.7017 493 129.063 651.199 492.495
578 0 48.0083 11.373 546 124.462 651.392 491.447
579 0 47.0128 11.8266 556 125.509 651.633 491.32
580 0 50.0809 12.6396 633 124.875 652.575 490.148
581 0 54.1174 12.4174 672 122.716 652.574 488.629
582 0 55.1466 12.911 712 122.48 652.594 486.899
583 0 56.054 12.1312 680 124.713 653.069 487.279
584 0 59.1958 12.3489 731 124.42 652.756 485.592
585 0 62.1329 12.9883 807 122.004 652.667 484.335
586 0 62.1074 12.7521 792 123.46 652.3 484.41
587 0 65.1179 13.2529 863 121.298 652.44 482.842
588 0 67.0746 12.8663 863 122.596 652.768 481.002
589 0 70.1317 13.0469 915 122.175 652.587 481.588
590 0 71.125 13.7786 980 120.224 652.561 479.459
591 0 74.085 12.9851 962 121.84 652.353 477.929
592 0 77.0342 12.2932 947 123.074 652.712 477.423
593 0 81.0647 13.2363 1073 118.59 651.99 474.259
594 0 83.0731 11.9654 994 121.899 651.898 472.165
595 0 87.1349 13.0832 1140 119.144 651.788 470.718
596 0 91.1037 13.7645 1254 116.929 652.735 468.412
597 0 92.0383 12.8316 1181 118.854 652.961 469.655
598 1 47.033 9.6528 454 119.46 651.938 491.418
599 0 51.1859 11.5266 590 117.966 653.042 486.822
600 0 51.312 11.5373 592 118.372 652.544 486.64
601 0 55.0315 12.9744 714 113.951 651.078 487.204
602 0 56.0675 12.2174 685 115.553 651.199 487.566
603 0 58.0297 12.3902 719 115.324 651.202 486.595
604 0 58.0639 11.5218 669 119.224 651.568 485.408
605 0 60.1984 11.1963 674 119.188 650.99 481.795
606 0 64.0896 11.5307 739 117.152 651.172 483.275
607 0 65.073 12.1095 788 117.566 651.651 481.277
608 0 69.0701 12.2919 849 116.141 651.872 482.237
609 0 69.0897 11.6226 803 120.047 652.026 480.592
610 0 73.1012 13.3787 978 115.108 652.234 478.012
611 0 75.0726 10.7629 808 121.885 651.333 476.517
612 0 78.033 12.8792 1005 116.337 652.039 474.124
613 0 80.0955 12.0606 966 118.527 651.673 474.886
614 0 83.096 12.8887 1071 117.158 651.74 471.292
615 0 87.1034 12.5139 1090 119.865 652.032 470.339
616 1 43.0338 8.76056 377 118.032 652.183 493.867
617 0 45.067 10.5177 474 116.399 652.169 491.787
618 0 49.1876 11.4256 562 114.292 651.922 489.379
619 0 50.1217 12.749 639 110.565 651.258 489.69
620 0 50.0396 11.6108 581 114.031 651.671 489.21
621 0 52.0917 12.574 655 110.695 651.591 488.766
622 0 55.095 11.3077 623 112.231 651.311 484.544
623 0 56.0606 12.8076 718 108.88 651.421 486.366
624 0 57.1003 12.1716 695 110.902 651.452 485.701
625 0 58.0632 12.2108 709 111.598 651.264 485.049
626 0 60.0989 12.1966 733 111.386 651.349 485.142
627 0 64.0709 13.1105 840 109.367 652.148 483.652
628 0 64.0705 12.096 775 114.085 652.609 480.205
629 0 67.0685 13.0911 878 111.452 652.263 480.989
630 0 70.0437 12.3066 862 114.3 652.045 478.237
631 0 71.062 12.1162 861 116.47 652.002 478.36
632 0 73.0708 11.8789 868 118.599 651.94 476.853
633 0 76.1822 12.877 981 116.041 652.401 477.17
634 0 78.0633 12.2849 959 118.411 652.147 473.193
635 0 81.1421 12.78 1037 120.157 651.92 472.256
636 0 85.1118 12.4777 1062 120.277 651.488 470.022
637 0 87.0998 13.1114 1142 119.433 652.658 472.02
638 0 91.0623 13.5512 1234 118.308 652.539 467.974
639 0 93.1437 12.0137 1119 123.653 651.847 466.305
640 1 47.0264 11.3766 535 118.215 651.849 492.987
641 0 50.0283 11.6534 583 118.077 652.461 489.391
642 0 50.0263 12.2935 615 118.27 652.891 489.924
643 0 51.0546 11.6934 597 121.678 653.03 488.683
644 0 53.119 12.2178 649 118.615 652.405 489.374
645 0 56.0832 12.4815 700 119.243 652.464 487.176
646 0 56.0902 12.3016 690 119.941 652.328 487.9
647 0 59.1532 11.9351 706 121.84 652.45 485.898
648 0 62.0979 12.3515 767 120.061 652.545 485.541
649 0 64.1095 12.9622 831 119.078 652.544 484.354
650 0 66.1303 12.8988 853 120.407 652.266 481.366
651 0 67.0775 12.821 860 121.463 651.99 481.785
652 0 72.0677 13.3763 964 119.307 651.668 479.808
653 0 71.064 12.2425 870 124.575 651.171 479.471
654 0 77.0897 13.2832 1024 119.925 651.507 478.036
655 0 78.064 12.067 942 124.092 652.001 475.135
656 1 41.0497 10.7918 443 121.986 653.097 494.86
657 0 42.0516 11.2005 471 119.219 652.393 492.045
658 0 43.061 11.4953 495 120.299 652.257 492.188
659 0 44.11 11.1086 490 121.349 651.969 491.663
660 0 44.033 11.8093 520 122.742 652.129 491.854
661 0 48.0529 12.3614 594 117.552 652.628 491.399
662 0 50.0535 10.7285 537 122.354 652.421 490.164
663 0 52.0284 11.955 622 117.879 652.341 490.032
664 0 52.059 12.6587 659 116.558 652.106 488.651
665 0 53.1069 12.3148 654 115.737 652.24 486.965
666 0 57.1131 12.1163 692 115.123 651.626 488.116
667 0 56.0274 12.4403 697 115.62 652.166 486.925
668 0 57.0422 11.3249 646 118.814 651.971 486.416
669 0 60.1497 13.1671 792 113.48 651.696 485.282
670 0 62.1545 12.8229 797 114.499 652.025 483.666
671 0 65.0751 13.4153 873 112.184 651.835 483.346
672 0 66.1306 12.808 847 114.042 651.621 482.413
673 0 68.0865 11.4854 782 116.184 651.816 482.326
674 0 72.0647 13.0577 941 112.402 651.734 479.605
675 0 74.0739 12.4065 919 113.824 651.953 479.215
676 0 78.1272 11.9293 932 113.085 652.579 477.054
677 0 80.144 12.1032 970 113.144 652.15 475.752
678 0 82.075 12.915 1060 111.622 652.079 475.919
679 0 85.119 12.7351 1084 112.151 651.619 474.165
680 0 88.1834 12.9163 1139 113.291 651.485 473.565
681 0 90.1526 12.1128 1092 115.783 651.651 472.158
682 0 92.2036 12.1253 1118 117.746 651.515 469.968
683 0 97.1665 12.8131 1245 116.965 650.871 467.618
684 0 100.222 13.2406 1327 117.041 650.552 464.996
685 0 104.18 12.6896 1322 119.385 650.942 464.328
686 1 52.1596 11.599 605 112.888 652.012 490.788
687 0 52.161 11.0427 576 115.752 652.165 490.444
688 0 54.1146 10.9213 591 115.697 652.377 489.002
689 0 54.0983 11.3312 613 115.333 651.985 488.873
690 0 57.0688 11.8453 676 114.612 652.308 486.775
691 0 60.0852 11.7833 708 114.195 651.898 487.555
692 0 62.1716 11.4361 711 114.377 652.1 487.66
693 0 61.2432 11.038 676 117.651 651.538 484.391
694 0 65.0919 11.5836 754 116.065 651.183 484.316
695 0 68.2085 11.2889 770 117.644 651.44 482.088
696 0 69.3704 11.8494 822 120.123 650.623 480.371
697 0 71.2615 12.3489 880 120.135 650.75 478.44
698 0 74.3336 12.713 945 120.201 650.794 476.383
699 0 74.2821 12.3718 919 123.235 650.908 475.585
700 0 79.3283 12.7697 1013 122.051 651.005 476.064
701 0 81.348 11.7643 957 127.324 650.72 474.717
702 0 81.3177 12.7524 1037 129.104 651.049 472.488
703 0 86.2892 13.6981 1182 125.353 651.133 470.81
704 0 89.2139 13.0585 1165 121.279 651.086 469.676
705 0 90.2444 13.1532 1187 123.195 650.69 469.368
706 0 93.2077 13.722 1279 123.881 651.992 468.177
707 0 94.2498 12.6791 1195 130.412 651.636 466.996
708 0 98.2182 13.2969 1306 127.744 651.828 466.917
709 0 99.2634 13.3685 1327 128.408 651.551 462.907
710 0 106.369 13.9702 1486 125.27 651.824 461.972
711 0 105.175 13.6344 1434 127.88 652.416 458.119
712 0 111.225 13.2344 1472 129.444 651.742 458.661
713 0 114.266 13.6961 1565 128.032 651.206 458.018
714 0 120.254 13.9289 1675 125.839 651.251 453.669
715 0 124.231 13.4427 1670 125.235 650.878 452.533
716 0 128.174 13.4972 1730 125.773 650.986 450.205
717 0 131.309 12.9694 1703 117.989 651.039 443.636
718 0 138.226 12.8557 1777 117.808 651.095 441.174
719 0 142.154 13.7527 1955 118.506 651.43 438.066
720 0 148.253 13.6995 2031 120.084 651.614 434.976
721 0 152.244 13.0711 1990 122.831 651.491 437.242
722 0 156.186 11.9281 1863 125.16 651.531 436.981
723 0 160.114 12.7472 2041 123.351 651.322 430.667
724 0 166.237 12.4521 2070 125.036 651.658 426.049
725 0 171.259 11.5965 1986 128.955 651.603 425.483
726 1 95.0892 11.4209 1086 117.371 651.773 461.631
727 0 97.145 10.9836 1067 118.405 651.62 462.114
728 0 99.1168 10.2606 1017 119.609 651.135 461.821
729 0 107.22 13.2345 1419 112.641 651.011 458.925
730 0 109.127 12.3251 1345 115.912 651.04 458.653
731 0 111.133 11.4188 1269 118.284 650.368 455.396
732 0 115.087 11.3567 1307 119.353 650.411 456.162
733 0 119.166 12.2854 1464 117.835 650.027 453.887
734 0 125.084 12.7194 1591 116.744 650.597 452.769
735 0 128.091 11.648 1492 121.454 650.062 450.485
736 0 133.224 12.6704 1688 120.516 650.672 447.892
737 0 137.204 12.2008 1674 120.532 650.258 447.676
738 0 142.278 12.7075 1808 120.027 650.432 444.753
739 0 145.259 12.9218 1877 120.064 650.429 442.85
740 0 150.321 11.1561 1677 125.393 651.346 435.326
741 0 157.349 12.2721 1931 122.673 651.365 433.647
742 0 161.278 12.3699 1995 123.178 650.925 426.048
743 0 167.415 12.3406 2066 123.076 650.603 426.962
744 0 173.271 13.0489 2261 121.454 650.289 428.24
745 0 178.206 13.1814 2349 122.969 650.339 423.862
746 0 179.211 11.9915 2149 125.193 650.515 426.216
747 1 189.193 11.1104 2102 127.772 650.531 421.526
748 0 198.333 12.484 2476 126.535 650.548 403.817
749 0 206.326 12.7759 2636 125.227 650.959 397.448
750 0 211.357 12.3157 2603 126.514 650.811 395.542
751 0 216.431 12.5999 2727 126.426 651.32 396.438
752 0 225.396 12.915 2911 124.462 650.848 396.425
753 0 230.337 12.8855 2968 123.747 650.518 396.486
754 0 237.496 12.4297 2952 126.902 650.527 387.112
755 0 246.505 13.6062 3354 122.59 650.693 386.712
756 0 255.44 12.7662 3261 126.672 650.589 380.014
757 1 51.1242 9.91703 507 105.966 650.345 486.164
758 0 54.0673 9.8396 532 102.992 651.46 486.252
759 0 55.1223 11.1389 614 99.6938 650.324 486.249
760 0 57.2028 11.3631 650 102.263 650.252 487.086
761 0 55.0546 10.8256 596 105.111 650.631 485.513
762 0 58.1069 11.1174 646 105.04 650.074 486.974
763 0 61.0501 11.1384 680 104.554 650.104 485.188
764 0 63.2795 9.59236 607 108.667 649.972 485.316
765 0 66.0883 10.7432 710 107.292 650.763 482.137
766 0 69.224 10.95 758 101.08 650.27 473.186
767 0 70.2109 10.2406 719 104.94 649.943 475.598
768 0 73.083 10.6044 775 106.357 651.126 477.508
769 0 73.179 10.7954 790 107.41 650.72 475.566
770 0 79.1739 11.62 920 106.692 650.675 475.188
771 0 80.223 11.4306 917 105.033 650.914 472.439
772 0 85.176 11.2121 955 112.74 651.887 471.453
773 0 89.2364 11.7889 1052 111.669 651.219 470.812
774 0 93.2482 13.1692 1228 106.822 651.27 468.713
775 1 48.1108 8.16865 393 96.0611 650.046 481.081
776 0 50.1405 9.69276 486 97.9403 649.409 487.391
777 0 52.0757 10.5039 547 99.7916 652.592 488.347
778 0 51.1177 10.0552 514 101.794 652.49 487.399
779 0 53.1112 9.71547 516 103.703 653.248 486.411
780 0 56.1987 10.7654 605 100.636 653.448 486.243
781 0 58.0837 10.0372 583 103.902 653.594 486.804
782 0 60.1059 11.5296 693 101.026 653.525 483.62
783 0 62.1283 9.7862 608 95.1579 652.457 480.5
784 0 64.2052 10.3263 663 104.258 653.201 483.671
785 0 67.1207 10.2204 686 94.1501 651.711 478.417
786 0 67.1517 9.42642 633 96.7362 652.055 477.07
787 0 71.1481 9.83863 700 96.47 651.899 476.599
788 0 74.1399 10.9927 815 94.4748 651.34 475.031
789 0 75.1451 9.55484 718 96.532 651.464 476.411
790 0 78.1646 10.2604 802 96.2456 652.551 474.307
791 0 81.2539 10.338 840 96.2571 652.564 473.835
792 0 84.2393 11.4911 968 99.7789 652.893 474.618
793 0 88.0344 10.8821 958 103.998 653.242 475.51
794 0 90.2086 11.6286 1049 103.186 652.316 470.155
795 1 46.1306 12.2478 565 99.0761 653.317 492.703
796 0 49.0926 12.2829 603 98.2388 653.4 492.232
797 0 47.1756 11.7221 553 102.141 652.772 492.156
798 0 52.0436 12.5087 651 98.573 652.369 492.295
799 0 52.1982 12.51 653 97.3048 652.49 489.928
800 0 53.1797 11.3577 604 95.9685 651.776 485.982
801 0 53.103 12.0709 641 95.8658 651.686 486.891
802 0 56.125 13.2739 745 96.9208 652.611 487.558
803 0 58.0561 11.6611 677 99.7445 652.149 486.784
804 0 59.1016 12.4193 734 99.173 651.749 487.104
805 0 59.0747 12.2388 723 101.194 652.071 486.166
806 0 62.1484 13.0494 811 99.3144 652.034 484.686
807 0 62.0994 12.4639 774 102.627 651.65 485.646
808 0 65.1057 12.1956 794 102.344 651.851 484.062
809 0 67.2527 13.1444 884 99.9038 651.931 483.829
810 0 67.1406 12.3174 827 102.509 651.806 483.254
811 0 72.1723 13.3292 962 99.2724 650.992 480.713
812 0 74.1761 11.2031 831 102.508 651.495 480.446
813 0 76.1538 11.1091 846 103.797 651.537 478.761
814 0 79.1201 13.094 1036 101.133 650.869 475.693
815 0 82.1569 12.3301 1013 102.254 651.37 473.669
816 1 38.0491 10.6704 406 103.67 651.192 495.823
817 0 41.0217 11.1648 458 100.965 651.153 496.91
818 0 42.0492 11.5817 487 103.09 651.435 494.197
819 0 43.0986 11.2997 487 103.197 651.959 492.84
820 0 43.1852 10.976 474 106.074 652.485 491.74
821 0 45.0742 11.9581 539 104.041 650.959 491.711
822 0 49.0667 13.4918 662 99 651.659 492.639
823 0 48.1181 12.6564 609 103.087 651.475 490.302
824 0 49.1467 12.0049 590 105.447 651.605 491.53
825 0 51.2105 12.3217 631 104.168 650.212 487.727
826 0 53.0744 11.2484 597 107.844 650.677 490.01
827 0 54.0465 11.9527 646 108.401 650.867 488.475
828 0 55.0541 12.0427 663 108.403 650.973 486.854
829 0 57.0221 13.0476 744 107.445 650.77 488.304
830 0 60.0667 11.6704 701 111.307 651.504 486.084
831 0 62.054 13.2949 825 109.353 651.508 484.261
832 0 63.0342 13.4213 846 109.944 651.307 484.472
833 0 65.0374 13.9458 907 109.266 650.682 483.736
834 0 65.0982 11.1831 728 116.375 650.828 483.842
835 0 68.093 12.7766 870 114.099 650.83 481.055
836 0 71.1112 11.8406 842 113.273 650.871 481.121
837 0 74.0703 13.6492 1011 109.153 650.757 479.723
838 0 74.0457 12.4383 921 113.216 650.24 479.806
839 0 78.1025 12.3428 964 112.928 650.652 477.228
840 0 79.0922 11.24 889 115.118 651.362 475.439
841 0 84.041 12.3392 1037 112.906 650.782 474.775
842 0 86.0816 12.5578 1081 112.163 650.918 472.499
843 0 91.1206 13.8278 1260 109.087 650.758 471.165
844 0 95.0825 12.5891 1197 111.888 650.091 465.175
845 1 48.0371 11.4703 551 113.232 652.064 491.916
846 0 49.034 13.3173 653 106.187 652.4 489.821
847 0 49.0726 12.6955 623 108.594 651.96 488.053
848 0 53.0759 13.3582 709 106.862 652.083 488.865
849 0 55.113 14.4249 795 103.384 652.338 487.164
850 0 55.0898 11.9623 659 110.461 650.592 487.484
851 0 57.0249 12.6962 724 109.758 651.601 485.463
852 0 59.0598 12.7667 754 109.415 651.972 485.045
853 0 60.1072 12.3779 744 112.026 651.129 485.223
854 0 62.0487 12.5224 777 110.905 651.843 485.488
855 0 62.042 10.5412 654 117.368 651.156 484.787
856 0 67.0694 11.257 755 115.57 651.269 482.539
857 0 68.0847 12.3376 840 115.064 650.971 481.669
858 0 70.083 12.4567 873 114.964 651.053 478.843
859 0 72.0852 11.3893 821 118.189 651.105 478.745
860 0 74.1015 12.1455 900 117.321 650.973 478.533
861 0 75.124 11.3945 856 121.145 650.821 476.298
862 0 80.1146 12.7442 1021 117.801 651.412 476.087
863 0 82.0688 12.0509 989 119.669 651.249 474.495
864 0 86.1119 13.0296 1122 118.449 650.467 472.883
865 0 87.1135 11.1923 975 122.748 651.091 471.897
866 0 92.1486 12.6752 1168 118.723 651.187 470.631
867 0 92.1138 11.4858 1058 123.949 651.008 465.663
868 0 100.089 12.7787 1279 118.701 651.588 466.389
869 0 103.105 12.8316 1323 119.447 650.694 464.075
870 1 56.1079 12.0482 676 120.271 651.244 486.784
871 0 58.0572 10.6963 621 117.272 650.625 487.258
872 0 58.0586 11.6951 679 116.647 650.318 485.9
873 0 60.0945 12.68 762 117.066 651.726 483.286
874 0 62.1213 13.361 830 115.684 651.495 484.314
875 0 64.1489 13.3596 857 117.022 650.855 481.956
876 0 68.1457 13.5152 921 115.749 651.812 479.826
877 0 70.128 13.0476 915 116.578 652.007 479.861
878 0 70.1397 12.1044 849 120.802 651.415 480.042
879 0 72.0631 12.8776 928 120.462 651.045 477.732
880 0 77.0563 12.7569 983 119.101 651.398 475.903
881 0 79.0413 12.892 1019 120.477 651.216 472.334
882 0 82.1503 13.6092 1118 117.491 652.149 472.765
883 0 82.1143 11.7519 965 125.103 651.476 471.359
884 0 86.1164 12.9011 1111 121.287 650.98 467.671
885 0 89.24 12.3375 1101 123.682 650.732 468.264
886 0 92.1204 11.8975 1096 124.984 651.396 465.907
887 1 49.0415 10.9091 535 119.292 652.252 485.622
888 0 51.0751 11.3754 581 118.57 651.807 485.522
889 0 52.0524 10.0668 524 108.729 650.861 486.435
890 0 54.0625 12.3191 666 105.437 650.929 485.449
891 0 55.0568 9.98969 550 110.164 650.596 484.078
892 0 58.0126 11.5837 672 106.701 650.579 483.484
893 0 60.0646 12.2701 737 106.065 650.305 481.925
894 0 60.171 10.8192 651 108.533 650.785 482.825
895 0 63.1234 10.63 671 109.441 650.884 479.048
896 0 64.1014 11.3414 727 108.604 650.878 478.274
897 0 67.0951 10.582 710 114.056 651.286 480.966
898 0 69.174 12.1867 843 111.013 650.701 476.948
899 0 72.1793 12.0118 867 111.399 651.054 477.773
900 0 74.0912 11.3644 842 113.438 650.893 477.469
901 0 77.1956 12.3712 955 111.164 650.718 474.943
902 0 76.1382 10.9275 832 116.502 650.543 474.004
903 0 82.0303 13.7388 1127 106.168 650.188 473.557
904 0 85.0618 12.3205 1048 110.3 650.57 469.445
905 0 89.1072 12.2549 1092 108.748 649.86 470.276
906 0 89.092 11.6958 1042 111.547 650.477 466.5
907 1 48.0765 11.0241 530 104.142 650.736 489.836
908 0 49.1206 10.3826 510 104.939 650.839 489.667
909 0 52.1752 11.2314 586 104.833 651.145 489.493
910 0 53.1212 13.4221 713 103.24 651.374 487.906
911 0 53.131 11.5752 615 108.052 651.296 488.561
912 0 54.1074 13.0296 705 105.793 651.163 486.843
913 0 57.1864 11.8035 675 107.409 651.053 486.724
914 0 58.0932 12.9275 751 105.792 650.73 486.017
915 0 60.209 12.1909 734 106.907 650.853 485.988
916 0 62.0806 11.8717 737 108.023 650.514 483.818
917 0 66.115 11.7371 776 107.347 650.476 484.526
918 0 66.1319 11.7493 777 109.472 650.429 481.557
919 0 68.1968 11.4815 783 111.128 650.427 481.055
920 0 71.1319 12.3433 878 110.202 650.407 477.808
921 0 76.0482 13.2548 1008 107.004 650.721 479.041
922 0 76.1025 11.3663 865 114.753 650.531 475.276
923 0 81.1371 13.2245 1073 110.953 650.732 474.328
924 0 83.1447 11.5702 962 113.972 650.436 473.388
925 0 87.2151 12.8533 1121 112.049 650.006 466.64
926 1 44.1192 9.88233 436 111.484 650.528 493.661
927 0 45.0389 11.7232 528 109.809 650.642 492.206
928 0 49.0554 12.9242 634 105.626 650.495 491.243
929 0 47.0296 12.0562 567 112.628 649.993 491.723
930 0 47.2093 10.5488 498 114.363 650.323 490.902
931 0 52.065 12.2347 637 108.79 650.446 489.907
932 0 53.0829 11.4161 606 110.021 650.277 490.701
933 0 55.0393 11.628 640 110.134 650.291 489.661
934 0 57.0654 12.5645 717 107.782 650.647 486.77
935 0 60.1015 12.9614 779 107.137 650.347 484.579
936 0 63.0507 12.6248 796 107.038 651.371 483.48
937 0 64.0346 12.9618 830 107.369 651.301 482.751
938 0 67.0757 13.522 907 107.937 651.798 480.015
939 0 68.1086 11.2174 764 115.262 651.78 479.168
940 0 71.1367 12.5533 893 112.741 650.976 477.981
941 1 35.0502 9.47214 332 115.295 652.304 496.599
942 0 37.0907 11.2697 418 111.725 652.294 493.715
943 0 38.1155 11.7538 448 111.721 651.964 493.699
944 0 41.0485 12.7167 522 109.054 652.266 491.487
945 0 42.1503 11.8149 498 111.797 652.657 492.203
946 0 44.0481 12.441 548 116.524 650.097 492.841
947 0 46.0265 11.9279 549 117.184 650.095 493.333
948 0 48.0574 12.1729 585 116.012 650.627 493.496
949 0 49.0261 13.2378 649 112.812 651.059 492.025
950 0 51.1092 13.2266 676 113.382 650.407 491.401
951 0 51.0938 11.3908 582 118.82 650.617 490.631
952 0 54.2061 13.1904 715 113.877 651.414 489.248
953 0 54.1652 12.0742 654 118.239 651.31 488.578
954 0 56.0968 12.2467 687 117.563 651.419 487.844
955 0 60.1777 14.1415 851 112.806 650.524 486.216
956 0 59.1339 13.4441 795 116.377 650.462 485.079
957 0 63.1176 13.7521 868 114.829 650.437 483.276
958 0 64.114 13.476 864 115.92 650.466 483.678
959 0 65.0888 13.7044 892 115.522 650.855 482.385
960 0 69.1071 14.1809 980 113.034 650.474 481.133
961 0 72.069 15.7072 1132 108.687 650.012 480.099
962 0 73.0887 14.544 1063 112.193 650.113 477.173
963 0 74.0541 12.4234 920 117.789 650.289 478.217
964 0 80.1033 14.6061 1170 111.21 650.298 476.142
965 0 82.1134 14.0537 1154 113.445 650.412 474.877
966 0 85.1871 14.1571 1206 113.354 650.715 473.809
967 0 87.0892 13.2623 1155 115.973 650.327 472.516
968 1 46.178 11.8022 545 112.382 649.982 494.068
969 0 45.0621 11.8725 535 113.735 651.548 492.148
970 0 45.0686 12.958 584 113.253 651.699 491.954
971 0 49.255 12.7094 626 103.409 651.243 491.12
972 0 48.0518 12.6322 607 105.275 651.143 490.308
973 0 51.0678 13.2569 677 102.654 650.994 489.513
974 0 53.1376 12.1948 648 104.418 650.872 489.452
975 0 55.0339 12.8285 706 103.042 650.885 488.154
976 0 56.2072 12.7742 718 112.169 650.497 486.208
977 0 57.0895 12.4016 708 113.052 651.073 486.192
978 0 61.1994 14.4119 882 109.188 650.481 483.929
979 0 63.1019 13.0582 824 111.398 650.481 484.326
980 0 67.1409 13.9408 936 108.743 650.788 484.465
981 0 68.1711 12.762 870 112.786 650.202 481.546
982 0 70.1072 11.5252 808 111.464 650.519 482.713
983 0 73.1145 13.9918 1023 109.479 650.403 479.361
984 0 73.0778 13.7388 1004 111.865 650.384 476.574
985 0 76.1042 12.4435 947 115.396 650.234 477.319
986 0 79.1882 13.5121 1070 113.858 650.443 472.23
987 0 82.2359 12.8046 1053 116.365 650.22 470.394
988 0 84.1263 12.6952 1068 117.824 650.143 468.02
989 0 89.4276 12.0992 1082 117.518 650.373 468.372
990 0 91.3262 13.1945 1205 115.742 650.153 467.461
991 0 95.3501 11.7986 1125 119.536 650.568 466.288
992 1 47.1877 13.5417 639 112.122 651.274 486.114
993 0 48.2626 12.2455 591 116.624 651.519 486.169
994 0 52.2022 12.9688 677 113.022 651.162 486.42
995 0 54.0746 12.8896 697 114.007 651.568 487.511
996 0 56.0427 13.6681 766 113.181 651.065 485.486
997 0 58.0792 12.0697 701 119.221 651.277 486.625
998 0 59.1185 12.3819 732 118.883 651.268 485.702
999 0 59.1012 12.3348 729 121.433 650.658 484.524
1000 0 62.0879 13.1749 818 119.297 651.57 483.116
1001 0 65.0555 13.8036 898 117.513 651.492 479.536
1002 0 67.2192 13.8205 929 117.764 651.099 478.147
1003 0 68.1969 13.4904 920 120.421 651.058 475.822
1004 0 71.2956 14.0542 1002 118.672 651.114 476.943
1005 0 71.1984 13.1745 938 122.632 651.516 475.504
1006 0 76.1604 14.22 1083 119.613 651.355 473.638
1007 0 78.1602 14.0225 1096 119.927 651.166 473.425
1008 0 82.1853 13.6277 1120 120.573 650.878 472.386
1009 0 83.1683 14.0318 1167 121.385 650.765 469.584
1010 0 87.3379 14.129 1234 119.721 651.258 470.791
1011 0 88.2317 13.3852 1181 123.97 651.321 468.378
1012 0 91.2118 14.11 1287 121.768 651.043 467.133
1013 0 93.5411 12.711 1189 126.691 650.907 465.807
1014 1 51.2285 11.6927 599 120.134 651 486.651
1015 0 53.151 12.4363 661 119.828 651.348 484.856
1016 0 54.272 13.2849 721 118.932 651.107 484.491
1017 0 57.0998 13.5027 771 119.137 650.7 483.132
1018 0 58.1457 13.535 787 119.009 651.22 484.684
1019 0 59.0782 13.389 791 121.681 651.126 482.686
1020 0 62.1172 12.7662 793 123.816 650.904 481.705
1021 0 64.2194 13.9055 893 121.747 650.957 479.021
1022 0 67.1136 13.0376 875 123.271 650.513 478.222
1023 0 68.307 12.1657 831 126.581 650.533 476.747
1024 0 73.1899 13.2395 969 123.341 650.892 476.979
1025 0 73.1876 13.199 966 124.5 651.229 474.516
1026 0 76.1798 12.4049 945 126.928 650.939 473.574
1027 0 79.2539 14.0939 1117 122.491 651.068 473.044
1028 0 81.1599 13.8246 1122 124.196 651.312 472.57
1029 0 83.2593 12.8274 1068 126.951 651.25 470.936
1030 0 87.1072 12.8922 1123 127.049 651.482 468.704
1031 0 89.1343 12.2063 1088 129.938 651.387 467.985
1032 1 48.0529 11.7162 563 122.256 651.783 490.302
1033 0 49.183 11.3657 559 121.66 650.442 479.082
1034 0 51.1522 11.4169 584 118.13 650.68 484.291
1035 0 53.1177 12.7641 678 119.475 651.614 487.059
1036 0 54.0454 12.3785 669 120.583 651.3 486.284
1037 0 57.1667 12.5947 720 119.382 651.485 485.683
1038 0 57.143 11.6025 663 122.347 651.228 485.49
1039 0 61.1643 12.7035 777 119.368 651.577 483.306
1040 0 63.1065 11.9956 757 121.363 650.962 481.659
1041 0 66.1674 12.9066 854 118.672 650.776 480.74
1042 0 69.0684 13.0016 898 118.208 651.418 478.844
1043 0 70.0613 12.3178 863 119.902 651.233 477.492
1044 0 72.0893 12.3874 893 119.662 651.342 476.417
1045 0 78.1042 12.6626 989 116.73 650.806 476.263
1046 0 78.1571 12.718 994 117.743 651.792 474.026
1047 0 81.0925 12.0726 979 120.089 651.487 471.057
1048 1 43.0623 9.61398 414 116.749 652.039 492.15
1049 0 45.0271 10.4826 472 115.146 651.525 490.763
1050 0 45.0927 11.1548 503 112.869 651.364 488.918
1051 0 48.1135 12.0756 581 109.305 651.623 488.305
1052 0 48.1948 10.7065 516 115.965 650.802 486.711
1053 0 50.2643 11.0416 555 113.582 651.137 487.38
1054 0 52.2319 10.9703 573 113.316 651.087 486.182
1055 0 51.2263 10.7757 552 114.424 651.051 483.475
1056 0 51.1506 11.124 569 113.457 650.763 481.909
1057 0 53.1643 10.1008 537 114.384 650.823 484.194
1058 0 56.1926 10.6242 597 112.281 650.479 481.152
1059 0 60.2007 13.2224 796 104.638 650.241 481.903
1060 0 61.282 11.8632 727 107.831 650.418 480.791
1061 0 64.1565 12.4851 801 106.15 650.18 480.125
1062 0 64.1634 12.2811 788 107.463 650.477 476.831
1063 0 65.1413 11.1143 724 111.536 649.935 476.04
1064 0 68.1791 12.7605 870 106.877 650.585 475.537
1065 0 72.3096 12.405 897 109.391 650.06 475.559
1066 0 74.2398 11.9882 890 111.389 649.809 471.443
1067 0 76.2457 13.2335 1009 110.62 650.68 471.599
1068 0 75.2674 11.8644 893 110.944 650.708 473.629
1069 0 75.262 10.9883 827 115.189 650.964 472.272
1070 0 78.2559 10.7085 838 115.339 650.59 470.414
1071 0 83.3107 13.1676 1097 110.07 650 467.517
1072 0 83.322 11.5936 966 115.243 650.473 467.762
1073 0 89.3811 13.1907 1179 111.655 650.817 465.846
1074 0 90.2832 11.8627 1071 116.432 650.669 455.667
1075 0 94.4667 12.7876 1208 113.231 650.809 458.739
1076 0 97.3723 12.1287 1181 114.729 650.776 459.536
1077 0 101.351 14.3659 1456 107.525 651.785 454.212
1078 0 103.178 12.241 1263 114.135 652.02 453.744
1079 0 107.187 12.3149 1320 114.552 651.68 455.444
1080 1 57.0543 9.53478 544 121.748 651.982 476.864
1081 0 62.1328 10.6224 660 117.505 651.388 475.924
1082 0 65.4073 12.124 793 115.356 650.719 477.27
1083 0 66.1459 11.6409 770 116.971 651.93 476.931
1084 0 69.2324 11.8586 821 116.021 652.074 475.194
1085 0 70.1225 11.7223 822 117.161 651.315 473.984
1086 0 73.0974 11.7925 862 117.167 651.181 469.746
1087 0 73.1682 12.4371 910 116.975 650.881 467.177
1088 0 78.095 12.5744 982 115.456 651.215 467.561
1089 0 83.1312 12.8833 1071 115.312 650.912 463.368
1090 0 83.1543 11.16 928 120.432 650.317 462.693
1091 0 85.1621 10.9673 934 121.236 650.411 463.832
1092 0 91.1915 11.8542 1081 119.265 651.012 460.821
1093 0 91.1221 10.9743 1000 122.378 651.303 461.319
1094 1 49.0341 10.3601 508 109.594 651.514 483.88
1095 0 51.0152 10.291 525 108.943 651.29 480.741
1096 0 52.013 12.2854 639 110.731 649.07 486.986
1097 0 52.0332 11.4927 598 113.737 649.911 487.137
1098 0 54.0846 11.3526 614 113.277 648.482 486.541
1099 0 56.1478 11.915 669 113.055 648.522 484.792
1100 0 57.095 11.5772 661 113.375 648.357 484.744
1101 0 61.0725 12.1004 739 110.876 649.153 483.74
1102 0 63.0516 13.2907 838 108.511 649.333 482.082
1103 0 63.0518 11.4509 722 112.266 649.317 484.249
1104 0 65.05 12.5596 817 111.431 649.157 480.851
1105 0 67.0436 12.2308 820 111.504 649.095 481.102
1106 0 67.1569 12.5229 841 109.403 649.234 481.719
1107 0 72.0616 12.184 878 107.843 649.166 478.727
1108 0 75.1336 11.3265 851 108.753 649.575 478.298
1109 0 76.1263 12.0326 916 108.048 649.638 475.856
1110 0 78.0332 11.1235 868 109.947 649.446 476.75
1111 0 82.079 10.6239 872 110.024 649.622 475.079
1112 0 85.0927 12.3042 1047 107.792 649.626 470.879
1113 1 43.0205 9.90226 426 110.972 649.221 490.8
1114 0 45.0055 11.8652 534 104.139 650.766 492.521
1115 0 49.0429 10.8884 534 106.386 650.378 490.936
1116 0 46.041 10.1431 467 108.06 651.441 491.846
1117 0 48.0327 9.93074 477 109.281 650.744 488.746
1118 0 54.112 13.3981 725 97.4345 652.13 484.833
1119 0 53.0357 11.4263 606 104.495 652.223 485.338
1120 0 54.0956 12.33 667 103.645 652.064 485.367
1121 0 54.0613 11.302 611 106.347 651.808 486.732
1122 0 53.0123 10.092 535 110.847 650.522 486.978
1123 0 56.0468 10.3306 579 109.908 651.192 486.079
1124 0 58.1107 11.1856 650 107.889 651.032 485.614
1125 0 61.035 11.4197 697 107.584 650.967 484.204
1126 0 61.0257 10.9462 668 110.278 651.037 480.566
1127 0 63.0868 12.9663 818 104.405 651.95 479.488
1128 0 67.0914 11.7303 787 105.616 651.687 478.504
1129 0 69.0572 11.5556 798 108.652 651.016 480.747
1130 0 70.0734 12.7152 891 106.545 650.796 478.743
1131 0 72.0477 12.117 873 109.636 651.306 478.874
1132 0 76.1193 13.3081 1013 106.711 651.127 475.596
1133 0 79.2047 11.9311 945 106.565 651.467 474.483
1134 0 79.0488 11.2336 888 110.806 651.025 475.466
1135 1 43.0125 11.1363 479 111.468 650.587 491.62
1136 0 46.0658 11.7224 540 110.348 649.332 491.107
1137 0 48.0782 11.9389 574 111.585 649.794 489.298
1138 0 46.0671 10.2242 471 112.582 650.58 491.49
1139 0 48.027 11.5977 557 109.562 650.481 489.325
1140 0 49.075 11.7168 575 109.146 650.369 490.593
1141 0 51.0936 11.9585 611 108.483 650.376 488.774
1142 0 53.0481 10.4811 556 111.165 650.55 487.619
1143 0 54.0393 11.3251 612 109.391 649.592 487.547
1144 0 56.0771 9.80793 550 113.745 650.009 485.185
1145 0 61.2495 13.6001 833 103.271 649.325 482.561
1146 0 61.0956 13.2906 812 105.934 649.366 484.672
1147 0 65.088 12.3064 801 107.511 648.682 483.16
1148 0 65.0744 10.9567 713 109.544 649.018 482.644
1149 0 70.0957 11.9694 839 106.682 648.302 481.657
1150 0 71.136 11.6678 830 108.472 648.314 478.636
1151 0 75.1353 11.9651 899 108.406 648.029 478.794
1152 0 77.0978 12.6074 972 108.328 648.452 476.468
1153 1 42.0369 10.7762 453 109.517 648.788 493.57
1154 0 42.0681 11.2674 474 110.705 649.118 492.173
1155 0 42.0681 11.2912 475 142.564 648.133 492.183
1156 0 45.0237 11.0608 498 109.068 649.084 495.038
1157 0 45.0554 11.2084 505 113.315 649.446 491.337
1158 0 45.0126 10.0416 452 115.241 649.372 493.438
1159 0 49.0185 11.4854 563 112.105 649.421 490.217
1160 0 49.0185 11.363 557 142.828 649.449 490.239
1161 0 53.0511 10.8574 576 116.293 649.332 489.708
1162 0 55.0408 13.5173 744 111.181 649.075 487.25
1163 0 55.0403 10.9193 601 118.255 648.952 486.361
1164 0 58.1563 11.9162 693 116.045 649.202 484.506
1165 0 60.049 11.2075 673 116.566 649.282 485.276
1166 0 60.1036 11.7297 705 117.594 649.579 482.203
1167 0 63.0687 12.415 783 114.393 649.326 483.333
1168 0 65.0871 11.8457 771 117.227 649.533 481.647
1169 0 67.0866 12.8342 861 114.748 649.3 482.431
1170 0 71.0966 12.3353 877 115.778 649.596 480.978
1171 0 71.191 11.8273 842 117.748 648.274 479.255
1172 0 75.2072 13.3897 1007 115.016 648.805 476.696
1173 0 76.1121 11.667 888 119.628 648.955 476.217
1174 0 78.0683 11.9511 933 118.437 649.336 473.892
1175 0 82.0496 11.7246 962 114.257 649.088 475.415
1176 0 86.1556 12.7444 1098 112.692 649.256 471.806
1177 0 88.137 12.4011 1093 115.543 649.036 467.65
1178 1 46.0584 11.6808 538 116.801 649.247 490.918
1179 0 46.0503 11.7046 539 120.38 648.514 489.492
1180 0 47.0428 11.7127 551 123.501 647.989 489.902
1181 0 48.0478 12.55 603 120.282 648.443 489.325
1182 0 50.0463 13.7073 686 117.009 648.666 486.666
1183 0 51.1136 14.1254 722 117.291 648.783 487.724
1184 0 53.0598 13.1927 700 119.977 648.874 486.017
1185 0 55.0338 12.3379 679 123.782 648.352 487.059
1186 0 56.0417 14.2394 798 119.162 648.881 484.338
1187 0 56.0756 12.5366 703 125.605 648.949 484.767
1188 0 59.14 12.6649 749 125.18 648.864 484.354
1189 0 61.0998 13.3716 817 124.381 648.864 481.69
1190 0 62.1262 13.875 862 124.048 649.496 482.384
1191 0 63.1262 12.7839 807 129.411 649.544 479.843
1192 0 65.0927 14.5331 946 125.159 649.267 479.2
1193 0 71.0425 14.0479 998 120.846 649.698 479.718
1194 0 71.175 13.7408 978 124.171 648.92 478.254
1195 0 74.1051 13.7507 1019 125.114 649.551 477.361
1196 0 76.0976 13.5352 1030 126.32 649.695 474.868
1197 0 77.0421 12.6684 976 131.801 649.351 473.963
1198 0 82.066 13.3429 1095 128.937 649.594 473.629
1199 0 84.0632 13.8705 1166 127.088 650.301 472.887
1200 0 85.1045 13.1603 1120 130.851 650.188 471.858
1201 0 90.1193 13.3934 1207 128.386 649.974 470.574
1202 0 93.1242 13.5947 1266 129.288 650.433 469.489
1203 0 97.0618 13.9087 1350 128.755 650.168 466.723
1204 0 98.1337 13.0231 1278 131.979 649.801 464.505
1205 0 103.125 13.0522 1346 132.831 648.989 464.571
1206 1 58.0773 11.2953 656 133.86 649.406 486.303
1207 0 60.0692 13.4678 809 129.286 649.184 484.972
1208 0 61.0674 12.478 762 132.992 649.277 485.468
1209 0 61.0409 12.9749 792 130.899 649.357 483.133
1210 0 63.0578 12.1952 769 133.421 649.161 482.769
1211 0 63.0796 12.8885 813 133.423 649.494 480.45
1212 0 68.0505 13.9749 951 128.856 649.065 479.96
1213 0 70.0678 12.2025 855 133.656 649.212 478.881
1214 0 71.0551 12.427 883 134.287 649.578 477.418
1215 0 73.0859 13.0668 955 133.832 649.805 476.654
1216 0 76.116 12.3758 942 132.696 649.367 477.732
1217 0 78.0367 12.7248 993 132.493 649.699 474.826
1218 0 81.0814 13.0609 1059 131.645 649.719 472.726
1219 0 84.1122 12.3763 1041 132.426 649.562 473.495
1220 0 86.0726 12.5824 1083 133.829 649.065 471.951
1221 0 90.186 12.3966 1118 135.436 649.307 468.941
1222 0 93.0848 13.1171 1221 133.069 648.375 467.906
1223 1 46.0212 11.0601 509 135.147 648.11 490.314
1224 0 50.0359 11.9114 596 132.128 648.351 487.983
1225 0 51.0984 12.5053 639 130.715 650.723 487.645
1226 0 53.0738 12.7558 677 128.752 650.643 487.034
1227 0 54.0479 12.6739 685 128.527 651.149 487.396
1228 0 56.0486 12.6319 708 128.345 651.314 485.764
1229 0 58.0439 11.8359 687 130.764 650.99 483.328
1230 0 63.1094 14.1183 891 118.704 651.434 480.734
1231 0 60.0725 13.0009 781 124.953 651.155 481.049
1232 0 63.0613 13.6851 863 122.352 650.582 481.115
1233 0 65.0533 13.6042 885 121.967 650.679 480.39
1234 0 66.0907 11.7717 778 127.808 650.346 479.231
1235 0 69.1571 12.9705 897 122.866 650.33 477.993
1236 0 71.1026 12.489 888 124.386 650.979 477.2
1237 0 75.0689 13.8939 1043 119.758 650.799 475.016
1238 0 78.2148 12.8748 1007 123.17 650.69 475.034
1239 0 79.0888 12.0877 956 126.686 651.073 474.501
1240 0 83.053 12.7991 1063 123.577 650.885 471.458
1241 0 88.1019 12.5423 1105 121.819 650.587 471.024
1242 0 89.1201 13.1283 1170 121.34 650.55 470.346
1243 0 93.0947 12.3852 1153 123.866 650.534 466.343
1244 1 51.0401 11.4812 586 126.754 651.09 486.887
1245 0 55.0493 12.3344 679 125.604 650.601 486.54
1246 0 55.0142 11.8878 654 128.336 650.448 486.032
1247 0 59.076 12.4078 733 125.311 650.623 483.786
1248 0 59.0451 12.2449 723 127.397 650.653 483.033
1249 0 59.0579 11.3279 669 130.175 650.933 482.517
1250 0 63.0304 12.486 787 125.889 650.741 480.17
1251 0 66.1015 12.738 842 122.799 650.621 480.667
1252 0 67.0732 11.808 792 126.352 650.294 479.452
1253 0 70.0233 12.5244 877 123.887 650.658 477.523
1254 0 72.0233 12.4404 896 123.518 650.11 478.975
1255 0 74.0436 12.3441 914 124.303 650.134 476.846
1256 0 76.0239 12.2988 935 125.204 651.133 475.88
1257 0 80.0245 13.4959 1080 120.695 650.699 474.934
1258 0 80.0548 12.5039 1001 124.641 650.547 471.618
1259 0 84.0643 12.7521 1072 123.744 650.62 470.079
1260 0 87.0805 12.0004 1045 124.724 651.144 472.397
1261 0 92.0668 12.9254 1190 122.498 650.675 468.292
1262 0 96.1223 12.8274 1233 122.072 650.131 467.624
1263 1 46.0593 9.63975 444 122.187 650.351 489.847
1264 0 48.0551 10.7585 517 120.416 650.634 488.611
1265 0 50.102 11.4766 575 114.266 650.845 488.117
1266 0 50.1061 11.7351 588 114.139 650.015 484.408
1267 0 53.0231 12.0136 637 113.16 650.314 484.722
1268 0 54.0175 10.9039 589 115.341 650.696 485.621
1269 0 55.0801 10.6754 588 116.558 650.316 486.478
1270 0 58.1146 10.3933 604 117.118 648.459 483.7
1271 0 58.1472 10.8346 630 116.954 648.865 483.079
1272 0 62.0468 12.1844 756 111.893 649.443 482.279
1273 0 63.0687 11.5588 729 113.062 648.658 482.089
1274 0 66.122 11.3427 750 114.481 648.96 480.525
1275 0 69.0404 12.3551 853 110.402 649.064 480.552
1276 0 71.0844 11.831 841 112.661 648.986 479.026
1277 0 73.0831 11.8358 865 113.511 650.113 476.914
1278 0 76.0817 12.0134 914 112.947 650.368 476.838
1279 0 79.1077 12.78 1011 111.607 649.887 475.46
1280 0 81.0426 12.3515 1001 114.145 650.025 473.436
1281 0 83.0737 12.4347 1033 114.07 650.242 473.812
1282 0 86.1652 12.9867 1119 113.592 650.757 470.877
1283 0 88.1112 11.2585 992 117.599 650.076 469.824
1284 1 45.0189 11.1064 500 115.338 650.722 490.554
1285 0 49.06 10.6808 524 115.563 651.882 490.139
1286 0 50.0209 12.4948 625 111.546 651.41 489.115
1287 0 50.0662 12.4435 623 113.857 651.99 487.475
1288 0 50.0526 11.408 571 117.187 650.405 488.609
1289 0 51.1482 10.9095 558 119.498 651.428 487.134
1290 0 54.0783 11.9826 648 115.239 650.767 487.565
1291 0 57.0588 11.6722 666 116.737 650.863 485.886
1292 0 57.0557 13.0925 747 114.786 651.4 484.64
1293 0 58.1641 11.7942 686 117.745 650.996 484.768
1294 0 60.2075 12.7061 765 115.417 651.047 482.472
1295 0 60.1216 11.6431 700 119.873 650.659 481.636
1296 0 64.1117 12.0727 774 117.983 650.831 481.557
1297 0 66.248 11.8041 782 118.501 650.743 480.6
1298 0 69.1876 12.4011 858 118.294 651.389 479.988
1299 0 71.1692 12.7443 907 117.744 651.077 479.856
1300 0 74.0994 13.1715 976 116.928 651.403 477.831
1301 0 76.1618 12.9986 990 118.747 650.458 475.02
1302 0 77.1834 12.1658 939 120.99 651.06 476.302
1303 0 81.1135 13.7338 1114 118.305 651.309 472.993
1304 0 84.1262 13.9196 1171 118.213 650.374 469.942
1305 0 85.0734 12.7302 1083 122.256 649.631 471.224
1306 0 88.1133 12.9719 1143 120.927 650.367 468.205
1307 1 49.0832 11.6333 571 122.387 650.774 487.937
1308 0 48.0165 12.0792 580 121.15 650.919 487.724
1309 0 48.0675 12.2744 590 125.131 650.915 486.915
1310 0 51.0337 12.6191 644 123.2 651.514 487.332
1311 0 55.0214 13.0676 719 121.306 651.52 486.239
1312 0 56.0773 13.4279 753 120.238 651.645 485.3
1313 0 57.1124 13.2721 758 122.119 651.449 483.586
1314 0 59.1192 12.7539 754 123.231 651.093 483.8
1315 0 59.0347 12.6536 747 123.439 651.339 484.186
1316 0 62.0407 12.524 777 124.801 651.241 481.553
1317 0 65.0442 13.2525 862 122.108 650.996 480.747
1318 0 64.129 12.8335 823 126.255 651.057 479.632
1319 0 68.0761 13.3233 907 125.085 650.902 478.306
1320 0 69.0946 12.9967 898 126.707 650.782 478.921
1321 0 71.0431 12.1898 866 130.259 650.744 477.852
1322 0 74.1156 14.7068 1090 125.511 651.172 474.885
1323 0 77.031 13.4102 1033 128.836 650.499 474.724
1324 0 79.105 14.0067 1108 129.034 650.825 472.149
1325 0 82.06 13.5876 1115 131.04 651.318 471.104
1326 0 84.0272 13.8527 1164 131.994 651.364 471.143
1327 0 89.0938 13.9067 1239 131.654 650.369 470.55
1328 0 89.0438 13.4765 1200 135.835 650.45 467.472
1329 0 93.0666 14.6562 1364 131.853 649.903 467.516
1330 0 94.032 13.2934 1250 128.602 648.987 468.035
1331 0 98.0549 14.3593 1408 126.621 648.786 464.535
1332 0 103.084 14.3863 1483 124.767 649.171 466.239
1333 0 106.125 14.0778 1494 124.876 649.412 464.22
1334 1 54.0105 10.7757 582 124.974 649.132 485.493
1335 0 58.0691 12.089 702 123.283 649.464 486.051
1336 0 60.0468 12.0406 723 126.275 648.942 483.905
1337 0 61.0925 12.7839 781 125.572 648.995 483.86
1338 0 64.0547 14.0505 900 121.972 648.302 481.998
1339 0 68.0634 14.0457 956 121.319 648.763 480.543
1340 0 70.0511 13.0762 916 124.786 648.857 479.843
1341 0 72.092 12.9418 933 125.744 649.02 478.807
1342 0 73.0435 13.4167 980 125.937 649.329 476.419
1343 0 77.0368 14.1361 1089 123.372 649.068 476.16
1344 0 80.092 13.9714 1119 123.94 648.937 473.802
1345 0 84.1449 14.7484 1241 120.168 649.159 473.11
1346 0 87.1025 13.5243 1178 123.499 648.947 471.903
1347 0 87.1003 13.8232 1204 123.277 649.094 468.63
1348 0 92.1297 14.0237 1292 121.625 649.135 468.213
1349 0 94.1102 12.9742 1221 124.399 648.76 467.475
1350 1 51.0514 12.4384 635 124.986 647.776 487.014
1351 0 52.0617 13.1575 685 120.023 647.635 487.997
1352 0 53.043 12.3108 653 126.309 649.646 485.522
1353 0 53.0289 12.1632 645 126.132 652.264 485.214
1354 0 56.0769 12.0905 678 124.088 652.091 484.883
1355 0 58.0342 12.5788 730 122.003 652.136 484.262
1356 0 61.0869 13.2762 811 119.7 651.469 482.404
1357 0 63.0897 12.2048 770 122.247 651.536 479.655
1358 0 66.0452 13.5513 895 117.238 651.94 479
1359 0 67.0493 13.6616 916 116.718 651.861 478.16
1360 0 70.066 12.0172 842 119.982 651.545 478.177
1361 0 71.1492 11.7359 835 120.541 651.198 476.346
1362 0 73.0665 12.7966 935 118.76 650.973 474.293
1363 0 74.1018 12.6313 936 119.372 651.845 472.314
1364 0 79.0614 14.9378 1181 111.861 652.108 472.561
1365 0 81.0888 13.2077 1071 115.946 651.624 471.525
1366 0 82.1804 12.4239 1021 119.14 650.581 470.331
1367 0 86.1773 13.5651 1169 117.571 650.764 468.376
1368 0 88.223 13.8286 1220 117.016 650.328 467.305
1369 0 90.1545 13.3327 1202 118.431 650.679 467.148
1370 0 96.207 14.0842 1355 115.414 649.958 467.108
1371 0 98.1956 14.3896 1413 115.11 650.445 464.467
1372 1 53.0826 12.2827 652 114.928 650.429 484.667
1373 0 51.0696 11.3962 582 110.732 650.9 479.84
1374 0 53.1504 8.44773 449 116.826 650.338 477.688
1375 0 55.1648 10.3508 571 102.191 650.342 482.653
1376 0 57.0904 9.96665 569 103.487 650.789 483.09
1377 0 58.1143 10.7891 627 102.502 649.96 480.96
1378 0 61.2783 11.5702 709 110.412 650.931 484.102
1379 0 61.2772 11.5541 708 140.482 650.938 484.082
1380 0 64.1418 12.2697 787 110.231 651.704 480.537
1381 0 66.1173 11.5704 765 111.706 651.103 479.745
1382 0 69.1649 11.3497 785 111.409 651.548 479.587
1383 0 71.0806 11.3111 804 112.179 651.185 479.958
1384 0 75.1097 11.5165 865 110.954 651.325 477.573
1385 0 76.132 12.1368 924 111.359 651.867 475.557
1386 0 78.0862 10.8982 851 115.098 651.59 474.139
1387 0 82.189 11.1816 919 114.361 651.342 471.378
1388 0 83.0863 11.2293 933 112.215 651.369 472.957
1389 0 84.1214 10.996 925 116.152 650.832 465.742
1390 1 47.0577 10.179 479 114.24 651.914 488.522
1391 0 47.1258 10.8221 510 112.627 651.3 489.931
1392 0 48.0974 11.9757 576 110.837 648.632 487.738
1393 0 51.2059 12.4009 635 109.417 648.425 486.844
1394 0 51.083 12.0588 616 110.578 648.984 489.14
1395 0 51.2174 10.719 549 115.038 649.479 488.51
1396 0 53.2305 11.9293 635 110.932 648.556 487.885
1397 0 53.0495 10.0661 534 111.607 648.914 487.258
1398 0 56.1335 10.2078 573 108.984 648.56 488.428
1399 0 57.0908 10.8949 622 108.328 649.286 485.709
1400 0 58.0276 11.5118 668 107.897 648.828 484.831
1401 0 62.1 11.2882 701 107.321 648.422 483.629
1402 0 64.0428 10.5554 676 108.345 648.547 483.645
1403 0 65.0489 10.961 713 108.259 648.815 480.822
1404 0 69.0688 12.3211 851 105.263 649.234 478.412
1405 0 69.1155 9.99776 691 111.355 648.903 475.725
1406 0 72.1021 12.3297 889 105.647 648.544 474.219
1407 0 75.1122 11.6892 878 107.08 648.728 472.827
1408 0 77.0839 12.3372 951 105.086 648.575 473.904
1409 0 78.0385 10.5589 824 109.754 649.057 471.911
1410 0 82.1304 11.4574 941 108.842 649.241 467.63
1411 0 86.0522 12.9456 1114 104.626 648.601 469.35
1412 1 46.0808 10.8288 499 107.022 648.345 486.667
1413 0 47.0119 9.0828 427 110.122 651.295 487.82
1414 0 50.0842 11.4407 573 104.808 650.99 486.789
1415 0 51.043 11.3434 579 106.055 650.136 485.062
1416 0 54.1618 11.521 624 102.189 650.486 483.423
1417 0 53.2042 10.5443 561 101.246 649.811 482.959
1418 0 55.2206 11.119 614 100.005 649.168 480.401
1419 0 56.0892 10.6972 600 101.828 650.212 479.888
1420 0 59.131 11.669 690 99.4928 649.888 480.687
1421 0 60.1005 12.4292 747 101.841 650.079 479.515
1422 0 62.1036 13.4131 833 98.9832 650.341 478.186
1423 0 64.1347 10.5871 679 104.127 649.679 480.115
1424 0 64.0748 11.7363 752 100.706 650.138 476.887
1425 0 66.137 10.0851 667 103.127 650.891 477.031
1426 0 71.1185 12.0784 859 98.1932 650.82 474.271
1427 0 72.0941 11.7208 845 97.8982 651.32 472.498
1428 0 76.1117 11.378 866 98.6663 650.001 469.979
1429 0 78.265 12.1894 954 98.6268 650.288 469.972
1430 0 83.1268 11.8133 982 97.6283 650.456 470.225
1431 1 42.1888 10.7849 455 101.101 651.349 488.622
1432 0 44.107 12.7191 561 98.4831 651.848 487.011
1433 0 45.0664 11.2057 505 101.731 650.871 485.21
1434 0 46.089 11.4778 529 102.459 651.505 483.492
1435 0 48.1165 10.5785 509 104.02 650.888 482.976
1436 0 51.0394 11.3834 581 101.365 650.298 483.009
1437 0 54.0454 11.6939 632 100.597 650.397 482.215
1438 0 54.0512 11.7666 636 101.822 649.014 479.822
1439 0 57.0711 12.5282 715 100.176 649.691 480.29
1440 0 57.0254 12.7312 726 101.829 649.605 479.789
1441 0 58.0619 11.9528 694 103.063 649.667 479.558
1442 0 63.1494 12.3992 783 102.989 649.553 477.723
1443 0 62.0779 12.0494 748 105.15 649.975 476.991
1444 0 64.1774 11.5929 744 106.754 650.042 477.157
1445 0 65.0684 11.4341 744 108.34 650.351 476.094
1446 0 69.115 11.6328 804 107.175 651.109 475.261
1447 0 72.1656 12.5129 903 104.464 650.712 473.577
1448 0 74.1506 11.9621 887 106.421 650.493 472.451
1449 0 76.2859 11.7715 898 107.9 650.627 471.542
1450 0 80.1969 13.4045 1075 103.929 651.016 470.059
1451 0 81.1532 12.1129 983 107.902 650.64 471.334
1452 0 85.2088 12.8977 1099 106.368 651.071 469.179
1453 0 86.3124 11.6206 1003 111.054 650.668 467.914
1454 1 49.3917 11.8846 587 106.814 650.954 488.036
1455 0 48.2416 11.5253 556 112.21 651.097 487.21
1456 0 51.128 11.6179 594 111.498 650.712 487.205
1457 0 53.2479 12.3573 658 109.176 650.976 485.403
1458 0 54.1238 12.5084 677 108.931 650.662 484.089
1459 0 56.1646 11.7334 659 111.247 650.539 484.279
1460 0 56.1846 11.9072 669 113.078 651.405 483.49
1461 0 60.1676 12.0164 723 111.17 650.833 483.289
1462 0 59.2709 11.9283 707 113.137 650.279 482.293
1463 0 62.1586 12.1142 753 111.93 649.744 480.616
1464 0 64.1248 12.0234 771 112.656 650.158 478.964
1465 0 66.1842 12.1328 803 112.278 651.416 478.971
1466 0 68.0904 12.7918 871 110.625 650.762 477.636
1467 0 68.1837 12.5103 853 112.546 650.975 476.285
1468 0 71.135 11.5836 824 114.549 651.098 476.14
1469 0 74.062 10.7477 796 115.376 651.707 472.436
1470 0 73.029 10.5575 771 116.337 651.192 472.392
1471 0 77.1418 11.9261 920 112.786 650.408 471.815
1472 0 80.2084 10.8841 873 115.023 649.986 470.255
1473 0 81.1358 12.1278 984 113.737 650.399 466.783
1474 0 86.1644 11.2343 968 114.158 650.206 466.263
1475 0 89.0898 12.6053 1123 109.346 650.085 464.725
1476 0 90.2017 13.3479 1204 108.223 650.332 464.046
1477 0 95.1936 12.4063 1181 110.252 650.638 464.157
1478 0 97.3867 13.3078 1296 109.049 650.609 462.344
1479 0 102.131 11.8475 1210 112.299 650.536 460.548
1480 1 53.0899 10.6235 564 102.833 650.383 485.667
1481 0 55.2695 10.2045 564 109.209 651.342 482.562
1482 0 57.154 11.5303 659 110.85 650.398 482.41
1483 0 57.0652 12.3718 706 106.593 650.296 481.851
1484 0 61.0732 12.6897 775 105.462 649.711 481.183
1485 0 62.0596 13.5354 840 103.083 650.017 479.549
1486 0 63.0594 11.7667 742 107.047 650.027 477.562
1487 0 64.0773 13.4681 863 103.598 648.297 475.108
1488 0 64.1454 12.269 787 105.704 648.352 475.518
1489 0 69.0952 11.8387 818 105.66 648.392 474.806
1490 0 73.0753 12.2476 895 104.037 648.686 473.758
1491 0 72.2189 12.0052 867 105.015 648.469 471.43
1492 0 75.1151 12.4609 936 105.934 648.552 470.537
1493 0 77.1118 12.4754 962 107.588 648.676 470.832
1494 0 80.1008 12.1222 971 108.84 649.077 467.74
1495 0 85.0688 12.7309 1083 106.596 648.28 467.846
1496 0 88.073 12.6372 1113 106.963 648.412 463.994
1497 0 90.1003 13.2408 1193 106.877 649.178 464.328
1498 1 46.092 9.78478 451 111.277 648.45 486.446
1499 0 46.1446 11.2472 519 104.892 648.576 483.185
1500 0 49.1459 11.6592 573 105.387 648.517 486.824
1501 0 50.129 11.6499 584 106.361 648.544 487.122
1502 0 53.1721 12.8827 685 103.701 648.206 484.955
1503 0 53.1796 12.2415 651 103.166 648.796 482.919
1504 0 53.1561 11.8895 632 101.886 648.239 480.449
1505 0 53.0924 13.2599 704 101.024 648.494 480.734
1506 0 54.1202 12.6385 684 106.344 649.047 482.637
1507 0 54.1824 12.3841 671 108.505 649.34 481.151
1508 0 56.1023 11.7286 658 109.729 649.093 479.622
1509 0 57.0924 11.2624 643 113.123 648.823 480.26
1510 0 57.1217 12.3771 707 111.542 648.635 480.468
1511 0 62.1239 13.0868 813 107.076 647.854 479.56
1512 0 61.0872 12.1302 741 110.023 647.409 477.545
1513 0 63.1081 13.358 843 106.39 647.555 477.679
1514 0 65.1196 12.9147 841 107.874 647.787 476.904
1515 0 66.0551 12.5955 832 108.614 647.708 475.788
1516 0 69.0625 12.7421 880 107.64 648.161 475.749
1517 0 71.1216 11.4311 813 111.412 647.523 473.914
1518 0 73.0822 12.8622 940 108.672 648.401 470.44
1519 0 74.1839 12.9813 963 110.479 648.624 471.087
1520 0 77.0404 12.9543 998 110.401 648.635 471.912
1521 0 81.115 12.2049 990 114.238 649.048 469.134
1522 0 82.0936 12.5345 1029 114.819 648.902 468.878
1523 1 42.0216 9.82829 413 119.245 648.736 487.504
1524 0 43.043 9.29303 400 120.625 647.845 488.542
1525 0 46.0468 11.7706 542 116.29 648.107 488.05
1526 0 47.0538 12.4326 585 115.06 648.342 489.183
1527 0 48.0344 11.6375 559 120.533 648.029 489.36
1528 0 48.1415 10.5314 507 125.266 647.852 489.069
1529 0 50.1393 12.0066 602 121.314 648.287 490.116
1530 0 51.1373 11.2834 577 126.714 648.749 487.842
1531 0 52.1787 11.6331 607 127.185 648.254 486.947
1532 0 52.0936 11.0186 574 129.028 647.953 488.04
1533 0 56.0284 12.3687 693 126.724 648.251 486.468
1534 0 58.0424 12.2669 712 127.667 648.006 486.44
1535 0 57.118 11.0473 631 135.55 648.315 485.06
1536 0 59.1467 12.376 732 131.426 647.372 485.869
1537 0 62.1328 11.8456 736 132.254 648.17 484.289
1538 0 63.0621 12.2895 775 130.966 648.089 483.054
1539 0 64.1042 11.3409 727 135.16 647.772 482.037
1540 0 66.0916 11.4689 758 134.437 647.47 481.228
1541 0 68.0858 13.2774 904 130.753 647.281 478.009
1542 0 69.0658 12.2637 847 134.318 648.169 477.891
1543 0 72.0638 12.0033 865 133.142 647.866 477.63
1544 0 74.0822 12.9856 962 132.108 646.8 475.021
1545 0 75.1015 12.8626 966 133.56 646.763 473.36
1546 0 76.0244 11.2595 856 137.662 647.056 472.886
1547 0 79.1223 11.8677 939 135.531 647.174 470.92
1548 0 81.0404 11.5621 937 135.918 646.622 471.335
1549 0 82.1295 11.6889 960 136.616 646.41 468.607
1550 0 84.1902 11.4503 964 137.446 646.667 464.604
1551 0 90.0794 12.6888 1143 131.776 646.098 465.885
1552 0 91.1175 12.1272 1105 133.825 646.476 462.226
1553 0 95.1337 12.4036 1180 131.085 646.636 462.366
1554 0 97.0798 10.8055 1049 135.428 646.378 459.057
1555 1 50.0283 11.1537 558 124.378 646.165 482.242
1556 0 52.0508 11.1045 578 122.607 647.263 481.863
1557 0 56.0392 12.1879 683 123.271 647.076 481.798
1558 0 58.0649 11.2116 651 122.989 646.078 483.507
1559 0 58.0429 10.6128 616 123.084 646.054 485.804
1560 0 61.0458 10.2218 624 124.524 646.659 483.952
1561 0 63.0368 10.597 668 123.961 646.846 481.008
1562 0 64.0805 11.3295 726 121.065 646.897 481.523
1563 0 67.0641 10.3632 695 122.911 646.794 480.272
1564 0 69.1104 10.7364 742 122.129 647.03 479.286
1565 0 71.0675 11.1865 795 120.765 647.398 478.864
1566 0 74.1216 11.6161 861 119.774 647.469 476.743
1567 0 76.1419 11.3604 865 119.032 647.629 474.769
1568 0 77.0777 9.6007 740 122.191 647.131 472.628
1569 0 80.1313 10.7823 864 119.995 648.046 470.851
1570 0 83.0821 11.2299 933 119.613 647.884 469.89
1571 0 85.1832 9.75545 831 122.294 647.995 471.201
1572 0 90.1141 11.5853 1044 119.767 647.574 465.548
1573 0 92.1765 11.9553 1102 119.227 647.302 465.537
1574 0 95.2256 11.0054 1048 122.435 647.356 461.15
1575 0 99.0637 10.9122 1081 123.115 647.106 462.1
1576 0 102.14 11.2003 1144 123.055 646.823 456.163
1577 0 108.209 11.8937 1287 120.936 646.836 456.088
1578 1 60.0414 9.66001 580 115.591 647.355 482.402
1579 0 61.0552 10.9245 667 112.447 647.501 479.984
1580 0 63.1122 10.3308 652 113.166 647.4 478.324
1581 0 65.073 10.1578 661 114.667 647.227 478.011
1582 0 68.0632 11.5628 787 111.521 648.13 476.027
1583 0 68.1107 9.85162 671 115.463 647.924 476.089
1584 0 74.181 11.2562 835 110.613 648.298 474.265
1585 0 75.1584 10.8704 817 111.535 648.256 472.14
1586 0 76.077 10.8443 825 112.486 647.642 470.676
1587 0 81.0963 12.1707 987 108.941 647.628 468.707
1588 0 82.1131 11.7034 961 110.89 647.728 470.259
1589 0 84.1084 11.1166 935 113.363 648.391 468.98
1590 0 89.1653 13.3011 1186 115.226 647.42 466.06
1591 0 92.1836 12.486 1151 116.779 647.738 466.266
1592 0 93.1214 13.8099 1286 114.7 647.352 464.939
1593 0 98.1376 11.9628 1174 118.088 647.503 465.627
1594 0 99.2571 11.2939 1121 119.549 647.428 465.673
1595 0 104.178 13.3809 1394 110.849 647.402 461.933
1596 0 107.16 12.29 1317 117.334 647.377 459.784
1597 1 55.0452 11.6086 639 108.178 648.667 485.606
1598 0 56.0538 11.2749 632 110.422 648.691 484.014
1599 0 57.1241 12.0089 686 110.284 648.574 483.299
1600 0 59.068 12.02 710 110.863 648.797 480.059
1601 0 60.0554 12.2886 738 111.348 648.737 480.944
1602 0 64.0686 13.0173 834 109.405 648.691 480.502
1603 0 66.075 12.2437 809 111.424 648.595 479.256
1604 0 67.1347 13.1229 881 109.807 646.848 480.087
1605 0 69.0602 12.8004 884 110.983 647.124 479.489
1606 0 72.1108 12.3837 893 112.361 646.946 476.516
1607 0 71.0339 12.4448 884 114.879 646.746 476.048
1608 0 75.153 13.0401 980 111.271 647.116 476.554
1609 0 77.0968 12.2573 945 114.394 647.178 474.55
1610 0 82.1093 14.6268 1201 108.644 647.107 471.202
1611 0 83.198 13.9547 1161 113.03 647.529 471.201
1612 0 86.1408 13.0484 1124 115.074 647.378 470.636
1613 0 89.2706 13.8792 1239 112.498 647.434 467.37
1614 0 93.1492 14.1923 1322 120.126 648.508 465.969
1615 0 94.2193 12.5983 1187 125.224 647.885 464.671
1616 1 52.117 10.5532 550 121.833 647.785 487.065
1617 0 55.0794 12.0916 666 117.357 647.014 485.366
1618 0 55.0277 12.0485 663 117.867 646.564 483.46
1619 0 58.1198 12.7667 742 116.062 646.844 483.996
1620 0 60.1441 13.5674 816 114.57 647.423 481.621
1621 0 59.0706 12.5612 742 118.809 646.628 480.609
1622 0 61.1441 11.8572 725 119.583 646.204 480.792
1623 0 62.1044 11.8188 734 121.192 647.114 480.798
1624 0 67.1458 13.0611 877 116.032 646.799 479.669
1625 0 69.2147 12.1217 839 118.342 647.11 478.826
1626 0 71.1277 13.0329 927 117.237 647.308 476.227
1627 0 72.2928 13.4177 970 117.641 647.402 474.34
1628 0 75.2171 12.9226 972 110.647 647.72 473.413
1629 0 76.2633 12.4568 950 121.429 647.438 471.56
1630 0 80.1653 12.9732 1040 119.751 647.108 471.466
1631 0 84.1391 13.9174 1171 117.842 646.765 469.142
1632 0 86.3103 13.8454 1195 118.549 646.809 466.709
1633 0 88.5966 13.3414 1182 120.592 646.651 464.921
1634 0 90.289 13.3128 1202 121.642 647.198 464.633
1635 0 94.3495 13.4818 1272 121.764 647.508 461.587
1636 0 97.4058 13.1717 1283 121.602 647.468 460.024
1637 0 96.3 11.1215 1071 125.647 647.366 461.136
1638 0 103.314 13.1541 1359 109.05 647.432 459.655
1639 0 105.168 12.5703 1322 110.702 647.45 457.054
1640 0 109.137 12.3972 1353 112.003 648.037 455.389
1641 1 59.0474 11.9565 706 103.899 647.603 482.636
1642 0 61.1919 10.5243 644 110.911 647.874 478.38
1643 0 63.1068 12.6611 799 104.587 648.642 478.454
1644 0 66.1467 12.2909 813 105.544 648.299 478.812
1645 0 67.1979 12.3665 831 105.112 647.951 478.067
1646 0 70.1242 12.3923 869 105.31 648.094 479.479
1647 0 72.1718 12.3178 889 106.811 647.564 475.918
1648 0 74.1874 12.3202 914 108.232 647.601 473.789
1649 0 77.1293 13.1208 1012 106.544 647.553 474.286
1650 0 76.1622 10.8715 828 113.714 647.699 472.896
1651 0 81.1996 11.9705 972 111.096 647.62 472.119
1652 0 83.1519 12.7598 1061 109.984 647.837 470.05
1653 0 86.1213 10.88 937 114.306 648.173 470.745
1654 0 90.1617 12.0561 1087 112.974 648.258 469.215
1655 0 90.1042 12.1304 1093 113.586 648.405 465.192
1656 0 94.0976 10.7229 1009 115.687 648.586 466.932
1657 0 94.1509 11.0142 1037 117.606 648.484 462.039
1658 0 100.175 11.2703 1129 117.103 647.745 461.74
1659 0 101.318 12.9198 1309 114.62 648.066 458.999
1660 0 103.196 12.1129 1250 117.824 647.877 457.332
1661 0 107.067 12.4781 1336 116.94 647.207 458.374
1662 0 109.298 11.6562 1274 119.293 647.267 455.321
1663 0 114.169 12.464 1423 117.636 647.562 454.137
1664 0 118.138 11.7405 1387 118.616 647.723 451.73
1665 0 125.275 13.4344 1683 115.756 647.008 450.523
1666 0 126.082 12.3253 1554 121.739 647.068 445.036
1667 1 71.0864 12.112 861 115.317 647.014 476.196
1668 0 71.1065 11.1523 793 120.363 647.088 473.298
1669 0 74.1816 11.9437 886 118.202 647.165 472.007
1670 0 78.2106 11.6097 908 113.522 646.416 470.705
1671 0 80.1562 11.4776 920 113.073 646.142 469.42
1672 0 82.2112 11.6529 958 113.332 645.736 467.462
1673 0 86.0893 12.6264 1087 112.468 646.691 467.984
1674 0 86.0794 11.9308 1027 115.272 646.631 465.567
1675 0 89.1124 11.2891 1006 118.71 646.586 466.459
1676 0 92.129 12.374 1140 119.775 646.557 465.571
1677 0 95.0524 12.9402 1230 120.648 646.241 465.213
1678 0 96.0366 12.162 1168 125.151 646.473 461.517
1679 0 103.053 12.0617 1243 121.901 645.933 462.399
1680 0 102.069 10.5517 1077 125.364 645.987 460.567
1681 0 106.131 12.2773 1303 121.926 645.744 457.268
1682 0 109.12 11.327 1236 124.044 646.544 455.365
1683 0 112.154 10.9581 1229 126.053 647.183 455.197
1684 0 119.215 12.5152 1492 120.925 646.858 453.848
1685 0 120.152 11.9432 1435 127.515 647.176 449.305
1686 0 126.248 12.1507 1534 125.62 646.612 449.368
1687 0 130.228 12.3476 1608 125.672 646.835 447.282
1688 0 138.319 12.6375 1748 125.985 647.838 438.764
1689 1 72.16 8.9939 649 117.456 647.251 468.248
1690 0 73.2084 10.6545 780 114.537 647.749 466.172
1691 0 77.0474 10.2924 793 112.096 648.868 464.487
1692 0 75.0883 7.63101 573 113.361 648.117 467.098
1693 0 82.0456 10.2626 842 108.571 648.186 463.752
1694 0 81.0781 8.76932 711 113.719 647.197 458.885
1695 0 83.099 8.86894 737 111.619 647.27 464.392
1696 0 88.1272 9.65649 851 110.326 647.747 460.478
1697 0 89.0656 9.81299 874 111.537 647.335 457.19
1698 0 90.2146 9.89861 893 112.817 647.907 453.245
1699 0 98.1235 9.47785 930 113.013 647.981 454.033
1700 0 103.211 9.34006 964 112.425 647.812 452.246
1701 0 102.116 9.98868 1020 112.937 648.116 449.039
1702 1 59.0479 9.87334 583 118.595 647.942 480.386
1703 0 55.0701 9.06117 499 112.597 648.687 473.713
1704 0 57.137 8.99592 514 109.661 648.735 474.01
1705 0 62.0697 12.0671 749 103.023 648.586 471.586
1706 0 66.0742 11.2147 741 112.077 648.91 477.592
1707 0 67.0661 9.21479 618 107.748 645.482 480.152
1708 0 66.061 9.68802 640 109.069 645.558 475.205
1709 0 71.1648 10.567 752 104.977 646.104 476.242
1710 0 72.1305 9.33032 673 108.358 645.666 474.894
1711 0 74.1744 10.1248 751 106.823 645.206 473.949
1712 0 79.2488 11.5081 912 103.669 645.65 472.953
1713 0 80.2356 11.7778 945 104.164 645.876 471.856
1714 0 82.1226 11.0323 906 106.702 646.05 469.015
1715 0 83.1894 10.6624 887 107.487 645.98 466.335
1716 0 87.221 10.2384 893 109.134 645.501 468.109
1717 0 88.1123 11.02 971 108.561 645.99 464.767
1718 0 91.1565 13.2848 1211 103.638 646.049 466.884
1719 0 93.1675 10.948 1020 110.261 646.004 465.033
1720 0 97.136 11.7361 1140 109.446 645.79 462.689
1721 0 98.1776 10.3588 1017 113.324 645.544 463.733
1722 0 103.194 11.7642 1214 111.311 646.224 459.061
1723 0 106.136 12.5311 1330 110.222 645.971 458.71
1724 0 110.238 11.9832 1321 112.12 646.134 453.855
1725 1 60.1533 8.89394 535 118.617 646.037 483.621
1726 0 62.0779 13.177 818 108.425 646.224 480.927
1727 0 62.0935 11.8692 737 116.054 645.501 479.685
1728 0 65.0147 12.7202 827 114.051 645.698 478.48
1729 0 67.0924 12.8927 865 113.102 646.079 477.05
1730 0 69.0366 11.9502 825 115.042 645.556 478.741
1731 0 73.1411 13.3167 974 112.54 645.571 475.025
1732 0 73.0383 12.7057 928 114.658 645.877 476.017
1733 0 77.0811 12.5323 966 115.291 646.66 473.503
1734 0 78.0435 12.5827 982 116.133 646.893 473.706
1735 0 81.0742 12.9018 1046 115.384 646.354 472.488
1736 0 85.098 13.9956 1191 112.147 646.159 470.608
1737 0 86.1259 13.8518 1193 110.657 646.798 469.244
1738 0 89.1287 13.43 1197 111.58 646.396 468.025
1739 0 90.146 11.8253 1066 117.239 645.75 470.612
1740 0 93.2045 10.4609 975 118.893 646.436 470.358
1741 0 97.1617 12.7211 1236 115.104 646.501 464.179
1742 1 54.2119 10.7541 583 116.624 646.316 484.352
1743 0 57.0785 12.7544 728 114.527 645.463 483.352
1744 0 58.0684 12.5369 728 116.527 645.644 480.959
1745 0 58.04 12.009 697 118.023 645.297 481.387
1746 0 58.04 11.94 693 135.091 644.333 481.414
1747 0 63.09 11.761 742 116.929 645.737 480.639
1748 0 66.0202 13.1626 869 113.741 645.357 479.47
1749 0 69.0401 13.6298 941 111.408 645.486 478.738
1750 0 71.0776 13.4501 956 112.385 646.017 476.416
1751 0 73.0732 12.7133 929 113.28 645.729 476.843
1752 0 77.0198 13.1784 1015 111.092 645.991 474.809
1753 0 80.078 12.9249 1035 112.064 646.035 473.99
1754 0 80.1996 12.7183 1020 115.094 646.547 473.358
1755 0 85.2083 13.954 1189 112.54 646.384 469.877
1756 1 43.0255 9.76165 420 115.974 645.679 491.926
1757 0 45.1693 11.2244 507 113.393 645.651 489.854
1758 0 46.031 12.1874 561 104.255 647.756 489.157
1759 0 47.0314 11.4604 539 105.978 647.644 488.51
1760 0 47.0623 11.6866 550 106.629 648.407 489.124
1761 0 50.0367 13.0304 652 103.429 648.118 487.109
1762 0 50.0538 11.168 559 107.905 647.977 486.71
1763 0 51.0707 11.5526 590 107.832 647.605 485.844
1764 0 56.1103 12.2972 690 104.242 647.87 485.938
1765 0 56.0959 13.3343 748 103.491 648.116 484.434
1766 0 57.1973 13.2524 758 104.627 648.348 485.27
1767 0 57.1189 12.6053 720 106.789 647.938 484.147
1768 0 59.1344 12.2602 725 106.903 648.095 483.541
1769 0 62.1113 13.4436 835 104.253 647.622 481.723
1770 0 61.0863 12.1795 744 108.695 647.45 480.16
1771 0 64.0683 13.0018 833 104.945 648.193 481.576
1772 0 67.1097 13.0682 877 104.88 647.846 479.562
1773 0 69.0972 13.329 921 105.128 647.798 477.094
1774 0 70.1207 12.7494 894 107.01 647.956 476.709
1775 0 72.0686 13.2096 952 106.146 647.9 476.842
1776 0 73.151 13.4926 987 106.091 647.995 475.02
1777 0 76.0538 13.451 1023 105.413 648.118 476.288
1778 0 79.0866 13.4157 1061 106.396 648.364 473.218
1779 0 82.1638 12.9741 1066 107.705 647.952 471.22
1780 0 82.1568 12.9874 1067 141.202 647.959 471.201
1781 0 88.1321 12.9919 1145 108.283 647.133 469.05
1782 0 89.0542 13.0482 1162 108.378 647.99 468.319
1783 1 49.0392 12.1739 597 107.34 648.119 488.796
1784 0 52.0136 12.266 638 107.61 648.433 486.716
1785 0 50.1128 10.197 511 103.135 648.276 481.683
1786 0 53.0505 12.2148 648 98.7207 646.988 478.964
1787 0 53.0529 12.1954 647 121.317 645.989 478.927
1788 0 56.1203 11.1903 628 102.135 646.928 479.892
1789 0 57.0699 12.0379 687 99.9287 647.442 478.22
1790 0 61.0305 13.141 802 97.0923 647.623 477.357
1791 0 61.0611 10.9235 667 102.73 647.915 476.723
1792 0 62.0564 10.7483 667 103.886 647.622 474.829
1793 0 64.0237 10.215 654 105.841 647.864 473.569
1794 0 67.1041 11.2959 758 103.753 647.726 471.95
1795 0 70.1133 12.109 849 103.016 647.265 471.112
1796 0 72.0445 11.5623 833 104.676 646.724 471.084
1797 0 74.1295 11.6418 863 105.318 647.296 468.662
1798 0 78.0853 12.3455 964 103.35 647.036 468.685
1799 0 80.2212 11.5431 926 106.038 647.232 464.83
1800 0 84.0626 12.1576 1022 104.263 646.693 465.607
1801 0 84.0465 12.386 1041 105.736 646.982 460.277
1802 0 87.1816 11.6194 1013 107.781 646.797 462.122
1803 0 90.0687 10.7474 968 110.676 647.551 460.542
1804 0 92.1638 11.5555 1065 111.492 647.761 457.903
1805 0 98.0992 13.2009 1295 108.231 647.599 455.048
1806 1 52.0185 9.32361 485 110.202 648.631 477.994
1807 0 58.0664 12.6235 733 114.705 648.651 480.884
1808 0 61.1292 12.3509 755 115.411 648.044 481.115
1809 0 63.1265 13.6076 859 110.636 648.066 479.709
1810 0 64.1503 12.2057 783 114.036 647.927 478.231
1811 0 66.0731 11.3208 748 115.679 647.952 479.461
1812 0 70.1935 11.5965 814 116.005 647.702 474.359
1813 0 72.247 13.1909 953 112.176 647.751 473.715
1814 0 73.1793 13.1595 963 113.633 647.366 472.561
1815 0 78.1959 13.0569 1021 112.329 647.457 473.676
1816 0 81.1495 12.7666 1036 114.069 647.472 469.809
1817 0 85.2333 13.3399 1137 112.153 647.415 471.786
1818 0 87.3093 13.4694 1176 112.234 647.452 467.282
1819 0 90.2139 13.5677 1224 113.372 647.842 466.924
1820 0 92.142 12.2528 1129 109.512 647.611 462.627
1821 0 94.1433 11.5568 1088 112.299 647.945 461.151
1822 0 99.1541 12.1326 1203 112.197 647.972 463.052
1823 1 52.0297 9.93664 517 112.331 648.42 484.482
1824 0 54.0378 11.2514 608 112.303 646.095 484.857
1825 0 56.0764 10.8067 606 113.584 648.881 483.125
1826 0 57.0434 12.622 720 109.231 648.144 484.571
1827 0 62.1046 11.8671 737 111.227 648.499 482.764
1828 0 62.0743 11.0352 685 114.764 648.648 481.914
1829 0 62.09 12.1276 753 114.701 648.203 480.429
1830 0 66.0312 13.1604 869 111.198 648.445 480.216
1831 0 67.0536 11.886 797 115.556 648.706 478.395
1832 0 71.1256 12.977 923 112.9 648.584 478.702
1833 0 71.048 12.02 854 117.543 648.212 478.162
1834 0 73.118 12.2131 893 118.475 647.645 476.024
1835 0 77.1578 13.4789 1040 115.134 647.997 475.688
1836 0 76.0926 12.3271 938 121.204 647.162 474.946
1837 0 81.1003 13.5388 1098 117.606 647.554 474.433
1838 0 82.1713 14.1168 1160 117.346 647.667 472.309
1839 0 82.117 12.9815 1066 122.72 647.639 471.265
1840 0 86.1149 12.8085 1103 124.205 647.373 470.317
1841 0 87.0687 12.9094 1124 126.923 646.693 467.666
1842 0 89.1064 12.8498 1145 126.455 647.802 466.627
1843 0 94.1378 13.5227 1273 121.09 647.57 464.521
1844 0 96.1409 12.8561 1236 125.181 646.766 463.239
1845 0 98.1508 12.9087 1267 127.811 647.599 462.081
1846 1 56.0901 10.3583 581 127.494 649.053 487.112
1847 0 56.0901 10.3405 580 145.79 649.098 487.114
1848 0 59.2104 12.5147 741 127.559 646.424 481.285
1849 0 60.1846 12.5614 756 128.46 646.343 481.112
1850 0 63.1134 12.1369 766 127.568 645.352 481.359
1851 0 65.0691 11.6799 760 130.851 644.924 480.797
1852 0 64.0635 11.7852 755 134.396 644.829 480.091
1853 0 69.0546 13.2504 915 128.591 644.886 478.111
1854 0 71.0973 12.715 904 129.001 645.322 478.885
1855 0 74.0881 12.7146 942 129.251 645.81 476.057
1856 0 76.086 12.8013 974 129.262 645.657 474.572
1857 0 78.1691 13.5731 1061 128.685 645.73 473.293
1858 0 80.0873 13.1856 1056 130.171 646.206 473.101
1859 0 83.1108 13.6685 1136 129.252 646.336 471.322
1860 0 87.0782 14.2975 1245 127.316 646.049 468.567
1861 0 90.1404 13.5566 1222 128.244 646.076 469.247
1862 0 90.1834 13.151 1186 131.732 646.35 467.169
1863 0 94.3305 13.6859 1291 128.926 646.242 465.87
1864 0 97.1346 13.4556 1307 129.937 646.192 464.865
1865 0 101.262 13.2725 1344 130.443 646.246 462.979
1866 0 104.204 14.8555 1548 124.457 645.37 462.596
1867 1 60.4328 11.3845 688 134.526 646.837 478.672
1868 0 60.2135 10.5458 635 121.85 647.609 481.939
1869 0 63.1241 11.9922 757 118.096 647.691 481.659
1870 0 64.0797 11.4389 733 119.105 647.437 479.895
1871 0 68.1991 11.0998 757 118.618 647.108 479.954
1872 0 67.1034 9.99949 671 116.256 647.762 476.675
1873 0 67.2781 11.3558 764 113.683 647.085 473.161
1874 0 71.1009 12.1095 861 112.376 647.282 471.206
1875 0 73.2162 10.7217 785 115.571 647.219 472.894
1876 0 74.2319 11.262 836 115.89 647.075 470.604
1877 0 77.3613 11.5949 897 113.793 647.381 470.763
1878 0 81.213 11.7346 953 113.84 647.98 470.27
1879 0 82.2168 11.6521 958 117.772 647.671 469.363
1880 0 87.1008 12.1928 1062 115.651 646.915 470.603
1881 0 88.204 12.301 1085 116.604 646.751 466.496
1882 0 91.1015 12.5794 1146 115.326 646.511 466.106
1883 0 93.1673 13.084 1219 114.965 646.735 465.557
1884 0 98.2667 12.9545 1273 113.969 646.947 463.632
1885 0 99.2263 12.0331 1194 118.028 646.281 464.211
1886 1 53.1689 11.6045 617 119.196 645.378 482.207
1887 0 52.2123 11.4149 596 121.406 646.376 481.728
1888 0 58.2496 12.9958 757 116.05 646.547 480.169
1889 0 59.2504 13.1813 781 114.56 646.919 481.4
1890 0 59.2032 11.5365 683 114.78 647.561 482.925
1891 0 61.2488 12.3921 759 114.693 647.962 482.663
1892 0 63.3426 12.0298 762 116.139 647.895 481.881
1893 0 65.1323 12.1906 794 116.262 647.532 481.315
1894 0 67.1529 12.5683 844 115.686 647.771 479
1895 0 70.2928 12.6044 886 114.056 647.562 478.67
1896 0 73.2387 11.9063 872 115.261 647.693 477.493
1897 0 76.1151 12.6519 963 113.353 647.617 473.856
1898 0 77.1257 12.1879 940 115.206 647.651 474.504
1899 0 80.1526 11.7027 938 115.979 647.829 473.929
1900 0 82.1637 12.7185 1045 113.574 648.113 472.469
1901 0 88.1584 13.0334 1149 112.166 647.869 470.525
1902 0 89.1378 12.9238 1152 112.845 648.213 470.819
1903 0 91.2176 12.2783 1120 115.31 647.729 467.529
1904 0 95.1404 12.676 1206 113.859 647.851 466.794
1905 1 52.0106 10.7286 558 117.118 648.489 486.6
1906 0 53.0822 11.1337 591 115.973 648.179 486.484
1907 0 56.1485 11.808 663 113.262 647.857 482.738
1908 0 57.093 13.697 782 108.344 648.348 483.159
1909 0 59.0667 12.5621 742 109.534 648.239 482.871
1910 0 59.0539 11.8875 702 112.816 648.315 482.004
1911 0 63.0566 13.0835 825 108.341 648.062 481.099
1912 0 63.0906 13.1874 832 109.191 648.056 480.62
1913 0 65.1016 12.2117 795 111.133 647.577 481.53
1914 0 69.129 12.2091 844 110.263 648.498 480.236
1915 0 69.1479 13.059 903 109.683 648.376 477.245
1916 0 72.105 12.8424 926 108.785 648.376 477.762
1917 0 74.12 13.8424 1026 107.451 648.09 475.811
1918 0 77.0787 13.9857 1078 107.111 647.949 474.559
1919 0 76.0498 12.9257 983 110.924 648.048 474.724
1920 0 80.111 12.4827 1000 111.393 647.708 473.733
1921 0 82.1526 11.8682 975 113.596 647.553 472.169
1922 0 85.0915 12.8332 1092 111.383 647.128 470.802
1923 0 88.1526 13.3632 1178 109.835 647.423 469.014
1924 0 90.149 12.8898 1162 111.496 647.824 470.516
1925 0 92.0684 12.078 1112 114.413 648.183 468.147
1926 0 95.1233 13.5508 1289 111.013 647.408 465.475
1927 0 97.0539 12.6734 1230 113.185 646.968 462.036
1928 0 99.0797 11.7885 1168 116.138 647.625 465.331
1929 0 103.089 12.009 1238 115.861 647.823 464.107
1930 0 106.136 11.6926 1241 117.529 647.605 462.469
1931 0 108.177 11.888 1286 119.508 647.502 458.519
1932 0 114.095 12.9453 1477 118.563 647.37 457.107
1933 0 117.092 11.8198 1384 121.171 647.561 454.405
1934 1 67.0886 9.80792 658 116.193 648.184 474.819
1935 0 71.1199 12.8375 913 113.567 648.158 476.591
1936 0 73.2047 13.2642 971 114.096 647.735 474.852
1937 0 77.1392 12.8599 992 111.035 648.111 474.197
1938 0 80.1732 13.6829 1097 110.325 648.192 472.568
1939 0 82.1004 12.0341 988 113.472 647.834 472.742
1940 0 85.1251 12.2173 1040 113.939 648.367 470.437
1941 0 87.2265 12.0147 1048 115.616 648.019 469.09
1942 0 90.2398 12.6552 1142 114.084 648.265 467.775
1943 0 94.1439 12.141 1143 115.848 647.661 465.18
1944 0 96.0911 12.3425 1186 116.667 647.973 463.001
1945 0 100.106 11.9673 1198 116.034 647.018 461.478
1946 0 102.126 12.4356 1270 115.628 647.862 461.36
1947 0 106.076 13.6411 1447 112.508 647.855 460.15
1948 0 111.143 12.4345 1382 116.114 647.61 458.103
1949 1 63.0329 11.7399 740 114.615 647.393 482.076
1950 0 64.1402 10.0093 642 115.134 646.279 476.139
1951 0 64.0932 10.8436 695 122.764 646.069 475.722
1952 0 69.1322 12.0494 833 114.028 646.651 474.082
1953 0 71.2899 11.825 843 114.658 646.414 474.275
1954 0 74.1615 12.6616 939 112.705 645.761 471.429
1955 0 76.1408 12.0829 920 114.143 646.566 471.849
1956 0 79.1057 12.97 1026 115.659 646.112 472.74
1957 0 79.1162 13.0441 1032 116.413 646.766 472.081
1958 0 82.1219 12.9564 1064 117.274 646.382 471.024
1959 0 87.0993 13.2263 1152 115.589 645.892 469.193
1960 0 89.1194 14.2393 1269 113.513 646.171 468.478
1961 0 92.1309 13.5025 1244 114.958 646.56 467.256
1962 0 90.1227 12.6383 1139 119.295 646.392 463.09
1963 0 96.1661 13.5911 1307 117.184 646.305 462.596
1964 0 99.125 13.8008 1368 115.582 646.074 462.83
1965 0 100.081 12.5699 1258 119.391 646.753 461.773
1966 0 107.123 13.0224 1395 116.898 647.034 459.191
1967 0 110.169 12.7349 1403 118.681 646.58 458.088
1968 0 111.197 11.8079 1313 119.457 646.142 458.794
1969 0 117.264 12.8684 1509 118.332 646.094 453.072
1970 1 63.0847 9.47932 598 121.191 645.916 478.798
1971 0 67.0964 10.7159 719 117.517 646.12 478.256
1972 0 67.1952 11.3252 761 118.263 646.604 473.916
1973 0 66.1296 11.1145 735 116.561 647.732 470.035
1974 0 67.1629 11.8965 799 118.044 648.365 466.085
1975 0 70.0668 12.6879 889 116.148 648.322 467.674
1976 0 72.1016 11.1648 805 119.236 648.032 465.304
1977 0 75.1396 11.3123 850 119.314 647.407 464.492
1978 0 75.19 11.9431 898 119.154 647.561 460.739
1979 0 80.3581 11.6354 935 118.322 648.318 463.663
1980 0 85.1849 12.7722 1088 114.563 648.033 463.49
1981 0 86.2057 10.6141 915 123.651 647.301 458.17
1982 0 90.2579 13.0183 1175 116.634 647.17 461.425
1983 0 94.211 12.3552 1164 116.661 647.064 460.314
1984 0 95.1251 11.2483 1070 121.277 646.355 459.627
1985 0 96.2257 11.7952 1135 121.433 646.76 456.922
1986 0 101.117 12.1938 1233 120.233 646.143 454.322
1987 0 106.259 14.2953 1519 112.704 646.618 450.143
1988 0 107.328 12.8671 1381 118.828 646.753 448.95
1989 0 108.215 11.1445 1206 123.95 646.912 449.851
1990 0 116.344 14.2853 1662 114.898 647.111 446.017
1991 0 117.38 12.6683 1487 119.802 646.432 444.112
1992 0 121.353 11.9321 1448 122.493 646.265 442.785
1993 1 70.1783 10.3878 729 118.713 645.454 467.612
1994 0 74.0917 10.0821 747 117.238 646.139 465.541
1995 0 77.1655 10.484 809 108.939 647.143 466.616
1996 0 80.2157 11.4566 919 107.282 647.607 465.015
1997 0 84.1642 11.4894 967 107.808 646.902 464.375
1998 0 84.202 12.0187 1012 108.887 647.187 462.298
1999 0 87.128 11.2019 976 112.443 647.287 459.204
2000 0 89.0862 11.7302 1045 112.063 647.288 460.513
2001 0 93.2586 12.2777 1145 112.862 646.41 458.59
2002 0 95.3124 12.0971 1153 114.448 647.304 459.867
2003 0 98.3524 12.4145 1221 116.459 646.497 456.333
2004 0 101.391 12.7132 1289 117.443 646.322 455.938
2005 0 100.289 11.3671 1140 120.088 645.904 454.757
2006 0 102.422 11.2183 1149 122.757 645.976 450.724
2007 0 107.362 11.1306 1195 123.172 646.093 451.444
2008 0 110.283 11.8513 1307 121.234 646.565 449.369
2009 0 114.359 11.8749 1358 121.311 646.603 450.58
2010 0 118.272 13.2745 1570 121.494 646.085 447.744
2011 0 122.281 12.6431 1546 127.045 645.776 442.864
2012 0 125.441 12.6355 1585 129.692 646.144 442.586
2013 0 129.497 12.9115 1672 127.411 646.247 439.44
2014 0 136.443 12.2102 1666 126.479 646.361 439.996
2015 1 77.2254 10.8902 841 112.974 646.296 469.814
2016 0 78.1684 10.9123 853 112.55 647.195 470.326
2017 0 83.1946 11.7315 976 111.678 647.573 468.712
2018 0 82.1454 11.1996 920 114.743 648.148 471.002
2019 0 85.1825 11.4695 977 115.214 647.848 466.804
2020 0 87.1906 11.2053 977 115.594 648.165 465.545
2021 0 92.1366 12.145 1119 112.775 648.134 463.626
2022 0 95.248 12.5042 1191 112.042 648.204 460.947
2023 0 97.1883 12.4192 1207 114.78 648.044 458.848
2024 0 101.251 11.8418 1199 117.862 648.147 458.33
2025 0 103.281 11.5026 1188 118.562 648.513 457.098
2026 0 108.27 12.903 1397 114.742 647.99 456.431
2027 0 111.322 11.9113 1326 117.136 648.097 453.618
2028 0 115.349 11.9811 1382 115.935 647.938 453.328
2029 0 119.365 12.6 1504 114.909 647.644 449.964
2030 0 120.35 11.666 1404 117.895 647.67 447.833
2031 0 124.429 12.9231 1608 114.706 647.708 441.802
2032 0 128.327 12.6396 1622 114.916 647.638 439.245
2033 1 74.2152 10.7929 801 107.172 648.382 471.884
2034 0 75.1715 10.1102 760 109.647 648.297 470.937
2035 0 76.2251 10.0754 768 114.316 646.837 469.401
2036 0 82.1434 11.4921 944 105.585 646.102 467.895
2037 0 85.2219 12.2504 1044 102.913 645.398 468.676
2038 0 88.1595 11.672 1029 104.78 645.752 467.677
2039 0 90.1459 11.5036 1037 105.916 645.7 465.406
2040 0 94.1292 12.5891 1185 104.467 646.037 465.749
2041 0 95.1595 12.4528 1185 106.123 646.439 461.246
2042 0 99.1276 12.9833 1287 104.768 646.634 461.266
2043 0 101.164 12.0399 1218 107.544 646.084 459.2
2044 0 105.156 13.3136 1400 105.414 646.266 458.689
2045 0 107.156 11.3573 1217 109.878 646.139 457.463
2046 0 111.229 11.3189 1259 110.105 646.364 455.014
2047 0 113.135 12.4011 1403 108.875 645.916 453.825
2048 0 116.129 11.1342 1293 112.183 645.712 454.558
2049 0 120.182 12.09 1453 110.877 646.979 451.657
2050 0 124.195 11.0633 1374 114.021 647.477 447.029
2051 0 128.187 11.9903 1537 113.187 646.764 443.806
2052 1 72.1248 8.58234 619 111.872 646.9 476.296
2053 0 73.1288 10.5157 769 107.979 645.479 473.923
2054 0 74.2684 10.7313 797 108.522 647.758 469.977
2055 0 77.2076 11.4367 883 103.978 647.665 467.448
2056 0 77.1493 10.9269 843 105.244 648.14 472.254
2057 0 81.1747 10.9763 891 105.009 647.599 471.769
2058 0 82.1272 10.5812 869 107.301 647.939 471.556
2059 0 84.1835 10.2633 864 109.322 647.566 470.891
2060 0 87.0845 9.8525 858 109.47 647.39 468.487
2061 0 89.1818 10.3945 927 109.807 647.689 464.902
2062 0 92.1779 11.2934 1041 109.792 647.76 464.939
2063 0 95.2423 9.96406 949 112.331 647.152 463.226
2064 0 99.0888 11.6764 1157 108.174 646.221 461.481
2065 1 104.151 13.7108 1428 102.943 646.91 455.39
2066 0 111.147 15.1601 1685 98.0522 646.283 450.524
2067 0 115.082 14.9546 1721 98.835 646.413 449.102
2068 0 114.201 14.3606 1640 103.499 646.632 450.48
2069 0 115.245 11.9398 1376 112.536 646.279 453.11
2070 1 67.1113 10.1175 679 109.892 645.197 480.306
2071 0 68.1797 10.3843 708 111.103 645.082 477.63
2072 0 71.2405 11.5805 825 108.348 645.783 474.241
2073 0 71.1645 11.0308 785 110.666 645.546 477.395
2074 0 72.1024 10.388 749 113.294 644.713 473.729
2075 0 76.253 9.91437 756 114.156 645.71 475.321
2076 0 75.2121 9.86543 742 115.315 646.043 474.505
2077 0 79.1201 10.6041 839 115.734 645.789 470.079
2078 0 82.1006 10.9865 902 114.511 645.435 468.51
2079 0 85.1029 11.5037 979 113.4 646.028 470.084
2080 0 88.1379 11.2437 991 115.272 645.937 469.448
2081 0 88.1388 10.7898 951 118.443 645.761 465.811
2082 0 92.1612 11.8922 1096 115.515 645.491 466.327
2083 0 97.2085 12.5709 1222 111.798 644.998 464.795
2084 0 97.2376 11.4565 1114 115.792 644.862 464.176
2085 0 101.181 11.346 1148 117.827 645.388 460.202
2086 0 106.171 13.2993 1412 113.775 645.103 459.162
2087 0 110.18 13.6322 1502 114.579 645.766 455.527
2088 0 113.149 13.8844 1571 115.833 645.625 452.648
2089 0 112.217 11.8253 1327 122.869 645.507 453.197
2090 1 65.0726 10.1733 662 120.633 644.486 480.482
2091 0 64.0878 11.5623 741 120.949 644.976 477.694
2092 0 68.219 10.6422 726 123.328 645.574 475.052
2093 0 70.0772 12.843 900 116.71 644.672 475.746
2094 0 71.0547 12.4552 885 116.293 644.69 473.521
2095 0 73.1384 12.4422 910 115.976 644.823 474.52
2096 0 73.1502 12.5085 915 117.397 645.324 470.89
2097 0 78.0452 12.9028 1007 114.723 645.51 472.995
2098 0 80.0564 11.9541 957 118.794 644.938 471.47
2099 0 81.0929 11.3943 924 121.22 644.534 468.603
2100 0 84.1156 12.9821 1092 116.902 644.795 467.888
2101 0 86.0871 12.6267 1087 117.719 645.285 467.151
2102 0 88.1269 12.5841 1109 118.148 645.452 467.588
2103 0 89.0896 13.1665 1173 117.849 645.649 465.606
2104 0 91.0691 13.0121 1185 118.922 646.199 464.216
2105 0 94.0827 12.1595 1144 121.994 645.872 461.63
2106 0 95.1115 11.4813 1092 123.555 645.592 460.774
2107 0 100.118 14.0235 1404 116.902 645.337 459.142
2108 0 103.089 12.4747 1286 120.392 645.645 459.604
2109 0 106.183 12.8269 1362 120.538 645.8 453.37
2110 0 109.321 12.4405 1360 121.526 645.91 450.482
2111 0 113.263 13.3936 1517 118.733 645.082 451.518
2112 0 116.327 13.9091 1618 116.884 645.315 447.745
2113 0 120.354 13.3606 1608 118.096 645.031 446.079
2114 1 65.098 11.1678 727 118.327 644.556 473.552
2115 0 68.2114 10.7313 732 111.428 646.305 470.925
2116 0 70.1907 11.0129 773 114.167 645.956 470.785
2117 0 70.1018 9.45768 663 107.362 647.332 472.023
2118 0 74.0798 11.7576 871 102.381 647.338 470.567
2119 0 76.0964 10.6707 812 105.872 646.752 469.75
2120 0 79.1409 11.8649 939 103.378 646.043 467.105
2121 0 82.2376 12.2936 1011 101.637 646.739 464.368
2122 0 84.2228 10.8997 918 103.552 646.962 461.349
2123 0 86.3041 11.5869 1000 102.451 646.406 458.174
2124 0 88.1183 9.56669 843 107.004 646.495 460.4
2125 0 90.1821 9.86892 890 107.49 647.045 456.321
2126 0 94.2887 11.8996 1122 103.228 645.695 456.018
2127 0 97.1734 11.2994 1098 104.696 646.079 455.853
2128 0 100.134 12.3634 1238 103.991 645.934 455.085
2129 0 103.137 11.4604 1182 105.697 645.948 452.931
2130 0 107.082 11.6453 1247 105.195 646.089 451.474
2131 0 108.194 12.1172 1311 104.32 645.564 449.468
2132 0 111.201 11.6276 1293 105.92 645.268 448.961
2133 0 115.163 11.8875 1369 105.057 645.698 446.04
2134 0 119.269 10.7404 1281 107.109 645.781 449.055
2135 0 116.162 10.3132 1198 111.033 645.767 442.881
2136 0 121.311 10.6256 1289 113.643 645.397 437.102
2137 1 65.146 10.5148 685 105.35 646.126 466.308
2138 0 69.0846 10.5233 727 102.948 646.542 468.589
2139 0 73.1348 11.4036 834 99.9388 646.299 470.633
2140 0 74.1812 9.57116 710 106.537 645.951 465.049
2141 0 79.2273 11.3219 897 102.157 645.952 463.572
2142 0 81.1832 12.0715 980 99.9724 645.856 465.177
2143 0 81.0861 11.1856 907 103.615 645.584 460.497
2144 0 86.1308 11.5638 996 101.371 645.835 462.106
2145 0 88.1446 11.2089 988 104.095 645.439 456.82
2146 0 91.0861 11.6044 1057 103.214 645.758 456.173
2147 0 92.1836 11.1842 1031 101.21 645.729 454.241
2148 0 100.154 11.8018 1182 98.2183 645.888 454.288
2149 0 100.117 11.8761 1189 100.213 646.087 450.159
2150 0 101.17 12.4444 1259 99.1438 646.172 450.118
2151 0 106.114 12.0908 1283 99.9649 646.331 450.392
2152 0 107.153 11.8055 1265 100.851 646.911 447.919
2153 0 113.084 11.7701 1331 100.89 646.128 445.718
2154 0 114.102 12.3399 1408 101.476 646.217 443.188
2155 0 118.17 12.1181 1432 102.883 645.408 440.283
2156 0 120.172 10.8927 1309 107.49 646.125 441.377
2157 1 71.0535 9.5421 678 103.861 645.993 470.948
2158 0 70.0712 9.34763 655 105.672 646.35 467.847
2159 0 72.1081 10.4704 755 97.8331 646.098 468.019
2160 0 73.0705 10.2093 746 99.5429 646.702 465.721
2161 0 78.1457 11.0307 862 97.5696 646.071 464.642
2162 0 79.1185 11.8936 941 98.0276 646.262 464.572
2163 0 81.1173 11.8594 962 99.3066 645.918 465.734
2164 0 87.1002 12.744 1110 105.168 645.44 466.216
2165 0 88.1261 12.2779 1082 105.944 645.378 466.418
2166 0 91.1601 11.946 1089 107.674 644.96 464.86
2167 0 97.12 13.2311 1285 104.801 645.195 465.485
2168 0 98.2388 12.4085 1219 107.943 644.955 460.921
2169 0 101.145 11.6467 1178 110.996 645.267 459.329
2170 0 105.186 13.3858 1408 107.096 644.611 459.346
2171 0 107.184 11.9515 1281 111.571 644.745 457.437
2172 0 110.386 12.2388 1351 111.539 644.574 454.396
2173 0 113.285 12.4289 1408 112.624 644.783 454.087
2174 0 117.218 13.6669 1602 109.949 644.611 453.643
2175 0 119.121 12.3908 1476 114.407 644.301 448.818
2176 0 124.203 12.1978 1515 113.903 644.904 449.512
2177 0 126.208 11.8455 1495 115.998 645.419 445.933
2178 0 134.195 12.7948 1717 113.303 646.211 444.641
2179 1 72.0814 10.4326 752 111.348 646.777 474.168
2180 0 74.0763 11.7986 874 110.229 645.268 470.808
2181 0 79.2015 11.818 936 108.589 645.385 469.304
2182 0 81.0611 11.4235 926 108.292 644.382 471.848
2183 0 84.0899 11.5115 968 107.214 644.578 471.991
2184 0 87.095 12.4691 1086 105.44 644.401 468.692
2185 0 87.1046 11.6067 1011 108.911 645.095 466.791
2186 0 89.1239 12.0394 1073 109.451 645.102 467.112
2187 0 95.2827 12.5311 1194 107.617 645.371 466.405
2188 0 96.1148 12.0793 1161 110.122 644.54 463.288
2189 0 99.1754 11.9989 1190 111.103 644.587 463.739
2190 0 102.297 13.0893 1339 110.413 645.036 461.884
2191 0 103.211 12.2371 1263 113.928 645.1 457.055
2192 0 108.311 11.9286 1292 114.21 644.923 460.241
2193 0 112.249 12.98 1457 112.144 644.96 455.953
2194 0 115.59 12.6482 1462 114.911 645.661 450.757
2195 0 120.495 13.1457 1584 118.634 645.551 443.88
2196 0 125.516 12.3729 1553 119.523 645.481 444.138
2197 1 71.3612 10.8182 772 116.426 645.24 474.404
2198 0 73.2352 10.6779 782 109.362 645.404 474.752
2199 0 76.1998 11.6011 884 99.776 646.112 472.414
2200 0 79.2434 11.2565 892 101.559 647.05 469.583
2201 0 81.1537 12.1868 989 99.4479 646.345 470.085
2202 0 84.2255 12.0866 1018 99.6611 646.298 470.303
2203 0 86.1691 11.6979 1008 100.798 645.734 468.837
2204 0 89.1445 11.3972 1016 101.74 645.935 467.335
2205 0 92.2268 11.5042 1061 102.744 646.042 464.369
2206 0 94.2795 11.8053 1113 102.618 645.54 463.662
2207 0 96.1967 13.067 1257 100.801 646.142 463.566
2208 0 99.3036 11.5605 1148 105.366 646.155 461.972
2209 0 103.263 12.6473 1306 102.917 646.35 459.974
2210 0 106.322 12.2552 1303 105.173 646.332 456.863
2211 0 109.255 11.9446 1305 108.831 646.782 451.937
2212 0 114.376 11.9605 1368 114.204 646.523 449.338
2213 0 115.46 12.5498 1449 113.843 646.606 449.076
2214 0 120.356 12.6707 1525 113.976 646.52 451.681
2215 1 68.1127 11.2314 765 106.056 645.256 478.637
2216 0 70.1444 10.1933 715 107.403 646.797 477.99
2217 0 72.2248 10.2181 738 110.491 646.058 475.64
2218 0 74.2139 10.9683 814 109.344 646.324 475.446
2219 0 77.2611 11.3382 876 109.159 645.786 472.629
2220 0 80.2562 11.3511 911 110.799 646.14 471.591
2221 0 82.2931 10.6935 880 112.072 646.086 472.426
2222 0 86.2034 9.8952 853 113.653 646.619 472.43
2223 0 86.2727 9.91044 855 114.614 645.899 469.985
2224 0 89.3345 10.1529 907 116.373 645.86 464.202
2225 0 91.3258 10.041 917 117.716 645.7 460.093
2226 0 96.2908 10.7383 1034 114.693 645.945 462.388
2227 0 97.5061 10.2045 995 117.595 645.664 459.216
2228 0 101.543 10.2026 1036 117.089 645.797 458.775
2229 0 105.386 10.1152 1066 118.71 646.046 455.22
2230 1 56.3124 11.5783 652 106.988 645.956 478.005
2231 0 57.1905 10.0017 572 110.25 646.301 478.385
2232 0 58.1554 10.7299 624 109.072 646.274 478.54
2233 0 60.2029 11.2287 676 105.626 645.589 481.425
2234 0 61.0811 11.2473 687 106.838 645.501 481.93
2235 0 63.0693 11.0355 696 105.114 646.48 483.533
2236 0 64.1773 11.1566 716 108.257 647.059 477.782
2237 0 65.1522 9.10176 593 110.762 647.019 479.69
2238 0 69.081 10.3357 714 108.101 647.083 477.008
2239 0 68.1523 9.4054 641 111.19 646.989 476.505
2240 0 74.3268 10.5346 783 106.882 646.683 474.843
2241 0 76.249 11.1477 850 106.131 646.202 474.724
2242 0 77.1672 12.0388 929 105.717 646.954 471.395
2243 0 80.1908 11.7345 941 106.69 647.527 472.129
2244 0 82.1917 12.118 996 106.51 647.064 470.255
2245 0 84.2663 12.7334 1073 105.266 646.311 469.066
2246 0 88.1981 12.6307 1114 106.111 646.136 466.741
2247 0 88.2904 11.179 987 110.196 646.64 465.396
2248 0 93.2041 11.8664 1106 108.835 647.029 464.839
2249 0 94.2217 11.7064 1103 110.869 646.341 463.974
2250 0 98.1389 12.951 1271 110.629 645.616 463.1
2251 0 100.231 12.4912 1252 112.984 646.365 461.749
2252 0 102.181 12.194 1246 115.809 645.814 460.404
2253 0 105.208 13.4401 1414 113.24 646.241 459.777
2254 0 110.187 13.8401 1525 113.384 645.871 457.126
2255 0 113.102 13.8901 1571 115.77 646.14 456.918
2256 0 116.104 13.1434 1526 117.908 646.749 454.723
2257 0 121.131 14.3893 1743 114.552 646.312 453.45
2258 0 125.154 13.0959 1639 117.937 646.08 451.42
2259 0 130.181 14.019 1825 115.257 646.243 451.863
2260 1 71.1346 11.8086 840 118.763 646.275 481.794
2261 0 73.1135 12.378 905 118.791 646.472 479.594
2262 0 75.3459 12.6616 954 118.633 646.063 476.976
2263 0 78.0834 13.0117 1016 115.056 644.2 479.354
2264 0 81.1183 12.3277 1000 118.127 643.677 479.494
2265 0 83.2449 12.6134 1050 118.544 643.524 478.716
2266 0 86.1386 12.7933 1102 118.139 643.141 479.254
2267 0 87.1382 11.9924 1045 121.003 643.126 479.73
2268 0 90.19 13.0613 1178 119.265 643.356 478.258
2269 0 92.3451 12.4533 1150 119.25 642.939 477.845
2270 0 94.1236 12.2392 1152 118.601 642.431 477.052
2271 0 98.146 13.2965 1305 116.68 642.664 474.597
2272 1 190.223 6.55547 1247 123.881 642.28 461.464
2273 1 170.23 9.83376 1674 121.674 642.25 446.515
2274 0 170.177 11.0238 1876 119.028 642.082 445.745
2275 1 112.178 14.2898 1603 111.224 642.15 462.204
2276 0 112.208 13.0472 1464 115.629 641.981 466.528
2277 0 119.204 14.3535 1711 110.411 641.614 459.435
2278 0 122.17 12.6054 1540 115.167 641.341 460.973
2279 0 124.162 12.6206 1567 116.361 640.7 459.408
2280 0 126.125 12.2973 1551 116.764 640.923 453.878
2281 0 134.289 12.4731 1675 113.739 640.3 448.404
2282 0 138.169 12.6439 1747 113.331 640.245 446.007
2283 0 145.21 12.3545 1794 114.535 639.988 445.308
2284 0 151.372 13.6419 2065 110.328 639.598 443.382
2285 0 158.223 13.974 2211 109.326 639.883 438.637
2286 0 163.399 13.5129 2208 111.575 639.341 434.39
2287 1 87.1442 11.6474 1015 108.1 639.176 472.834
2288 0 91.1723 11.2205 1023 108.197 638.829 474.782
2289 0 94.0469 11.8664 1116 107.71 638.772 473.83
2290 0 98.105 12.9147 1267 105.765 639.437 473.009
2291 0 99.0702 10.7802 1068 112.584 640.114 468.896
2292 0 105.122 12.319 1295 108.907 639.902 468.429
2293 0 107.251 12.2423 1313 109.733 640.627 466.206
2294 0 111.189 11.431 1271 111.703 640.234 463.312
2295 0 117.167 11.522 1350 111.768 640.722 463.722
2296 0 123.143 13.594 1674 112.995 641.133 467.403
2297 0 126.311 12.9522 1636 115.256 641.601 463.827
2298 0 131.28 14.0006 1838 112.981 641.456 460.168
2299 0 136.398 13.2187 1803 114.046 640.323 457.628
2300 0 140.432 13.3802 1879 112.072 640.717 454.758
2301 0 144.256 13.5038 1948 112.159 639.803 449.019
2302 0 150.235 12.7999 1923 113.981 639.301 446.13
2303 0 155.444 13.1559 2045 112.948 639.292 444.484
2304 1 84.2965 10.5936 893 110.898 639.114 477.12
2305 0 86.1956 10.7314 925 112.555 639.904 471.146
2306 0 91.2255 11.0824 1011 110.036 639.822 474.044
2307 0 95.4206 10.8991 1040 109.804 639.947 475.6
2308 0 99.2583 11.9385 1185 109.725 639.573 471.554
2309 0 102.389 12.6967 1300 108.912 639.692 468.149
2310 0 102.252 11.8922 1216 112.487 639.097 464.388
2311 0 108.294 12.1429 1315 111.441 639.326 465.318
2312 0 110.225 12.293 1355 111.77 639.914 465.801
2313 0 115.254 13.0148 1500 109.543 640.172 463.475
2314 0 115.212 13.0976 1509 109.027 639.534 464.891
2315 0 117.212 12.6011 1477 110.773 639.675 459.931
2316 0 122.112 13.0045 1588 110.53 639.744 456.012
2317 0 126.294 12.8034 1617 111.729 639.725 452.715
2318 0 131.242 12.8922 1692 112.212 639.992 449.015
2319 0 131.178 11.4882 1507 114.918 639.936 453.275
2320 0 134.304 10.9453 1470 116.503 640.063 454.293
2321 0 131.355 8.8843 1167 120.115 640.294 457.896
2322 1 81.2104 11.4517 930 112.304 640.906 473.547
2323 0 83.0892 12.4084 1031 111.033 641.173 474.787
2324 0 87.1243 12.7289 1109 112.742 641.813 476.128
2325 0 88.2369 12.7611 1126 112.904 641.747 475.745
2326 0 91.1088 12.7211 1159 113.443 642.425 474.727
2327 0 96.1746 13.1428 1264 110.825 641.942 473.66
2328 0 98.2576 13.2814 1305 111.738 641.515 472.783
2329 0 101.132 13.9324 1409 110.474 641.469 469.962
2330 0 102.198 12.9161 1320 114.245 641.333 470.321
2331 0 105.19 13.1761 1386 113.91 641.664 465.556
2332 0 110.154 14.0531 1548 110.192 641.291 465.897
2333 0 113.13 13.0027 1471 110.869 641.385 463.864
2334 0 116.149 13.5085 1569 109.544 641.103 457.594
2335 0 119.232 13.847 1651 110.102 640.741 458.443
2336 0 121.297 12.5559 1523 113.814 641.057 453.204
2337 1 65.1635 9.88283 644 109.087 640.618 486.734
2338 0 67.1262 11.2624 756 108.405 640.049 482.537
2339 0 70.1389 10.8642 762 108.416 640.68 479.287
2340 0 73.1363 12.2648 897 106.824 640.433 478.23
2341 0 77.1565 12.4423 960 106.707 641.522 479.307
2342 0 79.1771 11.8595 939 108.488 640.981 477.738
2343 0 79.1762 11.4933 910 111.198 640.846 473.599
2344 0 81.2055 12.7331 1034 109.611 641.151 470.926
2345 0 81.1013 11.1959 908 113.782 640.79 470.063
2346 0 88.3028 13.8954 1227 106.395 641.482 470.931
2347 0 89.2749 12.5791 1123 110.726 641.045 467.709
2348 0 92.209 12.2005 1125 111.671 641.412 467.806
2349 0 95.2765 12.6579 1206 110.919 640.616 464.933
2350 0 98.1419 12.6653 1243 111.507 641.269 464.704
2351 0 102.18 12.7814 1306 112.081 641.465 462.093
2352 0 105.25 12.4466 1310 113.083 641.323 459.861
2353 0 107.347 11.868 1274 114.997 641.964 457.476
2354 0 112.293 12.3338 1385 113.56 642.42 458.609
2355 0 117.271 14.1808 1663 110.25 641.735 455.56
2356 0 120.343 12.4311 1496 115.108 642.012 453.572
2357 1 67.0476 9.76919 655 110.402 642.452 478.553
2358 0 69.1904 11.2588 779 110.426 642.917 472.945
2359 0 72.2879 11.5787 837 108.637 643.206 476.109
2360 0 73.1434 10.2948 753 113.211 643.473 472.814
2361 0 75.1202 11.9409 897 111.469 643.281 472.065
2362 0 79.1851 11.8836 941 111.964 643.59 470.424
2363 0 79.1599 11.1294 881 114.314 643.213 470.423
2364 0 84.2393 12.0846 1018 112.026 642.913 469.019
2365 0 85.1554 11.9781 1020 115.361 643.168 464.154
2366 0 87.2547 11.5982 1012 116.228 643.758 466.339
2367 0 92.2993 12.2861 1134 115.17 643.413 462.709
2368 0 95.2015 12.6889 1208 113.931 643.767 463.975
2369 0 98.2995 12.7976 1258 114.395 643.736 463.796
2370 0 99.174 12.4629 1236 117.625 643.586 463.286
2371 0 104.283 13.0606 1362 116.861 643.476 461.26
2372 0 107.219 13.1134 1406 117.344 644.538 460.435
2373 0 109.18 12.9144 1410 119.385 644.177 459.711
2374 0 114.162 13.4458 1535 120.47 644.951 459.453
2375 0 117.273 13.5667 1591 119.101 644.85 458.837
2376 0 121.176 12.3209 1493 123.891 644.108 454.384
2377 0 125.319 13.9005 1742 119.955 643.405 452.596
2378 1 67.1246 10.92 733 123.671 644.083 477.311
2379 0 68.2367 10.8593 741 123.422 644.383 479.748
2380 0 71.1349 11.8226 841 123.455 644.322 477.001
2381 0 75.1386 12.3505 928 124.337 643.044 477.503
2382 0 77.1976 13.5108 1043 119.838 643.899 477.578
2383 0 80.0822 14.3602 1150 113.384 643.111 476.141
2384 0 83.1178 13.932 1158 114.651 643.003 475.227
2385 0 84.0595 13.4072 1127 116.364 642.562 473.996
2386 0 86.0888 12.7078 1094 118.129 643.442 473.76
2387 0 88.1429 12.9903 1145 118.854 643.731 470.141
2388 0 92.065 13.5556 1248 116.506 643.386 471.055
2389 0 95.1752 14.1634 1348 115.78 643.364 466.815
2390 0 96.2462 14.0057 1348 116.895 643.917 464.743
2391 0 99.127 13.5483 1343 118.565 643.615 464.175
2392 0 102.191 12.369 1264 121.715 643.37 462.563
2393 0 104.157 13.6333 1420 118.55 643.567 463.413
2394 0 106.151 11.0974 1178 124.78 644.104 462.488
2395 0 111.141 13.4964 1500 119.445 644.295 459.851
2396 0 117.233 14.484 1698 116.949 644.363 458.872
2397 0 119.177 13.7191 1635 117.897 644.53 456.804
2398 0 121.197 11.8485 1436 119.963 643.944 453.146
2399 0 127.143 12.7258 1618 116.63 643.553 451.231
2400 0 132.18 12.9445 1711 115.344 643.364 450.569
2401 1 76.065 12.2395 931 117.857 643.725 475.102
2402 0 78.2412 11.0811 867 115.795 644.538 474.005
2403 0 83.1477 13.1453 1093 110.626 644.232 472.72
2404 0 86.1449 13.129 1131 114.243 644.967 473.318
2405 0 89.0978 13.4571 1199 112.878 644.566 471.282
2406 0 91.0943 13.1073 1194 114.373 644.723 469.921
2407 0 94.1472 12.7991 1205 114.886 644.998 469.49
2408 0 98.1368 13.257 1301 114.434 645.317 465.426
2409 0 99.1449 12.9003 1279 116.634 646.12 463.02
2410 0 104.053 14.4158 1500 112.107 646.249 463.045
2411 0 106.088 14.0261 1488 114.378 645.641 460.437
2412 0 111.066 14.9731 1663 110.732 645.301 459.28
2413 0 114.046 14.0119 1598 113.258 645.722 459.815
2414 0 116.175 13.0752 1519 115.955 646.357 457.858
2415 0 120.178 13.738 1651 114.624 645.451 453.832
2416 1 68.0542 11.2851 768 116.702 646.324 479.964
2417 0 69.0608 11.6709 806 117.583 645.579 476.865
2418 0 70.0923 12.3409 865 114.966 643.79 477.888
2419 0 73.1208 13.7444 1005 115.364 643.648 476.303
2420 0 77.1932 13.2006 1019 115.668 643.362 475.833
2421 0 80.1962 12.7188 1020 117.441 643.341 474.733
2422 0 83.2089 13.412 1116 114.528 643.614 475.725
2423 0 85.2046 13.403 1142 115.92 643.746 472.442
2424 0 88.1971 14.0934 1243 113.932 644.011 471.393
2425 0 90.2216 13.3006 1200 116.321 643.745 470.904
2426 0 94.1744 13.921 1311 115.069 643.792 469.177
2427 0 97.2757 13.7033 1333 117.272 645.343 463.018
2428 0 100.362 14.5374 1459 114.155 645.044 463.25
2429 0 101.233 13.6418 1381 115.641 645.009 460.904
2430 0 106.315 13.7893 1466 115.384 645.126 459.515
2431 0 107.243 13.1011 1405 117.11 645.664 462.559
2432 0 110.313 12.8634 1419 117.423 645.319 461.474
2433 0 115.272 13.2469 1527 115.595 644.936 461.38
2434 1 62.2156 11.2351 699 116.886 645.831 484.074
2435 0 64.0838 11.9687 767 115.864 645.486 480.815
2436 0 66.2123 13.7588 911 108.91 646.116 480.762
2437 0 70.0691 14.814 1038 103.343 644.251 480.624
2438 0 72.2324 13.0412 942 107.998 644.262 480.078
2439 0 74.081 13.3232 987 107.939 644.597 478.29
2440 0 75.2361 13.77 1036 107.494 643.936 479.657
2441 0 79.4035 13.1606 1045 108.999 644.792 479.946
2442 0 81.1989 13.4361 1091 109.982 644.651 475.97
2443 0 84.2326 14.2344 1199 108.32 644.567 474.857
2444 0 87.1149 14.9113 1299 107.311 644.616 472.241
2445 0 91.1417 13.1773 1201 111.927 643.954 473.706
2446 0 93.2652 13.9602 1302 110.748 644.762 472.159
2447 0 97.2546 13.6754 1330 112.417 644.596 470.566
2448 0 100.281 13.2827 1332 114.625 643.973 468.551
2449 0 105.33 14.146 1490 111.816 644.36 464.701
2450 1 55.0558 11.2613 620 116.271 645.476 485.131
2451 0 58.0712 11.6753 678 116.162 645.176 481.673
2452 0 60.0561 12.6215 758 114.888 645.224 482.193
2453 0 63.051 13.0053 820 111.233 645.541 483.237
2454 0 64.0547 13.0201 834 111.156 644.837 483.108
2455 0 66.0546 12.5654 830 113.831 645.348 481.518
2456 0 68.0157 12.9382 880 113.768 645.712 479.974
2457 0 69.0361 12.8049 884 114.028 645.997 479.654
2458 0 71.1576 12.7604 908 115.814 645.97 477.565
2459 0 74.0726 13.5003 1000 114.628 645.764 475.882
2460 0 77.1044 12.9046 995 115.68 645.696 475.712
2461 0 80.0704 13.3632 1070 116.323 645.414 472.751
2462 0 82.056 12.5524 1030 118.625 645.445 473.426
2463 0 85.0634 14.6949 1250 114.284 645.571 471.846
2464 0 88.052 14.5482 1281 114.998 644.778 471.056
2465 0 89.0953 13.5248 1205 119.366 644.763 469.486
2466 0 94.0566 14.4913 1363 117.22 644.54 468.759
2467 0 93.0672 13.6353 1269 122.673 645.334 464.381
2468 0 99.0893 14.9562 1482 118.248 644.729 465.874
2469 0 101.182 12.9272 1308 124.973 644.931 465.198
2470 0 104.182 13.3709 1393 120.408 644.884 465.586
2471 0 107.125 13.4516 1441 120.518 644.568 462.612
2472 0 112.165 14.3182 1606 113.638 644.489 462.357
2473 1 62.0627 12.0684 749 121.234 644.694 485.682
2474 0 64.2896 12.6459 813 122.59 644.819 478.027
2475 0 68.4326 13.4293 919 120.98 644.637 478.48
2476 0 69.0913 13.142 908 115.281 645.371 478.061
2477 0 71.0648 13.2836 944 117.147 645.129 478.356
2478 0 73.1415 12.9475 947 118.601 645.394 478.866
2479 0 75.1137 13.18 990 119.282 645.181 478.147
2480 0 79.2501 13.4385 1065 119.208 645.096 473.028
2481 0 84.1916 13.4336 1131 118.077 645.058 470.473
2482 0 86.2889 14.0922 1216 116.69 645.035 468.85
2483 0 88.048 12.6749 1116 120.903 645.139 466.66
2484 0 91.1755 13.2821 1211 120.177 645.116 463.96
2485 0 94.2387 13.4976 1272 118.829 645.533 465.741
2486 0 98.2056 13.2579 1302 119.951 645.174 462.288
2487 0 100.22 12.9914 1302 121.496 645.188 460.852
2488 0 103.284 13.3226 1376 122.469 645.279 458.762
2489 0 108.356 13.8709 1503 120.904 644.535 457.5
2490 0 108.127 14.4182 1559 121.92 644.927 455.749
2491 0 113.257 14.2067 1609 122.764 644.441 453.095
2492 1 60.2537 11.3022 681 121.602 645.176 480.222
2493 0 64.1565 12.4227 797 119.588 645.279 479.123
2494 0 69.2559 13.8472 959 116.376 645.11 478.366
2495 0 69.1887 14.1642 980 117.099 645.496 477.508
2496 0 73.1433 13.9726 1022 117.371 644.963 476.546
2497 0 73.0827 13.8336 1011 119.967 644.986 474.758
2498 0 76.1306 13.8578 1055 120.915 645.088 472.267
2499 0 78.3679 13.7046 1074 121.931 644.971 471.681
2500 0 82.2327 13.8996 1143 121.312 645.421 470.688
2501 0 83.3849 13.3957 1117 123.577 645.094 471.043
2502 0 88.1551 14.7014 1296 120.948 645.127 468.495
2503 0 88.1276 13.1514 1159 126.608 644.891 467.779
2504 0 92.1653 14.7452 1359 122.843 644.761 464.514
2505 0 97.219 14.4108 1401 123.689 644.39 463.696
2506 0 97.3233 14.5905 1420 125.635 644.408 462.196
2507 0 101.26 12.5519 1271 130.6 644.702 461.728
2508 0 105.154 13.7417 1445 128.28 645.247 457.592
2509 0 109.163 13.8142 1508 129.815 645.105 456.509
2510 1 58.1308 12.5751 731 126.038 645.224 480.07
2511 0 62.0869 12.8691 799 125.741 645.431 483.302
2512 0 60.0925 12.8302 771 128.84 645.466 481.289
2513 0 65.0622 14.1096 918 124.659 645.516 480.873
2514 0 69.0524 17.0016 1174 114.174 646.345 477.332
2515 0 78.1062 17.1177 1337 109.773 646.889 473.978
2516 0 79.0737 16.0736 1271 114.557 646.442 474.098
2517 0 79.1203 15.7482 1246 118.72 646.397 474.514
2518 0 85.0642 16.1055 1370 114.709 646.204 469.664
2519 0 85.1919 16.0461 1367 117.755 646.031 470.116
2520 0 82.1335 13.2346 1087 129.776 645.772 471.279
2521 0 87.0975 14.0188 1221 126.47 646.179 469.052
2522 0 88.2151 12.8323 1132 130.527 645.348 467.686
2523 0 93.2668 13.9921 1305 127.227 646.504 465.992
2524 0 95.148 13.5473 1289 129.194 646.215 464.168
2525 0 98.2322 14.1909 1394 127.001 646.656 459.933
2526 0 101.434 13.6936 1389 128.055 646.81 459.005
2527 0 105.208 13.6586 1437 128.514 646.511 457.925
2528 0 108.399 13.2474 1436 128.598 646.249 458.308
2529 0 112.486 13.7706 1549 127.227 646.78 454.509
2530 1 62.1839 13.846 861 123.056 646.189 477.904
2531 0 61.2845 13.935 854 125.989 646.586 477.129
2532 0 64.0808 13.0772 838 121.879 647.16 478.055
2533 0 66.0985 13.6312 901 118.921 647.229 475.552
2534 0 68.3157 13.7011 936 118.87 646.581 475.852
2535 0 70.1571 13.256 930 120.205 646.729 472.426
2536 0 75.1302 13.2437 995 119.771 647.201 472.809
2537 0 77.1569 13.168 1016 120.345 646.721 472.349
2538 0 77.0719 12.2613 945 124.384 645.972 470.701
2539 0 83.0496 13.7869 1145 119.877 646.556 471.169
2540 0 83.1551 13.9138 1157 122.578 646.385 468.194
2541 0 86.1061 12.8098 1103 127.219 646.56 468.08
2542 0 88.0865 12.9532 1141 127.87 646.263 464.883
2543 0 92.0888 12.64 1164 128.435 646.79 465.044
2544 0 95.163 13.2089 1257 126.683 646.108 461.174
2545 0 99.123 14.1642 1404 125.4 646.455 460.419
2546 0 105.186 14.9355 1571 121.483 646.203 457.763
2547 0 104.331 13.1121 1368 129.518 646.118 450.638
2548 0 108.365 14.0543 1523 126.697 646.528 451.51
2549 0 110.23 13.8801 1530 127.437 646.822 450.895
2550 0 117.347 13.524 1587 127.907 647.152 446.807
2551 0 122.209 14.3361 1752 124.445 646.454 448.746
2552 0 126.39 14.0992 1782 125.934 646.307 442.396
2553 0 131.248 13.4554 1766 127.543 646.33 440.025
2554 1 74.3254 12.4856 928 120.131 646.642 468.397
2555 0 76.2544 13.6254 1039 118.551 646.58 467.59
2556 0 80.2312 13.6979 1099 120.66 646.118 463.893
2557 0 84.2532 12.771 1076 123.707 646.608 463.941
2558 0 87.3623 14.2396 1244 119.377 645.908 462.051
2559 0 89.3234 13.1992 1179 123.013 645.914 461.234
2560 0 93.2734 14.0769 1313 121.211 646.02 460.222
2561 0 96.248 14.0782 1355 122.124 646.666 458.225
2562 0 98.2913 14.2027 1396 123.415 646.537 456.106
2563 0 102.391 14.1907 1453 123.621 645.967 454.469
2564 0 105.455 14.4517 1524 123.247 646.606 453.023
2565 0 109.252 13.9493 1524 125.494 646.036 451.274
2566 0 113.375 14.6769 1664 123.468 646.722 450.85
2567 0 114.28 13.7032 1566 127.298 646.792 447.983
2568 0 117.45 13.0438 1532 130.574 646.028 445.326
2569 0 122.386 13.8578 1696 128.465 645.938 443.012
2570 0 128.327 14.4474 1854 127.286 646.498 440.215
2571 0 129.375 13.8976 1798 130.433 645.532 438.568
2572 0 136.4 13.8784 1893 129.697 645.816 437.468
2573 0 143.599 14.3733 2064 128.169 645.767 434.036
2574 0 148.329 14.2858 2119 127.92 645.614 433.452
2575 0 153.462 13.9774 2145 130.295 645.211 430.885
2576 1 87.1533 12.0592 1051 123.18 644.974 465.782
2577 0 91.2606 13.2916 1213 122.34 645.837 461.908
2578 0 92.1519 12.067 1112 129.457 645.471 460.295
2579 0 98.1653 13.9459 1369 123.969 645.801 458.283
2580 0 100.301 13.2003 1324 126.673 645.517 456.258
2581 0 102.247 13.1251 1342 129.291 645.526 453.648
2582 0 106.22 12.7942 1359 130.252 645.014 454.135
2583 0 110.266 13.404 1478 130.054 645.678 450.198
2584 0 113.224 13.4953 1528 130.433 645.434 449.308
2585 0 116.307 13.3182 1549 131.16 645.245 450.041
2586 0 120.156 13.3576 1605 131.929 644.936 447.295
2587 0 123.167 13.3477 1644 134.154 645.642 445.836
2588 0 128.278 14.3048 1835 132.319 645.046 440.764
2589 0 131.179 13.2719 1741 135.365 645.148 440.324
2590 0 137.254 16.444 2257 126.041 645.675 433.626
2591 0 149.312 19.0675 2847 115.671 645.67 428.204
2592 0 145.318 13.7561 1999 135.894 645.419 434.117
2593 0 150.225 13.6062 2044 137.177 645.966 430.882
2594 0 154.341 14.3708 2218 134.96 645.13 427.943
2595 0 160.235 13.7736 2207 137.01 645.417 426.094
2596 0 166.405 14.3205 2383 134.787 645.162 425.285
2597 0 170.325 14.0496 2393 135.842 645.977 423.995
2598 0 176.24 15.4505 2723 132.326 645.994 419.169
2599 0 183.359 14.7416 2703 134.007 645.392 417.97
2600 0 187.251 14.1681 2653 137.277 645.58 410.467
2601 0 194.23 16.7019 3244 128.972 646.081 410.072
2602 0 201.306 15.2653 3073 133.244 646.028 406.663
2603 0 209.255 15.9853 3345 130.8 645.586 405.116
2604 0 214.227 15.5723 3336 132.877 645.584 401.992
2605 1 158.188 14.369 2273 134.665 645.891 427.576
2606 0 159.185 12.7462 2029 139.656 646.142 424.278
2607 0 166.179 13.2688 2205 136.306 645.658 422.74
2608 0 175.273 14.1665 2483 132.454 645.706 421.329
2609 0 181.248 14.1685 2568 131.614 646.243 417.965
2610 0 187.292 14.2398 2667 130.48 646.489 413.05
2611 0 193.327 14.4625 2796 129.254 645.421 411.544
2612 0 200.335 13.5723 2719 130.859 645.713 410.57
2613 0 209.247 14.1125 2953 127.979 646.058 410.628
2614 0 215.334 13.356 2876 130.864 645.834 404.868
2615 0 223.33 14.9241 3333 127.27 645.964 399.303
2616 0 231.411 14.6968 3401 129.595 645.86 395.628
2617 0 240.362 14.0871 3386 131.163 646.547 393.165
2618 1 189.386 14.0401 2659 134.737 646.503 416.339
2619 0 196.343 15.0807 2961 130.69 646.476 414.166
2620 0 200.368 14.4883 2903 133.207 645.964 405.994
2621 0 209.344 14.9085 3121 130.203 646.665 410.941
2622 0 219.257 16.6106 3642 125.698 646.454 398.412
2623 0 222.567 14.6967 3271 132.265 645.397 392.674
2624 0 231.461 14.8189 3430 131.937 645.617 390.232
2625 0 238.37 14.9389 3561 132.697 645.595 390.756
2626 0 245.516 16.17 3970 129.088 644.791 385.815
2627 0 252.395 14.0613 3549 136.139 645.234 382.295
2628 0 261.455 14.775 3863 134.833 645.326 379.47
2629 0 272.441 15.4859 4219 132.888 644.359 373.291
2630 1 291.529 20.5194 5982 115.277 644.513 352.636
2631 0 297.476 20.7546 6174 115.63 644.38 347.821
2632 1 316.917 22.6368 7174 108.063 644.851 335.296
2633 0 308.516 15.2601 4708 132.155 644.244 350.127
2634 0 319.368 16.3667 5227 128.544 644.222 330.14
2635 0 330.649 16.2136 5361 128.514 644.061 331.425
2636 0 342.661 16.9643 5813 126.893 644.398 330.06
2637 0 352.627 16.5756 5845 128.101 644.392 328.242
2638 0 362.449 15.9857 5794 130.496 644.238 320.066
2639 0 374.7 15.8687 5946 130.318 644.894 313.482
2640 0 387.632 16.6988 6473 128.23 644.219 308.8
2641 0 401.612 15.6494 6285 131.575 644.085 299.069
2642 0 414.689 16.4316 6814 129.314 645.013 294.893
2643 0 430.154 16.3035 7013 129.27 645.368 281.943
2644 0 439.032 16.4749 7233 129.076 645.342 270.466
2645 0 433.25 16.5078 7152 129.556 645.044 280.05
2646 0 420.845 14.5897 6140 133.982 644.677 283.292
2647 0 411.88 14.9073 6140 133.945 644.37 281.098
2648 0 415.125 15.3592 6376 132.005 644.864 281.722
2649 0 420.8 17.0936 7193 125.894 644.77 286.598
2650 0 426.004 16.9459 7219 126.169 644.524 287.485
2651 0 427.363 14.8375 6341 132.691 644.536 280.239
2652 1 295.757 18.265 5402 109.6 643.932 346.129
2653 0 301.762 20.0456 6049 106.801 643.854 339.768
2654 0 311.569 16.587 5168 115.705 642.912 334.613
2655 0 309.695 14.5466 4505 124.168 642.494 344.256
2656 0 321.8 15.7272 5061 120.282 642.618 339.976
2657 1 55.4801 6.7772 376 105.678 644.707 492.569
2658 0 52.5351 7.13808 375 107.984 645.44 484.683
2659 0 52.3558 8.69054 455 103.033 644.635 485.009
2660 0 53.3448 8.41694 449 100.517 645.116 486.067
2661 0 52.1292 8.55567 446 101.626 645.433 484.561
2662 0 55.0834 11.3101 623 97.6501 643.963 463.443
2663 0 55.1789 10.3663 572 98.3864 645.622 469.439
2664 0 57.3085 9.98106 572 100.329 645.033 472.565
2665 0 59.2612 9.51719 564 106.004 644.808 480.461
2666 0 63.1839 11.332 716 98.067 644.747 479.207
2667 0 61.1564 11.4624 701 99.5292 644.104 478.854
2668 0 61.346 9.25895 568 105.364 644.313 478.03
2669 0 70.2169 14.9679 1051 88.6575 644.419 471
2670 0 73.5736 15.7122 1156 86.4273 644.976 472.65
2671 0 75.3741 14.9521 1127 88.4783 644.83 472.12
2672 0 76.4312 15.0724 1152 89.2674 644.72 471.392
2673 0 78.4174 13.951 1094 92.0338 644.078 473.049
2674 0 78.3393 14.2713 1118 92.7165 644.396 469.989
2675 0 81.6367 14.3195 1169 92.0907 644.627 470.672
2676 0 84.3534 14.7475 1244 91.5104 643.92 469.787
2677 0 85.5028 14.9001 1274 92.1578 644.4 468.144
2678 0 85.3252 13.7826 1176 96.6879 643.884 466.867
2679 0 88.3417 14.7722 1305 95.4467 644.191 465.297
2680 0 91.3789 14.3906 1315 95.7924 643.919 464.661
2681 0 94.4318 15.4397 1458 93.4732 644.379 464.831
2682 0 97.4398 13.9266 1357 97.2962 644.217 461.637
2683 0 101.427 14.7298 1494 95.5796 644.447 460.233
2684 0 104.528 14.9242 1560 95.5103 644.573 457.576
2685 1 59.2868 13.1901 782 104.159 644.546 478.377
2686 0 60.3281 13.4266 810 104.737 644.572 478.247
2687 0 61.4454 13.4428 826 104.763 644.459 478.495
2688 0 61.4627 13.5855 835 107.489 644.243 476.48
2689 0 65.4462 13.6601 894 106.19 644.243 476.427
2690 0 63.1634 13.093 827 111.22 644.652 473.81
2691 0 66.525 13.7993 918 110.022 644.398 474.185
2692 0 68.3587 12.9172 883 111.614 644.68 474.3
2693 0 67.3396 13.3651 900 112.359 644.629 473.899
2694 0 70.239 12.3151 865 116.112 644.018 471.416
2695 0 75.425 13.6692 1031 112.229 644.057 470.577
2696 0 78.2391 13.97 1093 110.813 644.415 471.078
2697 0 76.2264 14.3389 1093 112.847 643.892 468.083
2698 0 81.2192 14.4547 1174 111.586 643.981 468.238
2699 0 82.1743 13.1306 1079 115.55 644.722 467.768
2700 0 84.1271 14.383 1210 113.35 644.032 466.036
2701 0 86.1506 13.9871 1205 115.049 644.286 464.162
2702 0 89.1616 14.1877 1265 114.136 644.334 463.284
2703 0 93.0538 14.6259 1361 113.808 644.293 460.242
2704 0 96.137 14.3545 1380 114.751 644.14 459.628
2705 0 98.2918 13.6634 1343 115.899 644.639 459.279
2706 0 102.238 15.1118 1545 111.834 644.928 457.55
2707 0 101.173 14.0749 1424 116.4 644.614 456.863
2708 0 103.194 13.964 1441 116.234 644.552 458.286
2709 0 108.189 13.994 1514 116.429 643.962 455.381
2710 0 112.325 17.307 1944 107.03 643.848 449.952
2711 0 112.189 13.1028 1470 118.272 644.276 453.393
2712 0 112.172 14.1924 1592 118.366 644.039 447.661
2713 0 117.116 13.619 1595 119.182 644.436 447.614
2714 0 121.25 15.2248 1846 114.846 644.195 443.833
2715 0 126.365 14.2998 1807 116.937 644.521 445.216
2716 0 131.229 14.8367 1947 115.878 643.83 441.027
2717 0 131.291 14.8525 1950 159.213 642.808 440.907
2718 0 131.3 14.8362 1948 158.831 641.799 440.912
2719 1 75.2913 12.6309 951 127.878 644.551 466.844
2720 0 82.1946 15.5241 1276 117.9 644.747 463.803
2721 0 79.1448 15.1242 1197 123.039 644.932 461.995
2722 0 84.1789 14.1722 1193 123.925 644.723 461.528
2723 0 87.1342 14.8047 1290 122.539 644.274 459.602
2724 0 89.115 14.6216 1303 123.631 644.913 459.922
2725 0 93.1263 15.2803 1423 121.347 645.04 456.956
2726 0 95.21 14.9354 1422 123.722 645.17 455.486
2727 0 98.2627 14.4714 1422 124.525 645.347 455.722
2728 0 95.2245 14.6601 1396 126.943 645.526 451.285
2729 0 104.135 14.3756 1497 125.999 644.78 450.246
2730 0 106.191 13.6828 1453 129.079 645.057 448.076
2731 0 116.294 19.1068 2222 111.333 645.573 442.896
2732 0 114.101 15.7491 1797 123.722 645.78 444.24
2733 0 119.273 15.2758 1822 125.631 645.451 442.077
2734 0 122.294 14.9067 1823 128.218 645.485 441.379
2735 0 128.197 15.6166 2002 127.493 645.388 439.416
2736 0 132.267 16.1341 2134 128.277 645.386 436.819
2737 0 137.341 14.6934 2018 132.58 645.191 435.047
2738 1 69.1625 11.538 798 138.777 644.929 465.025
2739 0 71.1324 12.6806 902 137.55 645.152 463.717
2740 0 73.1376 12.6611 926 139.119 645.681 462.836
2741 0 74.0827 14.2408 1055 133.636 645.496 464.791
2742 0 73.1852 11.669 854 144.663 644.828 462.323
2743 0 78.0417 13.2237 1032 138.837 644.942 461.563
2744 0 82.2235 14.0349 1154 134.994 644.89 463.099
2745 0 85.1772 13.3839 1140 137.757 645.154 460.568
2746 0 89.2219 13.954 1245 135.235 645.236 458.092
2747 0 92.2025 13.2317 1220 137.956 645.58 457.744
2748 0 97.2081 13.7643 1338 135.61 645.64 456.448
2749 0 98.1936 14.1252 1387 136.811 645.328 452.875
2750 0 102.166 14.1143 1442 135.972 645.436 452.173
2751 0 104.187 14.7715 1539 135.4 645.611 450.419
2752 0 111.173 15.7773 1754 129.841 646.044 446.179
2753 0 112.175 15.9126 1785 130.839 645.588 447.829
2754 0 114.133 13.975 1595 138.15 645.263 446.905
2755 0 118.219 14.7607 1745 135.087 645.411 447.278
2756 0 122.284 14.3682 1757 138.377 645.146 439.474
2757 0 124.156 14.6751 1822 137.568 645.652 441.642
2758 0 128.271 14.29 1833 137.809 645.501 440.001
2759 1 141.271 18.7865 2654 121.011 645.738 432.948
2760 0 143.232 16.9515 2428 129.302 645.064 431.671
2761 0 143.256 15.1128 2165 136.858 645.25 431.925
2762 0 149.139 14.6843 2190 138.193 646.142 429.12
2763 0 150.418 13.9943 2105 141.971 646.024 422.844
2764 0 158.336 15.385 2436 137.03 645.653 427.866
2765 0 161.395 13.8728 2239 143.484 645.274 418.315
2766 0 168.318 14.2231 2394 141.188 645.33 419.932
2767 0 175.309 14.3632 2518 141.72 645.574 414.386
2768 0 182.321 14.7433 2688 139.972 645.507 411.326
2769 0 187.221 14.4482 2705 141.473 645.458 407.585
2770 0 195.356 15.6586 3059 137.756 646.714 405.702
2771 0 200.487 15.2977 3067 140.015 646.337 397.305
2772 0 206.345 14.3546 2962 143.814 646.386 399.795
2773 0 214.423 14.7932 3172 143.098 645.974 397.33
2774 0 221.311 14.9653 3312 142.979 645.764 390.771
2775 0 230.372 15.8439 3650 141.071 645.926 388.534
2776 0 238.354 16.2154 3865 140.022 645.861 385.47
2777 0 245.471 15.2686 3748 143.65 644.911 380.097
2778 0 253.411 14.585 3696 145.351 644.818 379.029
2779 0 261.403 14.7703 3861 145.607 644.886 372.326
2780 0 263.359 11.6191 3060 150.56 644.908 388.632
2781 0 264.507 11.1869 2959 151.338 644.847 390.069
2782 0 264.411 10.6539 2817 152.543 645.534 380.479
2783 1 326.473 10.154 3315 155.269 645.424 354.098
2784 0 328.624 21.1032 6935 120.801 645.179 329.164
2785 0 401.951 25.6972 10329 98.4603 644.778 294.28
2786 1 326.52 11.8614 3873 151.641 644.705 347.64
2787 0 326.567 11.575 3780 151.455 645.289 352.419
2788 1 302.462 9.87894 2988 161.39 645.072 335.63
2789 1 110.15 11.7749 1297 97.6615 645.591 442.884
2790 1 50.0365 4.07702 204 97.4118 644.926 473.789
2791 0 54.0686 4.23536 229 99.9476 644.362 476.367
2792 0 54.0469 4.44058 240 99.8792 643.942 480.65
2793 0 58.1135 6.36685 370 97.3108 644.284 475.716
2794 0 52.0049 3.23046 168 106.637 643.768 471.089
2795 0 55.0419 5.63208 310 100.5 644.561 480.519
2796 0 56.0991 3.67208 206 99.4709 644.976 488.359
2797 1 2 1.5 3 93.6667 646 488.667
2798 1 25.0148 4.19751 105 93.7524 646.533 501.238
2799 0 24.0363 5.99094 144 89.5625 647.188 497.694
2800 0 24.0021 5.99947 144 90.4028 646.444 500.257
2801 0 22.0368 4.58324 101 94.099 646.356 502.564
2802 0 23.0146 6.12653 141 91.6808 646.801 500.631
2803 0 25.0344 7.23004 181 91.0718 647.133 501.32
2804 0 26.0621 5.41016 141 94.8652 647.397 501.965
2805 0 27.0073 6.96109 188 91.0904 647.117 498.447
2806 0 28.0252 7.70736 216 91.4861 647.463 499.255
2807 0 27.0084 7.44213 201 92.204 647.473 499.104
2808 0 27.023 7.17908 194 92.4845 647.619 498.247
2809 0 28.017 9.42285 264 89.6439 647.36 498.629
2810 0 25.0022 3.71967 93 100.28 647.484 502.409
2811 0 32.011 6.12289 196 93.3929 647.811 499.515
2812 0 31.0114 5.1594 160 96.35 647.938 500.675
2813 0 32.011 5.90423 189 94.5873 648.053 497.899
2814 0 31.0217 7.51086 233 92.3476 646.794 497.665
2815 0 32.0544 5.1163 164 96.8659 645.634 498.53
2816 0 34.0907 8.47738 289 91.1384 645.588 497.003
2817 0 36.2208 8.55863 310 92.6871 645.152 493.49
2818 0 37.3863 10.4316 390 89.0231 644.385 494.003
2819 0 39.1503 10.4469 409 89.467 645.156 491.247
2820 0 37.0213 7.23907 268 94.9925 646.698 498.705
2821 0 36.066 6.93174 250 96.844 645.54 497.372
2822 0 37.1064 8.00402 297 95.5084 645.542 494.737
2823 0 40.1094 10.0475 403 90.5633 645.506 492.553
2824 0 38.0573 8.88135 338 94.145 644.527 494.843
2825 0 39.2882 8.90852 350 93.5286 644.943 492.457
2826 0 38.2067 7.06682 270 96.8148 644.718 494.756
2827 0 40.1706 9.11115 366 93.5628 644.956 488.576
2828 0 38.0774 8.11505 309 96.4854 644.34 489.78
2829 0 42.076 8.74608 368 94.8397 644.495 492.024
2830 0 43.14 7.16273 309 97.0194 644.528 492.46
2831 0 42.0906 7.29379 307 97.5928 644.746 493.726
2832 0 45.1675 9.87436 446 92.37 644.496 489.964
2833 0 43.0563 7.85019 338 96.2248 644.547 490.574
2834 0 47.095 9.68257 456 91.3355 645.298 491.765
2835 0 43.067 8.73057 376 93.8404 644.726 492.697
2836 0 44.0227 8.10946 357 93.6499 644.969 491.524
2837 0 46.068 8.46575 390 94.2795 644.505 487.859
2838 0 44.1013 7.34672 324 95.2284 643.528 493.386
2839 0 45.1241 6.20511 280 96.7071 643.593 490.571
2840 0 46.1454 7.64972 353 94.6742 643.337 487.193
2841 0 46.1977 6.29901 291 96.0928 643.21 484.007
2842 0 49.1049 7.67744 377 91.9655 643.037 486.305
2843 0 46.1789 5.99842 277 96.083 643.545 484.047
2844 0 47.1781 5.17189 244 96.3934 643.795 489.316
2845 0 47.1514 7.97431 376 92.4814 644.58 486.21
2846 0 48.177 9.27828 447 89.3982 644.132 483.215
2847 0 49.1363 8.54766 420 89.8714 643.988 486.379
2848 0 44.1491 8.67515 383 91.0392 644.525 485.893
2849 0 48.1021 6.81883 328 91.8171 644.046 484.076
2850 0 45.1097 7.249 327 91.1988 644.404 487.049
2851 0 47.0786 7.2432 341 90.1936 644.229 488.425
2852 0 45.1169 8.15658 368 89.3995 644.128 488.598
2853 0 45.0969 7.31758 330 91.2212 643.982 486.433
2854 0 52.0997 7.12096 371 90.0458 644.367 485.162
2855 0 47.095 8.98184 423 86.8582 644.487 483.076
2856 0 49.2047 8.98288 442 86.0543 644.201 483.652
2857 0 56.0886 6.98894 392 88.5255 644.337 483.888
2858 0 52.1238 4.77709 249 91.8554 643.908 489.317
2859 0 50.1127 6.28583 315 89.381 643.984 483.384
2860 1 217.408 13.316 2895 117.531 644.373 389.331
2861 0 219.272 10.6169 2328 127.401 643.177 380.436
2862 1 184.29 8.51376 1569 136.867 643.567 376.341
2863 1 57.0134 3.99906 228 87.0395 644.092 494.846
2864 0 62.0407 2.77237 172 89.9826 644.849 489.116
2865 0 56.0223 3.15946 177 90.1695 644.249 493.333
2866 0 61.115 6.02143 368 84.9701 643.861 484.359
2867 0 59.1136 3.04498 180 88.85 643.844 486.55
2868 0 60.2065 4.91642 296 87.2905 644.101 473.902
2869 0 60.0711 4.02856 242 87.6612 643.339 484.273
2870 0 66.1212 5.42942 359 84.2368 644.033 481.357
2871 0 64.0604 6.5407 419 84.2554 643.912 477.573
2872 0 67.1668 6.08932 409 84.4376 643.888 478.895
2873 0 65.0925 5.79176 377 85.0371 644.069 479.064
2874 0 65.075 6.65386 433 85.1894 643.635 473.291
2875 1 24.0381 7.15531 172 83.0698 643.826 496.552
2876 0 25.0481 7.82494 196 84.0969 643.898 497.112
2877 0 29.1766 8.53425 249 81.0924 643.787 494.036
2878 0 27.203 6.02875 164 86.5183 643.433 493.902
2879 0 28.161 7.06652 199 84.7739 643.06 493.638
2880 0 32.1597 7.7426 249 83.5622 642.92 495.141
2881 0 32.2807 7.89946 255 84.1804 643.235 497.263
2882 0 32.1312 8.83876 284 83.9472 643.493 494.599
2883 0 34.0844 6.36655 217 86.0507 644.014 495.728
2884 0 33.0501 8.44174 279 83.7742 644.147 492.928
2885 0 33.152 7.14889 237 86.6371 643.667 493.224
2886 0 33.1338 8.54114 283 84.1661 644.237 491.746
2887 0 33.0921 7.46402 247 86.1376 643.781 491.292
2888 0 32.1134 5.20033 167 90.8084 643.539 489.545
2889 0 32.2488 6.54288 211 88.2038 643.213 486.654
2890 0 31.1387 5.94116 185 89.3892 643.232 490.324
2891 0 34.1361 6.56197 224 89.9643 643 487.241
2892 0 30.3167 7.12478 216 89.9259 643.602 481.875
2893 0 37.4746 8.19222 307 92.1629 642.371 377.111
2894 0 39.5007 8.63276 341 87.6745 642.936 389.214
2895 0 41.3706 7.97668 330 88.6 642.939 388.767
2896 0 40.2168 9.92122 399 86.7619 642.842 386.922
2897 0 40.4304 9.25046 374 88.9037 643.326 385.791
2898 0 38.2581 9.06998 347 91.0807 642.957 387.383
2899 0 41.3791 10.6817 442 86.1357 642.719 387.751
2900 0 41.3301 8.39581 347 90.9539 643.274 386.674
2901 0 45.2468 10.0339 454 88.185 642.346 378.315
2902 0 46.1693 10.6348 491 82.998 641.682 389.578
2903 0 46.4135 9.76008 453 85.5894 641.958 387.839
2904 0 50.3417 9.81294 494 83.5223 641.846 391.03
2905 0 49.3671 11.8095 583 82.9503 642.07 388.624
2906 0 50.4903 9.94251 502 85.5299 641.452 390.896
2907 0 51.4926 9.7684 503 84.9901 641.785 389.28
2908 0 49.3567 9.09704 449 87.9176 641.454 389.094
2909 0 51.6659 10.684 552 85.0489 641.344 389.752
2910 0 50.4473 10.7241 541 86 642.53 388.963
2911 0 53.5607 10.5114 563 86.8472 642.838 386.444
2912 0 54.5482 10.2478 559 87.0984 642.599 389.606
2913 0 55.3755 10.6365 589 87.3328 642.56 386.134
2914 0 54.6951 9.43412 516 91.1938 642.69 386.886
2915 0 56.6152 9.32612 528 91.2292 641.778 385.9
2916 0 57.4298 9.50725 546 90.6044 642.912 387.201
2917 0 58.4082 10.3753 606 90.3696 641.888 385.774
2918 0 58.3999 10.0343 586 92.0785 642.57 386.133
2919 0 59.4649 10.1909 606 91.467 642.2 386.739
2920 0 62.3115 10.6722 665 91.1308 642.071 386.069
2921 0 62.4999 8.78402 549 94.4536 642.454 387.124
2922 0 64.5456 9.94645 642 92.4953 641.838 386.522
2923 0 66.478 11.5527 768 89.2474 641.95 386.648
2924 0 65.5423 8.84924 580 95.4345 643.103 386.697
2925 0 238.556 16.7843 4004 101.213 644.024 295.49
2926 0 244.611 15.5635 3807 105.202 643.921 287.921
2927 0 250.789 15.7064 3939 105.981 643.821 286.371
2928 0 257.606 16.4903 4248 102.876 643.18 283.344
2929 0 264.811 16.4079 4345 102.437 643.047 283.365
2930 0 268.817 16.3941 4407 101.291 643.548 281.369
2931 0 275.517 15.7595 4342 104.841 643.385 273.406
2932 1 49.289 13.6339 672 94.0253 642.344 394.561
2933 0 47.3018 12.6845 600 99.015 642.377 394.475
2934 0 48.3715 12.0319 582 101.302 642.49 395.325
2935 0 47.2884 12.2229 578 103.313 642.841 394.526
2936 0 47.3899 11.6692 553 106.083 642.268 395.374
2937 0 48.2786 12.5936 608 104.446 642.581 395.804
2938 0 49.3825 16.7468 827 90.7606 642.296 394.394
2939 0 48.5134 14.4084 699 98.9742 642.465 395.116
2940 0 48.2811 14.0635 679 100.698 642.277 395.208
2941 0 50.3215 15.9773 804 95.24 642.215 394.869
2942 0 51.2311 15.557 797 96.5634 641.533 395.235
2943 0 47.2821 13.9376 659 104.467 642.199 394.901
2944 0 50.311 16.0999 810 97.6877 642.005 395.149
2945 0 310.93 12.6266 3926 117.692 642.811 245.983
2946 0 316.816 15.1854 4811 110.747 643.351 249.23
2947 0 319.812 15.0807 4823 111.89 643.304 247.237
2948 1 0 0 0 -nan -nan -nan
2949 1 56.4115 15.9719 901 96.3252 642.064 392.131
2950 0 56.6664 15.9177 902 95.5865 642.355 390.834
2951 0 54.1839 14.0078 759 104.613 641.945 396.387
2952 0 50.2366 12.6004 633 112.54 641.183 395.891
2953 1 124.573 11.6157 1447 103.867 643.039 364.538
2954 0 125.396 11.7627 1475 107.338 643.45 364.443
2955 0 124.418 10.7782 1341 110.57 643.902 363.273
2956 0 127.36 11.1888 1425 110.291 643.537 359.858
2957 0 130.449 10.2876 1342 111.513 643.878 362.628
2958 1 51.1803 11.821 605 115.721 641.706 396.805
2959 0 52.1692 13.0728 682 111.494 641.806 396.655
2960 0 53.3233 12.8649 686 111.052 641.924 397.649
2961 0 53.1486 12.0229 639 112.992 641.429 398.197
2962 0 53.3846 12.6066 673 111.426 641.721 397.319
2963 0 51.2547 12.9354 663 112.433 641.189 398.682
2964 0 52.2253 14.1885 741 108.397 641.255 398.534
2965 0 53.3637 13.5485 723 109.166 641.487 397.595
2966 0 52.3006 12.6002 659 112.739 641.407 397.385
2967 0 54.2325 13.5159 733 109.106 641.364 396.655
2968 0 51.2241 12.3965 635 113.995 641.739 398.661
2969 0 51.2312 12.9804 665 111.997 641.728 398.125
2970 0 51.3092 13.0776 671 112.146 641.738 397.395
2971 0 53.2273 12.5312 667 110.91 642.216 399.522
2972 0 53.2197 13.247 705 110.357 642.481 396.828
2973 0 54.2944 13.4452 730 108.759 642.068 398.058
2974 0 54.2206 12.2094 662 112.213 641.529 398.905
2975 0 47.2253 9.95229 470 122.426 641.732 394.945
2976 0 52.5064 13.4079 704 109.311 641.783 399.419
2977 0 51.2577 13.1102 672 110.562 641.434 400.045
2978 0 53.2597 13.7815 734 108.067 642.391 398.159
2979 0 52.1155 13.8346 721 108.225 642.358 399.307
2980 0 53.3289 13.8949 741 107.086 642.433 399.498
2981 0 52.2949 12.4104 649 112.422 642.327 398.684
2982 0 54.1675 13.4583 729 107.867 642.121 398.738
2983 0 54.1154 14.0995 763 105.84 642.329 400.054
2984 0 53.1208 12.6316 671 109.644 641.808 400.049
2985 0 53.1919 11.5807 616 111.401 642.203 399.443
2986 0 54.2308 13.2028 716 107.085 642.096 399.242
2987 0 53.1922 13.3478 710 107.828 641.972 398.025
2988 0 55.1822 14.1531 781 104.059 641.074 399.478
2989 0 56.284 14.0715 792 102.862 640.498 399.208
2990 0 55.2295 13.8332 764 104.096 641.467 398.631
2991 0 52.0689 12.9636 675 107.489 641.37 398.948
2992 0 52.1947 12.6066 658 108.112 641.448 399.202
2993 0 54.2496 15.0785 818 100.956 641.639 398.537
2994 0 53.2295 13.7142 730 105.453 642.014 396.67
2995 0 53.228 12.005 639 107.915 640.97 399.592
2996 0 54.2168 13.114 711 105.129 641.353 397.941
2997 0 55.3019 13.7789 762 103.123 641.621 398.718
2998 0 55.2836 13.4036 741 103.548 641.947 399.937
2999 0 56.3772 13.1436 741 103.628 641.497 398.884
3000 0 54.195 12.1782 660 106.248 641.615 399.171
3001 0 53.1498 11.7592 625 108.174 641.507 398.299
3002 0 54.2732 12.9346 702 104.58 641.581 399.288
3003 0 53.0603 11.7413 623 107.441 641.883 399.217
3004 0 55.3494 11.7255 649 106.815 641.784 399.328
3005 0 54.2673 12.807 695 104.371 641.945 399.235
3006 0 55.1327 10.6833 589 108.737 641.677 399.652
3007 0 56.2873 12.223 688 104.23 641.751 399.186
3008 0 52.1467 11.6402 607 107.834 641.479 399.31
3009 0 56.3498 12.0852 681 104.081 641.427 400.58
3010 0 52.3103 11.1642 584 110.469 641.887 398.642
3011 0 53.223 11.9685 637 108.217 641.491 398.204
3012 0 53.2194 11.2177 597 108.76 641.498 399.469
3013 0 54.2249 12.0609 654 106.232 641.182 398.827
3014 0 52.085 12.0572 628 106.857 641.522 399.548
3015 0 54.2296 13.3138 722 102.702 641.942 399.147
3016 0 52.2786 12.0126 628 106.408 642.596 398.248
3017 0 55.1864 14.0614 776 100.53 642.36 398.088
3018 0 54.3888 13.5322 736 102.269 642.168 397.923
3019 0 55.2457 12.3268 681 103.106 642.561 400.019
3020 0 53.2159 12.5902 670 104.146 641.864 398.527
3021 0 55.2123 13.5477 748 100.536 641.918 398.829
3022 0 53.2433 12.9218 688 103.246 641.907 398.278
3023 0 55.2836 12.879 712 102.277 642.202 396.846
3024 0 56.1364 11.953 671 102.496 642.145 399.531
3025 0 56.2798 13.1308 739 100.245 641.827 399.876
3026 0 54.3035 13.3509 725 100.404 641.538 399.741
3027 0 56.2439 11.7879 663 102.244 642.151 400.421
