time division length width area intensity CMx CMy
0 0 37.0064 14.2678 528 132.792 429.938 482.153
1 0 37.0094 15.1583 561 130.433 430.656 481.002
2 0 39.0185 15.4286 602 130.787 429.57 480.736
3 0 39.0342 15.0381 587 142.21 429.898 483.267
4 0 40.0605 15.0522 603 137.43 430.214 481.153
5 0 41.014 14.9217 612 133.186 431.047 480.629
6 0 42.0311 15.8216 665 140.406 430.49 478.617
7 0 41.0313 14.6961 603 147.91 430.154 481.428
8 0 43.1311 14.9776 646 148.783 429.673 478.807
9 0 45.0771 15.5068 699 143.193 429.747 478.787
10 0 45.0423 15.7408 709 147.759 430.554 478.695
11 0 47.0113 15.8898 747 150.013 430.58 480.553
12 0 47.076 15.4431 727 148.081 430.928 476.843
13 0 50.0446 17.6043 881 130.678 430.333 478.512
14 0 50.0582 16.8604 844 143.833 429.976 477.4
15 0 51.0332 16.4207 838 145.264 429.421 477.65
16 0 53.0177 16.5982 880 141.202 429.577 478.759
17 0 54.0514 16.1698 874 140.211 429.402 475.371
18 0 54.0237 16.7519 905 150.009 429.012 477.259
19 0 58.043 17.1941 998 136.64 429.537 474.352
20 0 59.0179 16.5204 975 142.246 428.573 474.864
21 0 58.0382 15.9206 924 149.568 427.83 475.169
22 0 58.0189 14.6504 850 146.591 427.521 475.462
23 0 62.0729 15.9812 992 145.064 428.096 473.026
24 0 65.0442 16.435 1069 143.252 428.98 474.057
25 0 67.051 16.3905 1099 142.584 428.377 471.429
26 0 70.0561 16.0728 1126 143.386 427.607 470.034
27 0 72.0549 16.5707 1194 148.571 426.855 470.886
28 0 74.0446 16.1119 1193 150.801 427.801 469.427
29 0 78.1093 17.6804 1381 142.975 427.809 468.805
30 0 80.0793 16.2089 1298 148.086 427.633 468.478
31 0 83.088 17.6078 1463 143.446 427.62 466.543
32 0 87.0753 16.5144 1438 146.797 427.223 464.768
33 0 89.0949 16.6788 1486 145.477 426.809 462.656
34 0 94.1342 16.9439 1595 140.374 426.629 460.69
35 0 98.1752 17.5503 1723 132.065 426.563 459.181
36 0 100.124 15.4409 1546 140.671 427.526 457.624
37 1 52.0497 13.9482 726 138.26 427.318 481.769
38 0 54.0603 14.5763 788 139.832 427.562 483.869
39 0 57.0144 14.7682 842 136.894 427.093 483.271
40 0 59.0279 13.2649 783 141.557 426.593 481.027
41 0 61.0729 13.7377 839 148.367 426.758 480.013
42 0 65.1322 14.9389 973 141.655 426.024 479.767
43 0 66.101 14.3871 951 146.66 426.664 476.682
44 0 67.1612 14.7704 992 144.538 426.419 477.374
45 0 71.0851 13.9973 995 146.343 426.432 475.958
46 0 73.1518 14.8458 1086 142.432 425.814 474.563
47 0 76.16 14.7059 1120 142.498 425.667 474.176
48 0 79.1309 15.0889 1194 141.599 426.323 472.794
49 0 82.0482 15.4056 1264 138.267 425.844 471.627
50 0 85.0579 14.9192 1269 139.858 425.99 470.988
51 0 89.0579 15.3945 1371 137.95 426.042 468.247
52 0 90.0992 15.1167 1362 136.041 426.761 465.477
53 0 94.2056 15.1265 1425 135.413 427.155 465.631
54 0 96.0892 14.0807 1353 136.809 426.329 466.536
55 0 98.0876 13.7938 1353 137.308 425.953 464.64
56 0 103.127 14.2931 1474 135.794 425.531 460.304
57 0 106.16 14.3463 1523 135.479 425.728 459.271
58 1 55.1363 12.0429 664 136.928 426.288 484.462
59 0 58.0708 12.347 717 134.98 425.993 484.653
60 0 59.027 13.1973 779 134.865 425.068 483.085
61 0 61.0564 13.6759 835 136.753 425.54 482.037
62 0 64.0624 16.1249 1033 130.397 426.099 480.387
63 0 66.078 14.6342 967 125.8 426.274 479.518
64 0 66.0869 13.0888 865 130.272 425.308 481.382
65 0 68.047 13.5201 920 130.9 425.248 479.73
66 0 71.049 14.3704 1021 129.035 425.234 478.068
67 0 73.1004 14.3775 1051 129.779 425.314 475.685
68 0 74.1993 13.7602 1021 133.452 423.978 475.585
69 0 78.1695 13.1253 1026 133.206 424.288 475.89
70 0 81.1213 14.4845 1175 129.706 424.447 472.797
71 0 82.0856 12.7793 1049 135.21 424.393 473.709
72 0 84.1326 14.4296 1214 130.422 424.5 470.381
73 0 87.0662 13.7367 1196 134.018 424.14 467.517
74 0 89.0917 13.1662 1173 134.9 423.991 468.439
75 0 94.1046 14.707 1384 130.985 424.244 467.263
76 0 93.1124 13.1669 1226 138.189 424.104 464.47
77 0 99.1264 14.305 1418 134.618 424.803 463.683
78 0 105.048 15.3454 1612 131.429 424.441 458.833
79 0 107.084 15.1376 1621 132.454 424.771 458.206
80 0 112.121 16.1879 1815 127.855 425.245 455.299
81 0 112.114 14.5566 1632 134.145 425.438 456.892
82 0 116.099 14.1431 1642 133.241 425.312 450.683
83 0 122.204 14.3777 1757 129.797 425.496 449.539
84 0 129.128 16.2475 2098 122.796 425.078 445.216
85 0 132.181 14.5936 1929 128.023 425.104 445.612
86 0 136.148 14.2492 1940 130.142 425.217 441.994
87 0 139.094 14.0193 1950 131.851 425.068 437.963
88 0 145.233 15.2238 2211 128.923 425.37 435.222
89 0 150.176 15.4752 2324 129.003 425.196 432.642
90 0 157.19 16.1015 2531 126.925 425.121 431.262
91 0 160.346 15.1049 2422 130.605 425.015 427.56
92 0 165.328 14.934 2469 131.298 424.303 423.484
93 0 172.186 15.0361 2589 130.77 423.934 421.191
94 0 178.307 14.9406 2664 131.363 423.779 419.127
95 0 184.421 15.0525 2776 132.307 423.891 419.622
96 0 192.541 15.8148 3045 130.085 423.272 413.262
97 1 96.2576 12.5912 1212 129.068 423.62 458.748
98 0 102.185 14.4933 1481 124.839 423.831 458.938
99 0 105.297 12.7829 1346 129.56 424.409 456.953
100 0 110.235 13.8522 1527 124.895 424.648 458.28
101 0 113.099 12.467 1410 131.277 423.831 453.893
102 0 119.124 12.2645 1461 131.82 424.264 450.373
103 0 122.195 16.1218 1970 120.346 423.685 451.298
104 0 125.135 12.7222 1592 130.463 424.062 444.707
105 0 129.145 12.1414 1568 131.917 423.916 444.055
106 0 137.117 13.463 1846 126.755 423.268 442.459
107 0 139.233 12.4253 1730 131.093 423.292 438.038
108 0 146.172 13.2242 1933 127.708 423.831 437.102
109 0 152.202 12.6871 1931 129.551 423.489 434.381
110 0 156.265 13.0867 2045 128.354 423.686 430.83
111 0 159.214 12.2162 1945 131.212 423.541 428.647
112 0 166.384 12.5072 2081 130.376 423.277 425.752
113 0 168.268 12.5336 2109 132.254 423.643 420.134
114 0 175.355 11.8103 2071 133.614 423.792 416.155
115 0 181.4 12.1941 2212 133.07 422.965 411.345
116 0 190.496 12.8927 2456 129.968 423.707 409.028
117 0 197.333 13.4443 2653 128.527 423.374 404.797
118 0 206.51 14.0671 2905 127.402 423.848 402.663
119 0 211.287 13.697 2894 128.701 424.211 398.495
120 1 60.2429 9.12971 550 122.004 423.176 476.031
121 0 63.0789 11.6996 738 120.747 422.575 478.512
122 0 65.0563 10.3756 675 114.824 423.926 476.339
123 0 69.1978 11.5611 800 119.056 424.146 477.776
124 0 69.096 11.2452 777 110.47 424.416 477.427
125 0 71.1711 11.4794 817 109.778 424.851 474.311
126 0 75.1224 11.7808 885 106.626 424.697 477.668
127 0 77.0974 10.9861 847 109.746 424.102 474.974
128 0 81.2254 11.7328 953 108.382 424.367 472.805
129 0 84.1244 11.0788 932 110.344 424.153 471.731
130 0 85.0904 12.1518 1034 109.47 424.479 470.091
131 0 88.0628 11.4577 1009 112.872 424.029 466.544
132 0 91.0832 12.2196 1113 112.597 423.628 465.66
133 0 94.0859 11.9784 1127 112.538 423.605 462.104
134 0 98.1063 11.722 1150 112.975 424.015 462.344
135 0 102.118 12.2603 1252 112.278 423.912 460.327
136 0 103.133 11.2961 1165 117.185 423.89 458.626
137 0 107.098 12.848 1376 113.73 423.19 457.792
138 0 110.124 12.3497 1360 116.029 423.704 453.363
139 0 112.283 12.2013 1370 116.966 424.221 454.655
140 0 115.233 12.913 1488 116.392 423.618 450.854
141 0 119.273 12.5762 1500 116.627 423.313 448.889
142 0 122.242 12.0662 1475 117.238 423.285 445.347
143 0 129.398 13.7251 1776 112.139 423.968 441.188
144 0 129.4 10.711 1386 120.934 424.216 439.99
145 0 135.352 11.2743 1526 118.615 423.823 441.132
146 1 78.1797 10.0665 787 109.117 424.52 470.761
147 0 81.1427 11.2271 911 106.647 423.496 471.562
148 0 84.1072 10.7839 907 108.91 424.116 468.808
149 0 86.1046 10.7892 929 109.568 423.617 467.696
150 0 89.0735 10.7215 955 110.824 423.568 467.259
151 0 90.1151 10.6974 964 111.56 423.86 463.99
152 0 95.1281 11.1639 1062 112.013 424.067 462.341
153 0 98.2405 10.7695 1058 112.363 424.469 462.42
154 0 100.196 11.5674 1159 112.035 424.779 457.425
155 0 105.328 11.3266 1193 111.137 424.55 458.073
156 0 109.219 11.4449 1250 110.842 424.117 458.88
157 0 111.175 11.7113 1302 110.133 423.986 456.598
158 0 114.232 10.2861 1175 114.097 424.069 454.575
159 1 61.1579 11.6093 710 106.92 424.537 478.711
160 0 64.3065 12.8136 824 107.988 424.438 478.627
161 0 67.0866 12.059 809 109.577 424.744 478.094
162 0 67.043 11.0228 739 113.292 425.157 477.313
163 0 69.04 12.3117 850 109.115 425.185 477.202
164 0 72.0512 12.3662 891 109.581 425.209 473.329
165 0 75.0251 13.3022 998 107.072 425.193 472.32
166 0 76.0569 12.4249 945 109.906 425.101 470.33
167 0 81.0986 12.5156 1015 108.923 425.165 469.424
168 0 81.0969 12.0473 977 111.106 424.873 467.893
169 0 83.1117 11.3582 944 104.496 423.959 468.541
170 0 87.1169 12.3627 1077 102.379 424.061 467.211
171 0 91.164 11.8907 1084 105.337 423.83 466.169
172 0 93.1081 13.0171 1212 104.026 424.007 464.361
173 0 98.0895 12.5192 1228 103.945 424.225 465.359
174 1 52.0524 10.1244 527 100.894 424.947 485.524
175 0 53.0825 10.5873 562 101.037 425.295 484.653
176 0 54.1238 10.827 586 104.249 425.196 484.759
177 0 56.1244 10.744 603 102.663 425.174 485.385
178 0 56.1595 10.2743 577 105.397 425.144 484.161
179 0 57.0763 10.4597 597 106.379 424.503 482.714
180 0 60.0605 11.3386 681 104.545 424.112 481.269
181 0 62.1784 10.6789 664 105.447 424.892 480.072
182 0 64.1537 11.2542 722 104.704 424.568 479.395
183 0 66.1493 12.6986 840 101.324 424.976 478.614
184 0 68.1736 12.3802 844 102.748 424.902 477.012
185 0 71.1467 11.905 847 103.237 425.112 475.674
186 0 72.1352 12.5043 902 102.655 425.101 473.388
187 0 75.2155 11.1413 838 106.004 425.026 474.538
188 0 76.144 12.0955 921 104.772 424.369 472.496
189 0 79.1414 11.789 933 105.015 424.93 472.901
190 0 84.0818 12.3094 1035 104.031 424.343 470.768
191 0 85.0923 11.5522 983 106.579 423.572 469.396
192 0 88.1063 12.1898 1074 106.278 423.706 468.337
193 1 46.0197 9.97399 459 106.294 423.564 488.889
194 0 48.0453 9.90732 476 106.363 422.754 488.861
195 0 51.0593 11.8098 603 103.093 424.134 488.018
196 0 52.0372 11.3765 592 104.115 424.233 485.738
197 0 51.093 12.1739 622 103.568 425.704 484.223
198 0 52.0423 11.3946 593 105.747 424.848 487.39
199 0 52.0164 10.7851 561 109.251 425.26 483.308
200 0 57.0315 12.5545 716 102.714 424.862 483.913
201 0 55.0383 10.2474 564 109.06 425.516 482.176
202 0 57.0928 10.5618 603 107.476 425.469 483.579
203 0 60.0335 12.2265 734 104.067 425.264 481.35
204 0 63.0763 10.9708 692 105.454 425.13 481.87
205 0 62.0293 11.0754 687 104.537 425.192 482.143
206 0 67.1004 12.1311 814 102.736 424.943 479.6
207 0 68.0793 10.7522 732 105.766 424.899 478.816
208 0 70.0695 11.2745 790 103.818 424.653 476.801
209 0 72.0751 13.4998 973 99.5108 424.626 475.526
210 0 74.0745 11.6504 863 103.185 424.99 476.568
211 0 74.0284 10.1988 755 108.248 424.713 474.975
212 0 80.0871 12.0993 969 104.335 425.071 471.513
213 0 82.0675 11.1981 919 105.067 424.452 472.452
214 0 84.0577 11.0043 925 106.494 424.919 469.869
215 0 88.0984 12.9855 1144 102.887 425.113 465.382
216 0 91.1186 11.5564 1053 106.863 424.33 464.008
217 0 95.1975 12.1432 1156 106.732 424.564 463.298
218 1 50.0636 11.5054 576 104.911 424.488 485.278
219 0 51.0634 11.2214 573 103.642 424.668 485.269
220 0 54.051 11.6742 631 102.147 424.792 483.458
221 0 52.0196 10.496 546 107.782 423.733 483.212
222 0 56.031 12.5466 703 102.504 424.006 482.246
223 0 56.0308 12.0648 676 104.382 423.262 482.975
224 0 59.1457 12.6129 746 101.924 425 478.438
225 0 55.0547 9.00922 496 111.976 423.435 482.145
226 0 62.0502 11.0395 685 106.235 423.476 480.464
227 0 64.023 11.4021 730 105.471 424.348 479.234
228 0 66.0262 10.9805 725 107.225 424.526 476.114
229 0 67.0466 11.3951 764 105.758 424.666 478.887
230 0 70.0917 11.6419 816 106.097 425.027 478.241
231 0 74.0342 10.4546 774 108.512 424.198 474.601
232 0 75.0665 11.1901 840 107.039 424.849 473.904
233 0 80.104 12.7834 1024 104.074 423.543 473.863
234 0 83.0612 12.9423 1075 104.709 423.797 470.622
235 0 86.1454 11.8172 1018 107.259 424.056 469.5
236 0 90.1559 12.8999 1163 104.303 423.708 468.875
237 0 91.0997 11.6576 1062 108.669 423.293 467.665
238 1 48.099 13.1396 632 104.56 423.123 486.597
239 0 48.2112 11.2837 544 110.936 424.724 486.592
240 0 52.0451 12.6237 657 106.947 423.804 486.068
241 0 51.0781 11.7467 600 105.9 424.69 485.868
242 0 52.0776 11.9437 622 105.939 424.413 485.034
243 0 51.0635 10.1638 519 110.42 424.522 485.559
244 0 55.1121 11.2317 619 106.603 424.26 485.863
245 0 58.0786 12.1043 703 104.817 424.395 484.353
246 0 58.0905 11.4476 665 107.268 425.059 481.901
247 0 59.0634 11.53 681 109.633 424.623 481.979
248 0 61.1027 11.227 686 110.749 424.007 481.386
249 0 60.0365 11.5929 696 110.937 424.151 481.638
250 0 64.176 11.7957 757 109.497 424.353 481.917
251 0 66.0617 12.2158 807 110.527 424.138 478.226
252 0 67.0621 11.5415 774 112.287 424.959 476.745
253 0 70.0436 12.7492 893 110.236 423.708 476.473
254 0 71.1245 11.9649 851 113.485 423.387 475.854
255 0 75.0627 12.9225 970 111.769 423.42 474.509
256 0 76.0673 11.9499 909 113.04 425.316 476.215
257 0 78.069 12.822 1001 113.871 424.911 473.386
258 0 81.0867 12.3818 1004 115.203 424.708 471.263
259 0 85.0926 12.0575 1026 116.18 424.829 469.511
260 0 89.1493 13.4269 1197 112.373 424.733 468.456
261 0 91.0419 13.4334 1223 113.088 425.084 465.275
262 1 49.062 12.5963 618 109.54 425.053 489.068
263 0 50.3023 12.6038 634 113.263 424.191 484.721
264 0 51.1347 11.4795 587 109.562 422.62 486.569
265 0 51.0448 11.9111 608 108.084 424.962 487.5
266 0 51.0494 10.8522 554 110.836 424.899 488.011
267 0 54.0447 11.731 634 109.672 424.719 486.265
268 0 55.0523 12.7878 704 108.257 424.778 484.099
269 0 59.0265 12.9433 764 106.487 424.912 485.654
270 0 59.0514 12.2266 722 109.981 425.087 484.453
271 0 59.1227 11.2478 665 113.325 425.293 482.794
272 0 62.035 11.9126 739 110.829 424.559 482.635
273 0 65.0717 12.8781 838 108.805 424.921 482.05
274 0 65.1246 12.883 839 110.788 424.604 480.2
275 0 66.1112 12.4941 826 111.318 424.519 479.372
276 0 69.1179 10.7787 745 115.244 424.746 478.388
277 0 72.0542 11.8383 853 111.795 423.862 477.163
278 0 76.0964 12.4842 950 108.994 423.636 477.238
279 0 75.0324 11.4084 856 114.313 423.787 475.39
280 0 78.0465 11.0831 865 113.533 424.312 474.703
281 0 84.057 12.9317 1087 109.026 425.022 471.768
282 0 86.0592 13.1654 1133 109.601 425.145 468.464
283 0 88.0976 10.9538 965 115.158 425.292 471.432
284 1 49.0216 10.8524 532 113.211 425.68 489.66
285 0 50.0608 12.0254 602 111.558 423.455 486.002
286 0 53.0279 12.22 648 117.116 425.858 485.816
287 0 58.021 13.2538 769 112.007 425.412 485.26
288 0 58.0211 13.6157 790 112.4 424.905 483.142
289 0 59.0438 13.4985 797 113.099 424.847 482.435
290 0 60.0812 13.2987 799 113.842 425.061 479.935
291 0 65.0406 13.3763 870 112.069 425.261 480.403
292 0 64.0643 12.3001 788 107.786 424.287 480.886
293 0 67.1366 13.0778 878 106.338 425.378 478.376
294 0 69.0907 13.4027 926 105.648 425.058 476.505
295 0 71.094 12.5046 889 108.097 425.649 475.857
296 0 75.1219 12.0471 905 109.506 424.878 476.66
297 0 76.1403 11.5182 877 112.742 425.09 473.964
298 0 80.0768 13.1748 1055 108.922 425.066 472.955
299 0 80.0914 11.8739 951 114.008 424.876 471.082
300 0 84.1435 12.3836 1042 111.883 424.702 470.631
301 0 89.1015 12.5363 1117 112.325 424.439 468.789
302 1 47.0162 11.613 546 114.02 425.005 488.559
303 0 51.0717 12.7468 651 113.504 424.874 486.837
304 0 51.1377 12.3392 631 110.41 423.455 487.84
305 0 51.048 10.8525 554 115.531 423.513 489.392
306 0 50.0502 11.8681 594 114.338 423.774 488.788
307 0 53.0178 12.543 665 113.134 423.771 485.432
308 0 54.0805 12.278 664 113.598 422.735 483.881
309 0 55.0221 10.7048 589 117.268 423.772 485.073
310 0 59.0339 11.739 693 112.365 423.325 486.176
311 0 62.0863 11.5807 719 112.224 422.643 484.046
312 0 61.1052 11.7993 721 113.154 422.917 481.996
313 0 64.0345 12.1653 779 112.112 422.913 480.551
314 0 65.085 12.1994 794 112.013 422.889 478.868
315 0 67.0826 12.7902 858 111.368 423.448 478.552
316 0 68.0757 10.4589 712 116.261 423.43 478.698
317 0 75.0365 13.6733 1026 106.333 423.481 477.484
318 0 76.1461 11.6618 888 111.162 424.078 476.214
319 0 77.052 11.914 918 112.078 423.522 473.436
320 0 79.2106 11.8292 937 111.78 423.621 473.007
321 0 82.0771 11.477 942 112.257 423.827 472.31
322 0 89.1293 12.1172 1080 108.577 423.213 470.272
323 1 46.0311 10.4929 483 111.122 424.634 490.683
324 0 47.0373 10.1622 478 113.383 423.251 488.831
325 0 51.09 11.8614 606 109.208 423.662 487.178
326 0 50.0215 12.2347 612 109.015 423.01 487.724
327 0 51.0852 11.9017 608 103.095 423.64 488.135
328 0 51.0725 11.3172 578 105.379 423.964 487.862
329 0 54.0371 12.6395 683 101.117 423.646 486.016
330 0 54.1088 11.6062 628 103.834 424.127 486.051
331 0 58.0642 11.8317 687 101.987 423.856 485.525
332 0 58.0677 11.6244 675 102.947 424.714 482.665
333 0 61.2291 11.7591 720 102.237 424.853 481.785
334 0 64.1347 12.6608 812 99.9273 424.677 481.706
335 0 65.0846 11.0011 716 103.758 425.126 480.536
336 0 66.0992 11.3163 748 103.295 424.328 480.307
337 0 70.164 11.3021 793 103.392 424.536 478.676
338 0 72.0943 12.2617 884 101.926 424.292 478.156
339 0 74.095 12.7404 944 102.592 423.706 474.828
340 0 77.1151 12.034 928 104.221 423.977 475.303
341 0 80.1406 12.4406 997 104.143 424.067 474.918
342 1 41.0472 10.3539 425 105.701 424.402 491.809
343 0 45.0287 11.6592 525 102.912 424.81 491.596
344 0 45.0506 11.8534 534 101.893 425.022 493.047
345 0 47.1202 11.7359 553 102.476 424.306 490.969
346 0 48.1003 13.6382 656 101.433 424.68 488.212
347 0 48.0632 12.4419 598 105.446 424.644 488.478
348 0 52.1471 13.6345 711 100.484 423.892 488.689
349 0 51.1232 11.4429 585 107.55 424.316 488.32
350 0 53.0756 14.0177 744 100.856 424.144 488.026
351 0 56.0947 14.2438 799 107.992 424.706 485.687
352 0 59.1259 14.1901 839 106.579 425.328 485.198
353 0 58.1224 12.0952 703 113.286 425.219 484.189
354 0 62.3019 13.0173 811 109.79 425.418 483.322
355 0 63.1187 14.2272 898 107.291 425.422 482.119
356 0 63.2519 13.0905 828 110.576 425.539 483.397
357 0 68.2774 15.5688 1063 103.754 425.479 481.06
358 0 67.1953 13.0515 877 110.423 425.405 478.71
359 0 69.0731 13.3482 922 107.822 425.639 478.56
360 0 73.1172 13.2664 970 107.673 425.04 477.286
361 0 73.0533 12.2376 894 109.913 425.784 475.019
362 0 75.1571 11.7753 885 107.742 425.731 475.028
363 0 78.121 13.3895 1046 106.594 426.044 474.434
364 0 80.152 12.9254 1036 108.363 425.606 472.832
365 0 84.1485 12.5017 1052 109.865 425.039 468.395
366 0 87.1975 12.3513 1077 110.349 425.046 469.369
367 1 49.0875 12.4879 613 103.93 426.281 490.767
368 0 48.0332 12.6996 610 110.241 426.248 487.374
369 0 50.1013 12.7342 638 110.685 425.788 488.234
370 0 50.1207 13.2081 662 110.902 425.609 487.489
371 0 53.1609 12.0389 640 112.63 425.172 486.837
372 0 54.1021 12.3101 666 110.584 425.495 486.194
373 0 55.1137 11.5579 637 113.634 425.135 484.917
374 0 55.1405 12.6586 698 111.312 425.213 482.471
375 0 59.053 12.5819 743 108.987 424.894 483.598
376 0 60.0606 12.4874 750 109.301 424.935 483.733
377 0 62.0666 12.1805 756 109.836 425.954 482.615
378 0 63.1026 12.2657 774 105.618 425.774 480.181
379 0 64.174 10.2222 656 109.363 425.415 479.808
380 0 68.078 12.9998 885 104.084 425.461 479.271
381 0 71.053 13.131 933 104.801 424.95 477.64
382 0 71.1098 11.5174 819 109.674 425.407 476.227
383 0 74.0458 12.1141 897 110.013 425.126 473.758
384 0 80.2006 12.3565 991 108.653 425.811 474.139
385 0 82.1468 12.8794 1058 107.961 425.885 470.855
386 0 85.1895 12.1024 1031 109.404 425.289 470.302
387 0 87.1648 10.8759 948 112.061 425.731 470.256
388 0 91.2597 12.7986 1168 109.402 425.653 466.468
389 0 94.3493 12.5703 1186 110.038 424.805 464.578
390 0 97.1591 11.8363 1150 112.854 425.17 461.036
391 1 49.1126 10.649 523 106.642 426.055 489.038
392 0 51.0706 11.2981 577 109.137 426.237 487.692
393 0 52.0735 11.9447 622 105.093 424.987 486.182
394 0 55.0641 12.4582 686 103.617 424.886 485.16
395 0 55.0892 11.6175 640 106.066 424.928 485.244
396 0 58.0484 11.9728 695 105.691 425.062 484.725
397 0 60.0893 12.1985 733 105.96 424.629 482.25
398 0 62.112 11.8657 737 106.836 425.516 480.754
399 0 64.0345 12.5401 803 105.748 425.04 480.467
400 0 65.0569 12.5429 816 107.077 424.732 479.852
401 0 65.1322 11.1158 724 111.145 425.054 480.546
402 0 70.095 12.5972 883 108.834 425.632 477.187
403 0 73.0903 12.3819 905 108.709 425.864 476.85
404 0 74.1458 12.7317 944 109.541 426.264 473.699
405 0 77.0366 10.4366 804 115.316 425.163 472.82
406 0 82.0969 12.5827 1033 110.667 425.346 473.828
407 0 85.076 13.7994 1174 108.731 425.649 473.773
408 0 88.1102 13.4264 1183 110.451 425.709 471.629
409 0 89.163 11.8098 1053 115.758 425.507 465.645
410 0 94.1417 12.8317 1208 112.912 425.269 465.995
411 0 98.0898 12.2439 1201 113.799 425.468 465.282
412 0 100.081 11.5506 1156 116.076 425.485 463.352
413 1 51.087 12.234 625 105.533 426.286 487.667
414 0 52.018 12.3996 645 105.702 424.363 487.563
415 0 52.1016 12.015 626 107.045 425.642 487.695
416 0 56.1182 12.5984 707 104.777 425.368 485.812
417 0 56.0855 11.9817 672 107.211 425.354 486.757
418 0 57.065 11.338 647 109.515 425.649 485.853
419 0 61.0354 12.632 771 105.702 425.025 483.034
420 0 63.1608 12.9986 821 114.488 424.683 482.06
421 0 67.0421 12.4399 834 113.516 425.061 481.45
422 0 68.199 11.9943 818 114.726 425.253 479.377
423 0 71.0657 12.2703 872 111.251 426.352 480.475
424 0 71.0453 11.5982 824 114.482 425.784 477.1
425 0 74.1139 12.6697 939 110.504 426.048 477.734
426 0 77.115 13.0195 1004 112.1 425.874 475.84
427 0 80.294 12.8777 1034 111.058 426.111 475.13
428 0 82.3699 12.8445 1058 111.922 425.737 470.766
429 0 85.2527 12.8676 1097 112.696 426.565 470.136
430 0 87.1996 12.0872 1054 114.613 426.229 470.395
431 0 90.2844 12.7486 1151 115.282 426.136 466.729
432 0 90.1472 11.4369 1031 117.582 426.532 466.145
433 0 94.1461 11.3228 1066 117.862 426.491 465.7
434 1 47.0425 9.84217 463 113.624 426.125 490.156
435 0 49.0298 9.87155 484 114.988 426.32 489.488
436 0 51.0718 11.1999 572 113.762 426.47 488.844
437 0 54.075 11.9464 646 110.395 426.407 488.802
438 0 54.1325 11.8228 640 120.073 425.178 486.856
439 0 57.0887 12.5594 717 117.442 425.018 485.642
440 0 59.2281 11.6837 692 119.945 425.536 484.724
441 0 61.1432 13.0186 796 115.721 425.534 484.768
442 0 61.0928 13.8642 847 116.021 425.503 481.759
443 0 64.1241 13.8793 890 114.535 425.183 482.339
444 0 66.1451 12.9413 856 117.81 425.468 481.973
445 0 67.0946 13.8908 932 116.273 425.392 479.97
446 0 68.1133 13.595 926 117.883 425.686 478.598
447 0 72.1446 13.3898 966 117.653 425.358 479.449
448 0 74.1244 14.0575 1042 115.18 425.467 477.604
449 0 76.0977 11.8663 903 114.473 426.136 475.64
450 0 82.1016 13.9827 1148 80.6507 426.104 474.536
451 0 80.0673 13.2763 1063 112.736 426.141 474.454
452 0 82.0822 13.6083 1117 113.675 426.364 472.277
453 0 86.1017 12.1716 1048 117.69 425.609 471.173
454 0 89.0551 13.0706 1164 116.497 426.092 470.036
455 0 91.1055 12.0629 1099 120.076 426.231 468.273
456 1 48.1296 11.3236 545 116.956 427.372 487.659
457 0 50.0822 13.0186 652 113.698 427.268 487.344
458 0 52.0274 12.6087 656 113.71 427.123 489.517
459 0 54.0442 13.526 731 110.981 426.86 488.781
460 0 54.0472 12.9146 698 114.706 427.289 487.729
461 0 58.039 13.0257 756 112.843 427.032 485.755
462 0 59.0632 13.2062 780 113.049 426.986 484.637
463 0 63.0527 13.909 877 110.417 426.681 482.951
464 0 64.0408 13.1166 840 113.382 426.855 483.806
465 0 64.1131 13.367 857 115.751 426.798 480.037
466 0 67.1255 14.3761 965 114.262 427.512 480.075
467 0 69.0394 12.2973 849 119.264 427.069 479.118
468 0 73.1048 14.1167 1032 114.865 426.824 479.172
469 0 74.1577 14.159 1050 117.001 427.21 477.66
470 0 77.0616 13.4178 1034 119.152 426.888 477.066
471 0 79.096 12.7567 1009 122.101 426.658 474.096
472 0 84.173 13.7217 1155 119.669 426.309 472.785
473 0 86.1237 13.2252 1139 122.302 425.882 472.64
474 0 89.0948 13.0423 1162 125.737 426.175 470.396
475 0 91.1773 13.4354 1225 124.641 425.847 468.19
476 1 47.0661 11.7069 551 122.701 426.586 491.619
477 0 48.1071 11.703 563 125.359 426.59 490.462
478 0 48.0505 13.0488 627 123.944 426.531 489.126
479 0 52.0794 12.5769 655 120.721 426.316 489.049
480 0 51.1119 12.9715 663 120.974 426.323 488.312
481 0 56.1393 12.4512 699 120.096 426.295 487.456
482 0 55.1274 12.0085 662 122.819 426.734 487.749
483 0 58.0621 12.4866 725 120.866 425.437 486.185
484 0 60.0489 13.6722 821 118.538 425.341 483.888
485 0 60.0952 12.164 731 122.855 425.845 482.609
486 0 64.2334 12.6258 811 118.504 426.076 483.134
487 0 67.1167 12.739 855 117.709 426.156 480.958
488 0 70.1224 11.9791 840 114.7 426.306 480.145
489 0 73.0703 12.2895 898 113.648 425.342 477.648
490 0 73.1062 12.0783 883 115.959 425.806 478.337
491 1 38.0069 10.6296 404 117.629 425.936 495.827
492 0 37.0408 10.043 372 124.062 425.164 494.317
493 0 40.0518 11.56 463 117.458 424.663 494.41
494 0 41.0277 10.0664 413 118.155 425.005 494.99
495 0 43.1054 11.7387 506 109.067 425.628 492.136
496 0 44.0452 12.0558 531 109.588 425.733 491.087
497 0 45.0309 12.0362 542 111.277 425.129 490.886
498 0 46.0507 11.5742 533 111.028 425.747 487.595
499 0 47.0906 11.2761 531 118.753 426.051 491.109
500 0 49.0679 12.2687 602 116.581 426.645 488.957
501 0 48.0361 11.6787 561 124.474 426.742 490.014
502 0 50.1677 11.8204 593 124.346 426.772 488.771
503 0 54.0773 12.852 695 119.82 426.699 487.758
504 0 53.1685 11.7927 627 124.896 426.651 487.077
505 0 55.0862 11.2188 618 125.487 426.306 485.856
506 0 57.0863 11.8592 677 124.257 426.771 483.948
507 0 59.0935 12.7087 751 120.981 426.51 484.325
508 0 60.093 11.8816 714 123.86 426.332 483.679
509 0 63.0868 12.2688 774 124.495 426.426 481.305
510 0 66.0783 12.2279 808 122.969 426.751 479.056
511 0 69.1289 12.5852 870 121.683 426.297 479.969
512 0 71.0732 13.0851 930 121.39 426.219 477.392
513 0 73.0862 13.2173 966 122.736 425.999 476.018
514 0 76.231 11.5307 879 128.509 425.777 475.796
515 0 77.2007 11.9559 923 128.882 425.879 470.869
516 0 82.3419 12.9217 1064 125.456 425.212 470.088
517 0 85.2074 13.1444 1120 123.543 425.221 470.197
518 0 89.2463 13.6812 1221 122.553 425.481 466.708
519 0 90.3222 12.389 1119 125.279 425.264 466.452
520 0 94.3616 12.6852 1197 124.536 424.885 463.757
521 1 50.2555 12.317 619 119.753 425.91 484.817
522 0 50.1177 11.4929 576 117.736 425.833 488.519
523 0 54.1011 11.7373 635 115.487 425.263 487.052
524 0 53.0453 11.8955 631 116.423 425.393 486.341
525 0 56.1236 10.6194 596 118.471 426.312 485.883
526 0 59.1084 11.0813 655 115.6 426.082 482.624
527 0 62.1453 13.1144 815 110.45 425.632 482.688
528 0 62.1752 12.4487 774 113.031 425.749 481.229
529 0 67.1535 12.4491 836 117.795 425.873 480.128
530 0 68.122 12.0519 821 116.536 425.6 478.48
531 0 70.1033 11.8825 833 116.275 425.054 474.915
532 0 71.0991 11.913 847 118.183 424.502 477.032
533 0 76.0788 12.0533 917 114.942 424.652 474.426
534 0 79.1553 11.3953 902 115.684 425.043 472.312
535 0 83.1275 13.1725 1095 114.17 424.941 471.636
536 0 85.2276 12.2496 1044 115.744 425.129 470.721
537 1 42.0537 10.653 448 107.103 425.042 491.913
538 0 44.0534 10.6008 467 107.683 425.041 491.248
539 0 46.0286 10.6456 490 105.414 425.367 493.139
540 0 47.1614 11.9589 564 103.846 425.261 491.206
541 0 48.182 10.9377 527 105.116 425.577 488.746
542 0 49.1042 10.8545 533 106.144 425.717 488.394
543 0 51.0821 10.7866 551 105.786 425.724 486.862
544 0 53.0967 11.9405 634 103.355 425.158 484.771
545 0 54.2319 9.90192 537 114.406 425.596 487.162
546 0 56.1628 12.1433 682 110.226 425.518 485.862
547 0 57.2211 10.4157 596 113.228 425.458 484.809
548 0 60.1366 13.037 784 106.895 426.006 484.376
549 0 62.0983 11.7395 729 109.941 425.365 481.697
550 0 65.1836 12.2884 801 107.979 426.032 482.851
551 0 67.1254 12.7523 856 101.59 425.653 481.525
552 0 68.0619 11.8275 805 103.663 426.65 481.188
553 0 70.1195 12.0509 845 103.743 425.824 479.436
554 0 73.0469 12.4167 907 103.775 425.732 478.797
555 0 76.1673 12.4988 952 109.008 425.454 477.684
556 0 80.1222 12.4435 997 108.645 425.337 477.491
557 0 82.1113 12.7266 1045 107.553 425.492 476.62
558 0 85.1401 12.0272 1024 107.334 424.854 474.565
559 0 88.1163 12.1771 1073 109.351 425.629 470.999
560 1 45.2777 11.1976 507 105.363 425.406 491.718
561 0 47.2381 11.0504 522 107.113 425.881 488.904
562 0 51.3651 12.343 634 105.863 425.752 487.226
563 0 51.2896 14.1549 726 103.697 425.101 488.65
564 0 51.0355 11.4234 583 108.671 425.695 489.654
565 0 52.0301 11.6279 605 108.028 426.119 490.152
566 0 58.1199 13.7818 801 102.171 425.63 488.795
567 0 57.0695 13.4222 766 105.662 425.443 487.624
568 0 59.0665 14.1705 837 104.305 425.452 486.485
569 0 62.1019 14.2669 886 102.6 425.713 485.375
570 0 62.0647 12.5514 779 108.145 425.2 484.787
571 0 65.0654 14.4163 938 104.595 425.577 483.648
572 0 67.0655 14.2547 956 105.802 424.99 481.575
573 0 69.0524 12.9177 892 110.098 424.956 481.578
574 0 71.0952 14.1079 1003 108.962 424.602 481.024
575 0 74.0404 12.9389 958 111.492 424.787 479.717
576 0 76.0552 14.3448 1091 109.355 425.083 479.082
577 0 79.094 14.2994 1131 110.638 424.952 477.312
578 0 82.056 13.893 1140 112.538 425.054 475.082
579 0 85.0684 13.8124 1175 115.686 425.22 473.741
580 0 90.0745 13.8552 1248 114.821 425.146 473.332
581 1 44.1826 12.1994 539 116.134 425.714 494.384
582 0 47.0287 13.2472 623 113.835 425.404 492.563
583 0 47.0476 11.8603 558 118.421 425.638 492.486
584 0 49.0252 13.9928 686 114.92 425.427 490.598
585 0 51.0475 13.223 675 116.776 425.461 490.527
586 0 54.0398 13.7121 741 122.418 425.286 488.838
587 0 56.0434 14.1141 791 119.774 425.196 488.53
588 0 57.0981 13.4155 766 121.538 425.621 487.787
589 0 57.0333 13.2379 755 120.948 425.587 485.624
590 0 61.0676 12.7891 781 120.312 425.446 485.946
591 0 62.0511 12.9409 803 121.126 425.05 483.453
592 0 64.0655 12.2531 785 122.869 425.436 483.771
593 0 67.1289 13.6901 919 119.099 425.556 484.051
594 0 68.0654 13.8837 945 120.468 425.614 480.943
595 0 72.0898 13.1919 951 122.168 425.151 481.326
596 0 73.0817 12.7939 935 124.433 425.401 480.237
597 0 77.1223 14.3409 1106 121.419 425.726 477.639
598 0 79.0986 15.0319 1189 119.851 425.846 475.515
599 0 81.1144 13.2652 1076 125.571 425.689 474.308
600 0 86.2514 13.9592 1204 123.581 425.635 472.071
601 0 87.1966 13.4294 1171 127.152 425.286 471.345
602 0 91.1612 13.8217 1260 127.002 425.427 469.615
603 0 93.2996 13.9658 1303 126.672 425.226 468.019
604 0 100.179 14.6737 1470 123.85 425.316 466.421
605 1 50.15 12.2233 613 122.481 425.695 491.276
606 0 52.0816 13.21 688 120.647 425.545 489.935
607 0 53.1295 12.8366 682 120.921 425.773 489.308
608 0 54.0639 13.0401 705 122.93 425.566 489.407
609 0 57.0305 12.7125 725 122.815 425.582 488.145
610 0 61.0656 14.5745 890 118.661 425.86 484.896
611 0 62.0507 13.8113 857 120.354 425.126 484.929
612 0 64.0953 13.9324 893 120.174 425.7 484.828
613 0 65.0274 13.0099 846 123.599 425.383 484.66
614 0 69.0859 14.0984 974 120.838 425.172 481.255
615 0 72.0524 13.9065 1002 121.318 425.049 480.696
616 0 74.0718 13.0279 965 124.266 424.851 481.501
617 0 76.1523 13.8407 1054 122.962 424.861 479.284
618 0 80.0608 14.3391 1148 123.015 424.515 477.296
619 0 81.0931 13.9346 1130 124.955 425.115 476.581
620 0 85.1263 14.0967 1200 124.171 425.765 474.668
621 0 87.2529 13.1457 1147 126.45 425.563 473.548
622 1 47.0282 11.1635 525 133.48 425.718 492.901
623 0 48.0654 12.379 595 130.879 425.21 492.592
624 0 50.0411 12.8694 644 129.571 425.373 491.714
625 0 52.0736 14.1338 736 126.504 424.592 492.109
626 0 54.0619 13.947 754 126.111 425.151 488.847
627 0 55.046 13.7158 755 128.78 425.18 488.127
628 0 56.1049 14.2055 797 127.274 425.481 488.693
629 0 60.1125 14.5727 876 124.805 425.281 487.603
630 0 61.0767 14.1789 866 126.809 424.902 486.393
631 0 64.0548 13.5821 870 128.593 425.063 485.486
632 0 66.071 13.6974 905 130.043 424.966 482.712
633 0 69.1812 13.9055 962 128.393 425.176 482.062
634 0 69.1312 14.1181 976 129.34 424.889 480.847
635 0 74.0898 14.1585 1049 128.07 424.957 480.501
636 0 77.1294 13.8987 1072 130.168 424.458 477.914
637 0 79.1084 14.4991 1147 128.652 425.463 475.623
638 0 84.1614 14.3534 1208 128.038 425.562 476.108
639 0 87.091 15.1795 1322 126.409 424.938 474.263
640 0 92.1135 14.2324 1311 129.498 424.265 472.384
641 0 93.1556 14.6314 1363 129.027 424.888 471.277
642 1 49.0374 12.3375 605 140.828 425.603 490.752
643 0 51.0256 12.4839 637 139.359 425.677 488.435
644 0 54.0293 15.2695 825 131.665 424.6 488.679
645 0 55.0473 14.206 782 133.855 423.772 487.017
646 0 55.059 12.9861 715 138.792 423.754 489.298
647 0 59.0431 14.2269 840 134.771 424.274 487.896
648 0 60.0772 13.9654 839 134.937 424.458 486.959
649 0 63.0758 14.7759 932 133.018 424.152 483.882
650 0 64.1638 13.2006 847 137.545 423.985 485.571
651 0 67.075 14.7 986 133.09 424.045 483.227
652 0 68.1311 13.5181 921 137.522 423.704 482.233
653 0 71.0612 13.9457 991 136.214 423.23 481.63
654 0 73.0944 14.0914 1030 134.912 422.95 479.875
655 0 76.0647 13.7383 1045 135.623 423.876 479.304
656 0 79.0574 14.2302 1125 132.583 423.877 477.991
657 0 79.0948 14.0085 1108 135.15 423.526 476.282
658 0 85.0196 14.6672 1247 130.969 423.241 474.791
659 0 87.1385 13.1515 1146 134.26 423.308 475.005
660 0 91.0987 14.5886 1329 129.472 423.573 471.861
661 0 92.0732 14.1627 1304 131.962 423.601 469.932
662 0 95.0489 12.9302 1229 135.153 423.62 468.645
663 1 51.0462 11.6365 594 136.461 423.369 488.412
664 0 51.0216 12.1713 621 135.576 423.457 488.043
665 0 55.0969 12.959 714 128.535 424.272 487.017
666 0 56.2512 12.9775 730 129.205 423.856 485.792
667 0 59.2625 13.8199 819 129.181 424.343 485.408
668 0 61.0686 13.3784 817 129.597 424.165 484.854
669 0 63.2586 14.6699 928 123.974 424.185 483.719
670 0 66.1114 13.2957 879 126.982 424.557 483.063
671 0 67.0842 13.9973 939 121.758 424.596 482.84
672 0 68.1954 14.4291 984 122.565 424.218 482.978
673 0 70.2124 13.4307 943 124.646 424.604 480.338
674 0 73.2345 14.0371 1028 122.762 424.481 480.232
675 0 75.1708 12.5714 945 126.753 424.868 479.316
676 0 78.1434 12.7586 997 126.209 425.629 478.572
677 0 82.1277 13.6495 1121 122.956 425.108 476.682
678 0 84.0906 13.8422 1164 122.125 424.405 474.196
679 0 86.2059 12.8529 1108 125.33 423.935 473.173
680 0 91.2341 13.5037 1232 125.043 423.903 470.351
681 0 95.1811 14.194 1351 122.583 424.129 469.115
682 1 49.0203 12.811 628 126.565 424.338 491.037
683 0 49.0723 13.4088 658 126.944 423.752 490.476
684 0 52.1339 14.1175 736 125.356 424.05 488.215
685 0 55.066 13.9651 769 123.265 424.533 489.371
686 0 56.1255 14.8417 833 123.989 424.487 487.764
687 0 58.0847 15.0814 876 123.182 424.779 486.787
688 0 60.1426 14.6319 880 123.301 425.045 486.722
689 0 61.1255 14.4293 882 125.062 424.463 484.27
690 0 63.099 14.9765 945 124.204 424.913 483.81
691 0 66.2399 15.1117 1001 123.075 424.426 484.329
692 0 67.1509 14.7876 993 124.88 424.579 483.265
693 0 70.1001 15.8488 1111 121.206 424.188 480.164
694 0 72.2215 14.7325 1064 124.401 423.91 479.363
695 0 76.1822 16.1061 1227 118.954 424.542 478.867
696 0 76.1087 15.2414 1160 122.535 424.374 477.455
697 0 80.2188 16.0187 1285 119.483 424.31 476.55
698 0 82.2251 15.5305 1277 120.85 424.255 473.537
699 0 86.146 15.497 1335 120.667 424.262 472.247
700 0 88.2381 15.6848 1384 120.69 424.491 472.199
701 0 92.2874 16.1994 1495 118.312 424.033 469.833
702 0 96.239 16.0122 1541 118.36 424.371 468.203
703 0 99.39 15.2832 1519 119.083 424.423 466.63
704 0 102.216 14.8705 1520 119.584 424.503 466.306
705 1 51.3088 13.3505 685 128.564 424.609 488.888
706 0 53.2222 14.3173 762 125.352 425.6 488.982
707 0 54.1229 14.3932 779 126.083 425.245 487.561
708 0 56.2955 14.2463 802 125.933 425.626 486.753
709 0 59.0887 15.8575 937 120.469 425.308 483.807
710 0 63.3034 15.639 990 119.16 425.569 484.983
711 0 64.29 15.4767 995 120.808 425.566 481.921
712 0 67.1115 15.5264 1042 119.829 425.694 481.883
713 0 69.1857 14.7429 1020 123.679 425.13 479.37
714 0 73.1475 16.8837 1235 116.589 425.125 478.865
715 0 73.2375 15.006 1099 123.224 424.665 477.798
716 0 76.1755 15.5168 1182 123.787 424.842 476.314
717 0 80.2642 16.4457 1320 120.097 425.073 474.843
718 0 81.2566 15.0757 1225 125.344 425.253 473.774
719 0 83.2485 15.1835 1264 126.211 425.321 472.029
720 0 88.3404 15.8365 1399 123.916 425.523 470.143
721 0 91.3286 15.9205 1454 124.345 425.327 468.023
722 0 94.1771 15.2372 1435 126.313 425.27 465.521
723 0 100.297 16.2617 1631 121.579 425.17 465.14
724 1 50.2064 12.4287 624 129.373 425.349 488.529
725 0 52.1369 14.1934 740 126.469 425.703 486.304
726 0 54.1448 15.4955 839 123.8 425.729 486.238
727 0 56.161 14.3338 805 128.467 425.661 485.76
728 0 59.2491 15.072 893 126.811 425.595 483.86
729 0 59.2294 13.2535 785 133.597 425.396 483.321
730 0 63.2051 15.1412 957 128.223 425.565 481.666
731 0 66.3005 15.0376 997 127.913 424.809 481.451
732 0 69.1686 15.1948 1051 128.789 424.851 479.307
733 0 71.3373 15.2375 1087 129.545 424.607 477.632
734 0 73.3746 14.7054 1079 131.249 425.11 477.766
735 0 78.3984 16.7988 1317 124.723 424.561 475.604
736 0 78.2243 14.4329 1129 134.354 424.964 472.977
737 0 84.3952 16.6123 1402 125.246 424.481 470.437
738 0 87.5018 16.354 1431 126.869 424.703 470.5
739 0 87.3793 15.2553 1333 133.218 424.636 469.297
740 0 91.2361 16.1449 1473 131.212 424.997 466.777
741 0 94.5559 16.2444 1536 130.557 425.048 467.264
742 0 97.3729 14.7474 1436 135.295 424.607 465.072
743 0 104.214 16.6196 1732 128.07 424.516 463.02
744 0 107.398 15.5683 1672 132.029 424.369 460.397
745 1 57.2533 13.3617 765 134.051 425.01 484.161
746 0 59.2696 13.7676 816 133.706 425.504 483.353
747 0 61.3017 14.4368 885 133.589 425.229 482.049
748 0 64.4337 13.8902 895 135.427 425.215 480.841
749 0 66.2901 13.9387 924 136.12 425.432 480.161
750 0 69.3653 14.3732 997 135.061 425.241 477.273
751 0 72.3552 14.5532 1053 136.25 425.549 474.416
752 0 75.3345 14.1104 1063 138.087 425.142 473.463
753 0 79.2618 14.5467 1153 135.825 424.775 474.163
754 0 80.2593 14.9391 1199 138.321 424.764 471.019
755 0 81.3431 13.2648 1079 144.526 424.869 468.949
756 0 87.3143 14.5795 1273 139.811 424.787 468.812
757 0 88.2936 13.7836 1217 144.226 424.625 466.745
758 0 93.4689 14.4219 1348 141.478 424.786 464.609
759 0 96.3206 15.8325 1525 137.249 424.852 462.864
760 0 99.4662 14.5979 1452 141.643 424.583 463.024
761 0 102.493 14.1766 1453 143.171 424.684 460.16
762 0 102.287 14.2442 1457 145.876 424.244 455.085
763 0 111.363 15.1308 1685 140.081 424.261 456.285
764 0 114.277 14.2461 1628 144.027 424.26 453.908
765 0 120.246 14.7448 1773 138.058 425.174 455.432
766 1 59.1564 11.8668 702 144.118 425.467 482.621
767 0 64.2915 13.8276 889 138.151 425.193 480.276
768 0 64.1522 13.3744 858 142.711 426.082 479.688
769 0 66.2726 12.9314 857 144.467 425.559 478.575
770 0 69.1328 13.7995 954 141.32 425.491 477.544
771 0 71.2953 13.8018 984 144.63 425.423 475.102
772 0 74.2182 14.0262 1041 144.423 424.707 473.477
773 0 77.1923 13.6801 1056 144.773 424.964 472.475
774 0 81.1543 14.1829 1151 142.864 425.147 472.472
775 0 83.2801 14.8175 1234 142.015 425.518 470.209
776 0 84.1989 14.7745 1244 143.643 424.772 468.929
777 0 86.1974 14.8032 1276 144.929 425.075 466.74
778 0 89.2308 15.1181 1349 142.895 425.358 466.294
779 0 92.2519 14.146 1305 147.029 425.702 463.53
780 0 93.21 15.3202 1428 142.912 426.085 463.387
781 0 95.1624 14.1127 1343 147.605 425.792 460.501
782 0 98.1931 14.0336 1378 147.599 425.88 459.251
783 0 104.332 14.3772 1500 143.819 425.631 457.952
784 0 109.202 15.7965 1725 137.863 425.529 456.293
785 0 108.3 14.3859 1558 144.773 424.924 455.335
786 0 115.322 15.7819 1820 138.585 425.207 452.368
787 0 115.525 14.5942 1686 143.88 425.444 450.303
788 0 121.236 14.4676 1754 142.411 424.824 448.017
789 1 60.1103 10.331 621 141.784 425.068 477.055
790 0 62.0818 9.98682 620 142.711 425.753 475.813
791 0 64.3044 10.5903 681 140.836 425.819 470.758
792 0 68.1311 12.3145 839 135.154 426.186 470.514
793 0 64.1458 10.5853 679 143.697 425.959 465.965
794 0 71.1632 11.2277 799 138.733 425.821 466.773
795 0 73.314 11.6485 854 138.238 425.903 466.204
796 0 75.1748 10.9877 826 139.096 426.153 465.875
797 0 78.1739 13.5467 1059 130.793 425.438 461.705
798 0 77.2074 12.3304 952 137.316 425.13 462.126
799 0 82.1868 12.2647 1008 137.355 425.425 460.982
800 0 84.1654 11.0021 926 142.206 425.048 458.214
801 0 86.1883 10.6395 917 143.45 424.82 456.216
802 0 90.1273 9.96368 898 143.362 425.577 456.003
803 0 93.2055 10.8255 1009 138.955 424.946 455.47
804 1 50.0403 8.19339 410 112.283 425.678 481.69
805 0 57.0631 10.8476 619 119.669 425.963 484.349
806 0 60.1065 11.3798 684 117.221 426.219 485.871
807 0 60.1096 10.3478 622 122.307 426.008 484.058
808 0 63.0223 9.12375 575 127.424 423.786 483.33
809 0 65.0492 10.2384 666 126.329 423.871 479.664
810 0 66.0567 9.06796 599 128.073 423.83 479.13
811 0 68.0447 9.3615 637 126.397 423.105 478.115
812 0 71.1376 8.23755 586 126.744 423.592 477.863
813 0 71.0873 8.82014 627 124.995 423.885 478.089
814 0 73.0673 8.60851 629 125.202 423.612 478.312
815 0 77.2078 9.44205 729 123.106 424.529 474.514
816 0 76.2123 9.02741 688 122.993 424.029 474.36
817 0 79.0938 8.72382 690 122.486 424.33 472.839
818 0 85.2165 9.39959 801 118.905 424.614 473.996
819 0 83.1962 7.80084 649 124.561 424.354 469.949
820 0 86.2083 7.27308 627 126.573 424.818 468.44
821 0 94.1741 11.723 1104 112.878 424.675 462.229
822 0 95.2006 11.9327 1136 114.626 424.708 462.584
823 0 95.222 9.77715 931 121.443 424.749 463.606
824 0 99.1193 9.46334 938 122.326 424.86 463.259
825 0 102.252 8.21498 840 124.487 423.893 460.798
826 1 54.0527 8.06621 436 113.479 423.933 487.057
827 0 57.0872 9.51176 543 110.972 423.726 485.026
828 0 59.0626 9.22749 545 111.116 423.479 487.429
829 0 59.046 9.31476 550 113.193 423.418 484.767
830 0 64.0539 7.68103 492 114.961 423.856 485.199
831 0 64.0715 7.19509 461 115.816 423.991 485.171
832 0 66.133 8.33169 551 115.207 423.88 482.681
833 0 69.1156 8.81132 609 114.979 423.213 478.494
834 0 69.1166 9.07163 627 113.131 423.582 478.408
835 0 68.1422 7.24954 494 115.812 423.399 482.543
836 0 72.1249 8.15252 588 111.935 423.451 481.721
837 1 148.253 9.48379 1406 131.394 423.626 437.231
838 0 153.242 9.84066 1508 130.668 422.971 433.749
839 0 158.471 10.1028 1601 132.446 422.511 428.721
840 0 162.396 9.6985 1575 133.605 423.068 426.121
841 0 169.424 9.20179 1559 133.419 423.106 429.053
842 1 89.2893 7.64929 683 114.085 423.616 470.862
843 0 96.2649 8.26885 796 113.127 423 470.338
844 0 95.2141 7.51989 716 120.116 424.155 471.515
845 0 100.18 10.2515 1027 114.749 425.181 463.123
846 0 101.246 9.58062 970 116.579 425.522 463.384
847 1 53.0902 9.26725 492 110.307 425.301 487.112
848 0 56.0793 10.0037 561 108.902 425.385 486.797
849 0 55.0762 9.76829 538 111.442 425.11 484.039
850 0 59.0729 9.80145 579 108.8 423.884 485.696
851 0 60.2322 8.2016 494 112.206 425.263 485.275
852 0 64.0781 10.5808 678 108.528 424.404 482.718
853 0 64.1587 10.5052 674 110.791 424.613 482.568
854 0 66.0622 9.80893 648 111.127 424.421 482.207
855 0 66.1068 8.47114 560 113.636 422.127 482.107
856 0 69.1994 9.78333 677 112.82 423.801 482.006
857 0 74.0392 11.0752 820 109.402 422.12 479.176
858 0 75.0985 9.25451 695 115.059 423.458 478.6
859 0 79.1062 11.5288 912 111.58 423.836 476.373
860 0 81.1214 11.2177 910 113.581 423.469 474.553
861 1 43.0433 10.6404 458 115.976 424.092 491.483
862 0 46.0687 10.8968 502 113.761 425.689 492.598
863 0 46.0454 12.075 556 111.299 424.5 492.016
864 0 48.0208 10.9328 525 115.051 424.674 489.606
865 0 49.05 12.8848 632 109.149 425.073 491
866 0 49.0786 12.7347 625 108.814 425.656 489.491
867 0 51.0389 12.03 614 111.013 425.09 491.059
868 0 52.038 12.0681 628 111.514 425.495 489.521
869 0 53.0865 12.6586 672 110.323 425.022 488.58
870 0 56.1292 13.8609 778 105.832 425.185 487.548
871 0 56.107 12.993 729 108.554 425.199 487.619
872 0 58.1116 12.7857 743 109.851 424.879 486.59
873 0 60.127 13.0224 783 109.475 425.112 487.174
874 0 61.1113 13.2218 808 110.798 424.098 485.402
875 0 63.1179 12.9916 820 111.876 424.101 484.387
876 0 64.0463 12.7564 817 112.291 424.493 483.752
877 0 67.0944 13.1755 884 111.223 423.647 483.715
878 0 68.0828 13.9389 949 113.251 422.918 481.973
879 0 70.0674 12.8733 902 116.288 422.559 482.486
880 0 72.0911 14.3152 1032 114.239 422.758 479.406
881 0 73.1571 14.0656 1029 117.021 422.696 478.357
882 0 76.1192 13.6234 1037 118.402 423.736 477.077
883 0 78.2152 14.6263 1144 114.738 423.427 479.469
884 0 81.1367 13.7546 1116 114.395 423.336 474.771
885 0 81.1045 12.9586 1051 118.108 423.532 475.198
886 1 46.073 13.2398 610 117.82 423.738 493.41
887 0 45.0458 12.7204 573 119.733 424.126 490.862
888 0 46.1736 11.5001 531 122.957 424.836 490.06
889 0 49.1472 13.6122 669 114.985 424.685 489.347
890 0 52.0824 13.2674 691 115.101 425.022 490.535
891 0 50.0406 12.7297 637 118.772 424.102 490.097
892 0 53.1645 12.8093 681 117.584 424.341 487.53
893 0 54.0806 14.0901 762 115.327 424.026 486.713
894 0 56.3056 12.9472 729 118.069 424.439 486.617
895 0 57.105 14.412 823 114.81 424.176 487.136
896 0 58.1203 14.8657 864 113.35 424.618 484.186
897 0 62.1674 13.4958 839 116.092 424.615 484.739
898 0 62.1026 13.22 821 118.181 424.202 483.588
899 0 64.1258 13.879 890 116.916 424.372 481.974
900 0 64.2204 13.625 875 118.517 424.373 482.536
901 0 67.1213 13.7363 922 118.206 424.192 480.92
902 0 71.0668 14.2683 1014 116.354 424.136 480.108
903 0 72.0668 14.5282 1047 116.958 424.126 478.694
904 0 75.1111 14.2056 1067 118.19 424.477 478.625
905 0 76.1218 13.7805 1049 120.584 423.697 476.223
906 0 79.0573 13.7495 1087 119.605 424.334 475.211
907 0 81.137 13.3108 1080 121.423 424.41 473.579
908 0 85.1713 13.4435 1145 121.527 424.601 473.677
909 0 89.077 14.0103 1248 120.081 424.499 470.982
910 0 92.1566 13.8243 1274 121.39 424.728 468.817
911 1 49.2004 12.2763 604 125.275 423.873 490.882
912 0 49.2141 12.6996 625 123.725 424.251 489.971
913 0 53.0172 13.4107 711 125.82 422.571 489.343
914 0 53.077 13.6406 724 126.446 422.297 488.142
915 0 56.0835 13.3551 749 126.615 422.422 487.35
916 0 56.0267 12.9938 728 129.298 422.136 486.471
917 0 59.0655 12.9179 763 128.05 422.012 486.573
918 0 61.027 13.6169 831 126.684 422.09 484.498
919 0 64.0212 13.8704 888 125.716 422.259 483.66
920 0 63.037 13.1034 826 129.033 422.453 483.776
921 0 67.0587 13.9878 938 125.104 422.727 482.592
922 0 69.0611 13.4229 927 126.521 422.834 481.134
923 0 71.0578 14.256 1013 124.096 422.956 479.603
924 0 75.0363 14.8595 1115 120.574 422.797 478.726
925 0 76.0304 13.6524 1038 123.596 422.717 477.627
926 0 79.0986 14.2607 1128 122.554 423.004 474.907
927 0 82.1168 13.4077 1101 123.476 422.363 474.55
928 0 85.0634 14.0484 1195 121.773 422.82 471.395
929 1 44.0684 11.3914 502 120.835 422.757 492.777
930 0 45.0907 12.5746 567 120.707 423.397 491.63
931 0 46.1534 12.7835 590 119.869 424.017 489.686
932 0 48.0093 13.1016 629 117.394 422.963 490.01
933 0 49.0827 11.8983 584 120.789 423.284 490.231
934 0 49.0484 12.4163 609 120.2 423.788 488.777
935 0 51.0805 11.9028 608 121.023 423.594 488.444
936 0 55.2766 13.749 760 115.482 423.746 486.6
937 0 55.1352 11.9706 660 121.83 423.898 485.535
938 0 57.0775 13.4204 766 116.833 424.356 486.495
939 0 58.0741 13.1039 761 119.058 424.166 484.455
940 0 61.0674 14.0501 858 115.916 424.089 483.991
941 0 63.1806 12.7413 805 120.061 424.169 481.59
942 0 64.0851 12.6394 810 120.337 424.196 481.68
943 0 67.0958 13.8012 926 117.445 424.148 479.324
944 0 69.2136 12.6131 873 119.843 424.282 477.931
945 0 71.1682 14.1074 1004 117.301 425.12 477.771
946 0 75.1697 14.1014 1060 115.306 424.425 477.527
947 0 77.1174 13.7323 1059 116.798 424.316 474.788
948 0 78.2277 13.384 1047 118.526 424.751 474.178
949 0 83.2196 12.9777 1080 118.759 425.454 472.06
950 0 87.1903 13.1437 1146 117.309 424.652 472.58
951 0 88.2366 12.4778 1101 120.724 424.794 470.169
952 0 91.1397 12.9033 1176 118.893 424.516 468.375
953 0 94.1458 13.3623 1258 118.361 424.48 466.196
954 0 95.1632 12.5889 1198 120.133 424.537 465.183
955 1 50.104 11.8354 593 117.177 424.774 488.944
956 0 51.0656 11.73 599 115.982 424.855 487.327
957 0 51.0705 11.8072 603 118.073 424.98 485.723
958 0 52.0952 12.6115 657 118.629 423.907 483.674
959 0 56.0767 11.7696 660 118.161 423.37 485.674
960 0 58.0227 12.0815 701 117.663 423.09 485.228
961 0 61.0581 12.6928 775 115.566 422.543 483.168
962 0 62.0273 12.6073 782 117.48 422.648 481.515
963 0 64.0658 11.7691 754 120.166 422.802 480.775
964 0 67.0232 11.5482 774 119.532 422.559 479.267
965 0 69.0673 13.4217 927 115.857 422.524 477.681
966 0 72.2854 12.091 874 121.281 424.408 478.058
967 0 73.1425 12.5645 919 121.366 424.404 476.929
968 0 77.1777 13.3976 1034 119.865 424.558 475.457
969 0 78.1015 12.9063 1008 122.909 424.407 474.608
970 0 82.1692 14.2389 1170 119.516 424.416 470.908
971 0 86.1248 12.9115 1112 122.028 423.835 470.825
972 0 90.161 13.3761 1206 118.457 424.105 471.091
973 0 91.1566 12.9777 1183 121.327 423.794 468.216
974 1 47.0219 10.5058 494 118.939 425.107 490.138
975 0 49.0339 11.8897 583 113.305 424.298 489.482
976 0 50.0613 11.7656 589 114.482 424.161 488.375
977 0 53.1811 11.8087 628 110.416 425.653 486.987
978 0 53.1016 13.1446 698 110.362 424.984 485.45
979 0 54.2861 12.0841 656 112.512 424.944 484.726
980 0 56.1866 11.8711 667 112.573 425.283 485.678
981 0 58.12 11.6139 675 113.828 424.856 484.576
982 0 59.0994 12.3013 727 113.05 425.087 483.58
983 0 61.0846 11.9343 729 114.314 425.108 483.192
984 0 65.1057 13.7315 894 108.399 425.199 480.723
985 0 66.0419 11.7047 773 114.624 425.008 479.665
986 0 67.0509 13.0945 878 112.185 425.36 478.71
987 0 69.1045 13.4724 931 111.974 425.095 477.046
988 0 72.0606 11.4764 827 115.288 425.045 476.441
989 0 76.0623 12.7527 970 111.212 425.206 476.364
990 0 78.0533 12.6708 989 113.126 424.891 474.082
991 0 80.0468 11.7431 940 115.921 425.245 474.343
992 0 84.1211 13.8253 1163 110.839 425.623 471.321
993 0 85.1018 13.0902 1114 113.496 425.93 471.559
994 0 89.1129 12.9611 1155 113.335 425.931 469.113
995 1 46.0538 10.9437 504 116.339 426.397 491.155
996 0 48.0872 11.7287 564 114.392 425.184 488.667
997 0 50.0128 11.2571 563 118.227 425.995 488.282
998 0 50.0228 11.9746 599 114.893 425.983 487.541
999 0 52.0827 11.3089 589 119.489 425.411 487.856
1000 0 54.0779 12.3341 667 117.399 425.69 486.925
1001 0 57.0462 13.1648 751 114.117 425.431 484.634
1002 0 60.062 13.4361 807 112.002 425.082 485.799
1003 0 62.0878 12.6917 788 114.728 424.967 485.109
1004 0 61.117 13.2206 808 115.926 425.02 483.098
1005 0 65.1471 12.5869 820 116.441 425.485 483.548
1006 0 65.0547 13.5425 881 115.982 425.27 480.678
1007 0 68.1031 13.2446 902 116.487 424.907 479.011
1008 0 70.1677 13.0402 915 115.287 424.585 482.146
1009 0 72.107 13.1887 951 115.591 424.532 479.274
1010 0 75.0902 12.7313 956 116.919 425.03 475.211
1011 0 77.1245 13.4069 1034 115.584 425.039 475.577
1012 0 81.2348 13.701 1113 113.849 424.212 473.547
1013 0 83.1403 12.3045 1023 117.901 424.547 472.108
1014 1 42.0927 10.857 457 114.565 424.678 493.269
1015 0 44.1995 11.1766 494 117.447 424.158 491.107
1016 0 46.1345 12.3552 570 113.502 424.535 491.447
1017 0 48.052 11.7165 563 116.533 424.139 489.249
1018 0 48.0435 12.4471 598 115.472 424.839 488.747
1019 0 51.0518 12.9672 662 113.417 424.607 487.695
1020 0 50.1831 13.0721 656 114.898 424.393 486.791
1021 0 53.0373 13.1228 696 113.332 424.276 486.292
1022 0 53.1365 13.0419 693 113.53 423.124 487.677
1023 0 54.2051 12.5081 678 115.689 423.146 486.801
1024 0 57.2128 11.9379 683 116.082 423.448 485.534
1025 0 59.2431 13.3011 788 112.473 423.657 483.066
1026 0 59.1202 12.8552 760 113.626 423.487 483.937
1027 0 61.157 12.9339 791 112.972 423.616 481.71
1028 0 66.3331 14.1257 937 108.41 423.632 481.447
1029 0 66.1096 11.9498 790 114.505 423.732 480.176
1030 0 68.1481 12.0326 820 113.101 423.889 480.802
1031 0 72.2748 13.0197 941 109.97 423.864 478.184
1032 0 73.2357 12.6578 927 111.901 424.138 476.848
1033 0 75.187 11.6776 878 113.748 424.216 475.541
1034 0 78.173 12.6003 985 112.211 423.996 472.362
1035 0 82.1896 14.0772 1157 108.364 423.633 471.305
1036 0 85.3027 12.5318 1069 111.042 423.236 469.853
1037 1 43.2232 11.591 501 110.846 424.008 489.888
1038 0 45.1436 11.5631 522 109.837 423.791 490.557
1039 0 49.1392 11.6404 572 108.278 424.738 488.976
1040 0 47.0239 11.1645 525 108.274 424.575 486.31
1041 0 48.1368 10.0547 484 106.07 423.395 482.242
1042 0 55.2244 12.3496 682 108.704 424.07 486.072
1043 0 55.2106 12.4251 686 108.582 424.424 485.899
1044 0 56.1769 11.5528 649 110.065 424.428 485.228
1045 0 58.1019 13.4247 780 106.34 423.809 482.869
1046 0 58.1825 12.5124 728 108.808 424.793 483.83
1047 0 57.1694 11.9994 686 111.166 424.532 482.324
1048 0 63.2288 14.0917 891 104.442 424.287 482.112
1049 0 66.2331 13.3317 883 105.434 423.995 481.394
1050 0 69.1925 13.5419 937 104.254 423.839 480.297
1051 0 68.196 12.8747 878 107.568 424.087 479.13
1052 0 72.1768 13.4946 974 105.379 423.98 479.391
1053 0 73.1805 13.5419 991 106.811 424.154 477.465
1054 0 76.1385 13.9614 1063 106.034 424.139 476.137
1055 0 79.1582 12.7087 1006 108.464 424.014 473.755
1056 0 81.282 13.1763 1071 108.114 423.978 473.094
1057 0 83.39 13.5988 1134 107.787 423.883 471.976
1058 0 84.3632 14.0583 1186 108.073 423.51 468.223
1059 0 88.3976 14.3216 1266 107.055 423.273 468.561
1060 0 91.1748 13.4357 1225 109.54 423.244 465.039
1061 0 94.3027 14.1565 1335 109.203 422.757 458.368
1062 0 98.2767 14.1844 1394 108.52 423.193 459.453
1063 0 100.33 13.3759 1342 111.738 422.784 456.807
1064 0 106.377 14.0633 1496 109.291 423.257 452.771
1065 1 53.234 11.8909 633 111.654 423.207 482.607
1066 0 54.0642 12.0597 652 112.133 423.951 485.044
1067 0 57.1517 11.9507 683 111.798 424.899 485.77
1068 0 58.1596 12.3282 717 112.001 424.71 484.858
1069 0 63.0772 12.9207 815 109.561 424.888 484.589
1070 0 64.1132 12.0568 773 113.138 424.585 483.413
1071 0 64.2541 12.3105 791 114.703 424.037 481.933
1072 0 69.1574 13.8525 958 110.338 424.208 481.108
1073 0 71.2102 13.2285 942 113.136 424.729 480.241
1074 0 73.1201 13.8266 1011 112.492 424.854 479.592
1075 0 75.1302 13.7361 1032 114.169 424.874 476.806
1076 0 77.1598 12.1047 934 118.613 424.739 476.86
1077 0 81.1151 15.0034 1217 112.39 424.724 475.641
1078 0 84.1866 15.2993 1288 112.134 424.562 474.14
1079 0 85.2372 14.7119 1254 115.396 424.5 473.317
1080 0 87.2172 15.3066 1335 115.64 424.565 470.341
1081 0 90.2965 14.0205 1266 117.912 424.014 468.373
1082 0 93.383 15.8059 1476 113.65 424.232 466.352
1083 0 97.515 14.4696 1411 117.814 424.329 463.765
1084 0 100.148 13.4101 1343 108.437 424.744 467.105
1085 0 102.293 13.5982 1391 108.829 423.954 464.543
1086 0 107.261 13.6863 1468 113.428 423.733 463.233
1087 1 54.0796 11.742 635 112.499 424.54 487.616
1088 0 53.0759 10.5698 561 111.246 423.747 483.184
1089 0 56.0947 12.265 688 110.74 423.294 486.731
1090 0 58.1094 12.0462 700 111.18 422.469 486.633
1091 0 60.1316 12.1234 729 111.584 422.934 483.872
1092 0 63.1222 12.4679 787 109.826 423.633 483.266
1093 0 65.147 12.9093 841 108.673 423.748 483.331
1094 0 68.0688 12.84 874 109.99 423.466 480.87
1095 0 70.044 12.6206 884 110.068 423.855 478.564
1096 0 73.2375 13.4221 983 107.747 423.42 478.35
1097 0 75.066 12.6555 950 110.764 424.337 476.918
1098 0 78.1434 12.9506 1012 109.942 423.842 475.204
1099 0 80.2114 13.4519 1079 109.406 423.753 473.978
1100 0 83.2564 13.2122 1100 110.223 423.492 473.096
1101 0 87.2369 13.6066 1187 109.492 424.218 472.798
1102 0 86.2327 12.0836 1042 116.418 423.774 471.265
1103 0 92.1811 13.0504 1203 115.065 423.916 468.588
1104 1 49.0409 11.2559 552 111.37 424.495 492.565
1105 0 51.1014 12.5828 643 111.112 424.924 487.311
1106 0 52.0292 11.5512 601 112.912 423.903 489.681
1107 0 55.1468 12.9835 716 110.088 423.244 488.095
1108 0 54.163 11.3177 613 116.254 424.7 486.684
1109 0 55.1093 11.8492 653 114.668 424.086 488.201
1110 0 57.0267 11.8015 673 116.168 423.582 487.522
1111 0 57.1189 10.4694 598 119.689 423.676 487.818
1112 0 61.0797 12.7866 781 115.501 423.557 484.556
1113 0 63.1587 11.2574 711 118.236 423.139 484.383
1114 0 66.1257 11.7655 778 117.949 424.135 482.844
1115 0 68.1235 13.0645 890 115.436 424.282 480.571
1116 0 71.1787 12.0542 858 120.068 424.322 479.195
1117 0 73.2341 13.45 985 116.124 424.019 478.584
1118 0 74.1711 11.7431 871 122.054 424.285 476.261
1119 1 38.0339 10.5432 401 119.606 425.01 495.274
1120 0 41.0424 10.1115 415 118.672 424.419 495.935
1121 0 42.2043 12.2736 518 114.998 422.842 493.546
1122 0 41.1633 10.3004 424 121.656 422.156 491.078
1123 0 46.0977 11.8444 546 116.659 423.311 491.114
1124 0 44.0369 11.4222 503 119.39 424.771 493.143
1125 0 48.1682 13.4113 646 112.429 424.636 491.344
1126 0 47.0289 12.6518 595 117.329 424.63 490.729
1127 0 50.011 11.4375 572 119.755 425.295 490.469
1128 0 52.0591 12.505 651 116.249 424.75 489.894
1129 0 50.0265 11.4939 575 122.762 424.268 490.195
1130 0 54.078 12.7778 691 117.527 424.213 488.077
1131 0 56.0943 12.1403 681 119.927 424.602 488.156
1132 0 57.082 13.0164 743 118.386 424.499 486.821
1133 0 59.0716 13.2043 780 118.871 424.349 486.919
1134 0 60.0536 13.5379 813 119.962 424.208 485.134
1135 0 63.0751 12.8418 810 122.181 424.419 484.394
1136 0 63.0634 12.4795 787 124.949 424.684 484.24
1137 0 66.0625 13.6083 899 122.781 424.239 481.893
1138 0 69.0979 13.6618 944 122.704 424.322 480.459
1139 0 72.2436 13.3437 964 123.368 424.075 479.866
1140 0 74.2012 12.5335 930 126.246 424.12 479.713
1141 0 74.1293 12.1814 903 129.934 423.897 477.693
1142 1 38.0254 10.9401 416 131.916 424.731 496.625
1143 0 41.0427 11.2809 463 132.54 424.737 494.838
1144 0 43.0565 12.681 546 127.764 424.429 493.832
1145 0 44.0319 11.9686 527 131.33 424.326 493.825
1146 0 45.0196 13.061 588 132.524 424.371 492.602
1147 0 46.0922 13.3211 614 131.454 423.588 491.314
1148 0 50.0591 13.504 676 128.185 423.805 489.953
1149 0 49.0354 13.3781 656 131.543 423.168 489.253
1150 0 50.0314 12.9719 649 132.895 423.173 489.872
1151 0 51.0565 12.4764 637 133.097 422.896 488.573
1152 0 53.0439 12.5556 666 132.299 423.128 487.381
1153 0 57.0857 13.6637 780 126.655 423.451 487.588
1154 0 58.1072 13.8709 806 127.734 423.618 486.052
1155 0 61.1262 13.8729 848 126.873 423.785 483.601
1156 0 62.092 13.4317 834 128.335 423.373 483.478
1157 0 63.1249 11.9446 754 132.847 423.496 480.691
1158 0 68.0723 14.2936 973 124.253 423.52 481.532
1159 0 70.1151 13.5064 947 127.595 423.04 480.295
1160 0 68.1245 12.8295 874 143.97 423.047 479.251
1161 0 74.1192 13.9505 1034 129.488 423.026 479.205
1162 0 77.1721 14.0984 1088 129.58 422.784 476.577
1163 1 36.0085 11.6917 421 130.226 423.936 497.527
1164 0 39.0236 11.8902 464 124.571 424.192 496.942
1165 0 40.0964 12.1457 487 121.887 424.306 495.267
1166 0 40.1712 12.1978 490 114.757 423.91 493.051
1167 0 41.0874 11.22 461 117.97 423.77 490.928
1168 0 42.1169 12.0142 506 116.607 423.911 490.709
1169 0 44.0645 11.5739 510 116.582 423.624 491.184
1170 0 45.1488 11.1631 504 118.379 423.724 489.76
1171 0 48.0973 11.9965 577 115.958 422.419 488.896
1172 0 48.0958 11.8098 568 116.544 422.977 488.97
1173 0 49.089 11.2856 554 118.336 423.329 488.117
1174 0 53.125 12.8188 681 115.019 423.424 486.232
1175 0 54.08 13.1102 709 113.392 423.004 486.621
1176 0 56.0636 11.9329 669 116.281 423.17 487.32
1177 0 56.1064 12.3872 695 117.587 422.725 484.288
1178 0 59.1144 12.7718 755 115.036 423.348 485.448
1179 0 62.0993 12.9631 805 115.619 422.692 482.277
1180 0 64.0808 12.6715 812 116.3 422.45 481.938
1181 0 66.0759 13.2878 878 116.076 422.764 480.434
1182 0 69.0771 12.4209 858 118.551 422.83 479.607
1183 0 72.0526 13.2265 953 116.674 422.944 479.201
1184 0 73.0457 12.5127 914 121.756 422.469 478.312
1185 0 75.0957 12.6505 950 121.217 422.035 477.056
1186 1 39.0461 11.4992 449 123.163 423.343 494.472
1187 0 42.0912 12.4254 523 120.289 423.593 493.285
1188 0 44.0511 12.4174 547 120.219 423.537 492.335
1189 0 47.0304 12.7152 598 118.109 423.691 490.744
1190 0 48.0414 13.1137 630 121.871 423.389 491.005
1191 0 49.066 12.208 599 121.828 423.644 490.436
1192 0 51.0953 13.1128 670 113.854 423.524 486.134
1193 0 53.1142 12.7649 678 115.184 423.714 486.742
1194 0 55.0843 13.1072 722 114.528 422.967 485.421
1195 0 56.1671 12.8723 723 116.804 423.49 484.79
1196 0 58.1361 13.176 766 116.717 423.548 485.084
1197 0 59.1363 12.97 767 118.999 423.143 482.576
1198 0 60.1916 12.4768 751 120.623 423.349 483.53
1199 0 63.0923 12.4421 785 119.783 424.299 482.488
1200 0 65.1065 12.2722 799 121.327 424.105 481.816
1201 0 68.0799 11.9272 812 121.771 423.97 480.015
1202 0 69.1992 12.2834 850 122.338 423.892 478.292
1203 0 73.151 12.6724 927 121.084 423.922 479.017
1204 0 74.1944 12.0359 893 123.469 423.153 477.536
1205 0 77.1878 12.5797 971 125.477 422.716 474.736
1206 0 81.2003 13.0541 1060 121.813 423.209 475.992
1207 0 83.1342 12.5821 1046 124.671 422.839 472.518
1208 0 86.1505 12.7335 1097 123.362 423.394 472.957
1209 0 89.1856 12.8496 1146 123.235 423.618 470.339
1210 0 92.2742 12.7555 1177 122.814 423.632 468.397
1211 0 95.2154 13.1281 1250 121.334 423.85 463.774
1212 0 98.2652 12.5477 1233 122.015 423.348 464.475
1213 0 100.207 12.3545 1238 122.778 423.428 463.728
1214 0 105.264 13.0814 1377 120.697 423.736 459.381
1215 0 108.295 12.5398 1358 120.837 424.053 459.571
1216 0 112.217 13.0016 1459 117.589 423.706 457.252
1217 0 116.352 12.5825 1464 117.318 423.865 456.535
1218 0 120.159 12.6249 1517 117.811 423.91 452.884
1219 0 125.342 12.43 1558 119.15 423.802 448.8
1220 1 71.2316 12.4945 890 115.13 423.587 475.51
1221 0 73.2256 13.3287 976 114.139 423.785 477.524
1222 0 74.1167 12.0621 894 117.33 422.709 474.46
1223 0 77.1955 12.708 981 116.314 422.982 472.162
1224 0 82.2724 14.5614 1198 110.533 423.15 472.088
1225 0 84.2946 13.5952 1146 113.987 423.292 467.942
1226 0 87.2366 13.4577 1174 114.204 423.212 467.265
1227 0 89.2494 12.8852 1150 115.529 423.617 466.294
1228 0 92.1877 13.7437 1267 113.676 423.597 462.469
1229 0 96.333 13.8374 1333 112.759 423.347 462.212
1230 0 99.3128 13.2309 1314 113.588 423.865 462.021
1231 0 104.309 14.4666 1509 110.02 423.584 459.148
1232 0 106.171 13.3558 1418 112.482 423.08 458.409
1233 0 107.299 12.8426 1378 114.573 423.132 457.433
1234 1 56.2445 14.028 789 109.025 423.139 482.297
1235 0 58.3814 13.1891 770 118.452 423.414 480.077
1236 0 61.1863 14.1208 864 114.928 424.034 481.319
1237 0 64.1034 14.0242 899 114.517 423.879 479.781
1238 0 66.1487 14.7244 974 113.528 423.691 477.261
1239 0 67.3369 13.2468 892 117.731 424.192 477.456
1240 0 72.2393 13.0261 941 116.125 423.891 476.549
1241 0 73.189 13.39 980 115.659 423.629 474.784
1242 0 77.184 13.565 1047 115.95 423.538 473.285
1243 0 80.4505 14.3194 1152 114.174 423.527 471.768
1244 0 83.1928 14.5926 1214 113.907 423.594 470.371
1245 0 85.3948 14.4388 1233 114.063 422.824 471.466
1246 0 88.4173 13.425 1187 117.183 422.951 467.934
1247 0 93.3624 14.5455 1358 114.065 422.792 468.6
1248 0 97.2648 14.0236 1364 116.482 422.87 465.569
1249 0 100.34 14.4309 1448 115.794 423.061 463.088
1250 0 105.48 14.818 1563 114.158 422.766 462.188
1251 0 108.338 14.2793 1547 114.867 422.878 459.287
1252 1 53.1737 12.2617 652 117.428 423.443 487.232
1253 0 56.1559 12.9817 729 114.855 423.695 485.842
1254 0 58.2689 13.8839 809 113.91 423.132 484.702
1255 0 59.113 14.3285 847 112.66 423.074 484.606
1256 0 61.1876 13.6302 834 115.9 424.01 482.245
1257 0 64.3008 13.9656 898 114.346 423.612 483.519
1258 0 64.1329 13.971 896 116.179 423.61 481.344
1259 0 67.2175 14.0291 943 115.779 423.546 479.848
1260 0 68.1731 14.4045 982 116.266 423.882 476.939
1261 0 73.2758 13.7835 1010 117.239 423.463 478.414
1262 0 75.1881 13.7522 1034 117.451 423.143 478.213
1263 0 78.1043 14.5062 1133 116.12 423.075 475.876
1264 0 82.1743 14.7978 1216 115.312 423.389 474.567
1265 0 86.1744 14.4474 1245 116.649 423.535 474.363
1266 0 89.0798 15.1325 1348 115.016 422.869 472.916
1267 0 91.16 15.1821 1384 116.585 423.025 469.013
1268 0 92.2191 15.1487 1397 117.507 423.259 468.019
1269 0 97.2606 15.3916 1497 116.998 423.693 466.386
1270 0 101.255 15.9301 1613 114.871 422.839 465.382
1271 0 101.314 14.6277 1482 119.877 423.096 465.09
1272 0 106.081 15.2808 1621 117.041 423.543 463.072
1273 0 109.155 15.1253 1651 116.936 422.694 461.371
1274 0 113.335 14.9027 1689 117.876 422.805 459.766
1275 0 118.197 14.4336 1706 118.971 422.801 456.098
1276 1 59.1114 13.1108 775 123.489 423.022 483.074
1277 0 63.0974 14.4855 914 120.525 424.128 481.42
1278 0 64.1751 15.2551 979 119.774 424.266 480.489
1279 0 65.1262 13.9115 906 125.427 423.746 477.858
1280 0 68.1191 14.0343 956 124.527 423.99 479.651
1281 0 71.1365 15.2664 1086 122.25 424.136 477.012
1282 0 72.1409 13.9865 1009 126.655 424.469 473.942
1283 0 76.1423 15.4842 1179 121.873 423.751 472.95
1284 0 79.3403 14.9231 1184 124.378 424.245 472.407
1285 0 81.196 16.1584 1312 121.484 424.072 471.595
1286 0 83.1672 15.4628 1286 124.679 423.597 470.743
1287 0 85.2611 15.3998 1313 126.905 424.024 468.755
1288 0 86.2053 14.9063 1285 129.262 423.353 464.77
1289 0 89.182 15.0142 1339 130.067 423.725 465.894
1290 0 91.1638 15.2473 1390 128.599 423.027 465.545
1291 0 95.1163 16.5061 1570 126.141 423.248 462.821
1292 0 98.2175 15.7508 1547 128.23 423.664 460.983
1293 0 100.19 16.3489 1638 126.951 423.496 459.949
1294 0 102.112 15.0227 1534 132.014 423.597 458.073
1295 0 107.222 16.0602 1722 127.231 423.706 458.365
1296 1 56.1803 12.9405 727 134.607 424.261 480.539
1297 0 59.2805 13.8494 821 132.598 423.989 477.806
1298 0 59.2107 14.7609 874 131.526 424.551 478.002
1299 0 63.2022 13.6704 864 133.31 424.196 477.74
1300 0 64.1612 13.3102 854 135.011 424.591 476.841
1301 0 63.1612 13.0618 825 138.965 423.619 474.455
1302 0 67.1436 12.5254 841 139.835 424.159 472.971
1303 0 70.2219 13.7849 968 136.545 424.365 472.711
1304 0 71.148 13.5914 967 138.565 423.594 470.48
1305 0 73.1681 13.9542 1021 139.014 423.417 468.164
1306 0 77.1139 13.9275 1074 137.987 423.575 468.122
1307 0 78.1931 15.0653 1178 135.659 423.425 466.301
1308 0 78.2143 13.8977 1087 140.889 423.457 464.568
1309 0 82.1447 13.2449 1088 142.94 423.352 463.117
1310 0 85.1715 14.4414 1230 140.504 423.974 460.352
1311 0 88.1793 14.5612 1284 139.958 423.917 459.968
1312 0 93.1254 14.4644 1347 139.505 423.859 457.514
1313 0 93.135 13.0885 1219 144.71 423.837 455.072
1314 0 98.1131 14.0756 1381 140.734 423.413 452.815
1315 0 101.149 13.8706 1403 142.236 423.54 449.065
1316 0 108.272 15.2949 1656 136.078 423.436 450.055
1317 0 111.153 13.7559 1529 141.487 423.223 446.776
1318 0 114.204 13.9313 1591 142.026 423.251 443.909
1319 0 121.264 14.9756 1816 137.9 423.256 442.74
1320 0 124.122 14.5824 1810 139.606 422.993 440.013
1321 0 128.203 14.9294 1914 139.148 423.067 436.229
1322 0 134.364 14.937 2007 139.499 423.441 433.757
1323 0 139.215 17.5699 2446 131.13 422.82 428.91
1324 0 142.358 14.8218 2110 141.001 423.221 428.18
1325 0 146.15 15.0393 2198 141.593 423.688 423.989
1326 0 155.386 14.4479 2245 142.39 423.725 423.63
1327 0 159.268 14.1899 2260 143.985 422.722 421.546
1328 0 166.289 15.4911 2576 140.373 422.888 419.228
1329 0 168.263 14.8814 2504 143.643 422.369 413.502
1330 0 177.25 15.7067 2784 139.728 422.86 411.658
1331 0 183.239 15.3461 2812 142.251 422.502 408.667
1332 0 188.428 15.0667 2839 143.908 422.899 402.636
1333 0 198.345 15.0344 2982 143.616 423.039 398.597
1334 1 36.0159 8.74614 315 104.733 424.238 492.962
1335 0 35.043 8.44677 296 101.047 423.632 494.277
1336 0 34.0666 9.18787 313 101.268 423.064 494.629
1337 0 36.0298 8.79828 317 102.385 423.17 494.312
1338 0 34.0276 6.87676 234 106.393 422.722 494.662
1339 0 36.0606 8.62437 311 103.061 422.994 494.28
1340 0 42.0471 10.1315 426 99.4977 423.038 492.39
1341 0 40.0896 7.40841 297 105.822 423.273 493.155
1342 1 92.2556 7.86944 726 116.733 424.821 466.034
1343 0 92.2899 8.82003 814 117.903 424.391 464.908
1344 0 93.2353 9.00946 840 114.394 423.685 464.519
1345 0 93.377 10.0239 936 112.987 424.032 464.825
1346 0 98.2912 8.94282 879 112.708 423.858 461.271
1347 0 101.235 9.55201 967 111.163 423.905 460.266
1348 0 107.497 8.27002 889 113.367 424.012 457.197
1349 1 53.0493 8.16221 433 101.822 423.289 487.136
1350 0 52.0808 6.79713 354 104.684 422.438 483.39
1351 0 59.0853 8.09001 478 101.475 424.153 480.169
1352 0 61.0925 9.55927 584 98.3288 425.108 481.188
1353 0 62.1825 6.56133 408 102.088 424.877 485.353
1354 0 61.0928 4.87782 298 106.591 424.668 478.597
1355 1 103.49 8.59983 890 108.534 425.006 458.038
1356 0 107.355 9.40801 1010 108.069 423.92 458.961
1357 0 104.529 9.05008 946 108.295 423.35 455.637
1358 0 100.301 8.91313 894 106.229 424.276 460.34
1359 0 101.277 10.2195 1035 105.482 424.188 460.963
1360 0 106.43 7.55427 804 109.969 423.943 459.211
1361 1 155.616 9.6584 1503 109.345 422.647 432.333
1362 0 157.595 9.57519 1509 110.985 422.539 428.147
1363 0 169.051 11.4758 1940 105.373 423.513 427.267
1364 0 172.691 11.2745 1947 106.9 423.639 422.198
1365 0 177.101 11.4511 2028 107.557 423.312 423.183
1366 0 183.78 11.5355 2120 107.407 423.013 422.288
1367 0 182.901 10.328 1889 112.839 423.218 420.497
1368 0 189.65 11.3156 2146 111.589 422.772 417.758
1369 0 199.041 10.6259 2115 112.811 422.87 408.492
1370 0 203.789 12.3707 2521 110.416 422.151 410.065
1371 0 207.551 10.966 2276 114.884 422.798 410.767
1372 0 214.725 9.89636 2125 117.405 422.61 408.012
1373 0 222.608 10.9565 2439 115.934 422.676 407.728
1374 0 228.569 9.66446 2209 118.967 422.709 402.162
1375 0 233.772 9.06438 2119 120.058 422.774 401.562
1376 0 235.58 8.8505 2085 119.826 423.247 407.402
1377 1 34.029 10.4617 356 108.767 424.23 496.784
1378 0 34.0476 9.6042 327 115.064 424.884 497.661
1379 0 34.0476 9.51608 324 120.898 424.867 497.639
1380 0 37.0466 10.2843 381 95.4751 424.984 491.654
1381 0 37.0183 10.1031 374 97.9519 424.54 490.152
1382 0 36.0353 9.85144 355 98.5239 424.87 491.166
1383 0 38.0204 9.57381 364 101.104 424.398 490.407
1384 0 41.0312 9.67556 397 100.831 424.733 488.086
1385 0 42.0578 10.6282 447 101.483 425.329 489.94
1386 0 41.1497 10.4011 428 105.533 422.369 486.862
1387 0 40.0598 10.7589 431 105.432 422.265 487.429
1388 0 39.0904 10.2327 400 108.585 422.26 486.12
1389 0 44.0485 10.6246 468 106.466 422.19 484.748
1390 0 45.078 10.7148 483 106.634 422.625 485.406
1391 0 48.1007 10.1038 486 107.605 422.412 485.722
1392 0 49.1364 10.7659 529 106.792 422.166 484.648
1393 0 50.2529 11.4421 575 106.654 422.056 483.27
1394 0 53.2609 11.6033 618 106.529 422.926 482.332
1395 0 54.1857 12.2542 664 105.295 423.28 481.765
1396 0 53.1419 12.269 652 106.113 422.624 482.163
1397 0 56.1926 10.8199 608 110.368 422.762 479.283
1398 0 56.1877 10.7319 603 110.249 422.587 479.884
1399 0 60.2169 10.4456 629 109.68 422.9 477.444
1400 0 62.2791 11.4966 716 106.844 422.518 477.772
1401 0 65.2034 12.0699 787 104.831 422.404 478.922
1402 0 66.0873 11.3032 747 107.703 421.922 473.736
1403 0 70.1528 11.2754 791 107.024 421.559 472.587
1404 0 74.1353 11.2497 834 106.314 421.946 471.71
1405 0 74.0945 11.2964 837 107.321 421.565 471.527
1406 0 78.119 11.3161 884 106.82 421.224 472.273
1407 0 79.0837 11.0642 875 109.525 421.106 469.502
1408 0 82.15 11.8807 976 108.01 420.944 467.395
1409 1 44.0319 9.83378 433 107.127 421.492 486.356
1410 0 46.273 10.1355 469 105.655 421.902 485.264
1411 0 49.2942 10.5895 522 103.224 421.454 484.916
1412 0 50.2568 11.0831 557 102.406 421.452 483.086
1413 0 50.1993 12.1914 612 102.487 421.949 484.933
1414 0 52.1614 11.7328 612 103.745 421.577 485.381
1415 0 56.1022 12.5842 706 99.5453 421.062 484.727
1416 0 57.1003 12.4693 712 99.3904 421.312 482.555
1417 0 59.1796 11.6594 690 101.58 421.47 481.97
1418 0 59.2161 11.8211 700 101.814 421.13 481.231
1419 0 62.1448 11.0709 688 102.342 422.023 480.624
1420 0 63.171 12.6324 798 99.208 421.825 478.93
1421 0 65.0811 11.8929 774 101.289 421.93 477.973
1422 0 66.1235 11.4634 758 101.728 422.079 476.044
1423 0 70.2359 12.7285 894 98.4732 421.326 476.522
1424 0 70.14 12.0331 844 99.0012 421.769 475.109
1425 0 73.1063 12.6665 926 97.3099 422.306 469.83
1426 0 75.1278 11.6069 872 99.5963 422.63 472.875
1427 0 76.0967 12.7995 974 98.1858 423.436 469.246
1428 0 79.1679 11.9114 943 100.065 422.224 466.332
1429 0 82.1564 11.539 948 101.292 422.32 467.512
1430 0 85.232 12.4718 1063 99.9614 422.433 466.817
1431 0 88.133 11.7209 1033 102.363 422.837 461.8
1432 0 90.1893 12.7731 1152 101.298 423.273 461.74
1433 0 93.1774 12.2025 1137 103.062 422.281 459.907
1434 0 95.1198 12.5946 1198 103.42 422.729 458.511
1435 0 99.2196 13.1526 1305 103.006 421.926 457.279
1436 0 103.248 13.4628 1390 102.745 421.481 454.697
1437 0 106.151 11.7003 1242 107.489 421.461 453.543
1438 0 110.255 13.9767 1541 103.111 421.611 454.289
1439 1 57.0884 11.4034 651 106.627 421.562 479.154
1440 0 60.0658 12.0202 722 105.148 421.831 478.496
1441 0 62.016 12.0453 747 105.809 421.62 477.051
1442 0 64.0808 13.046 836 103.401 422.01 478.121
1443 0 66.1029 14.0841 931 100.048 421.941 474.411
1444 0 67.1002 11.7287 787 104.954 422.128 475.61
1445 0 71.0803 12.507 889 103.241 422.379 474.94
1446 0 72.1611 13.3313 962 102.131 422.638 472.734
1447 0 74.1043 12.8872 955 102.806 422.306 473.402
1448 0 75.0977 12.8899 968 103.866 422.143 471.293
1449 0 77.1991 12.7204 982 104.224 422.351 472.189
1450 0 80.0965 13.2715 1063 105.365 423.943 472.322
1451 0 82.1364 13.0758 1074 107.523 423.771 473.486
1452 0 83.2284 12.676 1055 109.825 424.114 471.355
1453 0 88.1907 13.5842 1198 107.61 423.588 468.069
1454 0 90.3587 13.1033 1184 109.542 423.298 466.975
1455 0 94.2678 14.1087 1330 107.181 423.598 466.077
1456 0 97.3137 13.626 1326 108.114 423.224 464.672
1457 0 101.336 12.9371 1311 109.25 423.075 461.869
1458 0 104.431 12.7452 1331 109.99 422.579 459.768
1459 1 53.0951 10.7355 570 107.037 422.854 476.482
1460 0 55.1528 11.1508 615 108.327 423.854 475.543
1461 0 55.1233 10.7214 591 107.33 423.437 477.418
1462 0 59.1391 11.5998 686 104.867 422.427 476.34
1463 0 61.2288 11.4652 702 103.538 422.134 476.989
1464 0 62.1971 11.1259 692 104.123 422.584 475.906
1465 0 65.1558 13.0456 850 101.109 423.785 473.616
1466 0 65.2475 11.5867 756 103.966 423.06 473.857
1467 0 69.2031 11.9359 826 103.177 423.471 472.809
1468 0 70.2725 12.0531 847 102.985 423.519 473.577
1469 0 71.212 12.0064 855 103.896 424.074 472.605
1470 0 76.1241 12.5453 955 101.252 423.58 474.15
1471 0 77.2134 12.7439 984 102.659 422.874 470.599
1472 0 78.172 11.577 905 104.67 422.431 470.818
1473 0 82.1926 11.8867 977 103.563 422.875 469.643
1474 0 85.143 13.2718 1130 101.433 422.754 468.379
1475 0 87.2806 12.1333 1059 102.629 422.679 468.073
1476 0 89.2139 12.229 1091 103.012 422.581 467.643
1477 1 46.2559 11.1986 518 99.6641 422.448 487.044
1478 0 50.0962 12.3762 620 99.8565 422.256 487.373
1479 0 51.1105 12.9719 663 99.6667 422.445 486.495
1480 0 50.0758 11.8421 593 102.03 422.572 486.088
1481 0 52.0534 13.3517 695 99.9612 422.908 485.288
1482 0 54.0888 12.1467 657 101.871 422.406 486.19
1483 0 53.0406 11.6892 620 104.223 421.89 485.179
1484 0 58.0316 12.9757 753 100.171 421.502 484.219
1485 0 58.052 12.2476 711 102.17 421.931 482.543
1486 0 61.0828 13.539 827 98.8307 422.042 481.964
1487 0 62.0778 11.6145 721 103.426 421.806 483.37
1488 0 65.1747 12.5969 821 101.158 422.08 482.369
1489 0 66.087 12.7559 843 101.722 422.021 479.321
1490 0 67.1589 13.2522 890 102.08 422.152 479.353
1491 0 71.0707 12.6212 897 102.604 421.986 479.382
1492 0 73.101 13.3104 973 103.845 421.985 475.617
1493 0 76.0809 13.7222 1044 104.439 421.992 475.962
1494 0 78.093 13.3815 1045 106.314 422.635 474.324
1495 0 80.0508 13.0667 1046 107.44 421.718 475.335
1496 0 82.0651 12.6729 1040 109.738 421.697 473.651
1497 0 87.1179 13.9925 1219 106.447 422.135 472.934
1498 0 90.0583 12.8694 1159 109.771 421.733 471.714
1499 0 92.1135 13.3422 1229 110.012 421.827 466.914
1500 0 94.0813 12.5211 1178 111.562 421.882 469.058
1501 1 48.0268 11.2854 542 115.4 421.47 489.203
1502 0 51.0292 12.0323 614 115.091 421.015 488.625
1503 0 53.0558 11.29 599 107.534 423.357 487.761
1504 0 55.1585 12.7451 703 104.063 422.873 483.236
1505 0 54.0925 11.9425 646 108.591 423.147 485.187
1506 0 56.1108 13.8832 779 107.938 423.836 484.366
1507 0 57.1086 12.3099 703 112.807 424.051 485.528
1508 0 56.0372 13.5446 759 112.387 423.736 483.523
1509 0 58.0394 13.7493 798 112.496 422.34 484.979
1510 0 59.0558 13.1232 775 115.27 422.671 483.577
1511 0 62.0569 13.9227 864 110.824 421.645 483.35
1512 0 65.0334 14.3003 930 108.794 421.246 481.699
1513 0 67.0397 14.1409 948 108.278 421.343 479.979
1514 0 67.0738 13.597 912 108.799 421.859 480.803
1515 0 69.0849 12.4774 862 111.551 421.65 480.472
1516 0 73.1336 12.7575 933 110.833 422.164 478.347
1517 0 74.0383 12.5205 927 112.905 421.407 477.471
1518 0 78.1699 14.5069 1134 107.35 422.068 476.041
1519 0 79.0931 13.8697 1097 110.507 422.149 474.779
1520 0 82.1338 13.9407 1145 110.706 422 474.129
1521 0 83.0425 12.8007 1063 115.173 422.176 470.378
1522 0 86.2197 12.5029 1078 116.096 421.971 471.375
1523 0 89.072 12.866 1146 116.392 422.704 469.7
1524 1 42.0811 11.0976 467 118.298 421.542 492.206
1525 0 46.0609 11.6802 538 118.461 421.61 492.197
1526 0 45.0837 12.3326 556 117.097 423.665 491.009
1527 0 48.0533 12.1948 586 116.782 423.575 490.075
1528 0 48.0543 11.1541 536 120.547 423.407 490.815
1529 0 50.0569 12.6057 631 118.195 423.719 488.219
1530 0 53.057 12.986 689 116.343 424.078 488.466
1531 0 54.0837 12.4067 671 118.917 423.542 487.417
1532 0 54.0507 11.6927 632 122.96 422.905 487.253
1533 0 57.0945 13.2412 756 119.099 423.037 486.418
1534 0 56.0672 12.271 688 124.613 422.852 487.376
1535 0 58.0568 12.9184 750 123.52 423.239 486.963
1536 0 60.0602 12.4042 745 125.526 421.878 485.513
1537 0 62.079 12.3069 764 125.016 422.675 483.543
1538 0 64.1149 12.3996 795 125.567 422.737 483.17
1539 0 66.142 12.6244 835 125.496 422.522 481.713
1540 0 69.154 12.7975 885 124.853 422.154 480.27
1541 0 72.1181 12.4795 900 125.989 421.908 478.277
1542 0 75.126 13.4441 1010 122.92 422.657 478.778
1543 0 76.0497 13.2808 1010 123.728 422.611 478.887
1544 0 80.0517 13.7161 1098 123.086 421.355 476.474
1545 0 82.0781 12.9754 1065 125.508 421.292 475.945
1546 0 86.1386 13.3622 1151 123.855 421.787 473.224
1547 0 89.1474 13.4272 1197 122.71 421.974 472.783
1548 1 43.1033 12.0873 521 126.284 421.539 492.929
1549 0 45.0756 12.113 546 124.659 421.663 492.172
1550 0 48.0316 13.1164 630 119.732 421.827 491.214
1551 0 48.0613 12.9626 623 120.75 421.266 489.984
1552 0 51.0391 13.2448 676 117.485 421.558 490.013
1553 0 51.0597 13.1023 669 118.348 421.561 488.65
1554 0 54.1081 12.974 702 117.209 421.165 488.993
1555 0 54.093 12.9776 702 117.799 420.491 488.991
1556 0 58.087 14.7882 859 112.808 421.437 486.909
1557 0 59.1031 13.3496 789 117.076 421.053 487.619
1558 0 60.0745 11.9851 720 121.647 420.329 485.075
1559 0 64.0828 13.5762 870 116.59 420.233 484.348
1560 0 66.1392 14.031 928 115.556 420.858 482.317
1561 0 68.0556 13.2392 901 119.124 420.71 482.171
1562 0 72.0407 14.7278 1061 113.274 420.939 481.027
1563 0 72.0843 14.4276 1040 116.424 420.938 478.496
1564 0 77.1494 13.4155 1035 117.378 421 479.242
1565 0 79.0278 13.5902 1074 116.78 421.294 477.974
1566 0 83.0495 13.6906 1137 116.313 421.289 476.699
1567 0 85.1958 14.1908 1209 114.974 421.143 472.17
1568 1 46.0227 12.2114 562 119.294 421.155 492.6
1569 0 49.082 12.9783 637 116.171 422.105 491.83
1570 0 50.036 14.8693 744 111.156 421.968 490.231
1571 0 53.1057 13.8968 738 113.171 422.046 489.06
1572 0 53.0979 12.9195 686 116.786 421.612 488.079
1573 0 55.1345 12.7144 701 116.341 421.029 488.026
1574 0 57.0691 12.774 729 116.664 421.288 487.713
1575 0 59.1376 14.2718 844 112.143 421.494 483.991
1576 0 61.1686 13.9451 853 113.154 421.175 483.913
1577 0 65.154 14.1357 921 111.607 421.092 483.168
1578 0 64.0887 12.7792 819 116.247 421.729 483.364
1579 0 67.1223 13.1551 883 114.686 420.977 481.926
1580 0 70.2333 14.0674 988 112.964 420.746 480.975
1581 0 72.1833 14.3524 1036 112.686 420.487 478.916
1582 0 72.0786 13.5408 976 116.898 421.638 476.527
1583 0 77.1422 13.5205 1043 115.311 421.309 475.513
1584 0 81.2611 13.2536 1077 115.106 421.673 474.052
1585 0 82.163 12.816 1053 117.004 421.406 472.104
1586 0 85.1179 13.4989 1149 115.249 420.867 469.558
1587 0 91.1261 13.1686 1200 113.736 419.89 470.308
1588 0 92.1498 12.9897 1197 121.008 419.358 469.138
1589 1 50.0754 11.1232 557 116.747 419.98 491.646
1590 0 49.1398 12.3118 605 119.884 421.076 489.779
1591 0 53.0583 13.57 720 111.779 421.312 488.95
1592 0 53.0935 13.5798 721 115.459 421.101 487.064
1593 0 54.1343 12.8939 698 116.699 421.14 487.57
1594 0 57.1082 12.6076 720 117.654 421.143 486.699
1595 0 59.0782 14.1169 834 113.743 421.119 485.097
1596 0 61.1134 13.385 818 114.744 421.093 483.995
1597 0 62.0928 13.7214 852 115.924 422.009 485.317
1598 0 63.1085 14.3087 903 117.048 421.959 481.354
1599 0 65.0925 13.6114 886 118.717 422.138 482.009
1600 0 67.0985 13.6218 914 118.849 421.673 481.306
1601 0 70.1089 13.7786 966 118.598 421.764 480.679
1602 0 70.1823 13.2512 930 121.58 421.609 478.425
1603 0 74.1067 14.8704 1102 116.498 421.597 478.166
1604 0 76.0563 13.937 1060 119.805 421.696 475.904
1605 0 78.1109 14.5562 1137 118.02 421.932 476.906
1606 0 80.0899 13.2851 1064 122.319 421.62 474.414
1607 0 83.1023 12.9479 1076 122.663 421.473 474.242
1608 0 86.0775 14.0803 1212 117.193 421.682 473.105
1609 0 87.0634 13.8979 1210 118.956 421.489 471.498
1610 0 91.0314 13.4459 1224 120.583 421.408 469.283
1611 0 93.068 12.2599 1141 123.229 421.92 471.287
1612 0 96.0692 13.5736 1304 121.507 421.515 466.561
1613 0 100.091 14.0472 1406 120.088 421.538 466.189
1614 0 104.062 13.934 1450 118.566 421.968 464.717
1615 0 109.045 15.3148 1670 116.346 421.594 458.647
1616 0 110.134 14.4189 1588 119.125 422.31 461.686
1617 0 112.101 13.5771 1522 124.051 421.755 458.043
1618 1 59.0327 10.4518 617 122.712 422.246 485.635
1619 0 63.0415 12.3411 778 118.584 421.932 482.737
1620 0 62.0464 10.7661 668 112.467 421.343 475.015
1621 0 67.0813 12.4923 838 103.006 420.496 477.411
1622 0 70.1499 11.8033 828 104.612 420.029 476.211
1623 0 72.0389 11.3689 819 106.178 420.929 475.822
1624 0 72.1346 12.4212 896 104.761 420.309 473.603
1625 0 76.0663 12.0027 913 105.566 420.747 472.641
1626 0 79.1421 11.2961 894 106.555 420.867 469.144
1627 0 82.1317 11.652 957 106.048 420.93 470.561
1628 0 83.2454 12.7454 1061 94.2271 421.083 465.247
1629 0 87.0758 12.7934 1114 105.114 421.064 468.583
1630 0 90.1334 13.0473 1176 104.948 420.596 466.262
1631 0 91.0743 12.1549 1107 107.953 420.237 463.65
1632 0 98.1166 12.6278 1239 104.969 420.492 460.751
1633 1 51.2202 11.226 575 105.12 420.948 485.88
1634 0 51.0792 11.6877 597 108.523 421.466 487.521
1635 0 54.1267 12.4523 674 106.077 421.588 484.5
1636 0 58.13 12.7645 742 104.829 421.508 484.698
1637 0 60.0726 11.4029 685 108.231 421.431 484.54
1638 0 61.1262 13.4476 822 103.428 420.884 480.322
1639 0 63.1017 12.979 819 104.19 421.045 479.91
1640 0 65.1309 13.2656 864 104.059 421.523 480.337
1641 0 67.1716 13.2496 890 105.867 421.288 477.987
1642 0 68.1053 12.3338 840 107.925 421.458 478.6
1643 0 72.1204 12.9367 933 106.646 421.519 474.475
1644 0 74.0818 11.3523 841 109.916 420.482 474.303
1645 0 77.0507 14.1076 1087 103.658 420.254 473.538
1646 0 80.0907 13.5222 1083 105.386 420.404 472.578
1647 0 82.0265 12.7398 1045 106.916 419.99 472.168
1648 0 85.0542 12.7801 1087 107.442 420.15 471.9
1649 0 89.1633 13.2117 1178 106.83 420.703 469.718
1650 1 47.0804 10.6414 501 107.18 421.766 491.339
1651 0 45.075 10.2052 460 110.152 421.6 488.524
1652 0 47.1237 11.247 530 108.815 421.706 486.913
1653 0 50.0755 11.882 595 107.756 420.96 488.797
1654 0 51.0711 11.3763 581 109.892 419.91 487.11
1655 0 53.0543 12.3081 653 107.482 421.933 487.296
1656 0 54.1211 11.8253 640 109.617 422.042 486.37
1657 0 54.1225 12.0098 650 111.035 421.911 486.385
1658 0 58.0964 12.5481 729 110.048 421.311 485.08
1659 0 59.0906 12.9462 765 109.501 421.501 485.105
1660 0 62.0741 12.0179 746 112.403 421.34 483.824
1661 0 62.1375 11.6677 725 114.553 420.666 481.506
1662 0 65.2138 12.3594 806 113.371 420.778 480.444
1663 0 67.143 11.4085 766 116.316 421.304 481.394
1664 0 69.1853 11.5487 799 113.429 421.658 479.224
1665 0 74.1134 12.5348 929 112.825 420.896 478.091
1666 0 77.0977 12.5425 967 113.228 420.915 477.284
1667 0 78.0631 12.3362 963 113.779 420.707 475.921
1668 0 81.088 11.9746 971 114.856 420.738 473.778
1669 0 84.1375 12.7292 1071 113.419 421.535 472.225
1670 1 42.0242 11.3982 479 113.879 421.77 491.445
1671 0 44.086 11.2961 498 106.365 420.59 489.488
1672 0 44.0257 11.1071 489 113.969 418.671 491.89
1673 0 48.0754 12.4388 598 113.087 419.02 490.453
1674 0 48.0631 11.1104 534 117.118 419.075 489.249
1675 0 49.0082 11.1206 545 114.211 419.264 488.785
1676 0 53.0695 12.0031 637 109.865 419.501 488.575
1677 0 53.1111 10.9582 582 111.701 419.29 486.314
1678 0 54.131 11.0288 597 105.62 420.812 482.191
1679 0 56.0927 11.2671 632 109.864 421.335 485.892
1680 0 59.0889 11.7281 693 108.307 420.763 484.036
1681 0 61.1668 11.346 694 108.262 420.682 482.854
1682 0 60.2303 10.9746 661 110.681 421.286 481.177
1683 0 64.1516 11.8469 760 107.784 421.601 481.828
1684 0 66.1894 11.2707 746 108.782 421.323 480.786
1685 0 69.1951 11.4603 793 108.179 421.863 478.214
1686 0 71.1465 12.5094 890 105.613 421.204 476.763
1687 0 74.1629 12.2568 909 106.483 421.099 475.966
1688 0 78.1387 11.4412 894 107.754 421.588 473.261
1689 0 78.1427 11.7093 915 108.448 421.258 473.823
1690 0 81.0984 11.1716 906 108.329 422.095 473.114
1691 0 85.0776 11.9068 1013 107.731 422.186 468.259
1692 0 87.1149 11.4676 999 110.129 421.942 467.24
1693 1 46.0791 9.83092 453 110.265 422.788 489.38
1694 0 48.0724 11.2123 539 107.156 421.946 487.855
1695 0 51.1261 10.8946 557 109.122 420.232 488.499
1696 0 50.0449 10.3907 520 110.173 422.215 486.406
1697 0 54.0712 11.2814 610 107.52 422.044 485.552
1698 0 54.0493 10.4164 563 110.369 422.895 487.822
1699 0 55.0648 10.8418 597 110.253 422.717 483.462
1700 0 57.0515 12.2521 699 106.904 422.137 484.362
1701 0 59.1974 9.94976 589 112.722 422.423 482.835
1702 0 61.2676 12.5515 769 106.941 421.824 482.085
1703 0 62.1452 12.4869 776 108.504 421.948 482.18
1704 0 65.1787 11.737 765 106.39 421.967 480.541
1705 0 67.1862 12.4579 837 104.127 421.51 479.859
1706 0 69.0929 12.5628 868 104.442 421.017 478.656
1707 0 71.1478 11.9891 853 105.496 420.695 478.151
1708 0 74.1683 12.1481 901 105.75 420.458 477.521
1709 0 76.1361 12.2938 936 104.419 421.288 474.358
1710 0 76.216 12.1759 928 106.501 420.792 475.091
1711 0 80.2943 11.4952 923 107.492 420.412 474.426
1712 0 83.1671 12.7695 1062 104.137 420.815 473.555
1713 0 85.2509 12.5629 1071 106.192 420.93 471.469
1714 0 89.1506 11.8339 1055 107.826 421.027 469.856
1715 1 48.044 10.9067 524 113.544 421.531 488.485
1716 0 48.0501 11.3839 547 113.514 420.995 488.43
1717 0 50.1313 11.5297 578 112.832 421.095 488.253
1718 0 52.1434 12.0437 628 112.666 421.301 486.952
1719 0 53.2603 13.1993 703 109.831 420.967 487.556
1720 0 57.418 13.7762 791 113.241 420.483 484.692
1721 0 59.248 13.6545 809 113.351 420.239 485.298
1722 0 57.2259 12.2846 703 120.176 420.677 484.44
1723 0 60.2083 14.0346 845 115.724 420.376 484.019
1724 0 61.2657 12.7641 782 119.012 420.481 483.991
1725 0 64.1735 12.248 786 120.934 420.626 482.481
1726 0 66.2072 12.9291 856 119.537 420.81 481.246
1727 0 69.2003 13.3959 927 118.362 420.584 481.35
1728 0 70.2483 13.2388 930 121.204 420.66 480.396
1729 0 72.1083 13.341 962 122.534 420.832 476.654
1730 0 76.1519 14.0903 1073 119.537 420.502 476.225
1731 0 77.2133 13.793 1065 121.489 420.567 475.474
1732 0 79.2685 13.7381 1089 123.431 420.838 474.083
1733 0 81.2398 13.3063 1081 125.557 421.513 471.351
1734 0 84.3053 14.2458 1201 122.764 421.81 471.57
1735 0 87.1481 12.9435 1128 126.764 421.208 471.313
1736 0 90.2191 13.1679 1188 126.809 420.867 468.379
1737 0 93.2194 13.4629 1255 126.222 420.918 466.694
1738 1 48.1163 11.3683 547 122.898 420.824 491.673
1739 0 49.093 11.8754 583 125.581 420.496 488.983
1740 0 51.0473 12.2827 627 116.325 421.555 487.96
1741 0 50.058 11.7064 586 118.024 421.334 487.66
1742 0 54.1056 14.1205 764 109.441 421.241 486.973
1743 0 56.0952 12.9066 724 113.95 421.116 486.613
1744 0 56.0927 13.1924 740 113.927 421.211 484.774
1745 0 58.176 12.3934 721 116.058 420.915 485.103
1746 0 57.0644 12.4771 712 117.271 421.428 484.532
1747 0 61.1539 13.8993 850 111.549 421.085 483.492
1748 0 63.0728 12.763 805 114.573 420.517 481.773
1749 0 65.1079 13.0552 850 113.3 420.811 480.702
1750 0 68.0854 12.9103 879 113.992 421.17 479.869
1751 0 70.1403 12.8314 900 113.58 420.919 478.302
1752 0 72.1348 13.8075 996 111.406 421.428 477.469
1753 0 73.1365 12.8664 941 114.216 421.134 476.729
1754 0 75.1101 13.194 991 113.686 421.145 475.078
1755 0 79.1438 12.5341 992 114.872 421.018 475.953
1756 0 82.0811 12.8775 1057 113.579 420.78 472.821
1757 0 85.0879 13.5624 1154 111.503 419.908 470.776
1758 0 89.1987 12.489 1114 113.124 420.332 470.785
1759 0 92.0926 13.3344 1228 111.689 420.385 468.491
1760 1 49.0139 10.9765 538 116.175 420.994 489.643
1761 0 53.0535 12.346 655 114.35 421.78 487.478
1762 0 54.0321 12.289 664 113.639 420.827 487.861
1763 0 54.0327 12.2148 660 114.909 421.311 485.461
1764 0 55.0587 12.0054 661 116.247 421.51 483.688
1765 0 59.0673 13.51 798 111.856 421.685 481.254
1766 0 61.0283 13.6658 834 111.309 421.821 480.438
1767 0 61.1023 12.1599 743 115.223 421.445 480.384
1768 0 64.1134 13.6165 873 109.961 421.643 480.75
1769 0 67.1146 12.8735 864 113.235 421.09 477.233
1770 0 67.1127 11.1752 750 118.093 420.804 475.955
1771 0 74.1428 12.8806 955 111.401 421.52 476.585
1772 0 75.0992 13.2358 994 112.431 421.111 473.001
1773 0 76.2161 13.3305 1016 113.293 419.801 473.056
1774 0 78.1641 12.4354 972 115.191 419.818 474.298
1775 0 81.28 12.5 1016 114.889 419.87 473.498
1776 0 84.1945 12.9462 1090 115.035 420.147 470.054
1777 0 88.1798 13.6426 1203 112.909 420.249 469.369
1778 0 91.2442 13.7214 1252 113.472 420.525 467.074
1779 0 95.1698 13.5862 1293 114.255 420.238 464.908
1780 0 95.1698 13.5652 1291 149.449 420.237 464.855
1781 1 50.2348 11.4462 575 115.283 420.264 485.723
1782 0 53.199 12.6882 675 110.879 421.31 483.999
1783 0 53.0977 11.8649 630 106.37 420.925 485.208
1784 0 55.0667 13.2022 727 103.348 421.272 485.601
1785 0 57.1528 11.513 658 108.438 422.132 483.451
1786 0 59.015 12.912 762 104.899 420.78 482.814
1787 0 59.015 12.8272 757 126.392 419.795 482.752
1788 0 64.087 11.8745 761 106.95 420.863 480.823
1789 0 65.0507 14.0352 913 101.673 421.416 479.946
1790 0 69.0665 12.8717 889 102.971 421.298 479.494
1791 0 67.2085 10.6981 719 109.74 421.282 479.994
1792 0 69.1062 11.2146 775 109.071 421.086 478.935
1793 0 74.1016 12.2535 908 107.069 421.504 477.036
1794 0 76.043 12.9927 988 105.553 421.196 476.288
1795 0 76.0664 11.9895 912 108.708 420.935 475.396
1796 0 82.0685 12.3799 1016 108.271 420.851 472.844
1797 0 83.0659 12.0627 1002 109.403 421.374 471.474
1798 0 86.0691 12.9896 1118 108.309 420.942 471.21
1799 0 89.1064 12.3111 1097 111.271 420.965 469.969
1800 0 93.1501 11.884 1107 112.217 420.424 469.871
1801 1 50.0574 11.8863 595 115.738 421.276 485.968
1802 0 52.1919 11.6685 609 113.77 420.974 484.905
1803 0 53.0815 12.5656 667 108.843 421.871 485.3
1804 0 55.0987 12.7408 702 108.698 422.118 485.503
1805 0 56.0431 12.8116 718 107.419 421.738 486.57
1806 0 58.0654 12.2793 713 110.189 421.941 483.921
1807 0 61.2482 12.9147 791 109.126 422.13 483.325
1808 0 61.1085 13.9097 850 109.641 421.598 480.213
1809 0 65.1197 12.8533 837 111.446 421.78 480.964
1810 0 66.0767 12.9395 855 111.621 421.643 481.131
1811 0 68.043 12.8595 875 112.641 421.546 480.399
1812 0 73.0716 13.6442 997 111.223 421.67 476.9
1813 0 74.0431 12.8574 952 114.452 421.877 476.376
1814 0 77.0744 13.8827 1070 112.059 421.478 474.807
1815 0 79.1606 13.6937 1084 113.352 421.279 473.918
1816 1 40.0582 10.6345 426 116.754 421.211 493.272
1817 0 41.1104 11.4326 470 110.553 419.883 489.332
1818 0 42.0841 9.90874 417 109.532 421.424 486.657
1819 0 42.1693 10.4578 441 104.224 421.658 487.431
1820 0 45.1824 11.7745 532 100.795 420.585 486.758
1821 0 45.1323 10.0593 454 105.685 420.718 484.91
1822 0 47.152 11.0494 521 103.292 420.783 485.904
1823 0 49.1338 12.2726 603 101.43 420.34 483.864
1824 0 51.1852 11.1556 571 104.049 420.226 483.835
1825 0 53.2264 12.7192 677 99.6706 420.746 482.052
1826 0 51.1782 10.1997 522 107.964 420.598 482.895
1827 0 54.121 12.3982 671 102.751 421.046 482.039
1828 0 54.0724 11.762 636 116.08 420.341 488.714
1829 0 56.0844 12.0176 674 116.711 419.97 485.628
1830 0 59.0268 11.2322 663 117.193 419.342 486.43
1831 0 62.0549 12.3278 765 114.94 420.072 484.837
1832 0 61.0919 12.0474 736 117.037 419.673 483.779
1833 0 66.11 12.5397 829 115.97 419.227 481.356
1834 0 66.0616 12.0796 798 122.029 418.624 479.591
1835 0 69.0329 13.0517 901 120.808 418.889 478.408
1836 0 72.094 12.1369 875 122.369 418.173 478.495
1837 0 72.0552 12.879 928 122.224 418.705 477.867
1838 0 77.0817 14.2965 1102 117.039 418.775 476.006
1839 0 76.065 12.3579 940 123.868 418.745 474.205
1840 0 79.057 12.4594 985 124.174 418.629 472.966
1841 1 42.0859 9.76574 411 125.981 417.72 490.399
1842 0 45.1233 11.7456 530 120.194 418.304 487.732
1843 0 46.0518 12.3774 570 119.723 419.793 490.06
1844 0 47.0174 12.1019 569 118.703 417.724 490.1
1845 0 49.0568 12.7403 625 117.949 418.65 488.614
1846 0 49.019 11.2405 551 121.808 419.243 488.884
1847 0 51.0703 13.5108 690 117.497 419.232 487.104
1848 0 53.0386 12.5003 663 120.116 419.243 487.808
1849 0 54.0474 13.6362 737 117.216 419.191 487.098
1850 0 56.0509 12.9882 728 117.805 418.769 487.609
1851 0 57.1491 13.7535 786 117.594 418.258 484.865
1852 0 58.0581 14.3477 833 117.592 418.143 483.976
1853 0 61.1689 13.569 830 119.252 418.066 483.466
1854 0 61.1184 13.3839 818 121.071 418.702 482.297
1855 0 64.0286 13.2753 850 120.233 419.052 482.798
1856 0 62.0673 13.002 807 123.985 418.902 480.154
1857 0 66.081 13.7104 906 120.255 418.754 482.244
1858 0 68.0651 13.3843 911 121.391 419.254 480.147
1859 0 70.027 13.0807 916 122.819 419.299 478.694
1860 0 73.1175 14.0048 1024 119.785 418.93 476.285
1861 0 75.057 13.3499 1002 121.808 418.995 475.42
1862 0 77.0542 13.1336 1012 123.088 419.069 474.2
1863 0 79.133 13.0034 1029 123.827 419.066 473.971
1864 0 80.0984 14.0827 1128 121.113 419.137 474.122
1865 0 84.1089 13.863 1166 121.653 419.185 472.241
1866 0 85.0974 12.233 1041 126.827 418.161 470.926
1867 0 89.0766 13.4491 1198 122.995 419.18 467.821
1868 0 93.0919 14.8778 1385 118.516 418.856 466.861
1869 0 96.1704 14.1832 1364 120.584 418.861 465.768
1870 0 99.1799 12.8453 1274 124.294 419.183 463.398
1871 1 52.1222 11.2428 586 123.423 418.311 486.27
1872 0 56.1154 11.6546 654 118.679 419.326 486.329
1873 0 55.0929 12.9962 716 111.634 419.163 485.317
1874 0 57.132 13.1625 752 112.294 419.031 483.184
1875 0 60.0399 13.2745 797 109.78 418.961 485.184
1876 0 61.1653 12.082 739 113.152 418.571 480.532
1877 0 63.1187 13.3875 845 109.258 419.071 480.766
1878 0 65.0615 13.8177 899 109.443 419.501 480.235
1879 0 68.1091 13.2435 902 108.644 418.919 482.061
1880 0 68.185 12.4807 851 113.396 418.282 478.764
1881 0 70.1543 12.7433 894 112.84 418.249 475.908
1882 0 73.1356 13.099 958 111.201 418.263 477.564
1883 0 75.1801 13.3413 1003 110.497 418.527 475.105
1884 0 77.1138 13.6162 1050 109.398 418.871 472.71
1885 0 80.0684 13.0264 1043 110.149 418.106 470.534
1886 0 83.1446 13.4224 1116 109.43 417.72 469.043
1887 0 85.0825 13.5516 1153 109.264 418.565 469.526
1888 0 87.1228 12.5455 1093 111.117 418.78 465.581
1889 0 92.0758 12.2073 1124 111.195 419.062 466.961
1890 0 91.0765 12.0887 1101 113.183 418.835 464.712
1891 1 48.3207 11.2581 544 111.355 419.202 486.616
1892 0 50.128 11.6502 584 107.666 418.818 485.947
1893 0 56.0421 13.9003 779 102.614 418.1 483.027
1894 0 57.0432 13.8667 791 103.24 418.504 484.249
1895 0 58.0738 14.1888 824 103.523 418.528 482.015
1896 0 58.0882 12.8253 745 108.468 418.568 483.37
1897 0 59.0306 11.4348 675 112.068 418.387 483.679
1898 0 62.0071 11.5148 714 112.45 418.513 481.297
1899 0 62.0255 11.8338 734 112.322 418.672 481.323
1900 0 65.0319 13.6395 887 109.085 419.05 478.742
1901 0 66.0361 11.6754 771 113.686 418.846 479.416
1902 0 71.0316 12.8112 910 110.307 419.176 478.584
1903 0 73.0684 12.8647 940 110.032 418.896 477.727
1904 0 74.0815 12.6482 937 111.995 418.987 476.146
1905 0 77.0633 12.626 973 112.316 419.17 474.665
1906 0 80.1163 12.9312 1036 110.653 418.976 472.573
1907 0 83.122 13.5584 1127 110.043 418.367 471.184
1908 0 85.0723 12.9772 1104 111.891 418.871 469.669
1909 1 45.1689 12.3315 557 111.393 418.982 493.307
1910 0 47.061 12.7069 598 112.171 421.522 491.587
1911 0 45.0267 12.3038 554 113.448 421.556 490.043
1912 0 49.0114 13.9355 683 111.138 421.521 491.334
1913 0 51.0186 13.7597 702 112.383 420.996 489.819
1914 0 53.0208 13.787 731 112.58 421.949 488.886
1915 0 54.0634 13.5027 730 114.279 421.908 488.425
1916 0 54.0305 13.2518 716 115.968 421.954 488.694
1917 0 55.0579 12.6594 697 117.187 421.545 488.911
1918 0 58.0336 13.5439 786 116.389 421.434 485.454
1919 0 62.0258 13.7362 852 114.296 421.167 486.371
1920 0 61.0535 13.3326 814 117.382 420.85 485.587
1921 0 62.0654 13.7597 854 117.368 420.803 484.278
1922 0 64.0492 14.6918 941 114.969 420.456 483.333
1923 0 68.058 15.957 1086 111.31 420.533 482.189
1924 0 69.0792 14.0563 971 117.497 420.858 482.792
1925 0 71.1031 14.4297 1026 117.099 421.128 482.515
1926 0 72.0616 14.5292 1047 117.689 420.43 480.605
1927 0 75.1012 15.4725 1162 115.098 419.822 478.89
1928 0 76.1475 14.2749 1087 121.62 419.901 478.02
1929 0 79.2213 15.6145 1237 118.116 420.171 477.155
1930 0 82.1564 14.7645 1213 121.253 419.851 476.984
1931 0 84.1008 15.6717 1318 121.001 419.728 472.785
1932 0 85.185 15.8244 1348 121.562 419.769 473.996
1933 1 44.0679 13.57 598 132.779 420.249 492.311
1934 0 44.0616 13.8896 612 134.265 420.73 489.855
1935 0 46.1068 13.9893 645 135.73 420.45 488.594
1936 0 48.0771 14.6015 702 134.509 420.486 487.087
1937 0 47.0792 14.5075 683 133.612 419.999 490.837
1938 0 49.031 13.5221 663 137.955 420.308 489.903
1939 0 51.0362 13.4218 685 137.58 419.667 490.155
1940 0 50.0125 14.4564 723 138.549 420.256 489.563
1941 0 54.0849 15.0319 813 135.392 420.209 487.375
1942 0 56.0398 14.0971 790 138.276 420.603 486.766
1943 0 58.043 15.075 875 135.453 420.25 484.736
1944 0 60.1287 15.4668 930 135.576 420.673 480.405
1945 0 63.0763 15.2355 961 134.595 419.88 480.625
1946 0 64.0239 15.5411 995 134.349 420.814 482.406
1947 0 66.0719 14.454 955 138.076 420.891 480.12
1948 0 68.0224 15.1421 1030 136.024 420.571 480.972
1949 0 71.0304 15.4159 1095 135.813 419.96 478.719
1950 0 74.0831 15.9011 1178 133.346 419.983 478.784
1951 0 75.0448 14.5247 1090 139.313 420.561 476.336
1952 0 78.0639 15.4745 1208 136.008 420.81 475.528
1953 0 79.1374 14.2663 1129 141.709 420.506 475.12
1954 0 83.136 15.5889 1296 138.351 419.734 472.295
1955 0 85.1394 15.1046 1286 139.666 420.506 471.038
1956 0 87.0571 14.4158 1255 141.414 420.317 471.541
1957 1 44.0645 15.5681 686 147.373 420.965 489.241
1958 0 45.0181 15.3716 692 149.668 420.452 489.017
1959 0 47.0343 15.2442 717 149.206 419.805 488.025
1960 0 49.0195 16.6872 818 145.264 420.18 485.546
1961 0 54.0345 16.4339 888 140.372 420.382 484.472
1962 0 55.0961 16.5347 911 140.316 420.178 483.935
1963 0 55.0884 15.339 845 146.652 419.954 484.204
1964 0 57.0472 15.2505 870 145.398 419.809 482.721
1965 0 59.0911 16.0938 951 140.496 420.202 482.968
1966 0 60.0554 14.4866 870 146.256 420.528 481.153
1967 0 65.0527 15.6796 1020 140.024 420.073 479.488
1968 0 67.0854 16.2778 1092 137.397 419.654 476.981
1969 0 69.0829 15.7637 1089 139.376 419.609 477.657
1970 0 73.0613 15.398 1125 138.092 419.814 476.166
1971 0 76.1124 14.6888 1118 139.676 419.944 474.894
1972 0 79.1283 15.6202 1236 135.924 420.205 474.944
1973 0 82.1605 15.2141 1250 136.72 420.339 472.453
1974 0 84.1538 15.543 1308 136.127 420.64 471.047
1975 0 86.2224 14.6482 1263 141.354 420.635 467.159
1976 1 42.2481 14.6279 618 146.942 420.769 487.974
1977 0 43.0895 15.2938 659 144.555 420.223 488.008
1978 0 46.0187 15.0156 691 143.816 420.504 486.123
1979 0 47.0533 15.2805 719 144.533 421.253 485.138
1980 0 50.3084 14.9478 752 142.124 420.92 484.938
1981 0 52.1343 15.345 800 140.581 420.185 483.808
1982 0 50.3806 15.4623 779 143.343 420.434 483.336
1983 0 55.1932 14.5489 803 143.111 420.889 481.712
1984 0 57.3242 15.1245 867 139.01 420.318 480.686
1985 0 60.1673 15.5899 938 137.727 420.707 477.857
1986 0 63.3272 15.6805 993 135.279 419.982 478.406
1987 0 65.2479 16.0312 1046 135.343 420.232 476.273
1988 0 66.4592 15.1371 1006 139.503 420.452 475.083
1989 0 68.2028 15.1313 1032 139.648 420.563 474.127
1990 0 71.2557 15.7461 1122 138.55 420.681 470.984
1991 0 75.198 15.0004 1128 139.915 420.029 470.957
1992 0 75.4325 14.0656 1061 144.985 419.915 469.898
1993 0 78.275 14.7173 1152 143.303 419.324 467.536
1994 0 82.2676 14.8783 1224 141.048 420.145 467.629
1995 0 87.4702 15.4567 1352 137.569 420.317 466.476
1996 0 90.1296 16.2544 1465 135.966 420.514 463.636
1997 0 92.1937 15.0553 1388 141.032 420.075 461.966
1998 0 97.3412 15.3481 1494 140.556 420.257 460.235
1999 0 100.563 16.6462 1674 138.628 420.388 457.734
2000 0 104.291 16.1567 1685 141.119 420.371 455.816
2001 0 106.28 15.0828 1603 147.311 419.506 454.25
2002 0 113.333 16.2707 1844 143.303 420.299 450.209
2003 0 116.186 15.4493 1795 146.973 419.646 447.553
2004 1 59.2782 12.6522 750 150.864 419.82 475.74
2005 0 61.1522 12.8205 784 152.995 419.638 474.031
2006 0 63.2126 13.6998 866 150.842 419.702 472.465
2007 0 67.3612 13.9546 940 147.565 419.844 473.006
2008 0 68.2457 14.1254 964 147.971 420.269 471.027
2009 0 69.2277 13.4628 932 152.6 420.383 468.158
2010 0 75.1848 12.9548 974 152.551 419.818 466.497
2011 0 77.2532 13.8764 1072 149.517 419.526 464.884
2012 0 80.1444 14.5238 1164 148.451 419.674 461.37
2013 0 81.2328 13.6521 1109 152.33 419.639 460.331
2014 0 85.1944 13.4281 1144 150.162 419.76 462.086
2015 0 88.1536 13.0341 1149 152.314 419.232 458.698
2016 0 91.2634 13.2583 1210 152.407 419.488 456.679
2017 0 94.3503 13.0365 1230 154.593 419.77 453.386
2018 0 102.211 14.568 1489 148.2 419.905 450.748
2019 0 105.224 13.1719 1386 156.128 419.758 448.633
2020 0 109.324 13.4097 1466 156.177 419.931 448.394
2021 0 116.475 14.3722 1674 155.738 419.652 450.58
2022 0 121.473 14.6946 1785 154.528 419.791 448.369
2023 0 126.585 13.2954 1683 160.304 419.738 445.844
2024 0 131.246 14.2938 1876 156.53 419.948 442.703
2025 0 132.19 14.5926 1929 157.974 420.173 438.785
2026 0 139.231 15.1475 2109 152.924 419.738 436.454
2027 0 143.086 14.8232 2121 153.579 419.93 434.622
2028 0 149.103 15.8414 2362 149.086 419.778 431.895
2029 0 152.21 13.7836 2098 155.863 419.658 428.131
2030 0 159.177 13.8462 2204 155.24 419.677 424.434
2031 0 164.335 13.8436 2275 154.294 419.831 422.46
2032 0 170.203 14.5297 2473 151.366 419.757 420.003
2033 0 175.19 14.9495 2619 150.162 419.536 414.986
2034 0 181.26 14.6695 2659 150.364 419.754 413.962
2035 0 187.22 13.9462 2611 152.758 419.969 410.165
2036 0 196.323 14.792 2904 149.613 419.865 404.535
2037 1 147.157 8.66422 1275 160.59 419.255 421.111
2038 0 156.213 12.5405 1959 146.476 419.722 424.986
2039 0 158.207 11.0425 1747 151.269 419.678 422.473
2040 1 61.1387 8.55432 523 111.604 421.533 480.916
2041 0 60.0845 7.18987 432 115.081 421.796 477.021
2042 0 61.1224 7.59132 464 116.584 420.218 476.009
2043 0 66.2148 7.32465 485 115.984 419.738 476.604
2044 0 67.1277 8.71473 585 113.867 419.848 473.636
2045 0 70.1415 9.42381 661 112.144 419.725 475.28
2046 0 70.1475 6.67165 468 115.974 419.889 476.263
2047 0 79.1623 12.3291 976 100.978 420.34 464.633
2048 0 75.3361 6.43782 485 116.53 420.396 465.373
2049 0 78.106 7.48982 585 115.209 420.15 465.793
2050 0 79.1131 7.1796 568 115.227 420.248 464.632
2051 0 81.1248 6.71804 545 117.743 419.749 464.191
2052 0 85.1285 7.48281 637 116.562 419.206 464.661
2053 0 89.1699 8.7922 784 114.239 419.702 465.101
2054 0 91.1268 7.67063 699 117.34 419.994 457.963
2055 0 93.1611 7.30992 681 116.985 419.652 460.979
2056 0 98.1965 6.78232 666 117.841 420.062 458.683
2057 0 99.2245 7.66948 761 117.503 419.526 453.138
2058 1 51.069 5.75691 294 109.85 419.724 484.024
2059 0 56.2838 6.92917 390 105.695 420.559 482.654
2060 0 56.1954 7.97218 448 113.757 418.221 477.902
2061 0 56.2042 7.56172 425 115.052 419.082 481.727
2062 0 58.1522 7.63514 444 116.937 419.473 477.622
2063 1 27.005 7.369 199 109.246 420.447 495.191
2064 0 26.0111 5.42077 141 111.255 420.348 496.213
2065 0 29.0216 4.75508 138 111.341 421.326 497.986
2066 0 29.0143 5.30773 154 110.279 420.779 496.117
2067 0 29.0035 6.99915 203 107.828 420.808 496.606
2068 0 34.0157 7.11436 242 106.789 421.479 493.285
2069 0 35.0515 7.33207 257 105.922 421.082 493.903
2070 0 33.1139 5.0432 167 110.659 421.024 495.425
2071 0 45.0909 4.45766 201 110.005 420.632 493.333
2072 0 46.0062 6.45565 297 106.236 420.801 492.522
2073 0 44.4082 7.47609 332 104.419 418.982 488.877
2074 0 45.5286 8.30247 378 104.749 418.296 484.37
2075 0 43.474 7.75176 337 108.457 419.712 484.38
2076 0 47.2679 8.50472 402 106.664 418.985 485.572
2077 0 47.2758 9.98396 472 107.566 420.322 488.227
2078 0 51.0603 10.6541 544 107.013 421.417 487.103
2079 0 52.1596 11.3114 590 109.963 421.873 488.71
2080 0 50.0395 11.0713 554 112.215 422.388 486.171
2081 0 53.1265 13.1385 698 106.321 422.173 485.655
2082 0 53.0846 11.5853 615 112.364 421.803 485.163
2083 0 53.0341 10.3895 551 117.176 421.494 484.695
2084 0 55.0677 11.9308 657 111.767 421.493 485.922
2085 0 56.0612 12.4864 700 111.569 421.969 483.631
2086 0 58.0865 12.2404 711 112.16 421.428 481.82
2087 0 59.0707 12.1549 718 112.214 421.932 484.269
2088 0 61.0824 12.4095 758 112.732 421.679 482.158
2089 0 62.1012 12.5762 781 112.259 421.985 482.558
2090 0 64.1032 12.6827 813 112.01 421.367 480.807
2091 0 64.0603 11.6297 745 115.804 421.695 479.854
2092 0 69.1142 12.7904 884 112.568 421.21 477.722
2093 0 71.092 12.7441 906 113.283 421.19 476.877
2094 0 71.0979 11.9272 848 117.139 420.976 476.344
2095 0 74.1542 13.1483 975 112.097 420.967 476.908
2096 0 75.1141 12.501 939 114.956 421.564 474.706
2097 0 78.1543 12.373 967 114.657 421.465 471.257
2098 1 41.0096 10.2903 422 117.277 421.581 492.116
2099 0 41.0627 11.8112 485 115.303 421.322 491.311
2100 0 41.0701 11.4195 469 113.373 421.102 491.322
2101 0 42.008 9.92669 417 122.662 421.952 489.818
2102 0 46.047 12.1181 558 115.14 421.943 490.608
2103 0 45.029 11.4593 516 119.775 421.878 488.665
2104 0 45.0766 11.8021 532 119.904 422.417 490.742
2105 0 46.0263 12.2321 563 119.741 422.02 488.956
2106 0 48.0145 11.3091 543 121.545 421.786 488.635
2107 0 48.0692 12.4196 597 118.821 421.286 489.152
2108 0 49.0332 12.0938 593 120.642 421.511 487.88
2109 0 50.0325 11.9522 598 121.45 421.455 487.635
2110 0 53.0398 13.7067 727 115.004 421.451 486.413
2111 0 53.033 13.3502 708 117.387 420.455 485.393
2112 0 55.0217 13.5401 745 116.338 420.776 486.479
2113 0 56.0433 12.6866 711 118.481 420.499 485.914
2114 0 57.0272 13.2042 753 117.377 420.388 484.884
2115 0 59.0509 13.0057 768 117.637 420.746 483.79
2116 0 60.0332 12.8262 770 117.932 420.794 483.89
2117 0 61.0262 12.7486 778 119.04 420.893 482.689
2118 0 63.0324 13.2154 833 117.726 420.935 480.415
2119 0 63.0519 11.7998 744 121.848 420.57 480.483
2120 0 66.0376 13.7952 911 116.412 419.761 480.005
2121 0 68.0464 11.4334 778 123.333 420.744 478.179
2122 0 69.0675 13.3927 925 119.125 420.728 478.68
2123 0 74.0408 13.2224 979 117.217 420.263 477.296
2124 1 38.0205 10.3628 394 120.442 420.716 493.066
2125 0 39.0357 10.5544 412 119.005 421.248 493.34
2126 0 41.0541 12.0573 495 114.162 419.663 492.661
2127 0 42.1832 12.7065 536 111.552 418.965 491.901
2128 0 41.1951 10.6081 437 112.549 417.773 490.638
2129 0 44.1326 12.2132 539 107.017 417.783 490.703
2130 0 43.092 12.1368 523 108.338 418.161 489.398
2131 0 44.2232 11.8264 523 109.853 417.566 489.136
2132 0 47.2152 13.4702 636 105.712 417.847 487.909
2133 0 48.2128 11.2626 543 110.746 418.12 489.033
2134 0 49.1576 13.3448 656 106.186 418.142 487.427
2135 0 51.0734 12.1394 620 107.823 418.295 489.448
2136 0 52.1347 13.561 707 105.372 418.18 487.566
2137 0 54.1088 13.325 721 106.333 418.495 487.822
2138 0 54.0974 12.7548 690 110.742 418.962 486.816
2139 0 56.0516 14.451 810 106.991 418.772 484.167
2140 0 57.1077 13.4658 769 110.179 418.532 482.705
2141 0 58.106 13.6131 791 110.901 418.616 482.678
2142 0 60.0736 12.9341 777 113.277 418.418 483.082
2143 0 62.0376 12.6697 786 114.452 418.384 482.191
2144 0 63.0746 14.0944 889 111.871 418.614 480.566
2145 0 65.0545 12.5433 816 116.738 418.299 480.433
2146 0 68.0459 13.7554 936 113.488 418.796 478.849
2147 0 71.1156 13.471 958 114.906 418.547 476.701
2148 0 74.0726 14.0808 1043 113.308 418.912 475.761
2149 0 74.0921 12.8354 951 119.284 418.822 474.873
2150 0 78.0568 12.4525 972 118.193 418.844 475.69
2151 0 81.1181 12.9687 1052 117.264 419.012 474.595
2152 0 82.0832 12.9625 1064 118.622 419.774 473.175
2153 1 45.0312 10.8813 490 121.092 418.606 491.992
2154 0 46.064 12.2004 562 119.676 418.68 489.472
2155 0 45.0161 11.5736 521 113.597 418.497 485.626
2156 0 47.0605 11.4108 537 110.162 419.451 485.898
2157 0 47.035 10.9918 517 111.356 419.203 484.021
2158 0 49.1136 11.1171 546 108.974 419.533 485.168
2159 0 48.1322 10.4088 501 111.533 419.844 484.501
2160 0 52.0914 11.5374 601 108.484 420.047 482.451
2161 0 52.0751 11.4258 595 109.6 419.356 480.778
2162 0 57.1054 12.5382 716 106.635 419.55 480.969
2163 0 57.0974 11.1389 636 110.236 419.631 479.921
2164 0 60.0811 11.2348 675 109.513 419.99 480.351
2165 0 62.0618 11.0213 684 110.094 419.789 477.947
2166 0 63.0502 10.4996 662 110.568 419.541 477.544
2167 0 65.0522 12.8973 839 106.516 419.547 475.795
2168 0 67.0825 12.1939 818 107.559 419.32 476.314
2169 0 70.1373 14.0011 982 103.031 419.543 474.284
2170 0 74.193 13.5727 1007 104.414 418.842 472.79
2171 0 73.2535 11.6854 856 109.668 418.81 474.165
2172 0 77.0959 12.893 994 107.507 418.498 471.151
2173 0 79.0935 11.9479 945 110.52 418.705 469.223
2174 0 80.1429 12.016 963 112.341 418.34 468.838
2175 0 83.0963 12.66 1052 112.369 417.957 468.053
2176 0 84.1759 12.1531 1023 114.244 418.523 468.148
2177 0 87.2282 11.4871 1002 116.708 418.823 468.968
2178 0 89.1596 10.7448 958 121.564 418.563 467.663
2179 1 47.0756 10.8549 511 119.605 418.753 484.634
2180 0 51.1345 12.4378 636 115.987 419.006 480.711
2181 0 49.1232 12.9674 637 116.171 419.414 479.469
2182 0 54.1373 11.4524 620 117.032 419.144 481.539
2183 0 56.1226 12.2945 690 114.771 419.13 480.525
2184 0 59.0745 11.8325 699 114.957 418.963 479.041
2185 0 60.0938 12.3307 741 114.316 419.568 477.949
2186 0 63.1968 12.5165 791 112.863 419.755 477.923
2187 0 66.1457 12.8202 848 113.824 419.817 474.546
2188 0 65.148 11.6504 759 117.456 418.979 474.142
2189 0 68.2376 12.3392 842 116.559 419.053 472.015
2190 0 71.1683 12.3229 877 117.332 419.309 471.532
2191 0 74.148 12.1379 900 117.263 419.532 469.879
2192 0 77.1242 12.7716 985 117.347 419.458 468.552
2193 0 79.1364 12.4721 987 118.342 419.374 466.404
2194 0 83.094 13.1538 1093 115.565 419.943 464.425
2195 0 86.1302 12.9339 1114 116.915 419.666 464.319
2196 0 90.1177 12.7167 1146 115.982 419.719 462.705
2197 0 91.1926 12.5229 1142 117.047 419.618 459.175
2198 0 94.1683 12.8281 1208 116.836 419.534 454.791
2199 0 97.1788 13.2231 1285 115.374 419.066 454.577
2200 0 103.26 12.8511 1327 115.372 420.202 454.826
2201 1 47.1093 8.83053 416 108.18 420.404 481.481
2202 0 49.0591 10.3752 509 106.707 420.407 480.611
2203 0 47.1117 8.46923 399 104.441 419.258 479.9
2204 0 50.0731 9.42622 472 101.778 419.54 480.881
2205 0 56.1382 10.3673 582 105.603 419.818 487.832
2206 0 58.1722 11.3456 660 104.27 419.37 483.162
2207 0 61.1383 11.155 682 103.996 420.43 481.647
2208 0 63.178 11.3014 714 103.59 420.643 482.329
2209 0 66.164 11.8947 787 103.051 419.808 481.537
2210 0 68.104 10.5867 721 105.345 420.09 479.592
2211 0 70.1153 12.4366 872 101.953 420.881 477.096
2212 0 72.2526 12.0964 874 103.979 420.197 475.041
2213 0 75.1933 12.5011 940 103.612 420.426 474.213
2214 0 78.0882 12.9341 1010 103.175 420.647 474.208
2215 0 78.1537 11.9252 932 106.865 419.782 471.597
2216 0 82.1775 12.6069 1036 105.492 419.898 471.931
2217 0 85.1048 11.386 969 108.658 419.929 470.375
2218 0 89.0846 12.7295 1134 105.873 420.07 469.485
2219 0 91.0605 12.0689 1099 109.138 419.621 467.407
2220 1 48.0592 10.1542 488 109.822 420.713 488.01
2221 0 49.0326 10.0953 495 108.198 420.576 491.02
2222 0 53.1732 11.4908 611 105.648 420.596 486.774
2223 0 54.1479 12.115 656 104.401 419.867 487.466
2224 0 56.1587 11.2894 634 106.055 420.276 485.888
2225 0 56.1136 11.0847 622 109.143 420.643 484.235
2226 0 59.0947 11.9808 708 106.441 420.802 484.201
2227 0 60.0553 12.1222 728 105.859 420.614 484.907
2228 0 61.1559 12.0512 737 106.157 420.651 483.125
2229 0 63.0704 10.3535 653 104.089 420.841 482.161
2230 0 66.2014 11.6161 769 100.993 420.023 477.601
2231 0 69.1395 11.9324 825 100.593 420.336 476.927
2232 0 72.1572 12.2372 883 100.16 420.22 477.772
2233 0 74.1811 11.7955 875 101.903 420.222 476.574
2234 0 75.1513 12.4017 932 101.432 420.042 475.063
2235 0 78.1434 10.9414 855 104.087 420.058 471.964
2236 0 82.1925 10.9012 896 104.231 419.698 473.769
2237 0 83.1425 10.4519 869 106.415 419.525 471.639
2238 0 86.2658 12.0442 1039 103.666 419.407 470.106
2239 0 91.2151 12.1033 1104 103.008 419.271 468.911
2240 0 91.1945 10.187 929 109.532 418.98 464.517
2241 1 48.0144 10.5593 507 106.645 419.576 488.335
2242 0 51.0438 9.73673 497 106.026 420.875 491.113
2243 0 50.2003 10.6971 537 106.464 421.263 487.292
2244 0 53.0414 10.2373 543 107.917 420.516 487.182
2245 0 56.0913 12.0161 674 103.645 419.651 486.553
2246 0 56.0516 11.6678 654 105.414 419.572 485.404
2247 0 59.0828 12.474 737 103.777 420.193 484.469
2248 0 62.1005 12.1094 752 103.312 420.763 484.73
2249 0 62.1452 11.0548 687 106.77 419.968 482.521
2250 0 61.1588 10.5463 645 109.589 419.276 480.085
2251 0 65.1487 10.6219 692 109.434 420.064 478.89
2252 0 69.1888 12.1551 841 106.001 419.323 478.731
2253 0 73.3505 11.7245 860 106.2 420.026 480.115
2254 0 75.1646 12.0669 907 106.402 419.515 479.071
2255 0 76.1879 11.5766 882 108.55 419.676 474.776
2256 0 79.1158 12.2099 966 107.341 420.599 473.635
2257 0 82.1111 11.6062 953 108.874 420.367 472.481
2258 0 84.1555 12.2274 1029 109.128 420.177 473.944
2259 1 45.0151 10.7742 485 112.841 421.097 494.73
2260 0 47.0324 11.524 542 111.325 420.749 495.094
2261 0 47.0522 12.1142 570 114.219 420.77 493.684
2262 0 47.0483 11.9452 562 115.018 417.808 494.562
2263 0 50.1457 12.005 602 114.967 417.116 495.055
2264 0 49.0716 11.147 547 122.472 416.285 495.196
2265 0 52.0334 12.4535 648 118.884 416.045 497.073
2266 0 53.0809 12.0759 641 120.973 415.562 497.055
2267 0 57.0836 13.6642 780 115.677 415.338 495.528
2268 0 56.0705 12.7518 715 120.516 415.439 495.933
2269 0 57.125 12.0263 687 122.873 414.881 496.402
2270 0 59.1016 12.7746 755 121.22 414.935 496.184
2271 0 60.1121 13.1587 791 121.82 415.144 495.018
2272 0 63.1503 13.5074 853 120.348 415.158 494.09
2273 0 66.067 13.3652 883 119.445 414.949 494.21
2274 0 67.2705 13.914 936 118.999 414.715 492.899
2275 0 71.0786 14.6176 1039 117.598 414.877 488.796
2276 0 71.1305 14.1852 1009 120.433 414.684 489.624
2277 0 74.0921 12.9164 957 125.034 414.32 487.155
2278 0 77.1561 14.1142 1089 122.242 414.264 484.713
2279 0 79.0646 13.938 1102 124.049 413.489 484.678
2280 0 80.1338 13.5024 1082 125.235 413.87 482.949
2281 0 84.1147 14.2543 1199 122.402 413.005 482.022
2282 0 86.2079 14.4186 1243 123.599 413.06 479.122
2283 0 88.1039 14.6872 1294 123.541 412.885 479.964
2284 0 93.1126 13.9401 1298 125.641 412.336 476.846
2285 1 46.0297 11.3188 521 130.695 412.113 498.983
2286 0 48.0797 11.2105 539 130 411.614 496.889
2287 0 49.0641 12.3716 607 126.786 411.898 497.946
2288 0 50.1943 12.5512 630 130.197 412.292 498.322
2289 0 52.1583 13.4974 704 127.317 412.226 498.996
2290 0 53.211 12.5538 668 129.403 412.692 499.987
2291 0 54.2217 11.4714 622 133.37 413.325 500.042
2292 0 57.2573 13.5179 774 127.181 413.38 499.583
2293 0 58.0867 12.9978 755 130.672 413.51 497.824
2294 0 58.1013 12.702 738 131.489 413.287 498.118
2295 0 62.2337 12.4049 772 130.925 413.6 498.935
2296 0 65.2779 12.7915 835 127.014 413.763 498.181
2297 0 64.2998 12.6905 816 130.333 414.365 495.694
2298 0 69.2818 13.3801 927 126.517 414.126 495.058
2299 0 71.5227 13.4223 960 125.403 413.427 492.731
2300 0 72.5213 13.7753 999 126.039 413.598 490.602
2301 0 73.4775 12.8202 942 127.993 413.85 487.572
2302 0 78.4373 14.5212 1139 121.319 413.431 486.346
2303 0 80.4642 13.8571 1115 122.613 413.292 484.221
2304 0 82.4966 13.7218 1132 120.324 413.022 484.839
2305 0 83.1396 12.7857 1063 118.046 414.336 486.821
2306 0 85.1154 12.9001 1098 117.787 413.744 486.223
2307 0 88.189 12.5753 1109 119.129 413.672 481.951
2308 0 90.2844 12.2391 1105 119.753 413.153 479.317
2309 1 46.1036 12.1032 558 115.111 413.891 500.891
2310 0 50.141 12.2056 612 111.592 413.464 501.748
2311 0 50.0531 11.3879 570 114.774 413.881 500.051
2312 0 52.1714 12.5739 656 112.797 413.593 498.25
2313 0 54.122 12.1947 660 111.733 414.383 498.039
2314 0 55.0826 11.9094 656 111.488 413.812 497.724
2315 0 58.1613 12.0183 699 109.74 413.94 496.601
2316 0 59.0403 12.7709 754 108.634 413.971 495.862
2317 0 61.0839 12.1309 741 109.509 414.123 495.236
2318 0 64.0954 11.9353 765 109.888 414.447 493.865
2319 0 66.1241 12.9605 857 107.186 414.292 490.986
2320 0 69.0841 13.5776 938 105.337 414.448 489.934
2321 0 71.1462 13.0998 932 105.513 414.558 489.043
2322 0 71.1656 12.3796 881 108.95 414.82 487.716
2323 0 75.1996 12.0745 908 108.376 414.718 487.327
2324 0 81.1518 13.2345 1074 105.379 414.612 484.577
2325 0 82.1255 12.7244 1045 106.239 414.593 486.256
2326 0 83.175 13.1049 1090 107.557 415.039 479.739
2327 0 86.0806 12.6161 1086 109.112 414.582 479.991
2328 0 88.3375 12.9277 1142 108.516 414.199 476.03
2329 0 92.2586 13.4947 1245 106.615 414.195 476.133
2330 0 94.1697 13.7624 1296 106.432 414.092 474.469
2331 1 45.0685 9.09727 410 116.22 415.202 497.71
2332 0 50.1151 12.0722 605 105.931 414.95 497.481
2333 0 50.0282 10.714 536 107.229 412.479 495.474
2334 0 54.0654 13.2802 718 104.283 412.205 494.329
2335 0 56.0656 12.6994 712 105.301 411.747 494.558
2336 0 55.0554 12.2422 674 107.88 412.119 490.537
2337 0 58.0319 12.4931 725 107.164 411.879 489.095
2338 0 62.0509 12.522 777 105.967 411.844 490.901
2339 0 63.0694 13.0967 826 105.499 411.517 486.599
2340 0 65.0662 14.2163 925 103.388 412.072 485.67
2341 0 66.0692 12.8804 851 107.462 412.434 486.15
2342 0 68.0375 13.5807 924 107.825 412.703 481.785
2343 0 71.0407 13.26 942 108.577 412.779 481.689
2344 0 74.0903 13.4296 995 109.21 413.115 480.69
2345 0 73.1451 12.7555 933 113.283 412.989 477.583
2346 0 77.2271 13.9718 1079 110.856 413.844 476.328
2347 0 81.2986 12.9154 1050 113.25 413.4 474.88
2348 0 82.1947 13.1274 1079 113.485 413.586 475.943
2349 0 83.1341 13.2677 1103 115.874 413.679 473.17
2350 0 89.1492 13.1353 1171 115.991 415.549 473.96
2351 0 91.2028 11.9733 1092 119.181 415.756 474.037
2352 1 47.1095 10.2527 483 116.578 415.598 493.841
2353 0 48.0474 13.008 625 110.938 416.968 492.061
2354 0 49.0245 11.9532 586 116.191 414.215 490.278
2355 0 51.1161 12.3445 631 116.556 413.59 489.101
2356 0 54.0845 13.257 717 113.093 413.794 488.251
2357 0 54.0381 12.2506 662 117.711 413.518 487.417
2358 0 54.0514 11.6926 632 120.209 414.288 487.198
2359 0 58.1294 14.4161 838 111.872 414.543 485.69
2360 0 59.0619 12.9864 767 115.979 415.005 484.115
2361 0 61.0839 13.6534 834 114.568 414.993 482.616
2362 0 65.0538 11.7287 763 118.845 415.301 482.026
2363 0 66.0767 12.8184 847 116.668 414.875 480.684
2364 0 67.0625 13.6738 917 115.535 414.726 478.375
2365 0 71.1732 13.2494 943 115.235 414.745 478.259
2366 0 72.2243 14.095 1018 114.301 415.328 475.355
2367 0 75.233 13.0794 984 116.456 415.258 474.814
2368 0 79.2227 13.948 1105 113.697 415.424 473.001
2369 0 80.1258 13.8283 1108 114.611 415.505 472.878
2370 1 44.1316 10.0608 444 115.752 414.736 493.255
2371 0 45.0914 10.645 480 115.573 414.604 492.312
2372 0 47.1282 12.0098 566 103.124 415.938 492.795
2373 0 47.0321 11.9493 562 105.726 415.267 491.059
2374 0 49.036 13.2148 648 103.315 416.043 489.91
2375 0 51.0978 13.5622 693 101.003 416.026 490.942
2376 0 52.0605 12.6199 657 104.962 415.431 487.482
2377 0 51.0771 11.1204 568 108.759 415.401 489.808
2378 0 53.1171 14.0633 747 102.331 415.715 487.075
2379 0 57.2169 12.1468 695 105.068 416.012 487.308
2380 0 58.0852 12.3784 719 105.74 415.708 484.985
2381 0 60.0668 12.1365 729 106.187 415.416 485.176
2382 0 63.083 12.761 805 104.308 416.181 484.154
2383 0 65.0557 13.573 883 103.18 416.088 482.308
2384 0 68.0843 13.2483 902 103.572 415.925 482.544
2385 0 67.0637 11.4071 765 110.553 415.537 480.945
2386 0 71.0863 12.8576 914 106.76 416.53 480.23
2387 0 72.1124 13.1878 951 107.755 416.779 477.345
2388 0 74.0735 13.3381 988 108.409 416.346 477.078
2389 0 77.1875 13.098 1011 109.438 416.35 476.318
2390 0 79.1539 13.2021 1045 109.635 416.418 474.602
2391 0 82.1723 13.1066 1077 109.668 416.246 473.589
2392 0 84.1363 11.8736 999 115.246 416.216 472.043
2393 0 86.2264 12.5831 1085 112.92 416.338 474.128
2394 1 46.2308 12.0483 557 113.616 417.246 490.844
2395 0 46.2237 11.4011 527 117.18 417.374 489.049
2396 0 49.0403 11.5415 566 114.643 416.313 490.118
2397 0 49.1394 11.9253 586 113.512 416.481 490.567
2398 0 50.0645 12.1643 609 113.135 416.558 490.378
2399 0 54.0524 12.1179 655 110.692 415.98 487.965
2400 0 53.0665 12.1922 647 112.682 415.629 486.343
2401 0 55.1458 11.0797 611 115.358 415.871 485.809
2402 0 56.033 12.796 717 110.964 415.732 486.51
2403 0 58.0243 12.3052 714 112.018 415.471 484.786
2404 0 60.0191 11.7463 705 113.322 415.725 485.234
2405 0 61.0501 12.3833 756 111.397 415.485 484.954
2406 0 62.0805 11.775 731 114.71 415.852 481.138
2407 0 65.1285 12.6366 823 112.493 415.908 480.991
2408 0 67.0651 13.3005 892 109.288 416.374 480.609
2409 0 70.0296 14.2797 1000 105.99 417.086 478.695
2410 0 71.0935 13.0251 926 108.643 417.157 479.616
2411 0 75.0451 12.9789 974 107.923 416.639 478.063
2412 0 78.0882 13.664 1067 108.3 416.295 474.891
2413 0 82.0971 12.9237 1061 109.876 416.82 474.594
2414 0 83.103 12.9478 1076 110.102 417.401 473.969
2415 0 87.2025 13.44 1172 108.698 416.659 470.292
2416 1 44.0745 10.7091 472 111.21 416.307 490.585
2417 0 47.3905 12.1965 578 106.804 417.285 488.872
2418 0 46.4385 10.4439 485 110.872 416.13 488.528
2419 0 48.0302 10.7224 515 111.07 419.977 489.918
2420 0 50.0118 12.9369 647 107.451 419.694 486.594
2421 0 52.01 11.6324 605 110.005 419.583 487.304
2422 0 52.0319 11.4161 594 111.084 419.724 488.034
2423 0 54.0367 11.6032 627 111.185 419.721 485.707
2424 0 57.0445 11.3771 649 110.002 419.807 486.018
2425 0 58.0344 12.3203 715 108.558 419.178 485.348
2426 0 58.0121 10.8598 630 112.695 418.903 483.684
2427 0 61.0331 12.2229 746 108.861 419.839 482.017
2428 0 63.0661 12.4948 788 108.14 419.643 481.212
2429 0 66.0359 12.2055 806 107.995 419.556 482.47
2430 0 68.0455 11.4335 778 111.276 419.833 479.987
2431 0 69.06 12.1054 836 110.203 420.299 479.944
2432 0 70.0395 11.1651 782 112.556 419.908 479.285
2433 0 70.0596 10.1057 708 115.105 419.558 480.281
2434 0 75.038 12.1405 911 110.297 419.564 478.049
2435 0 75.0641 10.9506 822 114.343 419.069 476.414
2436 0 78.1088 11.8681 927 112.073 419.804 476.106
2437 1 44.019 11.3587 500 109.668 419.85 492.004
2438 0 42.0149 9.37762 394 106.627 419.766 490.561
2439 0 41.0481 8.38041 344 104.997 419.491 485.509
2440 0 42.013 6.49799 273 100.879 418.707 488.689
2441 0 44.1299 8.13508 359 100.212 419.164 486.242
2442 0 44.0221 7.26908 320 101.906 419.331 484.822
2443 0 47.029 9.39845 442 98.4027 418.95 486.814
2444 0 47.0211 7.82627 368 100.997 419.163 485.929
2445 0 46.0671 7.90151 364 103.607 418.382 482.89
2446 0 52.0677 10.4479 544 111.202 418.393 490.204
2447 0 54.1508 11.468 621 108.261 416.539 489.457
2448 0 56.0693 10.701 600 110.923 415.805 488.792
2449 0 58.1268 12.1459 706 108.576 415.788 485.203
2450 0 58.1348 11.4733 667 111.015 416.759 484.937
2451 0 58.1488 10.8171 629 112.202 416.011 484.326
2452 0 65.0905 12.6286 822 105.745 416.258 480.305
2453 0 64.1124 12.0258 771 107.804 416.48 483.257
2454 0 66.1445 11.112 735 111.688 415.771 480.351
2455 0 68.1363 9.74517 664 113.557 416.491 481.581
2456 0 69.222 10.748 744 111.945 416.747 479.648
2457 0 73.0983 10.7663 787 110.435 416.816 479.996
2458 0 77.1121 11.8788 916 108.575 417.175 477.93
2459 0 80.0959 12.0356 964 108.351 417.19 474.831
2460 0 83.1414 12.0397 1001 107.245 417.13 471.87
2461 1 45.2123 10.9262 494 110.808 416.356 490.472
2462 0 48.3681 11.5365 558 108.808 417.022 487.668
2463 0 50.3223 12.877 648 105.963 417.372 488.514
2464 0 50.0428 11.8299 592 110.674 419.25 488.971
2465 0 51.1284 11.3244 579 111.807 419.223 488.444
2466 0 53.0602 12.0241 638 110.387 418.89 485.205
2467 0 55.1479 11.9678 660 109.647 419.862 486.648
2468 0 55.054 12.7148 700 109.669 419.133 485.443
2469 0 58.0383 11.4063 662 112.089 419.47 484.826
2470 0 59.1292 11.5679 684 112.709 419.55 484.608
2471 0 61.123 11.9104 728 112.984 419.192 483.687
2472 0 62.0842 12.2092 758 110.765 418.984 481.455
2473 0 65.1137 12.6241 822 109.21 419.551 480.313
2474 0 66.1383 12.0959 800 110.681 419.264 479.475
2475 0 69.1937 13.0503 903 108.268 418.648 475.76
2476 0 71.3467 13.5395 966 106.807 419 476.117
2477 0 72.2939 11.5224 833 112.424 418.689 473.748
2478 0 75.3036 11.6728 879 110.594 419.033 476.086
2479 0 77.3775 12.5489 971 108.786 418.563 472.666
2480 0 82.3302 13.0329 1073 107.181 419.053 470.53
2481 0 84.4525 10.7753 910 110.971 418.137 469.601
2482 0 86.3862 12.3515 1067 107.05 417.96 468.267
2483 1 45.4132 10.6577 484 106.279 419.38 489.24
2484 0 47.3706 11.7161 555 102.351 419.092 487.414
2485 0 47.0483 10.2873 484 99.3574 420.407 487.713
2486 0 49.041 10.6238 521 96.5643 419.601 488.86
2487 0 52.0883 11.9413 622 93.2701 419.929 487.215
2488 0 54.0459 11.0462 597 94.072 419.879 485.936
2489 0 55.0618 12.0592 664 91.9578 419.345 483.267
2490 0 56.0806 11.3052 634 93.7429 419.653 484.525
2491 0 60.1932 12.6426 761 90.3325 419.281 482.601
2492 0 59.0548 10.6511 629 94.1351 420.006 483.897
2493 0 61.0551 11.1375 680 93.3191 420.066 481.432
2494 0 63.12 10.3612 654 94.422 419.902 479.942
2495 0 66.0737 12.0169 794 91.1801 420.236 477.952
2496 0 68.0948 12.4239 846 89.487 419.603 477.083
2497 0 70.0698 10.3326 724 94.0912 419.696 479.037
2498 0 73.1155 11.4887 840 92.9714 419.737 476.59
2499 0 75.0822 12.0801 907 90.7839 419.66 476.622
2500 0 78.0564 11.7479 917 91.6281 420.032 473.526
2501 0 80.109 11.2347 900 94.3078 419.813 471.02
2502 1 42.0594 11.1509 469 99.1812 420.648 488.642
2503 0 43.0583 11.6354 501 96.6287 420.255 487.507
2504 0 45.0504 11.7646 530 95.6472 420.209 489.266
2505 0 47.0671 13.5126 636 93.0786 419.681 488.846
2506 0 47.0914 13.2508 624 96.0401 419.67 488.146
2507 0 49.0923 12.507 614 94.6059 419.756 489.241
2508 0 49.0411 11.0927 544 98.9412 420.344 489.393
2509 0 51.1272 12.1657 622 97.9469 420.223 487.051
2510 0 53.1153 12.84 682 96.6569 419.828 487.453
2511 0 54.0931 12.497 676 98.5533 419.552 486.231
2512 0 58.0607 13.6065 790 95.6823 419.647 485.89
2513 0 59.0552 13.5466 800 97.0387 419.688 484.639
2514 0 61.0927 13.766 841 96.6409 420.03 483.109
2515 0 60.0993 11.6308 699 104.024 420.534 484.112
2516 0 62.2333 13.369 832 101.071 419.966 482.107
2517 0 66.0667 13.2139 873 100.087 419.962 483.554
2518 0 66.0879 12.0446 796 105.614 419.695 480.396
2519 0 69.0583 14.524 1003 100.196 419.572 478.953
2520 0 71.1074 13.6695 972 103.178 419.283 478.645
2521 0 74.1954 13.6801 1015 103.145 419.812 475.682
2522 0 74.245 12.7147 944 106.88 418.967 476.818
2523 0 79.1284 13.0926 1036 105.996 420.269 475.163
2524 0 81.0521 13.3248 1080 107.243 420.112 472.302
2525 0 83.1056 13.2843 1104 107.099 420.52 472.625
2526 1 40.0091 12.5221 501 116.255 420.838 492.255
2527 0 45.0413 12.4552 561 109.512 420.619 492.574
2528 0 44.0866 13.2694 585 107.552 420.318 491.969
2529 0 45.1404 12.007 542 111.487 420.878 492.085
2530 0 47.0495 12.8163 603 111.839 420.456 488.023
2531 0 50.0447 13.6278 682 109.138 420.865 488.273
2532 0 49.0823 12.9171 634 114.959 419.511 487.767
2533 0 52.0796 12.4809 650 116.04 419.352 486.074
2534 0 52.0555 13.2359 689 115.161 418.586 486.585
2535 0 55.0348 13.4279 739 114.574 418.958 485.939
2536 0 57.0706 13.2643 757 116.306 419.336 485.423
2537 0 60.0769 14.7311 885 112.227 418.958 484.488
2538 0 58.0542 13.4874 783 118.488 418.057 482.524
2539 0 63.042 14.7045 927 113.832 418.827 480.213
2540 0 65.0723 14.4301 939 114.999 418.53 480.71
2541 0 66.0932 14.4644 956 115.848 418.743 478.901
2542 0 70.1298 14.8154 1039 114.781 418.636 478.362
2543 0 72.257 14.3239 1035 116.371 419.118 478.385
2544 0 74.1474 13.5136 1002 119.255 418.769 476.007
2545 0 77.1385 14.0267 1082 117.915 418.931 474.557
2546 0 81.1023 14.044 1139 117.006 419.009 472.277
2547 0 83.0828 13.4805 1120 120.165 418.833 472.587
2548 0 85.1047 14.817 1261 116.251 419.38 470.894
2549 0 87.0745 13.5516 1180 120.808 419.653 469.606
2550 1 46.0139 12.9743 597 127.564 419.491 487.586
2551 0 48.0858 11.8746 571 128.594 421.182 486.159
2552 0 48.1046 12.847 618 127.343 421.074 485.238
2553 0 51.0818 12.8813 658 123.552 420.847 485.242
2554 0 51.0704 12.0618 616 126.677 421.325 484.58
2555 0 50.0135 11.3169 566 129.519 421.221 484.756
2556 0 54.1794 13.0123 705 123.864 420.848 482.026
2557 0 59.1828 13.6526 808 119.204 421.092 480.042
2558 0 59.0743 13.7454 812 120.877 420.615 479.315
2559 0 60.1204 12.974 780 123.39 420.567 477.868
2560 0 63.0348 13.7226 865 120.928 420.718 477.751
2561 0 64.0728 13.5939 871 121.657 421.473 477.788
2562 0 67.0477 13.6619 916 121.325 421.053 475.094
2563 0 70.0696 13.2582 929 121.27 420.569 475.536
2564 0 72.1248 12.8943 930 123.262 421.377 474.822
2565 0 75.144 14.6918 1104 118.342 420.787 471.749
2566 0 77.0761 12.8834 993 122.533 421.398 471.534
2567 0 81.0814 13.6159 1104 120.032 421.507 467.986
2568 0 84.1597 12.6307 1063 122.031 420.764 466.809
2569 0 88.0844 13.2373 1166 119.096 420.69 467.403
2570 0 90.0885 12.6653 1141 122.451 421.358 463.683
2571 1 46.0359 11.2955 520 128.16 421 485.46
2572 0 46.0818 11.0239 508 126.823 420.882 486.13
2573 0 49.0989 13.0553 641 117.339 421.147 485.866
2574 0 50.0592 12.9447 648 117.955 421.023 483.778
2575 0 50.1516 11.4254 573 123.213 420.6 484.298
2576 0 54.1148 11.9191 645 117.423 420.451 481.958
2577 0 55.1162 12.3557 681 116.135 421.029 480.794
2578 0 56.1112 11.994 673 116.447 420.678 482.632
2579 0 60.1189 11.943 718 114.313 420.987 480.423
2580 0 61.0671 13.0021 794 112.04 420.525 477.542
2581 0 65.1036 12.4571 811 111.726 420.539 478.069
2582 0 65.1694 12.0916 788 112.876 420.052 476.089
2583 0 68.079 12.6324 860 111.638 420.645 475.47
2584 0 70.1758 12.3689 868 111.608 420.285 473.923
2585 0 71.138 13.0451 928 110.579 420.052 474.164
2586 0 75.114 11.9818 900 106.751 419.59 473.567
2587 0 76.1427 11.636 886 108.304 420.142 470.454
2588 0 78.2778 10.8971 853 110.302 419.71 469.971
2589 0 84.1419 12.8473 1081 105.737 419.68 468.559
2590 0 83.0992 11.8894 988 109.416 420.277 467.742
2591 0 88.1384 11.1983 987 109.964 420.113 465.823
2592 0 92.0945 12.6718 1167 104.608 420.323 464.311
2593 0 94.0654 11.0774 1042 109.112 420.835 462.657
2594 1 52.0591 10.7186 558 108.699 420.452 484.068
2595 0 53.1762 10.4934 558 103.841 420.389 480.027
2596 0 54.0827 11.5379 624 106.546 420.162 482.165
2597 0 57.1258 12.1136 692 105.97 420.792 481.684
2598 0 60.0765 12.817 770 103.862 420.843 478.481
2599 0 61.1019 11.9963 733 105.891 420.312 479.506
2600 0 65.1074 13.2857 865 102.125 420.418 475.757
2601 0 66.0698 12.4717 824 104.59 421.068 476.055
2602 0 69.1108 12.0676 834 105.713 421.192 473.711
2603 0 73.0644 12.5095 914 104.997 420.976 474.521
2604 0 74.1256 12.8161 950 105.481 420.916 471.143
2605 0 76.0944 13.089 996 105.169 421.182 470.445
2606 0 80.1079 13.4693 1079 104.422 421.31 469.221
2607 0 82.2924 12.3584 1017 107.529 420.839 466.42
2608 0 85.1086 13.5474 1153 104.864 420.767 464.452
2609 0 89.1733 13.7822 1229 103.793 421.259 463.548
2610 0 92.0744 13.2502 1220 104.255 421.498 462.539
2611 0 95.1641 13.3874 1274 103.479 420.301 461.819
2612 0 98.0775 13.4383 1318 101.861 420.219 461.965
2613 0 102.173 11.6958 1195 100.526 420.185 458.18
2614 0 103.122 11.4331 1179 99.8159 419.354 452.621
2615 0 109.177 11.6416 1271 98.8261 419.344 449.177
2616 1 57.0533 11.9362 681 101.468 418.554 483.878
2617 0 59.0341 12.7723 754 101.342 419.008 483.281
2618 0 62.0555 12.7305 790 100.897 418.935 482.12
2619 0 61.0882 11.7371 717 103.23 418.827 481.059
2620 0 64.0761 13.1406 842 100.409 418.146 478.543
2621 0 68.1246 13.6368 929 97.7503 418.7 477.826
2622 0 69.0665 12.5386 866 100.513 418.394 479.936
2623 0 73.0681 12.7279 930 99.5269 417.589 479.099
2624 0 77.0429 12.5904 970 98.3876 417.789 477.814
2625 0 78.122 13.1717 1029 98.5918 417.906 475.193
2626 0 81.1406 14.2222 1154 95.8562 416.962 475.201
2627 0 83.0898 12.9017 1072 100.093 417.36 472.718
2628 0 86.1265 13.5498 1167 99.2228 417.481 471.464
2629 0 86.0917 12.5912 1084 102.513 416.561 469.923
2630 0 93.1617 14.5124 1352 97.6265 416.754 470.327
2631 0 95.1201 13.9928 1331 101.136 416.681 466.057
2632 1 48.0811 11.1478 536 106.772 416.731 490.782
2633 0 49.0199 11.2199 550 104.778 416.02 489.591
2634 0 51.0289 11.2877 576 102.108 416.233 487.455
2635 0 52.0869 11.9416 622 98.3762 416.719 491.241
2636 0 53.0811 11.5107 611 100.548 416.998 488.799
2637 0 54.1065 12.1982 660 99.2227 416.838 486.809
2638 0 57.0553 12.4966 713 97.6816 416.561 487.843
2639 0 57.0644 11.8638 677 99.5657 417.344 485.684
2640 0 60.0415 12.5247 752 98.4973 416.665 486.227
2641 0 60.1115 12.3604 743 99.3015 416.579 485.739
2642 0 63.1097 11.8365 747 100.175 417.256 486.465
2643 0 65.2133 12.4361 811 99.4069 417.236 482.908
2644 0 68.2208 12.7381 869 99.443 417.093 483.078
2645 0 68.1243 12.7708 870 100.843 417.105 481.015
2646 0 74.135 12.8279 951 99.8275 417.078 482.572
2647 0 73.1054 13.3506 976 101.379 416.837 479.904
2648 0 77.2236 12.794 988 102.576 417.693 478.611
2649 0 80.0946 14.1832 1136 100.59 417.533 477.872
2650 0 82.1046 13.8117 1134 102.265 417.47 477.83
2651 0 85.2077 13.426 1144 104.978 417.35 474.657
2652 0 88.1998 13.7982 1217 104.264 417.419 474.339
2653 0 90.1992 14.4125 1300 104.531 417.371 473.054
2654 0 91.1547 12.956 1181 110.216 416.711 469.46
2655 0 96.2127 13.2311 1273 110.106 416.624 470.983
2656 0 100.254 14.8922 1493 108.364 416.745 468.105
2657 0 101.228 12.6743 1283 116.317 417.727 464.3
2658 1 54.2738 11.7552 638 109.912 418.856 488.252
2659 0 52.3147 12.6733 663 112.821 417.205 483.252
2660 0 55.3533 12.1402 672 111.955 417.006 484.198
2661 0 57.1398 13.1257 750 104.235 416.896 488.459
2662 0 57.1322 12.0247 687 112.815 416.985 485.779
2663 0 60.1028 12.7282 765 109.701 417.542 483.592
2664 0 64.3678 13.05 840 108.001 416.993 483.787
2665 0 67.2861 13.3163 896 106.131 416.901 483.02
2666 0 68.2839 12.3162 841 108.491 417.017 482.949
2667 0 72.2237 11.8936 859 104.47 417.483 481.449
2668 0 73.2873 12.335 904 104.53 417.515 479.369
2669 0 75.3637 12.725 959 103.139 417.398 478.626
2670 0 77.0887 11.3116 872 105.515 416.742 475.088
2671 0 83.1577 13.0475 1085 101.645 416.614 472.851
2672 0 83.2067 11.6577 970 106.316 416.503 469.646
2673 0 86.1403 12.6886 1093 103.085 416.25 472.36
2674 0 90.277 11.941 1078 104.932 417.75 471.194
2675 0 92.1726 11.728 1081 105.333 418.072 469.416
2676 0 95.3479 11.673 1113 106.546 417.501 468.39
2677 0 98.2554 11.5719 1137 106.504 417.673 467.306
2678 0 100.387 11.9437 1199 107.926 416.903 464.51
2679 1 52.0902 10.9042 568 103.72 418.28 489.658
2680 0 52.1355 11.566 603 104.111 417.987 487.547
2681 0 56.059 13.8604 777 104.619 418.246 487.248
2682 0 58.2028 12.2331 712 105.353 417.723 486.629
2683 0 59.2525 12.2358 725 108.159 418.188 483.523
2684 0 61.1483 12.2326 748 106.957 418.102 484.372
2685 0 63.3177 12.3346 781 107.56 418.201 481.625
2686 0 66.1331 12.4295 822 107.533 418.373 479.804
2687 0 67.1821 12.5629 844 108.808 418.693 475.889
2688 0 69.0847 10.8562 750 113.977 418.356 475.361
2689 0 70.1728 11.1724 784 113.531 418.23 476.256
2690 0 73.1158 11.981 876 110.951 418.852 474.568
2691 0 77.1944 12.76 985 108.965 418.284 473.292
2692 0 78.1671 11.9488 934 111.401 418.876 469.561
2693 0 82.1681 13.2655 1090 108 418.782 470.028
2694 0 83.1827 12.0939 1006 112.387 418.237 465.862
2695 0 84.2186 10.1522 855 117.388 417.683 470.468
2696 0 88.1629 10.9457 965 115.292 417.762 469.674
2697 0 89.282 11.3797 1016 116.013 416.864 463.797
2698 1 48.2388 9.99195 482 115.075 416.039 485.251
2699 0 48.1844 11.0202 531 109.098 417.437 481.266
2700 0 51.3472 10.0298 515 109.845 417.017 481.35
2701 0 50.5003 9.20787 465 113.022 417.224 480.716
2702 0 56.2946 10.001 563 110.792 417.65 480.428
2703 0 56.4201 10.1737 574 111.063 417.556 479.322
2704 0 58.2121 10.4617 609 110.496 417.637 480.516
2705 0 61.3503 10.6438 653 109.848 418.093 479.496
2706 0 61.2876 11.1768 685 110.596 418.25 477.806
2707 0 62.2305 11.0396 687 111.284 417.721 476.607
2708 0 68.1761 11.749 801 108.863 417.906 476.645
2709 0 69.1454 12.0471 833 111.096 417.357 474.992
2710 0 70.1928 11.8103 829 112.492 417.275 473.216
2711 0 70.1828 11.1566 783 116.693 417.718 471.341
2712 0 74.3688 12.0481 896 114.153 417.615 473.323
2713 0 76.1929 11.9302 909 116.925 417.798 468.073
2714 0 79.2334 12.318 976 116.975 417.874 468.668
2715 0 80.3951 12.3764 995 118.115 418.206 467.79
2716 0 84.2716 13.4328 1132 117.526 417.195 463.953
2717 0 84.2716 13.3972 1129 151.922 416.2 463.903
2718 0 87.431 12.6957 1110 123.336 417.754 461.982
2719 0 87.3241 11.5661 1010 131.943 417.765 461.303
2720 0 93.3668 13.4309 1254 128.209 418.249 461.411
2721 0 95.5807 13.9777 1336 127.968 418.43 460.48
2722 1 51.3018 11.559 593 127.403 418.42 482.853
2723 0 51.3024 11.1886 574 123.922 417.697 480.359
2724 0 53.1502 10.1034 537 115.097 419.084 483.533
2725 0 55.2376 10.3915 574 115.465 419.096 483.094
2726 0 58.245 11.8122 688 111.475 419.186 481.743
2727 0 58.1462 10.3016 599 115.411 419.621 482.85
2728 0 61.1777 11.6873 715 113.453 419.554 480.462
2729 0 63.1391 11.8627 749 113.952 418.722 480.059
2730 0 63.1965 11.393 720 115.976 418.904 478.96
2731 0 66.1577 12.7121 841 113.811 419.416 476.834
2732 0 67.1189 12.4704 837 115.057 419.64 475.006
2733 0 69.1622 11.6971 809 117.126 419.363 475.061
2734 0 73.147 11.5794 847 115.486 419.544 476.484
2735 0 75.1637 12.0138 903 114.876 419.228 471.774
2736 0 78.1414 12.2854 960 115.059 419.196 470.598
2737 0 81.3067 11.8809 966 115.03 418.901 471.046
2738 0 84.1083 12.9119 1086 112.764 418.697 470.157
2739 0 86.2632 11.4185 985 116.053 418.914 468.161
2740 0 91.224 12.9023 1177 111.999 419.444 469.341
2741 0 93.1365 11.6603 1086 115.999 419.286 467.722
2742 0 95.1249 11.6163 1105 114.602 418.705 467.619
2743 1 48.0226 10.2868 494 112.253 419.585 487.816
2744 0 51.1622 10.5742 541 109.251 419.425 482.599
2745 0 51.1599 10.6724 546 108.883 419.529 480.449
2746 0 51.0365 11.3252 578 108.301 418.59 479.765
2747 0 54.1383 11.3967 617 106.997 418.844 479.162
2748 0 57.0704 11.1967 639 106.372 418.953 478.861
2749 0 60.1016 11.6303 699 104.361 418.712 479.911
2750 0 59.1172 12.01 710 104.731 418.715 478.542
2751 0 63.077 12.0646 761 102.534 419.008 477.229
2752 0 64.0694 11.7373 752 103.263 419.383 474.75
2753 0 66.1047 11.4818 759 104.374 418.805 472.972
2754 0 69.0937 11.4337 790 103.453 418.69 472.452
2755 0 70.0585 11.4333 801 103.022 418.742 471.518
2756 0 73.0765 11.3853 832 103.042 418.514 468.232
2757 0 75.0817 11.6007 871 101.719 419.285 470.454
2758 0 78.0878 10.7187 837 102.369 419.082 466.017
2759 0 81.1182 11.8839 964 99.39 419.149 464.009
2760 0 85.1944 11.9374 1017 99.0708 418.683 466.148
2761 0 87.2143 11.0876 967 100.981 418.733 462.038
2762 0 90.1905 10.5998 956 101.805 419.506 459.14
2763 0 92.2605 10.2861 949 101.748 419.45 458.173
2764 1 44.147 8.01867 354 103.607 418.831 481.944
2765 0 51.0829 9.23988 472 101.017 418.519 480.547
2766 0 50.051 11.1286 557 102.808 418.294 480.32
2767 0 53.088 11.5657 614 107.257 418.231 480.277
2768 0 52.0922 10.2702 535 111.796 418.093 479.282
2769 0 59.1601 11.4435 677 106.202 418.124 478.885
2770 0 59.1601 11.3928 674 141.668 417.122 478.912
2771 0 60.269 12.5272 755 104.664 419.209 474.441
2772 0 63.3579 11.4745 727 100.717 419.961 476.648
2773 0 67.3547 12.0556 812 98.8941 419.695 475.576
2774 0 69.4086 12.0302 835 98.6527 419.574 473.683
2775 0 70.0988 11.5123 807 100.856 420.025 470.477
2776 0 74.1354 11.6274 862 99.0128 420.021 472.45
2777 0 76.1221 10.6014 807 101.953 419.721 473.238
2778 0 79.1419 11.89 941 99.5569 419.696 469.526
2779 0 83.1784 13.0082 1082 97.1303 419.772 469.101
2780 0 83.1456 11.6663 970 101.081 419.722 468.189
2781 0 89.2134 13.294 1186 96.5556 419.294 467.153
2782 0 92.3249 12.9109 1192 99.7072 420.058 466.805
2783 0 94.1922 12.0392 1134 102.784 419.971 465.519
2784 1 49.0825 12.1836 598 97.5017 420.458 488.145
2785 0 51.0688 12.0817 617 98.718 420.25 487.856
2786 0 52.0287 10.9171 568 102.509 419.857 488.734
2787 0 53.1285 12.4227 660 98.95 417.741 487.586
2788 0 56.1394 11.4893 645 100.522 417.727 487.143
2789 0 53.0606 10.7047 568 104.118 417.984 484.884
2790 0 58.093 13.3407 775 98.5097 417.914 484.396
2791 0 61.0665 13.5754 829 99.2762 417.855 483.801
2792 0 62.1018 12.8821 800 103.013 417.374 482.025
2793 0 63.1323 11.9907 757 106.091 417.707 481.864
2794 0 66.047 12.582 831 103.491 417.019 481.919
2795 0 69.0628 13.1185 906 103.69 417.252 478.294
2796 0 71.1745 13.5582 965 102.487 416.768 479.257
2797 0 73.1456 12.7007 929 104.961 417.468 476.186
2798 0 77.1313 13.7817 1063 101.814 417.509 475.935
2799 0 80.1372 13.5393 1085 102.817 417.671 473.669
2800 0 82.0837 14.1076 1158 101.912 417.225 472.153
2801 0 85.1195 13.2637 1129 103.962 416.708 471.563
2802 0 88.111 13.744 1211 102.669 417.452 467.504
2803 0 93.1499 13.9238 1297 101.844 417.647 467.416
2804 1 48.0143 10.1845 489 107.264 416.894 490.667
2805 0 46.0319 9.34135 430 105.074 417.056 486.379
2806 0 50.0139 11.2369 562 106.756 417.109 488.11
2807 0 53.0142 12.1288 643 104.701 416.913 485.194
2808 0 55.0127 13.4333 739 100.322 417.272 487.424
2809 0 56.027 12.1906 683 104.382 417.224 483.665
2810 0 58.035 13.3368 774 101.925 417.041 483.417
2811 0 60.0102 11.6813 701 106.411 417.344 483.177
2812 0 63.0196 13.0277 821 103.082 417.535 483.034
2813 0 63.0184 12.7106 801 105.208 417.552 482.767
2814 0 67.0727 12.7921 858 103.985 416.914 482.409
2815 0 69.0451 14.1791 979 102.042 417.026 480.249
2816 0 69.0394 13.3547 922 105.638 416.962 477.944
2817 0 73.0137 13.2852 970 105.857 416.671 478.195
2818 0 76.0424 13.2952 1011 105.623 416.456 477.821
2819 0 78.069 13.629 1064 105.855 417.102 475.638
2820 0 81.0426 13.3263 1080 106.722 417.41 474.169
2821 0 83.0595 14.0622 1168 105.576 416.97 474.435
2822 0 83.1269 12.7997 1064 110.113 416.71 472.576
2823 0 88.1127 13.7211 1209 107.128 417.211 472.404
2824 0 90.1392 13.812 1245 108.427 416.919 467.918
2825 0 92.1021 13.7999 1271 108.946 417.599 466.695
2826 0 95.2661 12.6908 1209 112.08 417.626 466.529
2827 0 100.205 14.0312 1406 108.857 417.467 463.706
2828 0 103.255 14.0914 1455 109.003 417.188 462.28
2829 0 104.183 13.054 1360 112.467 417.312 460.488
2830 1 60.1164 11.6441 700 109.31 417.347 485.921
2831 0 59.1341 11.3978 674 112.246 416.81 483.693
2832 0 62.1019 12.7049 789 109.023 417.403 482.171
2833 0 64.1188 13.4906 865 107.355 416.02 481.776
2834 0 67.0837 12.5813 844 108.552 416.261 482.716
2835 0 69.0744 12.6241 872 108.857 415.953 481.151
2836 0 70.1113 13.6783 959 107.168 416.234 478.771
2837 0 74.054 12.5584 930 109.239 416.224 477.984
2838 0 76.1377 12.0571 918 110.375 415.521 477.999
2839 0 78.1301 13.1959 1031 109.019 416.055 475.829
2840 0 80.0659 15.3748 1231 103.741 415.59 475.102
2841 0 84.0797 11.7627 989 110.909 415.632 475.273
2842 0 88.1803 14.3002 1261 105.909 415.829 472.864
2843 0 89.0836 13.4593 1199 109.252 416.506 471.285
2844 0 90.2006 12.5387 1131 112.536 417.103 469.888
2845 0 95.1118 14.3831 1368 107.723 417.101 467.378
2846 1 53.1232 11.5392 613 105.617 416.638 490.041
2847 0 54.0958 10.7957 584 106.807 416.36 489.757
2848 0 56.2025 12.0279 676 107.031 417.859 487.794
2849 0 59.1676 11.8984 704 108.571 416.267 487.067
2850 0 61.1915 12.4364 761 107.175 416.777 485.98
2851 0 61.0734 11.5762 707 110.629 416.231 484.116
2852 0 64.0841 10.8451 695 110.768 416.135 485.118
2853 0 65.1826 12.58 820 108.824 416.5 483.244
2854 0 67.185 13.0386 876 107.495 417.014 480.942
2855 0 69.1586 13.3461 923 106.092 417.236 482.26
2856 0 70.1561 13.0423 915 108.798 417.164 479.13
2857 0 71.2967 12.0623 860 112.272 417.522 478.812
2858 0 76.1677 13.9298 1061 107.754 417.182 478.16
2859 0 76.4207 13.2425 1012 110.75 416.611 477.188
2860 0 79.4026 14.0046 1112 109.281 417.231 476.627
2861 0 81.2502 13.243 1076 112.848 416.088 473.336
2862 0 85.4614 13.5617 1159 111.969 416.45 471.168
2863 0 88.4913 14.1031 1248 111.11 416.818 468.999
2864 0 90.3769 13.156 1189 113.5 417.101 471.18
2865 0 95.4208 13.6448 1302 113.149 416.865 464.836
2866 0 97.5727 13.4361 1311 114.956 416.751 462.041
2867 0 101.43 13.3688 1356 115.09 417.251 461.423
2868 1 52.4771 11.8909 624 109.322 417.646 486.833
2869 0 53.3001 10.8067 576 115.062 415.998 485.29
2870 0 52.097 11.6705 608 114.271 416.474 485.704
2871 0 55.2385 12.799 707 112.177 416.182 486.463
2872 0 57.0976 12.575 718 113.022 416.443 486.05
2873 0 61.1221 13.0395 797 109.547 416.669 486.685
2874 0 59.0895 13.4711 796 112.446 416.217 485.525
2875 0 63.2196 13.9988 885 110.826 416.399 484.183
2876 0 63.2374 11.781 745 118.824 416.702 484.275
2877 0 67.3288 12.0602 812 118.688 417.028 481.744
2878 0 69.1656 13.0122 900 117.214 416.626 480.576
2879 0 70.2009 12.7776 897 118.972 416.395 479.929
2880 0 74.5094 13.0319 971 117.849 416.319 479.388
2881 0 76.2596 13.1918 1006 118.754 415.804 477.991
2882 0 77.349 12.5535 971 120.835 416.417 477.742
2883 0 80.3533 13.8887 1116 118.609 416.795 476.096
2884 0 81.4745 13.2189 1077 120.923 416.836 475.097
2885 0 83.2792 13.0165 1084 122.964 416.867 472.199
2886 0 85.3314 12.9378 1104 123.509 417.782 471.174
2887 0 89.3138 13.7045 1224 120.914 417.409 470.224
2888 1 48.2699 12.2229 590 120.82 417.147 490.485
2889 0 48.4443 10.4037 504 122.038 417.411 487.593
2890 0 51.4371 12.2285 629 121.919 417.07 487.083
2891 0 54.479 12.5186 682 120.959 416.889 484.889
2892 0 55.0443 12.4627 686 120.273 416.98 488.172
2893 0 56.1413 11.9342 670 123.019 416.293 485.649
2894 0 59.1785 12.8594 761 119.657 417.234 485.206
2895 0 59.1445 13.3233 788 120.283 416.9 484.095
2896 0 62.1523 12.8233 797 120.186 417.039 482.739
2897 0 63.2367 12.7774 808 121.168 417.439 481.78
2898 0 63.1664 12.5067 790 122.503 417.072 480.334
2899 0 67.1576 13.1482 883 119.598 416.922 479.784
2900 0 69.1961 12.8764 891 120.295 417.377 478.35
2901 0 73.2274 13.301 974 118.399 416.801 477.901
2902 0 74.3069 13.0809 972 117.058 416.138 476.199
2903 0 79.2226 13.683 1084 113.905 416.544 475.669
2904 0 79.2367 12.8981 1022 116.772 416.723 472.74
2905 0 83.3869 12.8198 1069 115.682 417.222 470.432
2906 0 85.2883 12.7802 1090 115.506 416.47 470.939
2907 0 90.4023 11.4599 1036 117.161 416.92 467.815
2908 0 92.5651 11.3326 1049 117.563 416.665 465.895
2909 1 49.3597 10.4336 515 113.52 417.534 485.538
2910 0 52.2896 12.0483 630 107.508 418.767 486.414
2911 0 53.2705 11.6199 619 110.889 418.937 484.178
2912 0 55.2003 12.4456 687 108.894 418.566 484.926
2913 0 55.2713 12.3572 683 109.442 418.461 482.373
2914 0 58.2552 11.7071 682 110.613 418.56 483.96
2915 0 60.2393 12.4338 749 108.633 417.688 482.578
2916 0 61.2318 13.5714 831 106.461 418.747 480.643
2917 0 62.1934 12.7023 790 108.619 417.965 480.171
2918 0 64.2462 12.1564 781 110.462 418.378 477.394
2919 0 67.2072 12.0969 813 110.52 418.273 478.563
2920 0 69.0479 12.2813 848 110.404 418.804 478.848
2921 0 72.0951 12.6777 914 109.837 418.969 477.621
2922 0 73.0846 12.2187 893 112.086 418.538 476.559
2923 0 76.1774 12.0639 919 113.275 418.626 474.651
2924 0 79.0841 11.962 946 113.992 419.738 473.578
2925 0 81.0906 12.3196 999 113.471 419.446 471.88
2926 0 84.116 12.6611 1065 113.752 419.342 469.333
2927 0 86.0772 13.6389 1174 111.867 419.25 470.227
2928 0 90.1159 13.2274 1192 113.671 418.562 467.599
2929 0 93.0997 12.492 1163 115.414 418.678 466.806
2930 0 96.1094 12.902 1240 115.386 418.886 464.299
2931 0 101.132 13.339 1349 113.4 418.672 462.862
2932 1 52.0487 10.4518 544 113.559 418.607 487.601
2933 0 53.0133 12.2422 649 111.364 418.835 486.638
2934 0 55.0316 11.3026 622 113.635 419.135 483.297
2935 0 59.0562 12.7167 751 113.519 417.338 482.245
2936 0 59.0818 13.1682 778 114.125 416.911 481.945
2937 0 61.037 12.6153 770 116.177 416.534 480.927
2938 0 63.0376 13.5792 856 112.854 416.273 479.735
2939 0 66.093 12.8909 852 115.759 416.305 476.716
2940 0 67.0544 12.557 842 116.315 416.044 475.515
2941 0 69.2892 12.5849 872 117.104 418.202 475.32
2942 0 72.2897 12.2701 887 118.046 417.386 475.244
2943 0 77.2058 13.885 1072 112.485 417.996 475.154
2944 0 76.2161 13.1862 1005 116.384 417.854 474.065
2945 0 78.1292 13.1705 1029 117.08 417.059 471.084
2946 0 82.1965 13.3947 1101 114.88 417.751 471.553
2947 0 85.1989 13.5565 1155 114.185 417.662 471.969
2948 0 89.1644 13.9518 1244 113.854 417.268 468.133
2949 1 45.0661 10.8507 489 115.973 419.088 490.634
2950 0 46.0264 10.972 505 115.875 419.162 490.685
2951 0 47.0381 11.8415 557 110.596 419.022 490.65
2952 0 47.1966 10.1278 478 100.872 416.787 483.569
2953 0 50.1795 10.4624 525 99.2552 417.99 484.33
2954 0 51.2371 11.8274 606 96.6964 417.635 482.434
2955 0 52.1428 11.0849 578 98.3806 418.144 481.426
2956 0 54.1599 10.5244 570 98.3684 417.609 481.149
2957 0 55.0921 11.871 654 96.4297 418.115 480.448
2958 0 58.0846 11.0012 639 98.4851 417.484 481.527
2959 0 58.0647 9.90274 575 101.424 417.699 481.11
2960 0 62.1518 11.4076 709 97.9732 417.752 481.518
2961 0 63.1928 11.9001 752 97.9229 417.225 478.202
2962 0 65.0831 11.6313 757 98.7067 417.511 478.675
2963 0 67.1707 13.0265 875 96.7131 416.869 478.669
2964 0 70.1593 11.7447 824 99.3277 417.008 475.985
2965 0 70.1219 12.136 851 99.3713 417.514 477.716
2966 0 71.1597 10.8488 772 103.351 417.005 473.854
2967 0 72.1646 10.6839 771 104.455 416.911 475.462
2968 0 77.179 11.3762 878 102.228 417.285 471.817
2969 0 77.1489 11.3547 876 104.152 417.213 470.316
2970 0 80.1876 10.9244 876 105.014 417.265 471.675
2971 0 85.139 11.8277 1007 103.243 417.85 470.73
2972 0 84.1085 10.7956 908 106.935 418.026 469.693
2973 0 87.1653 10.9906 958 107.195 417.53 468.406
2974 0 89.1922 11.1108 991 108.983 416.758 465.354
2975 0 92.1135 12.2566 1129 106.616 416.873 466.31
2976 0 95.1872 11.4616 1091 108.479 417.313 466.008
2977 0 100.143 11.9929 1201 107.734 416.98 464.959
2978 0 103.22 12.3328 1273 107.331 417.74 463.4
2979 1 53.115 10.2231 543 108.28 417.374 488.227
2980 0 55.278 12.41 686 105.054 416.415 482.149
2981 0 57.1749 11.4561 655 107.915 416.58 482.243
2982 0 58.18 11.7566 684 106.054 416.237 482.516
2983 0 61.1338 11.0414 675 107.594 416.526 481.905
2984 0 64.2018 13.0837 840 101.765 416.042 479.262
2985 0 65.1566 12.1093 789 103.251 416.193 480.272
2986 0 68.1728 11.7496 801 104.094 416.194 478.705
2987 0 69.2108 12.0935 837 104.233 416.11 478.504
2988 0 71.0992 11.9411 849 103.867 415.477 479.114
2989 0 73.0633 12.9066 943 99.9947 414.954 477.423
2990 0 73.0531 10.335 755 102.53 416.686 471.395
2991 0 76.1495 10.8339 825 101.52 416.228 470.455
2992 0 80.101 11.8475 949 100.107 416.294 467.688
2993 0 82.0762 11.5746 950 101.764 416.536 465.549
2994 1 43.1677 10.1233 437 100.625 416.618 484.62
2995 0 42.0786 10.4804 441 106.408 415.068 487.59
2996 0 47.134 12.1356 572 107.533 415.379 489.568
2997 0 50.1772 12.695 637 105.013 415.881 489.684
2998 0 53.1292 12.1967 648 106.454 416.034 487.978
2999 0 51.141 11.3998 583 110.388 415.619 486.535
3000 0 54.1084 12.1238 656 107.988 415.791 486.582
3001 0 55.1369 11.408 629 109.378 415.288 485.919
3002 0 57.1811 12.4867 714 107.249 415.619 485.014
3003 0 58.3861 12.0577 704 108.26 416.01 484.098
3004 0 60.1927 12.7922 770 106.292 415.782 484.492
3005 0 61.0921 11.2453 687 110.172 416.143 482.972
3006 0 64.2238 13.1104 842 106.087 415.762 480.964
3007 0 65.1151 11.4566 746 110.456 415.704 480.394
3008 0 69.1745 12.36 855 107.799 415.577 479.065
3009 0 72.2376 13.2479 957 105.193 415.708 477.865
3010 0 73.1339 12.6617 926 106.811 415.934 477.787
3011 0 73.0963 11.0676 809 112.511 415.56 475.057
3012 0 79.1626 12.9986 1029 107.096 415.639 472.982
3013 0 82.1306 13.235 1087 106.1 415.576 473.489
3014 1 42.0257 12.064 507 104.379 414.949 491.765
3015 0 44.065 11.6873 515 106.361 415.783 492.287
3016 0 48.0196 12.8489 617 103.191 416.032 489.293
3017 0 50.0239 12.3741 619 104.635 415.761 490.034
3018 0 50.0282 12.8727 644 104.787 415.514 489.769
3019 0 51.013 12.193 622 107.563 416.069 488.355
3020 0 53.088 12.0743 641 107.368 415.524 488.384
3021 0 52.0276 11.8975 619 109.425 415.501 487.031
3022 0 54.0218 12.5135 676 107.639 415.314 486.898
3023 0 58.0165 12.9791 753 106.027 415.641 486.194
3024 0 58.0242 12.1501 705 109.155 415.779 483.868
3025 0 60.0576 12.6712 761 107.066 415.309 485.514
3026 0 61.0121 13.8169 843 105.491 415.153 483.694
3027 0 64.0552 12.1614 779 108.149 415.688 484.574
3028 0 66.0386 12.9015 852 107.755 416.113 482.506
3029 0 66.101 13.555 896 108.674 415.956 480.474
3030 0 69.0433 12.4704 861 111.143 415.446 479.64
3031 0 72.0492 13.1993 951 109.258 415.6 480.573
3032 0 74.061 14.9336 1106 105.438 415.771 479.682
3033 0 75.0685 13.3611 1003 110.089 415.506 478.97
3034 0 79.0864 13.8836 1098 108.994 415.72 476.721
3035 0 79.1172 12.7659 1010 112.562 415.501 475.625
3036 0 81.1061 12.1816 988 114.454 415.981 471.429
3037 0 84.0731 12.5724 1057 113.111 416.327 472.467
3038 0 87.0675 12.2434 1066 114.077 415.78 470.504
3039 1 47.0937 10.7233 505 113.529 415.651 490.851
3040 0 50.0761 11.822 592 110.748 416.302 490.329
3041 0 52.2695 12.1295 634 110.41 418.468 488.856
3042 0 53.3266 12.3203 657 110.428 417.895 488.277
3043 0 54.2565 12.7174 690 110.193 418.375 487.328
3044 0 56.3138 12.9276 728 110.008 418.547 486.845
3045 0 57.2304 12.1264 694 112.784 418.519 485.97
3046 0 59.1215 12.4489 736 106.688 418.068 483.277
3047 0 61.1444 13.1819 806 108.319 417.566 484.201
3048 0 62.0925 13.3027 826 112.042 418.065 483.868
3049 0 63.1513 13.5706 857 101.496 418.009 483.686
3050 0 61.1841 13.4675 824 109.312 418.873 482.567
3051 0 61.1841 13.3858 819 143.44 419.886 482.647
3052 0 62.2303 13.1286 817 116.496 418.108 482.542
3053 0 66.1929 15.4246 1021 109.071 417.738 481.875
3054 0 66.1092 13.7046 906 114.73 417.906 480.541
3055 0 68.1174 13.1831 898 115.195 417.992 481.859
3056 0 70.2502 13.6085 956 112.63 418.449 479.498
3057 0 74.1882 13.5062 1002 111.235 418.614 478.304
3058 0 77.2334 13.9188 1075 109.193 418.108 476.452
3059 0 78.1765 13.9044 1087 108.581 418.569 474.844
3060 0 80.1813 13.4695 1080 108.466 418.616 475.579
3061 0 83.2647 13.7994 1149 107.959 418.388 474.023
3062 0 85.2212 13.5295 1153 109.284 418.179 472.241
3063 0 84.2625 12.8052 1079 111.936 418.251 471.566
3064 0 88.2289 13.0003 1147 111.259 418.182 470.601
3065 0 92.2717 13.9913 1291 111.371 418.198 466.914
3066 0 95.4694 12.538 1197 115.557 417.666 462.668
3067 0 95.3486 12.6903 1210 115.302 417.402 461.292
3068 1 51.0679 10.7504 549 108.146 416.872 486.455
3069 0 54.18 11.0557 599 105.359 418.369 485.15
3070 0 54.1293 9.92068 537 108.561 418.996 483.901
3071 0 56.0911 9.96593 559 109.952 417.301 482.757
3072 0 58.0748 11.8124 686 111.051 417.217 482.816
3073 0 59.1032 11.8437 700 112.33 416.896 484.907
3074 0 62.1552 12.871 800 110.385 416.457 481.97
3075 0 62.0738 12.614 783 112.564 416.406 479.457
3076 0 64.1101 11.995 769 115.083 416.342 480.094
3077 0 67.1469 12.6737 851 113.698 417.282 481.752
3078 0 69.1178 13.7012 947 112.807 416.806 479.507
3079 0 69.1231 12.2824 849 117.721 416.339 477.658
3080 0 71.1699 12.8987 918 117.857 416.558 478.113
3081 0 75.1592 12.6531 951 117.431 416.896 476.924
3082 0 77.1205 13.1612 1015 117.281 416.683 474.983
3083 0 79.1953 13.8266 1095 116.168 417.083 476.026
3084 0 82.154 12.5131 1028 119.912 417.575 474.085
3085 0 84.1399 13.9173 1171 116.214 417.426 473.018
3086 0 86.1604 13.0454 1124 119.12 417.156 472.008
3087 0 90.0754 12.8337 1156 120.933 417.199 468.864
3088 1 45.0658 10.6733 481 128.561 416.374 490.954
3089 0 47.0531 12.199 574 121.321 416.774 490.659
3090 0 50.0667 12.4234 622 120.055 416.664 489.605
3091 0 51.1414 13.6484 698 116.132 416.302 489.956
3092 0 52.1178 13.0857 682 118.985 416.421 487.877
3093 0 52.1124 12.6649 660 122.685 417.27 488.271
3094 0 53.0859 12.6399 671 123.162 416.38 487.003
3095 0 56.0392 13.2586 743 121.087 416.489 485.261
3096 0 57.0858 13.506 771 119.997 417.042 486.663
3097 0 59.1032 12.3682 731 118.773 417.197 483.929
3098 0 60.0733 11.2529 676 119.731 417.109 481.978
3099 0 64.0446 12.9753 831 113.957 417.219 480.864
3100 0 66.0279 12.3584 816 115.055 417.05 480.39
3101 0 67.0745 12.091 811 113.041 417.767 477.734
3102 0 66.0589 11.293 746 113.883 417.655 472.698
3103 0 69.0804 10.9148 754 115.149 417.007 472.483
3104 0 73.0489 13.3883 978 108.358 417.179 472.383
3105 0 74.1384 12.2069 905 112.841 417.425 470.939
3106 0 74.1384 12.1934 904 128.176 418.456 471.008
3107 0 78.0747 12.424 970 114.873 418.025 467.981
3108 0 82.1151 13.3228 1094 112.978 417.909 466.059
3109 0 81.2476 12.3327 1002 119.635 418.134 463.665
3110 1 40.2105 10.7683 433 122.878 417.831 485.032
3111 0 42.1289 11.3699 479 118.841 418.263 484.505
3112 0 45.1606 11.2266 507 118.475 417.746 485.89
3113 0 46.161 11.9365 551 111.722 418.051 485.603
3114 0 49.152 11.6374 572 111.743 418.545 485.33
3115 0 50.1295 11.4703 575 112.597 417.438 484.256
3116 0 49.1086 10.1612 499 114.591 418.299 483.83
3117 0 51.1231 11.2278 574 113.409 418.152 481.608
3118 0 53.178 11.753 625 113.086 418.125 481.328
3119 0 54.1155 11.7711 637 114.345 417.388 478.931
3120 0 56.1838 12.4947 702 112.449 417.678 478.191
3121 0 58.113 10.7205 623 115.917 418.088 477.865
3122 0 60.0868 11.8162 710 113.762 417.734 477.98
3123 0 64.1167 11.8378 759 113.663 418.389 476.094
3124 0 64.0389 12.1645 779 113.878 418.426 476.635
3125 0 68.116 12.1411 827 112.885 418.432 476.149
3126 0 71.0729 11.5515 821 112.943 418.368 476.857
3127 0 71.136 12.8205 912 111.95 418.592 473.929
3128 0 74.1775 10.9467 812 115.979 418.727 472.037
3129 0 78.2511 12.1787 953 112.484 418.604 472.568
3130 0 80.1253 12.9797 1040 111.708 418.64 469.723
3131 0 83.1272 12.0177 999 113.299 418.619 468.572
3132 0 86.1204 11.6116 1000 113.812 419.351 468.864
3133 0 90.2305 12.7451 1150 111.641 418.669 468.574
3134 1 47.0642 11.8562 558 108.642 419.887 490.392
3135 0 50.0949 11.618 582 112.364 417.686 488.349
3136 0 51.1027 12.3477 631 109.905 417.434 486.529
3137 0 54.0658 11.8744 642 109.704 416.603 485.9
3138 0 54.1616 12.4442 674 108.233 418.004 484.395
3139 0 56.1744 12.8884 724 105.767 417.55 484.521
3140 0 58.1376 12.1092 704 107.378 418.132 482.902
3141 0 61.1032 12.2252 747 106.217 417.38 481.813
3142 0 62.1528 12.067 750 107.191 417.407 480.449
3143 0 63.1093 12.3912 782 106.338 417.471 480.811
3144 0 66.0282 12.0706 797 106.261 418.476 481.602
3145 0 68.0679 12.4728 849 105.991 418.271 478.597
3146 0 69.1957 12.1395 840 107.455 417.692 477.655
3147 0 71.1728 12.294 875 107.946 417.843 476.525
3148 0 73.1317 12.9492 947 107.324 417.602 474.223
3149 0 77.1022 13.4626 1038 105.078 417.892 476.273
3150 0 79.2163 12.7752 1012 107.303 418.156 473.516
3151 0 81.1605 13.0605 1060 107.552 418.047 471.982
3152 0 83.1219 13.1133 1090 108.577 418.714 470.567
3153 0 86.1442 12.7577 1099 109.318 418.734 473.894
3154 0 89.1792 13.1196 1170 108.005 418.763 474.071
3155 0 93.145 12.6792 1181 110.771 418.661 472.245
3156 0 95.2196 13.8522 1319 109.818 418.719 467.428
3157 0 98.3175 13.609 1338 110.839 418.851 468.204
3158 0 100.085 12.929 1294 113.312 418.854 466.541
3159 1 58.063 12.5037 726 113.079 419.541 487.787
3160 0 59.1414 12.394 733 116.51 418.596 486.611
3161 0 60.0483 13.5891 816 107.967 419.138 485.548
3162 0 61.065 12.5113 764 109.809 418.753 484.755
3163 0 64.0808 13.7327 880 106.82 418.932 483.734
3164 0 66.1042 14.0233 927 107.309 418.8 481.452
3165 0 67.1215 12.6338 848 111.046 418.904 480.939
3166 0 71.2501 14.0351 1000 106.427 419.25 479.665
3167 0 73.1306 13.5784 993 108.487 418.783 478.254
3168 0 75.1452 13.7068 1030 107.293 418.507 478.123
3169 0 78.2166 13.68 1070 107.839 418.941 478.054
3170 0 79.0821 13.1382 1039 110.024 418.433 476.92
3171 0 82.0887 13.6072 1117 108.166 418.356 476.556
3172 0 85.0725 13.7765 1172 108.337 417.852 473.238
3173 0 86.1336 12.8637 1108 110.81 418.248 471.043
3174 0 88.1009 12.1338 1069 112.097 418.423 473.583
3175 0 91.1299 13.6508 1244 108.707 418.89 467.592
3176 0 94.1521 13.3932 1261 109.196 418.623 469.45
3177 0 98.1457 13.9996 1374 108.426 417.76 467.254
3178 0 101.065 14.4561 1461 107.349 417.604 466.192
3179 0 103.066 13.4575 1387 111.221 417.131 465.839
3180 0 106.111 13.6744 1451 109.979 416.001 461.228
3181 0 110.127 13.0122 1433 111.399 416.051 462.259
3182 0 113.185 14.0478 1590 109.22 415.942 458.55
3183 0 119.187 14.5318 1732 107.07 416.427 454.253
3184 0 124.181 13.8347 1718 108.541 416.237 456.14
3185 0 128.075 13.4062 1717 109.097 416.381 454.867
3186 1 68.0881 13.6735 931 107.162 416.127 481.925
3187 0 70.0743 13.1004 918 110.245 416.036 481.439
3188 0 72.093 14.2594 1028 105.529 415.786 479.066
3189 0 77.0665 14.6107 1126 103.937 416.454 478.943
3190 0 78.1426 14.1792 1108 106.455 416.269 477.927
3191 0 80.1151 14.0797 1128 106.754 416.31 477.562
3192 0 83.1191 13.1257 1091 109.213 416.648 475.817
3193 0 85.2303 14.0912 1201 108.188 416.415 474.188
3194 0 87.1096 13.5806 1183 110.391 416.211 471.706
3195 0 89.1471 12.9786 1157 112.457 416.471 472.29
3196 0 93.1048 14.3602 1337 109.572 416.502 470.008
3197 0 96.1453 13.698 1317 112.181 416.442 468.129
3198 0 97.173 13.4708 1309 114.102 416.619 468.341
3199 0 101.14 14.2673 1443 112.369 416.21 466.236
3200 0 104.187 13.6869 1426 114.669 416.327 463.532
3201 0 105.13 15.0956 1587 112.018 416.204 462.296
3202 0 108.178 12.84 1389 117.847 415.579 463.207
3203 0 114.243 14.5392 1661 113.27 415.385 458.024
3204 0 117.343 13.2859 1559 116.184 415.86 461.467
3205 0 122.242 13.2524 1620 116.925 415.47 456.433
3206 1 63.1031 12.7728 806 118.396 415.917 486.347
3207 0 65.2355 12.7845 834 118.566 415.896 484.787
3208 0 67.2915 14.0731 947 117.636 415.839 481.178
3209 0 70.1988 13.7324 964 116.276 415.503 482.302
3210 0 73.2638 13.9769 1024 116.85 415.689 480.445
3211 0 75.1456 14.9576 1124 115.01 415.786 479.196
3212 0 77.089 14.6973 1133 115.952 416.772 480.881
3213 0 78.1461 14.2937 1117 118.944 416.074 479.028
3214 0 81.2432 15.029 1221 117.481 416.179 476.944
3215 0 84.1732 15.3018 1288 117.757 416.064 474.956
3216 0 88.3556 14.8265 1310 118.795 416.173 473.196
3217 0 88.1668 15.1871 1339 119.414 416.052 471.931
3218 0 92.2003 14.6854 1354 122.098 415.971 469.152
3219 0 96.4881 15.9191 1536 118.605 415.646 465.785
3220 0 99.5254 15.0112 1494 121.857 415.859 464.348
3221 0 99.2706 14.2238 1412 126.005 416.411 463.321
3222 0 102.164 13.7719 1407 127.522 416.522 462.368
3223 0 107.146 14.2236 1524 127.409 416.297 459.766
3224 1 56.0542 12.7733 716 128.457 416.376 485.297
3225 0 57.0757 12.7024 725 123.727 416.148 482.81
3226 0 59.1502 12.2062 722 114.611 417.184 480.325
3227 0 61.0919 12.4567 761 114.683 416.628 479.934
3228 0 63.0378 11.9769 755 116.457 416.914 479.678
3229 0 65.1831 12.6873 827 115.132 417.293 478.273
3230 0 68.0553 14.1649 964 112.275 417.043 478.335
3231 0 71.2143 13.9579 994 113.684 416.672 476.216
3232 0 72.1548 14.1086 1018 114.469 416.956 475.271
3233 0 77.0532 13.9254 1073 112.375 417.226 474.412
3234 0 78.0849 14.1385 1104 114.576 416.228 470.859
3235 0 80.1554 13.1619 1055 118.431 417.304 472.092
3236 0 82.0751 13.9994 1149 118.199 417.634 470.008
3237 0 84.0576 14.3116 1203 118.756 417.583 469.635
3238 0 88.1296 14.5127 1279 118.36 418.318 466.686
3239 0 90.1698 13.4746 1215 121.023 417.99 466.216
3240 0 94.3149 13.5291 1276 122.668 417.538 460.706
3241 0 97.2361 13.4209 1305 125.533 417.559 458.724
3242 0 99.3241 13.8738 1378 124.519 417.142 459.508
3243 1 51.0678 12.5324 640 127.175 416.653 482.303
3244 0 52.0459 12.5082 651 130.542 417.115 482.309
3245 0 55.0785 12.2371 674 127.407 417.365 483.249
3246 0 55.1105 12.23 674 130.439 416.93 480.463
3247 0 59.054 12.2938 726 128.718 417.519 480.933
3248 0 59.2298 11.2275 665 132.696 417.549 479.22
3249 0 63.124 11.7388 741 130.278 417.413 479.996
3250 0 64.2933 13.0496 839 129.98 416.588 476.114
3251 0 68.2938 13.6176 930 126.604 417.091 475.43
3252 0 69.0899 13.2002 912 127.871 417.542 475.191
3253 0 70.1875 12.6091 885 131.224 417.767 473.69
3254 0 75.1821 14.1789 1066 125.175 417.553 472.601
3255 0 78.2021 14.2579 1115 124.108 417.548 471.124
3256 0 80.1613 13.1859 1057 126.61 417.449 470.248
3257 0 83.2122 13.8081 1149 125.494 417.317 468.793
3258 0 86.1901 14.1896 1223 119.809 417.936 466.07
3259 0 86.1555 13.0926 1128 125.382 417.711 462.957
3260 0 90.1009 14.0065 1262 122.951 417.39 464.309
3261 0 93.0714 13.3768 1245 125.161 417.635 463.977
3262 1 49.0769 11.0439 542 120.144 418.052 484.751
3263 0 50.1123 10.5164 527 124.015 417.575 484.14
3264 0 51.1134 11.7386 600 119.878 418.065 483.908
3265 0 53.1679 12.9025 686 119.724 418.146 483.414
3266 0 55.2565 12.1434 671 120.753 417.885 486.076
3267 0 57.101 12.5042 714 121.581 417.877 483.868
3268 0 59.0693 12.2568 724 122.546 417.674 485.754
3269 0 60.0595 13.8196 830 117.971 418.142 484.181
3270 0 62.101 13.5424 841 118.472 417.78 483.562
3271 0 66.0581 13.7455 908 116.359 417.531 482.776
3272 0 67.1162 12.5454 842 120.81 418.223 477.987
3273 0 68.1155 12.6256 860 121.305 417.867 477.669
3274 0 70.1989 13.5187 949 120.635 417.683 474.487
3275 0 73.2292 12.7272 932 123.927 417.914 472.733
3276 0 76.1346 13.0558 994 122.988 417.474 470.849
3277 0 78.0997 11.8822 928 124.566 418.041 473.311
3278 0 81.0952 13.6753 1109 120.209 417.642 471.411
3279 0 83.2306 12.3152 1025 123.2 418.262 470.202
3280 0 85.1571 13.2578 1129 121.688 417.809 468.951
3281 0 88.1874 13.6074 1200 120.286 418.015 466.993
3282 0 90.2813 13.8678 1252 119.523 418.018 468.769
3283 0 94.1253 13.2483 1247 121.577 418.019 466.178
3284 0 97.2284 13.8848 1350 119.779 417.81 462.89
3285 0 103.181 15.623 1612 113.713 417.768 455.683
3286 0 103.151 12.7387 1314 123.25 417.613 459.327
3287 0 107.226 13.0379 1398 122.406 417.479 459.721
3288 1 54.0951 11.2395 608 115.712 416.431 486.406
3289 0 58.1447 11.523 670 113.127 418.057 484.343
3290 0 62.1593 12.6288 785 110.424 417.93 481.262
3291 0 62.115 12.8632 799 109.925 418.1 483.004
3292 0 66.1626 12.7867 846 110.366 417.939 480.087
3293 0 68.1279 11.6839 796 111.024 417.864 478.705
3294 0 70.1272 11.8356 830 111.61 417.673 475.563
3295 0 72.2112 11.1755 807 112.927 417.936 476.204
3296 0 75.1455 11.5509 868 111.091 418.189 475.859
3297 0 77.1725 12.2194 943 111.4 418.064 473.065
3298 0 82.1558 12.7319 1046 109.275 417.963 472.623
3299 0 84.1179 12.0426 1013 111.376 418.145 471.194
3300 0 88.1538 11.9904 1057 112.907 418.383 469.828
3301 1 45.1207 12.8766 581 111.525 418.685 486.704
3302 0 45.1844 12.0174 543 113.341 418.726 488.164
3303 0 46.157 11.6125 536 114.347 418.19 487.457
3304 0 48.0437 11.2814 542 111.247 418.917 486.904
3305 0 50.1037 11.1369 558 110.884 418.814 487.342
3306 0 50.2316 10.7502 540 113.339 418.139 485.491
3307 0 54.05 11.2303 607 111.102 418.586 486.227
3308 0 55.0414 13.3354 734 107.435 418.732 485.804
3309 0 58.0613 11.729 681 110.796 418.747 483.402
3310 0 58.1042 11.7719 684 111.7 418.692 485.224
3311 0 60.0674 11.1375 669 113.948 418.611 481.785
3312 0 62.1987 12.2028 759 111.631 418.995 481.838
3313 0 64.1333 13.0977 840 109.94 418.312 480.874
3314 0 64.097 11.5918 743 114.17 418.9 481.003
3315 0 70.14 13.3162 934 109.161 418.276 480.603
3316 0 71.1124 12.867 915 111.592 418.057 479.02
3317 0 74.1681 11.9998 890 114.069 418.687 479.226
3318 0 74.2268 12.4753 926 114.575 418.897 478.167
3319 0 79.1554 11.8248 936 115.669 418.994 477.098
3320 0 80.1319 12.4919 1001 115.664 418.665 474.966
3321 0 83.2263 13.0007 1082 114.122 418.981 473.156
3322 0 88.1661 13.1116 1156 113.1 418.893 473.184
3323 1 43.1405 9.78199 422 119.436 419.251 494.09
3324 0 46.2077 11.6214 537 117.898 419.313 490.399
3325 0 48.1681 11.9581 576 119.161 418.66 489.097
3326 0 50.1696 12.5175 628 116.366 418.788 487.527
3327 0 50.0573 11.9064 596 119.099 418.517 489.977
3328 0 51.1209 12.4998 639 119.366 418.219 488.822
3329 0 53.0656 13.097 695 119.46 418.256 487.102
3330 0 53.2111 12.8357 683 120.849 418.75 486.208
3331 0 57.2115 12.9869 743 120.281 417.88 483.713
3332 0 55.2249 12.2771 678 126.451 418.412 483.264
3333 0 60.194 12.0776 727 127.231 418.462 482.366
3334 0 61.2101 13.3638 818 125.414 418.164 482.065
3335 0 65.2697 13.1608 859 126.561 418.404 481.407
3336 0 67.0893 13.5491 909 130.839 418.034 482.33
3337 0 69.0917 14.3433 991 129.405 419.425 480.966
3338 0 71.0839 14.4759 1029 130.296 418.574 479.355
3339 0 75.1335 13.9485 1048 130.344 418.527 480.327
3340 0 75.2041 12.9248 972 136.676 417.961 477.298
3341 0 77.2374 13.7498 1062 135.945 417.352 474.46
3342 0 79.1735 12.7442 1009 140.563 417.337 473.851
3343 0 82.1842 12.983 1067 139.802 417.908 472.762
3344 0 85.3 14.2556 1216 135.92 417.753 471.817
3345 1 44.1847 11.5425 510 138.529 417.933 492.388
3346 0 48.1612 12.9565 624 134.574 418.601 490.024
3347 0 49.0999 13.2383 650 134.543 418.665 491.985
3348 0 51.0384 13.2841 678 135.746 418.202 489.903
3349 0 51.1188 13.4588 688 138.458 417.237 489.61
3350 0 54.0183 13.8472 748 140.572 418.471 487.801
3351 0 57.0492 14.1807 809 133.311 418.038 486.778
3352 0 55.0443 13.4256 739 144.947 417.932 487.112
3353 0 59.0275 14.3323 846 135.901 418.683 485.855
3354 0 59.0904 13.3693 790 141.023 418.861 485.814
3355 0 62.0661 13.4051 832 141.069 418.451 485.655
3356 0 64.0525 13.2079 846 144.002 418.645 484.005
3357 0 66.1047 13.3727 884 142.814 418.594 484.102
3358 0 69.0772 13.8685 958 141.564 418.861 483.645
3359 0 71.064 14.3392 1019 141.993 418.304 478.328
3360 0 70.1244 13.3477 936 146.157 418.797 480.27
3361 0 73.0566 13.1952 964 146.184 419.032 480.939
3362 0 77.0907 13.1663 1015 146.658 418.671 478.223
3363 0 79.0825 13.8084 1092 143.97 419.067 478.097
3364 0 82.0403 14.0663 1154 143.046 418.581 477.495
3365 0 86.1333 14.524 1251 141.56 418.867 475.891
3366 0 87.0702 13.5178 1177 146.433 418.024 473.917
3367 0 89.065 13.7989 1229 145.96 417.569 472.963
3368 1 46.05 11.4441 527 150.313 416.655 490.047
3369 0 47.0879 12.1687 573 149.173 418.286 490.084
3370 0 47.1433 11.8999 561 139.16 417.424 486.463
3371 0 50.1855 12.5734 631 129.621 417.997 484.959
3372 0 53.1408 13.1725 700 127.444 417.369 485.016
3373 0 52.0647 12.7149 662 130.429 418.069 484.326
3374 0 54.1528 11.6337 630 133.397 417.881 484.302
3375 0 55.0998 11.4701 632 133.271 418.136 481.774
3376 0 56.0879 11.8029 662 132.017 418.063 480.515
3377 0 57.1094 12.7825 730 131.152 417.652 478.067
3378 0 61.0696 12.3957 757 130.016 418.062 480.688
3379 0 62.0709 12.1635 755 130.429 416.829 482.728
3380 0 64.1054 11.4967 737 132.764 417.851 480.866
3381 0 64.1253 11.4619 735 134.264 417.714 479.401
3382 0 68.1405 13.2814 905 140.994 417.619 482.86
3383 0 71.0978 12.9259 919 141.564 417.201 481.172
3384 0 73.0957 13.2976 972 140.876 416.751 478.401
3385 0 75.0571 13.15 987 140.485 417.133 478.483
3386 0 80.0957 13.5338 1084 137.851 416.778 473.927
3387 0 82.0872 13.3029 1092 138.893 416.429 474.126
3388 1 45.056 12.1848 549 141.512 415.552 493.372
3389 0 46.0343 11.9259 549 141.98 415.812 492.078
3390 0 48.0273 13.1592 632 140.625 416.353 491.464
3391 0 50.038 13.3299 667 140.517 415.801 489.522
3392 0 52.0569 13.7926 718 138.247 416.219 490.288
3393 0 52.0452 13.3538 695 142.22 416.043 487.993
3394 0 55.0509 13.2605 730 140.493 416.21 487.959
3395 0 56.112 13.7226 770 139.087 416.41 487.178
3396 0 57.0582 13.9507 796 139.304 416.536 484.68
3397 0 61.1664 14.2071 869 136.305 416.278 485.068
3398 0 59.1435 12.9008 763 132.991 417.785 485.587
3399 0 60.0508 13.1888 792 126.256 417.556 479.178
3400 0 63.1097 12.914 815 128.141 417.081 479.173
3401 0 65.0723 12.0789 786 133.594 416.804 482.518
3402 0 69.1746 13.0973 906 129.812 417.458 480.795
3403 0 71.0475 13.1743 936 130.315 417.269 480.014
3404 0 70.0191 12.7251 891 132.543 417.095 478.774
3405 0 74.117 12.6827 940 132.066 418.117 477.76
3406 0 77.121 13.5501 1045 131.38 418.14 476.243
3407 0 80.0323 13.6695 1094 129.593 418.531 476.804
3408 0 83.1232 13.7386 1142 130.642 417.623 475.092
3409 0 85.1301 13.7554 1171 131.776 417.289 473.085
3410 0 87.182 14.3264 1249 130.852 417.702 472.351
3411 0 91.0569 14.0462 1279 136.167 417.503 470.69
3412 0 91.2047 13.0147 1187 140.27 417.242 470.323
3413 0 94.0456 13.5679 1276 138.891 418.048 466.581
3414 0 98.1535 14.1717 1391 137.065 417.449 465.379
3415 0 101.204 13.2603 1342 140.739 417.183 464.712
3416 0 106.155 14.0643 1493 137.902 417.528 462.861
3417 0 109.101 14.2529 1555 138.263 417.662 460.325
3418 0 113.13 12.5431 1419 142.025 417.758 457.802
3419 0 118.391 13.7763 1631 139.413 418.118 454.188
3420 1 59.2966 11.7545 697 143.164 417.755 482.4
3421 0 61.1993 14.0034 857 140.799 418.196 481.243
3422 0 63.0632 13.6371 860 135.286 417.974 483.584
3423 0 67.2601 13.9607 939 138.335 417.281 478.282
3424 0 68.1421 14.1909 967 137.278 417.269 478.941
3425 0 70.1674 13.4535 944 139.378 417.049 478.327
3426 0 73.0601 12.6471 924 141.615 417.281 478.866
3427 0 74.2879 13.4477 999 140.396 416.987 476.404
3428 0 78.1936 13.7991 1079 140.246 417.405 473.733
3429 0 81.0847 14.0347 1138 139.231 416.828 471.952
3430 0 85.1425 14.5403 1238 137.534 417.193 470.216
3431 0 88.1633 13.8039 1217 139.385 417.221 469.129
3432 0 92.1079 14.6893 1353 136.089 417.337 468.633
3433 0 95.1117 13.8469 1317 138.309 417.093 466.839
3434 1 45.0876 12.4203 560 139.343 416.855 491.023
3435 0 46.1653 12.6502 584 139.656 417.216 489.717
3436 0 50.2345 14.711 739 131.77 416.943 488.326
3437 0 50.1929 14.9224 749 132.36 416.688 488.753
3438 0 52.0873 14.9173 777 132.798 416.806 487.377
3439 0 53.0855 14.3165 760 135.239 416.78 488.195
3440 0 55.1442 13.8727 765 137.559 416.808 485.441
3441 0 56.097 14.5462 816 136.004 416.571 484.012
3442 0 58.0946 14.5452 845 135.293 417.128 484.292
3443 0 61.1204 15.2813 934 132.451 416.808 483.495
3444 0 62.2207 14.111 878 135.689 416.788 484.084
3445 0 62.1343 13.68 850 140.311 417.829 481.018
3446 0 68.1084 16.1067 1097 129.768 417.829 480.055
3447 0 70.1581 15.0375 1055 133.501 417.661 480.059
3448 0 72.137 14.6111 1054 135.082 416.108 478.586
3449 0 74.1321 14.3123 1061 136.646 416.741 477.905
3450 0 76.0797 14.5637 1108 136.383 416.334 475.337
3451 0 78.1227 14.5284 1135 137.18 416.544 474.709
3452 0 78.1062 13.6225 1064 141.789 416.969 473.148
3453 0 84.0496 15.5979 1311 134.279 417.116 470.049
3454 0 85.1184 15.2493 1298 136.694 416.794 469.687
3455 0 90.1643 15.3165 1381 134.819 417.406 469.227
3456 0 92.1172 15.0243 1384 137.134 416.472 467.343
3457 0 96.1707 14.651 1409 138.317 415.696 467.634
3458 0 100.158 16.484 1651 133.078 415.59 464.775
3459 0 102.045 15.748 1607 135.887 415.744 464.889
3460 0 106.116 15.7657 1673 137.347 415.625 460.748
3461 0 110.076 15.6892 1727 137.872 415.76 460.464
3462 0 111.133 15.45 1717 141.284 415.114 458.942
3463 0 115.173 15.5505 1791 141.762 415.821 457.178
3464 0 120.194 16.0241 1926 139.621 416.598 455.156
3465 1 61.1479 12.4289 760 146.454 416.638 482.113
3466 0 63.1909 13.4513 850 146.921 416.655 478.911
3467 0 67.1782 13.8884 933 144.823 415.665 479.204
3468 0 69.1393 13.7259 949 145.985 415.872 479.262
3469 0 71.1795 13.8945 989 145.648 415.979 477.099
3470 0 73.1669 14.0091 1025 145.777 415.203 475.74
3471 0 76.2018 13.0706 996 147.886 416.145 474.786
3472 0 77.2751 13.769 1064 146.648 416.23 472.286
3473 0 80.2399 12.8739 1033 149.002 415.744 471.613
3474 0 83.2902 13.579 1131 147.262 416.011 467.989
3475 0 87.394 13.4105 1172 145.323 416.318 467.572
3476 0 90.2671 13.6262 1230 144.669 416.57 464.72
3477 1 48.2187 10.9916 530 135.981 416.123 489.034
3478 0 50.043 10.6109 531 137.111 415.452 488.516
3479 0 51.1717 11.9011 609 133.471 415.741 488.223
3480 0 53.0292 10.9374 580 127.8 416.266 487.502
3481 0 54.0739 10.8 584 127.812 416.7 487.38
3482 0 55.1093 11.2504 620 126.577 416.444 486.939
3483 0 57.0356 10.8353 618 128.228 417.348 487.115
3484 0 60.1093 11.7453 706 124.508 417.465 486.853
3485 0 62.0706 11.1164 690 127.833 417.339 484.717
3486 0 63.0637 12.194 769 126.25 416.915 483.941
3487 0 65.1118 10.5357 686 131.673 416.421 482.079
3488 0 65.0958 10.9838 715 132.804 416.72 481.277
3489 0 69.1057 11.7501 812 130.542 416.717 479.993
3490 0 71.1456 11.3429 807 132.496 416.665 478.182
3491 0 72.1849 11.0134 795 134.615 416.975 476.755
3492 0 76.0863 10.5407 802 132.889 416.512 478.723
3493 0 76.1318 10.9284 832 132.692 416.444 477.131
3494 0 82.1653 12.1097 995 128.224 416.939 473.725
3495 1 43.056 11.2644 485 125.027 417.355 491.895
3496 0 43.0779 10.9337 471 123.669 418.174 490.807
3497 0 45.0768 10.2935 464 124.537 417.42 492.274
3498 0 45.0211 10.9726 494 122.939 417.729 491.346
3499 0 47.0608 11.857 558 120.186 418.179 490.176
3500 0 54.037 12.806 692 110.412 417.673 486.766
3501 0 53.054 12.0443 639 114.438 417.59 485.412
3502 0 51.0502 11.0675 565 122.839 418.191 487.628
3503 0 52.0811 11.9237 621 121.192 417.085 488.504
3504 0 55.1125 11.3042 623 123.474 417.202 485.602
3505 0 57.0995 12.0491 688 133.443 416.247 484.634
3506 0 58.2501 11.0214 642 136.104 416.188 484.555
3507 0 59.0913 11.5076 680 134.501 416.029 482.681
3508 0 62.0764 11.4697 712 132.586 416.108 481.008
3509 0 63.1004 11.3945 719 134.978 416.758 479.299
3510 0 63.0775 10.2414 646 139.491 416.729 480.003
3511 0 67.0602 11.3928 764 134.988 415.501 475.343
3512 0 72.0679 12.0719 870 131.746 416.809 477.899
3513 0 73.1468 12.14 888 133.176 415.713 476.787
3514 0 75.1133 12.3413 927 133.477 416.153 473.503
3515 0 75.2059 10.9699 825 137.085 416.588 474.291
3516 0 81.0667 11.3857 923 135.087 416.3 473.074
3517 0 83.1487 10.9563 911 139.409 416.26 470.078
3518 0 84.1047 10.368 872 141.411 416.054 471.405
3519 1 46.0637 11.2887 520 128.692 417.673 491.275
3520 0 46.093 10.8693 501 131.327 418.002 488.948
3521 0 46.0136 10.5186 484 126.403 418.006 488.035
3522 0 48.0141 10.8926 523 125.962 416.218 488.136
3523 0 51.0388 10.8349 553 124.653 416.74 487.575
3524 0 51.0582 11.0658 565 125.179 416.457 488.076
3525 0 56.0954 12.8531 721 118.036 416.607 485.811
3526 0 56.0342 12.0641 676 120.393 416.416 485.541
3527 0 57.0242 12.2755 700 120.876 415.711 485.511
3528 0 59.087 11.6269 687 122.493 415.897 485.221
3529 0 61.0643 12.6915 775 120.977 416.342 482.36
3530 0 61.0401 12.1723 743 122.847 416.88 482.285
3531 0 64.0347 11.9623 766 123.822 416.785 481.074
3532 0 68.0747 13.3677 910 117.313 417.212 481.988
3533 0 68.0275 12.7742 869 120.9 417.304 479.704
3534 0 71.1308 12.4419 885 122.111 417.34 477.772
3535 0 73.1433 13.0019 951 120.944 417.579 476.763
3536 0 76.0635 12.6868 965 121.862 417.279 475.8
3537 0 78.1466 12.2974 961 123.815 417.022 473.334
3538 0 81.1865 12.2927 998 123.585 417.546 473.179
3539 0 81.2358 12.6791 1030 124.802 416.8 471.48
3540 1 41.0961 10.6336 437 129.169 416.721 491.636
3541 0 41.1504 10.7654 443 131.576 416.063 489.673
3542 0 42.0226 11.6366 489 129.27 416.573 490.826
3543 0 45.0449 11.1222 501 116.499 417.106 491.281
3544 0 46.0532 13.1587 606 125.287 416.733 489.556
3545 0 49.2461 13.3006 655 131.681 417.272 488.66
3546 0 50.2508 12.5172 629 135.854 417.294 486.952
3547 0 51.1796 13.1107 671 135.531 416.632 486.401
3548 0 53.1847 13.9138 740 132.761 416.691 486.573
3549 0 52.1745 13.7807 719 134.992 417.196 485.586
3550 0 55.1291 13.7495 758 133.36 417.492 484.354
3551 0 55.1654 12.671 699 137.554 417.225 483.478
3552 0 58.1905 12.6825 738 136.06 417.585 483.542
3553 0 59.1699 13.4697 797 134.553 417.332 482.409
3554 0 62.1944 12.2519 762 138.312 417.041 481.617
3555 0 64.2302 13.1869 847 133.835 417.691 482.783
3556 0 67.1572 13.8034 927 132.218 417.313 481.072
3557 0 69.2236 14.3448 993 131.053 417.097 479.442
3558 0 69.204 13.6986 948 133.432 417.008 479.264
3559 0 70.1306 13.2752 931 136.111 417.304 479.033
3560 0 74.143 14.1618 1050 133.241 417.472 477.072
3561 0 77.134 13.5349 1044 135.779 417.149 474.215
3562 0 79.1924 13.9407 1104 135.599 416.999 472.274
3563 0 83.0984 14.9943 1246 132.558 417.015 471.98
3564 0 86.1789 14.6788 1265 133.979 417.238 471.06
3565 0 89.13 14.7986 1319 135.139 417.496 469.513
3566 0 91.0869 14.821 1350 135.844 416.783 466.199
3567 0 94.0884 14.4014 1355 136.655 417.086 466.461
3568 0 98.1273 14.5321 1426 136.335 417.06 465.104
3569 0 101.187 14.0137 1418 138.654 417.233 464.008
3570 1 54.0919 11.499 622 140.058 418.5 486.814
3571 0 54.1406 11.8765 643 140.849 418.233 484.921
3572 0 56.13 12.1147 680 137.376 418.974 484.169
3573 0 60.1188 12.941 778 123.514 419.549 485.237
3574 0 61.1309 12.8086 783 124.815 419.53 483.585
3575 0 61.0858 12.5397 766 127.567 419.162 482.154
3576 0 66.1205 13.4149 887 123.467 419.494 481.847
3577 0 68.1208 13.1237 894 123.64 419.935 480.988
3578 0 68.129 13.1662 897 125.31 419.276 481.317
3579 0 73.1415 13.0979 958 123.732 419.214 479.722
3580 0 73.0735 13.8354 1011 122.538 418.548 478.004
3581 0 77.0839 12.9599 999 124.829 417.877 473.993
3582 0 79.2357 13.3147 1055 124.507 418.09 472.068
3583 0 81.1376 13.7544 1116 124.057 417.888 470.09
3584 0 84.1669 14.198 1195 123.615 417.646 469.415
3585 0 86.1232 13.3878 1153 125.788 417.479 469.346
3586 0 88.1839 13.143 1159 127.208 417.191 467.41
3587 0 93.232 13.0427 1216 127.106 417.933 465.312
3588 0 96.2498 12.8208 1234 126.989 418.985 465.018
3589 0 98.1586 13.6208 1337 124.717 419.028 466.033
3590 0 101.302 12.7736 1294 128.662 418.853 464.005
3591 0 105.274 13.9731 1471 127.154 418.155 460.969
3592 1 54.1959 11.5138 624 135.45 418.542 483.955
3593 0 57.1757 13.3973 766 131.738 419.752 485.279
3594 0 57.1904 12.5895 720 137.394 419.8 483.386
3595 0 59.1584 12.7962 757 135.437 419.428 483.284
3596 0 60.2132 11.6918 704 139.435 418.96 481.591
3597 0 64.2499 12.7315 818 135.249 419.318 481.396
3598 0 64.1329 12.5988 808 136.005 419.723 481.657
3599 0 66.2141 12.233 810 137.032 418.956 480.421
3600 0 67.2318 13.2675 892 134.746 418.816 479.092
3601 0 69.1168 12.8478 888 136.616 419.057 476.668
3602 0 73.1774 13.6381 998 134.001 419.239 475.822
3603 0 78.2238 14.3051 1119 129.581 418.996 475.105
3604 0 78.2833 12.4803 977 137.133 419.205 473.894
3605 0 81.1954 12.5377 1018 136.405 419.026 472.269
3606 0 83.1995 13.69 1139 132.938 418.682 470.468
3607 0 86.2075 11.7739 1015 137.837 420.232 468.79
3608 0 89.1343 13.5301 1206 132.682 419.683 466.251
3609 0 94.1574 13.8916 1308 130.33 419.794 464.708
3610 0 94.2105 13.1832 1242 134.054 419.69 464.112
3611 1 52.1217 10.84 565 133.163 420.276 485.743
3612 0 54.2352 11.0445 599 133.659 417.815 481.94
3613 0 57.1306 12.0251 687 114.103 417.258 483.974
3614 0 56.1462 12.4496 699 111.545 417.325 481.722
3615 0 59.0475 12.3799 731 110.703 418.192 482.874
3616 0 62.1974 13.2803 826 109.837 418.146 482.541
3617 0 64.1789 12.4963 802 111.655 418.14 482.539
3618 0 65.2644 12.3038 803 112.537 418.912 479.717
3619 0 69.2124 12.4978 865 105.921 418.218 477.612
3620 0 70.1542 12.5153 878 106.165 418.92 475.314
3621 0 73.1573 12.1109 886 105.681 418.77 473.992
3622 0 75.1651 11.9603 899 106.904 418.766 474.998
3623 0 79.1551 12.8861 1020 103.841 418.451 474.73
3624 0 82.107 12.8247 1053 104.791 418.034 470.691
3625 0 84.1502 11.5389 971 107.269 418.443 468.102
3626 1 39.0638 10.726 419 109.36 417.43 490.671
3627 0 43.0361 10.1775 438 109.304 417.788 489.078
3628 0 46.0107 11.3452 522 105.128 420.27 490.948
3629 0 47.076 11.6408 548 103.073 419.931 490.263
3630 0 49.1087 12.8083 629 100.506 419.448 488.736
3631 0 49.0525 12.8638 631 100.055 420.106 489.325
3632 0 50.1079 10.8366 543 104.956 420.785 488.227
3633 0 53.0469 11.6312 617 102.95 420.438 486.311
3634 0 54.1371 12.7269 689 100.3 420.148 484.462
3635 0 56.1405 11.9165 669 101.852 420.259 485.493
3636 0 56.1594 12.1618 683 102.542 420.4 482.827
3637 0 57.1111 12.5195 715 101.134 420.088 482.586
3638 0 61.1669 10.7901 660 104.511 420.124 481.874
3639 0 62.1451 12.5674 781 101.241 419.976 480.328
3640 0 65.1456 11.9578 779 102.176 419.172 481.246
3641 0 66.1127 12.4182 821 101.369 419.462 478.657
3642 0 70.1114 13.45 943 98.6267 419.4 480.321
3643 0 72.1423 11.7684 849 102.958 419.519 478.761
3644 0 74.0964 12.4433 922 102.323 419.411 478.402
3645 0 76.3554 12.062 921 103.886 419.278 476.844
3646 0 80.1868 12.7827 1025 102.5 419.072 475.85
3647 0 82.1723 12.4738 1025 104.396 418.97 473.984
3648 1 43.0764 11.2591 485 109.216 419.637 493.328
3649 0 43.2062 11.9427 516 110.056 419.291 490.37
3650 0 45.2709 11.7294 531 111.339 418.499 485.817
3651 0 47.3202 12.2147 578 110.45 418.522 488.479
3652 0 48.3565 12.9455 626 109.808 418.899 489.522
3653 0 49.3774 11.9488 590 113.085 418.785 487.98
3654 0 52.2145 12.7551 666 110.997 418.045 487.562
3655 0 51.2731 12.3457 633 113.349 418.777 488.294
3656 0 55.2308 12.9095 713 111.813 418.505 487.025
3657 0 56.2385 12.5892 708 114.239 418.904 487.371
3658 0 57.2483 12.996 744 113.546 418.836 486.304
3659 0 58.1981 12.2169 711 116.693 419.025 485.92
3660 0 61.2316 11.9873 734 117.17 419.349 484.534
3661 0 63.2956 12.1967 772 118.163 419.446 483.435
3662 0 65.2176 13.5853 886 115.207 418.906 484.661
3663 0 65.2105 13.1421 857 119.86 418.796 481.935
3664 0 69.276 14.1607 981 116.766 418.792 481.744
3665 0 70.2816 12.2792 863 123.187 418.191 479.934
3666 0 73.2787 13.2781 973 121.451 417.875 478.062
3667 0 77.3254 13.2557 1025 120.302 417.551 477.62
3668 0 79.3558 13.1559 1044 120.943 418.284 477.866
3669 1 40.0129 11.2714 451 119.435 419.078 496.395
3670 0 41.0448 11.9138 489 119.843 415.933 495.548
3671 0 40.158 11.6042 466 122.627 415.8 494.358
3672 0 45.0546 12.9398 583 116.058 415.738 493.05
3673 0 49.0403 15.2324 747 107.934 415.347 491.586
3674 0 46.0564 12.9624 597 119.213 415.303 493.24
3675 0 45.0371 12.1455 547 115.828 416.656 495.931
3676 0 47.053 12.3053 579 114.803 415.656 494.458
3677 0 48.1806 12.2041 588 114.713 415.519 490.993
3678 0 49.2121 12.4766 614 113.474 415.731 490.288
3679 0 50.0929 11.9777 600 116.878 415.653 493.59
3680 0 50.1218 12.1504 609 119.729 416.011 492.166
3681 0 51.0982 11.3311 579 121.864 415.708 491.724
3682 0 54.0177 11.6814 631 121.322 415.699 490.681
3683 0 55.1205 11.7923 650 123.278 415.498 488.282
3684 0 58.0668 12.1756 707 120.629 415.511 488.086
3685 0 60.1433 12.9524 779 118.954 415.284 486.295
3686 0 63.2431 13.709 867 116.672 415.507 485.79
3687 0 62.0653 11.4879 713 124.123 415.728 483.675
3688 0 66.1891 12.57 832 120.018 416.007 483.43
3689 0 68.1904 12.6704 864 119.257 415.758 484.279
3690 0 72.0909 13.2333 954 117.823 415.742 481.812
3691 0 72.171 11.6252 839 121.647 415.501 481.516
3692 1 41.064 11.7134 481 121.988 414.83 495.686
3693 0 42.0438 11.488 483 121.424 414.385 494.263
3694 0 43.1085 12.2482 528 111.049 414.441 493.057
3695 0 44.1084 12.5826 555 114.218 414.986 492.523
3696 0 47.0513 12.2845 578 114.313 414.927 493.211
3697 0 47.0295 11.6948 550 117.684 415.253 492.013
3698 0 50.0992 12.4553 624 114.671 414.756 491.04
3699 0 50.1781 11.8179 593 115.577 415.396 491.521
3700 0 53.0678 12.8138 680 112.421 415.579 488.853
3701 0 51.1886 12.3465 632 117.956 415.733 488.139
3702 0 52.0753 12.7316 663 117.804 414.938 486.57
3703 0 56.108 12.3512 693 117.511 414.76 487.387
3704 0 58.2223 13.1565 766 115.595 415.242 486.802
3705 0 61.1634 13.4394 822 113.526 415.627 485.887
3706 0 62.105 13.8153 858 112.352 415.162 486.569
3707 0 62.1086 13.09 813 116.737 415.604 483.695
3708 0 66.1235 13.5655 897 114.807 415.667 482.702
3709 0 66.0833 13.0744 864 117.801 415.458 481.397
3710 0 70.0549 13.6036 953 115.71 415.476 480.31
3711 0 71.1096 13.3456 949 118.509 415.807 478.008
3712 0 75.0967 14.4747 1087 114.617 415.431 477.286
3713 0 76.0669 13.1989 1004 120.123 415.051 477.104
3714 0 79.107 13.8673 1097 117.909 414.982 475.624
3715 0 81.1188 14.3247 1162 117.343 415.73 473.228
3716 0 83.147 13.5904 1130 119.409 415.473 472.781
3717 0 87.2169 14.4811 1263 116.876 415.347 472.382
3718 0 89.1028 13.6023 1212 120.638 415.297 469.976
3719 0 91.1876 13.3242 1215 122.821 414.3 467.247
3720 0 95.2133 13.2019 1257 121.127 416.424 468.799
3721 0 98.178 13.5774 1333 119.553 416.611 465.671
3722 0 103.094 14.4819 1493 118.117 416.883 466.151
3723 1 55.1821 9.74954 538 122.061 417.416 489.375
3724 0 56.2096 10.7455 604 117.369 417.737 487.531
3725 0 58.0574 11.1614 648 105.403 415.515 481.748
3726 0 59.1787 10.6626 631 104.81 416.58 478.786
3727 0 58.0906 10.3287 600 106.347 416.602 479.055
3728 0 65.1394 10.7769 702 104.313 416.491 477.601
3729 0 68.096 12.2327 833 101.762 416.678 476.359
3730 0 67.1245 11.4861 771 104.384 416.37 475.213
3731 0 71.1417 12.0604 858 102.648 416.851 473.987
3732 0 74.2546 12.1205 900 103.171 417.142 471.366
3733 0 75.1098 11.3833 855 105.564 416.892 470.939
3734 0 77.1413 11.0965 856 107.125 417.379 469.792
3735 0 81.267 11.2592 915 105.848 417.962 470.939
3736 0 85.1786 10.9769 935 108.501 417.094 466.574
3737 0 88.1463 12.5019 1102 105.009 417.654 464.799
3738 0 89.1234 10.996 980 108.819 416.932 463.21
3739 0 92.2295 12.1111 1117 105.662 416.645 460.639
3740 0 97.3209 12.9571 1261 103.662 417.242 459.121
3741 0 99.2129 11.3594 1127 108.989 417.331 457.372
3742 0 102.117 12.7991 1307 108.252 417.726 458.43
3743 0 105.238 10.8991 1147 111.723 417.912 457.364
3744 1 56.2816 9.71899 547 109.069 418.128 480.899
3745 0 58.1068 11.7542 683 110.045 419.042 481.231
3746 0 59.154 10.7685 637 115.214 418.948 482.878
3747 0 64.2098 11.2288 721 113.87 419.419 481.406
3748 0 65.1779 11.4302 745 113.91 419.011 480.262
3749 0 65.232 11.6967 763 115.578 418.689 477.068
3750 0 67.1824 11.4316 768 115.391 418.613 477.257
3751 0 70.2646 11.3144 795 114.83 419.201 475.082
3752 0 74.2806 11.9951 891 111.841 418.742 475.076
3753 0 77.2643 12.839 992 110.387 419.24 473.789
3754 0 79.2189 12.6737 1004 111.478 418.408 471.195
3755 0 83.3363 12.8755 1073 110.415 418.396 470.87
3756 0 84.3198 10.0925 851 117.021 418.451 470.925
3757 0 89.389 11.959 1069 111.592 418.663 469.15
3758 0 91.2758 10.6162 969 115.58 419.232 466.401
3759 1 47.1738 10.2599 484 116.01 419.023 487.686
3760 0 47.1035 9.9568 469 117.676 419.345 486.141
3761 0 49.3328 10.3785 512 120.645 418.678 484.436
3762 0 49.2702 9.90456 488 117.602 418.877 476.432
3763 0 52.2013 11.5131 601 114.74 419.546 476.088
3764 0 54.1362 10.6398 576 116.915 419.72 476.898
3765 0 54.0241 11.2357 607 115.051 420.433 478.15
3766 0 55.1032 10.9431 603 117.904 419.711 480.244
3767 0 57.2031 10.8735 622 118.465 419.04 483.582
3768 0 57.1849 9.53049 545 121.251 419.517 485.105
3769 0 59.2037 10.979 650 118.738 419.137 481
3770 0 61.4219 11.4454 703 116.343 418.724 479.935
3771 0 65.2632 12.6105 823 113.705 418.883 478.761
3772 0 67.3509 11.9226 803 115.269 418.131 478.238
3773 0 69.3772 12.5978 874 113.868 418.66 476.128
3774 0 71.2814 12.9908 926 112.631 419.036 476.986
3775 0 73.3788 11.0795 813 117.75 418.954 475.515
3776 0 76.281 11.7592 897 116.36 418.645 474.792
3777 0 77.2135 12.2647 947 114.962 418.805 474.669
3778 0 83.2606 13.8121 1150 110.305 418.786 471.627
3779 0 83.3508 12.3214 1027 115.387 418.712 471.543
3780 0 86.357 11.7535 1015 117.798 418.207 470.134
3781 0 89.243 10.97 979 119.146 418.803 469.801
3782 1 46.0975 11.5624 533 112.069 418.069 489.334
3783 0 48.1662 12.1247 584 111.505 418.197 488.49
3784 0 48.1608 10.7556 518 109.759 418.351 488.579
3785 0 51.2966 12.8469 659 112.795 418.442 488.056
3786 0 47.0553 11.0721 521 115.415 417.679 490.393
3787 0 50.0479 12.8277 642 111.676 418.254 488.604
3788 0 54.1395 11.9137 645 111.522 418.307 488.095
3789 0 54.0392 11.4917 621 114.807 417.718 486.224
3790 0 55.0275 11.6487 641 114.262 417.758 486.825
3791 0 56.0936 11.5343 647 116.116 417.747 484.836
3792 0 58.101 12.0136 698 115.05 418.566 485.881
3793 0 60.1077 12.8935 775 113.352 418.262 484.645
3794 0 60.1506 11.704 704 115.778 417.628 484.882
3795 0 63.1234 12.0082 758 115.181 417.642 483.062
3796 0 66.2029 14.0628 931 109.236 418.291 481.323
3797 0 69.1308 14.2339 984 108.602 417.988 477.555
3798 0 68.1277 12.5206 853 115.892 417.497 480.02
3799 0 76.0995 15.5454 1183 104.701 417.39 473.983
3800 0 75.078 12.8533 965 115.086 417.228 474.571
3801 0 78.2804 14.0393 1099 111.53 417.488 475.95
3802 0 79.1847 12.5024 990 117.259 418.082 473.571
3803 0 81.2734 12.784 1039 117.398 417.798 470.926
3804 0 84.2911 12.4568 1050 117.356 417.732 467.394
3805 0 87.2913 13.6898 1195 114.298 418.126 465.177
3806 0 89.3115 13.033 1164 115.68 418.297 466.79
3807 1 46.2427 10.6828 494 118.257 418.65 484.996
3808 0 48.2076 11.8031 569 114.585 418.279 487.202
3809 0 53.1883 13.7248 730 112.395 418.3 486.851
3810 0 53.2782 13.6829 729 114.679 418.059 483.122
3811 0 53.4151 12.4684 666 120.005 418.33 482.188
3812 0 57.3626 13.1793 756 116.779 418.214 482.39
3813 0 58.3189 13.6491 796 116.452 417.965 480.278
3814 0 60.2813 14.283 861 114.611 418.482 477.883
3815 0 59.2229 13.6434 808 118.775 418.486 477.658
3816 0 61.2535 13.5666 831 119.395 418.06 475.369
3817 0 62.319 13.6395 850 119.408 418.132 475.279
3818 0 66.3078 13.6485 905 116.498 418.651 476.278
3819 0 69.5123 14.6593 1019 112.472 417.967 474.9
3820 0 71.2798 13.5803 968 111.995 418.135 474.435
3821 0 73.1643 13.1895 965 110.048 417.919 477.042
3822 0 76.1408 13.567 1033 109.185 417.612 471.512
3823 0 79.1792 13.2611 1050 111.021 417.566 468.131
3824 0 81.1276 13.2631 1076 110.639 418.283 471.764
3825 0 81.096 12.3927 1005 112.41 418.14 473.343
3826 0 77.1564 9.37057 723 116.826 417.463 475.414
3827 1 50.16 9.0909 456 112.388 418.467 491.311
3828 0 47.1719 12.0199 567 110.289 417.522 486.508
3829 0 50.2242 12.0261 604 108.184 417.31 484.75
3830 0 51.3123 13.1158 673 108.874 417.761 484.669
3831 0 53.1134 12.2568 651 108.931 417.656 479.51
3832 0 53.0617 12.3064 653 110.268 417.806 479.337
3833 0 55.1165 11.3033 623 111.122 417.321 479.753
3834 0 57.135 12.2342 699 109.632 417.724 480.215
3835 0 60.2259 14.4622 871 103.719 417.147 478.482
3836 0 61.1856 12.0944 740 109.928 417.136 477.728
3837 0 64.1201 13.2252 848 107.704 416.868 476.02
3838 0 66.1102 12.6909 839 109.623 417.02 475.456
3839 0 68.109 13.7133 934 107.697 416.668 475.147
3840 0 71.1444 14.2949 1017 106.676 416.955 472.697
3841 0 72.1172 12.5213 903 111.512 416.409 471.612
3842 0 76.1176 13.8995 1058 106.957 417.27 471.28
3843 0 78.2845 14.6772 1149 105.56 416.8 469.391
3844 0 79.328 12.7067 1008 111.261 417.264 466.023
3845 0 83.2755 12.5847 1048 110.656 417.212 467.821
3846 0 85.3805 12.9655 1107 110.529 417.846 463.53
3847 0 88.4308 13.0837 1157 110.175 417.223 462.911
3848 0 92.353 12.0299 1111 110.936 417.911 463.724
3849 0 96.3314 12.9241 1245 109.381 416.72 461.249
3850 0 98.1966 12.8518 1262 110.393 416.666 457.143
3851 1 52.175 9.52564 497 110.074 417.322 481.334
3852 0 55.2328 12.0581 666 102.05 416.79 479.914
3853 0 56.1054 10.0525 564 106.17 417.777 482.426
3854 0 58.1019 11.5487 671 102.389 417.714 483
3855 0 60.0543 12.1057 727 100.575 419.19 482.154
3856 0 64.1787 11.6861 750 100.457 418.925 480.099
3857 0 66.2065 12.31 815 99.1485 418.567 480.166
3858 0 69.0747 11.8133 816 101.283 418.754 477.034
3859 0 71.1875 12.2493 872 100.75 417.9 476.55
3860 0 73.1647 12.383 906 100.328 418.308 475.767
3861 0 73.2021 11.8986 871 101.831 417.612 472.526
3862 0 77.1395 11.6931 902 101.68 418.35 471.939
3863 0 78.1344 12.6577 989 100.664 418.097 470.656
3864 0 82.1405 11.4073 937 102.623 418.553 471.718
3865 0 83.1375 11.9561 994 102.438 417.873 468.97
3866 0 88.1088 12.0306 1060 102.832 417.391 468.492
3867 0 89.0834 12.1459 1082 104.667 418.213 466.457
3868 0 90.1097 11.83 1066 107.302 418.029 464.783
3869 1 45.125 9.68421 437 102.153 419.119 488.469
3870 0 46.1302 10.0368 463 101.86 418.799 489.33
3871 0 50.1942 11.0969 557 99.3321 417.084 483.122
3872 0 52.2012 11.3599 593 98.1602 417.403 485.013
3873 0 51.1314 10.8153 553 103.027 417.15 484.678
3874 0 54.2051 12.2129 662 99.4683 416.375 484.654
3875 0 55.1032 11.2335 619 102.733 417.015 483.325
3876 0 59.14 12.6141 746 99.9678 417.21 481.37
3877 0 61.1239 13.219 808 99.4604 416.843 482.495
3878 0 61.2078 11.6162 711 103.287 417.045 481.08
3879 0 64.1962 12.3216 791 102.941 417.98 477.042
3880 0 65.1451 11.6816 761 104.88 416.89 477.731
3881 0 67.1546 11.3767 764 106.51 417.063 476.062
3882 0 71.1474 12.0595 858 105.829 417.364 474.751
3883 0 71.0859 11.873 844 108.012 417.412 474.123
3884 0 74.1731 13.2123 980 105.688 417.294 473.577
3885 0 78.1858 12.4703 975 107.4 417.502 472.124
3886 0 80.1632 13.248 1062 106.769 417.066 471.52
3887 0 81.2632 11.6781 949 111.917 417.435 467.443
3888 0 85.1133 12.1368 1033 111.461 417.052 468.66
3889 1 47.0098 9.70011 456 110.191 418.213 491.478
3890 0 50.0375 10.9318 547 109.298 418.135 490.038
3891 0 51.0637 10.9667 560 110.382 416.771 487.036
3892 0 53.2001 11.4285 608 111.194 416.964 483.913
3893 0 54.0495 11.878 642 116.989 417.88 485.385
3894 0 56.0807 12.8743 722 114.33 418.904 486.035
3895 0 56.0627 11.8617 665 117.714 418.102 485.666
3896 0 60.0606 12.3542 742 116.193 418.662 484.433
3897 0 60.0663 11.8203 710 119.059 418.483 482.539
3898 0 62.02 12.8991 800 116.179 418.031 480.485
3899 0 64.0634 12.7218 815 115.109 418.65 481.018
3900 0 67.1083 12.2489 822 116.296 417.803 479.109
3901 0 69.1463 11.7577 813 118.197 417.964 477.36
3902 0 70.1302 12.2914 862 117.273 417.875 479.422
3903 0 73.1276 12.6901 928 117.028 417.517 476.64
3904 0 75.0793 12.8131 962 117.922 418.16 474.796
3905 0 78.1106 12.4055 969 119.355 417.799 474.182
3906 0 78.1219 12.6597 989 120.251 418.303 472.924
3907 0 84.1182 13.3027 1119 117.414 418.243 470.458
3908 0 83.1391 12.4971 1039 120.965 417.669 470.526
3909 0 88.0879 13.1346 1157 118.734 417.411 469.843
3910 0 92.2503 13.3983 1236 118.249 418.149 465.596
3911 1 48.1256 9.87001 475 119.585 417.632 489
3912 0 51.2478 11.1615 572 115.825 417.671 488.983
3913 0 49.2068 11.5634 569 108.566 416.292 485.986
3914 0 53.1586 9.72561 517 110.135 416.149 485.586
3915 0 52.1216 10.5906 552 109.993 415.806 486.486
3916 0 55.1396 11.7157 646 105.844 415.302 485.985
3917 0 58.1844 12.2885 715 103.883 416.166 485.815
3918 0 60.0423 12.1248 728 104.804 416.194 486.166
3919 0 61.1563 13.3429 816 102.603 416.143 483.885
3920 0 62.163 11.132 692 107.337 416.257 483.624
3921 0 64.1044 12.0897 775 105.911 415.862 482.728
3922 0 68.133 12.5783 857 104.484 416.293 480.594
3923 0 69.1912 12.2414 847 105.738 416.966 481.51
3924 0 70.1475 10.9484 768 109.135 417.901 479.335
3925 0 72.16 11.7932 851 108.685 417.683 478.771
3926 0 74.086 11.8781 880 109.764 417.488 478.156
3927 0 75.0483 11.7391 881 112.215 417.743 475.153
3928 0 78.1315 12.1846 952 111.445 416.588 474.721
3929 0 80.1704 10.9267 876 114.538 417.363 474.545
3930 0 83.0923 11.6136 965 114.198 416.878 472.465
3931 0 85.0922 12.1633 1035 113.281 417.313 471.548
3932 0 87.1835 11.0227 961 117.471 417.151 469.405
3933 0 89.0884 11.1126 990 118.551 417.072 468.651
3934 0 93.2055 12.0272 1121 116.532 417.187 466.23
3935 0 95.1835 11.7878 1122 119.208 416.317 465.536
3936 0 100.094 12.4883 1250 116.109 416.645 468.402
3937 0 104.117 12.0826 1258 117.137 416.866 465.997
3938 0 106.106 11.9975 1273 118.414 417.408 461.165
3939 1 53.099 10.0567 534 119.734 417.927 487.828
3940 0 57.0407 11.8862 678 114.603 418.099 486.788
3941 0 57.0439 11.8856 678 115.232 417.873 484.656
3942 0 61.1583 12.3287 754 111.951 417.736 485.784
3943 0 61.1463 12.6582 774 111.698 417.567 482.437
3944 0 64.0981 12.8865 826 110.157 417.775 481.576
3945 0 67.1693 13.3097 894 109.136 417.298 480.112
