time division length width area intensity CMx CMy
0 0 44.0486 13.4397 592 154.598 126.672 481.039
1 0 43.0178 13.1109 564 156.225 127.025 481.129
2 0 44.0122 13.9734 615 153.237 126.281 480.971
3 0 44.0511 12.6444 557 159.28 126.496 480.808
4 0 46.0291 13.3611 615 156.117 127.088 479.867
5 0 48.0545 14.213 683 150.808 127.489 480.871
6 0 47.0439 13.7531 647 156.767 126.801 478.19
7 0 50.0255 14.4526 723 151.542 126.804 477.999
8 0 51.0748 14.4102 736 152.052 126.076 478.644
9 0 53.0614 15.3219 813 148.611 126.287 477.576
10 0 54.0284 14.4368 780 154.858 126.6 476.045
11 0 55.0257 14.0116 771 156.777 126.991 477.156
12 0 59.052 14.7328 870 152.599 126.97 474.143
13 0 60.0471 15.4712 929 148.521 126.799 475.24
14 0 62.0846 13.6749 849 154.264 126.634 475.139
15 0 64.0889 14.3863 922 151.871 126.016 473.482
16 0 66.0121 13.543 894 152.792 126.318 474.757
17 0 68.0712 14.9843 1020 147.605 126.099 471.376
18 0 71.0816 14.814 1053 148.037 125.808 471.901
19 0 73.1076 14.8959 1089 148.726 126.224 471.039
20 1 38.0334 12.6731 482 152.952 126.124 487.828
21 0 39.0071 14.2025 554 149.043 125.374 486.354
22 0 41.0053 13.0959 537 147.816 124.663 486.318
23 0 42.0184 12.8277 539 150.731 125.314 486.657
24 0 42.1432 13.8338 583 145.058 125.472 487.051
25 0 46.0362 13.055 601 150.426 125.694 487.045
26 0 46.1062 13.881 640 149.153 124.334 486.05
27 0 46.036 13.5112 622 150.886 123.651 485.765
28 0 49.055 14.9016 731 144.442 124.78 485.588
29 0 50.0803 14.1573 709 148.26 124.673 484.072
30 0 51.0928 13.4461 687 150.757 124.467 483.712
31 0 53.0412 14.7244 781 146.25 124.328 483.549
32 0 56.0974 14.5996 819 145.071 123.912 482.355
33 0 57.1582 14.5036 829 144.636 123.625 481.511
34 0 56.0277 14.1894 795 148.328 123.381 481.72
35 0 60.0522 14.0211 842 147.582 123.33 481.046
36 0 62.0513 15.4066 956 143.609 124.188 478.877
37 0 62.1077 14.0562 873 149.262 124.054 479.538
38 0 65.0697 15.4603 1006 144.062 124.028 478.324
39 0 66.0513 14.6856 970 147.913 123.644 478.124
40 0 71.0614 14.5227 1032 146.285 123.246 477.215
41 0 73.137 14.7121 1076 146.993 123 474.116
42 0 77.0476 15.4709 1192 142.515 122.346 475.009
43 0 77.074 14.778 1139 147.744 122.901 473.707
44 0 82.0914 14.9711 1229 144.315 122.815 473.165
45 0 83.0881 15.3572 1276 144.515 122.65 470.664
46 0 86.092 15.9829 1376 142.743 122.116 465.61
47 0 89.1217 15.6976 1399 143.401 122.017 465.014
48 0 92.2926 14.6707 1354 145.921 122.749 463.186
49 1 47.1578 14.5257 685 143.552 122.216 483.874
50 0 50.1452 14.6175 733 143.666 122.303 483.198
51 0 50.072 13.7802 690 145.439 122.193 483.361
52 0 53.2127 15.4099 820 141.121 122.976 480.721
53 0 55.2441 13.9381 770 145.784 123.188 480.105
54 0 58.1038 15.4379 897 140.029 122.469 479.192
55 0 59.3068 15.0573 893 142.097 121.873 477.644
56 0 62.3553 14.7542 920 141.728 121.347 477.478
57 0 63.2166 14.9328 944 143.022 121.733 475.881
58 0 66.2695 13.9732 926 144.761 121.978 475.281
59 0 69.2233 14.1571 980 143.31 121.55 474.795
60 0 71.2426 14.8647 1059 141.931 121.451 473.266
61 0 75.3148 15.4286 1162 138.948 121.6 472.435
62 0 73.2194 13.521 990 147.356 121.952 471.383
63 0 76.3163 14.3875 1098 144.669 122.114 469.507
64 0 81.3466 14.8131 1205 141.4 121.214 469.659
65 0 85.4197 15.2775 1305 139.562 121.021 466.83
66 0 86.4512 13.9154 1203 143.91 121.204 465.861
67 0 90.2488 15.1138 1364 139.955 121.289 463.497
68 0 93.2155 14.7079 1371 140.552 120.75 463.66
69 0 97.2553 15.1149 1470 138.884 121.107 460.001
70 0 100.509 14.9439 1502 138.448 121.081 458.536
71 0 106.293 14.7141 1564 139.798 121.077 456.6
72 1 55.2188 12.9123 713 135.555 120.917 482.877
73 0 57.2511 12.7858 732 136.9 120.678 481.413
74 0 60.207 12.9553 780 135.144 120.409 481.291
75 0 61.1255 13.2678 811 135.134 120.782 481.09
76 0 64.177 13.1044 841 136.389 120.617 479.732
77 0 66.1295 13.5492 896 136.401 121.08 478.436
78 0 68.203 13.797 941 135.428 120.786 477.13
79 0 71.156 12.9434 921 136.82 121.249 476.543
80 0 73.1979 13.3747 979 135.73 121.758 475.853
81 0 76.2289 14.3253 1092 133.429 122.041 473.178
82 0 78.1554 14.3432 1121 133.254 121.488 470.668
83 0 81.0875 13.1463 1066 135.904 121.601 471.24
84 0 84.189 13.731 1156 136.239 121.501 468.465
85 0 84.1171 13.5525 1140 136.419 121.517 468.854
86 0 88.0971 13.3716 1178 137.52 121.595 467.407
87 0 91.1235 13.1799 1201 137.794 121.55 465.769
88 0 95.1294 13.8758 1320 135.548 121.462 462.202
89 0 99.1137 13.0053 1289 137.289 121.289 460.341
90 0 101.22 14.1573 1433 135.128 121.345 458.109
91 0 105.214 14.0095 1474 135.652 121.296 455.986
92 1 57.059 9.97213 569 135.033 120.77 482.937
93 0 61.0665 12.0361 735 132.569 121.154 482.863
94 0 61.1906 12.0607 738 133.879 121.183 481.182
95 0 63.093 11.9982 757 134.123 121.569 480.151
96 0 67.1537 11.8832 798 135.576 120.931 478.429
97 0 69.1648 12.5787 870 134.753 121.12 476.926
98 0 72.0759 12.4175 895 133.762 121.166 475.551
99 0 75.2611 13.2206 995 133.04 121.771 473.653
100 0 77.215 12.8861 995 133.639 121.782 472.626
101 0 81.2657 12.7729 1038 132.932 121.238 472.948
102 0 83.2212 13.8667 1154 130.695 121.249 469.318
103 0 84.1146 14.2663 1200 128.812 120.712 467.569
104 0 89.2664 12.4011 1107 132.265 120.765 469.269
105 0 91.1106 12.9293 1178 129.784 120.424 464.975
106 0 93.153 12.4419 1159 130.97 120.261 465.922
107 0 97.1218 12.8087 1244 130.678 120.678 462.588
108 0 101.279 12.4705 1263 130.375 121.185 462.051
109 0 103.08 11.787 1215 132.985 120.903 458.085
110 0 107.132 12.4239 1331 130.228 120.838 457.281
111 1 61.1008 11.6692 713 122.028 121.394 482.367
112 0 63.2233 12.1632 769 124.215 121.463 480.819
113 0 64.0665 12.2373 784 120.343 120.177 481.098
114 0 66.1026 12.4957 826 117.205 120.343 481.064
115 0 68.0553 11.6817 795 122.318 119.748 478.989
116 0 68.0967 11.3221 771 129.732 120.405 476.14
117 0 73.1323 11.8552 867 127.058 120.186 474.642
118 0 75.197 11.5164 866 126.751 120.774 475.838
119 0 77.1007 11.9195 919 127.104 121.492 473.176
120 0 79.0988 12.3896 980 126.923 120.652 469.957
121 0 83.0895 13.4794 1120 123.547 120.221 469.916
122 0 85.1089 12.1961 1038 126.389 119.724 468.212
123 0 87.1574 12.1045 1055 127.392 120.011 467.285
124 0 92.1673 12.7594 1176 123.902 120.551 466.181
125 0 96.0907 13.1334 1262 123.689 121.152 463.974
126 0 97.1401 12.9504 1258 124.486 120.886 462.087
127 1 52.0457 11.317 589 114.389 120.078 487.219
128 0 50.0203 12.215 611 114.651 120.159 486.002
129 0 54.0318 11.5488 624 111.92 120.292 486.631
130 0 53.0419 11.5757 614 113.793 120.668 485.684
131 0 56.0689 12.1279 680 111.824 120.162 484.072
132 0 57.0945 12.2078 697 112.03 119.753 482.978
133 0 58.0593 12.4872 725 111.204 119.523 482.39
134 0 59.0526 10.2451 605 116.835 119.964 480.797
135 0 62.1238 11.96 743 111.973 119.798 481.052
136 0 62.0123 11.9976 744 112.513 119.796 480.281
137 0 65.093 12.4284 809 110.483 119.048 478.366
138 0 69.1328 11.9625 827 111.11 119.34 478.041
139 0 70.0629 11.6181 814 112.257 119.846 479.043
140 0 73.072 11.5229 842 113.613 119.335 473.722
141 0 75.0674 12.269 921 111.724 119.066 475.307
142 0 76.0296 13.3369 1014 110.739 118.972 472.327
143 0 80.0947 12.4852 1000 111.909 119.87 470.469
144 0 83.056 11.4501 951 114.264 120.027 472.11
145 0 86.0863 11.9299 1027 113.127 119.877 469.577
146 1 43.1026 9.97619 430 114.963 119.826 490.046
147 0 45.0654 11.561 521 111.591 119.008 487.787
148 0 49.093 11.1829 549 108.913 119.155 488.661
149 0 49.0223 11.7905 578 105.465 119.317 487.844
150 0 51.1097 11.1721 571 107.31 119.047 487.646
151 0 52.0924 11.1916 583 107.398 119.221 487.024
152 0 52.0573 11.7179 610 108.174 119.7 486.059
153 0 51.0286 11.3074 577 111.118 120.132 485.577
154 0 53.013 12.412 658 109.632 120.348 484.831
155 0 57.012 13.0499 744 108.172 120.202 482.75
156 0 60.0961 12.9293 777 108.813 119.801 482.448
157 0 62.054 13.1498 816 109.613 119.662 480.87
158 0 63.0377 13.9599 880 109.743 119.719 479.408
159 0 64.0304 12.0099 769 116.257 119.536 480.406
160 0 67.0608 11.9444 801 122.467 119.351 478.787
161 0 68.0266 13.2007 898 119.885 119.676 478.091
162 0 72.1174 13.0343 940 119.509 119.971 478.624
163 0 71.048 11.9919 852 124.399 119.892 478.171
164 0 74.0428 13.0195 964 123.6 120.031 474.133
165 0 75.1194 12.9394 972 124.44 120.175 473.833
166 0 77.0672 12.5864 970 126.047 120.159 473.65
167 0 80.0942 12.71 1018 128.301 120.371 470.83
168 0 84.1263 13.3846 1126 126.558 120.261 471.611
169 0 83.1087 12.3453 1026 131.794 120.329 469.893
170 0 87.0452 13.0737 1138 130.141 120.385 468.918
171 0 92.0926 13.8556 1276 127.523 120.309 466.991
172 0 94.1364 13.2149 1244 128.425 120.248 467.577
173 0 96.1435 14.0935 1355 127.011 120.092 463.028
174 1 51.1161 10.6229 543 126.018 120.497 486.768
175 0 50.1416 11.7068 587 122.697 120.785 487.116
176 0 52.1412 12.6196 658 121.55 120.716 485.269
177 0 54.2593 13.1222 712 120.642 121.173 480.758
178 0 54.0221 11.9951 648 120.503 120.952 483.878
179 0 57.0087 12.8401 732 117.398 119.674 483.238
180 0 59.0162 13.1828 778 116.319 119.364 481.675
181 0 60.1304 12.6059 758 117.773 120.583 480.014
182 0 63.1748 12.9165 816 117.506 120.569 478.974
183 0 66.1326 13.231 875 116.846 120.713 478.232
184 0 65.113 13.0082 847 120.514 120.902 477.172
185 0 69.1553 12.8407 888 119.302 120.988 475.725
186 0 72.0564 13.3229 960 116.684 120.888 476.046
187 0 73.0624 12.633 923 118.626 120.791 475.779
188 0 75.042 12.4997 938 120.779 120.275 472.417
189 0 77.1356 12.1215 935 121.249 121.188 470.921
190 0 80.2504 12.461 1000 120.952 121.124 468.283
191 0 82.127 13.9784 1148 117.205 121.146 466.24
192 0 86.1487 12.6525 1090 118.365 120.677 469.202
193 0 90.2652 12.1309 1095 120.114 120.933 466.089
194 0 94.247 13.7617 1297 115.712 120.159 464.692
195 0 96.2985 12.8455 1237 120.768 119.846 457.339
196 1 53.352 12.0708 644 112.292 119.716 481.217
197 0 53.3573 10.9638 585 117.732 120.533 480.58
198 0 55.1141 12.2473 675 113.841 120.624 482.784
199 0 56.0207 11.4422 641 112.145 120.309 481.925
200 0 59.0282 11.8757 701 110.643 120.168 482.862
201 0 59.0563 12.1918 720 111.886 120.629 480.764
202 0 61.0578 12.1033 739 113.422 120.566 479.088
203 0 64.0406 12.5858 806 111.094 120.444 480.866
204 0 66.0546 13.1709 870 111.447 120.338 477.659
205 0 67.103 11.9518 802 118.943 120.324 476.87
206 0 70.198 12.2083 857 117.87 120.317 474.737
207 0 74.1211 11.8725 880 116.695 120.311 473.907
208 0 75.1997 12.274 923 114.803 120.185 473.198
209 0 79.1209 11.9311 944 114.117 120.276 472.194
210 0 80.1676 12.1371 973 114.737 120.54 469.77
211 0 83.1102 11.8036 981 114.029 120.472 469.413
212 0 85.1231 12.0296 1024 113.866 120.79 468.813
213 0 89.0812 11.6523 1038 114.428 120.43 466.02
214 0 90.1783 11.5771 1044 116.361 120.789 461.692
215 1 49.0367 10.4615 513 109.511 120.639 486.581
216 0 50.0471 12.1685 609 105.668 119.662 485.189
217 0 52.0311 11.6853 608 107.245 119.827 485.025
218 0 52.0934 10.6731 556 117.638 119.595 483.273
219 0 55.0641 11.4957 633 115.657 120.081 482.965
220 0 57.019 11.9785 683 113.958 120.176 483.294
221 0 58.0766 12.5007 726 114.645 119.68 481.647
222 0 61.0624 12.6592 773 113.51 120.181 481.154
223 0 62.0669 13.0504 810 113.969 119.447 479.099
224 0 65.0954 13.4725 877 112.899 119.658 478.361
225 0 67.0347 12.5159 839 115.315 120.119 479.077
226 0 68.109 12.7296 867 117.196 119.845 476.418
227 0 71.0628 13.2137 939 116.16 120.341 475.986
228 0 70.1078 12.2668 860 121.729 120.162 476.304
229 0 74.0833 13.4578 997 117.641 120.384 475.538
230 0 76.107 12.6401 962 120.311 120.63 474.997
231 0 78.1369 13.2332 1034 120.229 120.942 472.129
232 0 81.0548 13.423 1088 121.21 120.747 471.119
233 0 85.0831 13.5985 1157 120.895 120.599 469.809
234 0 85.0713 12.66 1077 124.45 120.664 469.448
235 0 90.1142 14.071 1268 121.162 120.878 466.975
236 0 92.0786 13.6622 1258 122.75 120.566 468.064
237 1 46.0478 10.728 494 125.494 120.646 488.01
238 0 48.1328 11.4683 552 120.803 121.868 487.632
239 0 47.0719 10.4096 490 119.298 122.118 488.118
240 0 49.0179 11.6284 570 117.556 121.544 487.579
241 0 51.024 11.1516 569 118.533 121.336 487.469
242 0 53.0385 11.0863 588 117.378 121.146 487.044
243 0 54.0164 12.2926 664 115.232 121.22 486.295
244 0 56.0657 11.5579 648 117.906 120.977 485.267
245 0 56.016 12.068 676 117.632 121.249 484.84
246 0 59.0445 11.5506 682 118.186 120.711 484.262
247 0 58.0565 11.351 659 120.461 120.692 481.563
248 0 62.0358 12.9119 801 115.983 120.643 480.792
249 0 64.0452 12.1008 775 117.932 120.575 480.591
250 0 68.0257 12.4512 847 115.03 120.686 480.449
251 0 68.0435 12.4626 848 117.209 120.302 476.745
252 0 70.1056 10.4129 730 120.159 120.455 479.145
253 0 72.0314 11.4533 825 120.661 120.937 474.359
254 0 76.0376 11.8231 899 118.188 120.617 474.868
255 0 79.1422 11.4856 909 119.087 120.537 473.073
256 0 82.0583 12.2474 1005 116.769 120.527 473.11
257 0 86.0461 13.3998 1153 113.979 120.244 469.537
258 1 44.0495 11.7141 516 115.847 119.994 488.576
259 0 44.0574 13.0058 573 112.101 120.188 489.64
260 0 47.097 12.3575 582 113.943 119.933 489.18
261 0 47.0759 11.8957 560 115.446 120.398 489.012
262 0 50.1046 12.893 646 112.927 120 487.782
263 0 52.0647 13.1759 686 112.685 120.281 486.547
264 0 53.0435 12.3295 654 114.795 119.474 486.998
265 0 54.0271 12.5122 676 114.496 119.941 486.873
266 0 55.0367 13.5728 747 113.154 120.063 485.605
267 0 57.0333 13.6587 779 113.77 120.059 483.841
268 0 59.1552 12.9997 769 114.637 120.026 481.243
269 0 62.0776 12.7743 793 114.662 120.16 482.846
270 0 63.0704 12.8745 812 115.733 120.462 481.064
271 0 67.158 13.8628 931 111.871 120.743 481.617
272 0 68.0867 13.9969 953 112.662 120.081 478.501
273 0 70.0874 13.369 937 114.505 120.541 477.365
274 0 71.0444 13.0341 926 116.596 120.174 476.346
275 0 74.0707 13.1766 976 116.032 120.121 475.993
276 0 77.0667 13.4559 1037 115.906 120.955 473.834
277 0 78.081 12.8456 1003 118.99 121.432 473.107
278 0 81.2312 12.409 1008 119.657 121.173 470.095
279 1 42.0602 11.3884 479 121.833 121.336 490.013
280 0 44.1085 11.8571 523 119.922 120.532 488.633
281 0 45.0324 13.0795 589 117.353 120.983 488.037
282 0 46.0313 13.1867 607 110.909 121.535 490.496
283 0 47.0374 13.0535 614 112.399 121.34 489.757
284 0 49.0838 12.4481 611 113.697 121.444 488.311
285 0 50.0532 12.2869 615 113.062 121.049 487.954
286 0 53.024 13.5033 716 110.324 121.609 486.885
287 0 53.0247 12.4093 658 114.631 121.198 484.962
288 0 57.0464 13.3225 760 110.297 120.501 484.668
289 0 57.0807 12.4385 710 112.844 120.67 484.159
290 0 58.0348 12.7165 738 112.877 120.959 483.03
291 0 59.0318 12.6373 746 113.933 121.109 481.651
292 0 61.123 12.254 749 113.744 121.246 480.625
293 0 63.0668 12.0983 763 118.392 121.755 479.796
294 0 65.0842 12.3686 805 117.468 121.325 477.206
295 0 69.057 12.9024 891 115.603 121.82 476.169
296 0 70.1414 12.1469 852 116.853 121.269 477.072
297 0 72.1251 11.3137 816 118.098 121.43 475.9
298 0 75.0919 12.3848 930 114.784 121.557 474.919
299 0 78.1004 13.0985 1023 113.884 121.267 471.708
300 0 81.0956 12.5901 1021 113.156 121.039 472.259
301 0 83.1469 11.63 967 116.198 121.212 468.548
302 0 86.1853 12.6472 1090 110.897 120.872 469.759
303 0 89.1165 11.2213 1000 113.459 121.175 467.746
304 0 91.114 11.0192 1004 114.021 121.095 465.596
305 0 93.2654 11.0974 1035 112.857 120.767 465.67
306 1 48.0552 12.8602 618 101.599 121.558 487.655
307 0 49.0432 11.8059 579 104.28 121.644 487.822
308 0 48.079 11.4395 550 106.32 121.36 486.958
309 0 51.0703 12.0226 614 103.617 121.735 486.785
310 0 53.0358 13.0289 691 102.546 121.373 485.327
311 0 55.1037 12.3222 679 103.806 120.586 484.264
312 0 55.0665 13.4201 739 103.34 120.981 482.512
313 0 57.0545 13.4258 766 103.65 121.024 484.217
314 0 61.1113 13.4018 819 103.532 120.969 482.648
315 0 61.0381 11.6648 712 109.834 121.426 482.185
316 0 66.0692 13.1075 866 105.993 120.964 480.401
317 0 66.1086 12.4946 826 108.88 121.249 478.368
318 0 67.0556 12.2436 821 114.124 121.481 478.901
319 0 72.1395 13.5848 980 110.323 121.311 477.324
320 0 72.1363 13.1418 948 112.134 121.005 476.01
321 0 76.1122 12.4159 945 113.455 121.024 475.761
322 0 78.1317 12.3381 964 115.113 120.891 473.372
323 0 81.1951 12.8579 1044 113.392 121.025 474.295
324 0 84.1888 13.4697 1134 112.86 120.69 471.279
325 0 86.1274 12.8531 1107 112.895 120.962 469.829
326 1 44.0192 10.3364 455 115.44 121.714 490.123
327 0 46.0442 12.1622 560 113.316 121.577 489.038
328 0 48.0414 12.7182 611 111.507 122.155 488.408
329 0 50.0474 13.7869 690 106.965 121.296 489.149
330 0 51.0206 13.4848 688 107.795 120.75 487.494
331 0 54.0545 14.5409 786 105.977 120.047 486.553
332 0 52.0592 12.87 670 112.325 121.106 485.766
333 0 56.0229 13.1018 734 110.997 121.074 484.395
334 0 57.0522 12.7602 728 113.894 120.885 483.61
335 0 61.0435 12.401 757 111.635 121.647 485.708
336 0 62.0799 13.5148 839 110.975 120.666 482.496
337 0 62.1086 12.929 803 112.9 121.035 481.248
338 0 68.0691 14.0592 957 107.754 120.973 480.76
339 0 68.0646 13.3256 907 111.402 120.428 479.268
340 0 72.0443 14.2135 1024 108.882 120.664 477.282
341 0 74.1062 13.1703 976 111.251 120.956 474.832
342 0 79.1398 12.977 1027 110.466 121.241 474.737
343 0 79.0465 12.3725 978 112.864 121.478 474.64
344 0 83.043 13.0896 1087 110.601 121.523 472.054
345 0 86.0372 12.1924 1049 112.043 121.975 470.383
346 1 46.01 10.4543 481 114.121 122.877 491.387
347 0 46.0229 11.5377 531 113.011 122.638 488.122
348 0 50.0384 11.9308 597 111.732 121.787 488.395
349 0 50.054 13.1258 657 105.659 121.452 488.63
350 0 50.0402 13.2493 663 107.395 121.157 487.172
351 0 52.1155 12.3572 644 107.89 121.742 489.323
352 0 53.0348 13.0103 690 108.67 122.278 485.706
353 0 55.1041 11.2333 619 111.367 122.158 487.887
354 0 56.0258 12.8691 721 108.718 122.193 486.985
355 0 58.0609 13.572 788 108.731 122.244 483.945
356 0 61.0864 12.2777 750 111.504 122.456 483.077
357 0 62.0621 12.4875 775 111.452 122.372 481.51
358 0 65.0401 12.1925 793 111.992 122.406 480.958
359 0 68.1001 14.0822 959 107.219 122.708 480.892
360 0 70.1736 11.7993 828 114.678 122.027 478.33
361 0 73.048 12.1975 891 112.891 122.88 478.596
362 0 75.0715 13.6137 1022 110.462 122.452 476.438
363 0 77.1518 12.9485 999 112.714 122.772 475.966
364 0 82.0528 13.2476 1087 111.951 122.855 474.514
365 0 85.1181 13.2639 1129 112.857 122.754 473.309
366 0 87.087 13.3545 1163 113.793 122.852 472.105
367 0 90.1037 13.0849 1179 115.493 122.634 469.51
368 0 94.1335 14.267 1343 113.203 122.213 467.29
369 0 98.0727 14.4077 1413 112.73 122.662 466.841
370 1 54.0558 11.7656 636 119.825 122.607 487.341
371 0 55.1272 13.3691 737 117.103 121.765 485.72
372 0 59.0403 14.4816 855 113.342 123.418 485.015
373 0 59.0844 13.8785 820 116.489 123.15 484.168
374 0 60.062 12.4538 748 120.48 123.342 482.984
375 0 63.0326 13.5803 856 117.126 122.935 482.447
376 0 64.0197 12.5742 805 119.766 122.809 482.36
377 0 69.065 13.5669 937 116.117 123.012 481.819
378 0 70.042 13.0779 916 118.478 123.104 478.906
379 0 72.0659 13.8901 1001 116.476 122.727 477.705
380 0 74.0586 13.3273 987 118.689 122.576 476.793
381 0 79.0503 14.4718 1144 114.916 122.137 475.466
382 0 78.1758 13.4441 1051 118.852 122.617 474.856
383 0 82.0597 13.3561 1096 119.099 122.294 472.593
384 0 87.0854 14.147 1232 115.562 122.914 472.947
385 0 89.0849 13.8856 1237 116.728 122.964 471.377
386 0 91.0505 13.3992 1220 118.351 122.401 467.867
387 0 93.1053 13.3827 1246 119.59 122.668 466.673
388 1 49.054 10.9675 538 117.487 122.796 491.279
389 0 51.0593 11.5552 590 113.593 122 489.854
390 0 52.0496 12.2191 636 113.91 122.208 487.154
391 0 55.0811 13.0716 720 111.592 122.193 486.182
392 0 56.0442 13.0611 732 113.5 122.429 486.454
393 0 56.052 12.4527 698 117.112 122.128 484.315
394 0 59.0685 13.0357 770 115.149 122.01 485.039
395 0 64.143 14.0623 902 116.172 122.603 483.115
396 0 64.049 13.3023 852 120.938 122.691 482.099
397 0 64.0831 13.1392 842 121.614 122.324 481.195
398 0 69.1204 14.236 984 118.507 123.009 480.698
399 0 71.0864 14.616 1039 117.899 122.498 479.834
400 0 74.1027 13.3194 987 120.687 122.344 479.881
401 0 75.097 14.1684 1064 120.789 122.614 477.401
402 0 78.1297 13.6184 1064 122.333 122.935 476.801
403 0 78.1044 12.3552 965 126.229 122.597 475.755
404 0 82.0871 13.9852 1148 121.505 123.138 473.385
405 0 85.1334 13.238 1127 122.952 122.246 471.156
406 0 88.0885 12.9529 1141 122.259 122.304 470.04
407 0 90.1444 13.4007 1208 120.7 122.648 470.425
408 1 47.0497 10.9884 517 120.698 123.658 489.787
409 0 47.1336 10.8203 510 119.888 123.304 491.265
410 0 50.0553 12.5661 629 117.806 122.617 489.75
411 0 51.0624 12.7295 650 118.48 122.878 488.551
412 0 53.0405 12.3679 656 123.296 122.927 487.444
413 0 57.0429 13.1831 752 119.371 122.976 487.23
414 0 57.0672 12.7218 726 121.577 122.386 485.441
415 0 60.0345 13.7754 827 119.302 122.804 483.229
416 0 61.0316 12.7639 779 121.516 122.584 483.101
417 0 64.0633 13.0808 838 121.064 122.517 481.912
418 0 65.0702 13.4624 876 122.147 122.745 480.223
419 0 69.0805 14.693 1015 117.773 122.801 478.702
420 0 71.0803 14.6173 1039 118.835 122.67 477.542
421 0 72.0854 13.7892 994 121.84 122.734 476.54
422 0 76.0386 13.7956 1049 120.434 123.156 476.349
423 0 78.0496 13.5811 1060 121.482 123.637 475.211
424 0 82.0488 14.1623 1162 120.034 122.948 472.795
425 0 83.083 12.6019 1047 124.5 123.183 471.542
426 0 84.0768 12.1912 1025 119.19 122.253 471.373
427 0 88.0971 12.9403 1140 116.588 122.834 470.449
428 0 90.0909 12.6761 1142 116.838 122.255 469.244
429 0 94.0923 13.4761 1268 115.345 123.095 466.553
430 1 53.0341 11.9923 636 116.259 123.145 488.025
431 0 54.0531 11.7107 633 118.997 123.504 487.573
432 0 56.0307 12.3504 692 119.325 124.058 485.644
433 0 58.0372 12.4231 721 117.883 124.051 486.975
434 0 59.0219 12.2836 725 118.706 123.043 486.138
435 0 61.017 12.2425 747 119.483 123.324 484.661
436 0 63.0348 12.5962 794 119.409 123.384 483.918
437 0 66.0488 12.8087 846 118.238 123.52 482.577
438 0 66.0765 13.0152 860 118.17 123.015 481.359
439 0 68.0918 11.7048 797 121.68 122.96 478.88
440 0 71.0775 12.2402 870 119.803 123.403 478.797
441 0 76.0809 13.4331 1022 115.287 123.312 477.381
442 0 77.105 12.5673 969 118.839 123.056 475.609
443 0 80.0996 13.5956 1089 116.684 122.612 474.136
444 0 81.1735 12.7381 1034 119.511 123.14 474.064
445 0 85.1091 13.5121 1150 117.357 123.164 471.78
446 0 89.1169 12.9156 1151 118.55 122.867 470.072
447 0 91.1912 11.4046 1040 123.322 122.288 470.427
448 0 93.1702 11.4951 1071 123.777 122.268 466.853
449 0 98.3261 12.4179 1221 119.981 122.358 467.075
450 1 51.0598 11.2613 575 85.0348 122.647 487.788
451 0 51.1052 12.621 645 113.885 123.402 487.997
452 0 51.0458 11.6954 597 116.806 123.575 487.801
453 0 54.1614 11.6873 633 117.842 121.769 487.186
454 0 56.1242 12.7396 715 114.729 122.572 486.814
455 0 58.1542 12.6904 738 115.699 122.568 484.721
456 0 61.1521 11.6594 713 117.756 123.198 484.854
457 0 58.0685 10.0571 584 124.344 123.055 483.563
458 0 64.0908 12.0922 775 117.699 123.128 482.68
459 0 66.1423 13.6826 905 114.253 123.007 481.808
460 0 65.0671 13.4016 872 117.438 123.213 480.327
461 0 69.1621 12.3767 856 119.092 123.303 478.936
462 0 71.1356 13.889 988 115.67 123.14 477.846
463 0 73.1005 12.9548 947 116.874 123.845 478.211
464 0 77.1557 13.1423 1014 117.359 123.957 474.782
465 0 78.0894 13.7791 1076 116.542 124.064 473.895
466 0 81.077 13.3083 1079 118.838 124.84 471.905
467 0 82.0692 12.2214 1003 120.565 124.3 472.124
468 0 86.0769 13.4298 1156 118.412 123.721 471.378
469 0 88.1164 12.7332 1122 119.863 124.404 469.035
470 1 45.0076 10.5316 474 119.025 124.749 490.911
471 0 48.0245 11.2859 542 118.664 124.162 489.31
472 0 49.1412 13.0033 639 115.826 122.3 485.745
473 0 50.1347 13.3241 668 112.397 121.554 487.668
474 0 51.0622 12.5925 643 114.77 121.935 487.35
475 0 52.0664 12.4457 648 111.736 121.324 486.059
476 0 53.0277 12.5406 665 111.635 121.841 485.558
477 0 58.1223 13.42 780 108.026 121.533 485.335
478 0 57.0372 12.8162 731 111.546 121.271 483.138
479 0 60.1085 12.8933 775 110.67 121.405 484.12
480 0 61.0581 13.741 839 109.571 121.565 482.201
481 0 63.0706 12.7635 805 112.178 121.591 482.635
482 0 63.0551 11.8944 750 115.287 121.996 480.343
483 0 67.1187 13.0366 875 110.613 120.815 481.707
484 0 68.0488 13.2699 903 112.105 120.734 479.213
485 0 70.1083 12.7945 897 115.091 122.62 478.728
486 0 71.1296 13.9183 990 113.567 122.809 477.71
487 0 73.0403 12.0345 879 118.899 122.73 476.553
488 0 76.1165 13.0327 992 117.821 123.043 474.099
489 0 77.1872 12.6964 980 118.277 121.961 473.09
490 0 82.1493 13.9624 1147 114.643 122.51 472.126
491 0 85.0379 13.8644 1179 114.163 122.181 470.962
492 0 88.1946 14.5474 1283 113.171 122.944 468.645
493 1 46.071 12.4373 573 116.998 122.873 487.836
494 0 46.0489 11.6181 535 115.785 123.576 489.923
495 0 48.0384 11.5324 554 109.711 121.977 486.567
496 0 50.0353 11.6917 585 110.988 122.282 484.891
497 0 52.07 11.1389 580 111.443 122.112 485.907
498 0 52.0734 10.2932 536 114.914 122.382 484.965
499 0 55.1172 12.5551 692 109.879 122.045 484.191
500 0 57.134 12.2519 700 114.233 122.887 483.049
501 0 58.0443 11.8875 690 117.517 122.904 483.178
502 0 59.0536 12.1077 715 119.218 122.896 482.834
503 0 61.0548 12.0711 737 120.761 122.976 480.091
504 0 63.0684 12.1614 767 120.836 122.774 481.3
505 0 64.1125 11.8074 757 123.871 122.633 479.908
506 0 68.0627 11.8714 808 123.463 123.114 479.609
507 0 68.074 13.6175 927 121.556 122.701 479.02
508 0 72.0484 12.5749 906 124.695 122.525 477.306
509 0 71.0307 12.0652 857 127.414 122.652 475.679
510 0 76.0256 13.1798 1002 125.25 123.282 473.389
511 0 80.0757 14.3364 1148 121.178 122.855 473.222
512 0 82.14 14.6944 1207 128.303 123.219 472.149
513 0 84.0311 14.209 1194 121.639 122.936 474.448
514 0 86.0463 14.3411 1234 123.91 122.724 472.058
515 0 91.0912 14.2934 1302 124.387 123.148 470.128
516 0 92.0567 14.1978 1307 128.087 122.649 467.698
517 0 94.0943 13.7628 1295 129.822 122.797 467.885
518 0 98.1334 15.1936 1491 125.551 122.987 465.364
519 0 101.125 13.5575 1371 129.997 122.339 462.749
520 0 105.19 13.7845 1450 129.09 122.017 462.808
521 1 56.1281 12.2577 688 132.183 122.66 484.978
522 0 59.0676 11.9693 707 123.737 121.563 481.682
523 0 62.0537 12.8437 797 121.33 120.989 481.435
524 0 64.1053 13.275 851 121.162 121.166 481.355
525 0 65.0511 11.9598 778 125.779 121.952 480.483
526 0 69.0377 13.4709 930 129.383 122.396 481.423
527 0 70.0637 13.8731 972 130.378 122.264 479.378
528 0 72.1033 13.9245 1004 131.187 122.457 477.904
529 0 76.1536 13.5253 1030 132.194 122.319 476.852
530 0 78.0926 14.534 1135 131.27 121.691 476.249
531 0 80.1208 13.7917 1105 135.064 120.872 472.802
532 0 82.143 13.8417 1137 135.938 120.391 474.756
533 0 87.0383 14.4994 1262 132.806 120.861 472.65
534 0 90.114 14.1044 1271 134.382 121.359 470.349
535 0 94.1145 14.5674 1371 132.051 120.546 469.259
536 0 95.2158 13.4957 1285 135.708 120.758 467.786
537 0 99.1288 13.2958 1318 136.732 120.587 465.618
538 1 49.0467 12.2332 600 130.657 121.183 490.535
539 0 52.1379 12.7355 664 128.294 121.086 489.538
540 0 53.0686 13.605 722 128.922 120.968 489.201
541 0 54.0495 12.7846 691 131.161 121.162 488.709
542 0 58.1234 14.0219 815 126.188 121.25 486.699
543 0 59.0819 13.0835 773 129.483 121.314 485.371
544 0 60.0432 13.2571 796 128.823 120.84 483.707
545 0 62.1507 13.6121 846 126.27 121.07 484.444
546 0 64.0357 12.696 813 124.716 121.456 482.161
547 0 67.0228 13.8013 925 120.545 121.562 480.346
548 0 70.0773 12.8715 902 121.996 122.235 479.879
549 0 73.1121 13.7323 1004 118.061 121.727 481.265
550 0 74.1131 13.8167 1024 119.251 122.424 478.278
551 0 74.1716 13.4148 995 124.386 121.693 476.283
552 0 77.1043 13.4493 1037 119.508 122.647 475.869
553 0 80.055 12.4539 997 122.25 122.152 473.534
554 0 83.1002 14.6931 1221 119.283 122.541 472.538
555 0 84.0641 12.7046 1068 124.943 122.656 471.987
556 0 86.0637 12.5488 1080 127.515 122.64 471.144
557 0 90.0776 12.3893 1116 127.126 122.772 468.82
558 0 94.0851 13.5303 1273 124.273 121.554 467.489
559 0 96.1441 13.3862 1287 128.623 121.65 467.162
560 0 99.0971 13.3606 1324 129.63 120.835 464.292
561 1 52.1845 12.2833 641 133.665 121.44 486.142
562 0 53.1397 12.7588 678 123.181 122.625 487.888
563 0 55.1496 12.2032 673 124.319 122.587 487.048
564 0 58.1098 13.4401 781 120.813 122.394 485.703
565 0 60.0754 13.1834 792 122.428 122.773 485.27
566 0 63.0389 12.6906 800 123.45 122.316 485.424
567 0 65.0685 13.2168 860 123.394 121.908 482.941
568 0 67.1422 13.6129 914 124.574 122.522 483.048
569 0 70.1642 13.896 975 133.244 122.554 480.071
570 0 72.263 14.2812 1032 132.167 122.129 479.891
571 0 74.2022 13.288 986 135.295 122.627 479.947
572 0 74.1796 13.2786 985 137.834 122.075 477.175
573 0 76.1855 13.1259 1000 139.77 122.22 476.597
574 0 81.0855 13.9852 1134 136.987 121.731 476.375
575 0 80.1598 14.0594 1127 139.081 121.732 474.247
576 0 85.1365 14.2829 1216 136.081 122.09 474.026
577 0 86.1146 14.3181 1233 137.342 122.049 471.619
578 0 91.2129 14.0221 1279 138.608 121.998 470.603
579 0 93.1213 13.6918 1275 140.682 122.158 470.119
580 0 97.1412 14.3502 1394 137.931 122.029 467.669
581 0 99.207 14.4446 1433 138.424 122.175 465.006
582 0 102.228 14.81 1514 137.89 122.1 464.307
583 0 105.236 15.413 1622 135.452 122.549 460.933
584 1 53.122 10.5229 559 140.589 123.091 487.975
585 0 56.1837 12.8685 723 136.268 121.271 484.82
586 0 57.1246 13.0592 746 137.527 121.109 483.354
587 0 60.0662 13.7515 826 134.735 120.777 484.942
588 0 64.013 13.9347 892 134.855 121.135 483.348
589 0 63.0524 13.2271 834 139.494 120.855 481.142
590 0 68.0709 14.6906 1000 133.463 121.02 480.419
591 0 69.0976 13.85 957 134.726 121.255 482.798
592 0 72.0754 13.3888 965 137.568 121.781 479.898
593 0 74.0863 13.5113 1001 138.508 121.586 478.142
594 0 75.1803 13.9664 1050 137.804 121.549 478.231
595 0 80.1211 13.8416 1109 137.114 121.423 475.907
596 0 82.1114 13.9567 1146 137.471 121.799 473.96
597 0 85.1353 13.3082 1133 137.853 122.274 473.831
598 0 86.1764 12.486 1076 141.584 121.816 472.445
599 1 44.1974 11.064 489 139.434 121.967 492.01
600 0 44.1997 12.0363 532 137.094 121.919 491.782
601 0 48.0315 13.3662 642 122.564 122.505 491.505
602 0 48.1036 13.6164 655 125.014 122.947 491.235
603 0 48.0409 13.3636 642 126.229 122.338 491.017
604 0 50.086 11.9594 599 129.678 122.487 490.761
605 0 51.0746 12.5894 643 130.552 122.058 489.468
606 0 51.0896 11.9007 608 133.146 122.074 489.224
607 0 52.1315 12.315 642 131.646 122.46 488.455
608 0 54.036 12.1771 658 132.565 122.713 487.979
609 0 57.07 12.7387 727 129.568 122.722 486.714
610 0 60.1335 12.439 748 129.501 123.071 485.699
611 0 61.1 12.5205 765 128.545 121.91 485.83
612 0 63.1818 12.9309 817 129.273 122.575 483.976
613 0 65.08 12.6767 825 130.236 122.227 483.067
614 0 67.1596 13.8774 932 127.101 122.102 482.203
615 0 68.1434 13.2221 901 131.622 121.898 479.178
616 0 73.131 13.3049 973 129.647 122.135 480.08
617 0 74.1091 13.1698 976 131.879 121.994 478.157
618 0 76.1007 12.9302 984 133.414 121.737 478.173
619 0 80.0719 13.4629 1078 131.325 122.408 475.911
620 0 83.0781 13.8183 1148 129.6 122.9 474.503
621 0 86.0757 13.3487 1149 130.366 122.704 473.614
622 0 87.178 12.4343 1084 134.162 122.498 472.632
623 0 92.1068 13.3649 1231 130.166 122.141 471.086
624 1 50.0778 11.7817 590 133.051 122.544 489.795
625 0 52.1175 12.5486 654 131.02 121.774 488.355
626 0 53.0662 11.8343 628 132.314 121.97 486.508
627 0 54.0311 11.4008 616 121.088 120.576 485.032
628 0 57.1062 12.0477 688 128.028 122.481 488.157
629 0 59.0796 14.9121 881 120.425 122.07 485.498
630 0 61.0969 12.8812 787 125.539 121.9 484.628
631 0 63.0772 13.7609 868 123.313 121.965 482.622
632 0 68.1319 13.2244 901 121.714 121.837 482.991
633 0 68.0599 12.7094 865 125.163 122.282 480.221
634 0 72.0984 12.9268 932 123.44 122.144 479.955
635 0 70.0882 13.3403 935 124.86 122.103 478.48
636 0 75.0731 12.0283 903 128.514 121.512 475.839
637 0 74.0352 12.5481 929 129.186 122.877 476.689
638 0 81.086 13.7755 1117 124.384 122.802 476.868
639 0 81.1464 13.1121 1064 128.712 122.04 472.168
640 0 85.0922 13.3267 1134 127.817 121.536 471.729
641 0 88.1123 13.392 1180 127.808 122.231 470.044
642 0 92.2315 12.8373 1184 123.976 122.371 469.333
643 0 94.1876 13.4837 1270 123.822 122.305 467.831
644 1 48.0602 11.8601 570 130.007 122.202 489.256
645 0 50.0405 11.3708 569 129.678 122.719 489.38
646 0 51.0914 12.3113 629 123 122.215 489.041
647 0 55.185 13.3007 734 120.275 122.36 488.65
648 0 56.2135 12.1145 681 123.263 122.32 487.176
649 0 58.128 12.6789 737 121.616 122.486 486.4
650 0 60.157 12.9328 778 120.915 121.743 486.131
651 0 60.0969 13.3451 802 121.632 121.85 484.461
652 0 64.1258 11.9765 768 124.491 121.572 483.461
653 0 66.1436 13.4405 889 121.975 120.96 480.546
654 0 68.1978 12.3024 839 122.918 121.097 482.134
655 0 72.1589 11.9043 859 124.413 121.848 480.275
656 0 74.1251 13.2344 981 120.84 122.092 477.597
657 0 76.2463 12.1711 928 123.721 121.385 477.038
658 0 80.0896 12.8231 1027 122.742 121.206 474.909
659 0 83.0935 13.4547 1118 122.236 121.307 474.641
660 0 84.1778 12.4736 1050 124.49 121.673 473.502
661 0 89.1175 12.5228 1116 124.029 121.893 472.176
662 0 91.1566 13.3506 1217 126.937 122.239 470.205
663 0 96.2162 12.9812 1249 127.062 121.995 468.625
664 1 51.0258 12.8562 656 126.559 121.902 486.844
665 0 55.0732 13.7817 759 116.501 122.264 487.188
666 0 55.0661 12.3851 682 123.019 121.886 486.474
667 0 59.1034 13.248 783 116.037 121.925 486.617
668 0 57.0691 11.9679 683 121.565 121.876 486.943
669 0 59.1194 11.9081 704 121.413 121.807 486.491
670 0 61.1081 11.8806 726 122.421 121.957 484.408
671 0 66.0657 12.3211 814 119.606 122 484.467
672 0 68.1396 12.6652 863 120.596 121.511 481.466
673 0 69.1235 12.5572 868 121.907 121.744 481.234
674 0 72.1022 12.5516 905 122.961 121.42 479.997
675 0 75.1222 12.7925 961 123.572 121.781 478.264
676 0 77.1216 13.5371 1044 121.925 122.388 476.805
677 0 79.1593 12.3169 975 125.947 121.953 474.735
678 1 42.0495 10.5828 445 128.279 122.627 494.112
679 0 44.0254 11.7205 516 124.818 122.24 492.576
680 0 45.0274 12.0593 543 125.497 122.389 491.783
681 0 46.0453 12.2922 566 124.986 122.546 491.601
682 0 44.0145 12.0869 532 130.094 122.519 489.944
683 0 48.034 12.7202 611 127.689 121.828 489.648
684 0 49.0459 12.9063 633 128.981 121.54 488.524
685 0 50.0688 12.8823 645 129.791 121.856 486.949
686 0 51.0978 14.2472 728 128.298 121.887 486.519
687 0 53.2181 13.3601 711 131.25 121.456 487.293
688 0 56.2224 13.7845 775 130.177 121.627 486.143
689 0 55.0851 13.5608 747 134.129 121.058 484.863
690 0 57.0536 12.4795 712 132.333 121.837 486.499
691 0 61.1196 13.9072 850 127.364 121.456 485.213
692 0 60.0689 13.6177 818 129.665 121.748 485.496
693 0 59.1727 12.2185 723 135.56 121.368 483.556
694 0 64.0602 13.1127 840 132.102 120.786 481.511
695 0 67.1618 12.5965 846 131.745 121.703 482.173
696 0 69.0495 13.4396 928 130.693 121.488 480.04
697 0 70.0337 12.4511 872 134.454 121.694 478.666
698 0 71.0653 12.003 853 136.635 121.66 476.578
699 0 74.043 12.4522 922 134.542 121.723 476.395
700 0 78.1388 13.9623 1091 129.916 121.725 473.844
701 0 82.1283 14.0512 1154 128.457 121.336 472.424
702 1 45.1175 10.6611 481 134.865 121.634 488.753
703 0 45.0923 12.1972 550 131.778 121.531 485.129
704 0 47.1534 12.1942 575 135.727 121.483 488.704
705 0 49.0757 11.9611 587 137.63 121.085 487.317
706 0 51.2088 12.7127 651 135.296 122.023 486.246
707 0 53.1194 13.3096 707 135.682 121.829 485.892
708 0 54.084 13.2941 719 137.586 121.946 484.878
709 0 55.2051 12.8611 710 140.099 121.706 483.87
710 0 57.2336 13.244 758 140.017 122.05 483.364
711 0 60.1372 13.7519 827 137.366 122.054 483.358
712 0 61.1416 14.5727 891 136.736 122.117 482.279
713 0 62.1778 12.9628 806 144.215 121.556 482.094
714 0 65.1871 15.4018 1004 134.797 121.57 481.301
715 0 67.115 14.9594 1004 137.301 121.212 478.587
716 0 70.2485 14.648 1029 138.86 121.2 478.244
717 0 71.1757 14.977 1066 138.886 121.591 478.1
718 0 73.2541 14.32 1049 141.732 121.671 477.311
719 0 74.1368 14.1091 1046 144.048 121.86 475.351
720 0 77.3059 13.8799 1073 144.905 122.034 474.968
721 0 81.0958 14.2301 1154 143.923 121.928 471.639
722 0 82.1512 14.4733 1189 138.813 121.998 471.75
723 0 84.2478 13.3891 1128 143.296 121.991 470.935
724 0 85.1289 13.0625 1112 145.644 121.692 468.986
725 0 89.1649 12.8526 1146 146.667 121.957 468.181
726 0 93.1813 13.7796 1284 143.545 121.945 466.87
727 1 49.077 11.2476 552 141.806 122.462 487.614
728 0 48.1197 11.0766 533 143.908 122.261 486.938
729 0 54.1182 11.7705 637 136.87 121.998 486.625
730 0 55.0838 15.2132 838 132.058 121.521 488.128
731 0 56.1418 12.8781 723 139.405 120.911 487.591
732 0 58.1419 13.1403 764 136.687 120.967 487.842
733 0 58.0781 12.2593 712 140.598 120.662 486.899
734 0 59.0562 12.6998 750 140.047 121.268 484.989
735 0 60.1132 12.9589 779 139.47 120.854 484.249
736 0 64.0376 13.1798 844 136.236 120.941 482.981
737 0 65.0665 14.0472 914 131.014 120.173 482.245
738 0 68.0702 14.9111 1015 128.241 120.4 480.527
739 0 70.0786 13.9843 980 132.031 120.446 479.965
740 0 71.1717 12.4488 886 137.235 120.78 478.391
741 0 74.0447 14.4237 1068 130.879 120.542 475.434
742 0 76.1703 12.472 950 137.274 120.538 476.586
743 0 76.1234 13.7277 1045 135.213 120.392 473.411
744 0 80.1338 13.7395 1101 134.025 120.188 471.342
745 0 81.1815 12.5275 1017 138.242 120.274 471.568
746 0 87.1747 13.0657 1139 136.036 120.636 470.084
747 0 87.1584 13.0567 1138 137.436 120.506 469.861
748 0 91.0767 13.022 1186 139.022 120.506 466.494
749 0 95.0883 14.3551 1365 132.761 120.875 465.944
750 0 92.1037 12.0842 1113 141.019 120.73 461.706
751 0 99.0705 13.0311 1291 137.348 121.337 458.804
752 1 54.0236 10.5694 571 133.483 120.123 484.452
753 0 57.016 12.9087 736 135.143 119.955 485.352
754 0 57.0256 12.9065 736 131.681 120.777 485.126
755 0 61.0725 12.5752 768 131.189 121.133 484.161
756 0 60.0405 12.2251 734 135.354 120.978 483.759
757 0 63.033 12.0889 762 136.062 122.093 481.587
758 0 67.0858 12.9834 871 131.222 122.207 481.87
759 0 69.0638 12.3799 855 133.561 122.173 480.402
760 0 70.1316 12.7189 892 134.417 121.932 478.184
761 0 74.0943 12.889 955 133.486 122.004 478.403
762 0 77.0862 13.2838 1024 133.277 121.557 476.506
763 0 79.1408 12.2187 967 135.832 121.393 475.715
764 0 81.1188 12.6851 1029 134.928 121.323 473.931
765 0 85.2337 12.3543 1053 136.35 122.012 472.478
766 0 88.2047 13.4233 1184 132.639 121.628 471.438
767 0 90.1451 12.2136 1101 137.219 121.529 469.193
768 0 94.2362 12.925 1218 135.272 122.352 467.348
769 1 50.1549 11.4047 572 132.397 121.297 490.073
770 0 51.1142 11.5232 589 135.124 120.598 488.543
771 0 53.0782 13.1881 700 131.397 120.449 487.831
772 0 55.047 12.6256 695 132.273 119.974 488.114
773 0 56.0816 12.9989 729 130.735 120.562 488.461
774 0 57.0307 13.4664 768 131.34 120.78 485.375
775 0 59.0933 13.4533 795 131.215 121.146 485.205
776 0 62.0944 13.6727 849 128.503 120.357 485.158
777 0 63.1903 13.8312 874 128.499 120.796 483.461
778 0 65.1021 13.9473 908 129.579 120.684 481.152
779 0 66.1295 12.5209 828 134.85 121.08 482.298
780 0 69.1065 13.0523 902 132.33 121.379 481.916
781 0 72.1836 14.4908 1046 129.091 121.25 480.938
782 0 72.0516 12.9213 931 136.348 121.357 479.637
783 0 76.0884 13.8523 1054 133.378 121.052 478.74
784 0 77.1269 13.2638 1023 137.718 120.891 475.394
785 0 81.1808 14.4739 1175 133.415 120.403 476.742
786 0 83.23 14.6101 1216 134.211 120.716 475.808
787 0 85.239 13.5501 1155 139.643 120.943 473.411
788 0 89.1972 13.1843 1176 140.514 120.52 471.435
789 0 93.0966 13.964 1300 137.516 120.585 469.692
790 0 96.1252 13.7217 1319 138.94 121.207 467.632
791 0 98.1698 14.2508 1399 137.648 121.362 467.996
792 0 102.27 13.3861 1369 140.901 121.592 464.263
793 1 55.027 11.0673 609 138.184 121.186 489.248
794 0 54.0451 11.0463 597 135.915 120.945 486.611
795 0 58.1042 11.7375 682 134.652 121.065 486.849
796 0 61.0569 12.8241 783 133.225 121.377 485.429
797 0 63.1855 13.1043 828 132.064 120.672 483.128
798 0 64.1258 13.2396 849 130.907 120.389 484.371
799 0 67.1323 13.6596 917 129.677 120.718 482.418
800 0 69.0374 13.7462 949 128.587 120.244 482.398
801 0 72.1131 13.2708 957 130.393 120.103 480.783
802 0 73.0782 13.1503 961 130.333 120.791 480.277
803 0 74.1213 13.6398 1011 130.424 120.173 476.663
804 0 77.1657 12.7777 986 131.817 119.909 476.376
805 0 81.1919 14.5458 1181 125.713 120.514 475.964
806 0 83.1427 14.2526 1185 126.835 120.657 475.57
807 0 86.1689 13.5316 1166 129.973 120.34 471.687
808 0 87.1988 13.5323 1180 130.771 120.73 470.052
809 0 91.185 12.4034 1131 133.424 120.777 469.764
810 0 94.1965 14.0239 1321 129.628 121.237 467.882
811 1 51.1106 11.4653 586 129.273 119.65 490.128
812 0 52.1713 11.9606 624 127.058 119.97 488.857
813 0 53.1022 10.734 570 119.9 120.653 485.425
814 0 54.098 11.2943 611 118.835 121.484 487.795
815 0 57.1625 11.4586 655 117.253 122.076 487.518
816 0 58.1085 11.2376 653 118.078 121.142 488.02
817 0 61.147 11.317 692 117.409 121.312 486.345
818 0 60.1271 12.0079 722 118.565 121.342 485.388
819 0 65.1331 11.0696 721 119.153 121.229 484.14
820 0 68.1529 11.6943 797 118.918 121.737 481.493
821 0 68.0999 11.7621 801 118.363 121.418 480.995
822 0 70.1656 11.5156 808 118.319 121.676 482.374
823 0 72.1092 11.4271 824 118.568 121.555 480.288
824 0 75.1015 12.1036 909 117.265 121.749 478.506
825 0 78.142 13.3859 1046 113.993 120.917 476.087
826 0 80.0625 11.8782 951 119.372 121.048 475.3
827 0 83.0783 12.5063 1039 118.463 121.235 474.893
828 0 86.1121 12.2515 1055 121.317 121.021 472.961
829 0 90.1827 13.14 1185 120.259 121.031 470.562
830 0 94.2569 12.6675 1194 120.504 122.021 467.847
831 0 98.2526 12.9259 1270 119.207 122.22 465.908
832 1 51.1289 10.6789 546 120.154 122.416 487.04
833 0 54.1643 11.3728 616 116.011 121.851 487.482
834 0 55.1814 12.1418 670 118.01 121.773 486.369
835 0 59.1712 12.9793 768 123.155 121.331 486.368
836 0 61.2339 13.2606 812 119.392 121.075 486.601
837 0 62.2022 11.9771 745 121.923 121.212 485.946
838 0 63.2286 12.5418 793 121.689 120.43 485.266
839 0 66.2173 12.4137 822 120.864 120.255 483.672
840 0 68.1251 12.4917 851 119.344 120.891 483.014
841 0 69.1556 12.0019 830 120.729 120.611 481.114
842 0 72.1694 12.4291 897 118.505 120.588 480.175
843 0 75.1126 12.5944 946 118.633 120.13 479.776
844 0 77.1598 12.7398 983 118.424 120.309 478.159
845 0 79.1362 12.4216 983 121.537 120.952 476.592
846 0 82.1594 12.7679 1049 120.569 121.351 474.504
847 0 85.1708 11.9642 1019 123.156 120.827 473.082
848 0 88.2073 12.0738 1065 123.455 120.578 472.181
849 0 90.2276 13.0115 1174 120.923 120.009 468.79
850 0 92.1841 12.3774 1141 121.597 118.705 468.205
851 0 97.2656 12.7897 1244 120.387 119.969 465.486
852 0 98.2863 12.779 1256 121.874 119.693 463.537
853 0 103.143 11.9542 1233 124.036 119.823 462.418
854 0 108.213 13.5751 1469 119.918 119.923 462.384
855 0 110.268 12.3155 1358 124.428 119.188 459.383
856 1 55.2848 12.4446 688 116.174 119.391 487.228
857 0 56.1257 12.7215 714 118.297 119.322 485.067
858 0 59.1315 12.1763 720 120.104 119.356 484.675
859 0 60.1105 11.9114 716 121.556 119.433 484.413
860 0 62.1321 11.7813 732 122.978 119.224 483.279
861 0 64.144 12.0198 771 122.907 118.885 482.065
862 0 67.1287 11.8876 798 123.529 119.607 481.56
863 0 68.1252 11.8899 810 125.557 119.611 480.143
864 0 74.1196 13.4242 995 121.189 118.884 478.77
865 0 76.1543 13.1838 1004 122.785 119.492 475.179
866 0 79.353 12.8539 1020 124.112 119.939 470.597
867 0 80.3795 11.6448 936 128.034 119.76 471.495
868 0 84.3304 12.3206 1039 125.719 120.303 469.962
869 0 87.4128 12.767 1116 125.961 119.554 467.884
870 1 46.2329 10.9662 507 121.176 119.696 492.043
871 0 47.1591 10.7296 506 125.178 119.964 490.595
872 0 47.0422 11.5428 543 124.753 120.28 490.529
873 0 50.0611 12.9442 648 116.823 119.642 489.233
874 0 50.0436 11.9696 599 120.339 119.431 488.462
875 0 52.0399 11.9332 621 121.24 118.657 487.14
876 0 54.0686 11.2635 609 121.297 119.734 486.082
877 0 55.1275 11.8997 656 120.116 119.755 485.639
878 0 59.0663 12.0373 711 118.063 119.114 485.173
879 0 61.1312 13.332 815 114.423 118.92 483.892
880 0 62.061 12.3266 765 118.058 119.085 481.783
881 0 67.1095 12.9192 867 115.299 118.958 482.943
882 0 65.0269 12.441 809 119.132 121.198 482.888
883 0 68.0561 11.8432 806 121.932 121.407 480.396
884 0 73.1541 12.8223 938 117.939 121.115 478.773
885 0 73.0922 12.6552 925 119.202 121.19 477.765
886 0 78.0986 13.3421 1042 116.121 121.611 475.961
887 0 82.1096 13.0314 1070 115.943 121.989 476.176
888 1 43.1019 11.9484 515 119.396 121.864 493.328
889 0 44.0966 12.5406 553 118.045 121.832 491.533
890 0 47.1549 13.0421 615 116.954 121.19 490.982
891 0 48.4532 12.6101 611 117.728 120.7 490.195
892 0 48.3622 11.3312 548 122.365 120.604 489.785
893 0 51.27 12.3269 632 119.565 120.403 488.095
894 0 52.2489 12.9381 676 118.47 120.707 486.936
895 0 55.2269 12.7293 703 117.703 120.996 486.879
896 0 55.2416 12.8164 708 118.674 121.055 486.102
897 0 58.3087 12.451 726 119.413 121.017 485.96
898 0 58.1916 13.6102 792 118.155 120.466 482.808
899 0 59.282 12.6851 752 120.565 120.723 483.786
900 0 61.2844 12.5807 771 120.926 120.778 483.537
901 0 63.3766 13.1752 835 118.565 120.407 482.986
902 0 67.3043 12.7035 855 119.973 120.393 481.271
903 0 67.2771 12.9911 874 119.959 120.452 481.323
904 0 68.3154 12.8961 881 121.354 120.856 479.417
905 0 70.2131 12.9036 906 121.14 120.007 478.525
906 0 72.2231 14.0814 1017 119.05 120.518 475.916
907 0 77.1684 14.5008 1119 115.684 120.644 477.072
908 0 77.2559 13.4747 1041 121.089 120.671 475.6
909 0 79.2749 13.245 1050 122.237 120.812 474.813
910 0 80.3511 12.9183 1038 124.468 120.922 473.333
911 0 85.1341 12.4157 1057 123.104 120.916 472.807
912 0 88.1216 12.7665 1125 123.686 120.876 471.657
913 0 90.2365 13.3981 1209 122.897 120.812 469.539
914 0 91.3364 11.9339 1090 127.141 120.575 469.866
915 0 94.1239 12.1754 1146 126.654 120.689 469.697
916 0 95.1683 12.6513 1204 127.574 120.238 465.843
917 0 100.253 11.9896 1202 123.497 119.973 464.852
918 0 101.158 12.3866 1253 123.059 120.089 464.002
919 0 105.306 13.2281 1393 117.813 120.353 459.211
920 0 108.141 12.7612 1380 122.338 120.161 462.686
921 0 112.118 12.7544 1430 123.6 120.41 460.459
922 0 115.178 13.5096 1556 121.438 120.326 458.208
923 0 120.093 13.1731 1582 121.481 120.478 457.693
924 0 126.129 12.1463 1532 123.536 120.014 454.739
925 0 126.123 13.5582 1710 123.064 120.22 448.503
926 0 131.176 14.0498 1843 123.163 120.468 448.184
927 0 136.201 13.3847 1823 125.091 119.762 449.474
928 0 140.26 15.0648 2113 115.82 120.451 441.067
929 0 144.247 15.834 2284 120.196 120.145 439.615
930 0 151.466 15.1123 2289 117.731 120.532 435.507
931 1 84.1257 12.2674 1032 117.056 120.657 473.92
932 0 85.1205 11.7715 1002 119.205 119.559 474.919
933 0 88.2453 13.1905 1164 117.07 119.425 470.191
934 0 92.2549 14.2648 1316 113.416 119.826 470.064
935 0 94.18 12.4443 1172 118.124 119.571 469.642
936 0 98.203 13.5128 1327 117.08 119.858 466.151
937 0 101.159 12.7028 1285 119.156 119.983 463.394
938 0 104.256 12.0569 1257 120.533 120.416 464.753
939 0 109.112 13.6741 1492 117.437 120.395 460.166
940 0 114.136 13.4051 1530 117.747 120.304 459.611
941 0 116.219 12.3474 1435 122.589 120.408 454.636
942 1 65.1076 12.3027 801 117.928 119.913 479.119
943 0 68.1602 12.6027 859 120.929 120.048 479.686
944 0 68.1614 13.4534 917 121.049 119.859 478.785
945 0 72.0946 13.8429 998 119.161 120.485 477.217
946 0 74.1195 15.2187 1128 114.599 119.902 477.442
947 0 76.0584 13.9235 1059 117.783 119.902 475.326
948 0 78.0792 13.7296 1072 117.86 120.393 474.71
949 0 81.2042 13.8293 1123 116.565 121.04 472.537
950 0 86.1291 14.0255 1208 114.756 120.29 472.598
951 0 89.1733 14.4101 1285 114.632 120.576 470.467
952 0 92.152 13.7924 1271 116.521 120.158 468.531
953 0 95.1656 14.6692 1396 114.12 120.151 468.772
954 0 99.0844 14.412 1428 116.029 120.31 465.01
955 0 101.101 13.3134 1346 118.526 120.164 464.293
956 0 105.093 14.2445 1497 115.583 120.073 462.707
957 1 57.1637 12.9978 743 120.293 120.301 483.332
958 0 59.0785 12.7457 753 121.43 120.481 483.813
959 0 62.0497 12.8929 800 120.311 120.171 482.316
960 0 62.1217 13.0389 810 121.698 120.437 481.937
961 0 64.0736 13.8122 885 119.939 121.198 481.487
962 0 67.1087 12.3084 826 123.663 121.241 481.55
963 0 70.0244 13.8095 967 118.713 121.447 480.991
964 0 73.0705 13.617 995 118.884 121.352 478.06
965 0 74.0696 13.7573 1019 119.21 121.311 477.326
966 0 76.0258 13.8111 1050 120.349 121.827 476.134
967 0 78.0596 13.2079 1031 122.981 121.306 475.025
968 0 80.0548 13.6157 1090 122.56 121.466 474.461
969 0 82.1256 13.9055 1142 123.12 121.557 473.532
970 0 86.0358 14.1337 1216 122.301 121.843 472.694
971 0 90.0673 14.7001 1324 121.968 121.408 468.725
972 0 93.1415 13.6781 1274 124.719 121.312 468.922
973 0 96.1217 14.7209 1415 122.665 121.194 467.336
974 1 50.0528 12.0273 602 124.233 121.611 489.324
975 0 50.0154 11.4765 574 127.47 121.495 489.058
976 0 55.0887 13.2514 730 123.014 120.519 487.801
977 0 55.0216 14.2126 782 117.886 120.394 485.683
978 0 58.0599 13.1416 763 121.644 119.553 486.798
979 0 57.0502 13.6897 781 121.437 119.659 485.207
980 0 60.054 14.2205 854 120.576 119.915 484.349
981 0 62.0154 15.0769 935 117.076 119.466 483.455
982 0 65.1055 14.6071 951 120.174 119.726 481.514
983 0 66.0852 14.1181 933 122.797 119.797 481.304
984 0 68.0359 14.0955 959 122.316 119.792 479.677
985 0 69.0573 14.0318 969 122.631 119.827 480.657
986 0 73.0823 14.2853 1044 121.398 119.982 477.769
987 0 76.1331 15.7487 1199 117.377 119.866 477.543
988 0 78.057 15.335 1197 119.662 119.874 475.98
989 0 80.0735 14.5241 1163 121.637 120.022 475.5
990 0 81.0859 14.8731 1206 122.215 120.055 474.662
991 0 84.0705 13.4768 1133 125.776 120.343 474.169
992 0 88.1669 15.879 1400 120.23 120.881 469.664
993 1 45.1264 11.7448 530 127.662 121.715 491.704
994 0 47.1682 13.9501 658 118.968 122.018 487.743
995 0 47.0418 13.7962 649 121.427 122.079 486.636
996 0 48.0255 12.8057 615 123.611 121.867 487.959
997 0 51.0332 13.5402 691 122.069 122.172 486.482
998 0 54.0386 13.7494 743 124.277 121.997 486.704
999 0 55.0744 13.4727 742 126.152 121.547 486.127
1000 0 58.0455 13.6962 795 124.654 121.878 485.356
1001 0 60.0339 15.0748 905 120.887 121.59 483.61
1002 0 60.0854 14.6125 878 124.125 121.09 481.834
1003 0 62.0478 14.6822 911 124.324 121.063 481.839
1004 0 64.1225 14.675 941 124.366 120.99 480.97
1005 0 67.0739 14.6704 984 124.272 121.525 479.891
1006 0 71.2265 14.9523 1065 122.295 121.572 479.936
1007 0 72.1109 14.6718 1058 124.511 121.304 478.431
1008 0 75.2726 15.4904 1166 122.403 120.943 476.208
1009 0 75.26 14.8153 1115 126.551 120.791 474.186
1010 0 79.2498 14.877 1179 124.776 121.299 473.409
1011 0 80.1254 13.9656 1119 127.648 121.067 474.144
1012 0 83.2022 14.3866 1197 126.801 120.674 471.779
1013 0 83.1131 12.7417 1059 126.631 120.788 471.802
1014 1 46.0787 12.1097 558 125.22 120.69 490.292
1015 0 45.0436 11.7886 531 127.887 120.885 489.19
1016 0 49.0783 13.6313 669 121.771 120.619 487.997
1017 0 49.0508 12.6603 621 126.742 120.456 487.95
1018 0 53.0266 13.8232 733 122.183 121.13 487.12
1019 0 53.0512 13.5906 721 122.922 121.112 486.323
1020 0 55.0187 14.904 820 120.889 120.811 484.53
1021 0 58.1336 14.0882 819 121.492 120.786 484.258
1022 0 57.1013 12.8193 732 126.18 120.452 484.581
1023 0 60.0699 14.2667 857 121.814 120.209 482.916
1024 0 59.1146 14.2604 843 125.321 120.603 482.76
1025 0 64.094 14.5255 931 121.926 120.944 482.325
1026 0 66.0826 14.3911 951 123.386 120.678 480.283
1027 0 65.093 14.4255 939 126.998 120.747 478.476
1028 0 69.0514 15.1047 1043 124.578 120.509 478.564
1029 0 71.1397 14.3661 1022 127.495 120.518 478.486
1030 0 74.1466 14.849 1101 125.669 120.706 477.521
1031 0 76.1051 13.6259 1037 131.454 120.727 474.941
1032 0 79.1559 14.4272 1142 130.06 120.996 474.952
1033 0 81.0557 14.4345 1170 131.082 121.028 472.932
1034 0 85.1205 14.5323 1237 131.831 120.948 470.252
1035 0 89.0781 14.9419 1331 136.262 120.557 465.092
1036 1 48.0362 13.0943 629 135.913 120.38 485.169
1037 0 51.0995 12.0745 617 136.789 120.699 484.652
1038 0 51.0507 13.3984 684 137.026 120.52 483.241
1039 0 53.0825 14.5622 773 134.339 120.741 486.6
1040 0 56.0867 14.8698 834 132.9 120.876 487.609
1041 0 56.0732 14.0531 788 138.06 120.689 485.237
1042 0 58.0699 13.897 807 138.28 121.255 484.906
1043 0 59.1455 13.5598 802 140.844 121.172 484.317
1044 0 63.1652 14.5175 917 138.573 121.134 483.426
1045 0 64.0836 14.9648 959 138.008 120.657 482.594
1046 0 65.0904 14.5336 946 140.689 121.632 481.985
1047 0 67.028 14.203 952 143.442 120.593 479.879
1048 0 72.047 15.2401 1098 138.178 120.153 479.909
1049 0 72.0216 14.1624 1020 143.379 119.955 478.615
1050 0 75.0532 15.2958 1148 138.966 119.709 475.192
1051 0 77.1136 13.9923 1079 141.75 120.109 474.649
1052 0 81.057 15.2362 1235 136.037 119.956 472.849
1053 0 84.1287 15.0959 1270 135.617 120.217 471.65
1054 0 86.0705 14.1512 1218 138.916 120.625 466.057
1055 0 90.0919 15.351 1383 134.817 120.638 465.411
1056 0 90.1018 13.7289 1237 140.586 120.435 464.238
1057 1 49.0258 11.3206 555 136.378 120.849 486.151
1058 0 52.126 12.2588 639 133.538 120.501 484.327
1059 0 52.0238 12.9748 675 130.264 119.434 486.8
1060 0 55.0759 13.9262 767 129.266 119.639 485.299
1061 0 57.0744 14.2095 811 129.216 119.247 483.889
1062 0 57.0766 13.368 763 133.283 119.672 483.599
1063 0 60.0257 13.0277 782 135.004 119.294 482.766
1064 0 63.0473 14.5446 917 129.445 119.743 481.369
1065 0 63.0458 13.3871 844 136.615 119.184 481.78
1066 0 68.1122 15.4011 1049 130.33 119.301 480.129
1067 0 68.0404 14.3444 976 133.092 120.003 479.854
1068 0 72.1054 15.2138 1097 129.91 119.866 478.824
1069 0 73.0685 13.7405 1004 135.788 120.166 475.568
1070 0 76.1506 14.0248 1068 133.731 119.777 475.444
1071 0 78.1704 13.8032 1079 134.427 119.414 475.246
1072 0 81.1239 14.2252 1154 133.252 119.795 474.057
1073 0 83.0567 14.9898 1245 133.374 120.191 472.558
1074 0 87.0968 14.9144 1299 133.768 120.393 471.782
1075 0 90.1992 15.0112 1354 133.7 120.485 470.075
1076 0 92.1248 14.3392 1321 135.64 120.263 469.481
1077 0 95.0837 15.134 1439 133.663 120.842 467.11
1078 0 99.1471 14.544 1442 135.007 120.718 465.693
1079 0 104.081 14.4695 1506 142.347 120.693 462.999
1080 1 54.1113 14.1191 764 136.418 120.437 483.097
1081 0 56.0578 12.7725 716 136.919 119.789 486.986
1082 0 58.0791 14.4114 837 134.718 120.759 484.431
1083 0 59.0406 13.5331 799 137.896 120.834 483.728
1084 0 62.1277 14.6151 908 133.164 120.941 483.283
1085 0 64.0843 13.2638 850 136.704 120.171 480.662
1086 0 68.2483 13.9784 954 132.876 120.102 480.117
1087 0 69.1459 14.332 991 133.407 120.032 477.773
1088 0 73.0501 13.744 1004 132.05 120.286 476.658
1089 0 74.0608 13.84 1025 131.525 120.228 476.595
1090 0 77.0638 14.5075 1118 128.546 119.386 473.996
1091 0 80.1334 13.7521 1102 131.03 119.61 470.544
1092 0 83.1806 14.2341 1184 129.338 120.303 468.904
1093 0 85.1739 13.9832 1191 129.131 120.429 466.92
1094 0 87.1552 14.6176 1274 125.485 120.012 467.04
1095 1 46.1138 14.1173 651 122.065 119.128 485.201
1096 0 48.0807 14.9748 720 118.868 118.957 485.876
1097 0 48.0935 12.6836 610 124.174 119.993 486.695
1098 0 48.0289 13.2212 635 124.167 119.718 482.918
1099 0 52.0508 13.9095 724 119.985 119.798 483.062
1100 0 52.1553 13.6324 711 121.155 119.702 482.461
1101 0 55.1034 14.3185 789 118.252 120.432 479.858
1102 0 58.0703 13.277 771 120.671 120.323 481.379
1103 0 58.0749 14.0336 815 120.067 120.589 480.471
1104 0 61.0975 13.5358 827 121.439 120.484 478.163
1105 0 62.1196 12.6691 787 123.511 120.543 476.421
1106 0 67.1031 14.515 974 117.446 120.178 476.392
1107 0 65.1335 13.4954 879 122.84 120.185 475.68
1108 0 69.141 14.145 978 121.161 120.495 473.593
1109 0 73.1906 14.1821 1038 120.086 120.587 474.099
1110 0 75.2154 13.7605 1035 122.32 120.364 470.737
1111 0 77.1524 13.4928 1041 122.996 120.671 468.402
1112 0 80.11 14.2429 1141 120.759 120.576 469.347
1113 0 84.2376 13.5688 1143 122.003 120.063 465.584
1114 1 39.1023 11.4315 447 135.477 121.454 486.953
1115 0 40.2768 12.8362 517 131.913 120.965 486.389
1116 0 43.1296 12.5436 541 131.614 120.863 486.998
1117 0 44.2595 13.2853 588 129.876 120.49 485.842
1118 0 47.163 14.1212 666 126.617 120.892 483.911
1119 0 46.1873 13.272 613 131.759 120.907 483.6
1120 0 49.2337 13.7101 675 129.39 120.892 482.443
1121 0 49.2139 13.8579 682 129.56 120.604 482.566
1122 0 51.1364 12.9653 663 132.516 120.427 481.371
1123 0 53.1255 14.6069 776 126.722 120.936 480.6
1124 0 56.2233 14.727 828 125.658 120.848 478.958
1125 0 56.0667 13.7515 771 129.778 120.743 478.588
1126 0 57.1566 13.3493 763 130.544 120.688 478.381
1127 0 59.2337 13.8603 821 129.38 121.239 477.024
1128 0 62.2104 12.8274 798 131.615 120.887 477.045
1129 0 66.3502 14.3029 949 126.064 120.644 476.18
1130 0 66.2147 14.1207 935 128.479 120.42 474.694
1131 0 70.2932 13.5148 950 128.624 120.866 474.704
1132 0 73.126 15.3844 1125 123.603 120.564 472.98
1133 0 74.2119 13.8657 1029 128.834 120.756 472.568
1134 0 77.3201 14.0584 1087 128.897 120.39 469.961
1135 0 80.3073 13.0748 1050 130.721 120.673 471.484
1136 0 85.1192 15.0965 1285 123.777 120.851 467.672
1137 0 84.1738 14.173 1193 129.368 120.525 464.499
1138 0 91.2281 14.535 1326 126.548 120.59 462.478
1139 0 93.3329 14.6679 1369 126.881 120.565 461.917
1140 0 96.1817 14.9093 1434 127.845 120.444 462.582
1141 1 48.1766 11.5824 558 137.16 120.828 483.412
1142 0 50.116 12.3713 620 134.552 121.071 481.537
1143 0 53.0809 13.9787 742 128.403 121.147 480.651
1144 0 55.1108 12.2843 677 133.08 120.996 481.638
1145 0 57.2095 13.0748 748 129.892 120.699 480.584
1146 0 58.3517 13.5215 789 130.583 120.635 478.041
1147 0 60.1613 13.1147 789 131.354 119.995 477.036
1148 0 62.1887 13.9414 867 127.495 120.157 477.384
1149 0 65.3475 13.2063 863 130.071 119.307 474.593
1150 0 67.2557 13.7237 923 129.026 119.27 474.203
1151 0 69.2466 12.6216 874 130.918 118.854 473.299
1152 0 69.3259 12.9389 897 131.541 119.138 472.593
1153 0 71.2255 12.4394 886 132.508 119.415 467.832
1154 0 78.2496 13.4058 1049 127.438 119.506 469.592
1155 0 80.4018 13.6315 1096 126.091 119.627 468.308
1156 0 82.1914 13.1766 1083 127.305 119.186 466.138
1157 0 85.2179 14.2928 1218 123.456 119.185 466.688
1158 0 87.2312 12.5529 1095 129.541 119.346 463.267
1159 0 91.2662 13.225 1207 128.571 119.204 461.359
1160 0 95.5485 13.3022 1271 129.734 118.778 462.176
1161 0 98.1629 13.7934 1354 130.14 118.93 462.583
1162 1 54.216 10.8455 588 120.447 118.126 485.342
1163 0 55.1641 11.4386 631 119.612 118.735 484.287
1164 0 58.2007 10.8246 630 121.146 118.935 483.333
1165 0 60.0626 10.9219 656 121.613 120.611 483.146
1166 0 63.1284 11.5796 731 121.189 120.854 481.547
1167 0 67.0684 11.5703 776 119.724 120.649 480.49
1168 0 66.0863 11.1067 734 123.914 121.029 477.925
1169 0 69.0884 10.0451 694 125.811 120.872 478.329
1170 0 71.1271 11.3881 810 124.065 120.951 475.475
1171 0 75.0932 11.3592 853 124.048 119.796 473.784
1172 0 76.1575 11.5681 881 123.561 120.243 472.25
1173 0 80.0453 11.1187 890 131.981 118.938 470.883
1174 0 83.0749 11.9531 993 127.705 119.242 472.859
1175 0 85.0818 10.3195 878 132.038 118.925 470.262
1176 0 87.0785 10.1518 884 130.529 118.941 472.045
1177 1 45.0243 8.70641 392 120.732 119.684 489.015
1178 0 49.0279 10.7898 529 114.463 120.435 488.533
1179 0 51.0836 10.2773 525 128.634 118.453 485.465
1180 0 52.127 9.84135 513 129.355 118.277 486.298
1181 0 53.0752 9.15682 486 131.393 118.716 485.94
1182 0 54.0724 9.65371 522 132.042 118.807 483.402
1183 0 55.089 8.8584 488 133.918 118.957 483.697
1184 0 56.0965 11.0167 618 129.374 118.982 479.142
1185 0 60.0737 10.6036 637 129.441 118.733 482.932
1186 0 61.0676 9.56317 584 131.729 119.216 483.012
1187 0 64.1185 11.7127 751 126.762 119.273 479.711
1188 0 65.1513 10.2531 668 131.693 119.244 477.74
1189 0 66.1416 9.63085 637 132.334 119.289 478.157
1190 0 68.1176 10.291 701 130.939 120.128 477.618
1191 1 135.446 9.44288 1279 138.559 119.882 445.84
1192 0 141.439 10.4992 1485 135.754 119.689 441.104
1193 0 147.347 11.7342 1729 132.031 119.962 438.948
1194 0 155.498 12.161 1891 129.549 119.288 435.52
1195 1 116.321 10.5742 1230 128.001 120.285 457.285
1196 1 41.0604 10.5211 432 121.97 121.694 491.025
1197 0 43.0262 10.4587 450 122.696 121.353 490.362
1198 0 46.0529 10.1839 469 122.644 121.561 488.482
1199 0 43.0287 9.575 412 124.328 120.794 490.502
1200 0 43.0601 10.0789 434 124.514 120.7 490.431
1201 0 45.0175 9.92947 447 125.096 120.501 490.009
1202 0 46.0876 9.65552 445 126.701 120.647 488.773
1203 0 48.0592 10.279 494 125.358 120.401 486.591
1204 0 52.0885 10.9237 569 122.281 119.814 487.529
1205 0 50.0321 9.01422 451 128.936 119.614 486.113
1206 0 52.0621 11.3518 591 124.333 120.078 485.629
1207 0 53.1255 9.50579 505 129.166 119.802 486.39
1208 0 55.0536 10.2264 563 128.757 119.796 483.934
1209 0 55.0981 10.4904 578 129.218 120.019 481.272
1210 0 57.0457 10.1497 579 128.617 119.891 483.278
1211 0 58.0732 10.8139 628 128.559 120.196 480.107
1212 0 62.0259 10.8987 676 127.75 119.817 479.985
1213 1 132.273 11.892 1573 136.65 119.823 444.419
1214 0 135.401 10.6941 1448 139.535 120.16 443.868
1215 0 135.309 10.6054 1435 140.542 120.512 442.061
1216 0 134.351 9.96642 1339 139.784 120.262 443.607
1217 0 137.217 9.88946 1357 134.234 121.169 451.478
1218 1 76.0702 11.5551 879 124.719 121.265 477.022
1219 0 78.1733 13.0479 1020 121.447 121.158 474.249
1220 0 78.1705 13.138 1027 147.658 122.165 474.325
1221 0 84.0406 12.7795 1074 122.441 120.832 471.472
1222 0 84.048 11.5172 968 126.846 119.898 471.112
1223 0 89.0653 12.0586 1074 125.852 120.057 468.862
1224 1 50.0155 10.2168 511 126.951 120.413 488.082
1225 0 51.0793 12.2946 628 125.699 120.489 486.484
1226 0 53.0344 12.3693 656 125.206 120.625 486.168
1227 0 55.0922 12.2522 675 125.884 121.041 486.64
1228 0 56.0895 12.2304 686 127.13 121.098 485.627
1229 0 58.037 11.7167 680 130.024 120.922 484.91
1230 0 59.0523 11.6507 688 132.042 121.439 482.667
1231 0 61.1384 12.7743 781 127.337 121.041 481.83
1232 0 62.0781 12.0493 748 129.043 120.759 483.302
1233 0 63.088 12.6648 799 130.375 120.816 481.345
1234 0 66.0519 12.0965 799 131.31 120.727 480.708
1235 0 67.2074 13.4807 906 128.706 119.387 479.41
1236 0 67.1193 13.2898 892 129.118 120.04 478.882
1237 0 70.1068 12.6236 885 130.654 120.032 478.602
1238 0 73.1164 13.2528 969 124.05 120.406 479.946
1239 0 75.1259 13.7103 1030 124.971 120.711 476.533
1240 1 41.03 10.8945 447 131.069 120.698 492.944
1241 0 41.2297 11.06 456 129.382 120.498 491.504
1242 0 38.3461 10.2748 394 124.546 119.992 489.302
1243 0 42.2444 10.534 445 127.216 120.074 488.589
1244 0 42.3151 11.8398 501 124.922 119.868 486.273
1245 0 46.1605 12.2182 564 131.42 118.566 491.066
1246 0 50.1897 12.6121 633 129.276 118.912 490.098
1247 0 49.2695 12.9695 639 131.049 118.831 488.726
1248 0 49.3857 12.372 611 134.242 119.66 486.758
1249 0 53.4539 12.1039 647 133.094 120.063 486.416
1250 0 55.2763 12.338 682 133.114 119.789 485.399
1251 0 56.3358 12.0882 681 133.99 119.668 485.816
1252 0 57.2791 12.5176 717 135.033 119.296 484.375
1253 0 60.2314 13.3319 803 130.044 119.55 485.182
1254 0 61.2081 12.4003 759 133.764 118.912 484.436
1255 0 64.1947 13.8018 886 128.834 118.956 482.426
1256 0 63.1874 13.3413 843 131.569 119.95 483.034
1257 0 64.19 12.1358 779 134.103 119.488 482.78
1258 0 67.1902 12.8739 865 131.305 119.455 480.923
1259 0 71.1888 13.6819 974 126.179 119.562 481.476
1260 0 72.1809 12.5102 903 130.558 119.927 479.645
1261 0 74.1635 12.85 953 128.802 119.443 477.641
1262 0 76.1851 12.2465 933 129.503 119.133 476.202
1263 0 80.2333 12.7378 1022 126.103 118.919 474.003
1264 0 80.1886 11.6351 933 128.008 119.517 474.39
1265 0 84.1521 12.2635 1032 124.611 119.483 472.592
1266 1 45.0308 10.5706 476 119.765 120.084 492.861
1267 0 47.0217 11.4203 537 117.683 120.209 491.728
1268 0 48.105 12.1609 585 114.646 118.81 490.809
1269 0 48.0416 12.5932 605 113.721 119.44 488.496
1270 0 50.0639 12.8835 645 111.873 118.707 489.54
1271 0 51.0365 13.0299 665 113.038 119.096 488.135
1272 0 53.0848 13.4502 714 111.092 119.756 487.735
1273 0 54.0226 12.7724 690 112.846 118.97 486.38
1274 0 54.1003 12.3105 666 115.541 119.26 484.754
1275 0 57.1143 11.8009 674 115.51 119.38 485.537
1276 0 59.1295 12.7686 755 113.426 119.185 484.253
1277 0 60.2225 12.0553 726 124.964 120.189 482.537
1278 0 63.2008 12.2941 777 122.39 120.927 482.876
1279 0 66.1949 12.8409 850 121.22 120.415 480.576
1280 0 68.1843 12.9209 881 121.597 120.547 479.137
1281 0 69.1872 12.43 860 123.509 120.814 478.509
1282 0 72.1838 13.7427 992 120.353 121.12 475.994
1283 0 75.1544 12.8935 969 120.861 120.359 475.841
1284 0 78.1148 12.8913 1007 122.32 120.861 475.43
1285 0 80.1553 12.6879 1017 121.782 120.714 475.021
1286 0 82.1683 12.876 1058 122.335 120.156 470.93
1287 0 85.2192 13.4594 1147 121.177 120.607 470.499
1288 0 88.243 11.8083 1042 124.159 120.005 471.884
1289 1 46.1121 11.2769 520 118.185 120.887 491.013
1290 0 46.1549 11.0064 508 121.138 120.551 491.49
1291 0 47.1184 13.3706 630 111.735 120.07 489.383
1292 0 50.1923 11.3962 572 122.832 120.416 487.958
1293 0 52.1457 13.0787 682 118.113 120.277 487.619
1294 0 52.0381 12.9136 672 118.743 120.522 486.344
1295 0 52.0964 11.4787 598 122.732 120.528 485.186
1296 0 56.1761 13.2797 746 115.312 120.513 483.21
1297 0 56.1216 11.5998 651 120.645 120.401 483.501
1298 0 57.2623 12.0847 692 119.419 121.092 483.374
1299 0 60.1569 12.8331 772 116.311 120.806 482.731
1300 0 61.2495 11.3797 697 118.697 121.307 480.851
1301 0 63.2777 11.3152 716 119.982 120.394 477.42
1302 0 66.5485 12.1115 806 117.653 121.068 475.723
1303 0 66.3878 12.3667 821 118.33 121.236 474.28
1304 0 70.2992 11.8209 831 119.011 120.664 474.124
1305 0 70.3845 12.6164 888 118.516 120.173 472.481
1306 0 74.302 11.4129 848 120.758 120.401 471.87
1307 0 77.3191 13.2179 1022 117.235 120.333 470.371
1308 0 79.3113 13.012 1032 117.732 120.304 469.419
1309 0 81.2556 13.3406 1084 117.686 120.251 469.012
1310 0 84.2926 13.0379 1099 117.611 120.958 470.512
1311 0 87.3034 12.6226 1102 120.279 120.81 466.337
1312 0 92.4647 14.1459 1308 115.702 120.92 465.001
1313 0 92.2693 12.2793 1133 120.685 120.753 464.234
1314 1 50.1469 11.925 598 113.341 120.935 486.858
1315 0 53.1945 11.8809 632 114.021 120.954 485.533
1316 0 55.2118 12.8596 710 112.579 120.9 485.875
1317 0 55.1781 12.813 707 115.132 120.545 482.41
1318 0 58.1081 13.3028 773 114.486 120.527 482.049
1319 0 61.1084 12.4533 761 117.396 120.399 481.901
1320 0 62.135 12.8269 797 118.317 120.28 481.77
1321 0 64.0187 12.6838 812 118.302 120.249 482.552
1322 0 65.1667 12.9054 841 121.498 120.956 477.347
1323 0 70.1814 13.7786 967 115.691 120.475 478.605
1324 0 72.1548 13.3186 961 117.598 120.878 477.424
1325 0 71.1621 12.4786 888 122.245 121.579 475.604
1326 0 74.1957 13.06 969 120.544 121.56 476.057
1327 0 77.1361 13.5345 1044 120.263 120.493 473.906
1328 0 79.1258 13.7882 1091 121.072 120.64 472.074
1329 0 83.1435 12.6528 1052 123.015 120.054 472.752
1330 0 85.1072 13.7121 1167 120.434 120.302 472.144
1331 0 87.1242 13.4406 1171 123.073 119.823 470.682
1332 0 90.231 12.8448 1159 125.069 119.809 468.474
1333 0 92.5598 13.1266 1215 124.402 119.282 467.677
1334 0 94.4845 13.4202 1268 125.606 119.252 463.229
1335 0 98.3835 13.5592 1334 125.762 119.69 460.691
1336 1 55.4285 12.1598 674 124.693 119.013 482.083
1337 0 57.2526 11.7025 670 124.412 119.273 482.149
1338 0 56.0547 11.5245 646 117.057 118.926 480.084
1339 0 59.0736 10.8001 638 117.103 119.197 480
1340 0 59.0815 10.7309 634 118.732 119.44 478.066
1341 0 62.0868 10.7913 670 117.025 119.639 477.91
1342 0 63.0707 11.1462 703 116.07 120.024 477.542
1343 0 65.1496 10.7138 698 117.556 119.723 474.418
1344 0 70.1025 12.0538 845 114.108 119.618 473.443
1345 0 71.0804 11.4096 811 114.054 119.748 474.728
1346 0 71.1119 10.2093 726 118.194 119.616 471.591
1347 0 77.0748 11.1191 857 115.541 119.788 469.506
1348 0 79.1562 11.8247 936 113.935 119.849 468.34
1349 0 82.0826 10.3432 849 115.85 119.499 468.291
1350 0 87.1114 13.4426 1171 110.26 118.848 463.254
1351 0 89.162 11.8324 1055 113.378 118.858 464.409
1352 0 91.1526 11.2778 1028 114.223 120.199 463.966
1353 1 51.0565 11.262 575 112.424 120.843 486.383
1354 0 54.0934 11.9423 646 111.272 121.604 486.573
1355 0 56.0316 12.7428 714 110.486 121.745 484.346
1356 0 58.1121 12.1661 707 111.095 121.235 483.102
1357 0 59.0393 12.4493 735 109.98 121.199 483.303
1358 0 61.0439 12.2862 750 109.895 121.387 483.524
1359 0 65.0825 12.6148 821 108.412 121.764 480.141
1360 0 67.0597 13.1972 885 106.993 121.364 480.053
1361 0 66.0795 11.4105 754 112.224 121.044 477.005
1362 0 69.0244 12.0827 834 109.878 121.017 479.008
1363 0 73.0929 12.0531 881 109.469 121.805 476.262
1364 0 74.0286 12.3196 912 109.763 121.839 473.636
1365 0 77.1376 11.9397 921 110.287 121.381 472.277
1366 0 80.1652 11.9254 956 110.145 120.759 472.536
1367 0 84.2065 12.2437 1031 108.829 120.515 472.487
1368 0 86.2167 11.8191 1019 110.266 120.015 469.325
1369 0 91.2245 12.2774 1120 110.166 120.256 469.9
1370 0 92.2728 12.0946 1116 111.953 119.435 466.503
1371 1 49.0361 9.68674 475 112.448 120.857 488.648
1372 0 50.0316 10.9731 549 111.925 120.299 487.75
1373 0 51.1587 10.0863 516 105.151 120.298 483.981
1374 0 53.1173 9.99673 531 111.258 119.561 484.431
1375 0 56.1038 11.1757 627 112.404 120.376 483.856
1376 0 60.0437 13.4569 808 106.203 120.647 483.45
1377 0 59.1455 11.6323 688 111.379 119.827 484.041
1378 0 61.1768 12.0307 736 110.523 120.113 482.796
1379 0 61.1836 12.0457 737 135.52 120.103 482.837
1380 0 64.1681 12.14 779 111.58 120.551 481.739
1381 0 67.0587 12.0641 809 110.187 120.106 480.273
1382 0 69.1924 12.1545 841 109.754 120.213 479.26
1383 0 70.1074 11.4253 801 112.122 119.576 478.313
1384 0 73.2072 13.496 988 107.336 119.765 475.134
1385 0 74.1193 12.4259 921 110.767 120.172 474.24
1386 0 76.1926 11.9303 909 111.318 119.938 475.146
1387 0 80.2593 12.3226 989 111.156 119.847 472.462
1388 0 83.155 12.8074 1065 109.421 120.063 471.002
1389 0 87.1551 13.3899 1167 107.087 118.793 469.454
1390 0 91.1152 13.6531 1244 106.672 119.118 467.733
1391 0 95.1098 13.9102 1323 105.74 118.692 467.744
1392 0 95.1064 13.0696 1243 108.989 118.442 461.891
1393 0 98.1059 12.5171 1228 110.736 118.315 460.705
1394 1 52.1343 11.3745 593 107.059 118.641 488.848
1395 0 54.132 13.4301 727 102.391 120.139 485.785
1396 0 56.22 12.4511 700 103.84 119.939 482.807
1397 0 57.2589 12.4522 713 106.498 119.989 484.135
1398 0 59.2215 12.4617 738 106.585 119.633 482.446
1399 0 61.3531 12.5829 772 105.846 120.26 482.398
1400 0 61.227 12.6741 776 106.443 119.826 482.131
1401 0 66.2245 12.82 849 104.078 119.432 482.399
1402 0 68.2424 13.7891 941 102.627 119.645 479.881
1403 0 69.2708 12.4439 862 106.017 119.615 479.03
1404 0 70.28 11.8526 833 108.819 120.102 477.574
1405 0 74.4092 13.157 979 105.84 119.534 474.343
1406 0 77.2946 13.1833 1019 106.691 119.44 473.418
1407 0 79.2216 12.6859 1005 108.595 119.504 473.385
1408 0 83.3034 12.5925 1049 108.064 119.366 472.928
1409 0 82.2823 12.2383 1007 110.469 119.863 471.687
1410 0 86.2663 13.0178 1123 109.679 119.864 467.752
1411 0 90.448 12.7919 1157 110.041 119.497 468.655
1412 0 91.449 12.127 1109 116.264 119.762 467.434
1413 1 48.0892 11.3331 545 113.255 120.446 487.622
1414 0 47.1092 11.5901 546 106.456 120.09 482.954
1415 0 46.2142 10.2566 474 111.901 119.671 482.956
1416 0 51.0405 12.5587 641 111.729 120.537 486.399
1417 0 51.1392 11.8305 605 115.617 120.699 485.484
1418 0 55.0594 11.9689 659 115.665 120.263 482.612
1419 0 56.0581 12.9509 726 114.132 121.129 482.346
1420 0 58.1138 12.8025 744 115.113 120.586 482.058
1421 0 59.0383 10.9082 644 120.222 120.896 480.713
1422 0 63.0439 12.8006 807 114.487 120.797 480.05
1423 0 63.0797 13.0628 824 115.167 119.943 480.018
1424 0 64.0434 12.0699 773 117.062 120.59 478.458
1425 0 66.1631 12.2425 810 117.712 121.585 476.242
1426 0 69.0642 11.9309 824 116.825 121.863 478.409
1427 0 73.1031 12.8859 942 116.036 122.273 472.878
1428 0 73.0693 12.495 913 118.186 120.898 472.328
1429 0 77.0882 12.8814 993 116.08 121.131 473.094
1430 1 39.0261 10.6083 414 115.643 121.879 489.761
1431 0 41.0473 11.4258 469 112.429 121.819 490.661
1432 0 42.0583 10.9848 462 111.448 121.974 490.199
1433 0 44.2378 13.3822 592 109.083 119.471 485.762
1434 0 41.0742 12.2218 502 114.384 121.177 488.6
1435 0 42.085 12.3797 521 112.701 120.631 488.223
1436 0 46.1217 12.879 594 109.165 119.963 487.249
1437 0 47.191 12.0998 571 112.173 120.012 486.347
1438 0 50.1775 13.1533 660 107.647 120.265 485.253
1439 0 49.2466 12.6506 623 111.271 120.735 483.984
1440 0 51.1727 12.4676 638 112.712 120.582 482.854
1441 0 53.1164 12.8962 685 110.502 120.372 484.431
1442 0 54.1485 13.2783 719 110.634 120.378 483.401
1443 0 56.107 13.4743 756 110.676 120.403 482.378
1444 0 55.0626 13.6209 750 111.941 120.437 481.871
1445 0 57.0692 12.8616 734 114.804 120.545 482.568
1446 0 59.0398 13.5332 799 113.359 120.672 481.263
1447 0 62.057 14.5511 903 110.622 120.172 479.843
1448 0 63.0588 14.7006 927 111.508 119.898 477.748
1449 0 63.1767 12.9953 821 116.987 120.149 480.425
1450 0 67.1015 13.3976 899 116.047 120.467 479.913
1451 0 68.076 12.8533 875 118.138 120.053 478.354
1452 0 70.0776 13.6278 955 116.387 119.549 475.218
1453 0 73.0526 13.415 980 115.527 119.111 476.804
1454 0 76.1352 14.6713 1117 113.038 118.875 473.896
1455 0 77.0717 14.5579 1122 114.807 119.426 472.496
1456 0 78.2627 13.9147 1089 117.28 119.125 472.408
1457 0 81.1923 14.2009 1153 116.206 119.27 470.128
1458 0 82.1594 13.3034 1093 119.441 118.976 470.284
1459 0 85.162 13.5741 1156 120.613 118.913 466.737
1460 0 89.251 13.0307 1163 123.448 119.696 465.97
1461 0 92.2052 13.6218 1256 121.595 119.019 465.224
1462 1 46.0589 11.8544 546 119.495 118.597 488.692
1463 0 49.1708 11.7956 580 119.364 118.503 487.717
1464 0 51.1894 13.4989 691 115.906 119.146 485.368
1465 0 52.1131 12.4537 649 115.991 119.901 485.692
1466 0 54.127 12.6 682 114.718 119.072 485.223
1467 0 55.0653 12.9483 713 115.02 119.534 482.767
1468 0 58.11 12.5108 727 114.955 119.461 483.16
1469 0 60.1358 12.9374 778 114.598 119.977 482.424
1470 0 60.0803 12.45 748 116.829 119.312 482.898
1471 0 66.1091 13.387 885 112.955 118.611 481.215
1472 0 67.0552 13.4069 899 115.585 118.151 479.126
1473 0 67.1156 12.1879 818 118.587 118.478 479.413
1474 0 69.0481 12.513 864 119.791 118.326 477.573
1475 0 71.1355 13.1861 938 118.961 118.231 477.001
1476 0 73.0732 13.3975 979 119.565 118.695 474.526
1477 0 76.169 12.1309 924 122.297 119.012 474.877
1478 0 79.0933 13.6168 1077 117.103 118.993 471.816
1479 0 84.091 13.9848 1176 114.274 119.186 471.762
1480 0 85.1448 12.7665 1087 118.294 119.946 470.179
1481 0 88.1108 12.8361 1131 117.698 120.158 468.533
1482 0 91.2169 13.0787 1193 119.163 119.492 467.785
1483 0 95.107 13.6793 1301 118.26 119.138 466.115
1484 1 48.0822 11.3555 546 119.526 118.441 488.903
1485 0 51.0769 12.9804 663 116.163 118.935 486.471
1486 0 54.1091 12.1236 656 118.607 118.931 485.148
1487 0 56.1616 13.9597 784 116.894 118.312 484.754
1488 0 58.0678 13.5359 786 117.947 118.443 483.116
1489 0 60.1129 13.5079 812 118.368 118.494 483.195
1490 0 60.1262 14.5361 874 116.511 118.849 481.806
1491 0 63.1756 13.2646 838 117.749 118.445 482.556
1492 0 67.0687 14.3286 961 117.16 118.433 479.477
1493 0 68.1703 14.053 958 119.874 118.737 477.778
1494 0 73.1121 14.4162 1054 117.726 119.104 478.49
1495 0 74.0576 14.3537 1063 119.611 118.226 477.491
1496 0 76.0888 14.1939 1080 120.562 118.396 475.033
1497 0 80.0598 13.9521 1117 121.02 118.562 473.991
1498 0 80.0415 13.8928 1112 123.193 118.301 472.666
1499 0 83.0684 13.844 1150 122.7 118.264 470.75
1500 0 85.0681 14.459 1230 120.732 118.545 469.986
1501 0 89.1016 14.0289 1250 122.445 118.475 467.3
1502 0 92.1752 14.505 1337 121.628 118.236 466.233
1503 0 94.2417 12.8924 1215 122.383 118.487 465.047
1504 1 47.0378 11.5014 541 116.438 117.948 485.379
1505 0 51.1406 12.2994 629 114.356 119.668 486.151
1506 0 50.1664 11.422 573 121.216 120.326 486.73
1507 0 49.1183 11.5028 565 120.933 120.265 486.807
1508 0 50.1645 12.4789 626 120.415 119.923 485.149
1509 0 50.145 12.0052 602 124.159 119.739 485.015
1510 0 53.2319 11.4029 607 124.992 119.839 485.354
1511 0 53.1676 12.47 663 122.005 119.14 485.312
1512 0 55.1759 11.5268 636 123.55 118.744 483.138
1513 0 58.1696 11.8963 692 120.023 118.868 482.509
1514 0 59.1053 12.3508 730 117.249 119.158 482.579
1515 0 62.1495 11.5528 718 119.315 119.195 481.169
1516 0 63.1477 12.3678 781 118.142 119.426 479.425
1517 0 65.0953 11.8749 773 119.695 118.836 477.996
1518 0 69.1755 13.7187 949 116.927 119.477 477.405
1519 0 72.1136 13.4233 968 119.224 119.687 476.514
1520 0 74.1513 13.5534 1005 125.21 119.927 478.172
1521 0 75.1089 14.2992 1074 126.161 120.028 476.605
1522 0 76.0615 13.6337 1037 131.141 119.88 474.176
1523 0 78.2378 13.2545 1037 133.734 120.447 474.088
1524 0 81.2734 14.1006 1146 132.465 119.627 473.6
1525 1 44.0464 11.7603 518 134.019 120.085 493.618
1526 0 44.0383 11.3992 502 137.327 119.952 493.584
1527 0 45.1291 12.6083 569 134.359 119.135 491.016
1528 0 46.0673 12.1561 560 127.75 118.246 493.707
1529 0 46.0643 12.6345 582 130.215 118.756 491.445
1530 0 47.112 13.3724 630 129.233 119.227 492.003
1531 0 50.0959 13.3743 670 129.41 118.658 490.758
1532 0 49.0604 12.6171 619 135.409 118.092 490.024
1533 0 53.0426 14.2527 756 129.021 118.325 489.603
1534 0 53.0411 13.1973 700 135.609 118.129 488.567
1535 0 56.0468 13.2568 743 134.813 118.555 488.834
1536 0 55.0552 12.8598 708 139.267 117.369 488.979
1537 0 59.1052 13.4675 796 146.54 117.996 486.502
1538 0 59.1157 12.1626 719 152.825 118.145 486.295
1539 0 62.1268 13.1022 814 149.58 118.034 484.619
1540 0 66.0585 13.9271 920 145.65 117.754 483.457
1541 0 66.0798 13.7107 906 147.043 117.449 482.854
1542 0 67.1579 13.1183 881 148.532 118.19 481.672
1543 0 71.0515 13.835 983 145.601 117.994 479.855
1544 0 74.0712 13.946 1033 146.232 116.894 479.503
1545 0 74.1445 12.7858 948 151.8 116.889 476.868
1546 0 78.041 13.967 1090 147.158 118.188 476.857
1547 0 81.2097 13.2989 1080 147.884 117.978 477.726
1548 1 43.0605 12.0296 518 143.002 117.427 496.268
1549 0 44.0175 11.8135 520 143.696 117.29 495.881
1550 0 47.0283 13.1198 617 138.331 116.021 492.64
1551 0 46.1106 12.2098 563 137.323 115.726 490.774
1552 0 44.0048 10.5443 464 144.966 116.06 490.321
1553 0 48.0779 13.1245 631 133.892 116.044 489.526
1554 0 52.0592 13.3502 695 132.186 115.745 488.659
1555 0 52.031 12.2235 636 137.291 115.12 487.88
1556 0 54.0256 11.9943 648 136.375 116.125 487.926
1557 0 55.057 12.0966 666 136.48 115.791 485.791
1558 0 58.0374 12.0612 700 136.519 115.179 485.973
1559 0 60.008 13.2982 798 132.659 115.112 485.193
1560 0 60.062 12.4704 749 137.656 115.706 483.184
1561 0 63.0953 12.9328 816 134.875 115.754 483.934
1562 0 66.0679 13.0018 859 135.544 115.834 482.66
1563 0 67.1112 13.3957 899 135.983 115.825 480.651
1564 0 71.0332 13.9231 989 133.988 115.759 479.692
1565 0 71.0697 13.3672 950 136.579 116.085 478.426
1566 0 74.0539 12.9095 956 137.434 116.122 477.756
1567 0 79.0863 13.618 1077 133.476 116.078 475.29
1568 0 80.0961 13.6461 1093 137.629 115.564 475.508
1569 1 42.0622 11.1264 468 140.812 117.491 495.462
1570 0 43.0157 12.6 542 137.376 117.317 494.131
1571 0 44.0942 12.4733 550 133.765 117.78 494.087
1572 0 47.1421 13.1942 622 129.907 116.995 494.497
1573 0 50.0759 13.799 691 124.635 118.113 492.572
1574 0 50.0387 12.4704 624 130.788 118.099 491.07
1575 0 52.0662 13.502 703 125.94 118.026 491.208
1576 0 53.1588 11.7384 624 132.04 117.891 490.994
1577 0 55.1894 11.7051 646 131.353 117.858 489.924
1578 0 58.0786 13.3612 776 125.897 118.406 487.143
1579 0 59.1455 13.4583 796 125.827 117.678 486.614
1580 0 62.1172 13.1687 818 125.48 117.353 485.504
1581 0 64.1405 12.9403 830 125.87 117.072 483.307
1582 0 67.0964 11.9679 803 126.484 117.259 481.863
1583 0 69.1179 12.9489 895 123.637 117.095 482.739
1584 0 72.1425 13.2654 957 121.25 117.673 482.46
1585 0 73.1685 12.8881 943 123.433 117.682 478.845
1586 0 75.1595 12.1342 912 125.209 116.882 479.598
1587 0 79.1158 12.9051 1021 123.481 116.61 477.091
1588 0 82.1192 13.2003 1084 122.979 116.713 476.792
1589 0 86.1569 13.2549 1142 123.015 118.225 472.59
1590 0 89.2215 14.3127 1277 120.093 117.604 470.868
1591 0 89.401 11.5547 1033 128.678 117.597 471.56
1592 1 46.1636 11.156 515 131.394 117.847 490.456
1593 0 50.0992 12.0162 602 124.547 117.317 491.191
1594 0 54.2003 12.2324 663 122.526 117.65 490.13
1595 0 53.1639 11.9442 635 125.849 117.784 488.772
1596 0 54.1635 12.093 655 125.776 117.887 488.073
1597 0 57.2132 11.5183 659 126.188 118.489 487.174
1598 0 58.2007 12.4741 726 123.8 118.601 485.894
1599 0 60.1556 13.4817 811 120.033 118.561 485.053
1600 0 63.136 12.5919 795 121.433 118.157 485.781
1601 0 65.1804 13.4856 879 119.114 118.253 483.238
1602 0 67.086 12.5958 845 121.357 118.233 482.001
1603 0 70.1229 13.0485 915 118.945 118.107 480.751
1604 0 70.1294 12.7621 895 121.105 118.304 479.312
1605 0 75.0627 13.0424 979 118.209 118.552 479.422
1606 0 75.1439 12.7622 959 120.184 118.262 477.226
1607 0 80.163 13.2355 1061 118.266 117.99 476.144
1608 0 82.1082 12.9098 1060 119.251 118.468 474.998
1609 0 86.1139 12.5299 1079 119.753 118.314 472.737
1610 0 89.1359 12.4417 1109 119.447 118.357 471.842
1611 0 94.1523 13.9986 1318 114.124 118.793 472
1612 1 50.06 12.0456 603 120.434 118.884 490.426
1613 0 52.0825 11.8466 617 121.736 118.663 488.624
1614 0 53.1714 11.7921 627 125.27 118.93 485.088
1615 0 54.0694 12.6134 682 129.477 118.957 487.384
1616 0 56.0852 12.5702 705 131.434 119.777 484.057
1617 0 59.1294 12.6502 748 130.614 119.29 482.079
1618 0 60.0588 12.2047 733 129.332 118.865 485.363
1619 0 62.0828 13.3853 831 126.795 119.083 481.58
1620 0 64.1749 13.1204 842 127.571 119.072 480.131
1621 0 68.1043 14.3897 980 122.678 118.342 477.531
1622 0 70.0735 13.7284 962 122.887 117.822 479.151
1623 0 69.0444 12.4558 860 126.786 118.742 478.39
1624 0 74.1607 13.0797 970 123.006 118.372 476.301
1625 0 77.1407 13.093 1010 121.815 118.686 473.904
1626 0 80.1782 12.9462 1038 122.306 118.758 471.436
1627 0 84.1792 12.5684 1058 121.986 118.787 471.712
1628 0 87.1075 13.3972 1167 109.927 118.995 468.388
1629 0 89.1502 11.89 1060 124.236 118.661 466.713
1630 1 46.0607 11.3763 524 117.563 118.773 490.227
1631 0 47.1244 10.4192 491 118.458 118.157 489.067
1632 0 49.2347 11.5975 571 114.629 117.42 486.093
1633 0 52.1738 12.1709 635 111.924 117.57 484.452
1634 0 52.1561 12.1942 636 112.772 117.973 486.885
1635 0 55.2072 11.5021 635 113.728 118.298 486.043
1636 0 56.2034 11.6363 654 113.861 118.08 483.248
1637 0 58.1756 13.0295 758 110.873 118.108 482.751
1638 0 58.2946 12.0251 701 113.552 117.434 484.198
1639 0 61.215 12.9217 791 111.614 117.474 482.161
1640 0 61.1376 12.5455 767 113.984 118.057 481.986
1641 0 65.1128 13.5764 884 111.569 117.939 479.998
1642 0 65.1756 13.2258 862 113.188 117.939 479.616
1643 0 67.0991 12.6827 851 116.096 118.061 476.884
1644 0 71.1592 13.1395 935 113.116 117.996 476.339
1645 0 75.1 13.8349 1039 110.861 117.777 475.144
1646 0 76.1692 12.6954 967 114.745 117.88 474.81
1647 0 77.1796 11.8684 916 119.619 117.5 472.216
1648 0 79.2543 12.1003 959 120.46 117.686 471.615
1649 0 84.1515 12.5132 1053 120.223 117.686 470.816
1650 0 87.1689 12.0685 1052 122.894 117.733 470.139
1651 0 89.2449 12.7514 1138 121.415 117.638 471.353
1652 0 93.1581 12.3768 1153 121.565 117.778 470.514
1653 1 48.0972 12.6826 610 115.748 117.908 490.205
1654 0 50.0256 11.8939 595 119.087 118.457 490.182
1655 0 54.0983 12.9949 703 123.879 118.425 486.257
1656 0 55.1694 14.0114 773 123.061 118.075 483.012
1657 0 54.2461 13.1069 711 126.025 118.311 484.024
1658 0 58.0791 13.5677 788 121.723 117.66 484.112
1659 0 60.1874 12.5441 755 124.24 117.897 484.476
1660 0 62.2543 13.236 824 121.99 117.834 482.911
1661 0 65.2984 13.0478 852 121.38 117.286 482.421
1662 0 66.2677 12.4495 825 124.585 117.453 480.566
1663 0 67.1404 13.5686 911 121.054 117.895 480.352
1664 0 72.2447 12.513 904 121.681 118.08 479.076
1665 0 73.1482 13.6846 1001 120.874 117.628 476.403
1666 0 72.3953 12.7218 921 126.022 117.469 475.435
1667 0 76.1887 12.5084 953 125.697 117.327 474.191
1668 0 80.2206 13.787 1106 121.641 117.527 471.697
1669 0 81.0981 12.8733 1044 125.697 118.234 470.675
1670 1 41.2956 10.6307 439 126.886 117.731 490.059
1671 0 43.1123 10.925 471 124.592 117.807 490.113
1672 0 46.0672 12.1127 558 120.962 117.403 489.584
1673 0 45.1875 11.8396 535 126.989 117.6 487.191
1674 0 48.233 12.3152 594 123.761 117.37 487.81
1675 0 50.2542 11.6806 587 126.196 117.533 486.496
1676 0 53.1695 12.9774 690 121.281 117.397 486.604
1677 0 53.1966 12.5008 665 123.672 117.334 485.293
1678 0 56.1545 13.1067 736 120.034 117.561 484.808
1679 0 58.2266 12.3139 717 121.54 117.003 482.901
1680 0 59.2182 12.8508 761 122.305 117.191 481.892
1681 0 61.2464 12.964 794 122.806 116.662 480.385
1682 0 62.2026 12.9737 807 124.434 117.353 478.789
1683 0 66.2693 14.2902 947 119.967 117.701 479.194
1684 0 67.2553 12.6979 854 125.307 117.37 478.374
1685 0 67.2081 12.2753 825 129.411 117.881 475.758
1686 0 74.2171 13.3797 993 124.004 117.156 475.308
1687 0 74.4176 12.6449 941 127.917 117.077 473.477
1688 0 78.2306 13.6647 1069 125.181 117.549 473.091
1689 0 81.3287 14.2262 1157 123.622 116.765 470.744
1690 0 82.461 12.4059 1023 129.054 117.299 469.965
1691 0 87.4411 14.1238 1235 116.27 117.262 470.194
1692 1 42.1886 10.5716 446 124.567 116.534 490.594
1693 0 45.0808 11.1799 504 121.968 116.595 490.234
1694 0 46.1413 11.9632 552 121.741 115.947 488.208
1695 0 48.0515 11.7166 563 121.215 115.822 488.934
1696 0 49.1159 13.1322 645 118.936 118.409 485.974
1697 0 53.1164 12.162 646 119.437 118.085 486.478
1698 0 54.0893 12.8306 694 117.937 118.697 486.592
1699 0 55.1057 12.0859 666 121.26 118.772 484.773
1700 0 57.1 13.0298 744 117.233 118.54 484.34
1701 0 59.1206 11.8064 698 121.517 118.719 485.13
1702 0 63.2002 14.5253 918 113.149 118.175 483.928
1703 0 65.0866 14.2118 925 114.307 117.703 482.786
1704 0 63.0608 11.8457 747 118.715 118.092 483.104
1705 0 64.0816 13.4048 859 116.248 117.637 480.608
1706 0 67.0434 11.1868 750 121.065 117.783 478.691
1707 0 68.1202 12.1403 827 119.123 117.418 480.353
1708 0 70.0719 11.5453 809 121.627 117.297 479.841
1709 0 73.0282 12.9128 943 117.543 118.259 479.14
1710 0 77.1963 13.5887 1049 116.778 117.548 477.039
1711 0 79.1045 12.6668 1002 119.98 117.099 476.17
1712 0 81.1597 13.8369 1123 119.122 117.419 472.658
1713 0 85.1592 14.2909 1217 117.51 117.631 469.838
1714 0 88.1454 13.8635 1222 119.085 117.764 470.241
1715 0 91.1445 14.3069 1304 116.567 117.508 470.225
1716 0 94.1463 13.8614 1305 119.507 117.148 467.985
1717 0 96.1951 13.9924 1346 119.738 117.489 465.941
1718 0 96.1841 12.6736 1219 124.842 117.358 465.629
1719 1 55.153 12.148 670 124.215 117.857 482.475
1720 0 54.1161 11.0873 600 126 117.085 478.925
1721 0 56.0796 12.2861 689 120.898 116.823 480.932
1722 0 58.0836 12.723 739 121.47 116.989 477.943
1723 0 59.2374 12.4246 736 121.988 116.999 478.514
1724 0 62.158 13.1278 816 119.721 116.955 476.815
1725 0 63.1754 12.3941 783 123.748 117.255 474.81
1726 0 67.1745 12.4154 834 122.795 117.448 474.64
1727 0 68.1961 13.2999 907 122.318 117.392 474.752
1728 0 72.1882 12.6198 911 124.431 117.458 472.514
1729 0 71.1881 12.9657 923 125.796 117.824 471.668
1730 0 75.1852 13.0212 979 125.037 117.482 471.946
1731 0 78.2301 14.6491 1146 122.041 117.373 469.623
1732 0 78.2002 12.8772 1007 129.325 117.637 467.417
1733 0 82.1493 14.4615 1188 124.899 118.422 467.944
1734 0 85.1695 14.2774 1216 125.733 118.599 466.868
1735 0 88.0974 14.0753 1240 126.483 117.827 462.609
1736 0 93.1717 13.4698 1255 127.873 117.708 463.204
1737 0 94.1765 13.8676 1306 127.852 117.601 460.178
1738 1 49.0651 10.8427 532 123.085 118.291 484.19
1739 0 52.0903 10.9809 572 125.03 117.874 484.156
1740 0 52.074 10.6195 553 122.928 118.226 482.45
1741 0 55.0489 12.0075 661 115.083 118.064 480.864
1742 0 58.0518 11.3692 660 118.148 118 482.012
1743 0 58.0465 10.974 637 121.383 117.863 479.932
1744 0 61.051 11.5969 708 118.179 118.066 479.766
1745 0 64.0996 11.7473 753 117.668 117.688 477.25
1746 0 65.0886 12.5982 820 116.196 118.249 475.383
1747 0 68.1666 12.2494 835 115.541 117.92 475.938
1748 0 70.0889 12.6268 885 113.939 117.451 475.541
1749 0 73.0894 13.5724 992 112.1 117.632 474.428
1750 0 73.1272 11.9791 876 118.381 118.063 470.017
1751 0 77.1436 13.2091 1019 113.909 117.787 470.876
1752 0 80.1562 12.1887 977 115.886 118.171 471.334
1753 0 82.1668 12.8397 1055 115.791 117.827 468.313
1754 0 85.0971 13.0204 1108 115.588 117.819 466.801
1755 0 86.1767 12.5208 1079 118.047 117.538 465.755
1756 0 89.0968 12.7614 1137 117.936 117.445 463.068
1757 1 47.059 10.2212 481 109.108 117.087 487.973
1758 0 50.1163 10.6153 532 109.705 117.43 486.306
1759 0 52.1673 11.9232 622 105.603 117.048 487.426
1760 0 52.1376 11.7765 614 108.399 117.868 485.59
1761 0 54.1385 12.8374 695 111.817 117.836 487.119
1762 0 56.1568 12.661 711 112.113 117.529 485.53
1763 0 58.1034 12.4606 724 113.131 117.401 484.8
1764 0 60.1366 13.1368 790 110.885 117.6 485.091
1765 0 60.1062 13.3264 801 112.069 117.806 483.31
1766 0 64.1571 14.4333 926 107.47 118.112 484.456
1767 0 65.1026 13.6093 886 110.457 117.693 482.992
1768 0 67.1278 13.1987 886 111.414 117.888 481.111
1769 0 67.0601 13.3612 896 111.844 117.53 482.125
1770 0 72.1539 13.5405 977 111.424 117.346 480.405
1771 0 72.1572 13.7893 995 112.618 117.915 477.607
1772 0 75.1938 13.8043 1038 111.852 117.625 478.52
1773 0 76.0915 13.3261 1014 115.327 117.615 472.904
1774 0 80.1653 12.9233 1036 114.959 117.797 474.313
1775 0 83.1215 13.4021 1114 110.112 117.953 469.494
1776 0 85.1466 12.8719 1096 111.971 118.047 468.505
1777 0 89.1287 11.5002 1025 117.877 118.214 472.53
1778 0 91.0595 11.7725 1072 115.507 118.025 466.482
1779 1 50.0855 11.2008 561 107.619 117.109 487.898
1780 0 50.1185 10.4153 522 113.713 117.297 484.306
1781 0 51.1124 11.7975 603 111.549 117.398 484.904
1782 0 54.1511 12.2804 665 110.919 118.265 486.25
1783 0 54.1627 11.2624 610 113.843 117.648 486.128
1784 0 58.1334 12.7121 739 108.578 117.861 485.739
1785 0 58.1356 11.6624 678 113.06 118.348 481.785
1786 0 61.0841 12.4746 762 109.934 117.349 483.735
1787 0 65.1528 12.6779 826 108.213 116.726 482.492
1788 0 66.1207 12.9763 858 108.451 117.139 480.058
1789 0 67.2036 12.8267 862 108.435 117.635 478.073
1790 0 69.1413 12.5106 865 108.018 117.653 479.327
1791 0 71.1228 13.5821 966 106.987 117.731 475.595
1792 0 75.0785 13.1596 988 106.692 117.434 476.349
1793 0 76.1448 12.2398 932 109.898 117.756 474.494
1794 0 81.198 14.4831 1176 103.526 117.634 473.56
1795 0 80.1087 12.2334 980 109.939 117.364 472.7
1796 0 86.1188 12.5176 1078 108.13 117.17 472.966
1797 1 45.0251 12.1488 547 109.808 118.347 490.188
1798 0 47.0507 12.5822 592 107.89 118.047 490.453
1799 0 50.024 11.1147 556 112.791 118.189 489.025
1800 0 51.051 11.988 612 109.495 117.735 489.529
1801 0 51.0363 12.1874 622 108.862 117.33 486.847
1802 0 52.0742 11.9829 624 110.713 117.659 486.561
1803 0 54.1532 12.1323 657 110.69 117.962 484.74
1804 0 56.1995 13.3987 753 107.062 118.033 485.68
1805 0 58.0867 12.7051 738 109.112 117.848 484.859
1806 0 60.0812 11.7175 704 111.29 117.949 484.332
1807 0 61.0673 14.6723 896 105.206 117.693 482.377
1808 0 64.0672 12.5025 801 110.506 117.115 482.164
1809 0 66.1096 13.1448 869 109.045 117.84 480.939
1810 0 67.0665 13.7774 924 107.57 117.187 478.891
1811 0 69.1169 13.2818 918 109.078 117.697 476.038
1812 0 73.1717 12.4638 912 110.102 117.58 476.019
1813 0 74.2444 13.1592 977 108.703 117.667 475.269
1814 0 74.0888 12.9979 963 109.914 117.359 475.136
1815 0 79.1176 13.7517 1088 107.67 117.617 473.476
1816 0 78.1504 11.5674 904 113.952 117.581 472.975
1817 0 82.0921 12.1693 999 111.895 117.448 471.498
1818 0 86.1904 13.4702 1161 108.25 117.978 470.15
1819 0 88.1064 12.78 1126 111.271 118.372 468.032
1820 0 89.11 12.9166 1151 111.356 117.136 467.958
1821 0 92.1696 12.0864 1114 113.911 117.57 464.934
1822 0 98.2624 12.9042 1268 113.457 117.646 463.335
1823 0 101.123 12.4897 1263 119.58 117.395 462.866
1824 1 55.0769 11.7654 648 117.75 117.625 484.228
1825 0 59.0674 11.7154 692 114.967 118.176 485.766
1826 0 59.0202 11.3859 672 119.808 118.251 482.847
1827 0 60.0228 13.095 786 119.945 118.734 483.149
1828 0 63.1076 13.5641 856 119.097 118.654 480.814
1829 0 65.0621 14.2787 929 117.355 118.379 480.832
1830 0 65.2065 12.6368 824 122.492 118.57 479.721
1831 0 70.0903 13.8964 974 117.851 118.825 477.187
1832 0 71.1779 13.2485 943 120.694 118.712 477.088
1833 0 72.0796 13.7764 993 121.421 118.255 474.21
1834 0 75.1835 12.9018 970 122.68 117.794 476.19
1835 0 79.0743 13.089 1035 121.91 118.05 475.557
1836 0 82.0744 13.0979 1075 122.634 117.264 472.327
1837 0 83.1532 12.7957 1064 125.053 117.705 470.486
1838 0 88.1396 13.6715 1205 121.147 117.853 469.623
1839 0 92.0724 14.1519 1303 119.61 117.878 468.287
1840 0 92.1712 13.5075 1245 123.799 117.475 465.963
1841 0 96.1921 14.471 1392 121.568 116.548 464.212
1842 0 100.198 14.4614 1449 121.556 117.349 464.034
1843 0 101.194 13.5878 1375 125.743 117.259 461.755
1844 1 54.1091 11.2181 607 120.096 117.896 486.049
1845 0 56.0344 12.5637 704 115.861 118.212 484.172
1846 0 59.1949 12.7207 753 121.527 119.135 481.007
1847 0 61.082 12.9825 793 122.58 118.975 479.242
1848 0 61.02 12.9466 790 121.935 118.316 483.289
1849 0 66.1605 12.9685 858 121.367 118.865 478.852
1850 0 66.0758 13.0305 861 123.059 118.328 477.887
1851 0 67.1143 12.8736 864 123.785 117.826 478.797
1852 0 68.1027 12.4518 848 127.062 117.709 475.598
1853 0 71.0908 13.11 932 125.752 117.582 474.508
1854 0 74.0726 12.7172 942 125.731 118.101 473.692
1855 0 76.0701 13.7768 1048 123.352 118.401 472.238
1856 0 78.114 12.7506 996 127.657 118.358 470.683
1857 0 82.1558 14.5699 1197 121.594 118.064 470.344
1858 0 84.1659 13.6873 1152 125.311 118.58 468.067
1859 0 87.0965 13.7434 1197 125.419 118.475 466.165
1860 0 88.0885 12.3058 1084 129.656 118.161 465.03
1861 0 93.2095 13.3999 1249 126.078 118.239 464.1
1862 0 95.1692 13.6073 1295 126.212 118.293 462.335
1863 0 98.2457 13.3034 1307 127.402 117.784 460.598
1864 1 55.1026 11.2336 619 125.176 118.57 481.945
1865 0 56.1027 11.3185 635 124.844 118.759 481.735
1866 0 59.0173 12.0812 713 123.947 117.171 482.202
1867 0 59.1482 11.412 675 124.319 118.236 484.431
1868 0 62.3615 11.738 732 125.191 117.424 480.646
1869 0 63.1948 12.327 779 124.58 117.262 481.213
1870 0 65.2283 11.8047 770 125.491 116.979 478.901
1871 0 67.2649 12.2203 822 125.321 116.498 477.545
1872 0 70.253 12.398 871 121.916 117.564 477.231
1873 0 71.171 12.9688 923 120.207 117.168 476.117
1874 0 73.1471 11.2786 825 112.664 117.646 477.645
1875 0 75.0644 11.3236 850 113.973 117.064 475.827
1876 0 77.145 12.0293 928 113.125 116.977 473.301
1877 0 80.1055 11.2352 900 114.444 117.381 471.474
1878 0 83.0788 11.6757 970 113.001 117.845 472.862
1879 0 85.1547 12.7533 1086 110.899 117.017 469.866
1880 0 88.0723 12.4897 1100 111.016 116.495 470.969
1881 0 92.1304 11.9504 1101 112.772 116.295 469.403
1882 0 95.1494 13.0742 1244 110.9 116.481 465.092
1883 0 95.2154 11.2692 1073 116.089 116.739 461.842
1884 0 100.285 12.8533 1289 117.809 116.305 462.143
1885 0 105.274 12.4817 1314 118.775 115.756 458.679
1886 1 54.2411 9.69745 526 111.259 115.816 478.781
1887 0 55.2441 9.55759 528 110.68 116.752 479.108
1888 0 57.0926 11.2624 643 103.953 117.286 478.124
1889 0 59.1824 10.0537 595 107.146 117.461 477.402
1890 0 59.1555 10.1428 600 108.703 117.275 476.347
1891 0 60.2166 10.5619 636 107.75 117.701 476.256
1892 0 62.1197 9.61048 597 108.745 117.625 475.678
1893 0 65.0574 10.9596 713 106.809 116.049 474.074
1894 0 66.0502 11.0371 729 106.925 116.39 472.782
1895 0 69.059 11.2512 777 108.095 116.329 470.494
1896 0 70.0947 10.7569 754 109.373 116.529 470.576
1897 0 73.0565 10.0333 733 109.572 116.172 471.471
1898 0 77.0216 10.6334 819 109.509 116.288 467.35
1899 0 80.0743 12.2136 978 105.71 116.438 467.993
1900 0 82.0915 11.341 931 109.363 116.725 465.508
1901 0 85.0944 11.1758 951 109.452 116.563 465.42
1902 0 85.0483 10.3941 884 111.41 116.816 464.753
1903 0 88.0934 10.8635 957 112.123 116.413 459.589
1904 0 91.0856 12.0875 1101 109.184 116.842 458.314
1905 0 95.0807 11.9583 1137 109.553 116.88 461.49
1906 0 100.218 11.3752 1140 110.554 116.763 454.882
1907 1 54.0643 9.50719 514 103.807 115.967 480.955
1908 0 57.0708 9.9876 570 102.956 116.128 481.019
1909 0 56.1302 10.155 570 112.788 115.705 481.653
1910 0 58.055 11.4374 664 108.886 116.559 483.349
1911 0 63.1326 12.8618 812 102.085 115.495 480.888
1912 0 64.0433 12.1012 775 104.323 115.619 480.738
1913 0 66.0709 11.185 739 106.545 115.104 479.682
1914 0 68.0775 11.8541 807 104.203 116.083 479.157
1915 0 70.0547 12.1619 852 104.663 116.135 477.214
1916 0 71.0963 12.3072 875 104.766 116.186 475.691
1917 0 74.1272 12.1278 899 105.236 116.02 474.89
1918 0 77.0734 12.2351 943 104.982 115.861 474.52
1919 0 78.0827 11.5775 904 107.298 115.798 472.012
1920 0 81.1068 12.3418 1001 105.604 115.538 471.442
1921 0 82.0916 11.7795 967 106.937 115.498 472.044
1922 0 84.121 12.0897 1017 107.328 115.255 468.618
1923 0 86.0906 11.5576 995 108.555 115.244 469.333
1924 0 89.1047 13.3102 1186 105.773 115.698 466.467
1925 0 91.1875 11.9315 1088 109.905 115.964 466.567
1926 0 94.0433 11.0162 1036 112.268 115.465 464.891
1927 0 97.0651 11.3738 1104 111.582 114.947 461.961
1928 0 100.078 11.9706 1198 110.49 115.371 464.636
1929 0 101.055 11.9144 1204 112.291 115.595 462.046
1930 1 58.0714 11.0726 643 110.435 114.874 483.666
1931 0 61.077 11.903 727 109.604 114.96 481.602
1932 0 59.1696 11.4924 680 111.29 115.369 480.559
1933 0 61.1876 10.574 647 114.116 115.334 480.787
1934 0 65.0494 12.3137 801 109.773 116.159 479.507
1935 0 65.107 11.2737 734 112.568 115.704 480.331
1936 0 68.08 11.1927 762 113.606 115.757 476.824
1937 0 70.1023 11.1551 782 113.191 115.829 476.46
1938 0 72.2222 10.8415 783 114.71 116.037 477.239
1939 0 76.1428 12.4109 945 110.402 115.844 473.901
1940 0 78.1087 12.4954 976 110.65 116.336 474.738
1941 0 80.2165 13.0522 1047 110.412 116.149 471.06
1942 0 83.1785 12.2027 1015 113.032 116.202 469.706
1943 0 85.158 13.1403 1119 109.8 115.767 471.336
1944 0 86.0792 13.1274 1130 113.201 116.396 470.461
1945 0 87.1093 12.1571 1059 118.591 115.401 466.812
1946 0 90.1094 12.7734 1151 115.93 116.445 469.793
1947 0 93.1798 11.9768 1116 118.051 116.468 465.63
1948 0 97.3002 13.2785 1292 114.737 116.289 464.465
1949 0 99.1436 12.3962 1229 117.714 115.818 462.453
1950 0 101.155 12.5748 1272 119.77 116.046 459.248
1951 0 104.191 11.8437 1234 124.071 115.912 455.323
1952 0 107.188 12.744 1366 122.747 116.47 454.141
1953 0 112.19 12.5233 1405 122.915 116.221 455.021
1954 0 119.153 12.9581 1544 119.876 115.635 452.499
1955 1 63.1573 11.1468 704 122.293 116.848 477.518
1956 0 65.22 11.7142 764 120.136 117.873 477.365
1957 0 65.0918 10.4314 679 116.021 117.658 470.546
1958 0 67.1971 9.92603 667 111.823 117.724 476.172
1959 0 71.074 11.0308 784 108.394 117.17 475.279
1960 0 71.2005 10.028 714 111.29 117.367 472.256
1961 0 76.0586 11.4386 870 109.097 117.625 475.285
1962 0 76.2094 10.7467 819 108.935 117.269 469.426
1963 0 79.0775 10.8375 857 112.028 117.14 472.278
1964 0 83.1806 11.7576 978 108.535 117.059 470.763
1965 0 89.1217 11.9387 1064 107.305 117.429 468.95
1966 0 89.1686 11.7418 1047 109.099 117.709 466.394
1967 0 92.2654 12.7025 1172 108.012 117.289 465.584
1968 0 93.1366 12.1112 1128 109.599 116.747 464.066
1969 0 98.1342 11.7594 1154 110.167 116.518 462.903
1970 0 100.115 12.2858 1230 106.712 116.467 461.263
1971 0 104.118 12.3802 1289 106.859 116.533 460.062
1972 0 107.179 11.6534 1249 108.371 116.759 458.622
1973 0 110.095 12.6618 1394 105.904 116.808 456.847
1974 0 113.132 11.5882 1311 108.668 117.089 454.873
1975 0 116.087 12.6629 1470 108.11 117.233 452.686
1976 0 122.216 11.5369 1410 109.178 117.126 451.924
1977 0 125.136 12.3546 1546 108.305 116.533 447.063
1978 0 129.24 11.2194 1450 110.822 116.791 448.302
1979 1 68.0693 10.122 689 107.705 117.473 478.726
1980 0 71.0755 10.1441 721 105.551 116.595 474.548
1981 0 75.125 11.4343 859 102.639 115.646 472.998
1982 0 75.1131 11.2896 848 103.686 115.809 473.578
1983 0 76.1379 11.4792 874 104.3 116.289 472.937
1984 0 82.1378 12.8443 1055 100.333 115.789 470.614
1985 0 85.1148 12.63 1075 100.743 116.14 470.307
1986 0 86.1677 11.6981 1008 104.666 115.55 468.186
1987 0 87.1479 11.7731 1026 105.649 115.737 467.025
1988 0 90.1353 12.1817 1098 105.239 115.944 466.488
1989 0 93.1697 11.5917 1080 106.395 116.101 464.761
1990 0 97.1658 12.0516 1171 107.137 116.313 462.579
1991 0 100.256 12.4781 1251 106.059 115.661 459.055
1992 0 103.274 12.6072 1302 107.197 115.531 457.826
1993 0 105.219 11.5094 1211 111.177 114.984 456.348
1994 0 110.201 13.2758 1463 107.309 115.758 456.703
1995 0 111.241 11.0121 1225 112.589 116.091 453.811
1996 0 116.214 11.453 1331 112.252 116.267 451.849
1997 0 122.262 11.6307 1422 112.474 115.667 449.451
1998 0 123.255 11.6344 1434 113.538 115.955 446.201
1999 0 129.343 12.2387 1583 113.249 116.285 440.219
2000 0 135.216 13.6893 1851 108.91 116.169 442.601
2001 0 140.279 12.9599 1818 110.414 115.302 443.906
2002 0 145.181 13.4866 1958 111.076 116.029 439.646
2003 1 79.1371 11.4485 906 106.437 115.263 472.977
2004 0 82.1361 11.1644 917 107.997 115.613 471.215
2005 0 84.1395 11.3502 955 108.658 115.05 469.755
2006 0 87.0739 11.6108 1011 108.659 115.059 468.997
2007 0 92.0942 12.5306 1154 105.932 115.358 466.048
2008 0 94.1299 12.8121 1206 106.766 115.933 461.006
2009 0 97.1423 12.7236 1236 107.005 115.85 464.61
2010 0 100.139 12.6624 1268 108.57 115.374 460.234
2011 0 103.215 12.8179 1323 108.884 115.168 459.048
2012 0 106.144 12.3983 1316 110.882 115.414 456.339
2013 0 108.107 12.0436 1302 112.538 115.49 454.774
2014 0 114.175 13.4092 1531 109.127 115.573 455.108
2015 0 118.291 14.177 1677 107.227 115.271 455.104
2016 0 120.221 11.8449 1424 113.484 115.643 455.246
2017 0 125.149 13.1124 1641 110.603 115.967 449.564
2018 1 68.0888 10.6185 723 110.757 115.953 481.118
2019 0 69.1668 12.3614 855 107.235 116.108 478.672
2020 0 68.1129 11.1433 759 111.452 116.378 475.547
2021 0 73.1604 11.7823 862 109.619 116.381 477.28
2022 0 74.1125 11.7794 873 109.633 116.479 476.422
2023 0 78.1684 12.7801 999 107.25 116.601 476.051
2024 0 79.1139 12.0333 952 107.574 117.04 471.86
2025 0 84.1195 12.7794 1075 105.017 117.407 471.409
2026 0 86.1007 11.4633 987 108.531 117.12 469.83
2027 0 90.2299 12.3906 1118 106.39 116.766 468.662
2028 0 91.1742 12.3829 1129 107.773 116.493 467.278
2029 0 95.1804 12.6602 1205 108.466 116.288 464.632
2030 0 97.18 12.729 1237 109.852 116.312 464.616
2031 0 100.228 13.0403 1307 110.643 116.512 460.707
2032 0 102.203 12.5241 1280 112.17 116.481 458.451
2033 0 106.181 12.2526 1301 113.109 116.333 457.226
2034 0 110.174 12.9977 1432 112.554 116.349 455.183
2035 1 57.1111 11.6965 668 109.38 115.903 482.799
2036 0 57.1706 12.3315 705 110.27 116.132 479.989
2037 0 60.1067 12.2282 735 109.554 115.344 481.784
2038 0 63.0998 11.4105 720 110.433 115.708 480.828
2039 0 65.0742 12.5395 816 107.719 115.618 481.142
2040 0 65.1225 12.5302 816 109.908 116.045 478.991
2041 0 68.1088 12.4213 846 109.655 116.251 478.322
2042 0 71.1169 12.4443 885 109.278 116.445 477.911
2043 0 73.0522 13.374 977 107.67 116.013 476.348
2044 0 75.037 11.9541 897 112.358 116.032 474.662
2045 0 76.0831 12.2235 930 112.173 115.943 474.646
2046 0 78.052 12.3379 963 111.035 116.088 475.59
2047 0 82.096 12.4732 1024 111.381 115.625 473.728
2048 0 84.1297 12.8849 1084 110.906 115.567 470.714
2049 0 86.1379 12.5032 1077 109.44 116.338 469.214
2050 0 89.1217 13.3525 1190 108.118 116.558 467.097
2051 0 90.0958 12.1759 1097 112.534 116.095 467.149
2052 0 93.1973 13.1442 1225 110.841 115.638 465.285
2053 0 95.1461 12.0657 1148 114.281 116.099 462.896
2054 0 100.16 12.7696 1279 112.646 116.382 460.636
2055 0 101.126 12.2916 1243 115.123 116.031 460.136
2056 0 103.069 10.8277 1116 118.782 116.35 462.569
2057 0 107.12 11.3051 1211 119.175 115.92 457.467
2058 0 110.102 11.7074 1289 119.129 116.4 457.05
2059 0 114.127 10.9966 1255 120.794 115.874 456.466
2060 1 65.1223 11.9467 778 113.578 115.275 480.283
2061 0 67.0322 11.5914 777 116.468 115.749 480.187
2062 0 69.0603 11.9026 822 117.17 116.27 476.198
2063 0 73.0578 13.3182 973 112.582 115.694 475.9
2064 0 74.0914 11.5263 854 117.557 115.495 475.482
2065 0 75.054 12.2445 919 117.935 116.336 474.532
2066 0 78.1214 12.6854 991 116.652 115.948 471.59
2067 0 82.1167 12.9206 1061 114.989 116.005 472.005
2068 0 84.1546 12.786 1076 116.348 116.287 469.402
2069 0 89.1579 13.392 1194 113.936 115.777 469.548
2070 0 89.1593 12.3263 1099 117.876 115.653 468.712
2071 0 91.1213 12.829 1169 118.567 115.5 466.95
2072 0 96.1176 13.7748 1324 116.122 115.792 463.808
2073 0 97.1845 12.6666 1231 120.073 115.88 462.75
2074 0 102.102 12.9969 1327 118.919 114.883 462.635
2075 0 105.092 12.7222 1337 121.334 115.877 459.322
2076 0 109.059 13.3139 1452 117.804 116.171 461.012
2077 0 111.189 13.2837 1477 120.343 115.897 454.878
2078 0 115.16 13.5984 1566 119.545 115.64 455.31
2079 0 117.165 13.7157 1607 120.635 116.114 453.452
2080 1 66.063 11.3225 748 126.231 115.373 480.576
2081 0 68.1904 11.4826 783 123.354 115.462 479.654
2082 0 70.0828 11.9858 840 113.264 115.238 474.926
2083 0 72.0914 11.1941 807 115.571 115.057 474.048
2084 0 74.0927 12.3359 914 112.753 115.368 473.117
2085 0 78.1319 12.1461 949 112.507 116.152 471.591
2086 0 79.1048 11.5669 915 115.163 115.824 470.173
2087 0 82.2024 11.7515 966 114.465 116.236 469.002
2088 0 86.1476 12.0723 1040 114.233 115.985 468.003
2089 0 86.0907 11.9177 1026 115.105 116.005 468.578
2090 0 89.1578 11.3731 1014 117.384 115.595 465.591
2091 0 94.1762 13.1774 1241 111.51 115.913 465.093
2092 0 97.161 12.083 1174 115.267 115.529 463.704
2093 0 99.2135 11.954 1186 116.868 115.621 461.116
2094 0 101.172 11.8017 1194 117.57 115.579 460.059
2095 0 105.188 12.682 1334 115.904 115.793 457.235
2096 0 107.09 12.1113 1297 118.203 116.39 454.696
2097 1 57.1855 11.0692 633 114.371 115.48 485.889
2098 0 58.1664 10.8482 631 118.011 115.198 482.174
2099 0 62.0639 12.1971 757 113.309 114.614 483.55
2100 0 63.1256 12.5306 791 112.469 114.96 482.412
2101 0 64.1472 11.8633 761 115.334 115.552 480.325
2102 0 65.1563 12.094 788 116.025 115.703 480.374
2103 0 67.142 13.2704 891 113.845 115.825 478.893
2104 0 69.1615 13.1576 910 114.213 116.291 480.437
2105 0 69.1907 11.7068 810 120.096 115.695 477.212
2106 0 75.1594 12.5467 943 116.206 115.699 476.221
2107 0 76.1111 12.7708 972 116.496 115.279 474.979
2108 0 78.1043 12.701 992 116.69 115.652 474.652
2109 0 79.1303 13.1429 1040 117.041 115.573 472.284
2110 0 81.1187 12.4386 1009 119.394 115.454 470.488
2111 0 85.0819 12.6466 1076 117.998 114.439 471.677
2112 0 86.0791 12.9648 1116 118.16 114.88 470.493
2113 0 89.1236 12.3312 1099 120.701 114.55 468.54
2114 0 91.1326 12.7945 1166 120.193 114.725 467.882
2115 0 91.1047 11.8325 1078 119.161 115.461 466.621
2116 0 95.1519 11.1506 1061 121.101 115.615 457.709
2117 0 98.0972 11.6721 1145 120.225 115.678 461.295
2118 0 101.255 11.9796 1213 120.732 115.753 460.328
2119 0 105.23 11.6031 1221 120.587 115.645 455.55
2120 0 107.33 12.2612 1316 120.84 114.861 453.219
2121 1 62.1387 11.0076 684 114.898 115.743 482.453
2122 0 64.1088 13.3055 853 120.13 115.281 481.666
2123 0 66.0653 14.97 989 114.907 114.607 481.027
2124 0 67.0718 12.7326 854 122.316 114.7 478.1
2125 0 69.0713 12.6391 873 122.572 115.375 479.292
2126 0 72.0944 13.8152 996 118.649 114.33 477.765
2127 0 72.0517 12.4355 896 124.267 114.683 476.672
2128 0 73.0504 12.2381 894 126.334 114.125 474.994
2129 0 77.0492 13.3032 1025 123.403 114.259 472.275
2130 0 81.0813 12.987 1053 122.915 114.432 472.661
2131 0 82.0756 13.1586 1080 123.65 113.926 471.287
2132 0 86.052 12.6203 1086 125.467 113.892 469.967
2133 0 90.1663 13.4973 1217 121.423 114.27 468.892
2134 0 91.0837 13.4601 1226 122.192 114.316 465.467
2135 0 96.1453 14.3637 1381 118.731 114.993 464.971
2136 0 99.2232 14.1802 1407 118.894 115.548 461.787
2137 1 55.16 11.7658 649 122.291 116.766 484.441
2138 0 56.0731 12.3232 691 123.991 117.103 484.932
2139 0 58.2268 12.7433 742 121.346 115.888 484.067
2140 0 59.3125 11.8525 703 125.987 115.785 481.947
2141 0 61.1473 13.2304 809 121.379 115.749 482.413
2142 0 64.2142 12.2714 788 123.695 115.72 480.72
2143 0 64.1635 13.3721 858 122.352 115.656 479.582
2144 0 67.2165 13.7615 925 120.911 115.822 478.845
2145 0 69.1594 13.2881 919 121.931 115.501 478.614
2146 0 72.1321 13.5723 979 120.289 116.35 476.878
2147 0 74.1333 12.545 930 123.015 115.777 476.556
2148 0 76.1232 12.3747 942 123.355 116.091 474.815
2149 0 78.1434 12.7586 997 121.861 115.968 474.63
2150 0 79.1642 12.2656 971 123.779 116.039 471.399
2151 0 82.1867 11.7172 963 124.309 116.205 469.088
2152 0 88.1779 13.4614 1187 118.045 116.871 469.968
2153 1 46.1765 9.57197 442 123.932 115.002 486.43
2154 0 50.0664 10.7657 539 118.31 115.224 486.913
2155 0 51.2212 10.9525 561 117.619 114.75 486.169
2156 0 51.0705 11.161 570 114.268 115.046 485.725
2157 0 54.1323 12.3217 667 111.76 115.091 484.643
2158 0 56.1984 13.1143 737 110.233 115.407 482.803
2159 0 58.1612 12.0183 699 113.887 115.567 482.655
2160 0 59.2669 12.5703 745 112.336 116.004 481.459
2161 0 59.1643 12.5921 745 113.486 115.174 478.051
2162 0 65.4919 12.5206 820 112.805 115.53 479.249
2163 0 66.3953 13.5251 898 110.761 115.753 474.345
2164 0 68.407 12.601 862 114.015 116.071 475.44
2165 0 69.512 12.9762 902 113.724 116.142 474.492
2166 0 71.3502 13.3006 949 113.339 115.702 471.859
2167 0 71.058 14.0449 998 111.081 114.965 471.867
2168 0 75.0798 13.9052 1044 111.491 114.794 471.751
2169 0 78.1186 12.737 995 113.612 114.978 469.494
2170 0 80.0865 12.1494 973 115.412 114.436 468.36
2171 0 83.097 14.0318 1166 111.107 114.599 465.983
2172 0 86.2389 14.1236 1218 111.378 114.716 464.622
2173 0 90.424 13.2598 1199 113.44 115.04 463.656
2174 0 92.3634 14.1398 1306 112.154 114.753 461.056
2175 0 96.3056 13.6025 1310 113.627 114.508 458.504
2176 0 98.3346 12.5897 1238 116.007 115.014 458.001
2177 1 53.1464 11.139 592 119.883 115.054 477.11
2178 0 56.3742 11.9736 675 118.025 114.803 476.901
2179 0 59.0689 13.7636 813 113.314 114.844 480.502
2180 0 60.0472 12.5235 752 116.363 114.795 480.951
2181 0 63.1498 13.365 844 114.147 115.241 478.902
2182 0 63.1568 13.1736 832 115.668 114.817 479.094
2183 0 66.0773 12.894 852 115.647 115.065 477.668
2184 0 68.269 13.1538 898 115.155 114.86 475.934
2185 0 68.427 12.8458 879 116.058 115.444 473.289
2186 0 71.0911 13.2506 942 114.23 115.528 473.651
2187 0 75.0991 13.4888 1013 114.145 116.202 469.542
2188 0 75.0927 12.6377 949 117.104 115.349 468.906
2189 0 80.1617 12.7368 1021 116.822 115.426 465.972
2190 0 85.0955 14.1018 1200 112.152 115.666 466.259
2191 0 87.1602 13.1597 1147 115.466 115.834 458.657
2192 0 91.1573 12.813 1168 117.121 115.701 458.458
2193 0 93.2068 13.4754 1256 115.204 115.433 455.817
2194 0 96.1592 13.1449 1264 116.006 115.96 456.188
2195 0 97.1167 12.9432 1257 117.909 115.656 454.823
2196 1 54.2294 10.6031 575 117.715 115.595 477.969
2197 0 56.1644 11.0924 623 116.947 115.783 476.047
2198 0 58.1148 11.9247 693 104.854 115.926 478.231
2199 0 61.0439 11.3525 693 106.339 114.745 479.517
2200 0 61.0535 13.4308 820 104.028 115.82 476.157
2201 0 62.0731 11.4865 713 108.567 115.238 476.773
2202 0 67.0941 12.6986 852 114.702 114.707 477.032
2203 0 67.0421 13.141 881 115.414 114.17 475.454
2204 0 70.0462 12.1206 849 117.602 114.378 476.09
2205 0 72.0781 13.6102 981 114.474 114.543 476.25
2206 0 74.0278 12.5899 932 117.881 114.28 470.444
2207 0 76.1156 12.4942 951 117.637 114.694 472.938
2208 0 81.0883 13.1215 1064 116.322 114.914 469.961
2209 0 83.0746 12.8559 1068 117.899 114.793 469.498
2210 0 85.0734 13.1416 1118 117.182 114.742 469.852
2211 0 88.0743 13.5454 1193 116.542 115.14 468.221
2212 0 90.1187 12.7942 1153 119.304 114.58 466.719
2213 0 94.1131 13.6644 1286 115.925 114.949 465.792
2214 0 96.0868 13.5086 1298 116.801 115.154 462.002
2215 0 97.0601 12.3738 1201 120.838 114.606 460.966
2216 0 102.047 12.9842 1325 117.784 114.523 460.606
2217 0 104.112 12.9668 1350 117.247 114.985 454.715
2218 0 109.091 12.1183 1322 115.638 114.941 456.623
2219 1 60.0975 11.4813 690 106.69 114.591 479.555
2220 0 60.0339 11.277 677 108.644 114.905 479.861
2221 0 62.0382 11.7831 731 107.918 114.867 479.367
2222 0 64.0797 12.2504 785 106.949 115.197 477.93
2223 0 66.0726 12.123 801 107.388 115.246 477.428
2224 0 67.0657 11.5111 772 109.307 115.28 475.802
2225 0 71.0605 12.2853 873 107.935 115.485 473.874
2226 0 72.0692 11.9607 862 109.251 115.814 473.5
2227 0 75.0701 11.456 860 109.464 115.64 473.422
2228 0 78.0726 12.8854 1006 107.515 115.797 468.5
2229 0 80.1159 12.5443 1005 109.239 115.973 468.38
2230 0 81.1349 12.054 978 111.397 115.421 467.092
2231 0 83.0824 11.4705 953 114.026 115.942 465.969
2232 0 88.1311 13.3892 1180 109.791 115.86 464.656
2233 0 91.087 13.3499 1216 109.817 115.877 463.474
2234 0 91.1036 11.4156 1040 116.762 115.74 462.119
2235 0 96.1829 12.2059 1174 112.971 115.748 459.831
2236 0 100.073 11.5816 1159 113.615 115.239 459.676
2237 1 54.1286 8.5537 463 114.285 115.149 482.097
2238 0 57.0978 10.2456 585 114.665 115.309 480.757
2239 0 59.0278 12.6381 746 110.748 115.15 478.619
2240 0 59.0893 11.5588 683 116.305 114.634 474.592
2241 0 61.1238 10.9941 672 117.872 114.249 474.598
2242 0 65.0679 10.8963 709 116.633 115.086 475.484
2243 0 65.1024 10.5219 685 112.794 116.035 475.422
2244 0 71.07 12.1008 860 108.265 115.456 475.15
2245 0 72.0779 10.0586 725 113.476 114.879 474.223
2246 0 75.0566 11.2848 847 111.361 114.774 472.267
2247 0 78.0812 11.2319 877 111.068 115.743 473.766
2248 0 80.046 11.0936 888 112.289 116.244 472.504
2249 0 83.1356 11.0181 916 112.906 115.462 469.318
2250 0 86.111 12.0658 1039 110.911 114.831 468.444
2251 0 90.2072 12.1055 1092 110.807 115.534 465.987
2252 0 92.0486 11.3636 1046 113.499 115.049 463.863
2253 0 96.0635 12.5334 1204 113.329 115.243 468.797
2254 1 52.0731 11.7719 613 112.439 114.411 487.039
2255 0 54.1004 12.0517 652 111.702 114.485 486.271
2256 0 54.0239 12.8277 693 111.827 115.04 484.944
2257 0 56.0674 11.8786 666 112.688 114.748 485.446
2258 0 58.1066 12.5459 729 112.003 114.538 484.689
2259 0 62.0427 12.7654 792 110.114 114.636 486.771
2260 0 61.085 12.3762 756 113.663 114.456 484.358
2261 0 64.0794 13.5301 867 110.596 114.714 485.513
2262 0 66.0991 13.7521 909 110.477 114.552 487.183
2263 0 66.0902 12.3619 817 116.704 114.188 485.313
2264 0 68.0945 12.982 884 117.638 113.739 484.9
2265 0 72.208 13.6273 984 115.782 113.814 486.035
2266 0 75.1693 14.035 1055 113.749 113.405 486.318
2267 0 76.2084 13.2794 1012 117.256 113.096 484.884
2268 0 78.0975 12.3179 962 120.733 112.986 485.904
2269 0 81.1484 14.911 1210 114.913 112.305 483.49
2270 0 84.2959 14.1407 1192 117.466 112.42 484.707
2271 0 86.176 15.7585 1358 115.22 112.694 482.499
2272 0 89.2198 14.2009 1267 119.251 112.396 482.86
2273 0 93.2347 15.7667 1470 115.106 112.361 480.965
2274 0 96.271 15.3213 1475 117.616 112.005 477.504
2275 0 98.2986 13.7947 1356 123.496 112.201 477.224
2276 0 101.238 14.5203 1470 123.099 111.935 474.06
2277 0 104.196 14.3576 1496 123.555 111.195 472.047
2278 0 107.206 13.5346 1451 126.708 111.134 471.746
2279 0 111.229 14.6995 1635 125.323 110.566 468.843
2280 0 115.202 14.4008 1659 127.136 110.857 466.92
2281 0 119.411 14.8144 1769 124.773 110.105 465.004
2282 0 123.185 14.9532 1842 125.849 110.071 460.901
2283 1 68.1146 12.3468 841 128.238 109.37 490.731
2284 0 71.1837 13.0507 929 126.841 109.195 487.926
2285 0 72.1383 13.2662 957 126.511 109.338 488.345
2286 0 72.1471 11.8785 857 132.483 108.877 485.426
2287 0 78.1084 13.43 1049 126.169 109.069 485.403
2288 0 80.1498 12.7012 1018 129.263 108.749 485.369
2289 0 82.203 13.4058 1102 127.062 108.73 484.164
2290 0 83.1655 13.3709 1112 128.142 109.151 484.156
2291 0 86.2156 12.3876 1068 130.978 109.911 480.758
2292 0 90.3374 13.671 1235 127.674 109.816 479.84
2293 0 93.2952 13.6663 1275 126.802 109.911 480.009
2294 0 97.3481 13.7137 1335 127.253 109.701 477.312
2295 0 100.362 13.3118 1336 130.022 110.076 473.088
2296 0 103.289 13.3509 1379 128.258 110.71 476.74
2297 0 107.418 13.3869 1438 128.526 111.364 472.873
2298 0 110.274 13.6206 1502 126.164 111.091 467.342
2299 0 112.099 11.8288 1326 124.651 110.281 468.845
2300 1 63.0988 11.1096 701 114.96 111.285 495.72
2301 0 65.1502 12.4021 808 113.175 111.208 492.123
2302 0 68.1782 12.482 851 113.385 110.468 491.764
2303 0 69.1365 11.687 808 116.949 110.962 485.891
2304 0 73.2048 11.7888 863 114.855 110.499 487.046
2305 0 74.1169 13.1684 976 112.343 111.363 487.505
2306 0 78.181 12.6501 989 112.77 110.85 488.9
2307 0 79.189 12.3249 976 114.237 110.957 488.107
2308 0 82.1507 13.3292 1095 112.3 110.499 485.023
2309 0 83.1959 12.3564 1028 114.041 110.696 486.647
2310 0 86.146 12.5136 1078 115.049 110.212 484.758
2311 0 88.0775 11.7737 1037 117.279 110.558 483.317
2312 0 91.0913 11.966 1090 117.331 110.548 482.012
2313 0 93.1471 12.185 1135 117.959 110.807 481.537
2314 0 96.1966 12.9838 1249 118.083 110.334 478.014
2315 0 98.1563 11.7058 1149 121.388 110.56 478.993
2316 1 57.1262 11.9735 684 119.355 110.993 497.659
2317 0 60.0985 12.2965 739 117.379 110.805 497.571
2318 0 61.1064 12.5682 768 120.609 111.272 495.816
2319 0 62.051 13.1505 816 126.336 111.512 494.615
2320 0 66.0656 14.1072 932 123.369 111.599 494.704
2321 0 66.0658 12.4573 823 129.254 111.781 493.159
2322 0 68.0436 12.9182 879 129.478 112.014 490.838
2323 0 72.0583 13.6834 986 126.709 111.934 489.28
2324 0 75.0735 14.0795 1057 124.927 111.876 487.347
2325 0 76.1308 13.4505 1024 127.187 111.804 486.544
2326 0 79.0765 14.3405 1134 125.449 112.338 486.259
2327 0 81.1638 13.6268 1106 128.072 112.005 483.738
2328 0 84.1644 13.7826 1160 128.977 111.519 481.724
2329 0 86.3331 13.9228 1202 128.208 111.453 480.744
2330 0 90.1924 14.6465 1321 126.683 111.347 478.062
2331 0 93.1971 15.1829 1415 125.036 110.721 478.405
2332 0 95.2081 13.0766 1245 131.14 110.188 477.408
2333 0 98.3188 13.4359 1321 128.363 110.482 477.621
2334 0 101.247 13.314 1348 128.733 110.382 475.298
2335 0 105.33 14.2694 1503 128.259 110.065 470.323
2336 0 109.25 13.4462 1469 130.11 110.349 469.583
2337 1 59.1891 12.8571 761 127.534 109.896 492.692
2338 0 62.1399 12.665 787 128.064 109.701 493.034
2339 0 64.2862 13.3621 859 127.471 109.279 489.567
2340 0 66.2091 12.5209 829 130.784 109.94 486.988
2341 0 67.2144 12.7205 855 131.691 110.411 487.119
2342 0 70.3187 13.1544 925 129.904 110.536 485.439
2343 0 72.2704 12.4256 898 132.366 110.64 484.935
2344 0 71.2062 13.2573 944 127.129 111.107 486.359
2345 0 74.1906 12.6835 941 128.09 110.734 484.017
2346 0 76.2372 11.9758 913 130.472 111.505 484.903
2347 0 79.4034 13.7148 1089 126.612 111.545 479.748
2348 0 80.2924 12.2926 987 130.404 111.906 481.281
2349 0 85.2389 13.3038 1134 128.85 111.419 477.083
2350 0 87.2959 12.429 1085 131.441 111.759 474.241
2351 0 88.2346 12.4781 1101 132.359 111.736 473.05
2352 0 91.26 13.7081 1251 128.778 111.443 471.758
2353 0 93.5377 12.8825 1205 132.727 112.383 468.215
2354 0 97.3896 13.79 1343 130.055 112.614 465.783
2355 0 97.297 13.3612 1300 131.272 111.839 461.957
2356 0 102.358 12.6908 1299 132.055 112.159 462.751
2357 1 53.2566 9.83916 524 132.794 112.048 484.315
2358 0 56.2281 12.2359 688 128.265 112.701 481.756
2359 0 58.3473 12.1342 708 130.175 112.935 481.445
2360 0 60.2732 12.8913 777 127.555 113.041 479.028
2361 0 62.2035 12.3144 766 130.377 113.114 478.047
2362 0 62.2707 11.7391 731 132.765 113.28 477.222
2363 0 67.0274 12.741 854 128.416 114.153 481.198
2364 0 68.0435 13.3738 910 127.34 113.847 479.694
2365 0 69.0752 12.1317 838 131.815 113.77 478.165
2366 0 72.1263 12.9079 931 129.026 114.198 476.735
2367 0 74.1212 12.0883 896 131.924 114.076 475.951
2368 0 79.2004 13.3459 1057 127.278 114.255 476.129
2369 0 82.1687 13.3019 1093 128.5 114.207 474.823
2370 0 83.1194 13.3423 1109 129.777 114.108 474.683
2371 0 85.1345 13.602 1158 131.423 113.685 469.611
2372 0 89.2793 12.6793 1132 132.424 113.705 467.89
2373 0 91.2238 13.5272 1234 131.171 113.391 464.194
2374 0 97.2404 13.9243 1354 128.682 113.961 463.928
2375 0 99.2127 13.7986 1369 129.619 114.044 463.689
2376 1 55.2087 11.8097 652 131.121 113.255 483.173
2377 0 54.1068 11.8839 643 125.804 113.505 478.677
2378 0 58.1642 11.5191 670 124.767 114.301 477.743
2379 0 58.0644 11.5561 671 126.019 114.423 477.028
2380 0 61.0222 11.504 702 125.211 114.387 479.115
2381 0 63.067 12.4629 786 132.173 114.673 480.252
2382 0 68.0447 13.0062 885 127.806 115.252 480.163
2383 0 70.0994 13.8232 969 125.937 114.969 478.197
2384 0 70.0926 13.582 952 127.899 114.725 478.779
2385 0 73.2272 13.1235 961 129.272 114.364 476.399
2386 0 74.1102 12.7918 948 130.868 115.216 473.525
2387 0 79.1398 13.7731 1090 127.092 115.355 473.588
2388 0 80.2762 13.5657 1089 128.741 114.153 471.675
2389 0 84.1361 14.3577 1208 126.101 114.401 472.07
2390 0 84.2278 13.2735 1118 130.769 114.447 467.561
2391 0 88.2066 13.4797 1189 129.671 114.125 466.696
2392 0 94.2132 14.361 1353 125.662 113.795 465.984
2393 0 96.2856 13.7196 1321 128.565 113.602 463.946
2394 1 51.2773 10.57 542 128.921 114.164 486.24
2395 0 54.3044 12.1721 661 118.222 114.042 487.342
2396 0 54.0977 11.5532 625 117.146 113.483 486.797
2397 0 56.0795 12.2505 687 116.715 113.675 484.287
2398 0 59.0684 14.3393 847 110.322 113.861 483.47
2399 0 60.0593 13.2369 795 113.133 113.419 483.296
2400 0 60.07 11.9694 719 117.515 113.163 482.566
2401 0 63.0845 13.1253 828 113.697 113.51 482.673
2402 0 66.0413 13.1433 868 112.356 113.357 480.711
2403 0 67.0533 12.0799 810 114.977 112.935 479.788
2404 0 69.1577 12.3775 856 113.063 113.352 479.617
2405 0 72.1208 15.0303 1084 106.494 113.089 476.448
2406 0 72.1109 12.453 898 113.108 113.321 475.758
2407 0 75.1131 12.5145 940 112.539 113.676 474.811
2408 0 79.1776 13.1098 1038 109.781 113.784 474.616
2409 0 82.1294 12.9552 1064 110.046 114.675 472.855
2410 0 85.147 14.1285 1203 107.579 114.691 470.792
2411 0 86.1326 13.6069 1172 109.878 114.09 468.47
2412 0 88.0931 12.5095 1102 112.678 113.966 465.682
2413 0 93.0768 13.6124 1267 109.045 114.238 467.455
2414 0 93.065 12.0883 1125 113.691 114.755 465.331
2415 0 98.1039 11.9873 1176 113.953 114.122 461.93
2416 1 53.0418 10.2749 545 113.679 114.185 486.96
2417 0 54.1142 11.8084 639 110.79 113.994 485.538
2418 0 56.0579 11.1313 624 112.237 113.482 486.718
2419 0 60.0452 12.757 766 109.008 114.029 485.813
2420 0 62.0352 13.2828 824 112.163 115.573 481.176
2421 0 63.0821 12.5392 791 112.638 115.617 481.402
2422 0 63.041 12.9122 814 113.082 115.772 479.826
2423 0 68.1583 13.0578 890 111.096 115.706 479.744
2424 0 69.0606 12.4818 862 113.056 115.66 478.536
2425 0 72.174 13.9524 1007 109.052 115.02 475.784
2426 0 75.0752 12.9737 974 111.281 114.934 478.436
2427 0 79.0768 14.3531 1135 108.113 115.789 474.912
2428 0 80.0885 14.3341 1148 109.503 115.519 474.132
2429 0 83.0957 12.9369 1075 112.789 115.474 470.656
2430 0 86.1342 14.1291 1217 110.207 115.739 470.671
2431 0 87.1416 14.1379 1232 110.649 116.188 469.523
2432 0 89.1369 14.0795 1255 113.117 115.67 468.897
2433 0 92.2901 14.9637 1381 110.967 115.137 467.331
2434 0 95.2628 13.6884 1304 114.213 115.034 465.387
2435 0 98.2667 13.7381 1350 114.137 114.365 465.193
2436 0 102.222 14.3414 1466 112.301 115.248 463.261
2437 0 105.184 14.8787 1565 111.313 114.717 460.969
2438 0 107.164 12.6535 1356 115.897 115.273 461.664
2439 1 61.0827 12.8842 787 116.004 114.404 483.765
2440 0 62.089 12.0472 748 112.662 114.715 478.365
2441 0 67.0563 13.0935 878 116.04 116.354 480.986
2442 0 69.0763 13.087 904 115.622 116.197 480.988
2443 0 72.063 13.5298 975 113.926 116.174 480.173
2444 0 72.047 12.0616 869 120.555 116.371 477.339
2445 0 75.1002 13.2357 994 118.525 115.555 476.912
2446 0 75.1071 12.5421 942 122.495 116.206 474.234
2447 0 78.1194 12.4681 974 121.561 116.204 475.657
2448 0 82.041 12.445 1021 123.358 115.206 473.169
2449 0 85.1154 14.5567 1239 118.697 115.068 471.995
2450 0 88.0707 12.8306 1130 123.765 116.079 471.373
2451 0 88.1418 12.0828 1065 127.006 115.296 469.951
2452 0 92.1893 14.0797 1298 122.15 115.223 469.208
2453 0 95.132 14.8425 1412 119.829 115.671 468.88
2454 0 96.0373 12.5056 1201 128.809 114.984 465.583
2455 0 101.137 14.1591 1432 123.696 115.477 466.767
2456 0 104.246 14.5233 1514 123.48 115.711 465.264
2457 0 106.376 13.7813 1466 126.592 115.945 461.542
2458 0 111.249 13.1686 1465 125.655 115.956 462.748
2459 0 112.277 12.6028 1415 130.849 115.343 459.166
2460 0 118.234 13.3549 1579 126.781 115.248 456.876
2461 0 121.275 13.4406 1630 120.291 115.166 457.485
2462 0 123.2 14.1559 1744 118.776 115.135 453.631
2463 0 128.204 13.0885 1678 119.628 115.203 448.341
2464 1 68.1086 13.0527 889 111.393 114.222 479.364
2465 0 69.146 12.6689 876 115.976 114.227 478.941
2466 0 73.1703 12.9561 948 112.461 114.019 477.225
2467 0 75.1627 12.453 936 113.502 114.753 476.391
2468 0 77.1329 12.822 989 113.734 114.22 473.637
2469 0 80.1307 12.9414 1037 113.955 114.373 472.92
2470 0 83.2645 12.106 1008 117.135 114.558 470.38
2471 0 86.2268 13.047 1125 115.598 114.552 471.434
2472 0 88.2791 13.2987 1174 113.612 114.492 471.268
2473 0 93.2076 13.7006 1277 113.006 115.085 468.579
2474 0 96.1448 13.9685 1343 114.088 114.875 466.085
2475 0 98.2437 13.6904 1345 115.828 114.595 465.188
2476 0 99.2334 13.8058 1370 117.551 115.168 461.933
2477 0 105.206 12.8986 1357 120.394 114.852 461.37
2478 0 108.23 14.0442 1520 117.805 115.097 460.353
2479 0 112.205 13.9209 1562 118.029 114.604 457.047
2480 0 114.151 13.9114 1588 119.406 115.314 454.751
2481 0 116.279 13.4762 1567 119.327 115.128 454.933
2482 0 124.415 13.2459 1648 118.567 115.004 448.401
2483 0 128.526 14.1605 1820 117.203 114.921 447.56
2484 0 131.568 12.5486 1651 121.611 114.994 444.577
2485 0 135.477 12.9985 1761 120.087 115.476 442.304
2486 1 75.3794 13.5581 1022 111.591 115.449 474.202
2487 0 78.3106 12.8974 1010 114.569 115.092 472.046
2488 0 79.2804 13.3324 1057 115.882 115.149 472.565
2489 0 83.1734 14.8004 1231 111.919 114.669 470.379
2490 0 84.3296 14.8584 1253 113.018 115.046 468.686
2491 0 87.2364 13.8016 1204 116.086 114.836 468.454
2492 0 89.1369 14.0682 1254 115.388 115.364 467.163
2493 0 92.0937 15.0607 1387 114.169 115.453 465.888
2494 0 94.1317 14.0017 1318 117.377 115.406 465.838
2495 0 97.1841 14.7349 1432 115.975 115.845 464.03
2496 0 99.2215 14.3013 1419 118.145 115.345 461.784
2497 0 101.204 14.7326 1491 117.783 115.42 460.78
2498 0 101.135 12.251 1239 124.626 115.535 461.759
2499 0 107.286 13.7297 1473 121.105 115.517 453.325
2500 0 107.229 13.5411 1452 122.477 115.991 454.253
2501 0 111.239 13.4485 1496 121.875 115.668 453.517
2502 0 116.174 12.9031 1499 122.407 115.634 449.805
2503 1 63.0444 11.246 709 118.79 114.626 479.032
2504 0 67.2672 13.6322 917 121.356 115.186 476.734
2505 0 69.2634 14.0478 973 120.929 114.87 475.109
2506 0 72.0517 14.7949 1066 116.155 113.963 476.42
2507 0 75.1136 15.6962 1179 114.507 114.526 474.422
2508 0 74.2457 12.7819 949 124.564 114.886 471.723
2509 0 80.1083 14.8299 1188 118.566 114.9 471.31
2510 0 81.2345 13.9596 1134 120.587 114.765 470.692
2511 0 84.1468 15.2353 1282 118.149 114.934 467.58
2512 0 87.1079 14.7403 1284 119.478 115.076 466.73
2513 0 89.0818 14.4025 1283 120.634 115.206 465.265
2514 0 91.2908 14.0978 1287 122.235 115.514 464.542
2515 0 93.156 13.4506 1253 124.108 116.121 457.912
2516 0 96.1641 14.808 1424 120.746 115.776 455.428
2517 0 97.1378 12.9404 1257 128.124 115.71 454.759
2518 0 104.178 14.84 1546 121.638 115.364 453.983
2519 0 106.244 13.196 1402 127.932 115.294 452.083
2520 0 108.348 13.5858 1472 127.325 114.893 451.096
2521 0 112.367 13.803 1551 127.32 115.396 448.989
2522 1 62.1874 12.0121 747 124.679 114.151 474.112
2523 0 64.1993 12.0406 773 125.006 115.556 472.655
2524 0 65.1934 14.0505 916 121.908 115.273 471.133
2525 0 71.1101 13.3314 948 125.81 115.56 475.03
2526 0 73.1422 13.9318 1019 123.86 115.741 474.789
2527 0 74.1997 13.3693 992 126.838 115.453 473.854
2528 0 76.0769 13.815 1051 125.271 115.111 473.441
2529 0 80.1235 15.0518 1206 120.333 115.699 473.285
2530 0 79.267 13.8645 1099 126.984 115.123 469.285
2531 0 83.1915 14.1962 1181 124.961 115.554 469.09
2532 0 85.2853 14.1408 1206 125.636 116.09 465.597
2533 0 89.2561 14.1839 1266 124.573 115.928 464.648
2534 0 90.3663 14.7179 1330 124.424 115.369 461.577
2535 0 94.2944 13.8714 1308 125.858 115.748 458.917
2536 0 95.2273 15.4052 1467 123.229 116.15 456.775
2537 0 100.162 14.6163 1464 124.478 115.749 454.962
2538 0 103.325 14.5656 1505 124.427 114.926 451.783
2539 0 106.205 14.8016 1572 122.91 115.648 452.223
2540 0 109.228 13.568 1482 126.673 115.534 446.569
2541 0 115.291 13.904 1603 124.283 115.606 446.102
2542 1 60.1011 11.6138 698 126.438 115.185 472.385
2543 0 60.1489 12.4026 746 124.135 116.342 473.13
2544 0 65.1578 14.3037 932 116.091 116.266 472.433
2545 0 67.1048 13.5609 910 115.711 116.997 470.364
2546 0 70.1631 14.9366 1048 111.477 116.975 469.493
2547 0 70.0453 14.6619 1027 113.856 115.668 466.619
2548 0 73.3197 13.6798 1003 115.698 116.237 466.354
2549 0 75.307 13.996 1054 115.199 116.487 464.446
2550 0 79.1398 13.255 1049 115.781 116.836 464.944
2551 0 80.1834 13.519 1084 116.476 116.14 462.469
2552 0 84.1438 13.7384 1156 115.319 116.112 461.951
2553 0 85.3154 13.2919 1134 117.48 116.115 461.609
2554 0 87.1816 12.5829 1097 119.821 116.677 460.41
2555 0 90.3386 12.3978 1120 120.959 116.812 457.046
2556 0 94.34 12.561 1185 121.052 116.5 455.122
2557 0 97.3372 14.1467 1377 116.085 117.054 455.569
2558 0 101.399 14.0238 1422 116.752 116.411 451.286
2559 0 103.273 12.9269 1335 119.724 116.397 450.635
2560 0 108.309 13.0737 1416 118.196 116.304 450.743
2561 1 60.1143 12.3099 740 119.689 116.57 472.564
2562 0 61.1401 12.1197 741 121.665 116.425 472.657
2563 0 62.1892 11.9474 743 122.762 115.7 473.622
2564 0 66.1436 12.9264 855 117.426 116.351 474.085
2565 0 68.3026 12.957 885 117.754 115.836 472.163
2566 0 69.1356 13.0902 905 117.649 116.583 471.283
2567 0 72.3178 13.8279 1000 115.125 117.087 470.657
2568 0 72.3351 12.4974 904 120.712 116.268 468.605
2569 0 75.4574 13.0007 981 119.377 116.245 467.396
2570 0 76.2703 12.1541 927 122.342 116.816 464.658
2571 0 81.3875 13.0487 1062 118.747 115.95 462.266
2572 0 84.3069 13.0713 1102 118.386 116.306 461.721
2573 0 84.2082 12.3147 1037 122.174 116.194 460.058
2574 0 89.359 13.0373 1165 119.468 116.124 457.838
2575 0 91.3158 12.8017 1169 119.496 115.743 459.2
2576 0 92.4447 12.3209 1139 120.802 115.57 453.047
2577 0 97.3823 14.0272 1366 115.029 116.359 453.566
2578 0 98.5131 12.6684 1248 118.814 115.975 452.793
2579 0 101.298 13.7613 1394 115.498 116.362 449.469
2580 0 107.27 13.5266 1451 114.525 115.9 448.436
2581 0 112.556 14.1885 1597 111.882 115.896 443.812
2582 0 118.378 13.3386 1579 112.208 115.495 443.64
2583 0 121.384 13.7415 1668 109.937 115.964 441.529
2584 1 67.1142 11.1452 748 114.091 115.467 465.34
2585 0 70.3017 12.5175 880 111.011 115.714 467.118
2586 0 71.288 12.8493 916 109.377 115.226 466.059
2587 0 74.2388 14.0223 1041 106.401 115.866 464.653
2588 0 75.3365 12.557 946 112.082 115.276 463.52
2589 0 77.1676 11.6759 901 112.555 115.501 461.496
2590 0 81.1782 13.341 1083 112.573 115.778 463.346
2591 0 83.4084 14.3391 1196 109.805 115.817 459.134
2592 0 83.2159 12.2573 1020 116.917 115.713 458.39
2593 0 88.1148 13.7321 1210 113.997 116.252 456.137
2594 0 90.209 12.8369 1158 116.823 115.582 456.092
2595 0 93.2956 13.4947 1259 116.006 115.911 452.08
2596 0 94.1952 12.835 1209 119.194 115.557 452.205
2597 0 98.2868 12.901 1268 118.345 116.394 452.238
2598 1 55.1841 9.80355 541 115.771 116.566 475.647
2599 0 58.1822 11.2577 655 110.983 116.224 475.148
2600 0 60.3248 12.7311 768 115.852 116.421 474.772
2601 0 62.1197 12.9267 803 115.943 117.804 478.741
2602 0 64.0981 13.0113 834 117.795 117.953 475.818
2603 0 66.0513 12.0512 796 121.095 117.506 476.293
2604 0 68.149 13.2504 903 118.091 117.532 473.724
2605 0 69.2284 13.6649 946 117.939 117.722 474.234
2606 0 73.0945 13.4894 986 118.506 117.711 471.931
2607 0 75.0642 14.5342 1091 116.378 117.349 472.531
2608 0 74.0769 13.27 983 122.688 117.27 470.568
2609 0 78.1123 14.5048 1133 119.192 117.618 469.147
2610 0 80.1093 14.7299 1180 119.108 117.9 466.234
2611 0 81.0629 13.2983 1078 123.737 116.802 466.199
2612 0 85.1385 13.5779 1156 123.247 116.971 463.601
2613 0 86.0946 14.7512 1270 119.102 117.205 460.32
2614 0 91.2087 13.4088 1223 121.433 116.948 457.286
2615 0 93.1977 13.6484 1272 121.102 116.488 454.623
2616 0 94.0608 14.1929 1335 121.151 116.418 453.228
2617 0 98.0741 14.4992 1422 120.281 117.082 450.632
2618 0 103.125 14.8946 1536 118.633 116.761 450.117
2619 0 104.124 14.2811 1487 120.906 116.666 448.288
2620 0 109.101 13.1805 1438 123.067 115.93 447.051
2621 0 114.063 15.0707 1719 116.874 116.226 445.916
2622 0 119.113 13.8943 1655 119.441 115.857 444.986
2623 1 69.1699 11.4501 792 118.431 114.845 473.316
2624 0 71.2332 11.9046 848 118.987 115.037 469.04
2625 0 74.1163 13.4923 1000 115.592 114.467 470.872
2626 0 76.0788 11.9744 911 117.895 113.578 471.26
2627 0 78.0932 12.2802 959 118.973 113.957 468.267
2628 0 82.0988 13.3132 1093 114.966 114.066 468.854
2629 0 82.2023 11.5325 948 120.544 113.02 466.07
2630 0 87.0789 12.7585 1111 116.437 113.477 465.408
2631 0 89.0894 12.0216 1071 119.049 113.487 460.778
2632 0 91.0961 12.4155 1131 117.575 114.012 461.117
2633 0 93.088 11.7416 1093 120.29 113.4 458.113
2634 0 96.1548 12.3135 1184 119.651 113.447 455.993
2635 0 100.133 12.2936 1231 118.965 113.383 457.414
2636 0 105.201 13.0513 1373 116.925 113.847 456.211
2637 0 108.118 13.6055 1471 114.831 113.871 460.198
2638 0 111.28 12.8504 1430 117.308 113.59 457.806
2639 0 113.206 13.0735 1480 116.537 114.156 454.462
2640 0 117.158 13.6824 1603 115.379 113.646 452.55
2641 0 121.327 13.5254 1641 116.038 113.509 452.396
2642 0 127.175 13.8078 1756 115.109 114.105 450.022
2643 0 129.367 13.5506 1753 116.953 114.41 448.53
2644 0 133.324 12.9459 1726 117.449 114.162 444.847
2645 0 139.248 13.458 1874 115.112 113.761 444.494
2646 1 80.09 13.0353 1044 115.303 113.881 473.216
2647 0 81.2097 13.1511 1068 115.448 113.716 473.935
2648 0 83.1736 13.5259 1125 117.33 114.593 469.354
2649 0 85.0905 12.2458 1042 121.363 114.42 469.75
2650 0 88.1388 13.5468 1194 118.567 114.39 466.923
2651 0 91.1228 13.4983 1230 119.371 114.183 465.28
2652 0 94.1984 13.376 1260 120.352 114.217 463.702
2653 0 96.122 13.9822 1344 121.1 114.19 461.611
2654 0 99.1959 13.0651 1296 123.545 113.471 462.879
2655 0 103.255 13.5297 1397 122.181 113.31 462.112
2656 0 105.137 13.9912 1471 122.203 113.437 457.175
2657 0 109.233 14.5377 1588 120.134 114.083 456.86
2658 0 110.144 13.8819 1529 122.423 114.848 453.99
2659 0 116.164 14.4623 1680 120.88 113.602 453.163
2660 0 119.114 13.1386 1565 118.565 112.832 456.769
2661 0 121.135 12.7874 1549 119.845 113.183 452.287
2662 1 65.1274 10.18 663 122.849 113.451 478.546
2663 0 68.1257 11.9338 813 118.518 114.108 475.173
2664 0 68.1383 11.5794 789 119.613 113.394 472.811
2665 0 72.1431 11.6851 843 119.164 113.413 479.527
2666 0 75.1708 12.5714 945 117.814 113.483 476.316
2667 0 77.1037 12.1914 940 117.735 113.839 476.494
2668 0 80.1861 12.1467 974 118.656 114.336 473.074
2669 0 84.2594 13.0431 1099 115.987 114.097 469.027
2670 0 86.3076 12.7683 1102 116.182 114.616 469.888
2671 0 89.2511 13.1427 1173 114.655 114.483 471.823
2672 0 94.4151 13.9596 1318 113.004 114.327 467.494
2673 0 96.4771 13.7027 1322 114.995 113.858 463.78
2674 0 97.4975 12.4003 1209 119.352 114.065 461.912
2675 0 100.433 14.6267 1469 113.154 114.466 463.103
2676 0 99.38 12.1352 1206 121.197 113.279 460.329
2677 0 105.176 13.7959 1451 116.032 113.341 461.154
2678 0 107.286 13.5712 1456 116.769 112.953 457.718
2679 0 112.156 13.3742 1500 112.919 113.187 456.893
2680 0 115.184 14.0558 1619 112.907 112.976 454.221
2681 0 119.102 13.14 1565 115.759 113.288 453.079
2682 0 123.219 14.3403 1767 113.398 113.393 453.683
2683 1 69.0639 11.0333 762 110.617 113.262 477.756
2684 0 67.169 10.0791 677 111.91 113.499 476.046
2685 0 72.111 11.9261 860 108.281 115.288 475.413
2686 0 76.1566 12.3167 938 107.043 115.403 476.042
2687 0 79.1688 12.3155 975 106.807 115.443 476.635
2688 0 81.1481 12.4094 1007 107.572 115.09 474.318
2689 0 84.0945 12.8784 1083 106.536 114.915 474.083
2690 0 85.124 12.1705 1036 108.571 115.33 473.059
2691 0 87.1498 12.8285 1118 109.061 114.911 467.763
2692 0 93.1508 13.7197 1278 105.767 115.116 469.212
2693 0 92.1037 12.9094 1189 110.119 115.063 468.111
2694 0 94.2022 12.3883 1167 112.694 114.551 465.512
2695 0 98.1706 13.9349 1368 108.77 114.55 467.717
2696 0 99.319 12.6562 1257 112.842 114.615 465.531
2697 0 105.165 12.7989 1346 112.37 114.32 465.316
2698 0 105.119 13.6226 1432 113.733 114.751 460.522
2699 0 111.198 13.8492 1540 111.74 115.343 459.401
2700 0 113.26 12.6169 1429 115.68 114.556 456.71
2701 1 63.0774 11.6999 738 115.297 114.646 484.28
2702 0 68.0859 13.483 918 110.346 113.697 480.249
2703 0 70.1088 14.2635 1000 106.99 113.388 479.566
2704 0 73.0655 12.9747 948 111.059 113.34 478.428
2705 0 75.0409 13.979 1049 107.715 113.942 476.493
2706 0 77.1468 13.1567 1015 110.26 114.08 474.9
2707 0 79.0818 12.7716 1010 111.803 113.745 471.771
2708 0 83.1034 13.5975 1130 108.415 114.017 474.608
2709 0 83.1441 13.7833 1146 110.552 113.587 473.795
2710 0 86.1771 13.5767 1170 111.564 113.285 471.503
2711 0 88.1503 13.0459 1150 113.711 113.662 469.85
2712 0 92.1516 13.2825 1224 114.116 113.236 465.172
2713 0 93.2236 13.7841 1285 114.198 113.737 464.095
2714 0 96.1593 13.3424 1283 115.113 113.665 463.443
2715 0 100.156 12.88 1290 117.663 113.936 460.627
2716 0 102.209 13.8442 1415 116.44 113.064 463.772
2717 0 104.413 13.6286 1423 117.613 113.903 461.291
2718 0 108.209 14.0007 1515 117.565 113.831 460.325
2719 0 109.231 12.9633 1416 122.15 113.746 459.094
2720 0 112.418 13.2186 1486 121.881 113.978 456.332
2721 0 114.256 12.9709 1482 123.296 114.325 456.165
2722 0 119.27 13.0041 1551 123.239 114.146 451.992
2723 0 125.134 13.7853 1725 120.144 113.7 451.977
2724 0 129.345 13.3287 1724 121.404 114.339 452.45
2725 0 131.138 12.9558 1699 123.036 114.448 450.354
2726 1 73.0146 12.4496 909 120.152 114.675 479.505
2727 0 74.1054 12.4687 924 120.121 115.471 475.9
2728 0 78.1336 14.4368 1128 114.073 116.523 469.513
2729 0 81.117 13.3757 1085 115.448 115.868 473.074
2730 0 83.0684 13.218 1098 117.71 115.93 469.992
2731 0 84.1522 13.5231 1138 118.126 116.377 469.33
2732 0 89.1261 14.5188 1294 114.27 116.599 469.321
2733 0 91.1566 14.4477 1317 116.466 116.155 467.455
2734 0 92.1116 13.5379 1247 119.841 116.246 468.12
2735 0 95.0907 13.0086 1237 122.357 116.101 464.343
2736 0 96.2691 13.805 1329 123.313 115.85 464.384
2737 0 100.153 14.5478 1457 121.562 115.032 462.907
2738 0 101.108 13.728 1388 127.209 114.852 462.033
2739 0 104.115 13.6676 1423 128.214 115.096 462.241
2740 0 107.21 14.4669 1551 127.339 115.632 460.798
2741 0 111.277 14.1539 1575 128.498 115.593 461.264
2742 0 113.21 13.444 1522 131.162 114.988 458.826
2743 0 116.164 13.765 1599 130.617 115.056 455.62
2744 0 121.113 13.0869 1585 132.641 115.114 452.893
2745 0 124.186 13.1416 1632 133.898 115.423 449.316
2746 0 129.271 13.3286 1723 133.444 115.413 442.907
2747 0 134.336 14.0618 1889 130.337 115.808 442.02
2748 1 74.1748 11.9178 884 131.752 115.994 474.471
2749 0 77.2431 12.1953 942 131.763 115.423 473.057
2750 0 79.1806 13.6144 1078 128.712 115.816 468.671
2751 0 82.1936 13.1397 1080 129.636 115.69 469.71
2752 0 86.2236 13.5926 1172 128.098 116.067 468.218
2753 0 88.2452 13.8138 1219 127.317 115.651 466.879
2754 0 89.2735 13.5987 1214 128.61 115.386 464.896
2755 0 93.2449 13.8238 1289 124.936 115.593 463.414
2756 0 97.1115 13.9324 1353 125.664 115.279 461.337
2757 0 99.1466 14.181 1406 126.622 115.725 460.064
2758 0 102.25 14.2396 1456 126.422 115.66 458.532
2759 0 104.113 14.9453 1556 125.339 115.88 458.528
2760 0 106.227 14.4125 1531 128.118 115.241 456.392
2761 0 108.192 13.208 1429 132.495 115.411 457.09
2762 0 111.519 13.4416 1499 131.901 116.309 455.354
2763 0 114.265 13.4775 1540 132.894 116.192 453.871
2764 0 119.18 13.5342 1613 131.56 115.719 454.935
2765 0 126.264 14.0579 1775 130.086 115.304 450.065
2766 0 131.223 14.9364 1960 127.505 115.724 449.164
2767 1 78.2207 12.5287 980 128.452 116.082 475.547
2768 0 79.3272 12.253 972 129.141 115.985 474.307
2769 0 83.1843 12.5384 1043 128.563 115.54 463.104
2770 0 84.2862 12.3152 1038 128.961 116.3 459.895
2771 0 88.1973 13.5605 1196 125.25 115.979 457.666
2772 0 93.147 13.731 1279 124.941 115.946 456.457
2773 0 94.1203 14.6196 1376 123.047 115.695 456.305
2774 0 98.0727 14.5912 1431 123.641 115.533 454.44
2775 0 98.191 13.4025 1316 128.459 115.588 455.018
2776 0 102.119 13.592 1388 127.081 115.565 455.108
2777 0 105.18 14.5655 1532 119.848 114.807 458.094
2778 0 106.167 12.9607 1376 124.221 114.784 458.19
2779 0 110.242 13.2981 1466 122.638 114.853 458.538
2780 0 113.332 13.059 1480 123.576 114.845 455.691
2781 0 119.375 15.087 1801 120.33 114.406 452.741
2782 0 123.28 14.4225 1778 120.664 115.218 450.551
2783 0 126.226 13.7769 1739 122.979 115.439 448.778
2784 1 73.3022 12.9464 949 119.606 115.055 479.43
2785 0 74.397 12.2182 909 123.66 115.492 476.68
2786 0 78.5569 13.3406 1048 123.334 115.064 473.551
2787 0 81.3536 12.7222 1035 123.815 115.508 472.917
2788 0 86.1099 13.6337 1174 125.115 115.32 472.484
2789 0 88.2149 13.5011 1191 126.955 115.257 469.699
2790 0 91.2174 14.1092 1287 126.016 115.213 466.204
2791 0 91.3232 12.3627 1129 131.92 114.744 462.437
2792 0 96.3385 14.1169 1360 127.099 114.546 461.875
2793 0 99.1667 13.3815 1327 128.732 114.837 460.251
2794 0 104.388 13.8426 1445 126.216 114.162 458.745
2795 0 107.342 13.7411 1475 127.704 114.317 458.487
2796 0 109.173 13.4649 1470 129.221 113.949 455.168
2797 0 112.234 14.3629 1612 127.38 114.599 452.709
2798 0 115.171 14.1355 1628 128.808 114.578 451.551
2799 0 119.171 14.2988 1704 127.93 114.678 451.506
2800 0 123.161 14.7368 1815 126.34 114.434 449.453
2801 0 129.375 14.9102 1929 124.587 114.092 446.233
2802 1 72.2227 11.8384 855 122.048 114.621 476.215
2803 0 76.2048 12.1515 926 121.17 114.841 475.376
2804 0 77.1829 12.7101 981 123.029 114.515 472.253
2805 0 78.2149 11.6218 909 126.395 114.451 472.582
2806 0 84.1418 12.7404 1072 124.278 114.716 469.167
2807 0 87.162 13.0103 1134 122.392 114.518 468.242
2808 0 89.0831 12.6399 1126 122.448 114.639 468.685
2809 0 93.1642 12.4189 1157 122.981 114.557 465.678
2810 0 96.2237 13.718 1320 120.452 114.62 465.052
2811 0 100.186 13.8643 1389 120.12 114.745 464.055
2812 0 100.097 13.367 1338 123.072 114.904 461.072
2813 0 105.114 14.0134 1473 120.538 114.9 461.999
2814 0 108.158 14.2847 1545 120.717 114.24 457.964
2815 0 109.17 13.2545 1447 125.218 114.39 455.294
2816 0 115.249 14.4643 1667 120.281 114.214 454.706
2817 0 119.274 14.9152 1779 119.527 114.298 452.81
2818 0 124.206 14.5001 1801 120.147 113.736 451.336
2819 0 127.235 14.0842 1792 120.8 114.497 450.434
2820 0 132.311 14.9118 1973 119.324 114.737 446.69
2821 0 134.251 13.9664 1875 122.78 114.214 443.202
2822 0 141.282 14.3826 2032 122.108 113.978 440.701
2823 1 78.1705 11.0016 860 119.997 114.188 473.669
2824 0 81.1098 13.3399 1082 114.75 113.657 471.933
2825 0 84.2227 13.7018 1154 112.944 114.487 469.885
2826 0 85.3112 12.6126 1076 115.901 114.31 469.45
2827 0 90.3834 13.0666 1181 113.007 114.207 468.502
2828 0 93.2014 12.6286 1177 113.958 114.001 465.918
2829 0 95.3023 12.6755 1208 114.363 114.101 465.291
2830 0 99.1674 12.9478 1284 114.741 114.287 462.179
2831 0 101.223 13.3073 1347 114.508 113.945 461.011
2832 0 104.268 12.113 1263 119.233 113.784 457.36
2833 0 109.535 13.3108 1458 116.634 113.879 456.743
2834 0 111.278 12.9586 1442 119.929 114.091 454.383
2835 0 118.283 13.5945 1608 116.56 113.999 454.97
2836 0 122.387 13.4328 1644 118.328 114.434 453.805
2837 0 124.331 13.6973 1703 118.301 114.412 450.773
2838 0 129.336 14.0564 1818 115.904 113.54 446.026
2839 0 133.235 13.9753 1862 117.258 114.174 441.789
2840 0 136.33 13.24 1805 119.34 113.258 440.049
2841 0 142.232 13.5623 1929 117.454 113.461 441.879
2842 0 146.282 12.7356 1863 119.638 113.552 441.82
2843 1 84.2738 12.2339 1031 113.873 114.351 471.423
2844 0 84.2273 11.6352 980 116.632 115.11 470.297
2845 0 88.1988 12.6532 1116 113.943 115.28 469.108
2846 0 92.3007 11.625 1073 116.384 114.867 468.695
2847 0 93.1761 12.2993 1146 116.901 114.561 466.731
2848 0 95.1793 12.2716 1168 118.038 114.714 465.36
2849 0 98.258 12.5486 1233 118.067 114.598 464.187
2850 0 102.282 13.3357 1364 116.459 115.056 462.073
2851 0 107.312 12.3658 1327 117.296 114.712 462.751
2852 0 109.224 12.1859 1331 119.657 114.944 457.983
2853 0 112.224 12.5731 1411 118.298 115.284 458.312
2854 0 116.236 12.5263 1456 119.127 115.685 454.096
2855 0 120.245 13.6388 1640 116.876 115.685 452.907
2856 0 124.249 12.8854 1601 118.391 115.47 450.144
2857 0 127.217 12.459 1585 121.833 115.199 446.42
2858 0 132.184 12.649 1672 120.88 114.895 445.094
2859 0 139.215 13.8706 1931 117.952 114.342 444.105
2860 0 141.33 12.8281 1813 121.769 114.817 442.548
2861 0 148.451 12.9942 1929 119.946 113.634 440.875
2862 0 153.369 13.0926 2008 120.575 113.805 433.911
2863 0 160.276 13.5891 2178 119.849 114.136 428.281
2864 1 89.1761 12.0212 1072 112.764 114.924 462.304
2865 0 91.1574 11.4747 1046 113.435 113.27 466.365
2866 0 95.1888 12.6591 1205 111.643 113.144 463.117
2867 0 98.1739 11.6324 1142 114.933 113.705 462.024
2868 0 101.16 13.5033 1366 111.398 113.65 459.847
2869 0 101.169 13.4725 1363 147.602 113.651 459.972
2870 0 107.277 12.3419 1324 114.397 113.44 459.797
2871 0 110.162 12.6995 1399 114.419 113.308 457.801
2872 0 113.404 12.0542 1367 117.1 113.411 454.146
2873 0 117.508 12.8927 1515 114.874 113.683 453.789
2874 0 119.566 13.549 1620 114.715 113.091 451.198
2875 0 124.264 12.9804 1613 116.127 113.376 450.308
2876 0 129.304 13.7196 1774 116.617 113.598 449.34
2877 0 130.337 11.946 1557 121.745 113.739 448.43
2878 0 136.335 13.1514 1793 119.211 113.372 445.381
2879 0 140.394 13.2769 1864 119.256 113.124 442.911
2880 0 143.223 13.9154 1993 120.303 113.819 439.096
2881 0 148.171 13.9838 2072 120.974 113.236 440.32
2882 0 152.347 13.5349 2062 123.473 113.655 436.277
2883 0 156.305 12.6483 1977 125.922 113.814 435.732
2884 0 165.353 15.9295 2634 117.408 113.877 432.111
2885 0 168.515 13.8267 2330 123.939 113.736 429.33
2886 0 172.345 13.9256 2400 124.688 114.522 423.559
2887 0 179.576 14.6623 2633 122.764 114.185 423.609
2888 0 183.326 14.0897 2583 125.202 114.237 418.676
2889 0 190.441 15.2436 2903 122.302 114.026 411.85
2890 0 192.576 14.1866 2732 126.906 113.683 410.284
2891 0 200.579 14.6625 2941 125.112 113.401 407.021
2892 0 205.508 13.7367 2823 127.648 114.375 407.473
2893 0 213.426 15.0028 3202 124.171 113.917 400.268
2894 0 218.597 14.1127 3085 127.768 114.44 398.499
2895 0 226.489 14.8352 3360 125.304 114.243 398.818
2896 0 230.51 13.2012 3043 130.71 114.408 392.833
2897 0 240.503 13.9291 3350 128.241 114.722 389.81
2898 1 57.1468 10.1143 578 115.254 116.471 481.971
2899 0 58.0721 10.8314 629 114.847 115.987 481.029
2900 0 61.3088 11.4992 705 110.875 116.36 474.858
2901 0 62.4954 11.5689 723 111.864 115.744 473.858
2902 0 63.2463 10.5461 667 116.12 115.118 473.871
2903 0 64.1174 10.8551 696 115.657 115.503 475.399
2904 0 67.3772 11.4579 772 113.731 114.478 474.063
2905 0 70.4082 10.6948 753 115.023 114.789 474.376
2906 0 70.1408 11.2631 790 109.478 114.532 477.418
2907 0 71.2007 10.5898 754 110.568 115.106 477.092
2908 0 76.3695 10.5932 809 110.244 114.384 475.404
2909 0 78.0796 10.5277 822 109.99 115.085 473.674
2910 0 78.1035 10.1276 791 111.296 116.201 469.656
2911 0 81.1336 11.1175 902 108.833 116.198 470.94
2912 0 81.0552 10.7581 872 111.538 116.017 466.539
2913 0 86.2281 11.7363 1012 108.37 116.041 465.894
2914 0 87.1995 10.5276 918 111.346 115.975 463.647
2915 0 92.2303 12.3712 1141 106.291 114.996 457.441
2916 0 95.1899 10.4738 997 110.877 115.987 459.623
2917 0 101.093 11.9197 1205 106.402 114.868 451.287
2918 0 101.19 11.5328 1167 109.645 115.467 453.248
2919 0 102.191 9.9813 1020 113.469 115.102 455.945
2920 0 110.261 13.2504 1461 104.535 114.257 440.865
2921 0 113.217 10.1752 1152 112.615 115.382 435.343
2922 0 114.273 11 1257 111.056 114.635 446.694
2923 0 115.557 11.4835 1327 116.112 114.383 451.927
2924 1 78.14 16.432 1284 95.5327 116.403 468.083
2925 0 81.2499 15.2862 1242 98.814 116.229 468.338
2926 0 81.212 15.872 1289 99.3421 116.099 468.678
2927 0 81.268 16.0457 1304 100.416 115.946 467.109
2928 0 78.3286 12.6263 989 112.824 115.223 463.976
2929 0 77.3063 12.9356 1000 113.414 115.045 465.231
2930 0 79.2456 12.5811 997 114.778 115.255 465.845
2931 0 85.289 12.6042 1075 113.817 115.043 462.619
2932 0 84.2291 12.7153 1071 114.348 115.122 462.479
2933 0 86.3832 13.2202 1142 114.327 114.989 459.17
2934 0 88.3545 12.2574 1083 116.64 115.045 460.758
2935 0 91.2379 12.8127 1169 115.492 115.452 458.834
2936 0 97.2312 13.977 1359 112.608 114.885 457.043
2937 0 98.343 13.0258 1281 115.402 115.07 454.598
2938 0 98.4267 12.5576 1236 117.083 114.968 453.747
2939 0 104.354 14.0579 1467 112.385 114.964 454.292
2940 0 108.236 13.4705 1458 113.449 114.736 453.142
2941 0 110.356 12.949 1429 115.65 114.817 451.222
2942 0 116.201 12.8398 1492 114.729 113.845 449.531
2943 0 119.407 13.073 1561 114.183 114.456 447.389
2944 1 70.2236 11.4349 803 114.72 114.721 469.415
2945 0 73.0623 13.7006 1001 105.572 114.718 470.018
2946 0 75.1129 13.4731 1012 106.252 115.032 468.771
2947 0 79.1141 13.9925 1107 104.055 114.82 467.48
2948 0 80.1113 13.1817 1056 107.095 114.366 466.034
2949 0 83.2076 12.7993 1065 107.882 114.38 465.111
2950 0 83.2782 13.0406 1086 108.418 114.478 461.48
2951 0 86.185 13.6799 1179 106.541 114.272 461.096
2952 0 91.3504 13.3004 1215 106.903 113.333 459.216
2953 0 91.3285 13.227 1208 108.211 114.407 457.531
2954 0 96.3873 13.4561 1297 107.418 114.168 457.883
2955 0 99.2331 13.9167 1381 105.777 114.539 456.342
2956 0 101.142 13.3773 1353 107.425 114.076 454.961
2957 0 103.212 13.1864 1361 108.576 114.65 452.326
2958 0 104.252 13.381 1395 109.858 113.855 451.139
2959 0 110.208 13.7649 1517 108.531 113.884 449.614
2960 0 112.258 13.8253 1552 109.199 113.852 446.952
2961 0 117.29 13.4965 1583 108.81 113.486 446.297
2962 1 61.1493 10.5807 647 112.179 114.198 471.44
2963 0 66.1308 12.3543 817 107.43 113.45 472.323
2964 0 68.3472 13.0656 893 104.193 112.647 476.733
2965 0 70.2467 12.4561 875 105.794 112.608 471.614
2966 0 72.2128 14.0003 1011 102.342 112.463 473.784
2967 0 73.1005 12.7496 932 105.688 112.381 472.984
2968 0 74.2368 12.3119 914 107.871 113.352 475.421
2969 0 77.2498 13.1651 1017 106.78 112.951 469.857
2970 0 80.2344 12.8623 1032 107.024 112.976 470.964
2971 0 80.2829 12.593 1011 109.987 113.758 468.467
2972 0 83.1909 13.6193 1133 106.943 114.072 468.728
2973 0 87.3249 12.7455 1113 109.009 113.619 468.194
2974 0 89.1845 12.3003 1097 110.76 112.975 468.567
2975 0 91.176 13.1614 1200 110.48 113.038 465.668
2976 0 94.275 13.3439 1258 111.242 113.272 464.268
2977 0 95.2422 12.463 1187 114.917 112.992 463.554
2978 0 99.22 13.2131 1311 112.942 113.968 464.154
2979 0 102.388 13.1851 1350 113.795 113.88 462.473
2980 0 105.349 13.46 1418 114.554 113.906 459.616
2981 0 110.273 13.3758 1475 114.551 113.824 458.247
2982 0 114.219 15.0938 1724 110.745 113.659 457.77
2983 0 117.28 12.8923 1512 118.125 113.803 455.095
2984 0 123.274 14.1879 1749 114.224 113.351 454.65
2985 0 123.27 13.296 1639 118.216 113.677 452.253
2986 0 129.129 14.7062 1899 114.97 113.506 452.021
2987 0 134.279 14.2837 1918 117.367 113.543 447.183
2988 0 139.177 13.9966 1948 118.149 112.993 446.076
2989 0 142.176 13.4481 1912 120.811 112.237 438.38
2990 1 78.1681 10.4902 820 124.524 113.932 473.106
2991 0 82.0705 12.8061 1051 118.957 114.253 473.473
2992 0 85.0899 12.3281 1049 120.351 112.684 471.142
2993 0 89.2358 13.1786 1176 117.88 112.924 470.123
2994 0 92.2025 13.709 1264 116.081 113.263 468.866
2995 0 93.2428 12.9233 1205 118.588 113.061 468.436
2996 0 97.3438 12.348 1202 120.92 113.283 462.968
2997 0 100.346 13.1047 1315 118.501 113.704 462.422
2998 0 105.682 14.0327 1483 115.465 113.966 456.743
2999 0 108.566 13.7705 1495 115.686 113.326 457.11
3000 0 111.539 13.0896 1460 116.384 113.482 453.83
3001 0 114.536 12.7121 1456 117.206 113.177 452.696
3002 0 119.589 14.6585 1753 111.331 113.279 452.607
3003 0 124.502 14.578 1815 111.32 113.548 449.382
3004 0 127.506 13.9288 1776 113.536 113.448 447.506
3005 0 132.376 13.4314 1778 114.433 113.687 445.406
3006 0 135.486 14.0014 1897 113.788 113.22 442.287
3007 0 140.653 13.3164 1873 114.885 113.282 438.101
3008 0 146.549 13.2447 1941 114.823 112.923 437.669
3009 0 150.328 13.7366 2065 113.868 112.945 436.309
3010 0 154.685 11.7852 1823 118.749 113.344 435.783
3011 0 159.564 13.3175 2125 116.538 112.827 432.749
3012 0 163.654 12.282 2010 120.032 112.784 429.968
3013 0 170.528 13.3937 2284 118.02 112.535 427.229
3014 0 176.447 13.8342 2441 118.479 112.838 422.449
3015 0 182.527 13.4007 2446 119.33 113.19 421.424
3016 0 187.511 14.7084 2758 116.787 113.754 419.743
3017 0 192.671 12.7316 2453 122.61 113.566 418.408
3018 0 199.593 13.6628 2727 121.484 113.206 412.301
3019 0 205.561 12.5753 2585 125.988 114.007 410.397
3020 0 211.417 12.1702 2573 127.402 113.058 409.939
3021 0 216.525 12.9685 2808 126.908 113.017 403.749
3022 0 224.638 13.297 2987 125.926 112.904 401.064
3023 0 234.702 13.5789 3187 125.82 113.301 396.768
3024 0 242.372 14.3251 3472 125.448 113.355 396.505
3025 0 251.536 13.4891 3393 127.847 113.085 387.649
3026 0 258.479 14.1443 3656 126.491 112.957 382.755
3027 0 259.725 12.8405 3335 129.559 113.528 387.639
3028 0 259.657 12.0467 3128 132.409 113.926 391.186
3029 1 61.3226 11.4477 702 120.298 114.123 483.248
3030 0 65.1081 12.0108 782 117.543 113.664 483.671
3031 0 68.1502 12.2964 838 114.908 113.896 481.943
3032 0 70.1568 12.8427 901 113.432 114.027 482.967
3033 0 71.1213 12.556 893 116.279 113.607 481.518
3034 0 72.1548 12.0158 867 119.63 113.78 479.544
3035 0 74.3916 12.9853 966 118.305 113.665 477.742
3036 0 77.5601 13.1253 1018 118.912 114.256 474.877
3037 0 78.3737 12.5552 984 121.326 114.593 473.119
3038 0 81.6429 13.2161 1079 119.444 114.036 472.858
3039 0 85.4324 13.379 1143 119.019 114.27 471.815
3040 0 87.6386 13.0764 1146 121.288 114.571 470.219
3041 0 89.6467 12.17 1091 124.797 114.953 467.793
3042 0 93.51 14.3728 1344 118.423 114.527 467.348
3043 0 94.647 13.2281 1252 121.915 115.112 465.16
3044 0 97.4948 14.4418 1408 118.798 115.317 463.601
3045 0 101.529 13.858 1407 120.204 115.131 462.537
3046 0 102.502 12.9266 1325 116.906 114.902 461.722
3047 0 106.337 13.1187 1395 120.781 114.252 461.011
3048 0 108.32 13.6447 1478 124.15 114.516 460.892
3049 0 108.643 13.549 1472 111.213 114.391 458.243
3050 0 116.244 17.601 2046 103.863 115.193 450.042
3051 0 119.588 17.301 2069 110.381 115.124 449.913
3052 1 60.1951 10.5989 638 130.403 114.42 481.418
3053 0 62.2696 10.9042 679 130.479 113.975 481.146
3054 0 65.3538 11.3536 742 126.531 114.307 482.59
3055 0 65.4798 12.355 809 124.444 114.854 480.578
3056 0 69.5074 13.0058 904 120.192 115.408 478.709
3057 0 71.6583 13.2574 950 118.94 115.605 475.992
3058 0 74.3643 10.9999 818 122.337 115.134 476.989
3059 0 76.6065 12.2574 939 118.017 115.587 475.527
3060 0 78.4072 12.0907 948 117.499 115.47 473.115
3061 0 78.4384 11.3465 890 119.394 115.08 472.287
3062 0 82.5465 12.3809 1022 116.705 114.989 469.609
3063 0 85.6085 12.6623 1084 116.24 115.057 469.179
3064 0 88.5346 12.6278 1118 115.899 115.055 469.275
3065 0 91.4656 13.2509 1212 114.5 115.382 468.573
3066 0 93.3424 13.6701 1276 114.528 115.061 466.869
3067 0 96.6544 13.6466 1319 115.915 114.666 463.164
3068 0 99.3509 13.4775 1339 116.938 115.152 463.276
3069 0 103.54 13.7725 1426 115.865 114.365 462.964
3070 0 108.592 14.5223 1577 114.36 115.205 460.268
3071 0 108.544 13.4784 1463 118.992 115.223 458.048
3072 1 61.2714 12.0937 741 117.974 115.293 483.444
3073 0 62.3681 12.1056 755 121.621 114.641 481.299
3074 0 62.5322 12.6335 790 123.97 114.315 479.247
3075 0 65.4788 12.8897 844 123.983 114.325 478.166
3076 0 67.3698 13.181 888 123.744 114.154 478.062
3077 0 68.4966 13.3583 915 124.63 115.114 476.654
3078 0 71.5906 14.4432 1034 121.707 114.603 476.184
3079 0 73.4492 14.6224 1074 122.855 114.199 475.168
3080 0 74.4261 13.5705 1010 127.386 114.382 472.843
3081 0 75.4911 13.8957 1049 128.591 114.705 472.086
3082 0 79.552 14.3303 1140 126.959 114.339 473.088
3083 0 82.4439 14.4826 1194 127.889 114.714 471.156
3084 0 83.5581 14.0262 1172 130.797 115.116 471.338
3085 0 86.521 12.9102 1117 134.517 114.623 471.304
3086 0 87.4552 13.3897 1171 135.914 114.606 469.018
3087 0 91.5819 13.6271 1248 134.892 114.572 468.075
3088 0 91.4682 13.819 1264 136.643 114.195 466.267
3089 0 97.4328 14.8615 1448 132.752 114.602 464.07
3090 0 98.4641 14.5129 1429 135.98 114.647 462.14
3091 0 102.537 14.941 1532 132.926 114.22 462.456
3092 0 104.744 13.3469 1398 138.931 114.194 461.68
3093 0 107.567 14.1773 1525 138.972 115.005 459.015
3094 0 110.473 14.456 1597 138.003 114.208 459.315
3095 0 114.383 13.7346 1571 140.575 114.12 456.221
3096 0 118.298 14.8607 1758 136.111 114.713 455.986
3097 0 120.321 14.3532 1727 138.04 114.785 451.828
3098 1 69.2634 13.0083 901 138.307 115.115 476.896
3099 0 71.2616 13.8925 990 135.946 115.025 474.038
3100 0 75.3408 13.857 1044 134.321 114.933 474.074
3101 0 77.4139 12.9047 999 135.957 115.254 475.403
3102 0 79.3273 14.0935 1118 133.869 114.947 470.591
3103 0 80.3478 13.8398 1112 134.893 114.285 470.675
3104 0 83.403 13.6326 1137 134.85 114.418 471.529
3105 0 85.5191 13.2602 1134 136.981 114.705 467.471
3106 0 89.4191 14.7284 1317 132.383 115.056 466.52
3107 0 93.4556 13.6963 1280 135.173 115.391 466.196
3108 0 96.3986 15.4878 1493 130.321 115.432 464.25
3109 0 99.3128 13.7344 1364 134.832 115.787 463.783
3110 0 102.379 14.4366 1478 133.541 115.803 460.574
3111 0 105.373 15.1178 1593 130.459 115.841 460.866
3112 0 108.386 14.5222 1574 132.732 115.094 458.918
3113 0 112.409 15.5059 1743 130.103 115.294 455.773
3114 0 116.524 14.8553 1731 131.861 115.824 454.553
3115 1 60.379 13.1668 795 137.331 114.62 480.845
3116 0 63.5911 14.0271 892 138.398 115.372 479.422
3117 0 67.3601 14.8456 1000 135.403 115.426 477.904
3118 0 69.3568 15.6437 1085 133.405 115.312 476.399
3119 0 71.4396 15.4956 1107 133.629 114.625 474.832
3120 0 73.5191 14.6765 1079 136.382 115.035 474.077
3121 0 76.4319 15.2423 1165 134.381 115.347 471.054
3122 0 78.4687 14.7447 1157 136.048 115.047 471.138
3123 0 80.4157 14.5991 1174 136.318 115.807 471.156
3124 0 83.5194 15.218 1271 134.895 115.732 470.592
3125 0 86.6814 14.859 1288 136.078 115.659 467.697
3126 0 90.7208 15.9831 1450 132.589 115.621 466.423
3127 0 91.5115 15.9434 1459 134.331 115.809 465.191
3128 0 94.5885 15.7736 1492 135.492 115.995 464.557
3129 0 97.4106 15.3166 1492 138.259 115.772 461.287
3130 0 99.5441 15.3299 1526 139.837 115.879 460.306
3131 0 103.496 15.6528 1620 139.019 115.817 457.756
3132 0 106.719 16.595 1771 136.055 116.185 456.468
3133 0 111.617 16.5746 1850 135.206 115.472 455.966
3134 0 114.629 16.5404 1896 135.58 116.072 453.12
3135 0 117.833 16.5658 1952 135.1 115.711 453.626
3136 0 122.71 17.1869 2109 133.092 115.873 449.753
3137 0 127.895 17.1626 2195 132.441 114.94 447.959
3138 0 132.612 16.7254 2218 131.24 115.906 446.848
3139 0 135.715 15.8936 2157 133.113 115.231 443.935
3140 0 141.483 16.5956 2348 129.96 115.981 444.128
3141 0 145.785 16.0991 2347 130.881 115.285 442.12
3142 1 76.7226 14.9891 1150 142.587 115.46 473.676
3143 0 79.0777 15.6176 1235 140.49 115.572 472.036
3144 0 81.7231 15.4302 1261 141.207 115.87 470.362
3145 0 84.5732 16.0334 1356 139.405 116.293 469.273
3146 0 87.3264 16.2036 1415 140.16 115.654 466.29
3147 0 91.8124 16.2178 1489 139.173 115.948 465.029
3148 0 93.6154 16.6532 1559 139.209 115.521 464.557
3149 0 96.508 15.7189 1517 141.38 115.931 464.046
3150 0 97.5573 14.7503 1439 146.436 115.971 462.24
3151 0 100.667 16.0728 1618 141.745 115.831 461.506
3152 0 105.739 17.25 1824 136.661 116.411 458.891
3153 0 108.636 16.0721 1746 140.559 115.569 457.727
3154 0 113.611 16.4156 1865 139.241 115.529 454.761
3155 0 116.959 15.8175 1850 141.236 115.481 454.125
3156 0 120.573 15.8991 1917 141.42 115.266 450.907
3157 0 126.602 15.3158 1939 143.201 115.237 450.189
3158 0 130.511 16.1443 2107 141.108 115.164 446.724
3159 0 136.642 16.4225 2244 138.583 115.33 445.479
3160 0 140.428 16.0722 2257 141.19 114.627 442.094
3161 0 140.712 16.0541 2259 146.947 114.889 442.039
3162 0 146.805 16.2938 2392 144.857 114.432 439.702
3163 1 63.4544 13.6161 864 160.282 115.487 479.427
3164 0 65.4033 14.2653 933 159.941 115.202 477.726
3165 0 69.4607 14.3678 998 158.534 115.431 476.685
3166 0 70.0169 14.725 1031 160.894 115.674 477.085
3167 0 68.7448 13.7319 944 168.423 114.917 476.805
3168 0 70.4074 15.4671 1089 160.971 115.032 475.87
3169 0 70.3657 15.2631 1074 162.137 115.701 475.421
3170 0 72.5222 16.1882 1174 158.408 115.148 475.216
3171 0 72.5183 16.7544 1215 159.119 115.073 474.38
3172 0 72.3531 16.1707 1170 163.609 114.408 474.157
3173 0 73.2553 15.9442 1168 165.626 114.929 474.381
3174 0 71.271 16.1496 1151 167.93 114.953 474.282
3175 0 72.4432 16.827 1219 165.45 115.449 475.372
3176 0 69.4384 15.7406 1093 175.108 115.276 475.369
3177 0 69.3824 14.9173 1035 179.093 114.319 475.123
3178 0 70.4266 14.611 1029 178.788 114.512 475.746
3179 0 71.2519 15.1996 1083 176.523 114.889 475.313
3180 0 73.4289 16.2606 1194 170.255 114.042 474.822
3181 0 72.4169 15.5489 1126 174.411 114.017 474.054
3182 0 73.4132 15.297 1123 177.638 113.862 475.728
3183 0 73.5436 16.0721 1182 171.291 114.335 473.604
3184 0 75.4771 16.2698 1228 169.34 114.11 474.498
3185 0 73.3321 15.9684 1171 171.865 114.339 474.624
3186 0 71.3226 15.2406 1087 177.29 114.322 474.062
3187 0 74.3753 15.9999 1190 171.268 114.054 474.617
3188 0 72.2383 15.352 1109 176.653 113.742 473.109
3189 0 73.2694 16.6509 1220 170.376 114.359 472.289
3190 0 73.3822 16.4073 1204 172.515 114.208 472.63
3191 0 71.1946 15.2399 1085 178.414 114.22 473.656
3192 0 73.2971 16.1534 1184 171.788 114.588 473.119
3193 0 71.2216 15.4728 1102 177.23 114.34 473.113
3194 0 73.348 15.6923 1151 174.213 114.243 473.304
3195 0 73.2707 16.7598 1228 169.808 114.457 473.323
3196 0 72.239 16.4454 1188 173.675 114.295 471.955
3197 0 71.2524 16.1398 1150 174.172 114.415 472.823
3198 0 72.2891 17.1948 1243 170.572 114.44 472.022
3199 0 69.4203 15.4998 1076 178.913 113.982 472.006
3200 0 73.1976 16.7355 1225 171.463 114.237 472.45
3201 0 70.3082 15.4036 1083 178.263 113.968 472.254
3202 0 70.2637 15.2426 1071 180.427 113.181 471.732
3203 0 72.1924 15.902 1148 176.01 113.037 471.649
3204 0 73.3409 16.621 1219 171.683 113.576 471.933
3205 0 72.3206 15.0856 1091 178.37 113.06 471.895
3206 0 73.2676 15.9825 1171 172.301 113.837 472.211
3207 0 72.2048 16.1485 1166 173.47 113.764 472.777
3208 0 72.3164 15.4737 1119 175.47 113.87 472.55
3209 0 72.1614 15.9642 1152 173.737 113.312 471.872
3210 0 72.2138 16.3127 1178 172.207 113.492 472.15
3211 0 72.2432 16.3476 1181 172.026 113.497 471.821
3212 0 73.3421 16.4162 1204 169.532 114.404 472.424
3213 0 71.1969 15.9838 1138 173.491 113.625 471.262
