time division length width area intensity CMx CMy
0 0 36.0843 13.1082 473 163.909 50.6934 480.706
1 0 36.0624 12.9221 466 166.451 51.1824 480.964
2 0 39.0887 12.6123 493 163.42 50.4604 480.645
3 0 38.0609 13.0318 496 164.736 50.7742 480.873
4 0 40.0879 13.6949 549 162.109 51.2168 480.821
5 0 41.0381 12.793 525 162.423 51.7029 481.107
6 0 42.1017 13.7762 580 157.067 51.2069 479.557
7 0 43.076 13.511 582 159.005 51.0636 480.713
8 0 44.014 13.7456 605 164.324 50.5818 481.982
9 0 45.0365 14.4105 649 161.482 50.8706 481.04
10 0 47.0212 13.7385 646 162.906 51.3065 481.249
11 0 48.0992 15.0938 726 155.935 51.6763 480.93
12 0 48.0587 14.191 682 159.663 51.6378 480.814
13 0 49.0271 13.9107 682 157.792 51.3944 481.299
14 0 50.0286 13.992 700 158.024 50.8614 480.619
15 0 50.0619 14.4022 721 157.334 50.3398 479.997
16 0 53.0507 14.0432 745 156.055 50.506 480.672
17 0 55.0583 14.5119 799 153.941 50.0601 479.615
18 0 56.1146 14.4526 811 154.636 49.8261 478.726
19 0 56.0675 13.9296 781 157.151 50.1575 479.38
20 0 60.0938 15.4592 929 149.227 49.4306 476.705
21 0 63.128 14.732 930 150.084 48.5849 476.406
22 0 65.1137 14.5745 949 149.962 48.3288 476.718
23 0 65.0616 14.4478 940 151.448 49.0436 474.948
24 0 68.0592 15.0604 1025 149.595 49.8771 474.529
25 0 71.0634 15.071 1071 149.589 49.1998 467.808
26 0 75.0523 15.3893 1155 145.895 48.3429 470.369
27 0 75.1352 14.4939 1089 149.787 47.8255 472.5
28 0 79.104 15.2837 1209 145.584 48.9975 470.21
29 0 80.0727 14.1871 1136 150.269 48.9111 469.962
30 0 83.0921 14.9352 1241 146.101 48.7671 469.689
31 0 86.1015 14.5758 1255 147.998 48.7291 467.353
32 1 44.0979 13.334 588 152.906 48.4354 488.537
33 0 46.0375 14.423 664 146.718 48.2063 487.032
34 0 47.0507 13.3261 627 150.206 47.748 487.501
35 0 50.0487 14.6258 732 143.56 47.765 486.624
36 0 51.0193 13.1127 669 148.768 48.6158 485.136
37 0 52.0404 13.6625 711 146.39 48.5767 484.25
38 0 56.0509 14.469 811 141.319 48.4883 482.106
39 0 58.0584 13.6587 793 142.912 48.2219 482.12
40 0 60.1177 13.9892 841 143.908 47.5386 480.835
41 0 63.0637 12.4636 786 151.486 47.2481 480.576
42 0 65.126 14.2186 926 146.693 46.6533 479.656
43 0 67.1394 13.3901 899 149.713 47.4928 478.346
44 0 72.0958 14.8414 1070 143.159 47.2561 476.339
45 0 72.1172 13.3949 966 147.761 47.3199 476.694
46 0 76.0708 13.2377 1007 148.276 46.7071 474.124
47 0 78.1124 13.455 1051 147.206 46.6461 473.26
48 0 81.1253 13.8181 1121 145.8 47.1704 471.432
49 0 84.2278 13.8078 1163 144.346 46.8315 470.487
50 0 88.0841 13.4531 1185 145.009 46.8903 470.035
51 1 44.0479 12.8724 567 144.538 47.3845 489.213
52 0 45.0293 12.6584 570 142.461 48.2789 489.944
53 0 49.0304 14.0117 687 137.178 48.3435 487.562
54 0 50.0716 14.5192 727 136.118 47.6245 486.199
55 0 51.015 14.1527 722 135.715 46.9612 487.464
56 0 52.0643 13.5794 707 137.385 46.4583 485.734
57 0 55.0632 13.657 752 135.003 46.7234 485.598
58 0 56.0399 12.9729 727 137.674 46.9945 484.805
59 0 57.0743 13.4386 767 137.111 46.6741 483.447
60 0 60.1172 13.4903 811 135.85 46.2799 483.732
61 0 61.0654 13.9686 853 135.823 46.612 483.832
62 0 61.1286 12.9563 792 140.092 46.8131 483.29
63 0 63.0257 14.1688 893 137.686 46.8309 478.941
64 0 66.0678 13.4256 887 137.849 46.0192 480.853
65 0 68.0738 13.1475 895 139.683 45.686 478.525
66 0 71.14 13.3399 949 138.504 45.7366 475.111
67 0 72.043 12.8118 923 139.985 45.8082 476.403
68 0 76.1423 13.1727 1003 139.269 45.2782 475.076
69 0 81.1022 13.8961 1127 136.27 45.5679 472.171
70 0 84.0908 13.5687 1141 135.964 45.5986 470.879
71 0 87.0851 13.5614 1181 135.236 45.6097 469.58
72 0 90.2486 13.4074 1210 135.45 45.6579 468.523
73 0 92.2707 13.1136 1210 138.683 45.1802 467.401
74 0 95.1602 13.3249 1268 139.202 45.0828 464.675
75 0 99.2556 12.6643 1257 141.792 45.2586 464.262
76 1 54.0415 13.4526 727 137.752 45.3659 485.248
77 0 54.1244 12.7484 690 143.596 45.5101 485.059
78 0 56.069 13.198 740 133.507 45.3919 484.549
79 0 57.0903 13.2247 755 130.138 45.6808 484.617
80 0 62.1712 13.495 839 127.305 46.112 482.085
81 0 62.0679 12.8891 800 129.7 46.3525 481.536
82 0 65.1512 12.801 834 129.176 45.7218 480.525
83 0 67.2499 13.1004 881 127.129 45.8252 480.573
84 0 70.1114 13.992 981 126.154 45.6239 478.367
85 0 72.1234 13.3244 961 127.633 45.5692 476.778
86 0 74.2025 14.1639 1051 125.687 45.7288 477.576
87 0 75.26 14.1509 1065 128.332 45.7136 473.442
88 0 80.1241 14.4775 1160 127.487 45.9853 473.279
89 0 82.0538 14.5514 1194 129.595 45.7881 472.416
90 0 85.108 14.3582 1222 128.153 45.7578 470.418
91 0 89.1287 13.9349 1242 128.43 45.7649 469.892
92 0 89.1849 14.1392 1261 128.592 44.9952 468.551
93 0 95.1487 14.3565 1366 126.157 44.7452 469.931
94 1 46.1156 11.5579 533 133.597 44.3865 490.353
95 0 50.0924 12.8962 646 129.068 44.5913 488.251
96 0 52.2016 13.0456 681 131.366 44.2232 487.004
97 0 53.0914 13.0906 695 130.517 44.659 487.173
98 0 55.024 12.849 707 131.849 44.7298 487.393
99 0 58.0471 13.1445 763 129.957 45.3919 487.409
100 0 59.2204 13.2893 787 131.323 45.6557 484.85
101 0 61.1634 13.8972 850 129.752 44.9929 484.127
102 0 62.1087 13.2349 822 133.561 45.3443 482.478
103 0 64.0682 13.6573 875 132.403 44.8594 482.541
104 0 66.1204 14.2316 941 132.526 45.1052 479.692
105 0 69.0888 14.4162 996 131.958 44.995 478.974
106 0 71.0953 14.0375 998 132.44 44.3287 477.699
107 0 73.1912 13.7585 1007 134.987 44.4747 476.074
108 0 76.0758 14.3804 1094 132.116 44.9086 475.651
109 0 78.1635 14.265 1115 132.141 44.7525 476.098
110 0 80.0558 13.2658 1062 135.143 44.8164 474.95
111 0 82.1061 12.5326 1029 135.754 44.5802 469.771
112 0 87.0513 13.7735 1199 129.707 44.2844 468.298
113 1 44.0285 10.3569 456 126.081 44.5833 488.436
114 0 47.0933 10.2138 481 122.595 44.8669 489.239
115 0 48.077 12.3136 592 125.351 44.8294 487.637
116 0 51.0684 12.6693 647 127.116 45.8748 487.519
117 0 50.033 12.2119 611 121.137 45.4501 487.66
118 0 53.0285 12.7479 676 119.93 46.0666 486.24
119 0 56.0242 13.7619 771 116.136 46.4604 486.054
120 0 56.0903 12.5512 704 120.689 45.4062 483.818
121 0 59.0554 12.5645 742 120.446 45.1833 483.532
122 0 59.1623 12.0854 715 122.551 44.9231 482.629
123 0 62.0933 12.2718 762 121.951 45.1535 481.143
124 0 64.057 11.4429 733 122.423 45.2906 482.445
125 0 68.0878 12.807 872 118.577 45.9622 479.547
126 0 70.1243 13.4761 945 117.992 45.582 477.361
127 0 71.1121 13.0498 928 119.81 45.1595 477.904
128 0 74.0338 13.9531 1033 118.077 45.3824 474.657
129 0 76.0916 12.1301 923 121.852 45.2449 474.26
130 0 80.0978 12.8718 1031 118.308 45.8012 475.049
131 0 80.0913 11.849 949 121.945 45.4131 473.163
132 0 84.0958 12.7711 1074 118.351 44.9795 472.373
133 0 88.0951 12.0892 1065 118.814 44.8263 471.091
134 0 89.1905 11.851 1057 120.525 45.2384 467.079
135 0 91.1248 11.7531 1071 120.511 44.9421 467.031
136 0 95.119 12.006 1142 119.961 44.9291 463.1
137 1 49.1081 10.7314 527 118.032 44.7932 487.317
138 0 53.1186 12.1426 645 113.975 45.262 486.014
139 0 56.1274 12.3647 694 112.71 45.7695 484.522
140 0 55.0404 10.9919 605 116.301 44.5636 483.894
141 0 58.0432 11.6809 678 113.85 44.4218 484.265
142 0 60.0857 11.0842 666 114.362 44.2192 484.321
143 0 63.125 11.9287 753 112.928 45.0943 480.954
144 0 65.0752 12.7545 830 112.36 45.0747 478.954
145 0 66.1294 11.7497 777 116.418 44.843 480.189
146 0 66.1469 10.9453 724 119.547 45.1423 479.315
147 0 72.1296 13.656 985 113.14 44.5096 475.766
148 0 73.2127 10.5993 776 121.557 44.6031 477.195
149 0 77.0897 11.9212 919 119.588 44.5332 474.857
150 0 80.124 12.5056 1002 119.381 44.1198 473.546
151 0 80.1327 11.1565 894 124.621 44.3937 471.143
152 0 87.1447 13.162 1147 120.14 44.8169 470.418
153 0 90.2503 12.0775 1090 123.661 45.2642 470.664
154 1 46.1455 11.3554 524 124.494 46.0878 489.387
155 0 48.1044 11.6413 560 125.561 45.8875 488.177
156 0 50.0478 11.2492 563 131.306 45.7123 486.787
157 0 53.0298 12.1441 644 129.36 45.545 486.748
158 0 52.0408 10.2996 536 124.841 45.1754 490.056
159 0 52.1279 10.9346 570 125.563 45.0526 487.035
160 0 55.1617 12.1099 668 122.566 45.0569 485.136
161 0 56.0765 11.6983 656 122.575 45.5244 486.845
162 0 58.1459 12.2795 714 122.427 45.7129 485.052
163 0 62.1571 12.1627 756 122.249 45.619 483.257
164 0 63.1736 12.4419 786 122.162 45.7226 482.097
165 0 65.1241 12.7756 832 121.737 45.7272 481.736
166 0 68.1867 12.4218 847 121.686 45.5986 480.547
167 0 68.117 12.4639 849 123.425 45.7915 478.212
168 0 71.0883 12.4071 882 123.063 45.2449 476.393
169 0 74.1507 11.8812 881 123.354 45.546 477.149
170 0 77.0592 12.8862 993 121.735 45.4874 473.005
171 0 79.1871 12.1484 962 124.877 45.2744 474.13
172 0 81.1237 13.0788 1061 125.13 45.0952 470.918
173 0 85.0677 12.202 1038 128.905 44.6946 469.594
174 0 89.0979 13.9397 1242 123.016 44.9372 468.136
175 0 89.0969 13.0083 1159 127.243 45.1493 466.29
176 0 94.1377 12.9066 1215 126.968 44.7333 466.366
177 0 97.1043 12.5329 1217 129.525 44.7198 464.533
178 0 99.1399 13.6474 1353 128.469 44.7687 461.331
179 0 103.078 12.5536 1294 131.527 44.1291 458.782
180 0 106.165 13.6674 1451 131.901 43.7443 457.763
181 0 108.139 12.4192 1343 134.672 44.5175 453.325
182 1 60.1127 11.6115 698 123.544 44.4441 482.652
183 0 61.2942 11.5835 710 125.165 44.3085 478.466
184 0 63.2705 11.4903 727 126.12 44.4402 477.803
185 0 66.126 11.9015 787 123.51 44.9644 478.122
186 0 68.098 12.159 828 121.052 45.4734 479.447
187 0 69.0456 12.0645 833 122.783 45.2713 477.405
188 0 71.0739 12.2126 868 122.297 44.6498 475.965
189 0 75.2557 12.3844 932 119.367 45.2607 476.832
190 0 77.205 11.735 906 121.572 44.8576 474.46
191 0 79.1039 11.8325 936 121.923 44.6122 473.878
192 0 83.078 13.373 1111 119.107 44.6328 471.018
193 0 84.1275 11.9699 1007 122.899 45.003 471.949
194 0 88.1626 11.9212 1051 122.571 44.6156 470.4
195 0 90.0901 12.7317 1147 123.447 44.4943 465.806
196 0 93.1098 11.8999 1108 124.237 44.6787 465.824
197 0 96.2355 12.2096 1175 124.364 45.0034 462.664
198 0 98.36 11.4986 1131 126.083 44.4005 459.691
199 1 50.0906 11.04 553 118.271 43.9982 485.051
200 0 52.0818 10.7523 560 118.539 44.2911 485.386
201 0 53.0608 12.6082 669 113.821 45.8909 484.762
202 0 53.1445 11.2335 597 119.034 46.1139 484.099
203 0 56.061 12.6113 707 113.519 45.4965 483.034
204 0 58.0378 12.2162 709 115.121 45.3131 482.694
205 0 58.0326 12.3034 714 114.94 45.4846 483.345
206 0 60.0453 12.8236 770 114.892 45.5039 480.883
207 0 61.0601 11.7753 719 116.793 45.0987 481.406
208 0 62.0181 11.6256 721 116.495 45.086 481.341
209 0 64.0486 12.0065 769 115.16 45.143 478.282
210 0 68.139 12.2837 837 114.258 45.4265 480.014
211 0 68.1656 12.6897 865 114.18 45.2636 478.688
212 0 70.1058 12.4241 871 115.261 45.5132 477.86
213 0 73.0875 12.1909 891 115.154 44.8339 476.712
214 0 75.1636 12.2267 919 116.248 44.9434 473.198
215 0 76.112 11.7853 897 117.705 45.3233 474.755
216 0 79.0576 12.3581 977 118.344 44.434 469.313
217 0 83.1046 12.0571 1002 117.099 44.5828 470.568
218 0 87.0979 12.7558 1111 113.431 44.4041 469.805
219 0 89.1152 12.669 1129 115.021 44.9088 467.27
220 0 91.1095 12.5673 1145 115.196 44.5607 466.39
221 0 94.0987 12.2212 1150 117.478 43.787 462.781
222 0 98.0768 13.1326 1288 113.911 44.3649 460.471
223 0 102.086 12.8911 1316 115.964 44.0866 461.824
224 0 104.105 13.0446 1358 117.007 44.1973 458.812
225 1 57.1741 12.3133 704 116.119 43.7784 481.206
226 0 57.0534 10.3237 589 107.969 44.5518 478.188
227 0 57.035 10.888 621 103.638 45.6747 481.138
228 0 58.0838 11.9827 696 112.894 45.8534 483.096
229 0 60.1128 11.8943 715 114.056 45.9063 480.797
230 0 65.0443 12.1763 792 111.764 46.154 481.65
231 0 63.0529 10.8956 687 117.952 46.6376 479.087
232 0 67.0662 10.9891 737 117.195 46.3501 479.034
233 0 69.1128 12.1396 839 115.014 46.0417 478.206
234 0 72.1074 12.3427 890 115.169 45.8798 475.898
235 0 73.183 11.9427 874 117.19 46.0252 474.562
236 0 76.0801 12.3948 943 117.049 45.6384 473.337
237 0 81.2305 13.1478 1068 114.38 44.7959 471.784
238 0 82.1112 11.7889 968 118.209 45.5331 472.878
239 0 83.1323 12.017 999 115.199 46.2973 470.637
240 0 87.2069 12.5449 1094 114.223 46.1581 469.31
241 0 89.1332 12.0269 1072 115.442 45.9403 468.918
242 0 93.0708 13.4844 1255 112.255 45.4773 464.988
243 0 96.1889 13.0472 1255 112.918 45.5267 463.375
244 0 99.1227 13.6901 1357 111.056 45.2822 462.439
245 1 49.0791 11.023 541 112.911 46.3789 487.009
246 0 52.0729 11.7912 614 110.847 45.6922 485.963
247 0 52.0367 11.9147 620 110.826 44.5161 485.431
248 0 54.1061 12.4755 675 108.63 44.9719 485.104
249 0 57.0471 13.0243 743 106.308 45.1036 483.873
250 0 60.1004 12.8951 775 104.68 45.4568 483.241
251 0 63.1275 14.9697 945 99.6444 44.7164 481.27
252 0 64.0981 13.7446 881 102.711 44.8854 480.058
253 0 64.0457 12.3193 789 106.634 45.2915 478.989
254 0 66.0989 13.3436 882 104.045 45.0454 478.706
255 0 71.0698 13.0857 930 104.125 45.0097 477.374
256 0 72.1346 13.1837 951 103.795 45.4564 476.095
257 0 74.0818 11.7438 870 107.949 44.9759 475.986
258 0 76.0875 11.8679 903 107.058 44.814 472.877
259 0 82.0653 12.3073 1010 105.135 44.999 472.94
260 0 81.102 12.0959 981 106.968 44.8522 470.185
261 0 85.0721 12.7421 1084 105.532 45.2528 468.431
262 0 87.0529 11.6711 1016 109.658 44.7323 466.768
263 0 90.0541 12.9034 1162 108.127 45.0499 468.176
264 0 94.0678 12.9375 1217 108.948 44.3353 463.773
265 0 97.082 11.3203 1099 113.349 44.7243 462.634
266 1 50.0187 11.6956 585 106.039 45.2667 487.487
267 0 51.0246 11.7394 599 106.98 45.1519 486.593
268 0 53.0144 11.4308 606 106.469 44.8416 485.431
269 0 54.117 11.6599 631 107.103 45.0016 484.924
270 0 57.0663 12.0737 689 106.665 45.1597 484.244
271 0 59.0456 10.5512 623 109.533 45.7913 485.173
272 0 60.0664 12.6527 760 106.484 45.0474 482.674
273 0 62.0832 12.4832 775 107.537 45.6245 480.255
274 0 65.1602 12.3081 802 108.257 45.2456 480.01
275 0 68.1165 12.4346 847 106.752 45.281 478.168
276 0 70.012 11.7408 822 108.498 45.6375 478.611
277 0 74.0957 12.9157 957 105.715 45.7868 478.076
278 0 73.1098 12.7616 933 108.182 45.4577 475.457
279 0 76.1127 13.8742 1056 106.734 45.4299 474.794
280 0 80.0511 12.3421 988 109.033 45.1994 474.982
281 0 83.2012 12.1392 1010 110.468 45.7307 471.601
282 0 86.1451 11.7824 1015 112.032 45.8808 471.73
283 0 88.2165 12.6053 1112 110.569 45.5252 470.617
284 0 94.1158 12.8352 1208 110.147 45.5522 469.067
285 1 47.1107 11.1015 523 110.323 45.9522 490.417
286 0 48.058 11.2572 541 111.312 45.4972 489.53
287 0 49.0248 11.0148 540 112.665 44.8352 487.667
288 0 51.0676 11.9645 611 109.463 44.162 487.743
289 0 53.0511 12.2523 650 107.848 44.2923 487.94
290 0 55.0656 12.9482 713 105.532 44.5849 485.878
291 0 58.0232 13.2188 767 103.905 44.8083 486.815
292 0 57.0226 13.5034 770 104.886 44.9468 484.27
293 0 59.0231 12.08 713 107.403 45.3717 485.034
294 0 61.0531 13.4964 824 103.619 45.8386 483.383
295 0 63.0623 12.7176 802 105.07 46.3741 482.061
296 0 63.2001 13.0221 823 105.275 45.5759 481.99
297 0 66.1054 12.8431 849 105.575 45.8457 481.545
298 0 65.0255 13.2256 860 106.453 45.4523 479.9
299 0 69.0871 13.2731 917 106.484 45.5998 478.493
300 0 70.1491 12.6445 887 107.645 45.2909 478.592
301 0 72.102 14.1882 1023 105.495 45.349 476.406
302 0 74.0443 13.5324 1002 107.234 44.8493 474.928
303 0 78.0528 13.6959 1069 105.892 44.8849 475.268
304 0 80.0269 12.7207 1018 108.786 44.9037 474.18
305 0 81.09 13.1706 1068 109.309 44.9354 470.353
306 0 86.134 13.3397 1149 108.08 45.1871 471.842
307 0 87.1358 14.8504 1294 107.443 45.2241 467.243
308 0 89.0931 13.6487 1216 110.591 44.9359 467.595
309 0 92.1905 13.689 1262 110.537 45.4945 467.639
310 0 95.2752 13.2144 1259 112.048 45.2669 465.897
311 0 97.1472 12.4553 1210 114.636 44.6967 461.534
312 0 101.122 12.6381 1278 113.951 44.7637 461.97
313 0 104.173 12.46 1298 116.864 44.1171 457.371
314 1 52.2538 11.0805 579 113.782 44.6788 480.404
315 0 56.1244 12.009 674 112.841 44.9496 478.737
316 0 58.2409 13.3411 777 116.435 44.888 480.373
317 0 59.1195 11.8235 699 113.681 45.7568 481.625
318 0 62.0718 12.3083 764 111.866 45.8364 480.83
319 0 63.0741 13.286 838 109.7 45.8759 480.249
320 0 66.071 13.6974 905 109.78 45.3845 475.718
321 0 68.1897 13.2718 905 112.666 45.2652 469.33
322 0 71.0605 13.8051 981 110.356 45.1478 473.247
323 0 73.0732 12.8228 937 112.899 45.3383 475.306
324 0 75.0622 12.6828 952 114.422 44.9097 473.43
325 0 77.1008 11.7898 909 118.634 45.0682 470.501
326 0 78.1417 11.8887 929 116.927 45.3165 469.901
327 0 80.1653 12.6863 1017 115.641 45.5123 470.161
328 0 86.1716 12.5912 1085 114.181 45.8147 469.76
329 0 89.3406 12.4803 1115 113.947 45.1049 467.742
330 0 92.2062 12.6998 1171 114.622 44.7242 464.989
331 1 51.0191 11.7995 602 110.701 44.8522 486.359
332 0 51.0664 12.4935 638 108.987 45.7085 484.5
333 0 55.1123 11.7034 645 107.586 45.9318 483.922
334 0 54.064 11.6899 632 107.465 45.8259 483.429
335 0 56.069 11.2005 628 108.826 46.2532 482.452
336 0 58.0851 11.6381 676 107.976 45.1583 482.169
337 0 59.3308 11.6129 689 108.676 45.4644 481.048
338 0 61.0648 11.8563 724 108.326 45.1119 480.7
339 0 62.2086 12.5867 783 108.536 44.7126 478.613
340 0 67.1357 12.9588 870 107.528 44.9517 476.298
341 0 69.0621 12.9304 893 109.821 45.103 475.252
342 0 71.1079 13.1912 938 109.2 45.1087 475.968
343 0 71.2018 12.6682 902 110.299 45.2184 473.892
344 0 76.1427 12.4503 948 111.397 45.5285 473.477
345 0 77.1541 12.7019 980 114.202 45.9204 471.832
346 0 80.2088 12.7043 1019 114.824 46.2463 469.432
347 0 83.23 12.928 1076 115.709 45.9944 468.165
348 0 88.2393 13.7467 1213 112.61 44.9192 466.552
349 0 89.329 13.3439 1192 113.884 45.3003 465.462
350 0 92.3197 13.6482 1260 111.642 45.2262 464.569
351 0 96.2502 12.8311 1235 110.954 45.6073 462.905
352 0 98.3706 12.6156 1241 111.935 46.1434 460.346
353 1 52.1811 11.9392 623 105.014 45.7143 484.753
354 0 53.1524 12.6053 670 100.745 45.7299 483.361
355 0 53.0209 11.222 595 111.805 47.8723 483.578
356 0 56.029 11.4584 642 110.727 47.9346 483.741
357 0 58.0401 12.3018 714 109.755 47.6303 480.328
358 0 59.0498 11.1601 659 111.895 47.7086 480.005
359 0 62.0686 12.1801 756 109.587 47.5966 480.329
360 0 63.1367 12.2116 771 111.613 46.9351 478.901
361 0 65.0687 13.7239 893 107.23 47.5655 475.473
362 0 66.0348 12.3117 813 111.464 47.091 475.164
363 0 69.1225 12.1379 839 110.951 47.242 473.93
364 0 72.0224 12.1906 878 111.626 47.0718 472.938
365 0 73.078 12.4388 909 112.014 47.0737 471.803
366 0 76.1145 12.3892 943 112.328 47.1113 472.615
367 0 79.0983 12.5793 995 113.013 46.9015 468.443
368 0 81.1823 12.86 1044 113.056 46.5996 467.859
369 0 84.1681 12.6176 1062 114.299 47.0433 465.737
370 0 86.2224 12.8737 1110 115.098 46.8027 464.35
371 0 88.1346 12.9007 1137 115.808 46.3105 463.442
372 0 89.077 12.0907 1077 117.854 46.6741 462.503
373 0 96.1207 12.6924 1220 115.622 46.2164 462.657
374 0 98.1646 12.856 1262 116.361 46.2401 459.571
375 0 102.145 13.6962 1399 114.764 45.7777 460.517
376 1 51.0149 10.5852 540 117.985 45.5648 486.061
377 0 52.0952 10.6344 554 120.767 45.0325 484.493
378 0 55.0585 12.6048 694 114.063 45.3501 485.468
379 0 55.0474 11.4992 633 109.896 45.5893 486.513
380 0 55.0419 11.0461 608 112.334 45.472 485.538
381 0 58.0788 10.8818 632 112.519 45.1424 484.339
382 0 58.0295 10.8738 631 112.518 45.8336 484.954
383 0 62.0283 12.1074 751 109.827 46.5233 482.061
384 0 65.024 12.7491 829 108.337 46.8685 480.668
385 0 65.0935 11.568 753 111.017 47.1301 481.474
386 0 68.0847 12.1173 825 109.187 46.5467 477.97
387 0 70.0451 12.8346 899 107.617 46.9344 477.004
388 0 72.0607 12.1981 879 108.959 46.8009 475.635
389 0 75.2295 11.8438 891 109.907 46.5443 477.131
390 0 79.158 11.9887 949 109.411 46.4584 476.028
391 0 79.0331 12.1974 964 108.087 46.6037 474.008
392 0 82.1062 11.9479 981 109.776 46.6993 474.528
393 0 83.1641 12.5896 1047 110.525 46.3715 470.12
394 0 88.1585 12.5796 1109 109.608 46.1461 469.708
395 0 90.1149 11.5852 1044 110.554 46.0038 467.728
396 0 94.1648 11.5542 1088 113.184 45.9338 466.803
397 0 94.085 10.7137 1008 113.284 45.4464 463.216
398 0 101.171 12.3949 1254 107.845 46.0016 464.059
399 0 103.25 11.9322 1232 109.69 45.4099 462.549
400 0 107.267 12.1846 1307 109.607 45.2693 459.062
401 0 111.199 12.8329 1427 107.9 45.3315 459.903
402 0 115.445 13.3657 1543 109.047 46.2482 455.448
403 0 118.458 13.3971 1587 110.377 45.903 451.18
404 0 122.451 13.9403 1707 109.088 46.3984 448.676
405 0 123.352 11.9819 1478 116.145 45.41 446.783
406 0 127.442 13.3787 1705 113.981 45.671 446.438
407 0 131.482 13.1805 1733 115.26 46.1541 442.602
408 0 136.731 13.0621 1786 115.958 46.2335 439.326
409 0 139.539 12.0468 1681 118.583 46.1463 438.373
410 0 144.503 12.0897 1747 119.559 45.6686 437.489
411 0 150.465 11.9762 1802 118.416 45.818 438.172
412 1 88.546 10.7628 953 111.093 46.2802 467.751
413 0 93.5697 12.1834 1140 108.242 46.1702 466.97
414 0 97.2547 12.0406 1171 109.57 45.2502 462.16
415 0 101.408 12.7701 1295 107.486 45.5351 463.293
416 0 104.325 12.4227 1296 108.356 45.2562 461.59
417 0 105.365 11.2466 1185 112.186 45.1671 458.502
418 0 110.284 11.5792 1277 112.24 45.5435 455.828
419 0 114.517 12.6182 1445 110.343 45.8457 455.142
420 0 117.359 10.0631 1181 114.82 45.4996 453.522
421 1 62.2036 11.5588 719 103.841 45.758 481.492
422 0 65.2441 11.5413 753 105.47 46.2789 479.146
423 0 68.2131 11.9772 817 111.931 46.0061 479.66
424 0 68.3201 12.5439 857 111.218 45.3921 480.182
425 0 70.2066 12.4062 871 112.32 45.8106 477.425
426 0 72.3114 13.2068 955 111.621 45.5476 474.945
427 0 75.273 12.1026 911 113.144 45.5895 475.122
428 0 77.1624 12.2858 948 112.627 45.2405 474.007
429 0 79.2576 12.5035 991 112.385 46.1312 472.17
430 0 82.2095 12.5046 1028 111.84 45.9232 471.816
431 0 85.2704 13.1699 1123 111.414 46.0686 470.059
432 0 88.4252 12.7226 1125 111.76 46.808 468.527
433 0 92.4201 13.4819 1246 109.854 46.7608 456.565
434 0 94.4494 12.864 1215 108.762 45.8971 464.243
435 1 48.3012 11.3041 546 105.005 46.6264 485.615
436 0 50.2601 12.2761 617 105.639 46.1929 485.959
437 0 49.1552 10.8432 533 100.73 46.7711 483.173
438 0 53.1356 12.0258 639 102.097 46.8811 486.889
439 0 56.2022 13.7005 770 97.9403 46.8597 486.008
440 0 56.1279 12.6675 711 101.211 47.5359 486.287
441 0 57.0543 12.3216 703 102.748 47.3954 485.034
442 0 59.0798 12.6778 749 102.115 47.4553 484.366
443 0 60.1699 12.0492 725 103.924 47.1366 482.473
444 0 61.083 12.2456 748 105.051 47.4479 482.314
445 0 63.0469 12.6097 795 104.448 47.4654 481.438
446 0 65.1443 12.7409 830 103.849 47.6253 479.975
447 0 66.1314 11.5074 761 106.698 47.2589 481.414
448 0 71.3142 13.2793 947 102.105 47.3263 478.391
449 0 71.1242 12.7523 907 103.927 47.4796 479.763
450 0 72.1433 15.1227 1091 73.1677 47.2053 479.297
451 0 75.1116 12.9674 974 105.195 47.3522 477.125
452 0 76.1255 13.4121 1021 105.621 47.5132 474.325
453 0 86.0832 11.1055 956 108.901 46.5774 475.936
454 0 82.0797 13.0849 1074 108.277 47.311 471.256
455 0 87.074 13.6895 1192 108.115 46.557 469.201
456 0 91.1212 12.8291 1169 113.464 46.4671 468.442
457 0 92.1659 12.9766 1196 109.39 47.0418 469.945
458 0 96.12 13.8161 1328 109.327 46.7033 463.505
459 1 50.0491 10.8294 542 116.048 47.1052 489.31
460 0 52.1476 12.9249 674 111.745 46.5237 487.818
461 0 53.0567 12.4584 661 112.905 46.5174 487.655
462 0 55.1226 14.3135 789 108.414 46.6008 486.103
463 0 56.1041 12.3164 691 115.205 46.6831 485.834
464 0 58.1567 13.2229 769 112.209 46.8322 485.619
465 0 59.0486 12.7522 753 114.801 46.672 484.024
466 0 62.1171 13.9253 865 110.719 47.6497 484.638
467 0 63.1207 13.2128 834 113.412 47.0036 481.694
468 0 64.1835 12.5578 806 116.006 46.7667 481.574
469 0 66.1441 14.1812 938 111.434 47.0672 481.065
470 0 69.1068 14.1954 981 111.815 46.8787 479.094
471 0 69.0887 14.0254 969 113.57 46.743 478.035
472 0 72.054 12.8098 923 116.945 46.338 476.999
473 0 74.1206 13.1138 972 117.492 45.9753 475.445
474 0 77.1217 13.952 1076 115.217 46.2918 474.617
475 0 79.06 12.8257 1014 118.715 46.0552 471.305
476 0 82.0789 13.1581 1080 114.592 46.4111 469.352
477 0 83.1226 12.3071 1023 111.887 46.2991 467.413
478 0 88.0913 13.3157 1173 107.166 46.1006 468.048
479 0 88.1748 12.7814 1127 109.213 46.2955 465.419
480 0 92.1642 12.966 1195 108.019 46.2996 461.397
481 0 94.1067 12.0289 1132 106.231 46.7694 463.122
482 0 99.1517 13.1011 1299 104.446 47.0146 460.385
483 0 104.219 13.0687 1362 104.109 45.895 459.286
484 0 105.205 12.2143 1285 112.474 45.8872 459.908
485 0 110.216 13.9907 1542 108.359 46.3645 458.918
486 0 112.09 12.6595 1419 114.371 46.1705 455.997
487 1 63.2092 14.191 897 107.868 47.0959 481.89
488 0 64.1864 12.2612 787 112.596 47.493 481.288
489 0 65.0466 13.5288 880 108.848 44.4239 482.147
490 0 68.1014 14.1847 966 107.964 44.9079 479.358
491 0 68.0712 12.5163 852 111.959 44.7066 478.677
492 0 74.0392 13.1552 974 108.7 45.653 477.671
493 0 73.0639 12.9202 944 110.091 44.9989 477.308
494 0 77.0623 12.7948 986 110.101 45.4604 475.794
495 0 78.0848 13.6262 1064 108.478 44.9859 472.686
496 0 81.0666 13.4581 1091 107.958 45.275 473.149
497 0 83.0475 12.234 1016 110.655 45.0787 470.814
498 0 85.0908 12.3163 1048 109.937 45.6622 469.56
499 0 89.1319 13.1266 1170 106.891 45.1607 467.104
500 0 92.1277 11.9182 1098 105.429 46.5838 460.667
501 0 94.1573 12.1817 1147 108.661 47.0009 459.707
502 0 98.1063 12.0482 1182 108.837 46.6844 462.332
503 0 100.129 12.9234 1294 108.518 46.3856 441.647
504 0 104.333 11.9138 1243 109.691 46.4763 450.419
505 1 52.0621 10.1033 526 101.848 47.0798 486.975
506 0 52.0463 11.2016 583 106.837 47.8165 486.081
507 0 55.091 12.8515 708 102.333 46.7839 484.36
508 0 57.0591 12.0226 686 102.882 46.0364 483.249
509 0 58.0656 12.9853 754 102.806 46.0942 483.192
510 0 61.0619 13.2489 809 100.204 46.6873 481.883
511 0 62.0327 12.2194 758 101.906 46.1939 481.054
512 0 65.0755 13.0464 849 99.5607 46.4016 480.638
513 0 66.0454 12.3249 814 100.783 46.2482 481.548
514 0 68.0601 12.4302 846 101.913 46.0331 478.288
515 0 71.0282 12.4317 883 101.37 46.222 477.183
516 0 73.1114 12.5015 914 100.674 45.709 474.162
517 0 76.0663 12.7126 967 100.393 45.8563 473.232
518 0 78.1368 13.8091 1079 98.4124 46.1019 473.213
519 0 82.1913 13.2739 1091 98.8772 45.8396 471.68
520 0 83.2015 12.4878 1039 102.261 45.6997 470.276
521 0 87.1421 12.8411 1119 101.811 46.471 468.08
522 0 89.1402 11.7455 1047 104.709 45.7373 467.397
523 0 90.0752 10.7244 966 106.747 45.2319 464.92
524 1 48.032 10.8469 521 101.881 47.4261 488.182
525 0 48.1801 10.523 507 103.489 46.1065 488.625
526 0 50.0319 13.0117 651 98.1398 47.384 488.912
527 0 51.0768 13.6461 697 97.5968 47.0244 486.35
528 0 52.0806 11.7702 613 102.44 47.3067 487.434
529 0 54.0688 10.6531 576 104.424 47.1806 487.517
530 0 53.0514 11.8187 627 104.753 47.2408 485.088
531 0 57.0575 12.4261 709 102.416 46.591 483.827
532 0 58.0614 11.9529 694 108.591 46.1744 483.941
533 0 60.0622 11.7045 703 106.933 46.6871 479.193
534 0 64.1091 13.399 859 102.905 46.9907 480.816
535 0 64.0417 11.4769 735 108.86 46.2871 482.129
536 0 67.0706 13.6722 917 105.269 46.3784 480.181
537 0 67.1541 12.7021 853 110.286 46.3107 478.03
538 0 72.104 13.6054 981 107.932 46.6208 478.584
539 0 73.0998 13.2422 968 110.506 46.4153 475.696
540 0 74.0989 12.9152 957 112.506 46.3197 475.41
541 0 79.1367 13.6978 1084 109.353 46.4603 475.785
542 0 78.0686 12.3097 961 116.592 46.5349 472.816
543 0 83.1 12.515 1040 116.231 46.7067 473.384
544 0 84.2402 12.3338 1039 120.296 46.1983 471.061
545 0 89.1278 13.1945 1176 125.32 44.858 467.998
546 0 92.0857 13.0422 1201 126.714 44.6286 467.638
547 1 50.0123 11.2972 565 128.365 44.9805 488.078
548 0 51.1049 11.8384 605 127.579 46.8149 486.212
549 0 53.0929 12.2427 650 116.882 45.8831 488.429
550 0 54.0439 13.563 733 113.682 47.0996 486.247
551 0 55.0664 11.8947 655 119.282 46.5802 487.046
552 0 56.0625 12.5931 706 118.395 47.4278 485.469
553 0 59.1289 12.718 752 118.741 46.6569 483.886
554 0 61.0674 13.1658 804 118.264 46.704 483.47
555 0 63.037 12.9924 819 119.337 46.4896 482.36
556 0 65.0461 13.1445 855 121.396 46.2924 480.511
557 0 66.0506 13.5956 898 121.565 46.7216 480.256
558 0 68.0761 13.5731 924 121.169 44.855 480.589
559 0 69.0417 13.586 938 123.92 46.209 477.352
560 0 71.028 13.2624 942 124.915 45.4204 479.701
561 0 75.0614 14.1484 1062 122.337 46.161 477.118
562 0 76.0504 14.017 1066 124.066 45.2448 476.36
563 0 80.1008 13.895 1113 124.879 45.1339 474.079
564 0 83.1182 14.8102 1231 123.903 45.0252 472.877
565 0 83.0456 13.7756 1144 129.695 45.7719 471.392
566 0 87.1498 14.2513 1242 128.278 45.3406 470.267
567 0 90.1062 14.605 1316 127.547 45.4103 467.524
568 0 94.1279 14.151 1332 128.849 45.6502 465.685
569 0 97.1764 13.9334 1354 130.165 45.9114 463.869
570 0 100.208 12.5439 1257 132.953 46.1066 460.663
571 1 55.1133 12.1205 668 130.825 47.0883 484.433
572 0 58.0496 11.628 675 130.335 44.5778 486.609
573 0 60.0393 12.9082 775 131.009 44.7987 484.795
574 0 60.0431 12.7075 763 131.731 44.3119 485.566
575 0 62.0234 13.0757 811 130.318 44.3983 483.959
576 0 64.0821 13.2018 846 130.234 44.7695 481.91
577 0 66.0207 13.3897 884 129.212 44.5814 481.777
578 0 67.0286 13.3077 892 129.594 44.7108 480.238
579 0 69.0599 13.0322 900 128.237 44.7767 481.002
580 0 71.0639 13.509 960 126.52 44.6594 478.234
581 0 74.0441 13.3434 988 126.801 44.6326 476.738
582 0 76.1077 13.9933 1065 125.23 44.6347 474.176
583 0 79.0444 14.1819 1121 123.519 45.1329 475.169
584 0 82.089 14.2528 1170 123.668 44.859 473.305
585 0 84.0689 12.8228 1078 127.967 44.8033 473.772
586 0 87.071 12.5759 1095 129.073 44.5863 470.892
587 1 45.0309 10.1264 456 127.399 44.5307 492.575
588 0 49.2216 12.332 607 120.458 46.0923 491.583
589 0 48.2918 11.0371 533 127.803 45.5291 486.743
590 0 47.0228 10.6544 501 121.425 47.3832 484.178
591 0 51.087 12.4885 638 114.044 47.1959 484.895
592 0 50.0521 10.4691 524 120.258 47.6145 483.418
593 0 54.0906 10.7967 584 109.517 46.262 481.396
594 0 55.1137 11.3221 624 107.04 46.375 482.655
595 0 54.1142 11.9192 645 107.406 46.1101 481.904
596 0 56.0746 12.0375 675 106.85 46.5526 481.44
597 0 59.083 12.2878 726 116.788 47.4904 485.202
598 0 61.0211 12.3072 751 115.115 46.9481 485.559
599 0 62.0632 13.5346 840 112.985 46.7286 482.707
600 0 64.0363 13.4767 863 111.243 46.6107 483.283
601 0 67.0402 14.0513 942 110.057 46.4278 480.631
602 0 69.0674 12.4806 862 114.668 46.6218 479.864
603 0 71.0877 13.9124 989 111.671 46.4105 477.562
604 0 73.0404 13.8417 1011 112.61 46.547 477.424
605 0 75.1116 13.4467 1010 113.773 46.4762 475.872
606 0 78.0711 13.6926 1069 113.404 46.2544 476.28
607 0 80.0809 14.1607 1134 112.596 46.4929 475.481
608 0 83.0636 13.5198 1123 114.952 46.7017 471.801
609 0 84.0989 12.7945 1076 117.188 46.7054 473.13
610 0 89.0932 14.0976 1256 114.249 46.9482 470.783
611 0 91.1226 14.6725 1337 114.035 46.0202 467.271
612 0 93.0972 13.9854 1302 116.952 46.4739 468.112
613 0 99.203 13.3262 1322 115.126 46.0946 465.881
614 1 52.0445 11.5286 600 113.783 46.44 488.28
615 0 51.191 12.2092 625 114.445 44.9808 484.957
616 0 53.032 12.0871 641 112.718 46.0187 486.588
617 0 57.0223 12.574 717 109.993 46.0516 485.876
618 0 59.0231 11.5887 684 111.156 45.7178 486.795
619 0 63.108 13.564 856 105.864 46.2792 484.008
620 0 62.1149 12.815 796 108.55 46.9296 483.397
621 0 66.093 13.0574 863 107.64 46.737 482.312
622 0 68.0978 13.4806 918 107.619 46.2789 480.746
623 0 67.0554 12.7656 856 110.977 45.8832 479.275
624 0 73.1731 14.2265 1041 106.076 45.8588 479.673
625 0 75.197 13.2452 996 109.206 45.5743 479.73
626 0 77.0735 13.7531 1060 109.621 45.6906 475.977
627 0 81.0582 13.8912 1126 109.551 45.7611 476.588
628 0 83.1461 13.1576 1094 112.301 45.9936 473.221
629 0 86.186 13.0648 1126 113.249 45.1696 472.713
630 0 90.152 12.9781 1170 114.588 44.9291 471.209
631 1 46.0776 10.6993 493 119.345 44.6491 492.302
632 0 48.0402 11.8651 570 119.681 45.4754 490.207
633 0 51.0819 12.1178 619 118.522 47.0775 490.511
634 0 54.0805 12.4629 674 121.346 46.5668 487.119
635 0 56.0272 13.9932 784 120.639 46.6862 487.156
636 0 57.04 13.8499 790 122.425 46.2405 485.292
637 0 60.0475 12.7233 764 124.747 47.0851 486.349
638 0 61.0292 13.4526 821 123.062 46.9111 484.083
639 0 63.09 13.3143 840 123.798 45.9905 483.05
640 0 64.0947 12.7624 818 124.789 45.5061 484.106
641 0 68.0894 13.7026 933 122.325 46.3987 482.014
642 0 69.0507 13.4394 928 124.49 47.1056 480.169
643 0 71.0558 12.8913 916 126.237 47.107 480.103
644 0 74.1203 12.7495 945 126.594 46.5503 477.708
645 0 76.1176 13.9652 1063 125.405 46.6886 475.606
646 0 78.1107 14.0314 1096 125.401 46.5611 475.473
647 0 82.0999 13.9951 1149 125.757 46.7006 474.795
648 0 84.0924 13.5922 1143 127.101 46.6842 473.019
649 0 89.1094 14.8694 1325 123.322 46.4883 470.113
650 0 92.1816 14.1894 1308 125.64 44.7469 471.321
651 0 94.0666 13.8094 1299 126.637 44.6682 468.579
652 1 48.128 11.0123 530 128.975 45.4981 491.375
653 0 51.0267 11.2098 572 126.46 46.0997 491.551
654 0 50.037 12.6306 632 116.383 44.4114 491.324
655 0 52.0566 11.4491 596 120.581 45.1711 490.683
656 0 54.0624 11.7642 636 119.752 46.7013 489.347
657 0 56.0191 12.2815 688 118.192 45.9811 488.244
658 0 58.039 12.0264 698 118.718 45.7951 487.802
659 0 59.0461 12.3802 731 118.936 45.8016 487.224
660 0 61.0464 12.6625 773 117.638 46.0906 486.413
661 0 64.0341 13.1024 839 116.752 46.2479 483.992
662 0 67.0361 12.7692 856 118.083 46.2021 483.627
663 0 68.0428 12.9918 884 118.464 46.2161 482.049
664 0 70.0669 13.116 919 119.316 45.9478 480.171
665 0 73.0377 12.5825 919 120.078 46.4059 478.91
666 0 77.0351 13.4744 1038 116.991 45.868 479.716
667 0 78.094 13.5606 1059 119.811 46.3711 475.771
668 0 81.1735 14.2904 1160 121.101 46.125 474.376
669 0 84.0292 14.3164 1203 121.776 46.1155 474.372
670 0 87.056 13.6349 1187 128.152 46.4659 473.533
671 0 91.0548 13.7609 1253 128.377 46.2713 473.465
672 0 94.0726 14.542 1368 122.68 45.9057 471.372
673 0 96.1199 14.3259 1377 122.474 46.0755 468.163
674 0 98.089 13.5081 1325 124.82 45.8845 468.454
675 0 101.183 13.7079 1387 131.168 45.8609 465.933
676 0 104.209 13.6841 1426 126.311 46.7097 464.459
677 1 56.0738 12.1269 680 124.979 46.8721 489.428
678 0 57.029 11.9764 683 123.372 46.5725 488.174
679 0 60.0891 13.6963 823 120.259 46.0158 486.128
680 0 63.0552 12.5763 793 122.366 45.9369 486.56
681 0 63.0553 13.0203 821 119.531 46.1267 485.118
682 0 64.0362 13.3674 856 118.099 46.0257 484.706
683 0 67.0504 12.1699 816 121.564 45.375 482.863
684 0 70.0505 13.3047 932 116.619 45.1105 482.77
685 0 72.095 13.1632 949 117.13 45.4162 481.678
686 0 75.092 12.2916 923 119.302 45.4128 479.39
687 0 77.2113 13.1587 1016 117.734 45.5915 478.916
688 0 81.1112 13.1548 1067 116.961 45.8397 478.443
689 0 82.0769 12.3664 1015 119.029 45.2049 476.933
690 0 84.1317 11.4463 963 122.78 45.5826 474.055
691 0 88.2263 13.1367 1159 118.115 45.2209 471.131
692 0 92.1456 13.4244 1237 117.005 45.2918 471.052
693 0 93.2577 13.0499 1217 118.987 44.9236 468.622
694 1 50.0936 12.1972 611 122.285 45.3322 490.809
695 0 52.1001 11.9578 623 128.56 46.2536 488.859
696 0 53.246 12.508 666 128.571 45.7898 487.614
697 0 55.0152 12.7056 699 116.156 45.9442 487.123
698 0 56.0254 11.5483 647 118.94 45.1391 486.368
699 0 59.0254 12.5878 743 116.063 45.2571 485.713
700 0 62.0552 12.4244 771 115.492 45.3826 485.208
701 0 62.0361 12.7023 788 115.972 45.2728 484.542
702 0 64.1891 14.1457 908 113.267 45.467 481.155
703 0 65.0318 12.0249 782 119.059 45.9373 481.009
704 0 69.0788 13.101 905 115.099 46.1006 479.143
705 0 70.0671 13.1588 922 115.769 45.7603 478.1
706 0 72.0884 12.346 890 117.137 46.7 478.603
707 0 74.0698 13.1903 977 116.719 46.1996 476.68
708 0 77.0852 12.6354 974 118.209 46.4497 475.26
709 0 82.0912 12.6688 1040 115.742 46.2029 473.515
710 0 85.1338 12.8738 1096 116.203 46.5265 470.599
711 0 87.2083 12.7511 1112 116.631 46.402 468.686
712 0 93.2279 14.1588 1320 113.073 45.9129 467.967
713 0 95.3716 13.7777 1314 115.703 45.1659 464.502
714 0 98.266 13.3006 1307 117.294 45.0268 462.463
715 1 54.2995 11.2524 611 113.3 44.4468 484.419
716 0 54.2731 11.5343 626 114.652 44.6885 483.134
717 0 55.1945 11.8309 653 111.874 45.0322 483.963
718 0 57.1839 12.8358 734 107.27 45.4496 483.966
719 0 58.1111 12.8031 744 106.859 45.2903 484.203
720 0 60.2185 12.2554 738 108.421 45.8767 484.076
721 0 62.1311 13.2784 825 105.189 45.5527 482.181
722 0 64.2313 12.0658 775 107.004 45.3445 480.348
723 0 66.1283 11.5835 766 107.454 45.2637 481.899
724 0 70.126 12.8911 904 103.698 45.0653 479.696
725 0 70.1083 12.3666 867 106.197 45.4591 477.625
726 0 74.1519 13.3779 992 103.624 45.5242 476.45
727 0 76.1138 12.8886 981 104.65 45.4822 476.406
728 0 78.1699 12.9462 1012 105.74 45.5316 473.125
729 0 81.1412 13.8031 1120 103.605 45.3375 473.69
730 0 84.1346 11.6718 982 108.595 45.3544 473.136
731 0 87.1503 12.5186 1091 107.463 44.7663 471.69
732 0 90.0657 12.824 1155 107.63 44.7411 470.817
733 0 91.1322 12.8714 1173 107.629 43.9463 468.229
734 0 95.1152 11.9539 1137 110.424 44.8927 467.427
735 0 96.0947 12.8311 1233 109.853 44.1484 467.132
736 0 101.156 12.9602 1311 109.58 44.7384 464.465
737 0 103.267 12.2014 1260 111.547 43.9373 462.949
738 0 108.463 13.7005 1486 108.499 44.1985 460.258
739 1 56.1136 11.9223 669 107.262 43.8356 486.099
740 0 58.1511 11.6421 677 108.004 44.4092 485.765
741 0 60.1008 12.7453 766 106.603 44.6057 484.893
742 0 61.1158 12.8117 783 104.954 44.1443 484.93
743 0 62.0558 12.3276 765 106.648 44.0536 483.498
744 0 66.0974 12.6026 833 105.607 43.9736 483.078
745 0 67.0559 11.9303 800 101.872 45.2038 480.918
746 0 70.1191 13.748 964 99.7811 44.8164 477.22
747 0 71.0803 11.0016 782 106.068 44.6854 477.283
748 0 75.062 12.7095 954 102.688 44.5409 476.601
749 0 77.1577 11.5737 893 104.349 45.3807 475.712
750 0 79.0534 12.3461 976 102.972 45.4662 474.62
751 0 81.2064 12.6345 1026 103.118 45.8791 473.39
752 0 85.3133 13.1515 1122 101.727 45.4688 472.463
753 0 86.0777 11.873 1022 104.6 45.0538 472.476
754 0 90.1955 11.9185 1075 106.37 45.1144 470.113
755 0 91.1937 12.9176 1178 107.301 45.4058 468.732
756 0 94.0623 11.3117 1064 109.345 45.109 471.733
757 0 98.1491 11.1972 1099 110.773 45.0874 465.844
758 0 103.207 13.1484 1357 104.325 45.437 467.556
759 0 105.106 12.045 1266 108.132 45.4897 464.92
760 1 54.0447 11.1944 605 105.245 45.6479 490.398
761 0 57.0611 11.549 659 103.388 45.5508 487.329
762 0 59.0343 13.2804 784 101.152 44.4005 484.953
763 0 61.0597 12.4141 758 102.708 44.2678 484.917
764 0 62.0634 11.8427 735 103.842 44.1673 485.653
765 0 65.0988 13.7483 895 100.87 46.1341 481.755
766 0 65.1219 11.9008 775 105.319 45.9897 482.836
767 0 69.0973 12.7791 883 103.433 45.6738 480.716
768 0 71.077 11.9448 849 105.026 46.5324 481.329
769 0 73.1067 13.665 999 102.113 45.8889 477.459
770 0 74.2641 12.3478 917 105.332 45.6947 476.834
771 0 79.1975 12.0458 954 106.788 45.8899 477.725
772 0 81.0414 12.6849 1028 107.562 45.0126 473.782
773 0 84.1734 12.2723 1033 108.925 45.6263 473.045
774 0 86.1415 11.574 997 111.944 45.6981 469.143
775 0 89.0662 12.2605 1092 109.85 44.8791 470.479
776 0 94.0311 12.3257 1159 109.186 44.0871 468.507
777 1 49.0327 10.7479 527 109.186 44.6338 489.636
778 0 50.0412 12.5497 628 105.123 44.6258 488.739
779 0 52.0566 11.9293 621 108.349 45.0386 486.651
780 0 54.0511 12.0997 654 106.466 46.3777 488.78
781 0 56.0712 12.2879 689 107.087 45.2119 487.729
782 0 58.0918 12.3425 717 108.45 45.3584 485.854
783 0 58.0676 11.6072 674 111.549 45.184 486.591
784 0 61.0821 13.3263 814 107.822 44.9644 484.214
785 0 62.0834 12.451 773 111.507 44.238 484.351
786 0 64.0558 12.8013 820 111.8 44.5146 482.526
787 0 66.07 12.6532 836 113.725 44.8888 481.278
788 0 69.2149 14.101 976 108.992 44.5174 482.531
789 0 69.0647 12.9589 895 114.66 44.6704 477.788
790 0 71.0705 13.4374 955 114.196 45.4942 479.043
791 0 76.1797 13.4944 1028 113.808 45.6946 477.974
792 0 77.1782 12.9182 997 117.171 45.666 475.972
793 0 80.2176 12.9523 1039 117.228 45.4206 475.147
794 0 83.1462 13.0132 1082 117.658 45.305 473.041
795 0 85.0615 13.4373 1143 116.992 45.5022 470.665
796 0 89.1739 13.7372 1225 116.506 46.8816 471.046
797 0 92.1714 14.3971 1327 115.711 45.5132 469.926
798 1 47.0699 10.7075 504 115.702 46.6369 491.093
799 0 50.0661 12.104 606 115.873 44.9274 489.658
800 0 53.0152 12.1097 642 115.785 46.595 488.441
801 0 52.1286 11.7977 615 118.548 44.2179 488.548
802 0 56.059 12.6296 708 115.006 44.8658 488.209
803 0 54.0138 12.1636 657 118.248 44.3181 486.528
804 0 59.1002 13.0795 773 113.039 43.9793 487.233
805 0 57.0823 12.7886 730 115.445 44.6767 486.132
806 0 61.0185 13.0616 797 113.742 44.8206 484.061
807 0 63.1319 13.4005 846 111.8 44.487 482.522
808 0 65.085 12.9216 841 113.147 44.8585 473.442
809 0 64.1348 12.9103 828 113.934 44.9915 482.992
810 0 68.187 13.2283 902 112.549 45.0377 481.06
811 0 69.0538 12.7437 880 114.358 44.2455 480.348
812 0 71.1501 13.0569 929 113.73 44.6932 478.759
813 0 73.1995 14.3307 1049 111.255 45.0067 479.205
814 0 76.0857 14.3522 1092 112.616 44.4423 476.691
815 0 77.1503 12.8191 989 116.122 45.0253 475.577
816 0 81.2587 13.6601 1110 114.222 44.4036 473.989
817 0 85.173 14.1946 1209 112.724 44.6237 472.224
818 0 90.1961 14.4352 1302 111.477 44.7005 472.444
819 0 92.1464 13.7282 1265 113.391 44.5676 472.391
820 0 93.0785 12.8171 1193 116.189 45.0805 471.392
821 0 97.2091 13.3115 1294 113.17 45.0711 469.555
822 1 52.0436 10.7218 558 115.953 44.9659 489.91
823 0 51.0756 11.5515 590 112.81 44.7034 488.866
824 0 54.0629 12.171 658 111.483 44.6945 488.184
825 0 54.0659 12.3183 666 112.949 43.7958 487.751
826 0 58.076 11.7604 683 113.154 44.2753 487.741
827 0 60.0918 12.0482 724 112.51 44.4102 486.374
828 0 62.0552 11.1191 690 113.928 44.1783 486.536
829 0 61.1328 12.3338 754 113.423 44.1127 482.712
830 0 68.0669 13.1488 895 108.697 44.7196 483.818
831 0 70.1655 12.7841 897 110.137 44.9911 482.255
832 0 71.0633 12.1722 865 113.336 44.6566 480.732
833 0 74.0734 13.9186 1031 108.322 44.1271 478.472
834 0 77.1673 13.9826 1079 108.009 44.5848 478.774
835 0 79.0882 12.8717 1018 109.398 44.5324 477.919
836 0 83.086 13.0588 1085 107.326 44.4276 475.04
837 1 46.0606 11.2678 519 109.769 44.4393 494.214
838 0 48.0312 12.367 594 105.556 45.0471 492.621
839 0 47.0707 12.4493 586 111.058 43.6894 492.503
840 0 47.0273 12.1206 570 114.065 44.3053 491.026
841 0 50.0645 10.5064 526 117.232 44.1901 491.53
842 0 54.0658 11.8744 642 113.341 44.2056 487.858
843 0 52.037 12.4719 649 114.858 43.6456 487.368
844 0 51.0638 11.8088 603 117.426 43.8076 486.01
845 0 57.0812 12.6487 722 113.87 44.572 485.929
846 0 58.0451 13.2828 771 112.671 44.1595 484.667
847 0 59.075 13.1189 775 114.044 43.8129 483.534
848 0 63.0483 13.228 834 113.477 43.7014 482.667
849 0 64.0259 14.5878 934 110.686 44.2227 482.15
850 0 63.0283 12.2802 774 118.202 42.9535 482.452
851 0 66.0531 13.035 861 115.7 44.2997 481.659
852 0 68.096 13.5397 922 115.88 44.1063 478.739
853 0 72.1003 13.19 951 116.598 44.1977 479.513
854 0 74.1629 13.6187 1010 116.283 44.2 477.892
855 0 75.1488 12.9743 975 120.534 43.6974 468.651
856 0 79.1859 14.0176 1110 116.979 43.7387 474.94
857 0 83.2002 14.2067 1182 115.404 43.4822 474.469
858 1 45.1882 10.3567 468 119.368 43.0043 492.831
859 0 45.1471 11.6065 524 119.645 43.374 490.151
860 0 47.0229 12.2919 578 110.728 43.0848 491.002
861 0 49.0798 12.2657 602 110.012 42.9319 491.807
862 0 51.0686 12.3168 629 110.008 43.9078 490.777
863 0 50.0374 13.9096 696 108.213 43.8736 488.194
864 0 52.0532 12.5064 651 112.043 43.2304 488.496
865 0 54.1467 13.5742 735 109.645 43.8204 481.367
866 0 54.0177 13.4956 729 110.579 44.0302 488.107
867 0 57.0825 13.6995 782 110.719 44.5793 486.518
868 0 58.0141 12.1522 705 114.17 44.3504 486.814
869 0 58.0623 12.211 709 116.382 43.6812 485.289
870 0 61.0732 14.0487 858 109.465 44.0058 484.963
871 0 62.0842 12.9663 805 113.834 43.9665 483.394
872 0 66.0364 13.5834 897 110.845 43.835 483.712
873 0 67.0602 13.1822 884 112.439 44.3394 481.45
874 0 68.1313 13.1657 897 112.945 43.9521 480.2
875 0 70.0396 13.4353 941 112.811 43.4485 478.913
876 0 71.0696 13.1561 935 113.595 44.3668 478.705
877 0 73.0998 13.8578 1013 111.306 44.5686 479.01
878 0 74.0238 12.8067 948 114.559 44.0823 477.826
879 0 77.1368 13.1714 1016 113.598 43.7008 476.191
880 0 80.0923 12.136 972 116.164 43.927 474.662
881 0 82.0721 13.4272 1102 114.946 45.059 473.624
882 0 86.1106 13.7962 1188 115.109 45.9487 471.769
883 0 89.1152 13.4208 1196 117.796 45.4105 471.828
884 0 91.1095 13.8734 1264 117.828 44.8022 468.873
885 0 92.167 12.5099 1153 127.538 45.0364 467.939
886 0 96.1191 14.5341 1397 123.411 45.2441 464.892
887 0 97.1852 15.2389 1481 121.934 45.4058 462.126
888 0 100.163 13.9272 1395 123.303 45.1254 464.677
889 0 105.121 13.8792 1459 122.731 44.987 461.912
890 0 110.138 14.3093 1576 122.174 44.8991 462.747
891 0 111.127 13.0932 1455 123.811 44.6282 458.519
892 0 114.126 12.7403 1454 124.06 44.5041 456.944
893 0 119.069 13.2276 1575 122.599 44.2737 456.905
894 0 125.088 14.6377 1831 119.494 44.6674 451.329
895 1 65.1178 12.5158 815 125.023 43.5914 480.481
896 0 66.1618 12.1218 802 126.782 43.9401 480.771
897 0 69.1149 13.5282 935 127.025 43.9529 477.739
898 0 73.0428 15.1281 1105 123.324 43.0842 477.561
899 0 73.1196 13.0881 957 130.45 43.3626 477.389
900 0 78.1017 13.6361 1065 128.361 43.2113 475.838
901 0 80.0561 14.1526 1133 127.268 43.0997 474.984
902 0 82.0633 14.0258 1151 129.92 42.9123 472.434
903 0 82.0749 12.9516 1063 135.574 43.0113 470.675
904 0 86.0858 13.5562 1167 133.193 43.533 469.847
905 0 89.0477 14.1497 1260 131.249 42.7968 469.233
906 0 93.0864 14.2019 1322 130.592 43.3616 469.618
907 0 95.0846 14.0086 1332 130.345 43.4452 465.702
908 0 97.0585 13.9916 1358 131.292 43.6318 464.684
909 0 99.148 13.3437 1323 132.994 43.7339 462.11
910 0 104.187 13.7445 1432 129.522 44.0091 461.736
911 1 57.1291 11.1327 636 133.895 44.5818 483.975
912 0 58.0552 12.0747 701 121.882 44.8103 479.546
913 0 60.1175 11.6938 703 113.242 44.7027 479.427
914 0 63.1432 12.4954 789 110.463 44.3599 478.004
915 0 65.0777 12.8001 833 109.36 44.4766 477.343
916 0 65.112 11.5493 752 113.634 44.1609 476.245
917 0 67.0432 11.5001 771 113.812 44.0895 474.794
918 0 70.0558 12.6185 884 111.46 44.0758 474.871
919 0 73.0402 11.966 874 113.811 44.3341 473.36
920 0 74.0829 12.0541 893 114.302 44.9787 472.677
921 0 78.047 12.3644 965 114.252 44.5575 471.875
922 0 79.077 12.6333 999 113.471 44.8278 471.413
923 0 84.1681 13.1523 1107 113.039 44.9368 468.349
924 0 84.09 11.5828 974 118.489 44.5205 466.719
925 0 87.1247 12.4649 1086 117.188 44.489 467.987
926 0 92.1989 13.0262 1201 116.379 44.5612 463.841
927 0 92.2787 12.5273 1156 120.081 43.8157 462.43
928 0 97.1926 14.0031 1361 117.055 44.2601 460.296
929 0 100.164 13.2483 1327 125.702 43.8719 458.819
930 0 101.226 13.2279 1339 129.163 44.1471 456.799
931 1 56.0308 9.54832 535 131.282 43.8112 480.581
932 0 59.1761 11.2545 666 126.239 44.9024 478.751
933 0 61.0461 12.0073 733 123.673 44.8799 479.397
934 0 64.0559 12.9887 832 119.387 45.3329 477.095
935 0 64.09 11.8583 760 124.046 44.9724 475.132
936 0 67.1314 12.2595 823 122.704 45.1179 474.634
937 0 69.2126 11.2841 781 124.583 45.073 474.341
938 0 74.1007 12.6315 936 118.847 45.531 474.434
939 0 73.1146 11.9812 876 123.803 45.5205 471.422
940 0 78.2523 11.923 933 123.36 45.3248 470.189
941 0 79.0958 12.39 980 122.713 45.2929 468.624
942 0 85.2032 13.5793 1157 118.01 44.9767 466.884
943 0 87.1415 12.2559 1068 122.38 44.6948 465.228
944 0 89.3939 12.361 1105 123.358 44.7919 463.822
945 0 91.333 12.4818 1140 125.358 45.2272 461.72
946 0 95.0965 12.5136 1190 126.269 44.2538 461.627
947 1 53.0728 11.3052 600 117.477 44.195 485.99
948 0 55.0997 10.8894 600 121.852 45.0267 484.708
949 0 58.0462 11.6287 675 119.741 45.3659 483.834
950 0 56.0965 11.8902 667 122.207 44.4603 482.202
951 0 59.1352 11.2623 666 119.905 44.8228 482.742
952 0 62.0479 12.9577 804 118.65 44.2637 480.239
953 0 60.0644 11.0215 662 126.242 44.3202 478.879
954 0 64.1738 12.1857 782 121.85 44.9258 476.994
955 0 65.0948 11.4141 743 124.001 44.7201 477.777
956 0 68.1588 11.7079 798 120.726 44.9223 479.12
957 0 70.0922 11.3137 793 123.151 44.8033 476.654
958 0 71.1276 12.0206 855 121.118 44.6971 476.33
959 0 73.0776 12.3978 906 120.865 45.0861 473.634
960 0 77.09 11.6617 899 122.989 44.6741 472.696
961 0 82.2454 12.8883 1060 117.842 44.0557 471.939
962 0 83.2618 13.2714 1105 118.475 44.1104 470.325
963 0 86.1456 13.4424 1158 118.541 44.342 468.035
964 0 89.1334 12.902 1150 118.6 44.2322 467.03
965 0 91.1424 13.3198 1214 119.27 44.061 464.712
966 0 93.1725 12.5896 1173 121.765 44.9565 465.715
967 0 96.1245 13.4305 1291 119.092 43.9884 464.98
968 0 99.1395 13.1633 1305 120.036 43.9931 463.428
969 0 101.283 13.9214 1410 117.257 44.5823 458.854
970 0 107.32 13.0172 1397 117.588 45.015 457.807
971 0 110.308 13.7162 1513 116.792 44.456 458.695
972 1 56.1352 9.85122 553 117.673 45.0669 485.139
973 0 58.1267 10.5803 615 115.72 45.2927 482.393
974 0 61.2346 12.6562 775 112.605 44.2374 482.058
975 0 62.1727 12.1275 754 111.844 44.9523 483.724
976 0 65.0519 12.8205 834 110.233 45.0839 482.074
977 0 65.1115 12.8856 839 111.235 45.4613 480.093
978 0 68.1004 11.6886 796 113.866 45.0088 480.176
979 0 71.0369 12.2612 871 111.712 44.9598 479.118
980 0 72.1424 12.6971 916 112.981 45.1092 477.011
981 0 75.1712 12.1456 913 112.459 44.9102 476.905
982 0 79.1282 13.5224 1070 109.538 45.1561 474.169
983 0 80.0603 13.4274 1075 110.916 44.9544 474.972
984 0 82.0664 12.9651 1064 112.398 45.2312 470.361
985 0 88.1999 13.1066 1156 110.565 45.2794 470.097
986 0 90.0887 13.3646 1204 110.321 45.5789 469.133
987 0 92.0976 13.1708 1213 112.237 45.1121 467.864
988 0 95.1005 13.2176 1257 112.897 45.1281 466.644
989 0 98.1961 14.1146 1386 110.687 45.3312 465.761
990 0 101.353 14.7306 1493 110.338 45.3891 461.681
991 0 101.148 12.8228 1297 117.637 45.3593 462.848
992 0 106.155 13.6781 1452 117.379 45.5861 459.371
993 0 110.208 13.8011 1521 115.638 45.8179 459.213
994 0 111.28 13.192 1468 116.51 45.7909 457.219
995 0 116.244 13.291 1545 116.719 45.488 455.183
996 0 121.369 13.8091 1676 116.366 45.0006 452.636
997 0 124.185 13.4477 1670 119.585 45.2677 450.448
998 0 129.295 14.2697 1845 118.453 45.3789 445.454
999 1 71.155 11.8755 845 120.527 44.5953 478.621
1000 0 73.1802 12.0524 882 123.441 45.4025 479.51
1001 0 77.1855 13.5647 1047 116.983 45.6122 473.719
1002 0 77.1041 13.3975 1033 115.972 45.2827 470.649
1003 0 80.0743 12.8256 1027 117.925 45.3311 469.948
1004 0 82.0504 13.1017 1075 117.283 45.3005 469.018
1005 0 84.0813 13.2372 1113 118.262 45.8221 465.803
1006 0 88.2327 13.4984 1191 117.097 45.5567 465.628
1007 0 89.1102 12.4004 1105 120.226 45.1964 464.213
1008 0 91.1208 12.7742 1164 119.832 45.0112 463.604
1009 0 94.0439 13.8659 1304 116.625 44.8643 461.948
1010 0 98.1651 14.3432 1408 113.999 45.2727 458.896
1011 0 101.132 13.4675 1362 116.883 45.3098 459.063
1012 0 104.321 12.845 1340 119.242 44.8388 457.519
1013 0 107.1 14.3137 1533 116.836 44.6856 455.389
1014 0 110.217 13.1558 1450 118.474 44.051 451.945
1015 0 114.168 13.5327 1545 118.617 44.222 452.094
1016 0 120.286 14.0332 1688 115.693 44.0006 451.277
1017 0 124.246 14.8013 1839 113.295 43.497 448.844
1018 0 129.185 14.336 1852 112.459 44.3888 448.025
1019 0 132.385 13.8687 1836 115.823 44.2315 444.07
1020 1 68.2286 11.5054 785 112.009 44.6204 475.852
1021 0 70.1639 12.1572 853 108.88 43.9918 472.592
1022 0 71.2914 11.4039 813 106.277 43.8303 472.978
1023 0 84.2389 14.3876 1212 92.6931 44.4497 464.415
1024 0 86.7245 15.5435 1348 91.6439 44.6565 464.527
1025 0 84.1714 14.4705 1218 97.7504 44.9696 466.473
1026 0 84.0433 13.7905 1159 103.185 44.8878 465.367
1027 0 85.1699 12.5162 1066 106.902 44.7692 466.718
1028 0 89.2453 13.5021 1205 105.919 45.0606 464.782
1029 0 89.1997 12.4552 1111 109.716 45.1755 465.229
1030 0 92.1187 12.6467 1165 110.206 45.3622 460.684
1031 0 98.2044 15.1113 1484 104.489 45.1765 459.631
1032 0 99.1896 13.4591 1335 111.695 45.6584 458.078
1033 0 102.224 14.752 1508 114.381 45.8674 460.218
1034 0 105.197 13.7741 1449 118.476 45.8033 456.266
1035 0 112.328 15.9443 1791 111.391 45.4439 457.24
1036 0 113.263 14.2412 1613 118.184 45.0446 454.267
1037 0 116.13 13.6226 1582 120.874 45.2383 451.365
1038 1 58.057 10.3175 599 122.669 45.6444 477.85
1039 0 61.1128 11.0942 678 120.373 45.8673 477.096
1040 0 65.1412 13.3249 868 114.515 45.2857 477.434
1041 0 68.1653 13.5113 921 115.024 45.0195 477.174
1042 0 67.1884 12.4873 839 120.868 45.6341 474.934
1043 0 71.1171 13.0208 926 121.19 45.8251 477.098
1044 0 75.0668 14.1208 1060 117.691 45.7802 476.885
1045 0 73.0423 12.7324 930 124.103 45.2968 475.565
1046 0 77.133 13.6777 1055 121.372 46.2133 474.377
1047 0 80.1666 14.7069 1179 118.846 45.9059 473.56
1048 0 81.1785 13.2424 1075 123.981 45.6205 473.471
1049 0 83.1278 15.0251 1249 119.274 45.3171 470.407
1050 0 87.1211 14.6348 1275 119.682 45.0627 469.252
1051 0 88.1361 14.2734 1258 122.472 45.2099 468.446
1052 0 91.1127 14.4546 1317 120.68 45.0569 464.216
1053 0 96.0938 14.746 1417 120.254 45.1743 463.912
1054 0 95.161 14.1234 1344 124.146 45.0737 459.307
1055 0 101.24 14.1249 1430 122.819 44.9797 459.292
1056 0 102.181 14.0437 1435 124.15 44.9603 457.029
1057 0 107.073 14.7095 1575 121.651 44.8635 456.769
1058 0 111.199 14.2177 1581 122.62 44.4396 453.493
1059 1 63.3029 11.7846 746 123.131 43.7802 477.697
1060 0 66.3755 12.7758 848 120.354 44.0495 476.578
1061 0 68.1702 13.1142 894 121.287 43.8311 476.742
1062 0 71.2589 13.6264 971 119.944 44.1174 476.862
1063 0 72.3223 13.0112 941 124.474 43.7917 476.285
1064 0 74.199 14.1781 1052 121.009 44.2167 475.639
1065 0 77.2028 14.015 1082 122.391 43.7181 456.733
1066 0 79.2724 14.7845 1172 119.925 43.7978 471.232
1067 0 82.2033 15.1454 1245 118.463 44.6843 470.353
1068 0 84.2375 13.4026 1129 125.511 44.2976 469.391
1069 0 87.1667 14.7533 1286 122.407 44.6991 469.564
1070 0 89.1721 14.3543 1280 122.997 44.2875 468.038
1071 0 91.1605 13.4817 1229 127.299 43.8609 465.818
1072 1 49.0189 12.1178 594 125.579 45.5152 488.503
1073 0 49.131 11.5406 567 126.543 44.4832 488.66
1074 0 53.1283 13.5333 719 118.384 44.6356 487.261
1075 0 54.2116 13.2997 721 116.326 45.3703 488.148
1076 0 54.1226 12.6749 686 119.475 45.1574 487.327
1077 0 57.1932 12.7113 727 118.571 45.7015 487.377
1078 0 59.1384 14.1363 836 113.931 45.4821 485.026
1079 0 59.1709 13.3681 791 118.186 45.4753 484.107
1080 0 61.0992 13.5845 830 119.486 45.3265 484.09
1081 0 64.0887 13.731 880 115.433 44.9023 481.492
1082 0 66.1765 14.1893 939 113.86 45.1991 479.447
1083 0 70.3325 14.0618 989 113.179 45.3296 480.092
1084 0 71.1947 14.8466 1057 111.595 45.4011 480.042
1085 0 73.3082 13.6956 1004 115.257 44.5996 475.333
1086 0 75.3267 13.6207 1026 116.524 44.4288 473.304
1087 0 80.2824 14.8849 1195 112.046 44.3146 473.309
1088 0 82.1389 13.7694 1131 114.723 44.5588 472.484
1089 0 83.1039 13.4891 1121 116.531 44.8733 471.718
1090 0 87.1034 14.787 1288 112.201 43.9946 469.429
1091 0 87.0372 13.7183 1194 117.245 44.4012 466.821
1092 0 90.1609 13.0766 1179 124.921 44.9881 463.73
1093 0 96.1007 14.3391 1378 119.6 45.4151 463.62
1094 0 100.106 14.3848 1440 116.558 44.8257 461.525
1095 0 100.106 13.3159 1333 121.049 44.2618 459.275
1096 1 55.0918 10.2193 563 128.346 44.5027 482.055
1097 0 55.1577 10.9323 603 131.161 45.2488 478.625
1098 0 61.1244 13.4153 820 122.311 44.4793 479.327
1099 0 62.1724 12.7388 792 123.011 44.3965 479.317
1100 0 66.0976 13.5406 895 117.889 44.3363 479.088
1101 0 68.1445 12.8404 875 120.746 45.272 476.853
1102 0 69.2551 13.2698 919 121.075 45.1839 476.47
1103 0 73.2754 13.4561 986 119.909 45.3002 475.165
1104 0 74.1552 12.6222 936 124.6 45.0919 472.618
1105 0 77.3507 13.9753 1081 120.651 44.9713 473.055
1106 0 79.1127 14.3972 1139 119.622 43.7709 473.959
1107 0 82.1177 13.1884 1083 123.817 43.5697 470.779
1108 0 85.2352 13.9731 1191 122.081 44.0848 469.942
1109 0 87.1958 14.1291 1232 123.848 44.1096 465.954
1110 0 91.1132 14.3338 1306 124.849 43.8721 467.118
1111 0 94.2904 14.4766 1365 125.495 44.2967 464.296
1112 0 97.5073 13.6503 1331 129.964 44.1931 461.158
1113 0 101.326 13.3629 1354 130.35 43.9143 459.722
1114 0 104.217 14.9304 1556 128.184 44.937 455.544
1115 0 106.349 14.2267 1513 129.928 44.6008 454.382
1116 0 109.431 15.48 1694 126.61 44.4687 449.574
1117 0 114.278 15.1823 1735 127.201 44.1233 449.161
1118 0 116.317 15.6468 1820 126.719 44.4654 448.882
1119 0 121.544 13.9456 1695 132.442 44.3994 446.181
1120 0 126.324 14.8428 1875 129.097 44.3195 443.475
1121 0 129.351 14.9361 1932 129.144 43.9079 439.327
1122 1 75.0888 12.2921 923 134.913 43.6793 468.761
1123 0 78.2182 13.4623 1053 130.268 44.5413 467.635
1124 0 80.2333 14.6448 1175 127.676 44.2111 467.577
1125 0 82.1023 13.3614 1097 130.358 45.0884 468.261
1126 0 84.0968 13.1158 1103 130.143 45.1714 466.476
1127 0 87.0479 13.7855 1200 128.895 45.7142 465.383
1128 0 91.087 14.0196 1277 128.441 45.2498 462.647
1129 0 92.1292 13.3183 1227 132.416 44.1157 459.464
1130 0 95.13 14.5485 1384 128.352 43.9169 458.792
1131 0 98.2524 13.2414 1301 132.447 44.2575 457.254
1132 0 101.138 13.1405 1329 132.834 44.1738 455.897
1133 0 107.162 14.1468 1516 129.1 44.3074 452.173
1134 0 107.17 13.7165 1470 132.72 43.9966 450.055
1135 0 111.182 14.3639 1597 130.172 44.4164 451.803
1136 0 116.143 13.8191 1605 131.987 44.7421 449.882
1137 0 119.178 13.5763 1618 132.821 44.4802 446.495
1138 1 63.1289 11.9597 755 130.685 45.404 473.416
1139 0 65.0339 11.6708 759 132.842 44.8498 474.32
1140 0 68.0966 12.9522 882 130.132 43.8764 475.51
1141 0 70.0752 13.0431 914 128.581 43.8654 471.792
1142 0 71.1017 12.1657 865 132.242 44.0173 475.874
1143 0 76.1346 13.8176 1052 125.972 43.8745 472.234
1144 0 77.1029 13.8646 1069 126.368 43.6894 471.793
1145 0 80.1058 13.2699 1063 128.046 43.4393 469.737
1146 0 82.1648 13.0713 1074 129.431 43.5438 467.049
1147 0 86.0821 12.4184 1069 130.273 42.9027 463.425
1148 0 87.0881 13.4691 1173 126.116 43.2549 461.535
1149 0 90.2082 13.4134 1210 126.696 42.5512 460.379
1150 0 92.137 13.2086 1217 127.833 42.7099 460.836
1151 0 96.2299 13.3534 1285 127.226 42.4724 458.854
1152 0 100.151 14.2085 1423 124.089 42.6472 456.445
1153 0 100.139 13.671 1369 126.177 42.981 451.866
1154 0 105.167 14.5388 1529 122.432 43.7855 450.655
1155 0 108.17 15.1706 1641 120.527 43.855 447.667
1156 0 113.15 13.7163 1552 123.373 43.4626 446.735
1157 0 116.2 13.5714 1577 124.193 43.5688 443.565
1158 0 121.179 13.7482 1666 122.836 43.7203 441.813
1159 0 126.246 13.8144 1744 122.362 43.6049 440.643
1160 0 128.229 13.8346 1774 124.287 43.1483 433.77
1161 0 133.27 14.0392 1871 124.474 43.1053 431.859
1162 1 72.0959 9.52898 687 128.32 42.8224 463.496
1163 0 77.1553 11.587 894 122.062 43.0615 461.861
1164 0 81.26 10.7925 877 119.208 43.6363 461.299
1165 0 87.2086 12.1433 1059 114.205 43.8517 460.774
1166 0 82.0812 10.648 874 122.367 43.7082 455.923
1167 0 89.1902 11.4474 1021 112.917 44.24 457.238
1168 0 91.2551 10.4652 955 115.255 44.3445 457.199
1169 0 98.2171 11.383 1118 111.589 44.1252 457.548
1170 0 98.2494 11.2774 1108 114.154 44.102 452.434
1171 0 103.118 11.9571 1233 111.199 42.9392 454.144
1172 0 107.279 11.2324 1205 112.032 43.556 454.207
1173 0 113.246 12.857 1456 108.831 43.9245 449.481
1174 0 116.188 11.7826 1369 116.899 43.767 450.874
1175 0 120.188 11.8315 1422 120.982 43.4705 450.583
1176 0 124.15 12.0258 1493 121.632 43.6597 448.958
1177 1 70.0728 10.4748 734 119.206 43.8365 479.272
1178 0 73.0986 13.6118 995 112.325 43.6452 476.73
1179 0 75.2809 11.9685 901 116.508 44.9401 473.596
1180 0 71.1093 9.63305 685 125.549 43.1372 469.645
1181 0 80.1319 11.0568 886 117.955 43.8679 472.386
1182 0 82.0976 10.6824 877 119.111 44.9145 471.12
1183 0 84.2433 12.0841 1018 116.643 44.8831 469.639
1184 0 87.2021 12.1557 1060 115.853 44.7434 467.529
1185 0 91.1464 12.7707 1164 114.08 44.1306 468.108
1186 0 91.2683 13.0713 1193 114.332 44.4426 465.174
1187 0 95.2491 12.987 1237 114.628 44.4996 465.282
1188 0 96.2597 13.6298 1312 114.858 44.1684 462.121
1189 0 101.308 13.5133 1369 113.205 44.1147 463.348
1190 0 102.282 12.2602 1254 117.356 44.6172 461.737
1191 0 105.28 13.9533 1469 113.927 44.1464 457.278
1192 0 108.314 13.7748 1492 112.418 43.939 453.424
1193 0 110.253 12.4078 1368 111.447 44.6535 454.7
1194 0 114.205 11.5232 1316 113.572 43.6558 453.081
1195 0 117.149 11.9165 1396 112.128 43.5036 452.024
1196 0 119.143 11.524 1373 114.945 43.7997 447.839
1197 0 121.228 11.9692 1451 115.693 43.3218 445.574
1198 1 70.3005 11.2659 792 114.943 43.8775 469.588
1199 0 69.0678 10.7141 740 112.741 44.2878 469.061
1200 0 73.1008 11.7646 860 110.371 44.1279 467.031
1201 0 75.1147 12.208 917 109.312 44.0109 464.926
1202 0 76.1414 11.807 899 110.774 44.139 464.949
1203 0 80.056 12.204 977 109.046 44.0174 464.601
1204 0 83.1239 11.6693 970 110.332 43.3495 462.406
1205 0 85.2365 11.6147 990 110.235 43.099 460.378
1206 0 86.1761 11.3489 978 112.015 43.3865 460.004
1207 0 89.3017 11.4779 1025 111.842 43.3961 455.721
1208 0 94.4147 12.6675 1196 108.545 43.459 453.906
1209 0 94.2571 12.1688 1147 110.541 43.6225 451.684
1210 0 98.241 12.449 1223 109.335 43.6549 450.953
1211 1 60.1853 9.30459 560 99.8982 44.5679 469.393
1212 0 63.0537 11.6409 734 103.482 42.5381 473.106
1213 0 62.0921 10.7099 665 104.29 42.6586 478.251
1214 0 64.0664 11.5973 743 103.498 42.9677 480.135
1215 0 66.0371 12.2356 808 102.834 43.354 479.204
1216 0 69.1163 11.9364 825 102.952 42.9709 478.486
1217 0 71.0937 11.7169 833 103.349 43.3733 477.194
1218 0 73.1046 12.9267 945 101.038 43.4815 474.262
1219 0 75.1018 12.3299 926 102.501 43.1836 476.62
1220 0 75.1255 10.9417 822 107.444 42.8212 473.232
1221 0 80.2203 12.0792 969 104.485 42.9856 474.933
1222 0 83.1534 12.7475 1060 103.334 42.1066 471.706
1223 0 86.1828 12.984 1119 103.849 42.4066 472.439
1224 0 88.0923 13.4518 1185 103.195 42.681 471.551
1225 0 89.1822 12.7043 1133 105.756 42.8906 468.157
1226 0 94.0856 12.8075 1205 104.515 42.9145 468.466
1227 0 95.0807 12.9679 1233 105.274 43.4688 466.758
1228 0 98.2084 13.9092 1366 104.465 43.4949 462.309
1229 0 101.151 12.9707 1312 107.681 43.2652 461.896
1230 0 105.162 12.7993 1346 107.155 43.8083 463.217
1231 0 108.104 13.4593 1455 105.909 43.6433 459.346
1232 0 111.24 12.2078 1358 110.77 42.986 457.456
1233 0 115.089 14.05 1617 106.55 43.2288 454.287
1234 0 118.135 12.4857 1475 110.487 42.9817 455.047
1235 0 121.168 12.6601 1534 110.977 42.7503 452.102
1236 1 67.2508 10.7359 722 108.625 43.2742 482.385
1237 0 67.162 11.4946 772 106.782 42.9935 481.462
1238 0 69.0952 12.1427 839 105.032 43.882 480.166
1239 0 72.0598 12.9059 930 105.077 43.4312 479.489
1240 0 73.2101 12.6622 927 106.427 43.2071 477.921
1241 0 76.1227 13.0316 992 106.037 42.9556 474.405
1242 0 76.1332 12.268 934 107.589 42.8715 474.343
1243 0 81.1223 12.8202 1040 107.223 43.0048 473.329
1244 0 82.1287 12.2247 1004 109.164 42.9512 473.586
1245 0 87.1945 13.3609 1165 107.288 42.2189 471.378
1246 0 88.1184 13.4138 1182 108.569 42.4966 468.257
1247 0 92.1932 13.5043 1245 108.17 42.2948 469.961
1248 0 93.1561 12.8601 1198 108.62 42.5451 470.048
1249 0 98.0662 12.1857 1195 111.122 42.8644 467.081
1250 0 99.0771 11.708 1160 113.532 43.1129 464.541
1251 0 103.101 11.8428 1221 110.86 43.5602 464.124
1252 0 106.178 13.3361 1416 109.136 43.6624 463.806
1253 1 58.2743 11.669 680 116.426 42.7221 483.241
1254 0 57.0828 10.0381 573 112.229 43.9319 480.255
1255 0 60.1086 11.8951 715 117.043 42.2028 484.26
1256 0 61.0787 11.3296 692 120.208 43.2803 483.085
1257 0 63.0941 12.3308 778 117.604 42.838 481.091
1258 0 66.0828 12.8929 852 115.934 42.9155 480.623
1259 0 67.1205 12.7681 857 117.217 43.0198 480.427
1260 0 71.168 13.0958 932 115.615 43.4775 479.446
1261 0 72.1653 13.3859 966 115.217 43.7464 480.31
1262 0 75.1599 14.7286 1107 112.544 43.1427 476.129
1263 0 78.1942 13.0572 1021 117.414 43.0255 476.918
1264 0 80.1567 13.536 1085 117.682 43.3622 474.763
1265 0 79.2705 13.1575 1043 121.005 43.4295 473.7
1266 0 84.1611 14.0801 1185 118.12 42.8523 471.786
1267 0 85.1821 14.8505 1265 117.409 43.181 470.686
1268 0 86.2483 12.9742 1119 123.584 43.4441 469.173
1269 0 90.1978 14.3352 1293 120.697 43.8175 467.303
1270 0 95.1563 14.6286 1392 117.926 42.9497 465.828
1271 0 96.2358 13.3734 1287 114.002 43.0474 446.647
1272 1 51.1159 10.0556 514 110.383 44.072 476.965
1273 0 54.1211 10.07 545 112.44 43.4606 479.527
1274 0 53.2407 11.0442 588 117.117 44.0493 479.49
1275 0 53.1809 11.8276 629 115.343 43.9459 479.362
1276 0 56.1175 12.7055 713 113.48 43.8527 477.087
1277 0 58.1346 11.9378 694 113.902 44.8112 478.759
1278 0 59.2332 12.9488 767 113.029 45.0665 475.583
1279 0 60.1999 10.8306 652 118.692 44.7929 474.339
1280 0 65.0535 13.4812 877 120.819 45.1072 476.788
1281 0 68.0481 13.2259 900 118.121 45.5456 480.213
1282 0 69.103 13.9357 963 120.098 45.7612 476.674
1283 0 70.1116 13.1505 922 122.394 44.7983 477.166
1284 0 73.155 13.8473 1013 121.979 45.2517 474.569
1285 0 74.368 13.245 985 125.056 44.9066 473.674
1286 0 78.21 14.6017 1142 121.514 44.1489 465.983
1287 0 81.1393 14.5922 1184 121.491 43.8404 460.943
1288 0 82.1815 13.3607 1098 125.209 44.1494 469.696
1289 0 86.2649 14.0497 1212 123.436 44.2962 467.082
1290 0 89.4157 13.8007 1234 122.012 43.5211 466.502
1291 0 91.27 14.616 1334 120.987 43.4625 464.523
1292 0 93.3004 14.0192 1308 122.988 43.8165 464.536
1293 0 95.1806 14.2781 1359 122.82 43.4783 462.099
1294 0 98.3293 13.587 1336 124.155 43.4738 460.964
1295 0 102.397 13.4476 1377 123.289 43.4575 459.367
1296 0 103.133 14.2147 1466 118.354 43.7442 456.703
1297 0 108.167 13.9877 1513 117.531 44.1785 456.529
1298 0 113.196 14.4086 1631 116.758 44.7676 454.884
1299 0 115.307 13.4424 1550 120.052 44.5439 452.755
1300 1 65.151 12.6322 823 115.741 45.5905 478.428
1301 0 64.1229 11.478 736 122.845 44.4701 475.374
1302 0 69.1627 13.3309 922 113.833 45.4328 475.954
1303 0 70.1909 12.9931 912 116.991 45.7357 475.355
1304 0 71.1545 12.7469 907 119.481 44.9184 473.574
1305 0 76.2465 13.8498 1056 116.099 44.607 473.005
1306 0 75.1407 12.7228 956 121.022 44.6757 470.621
1307 0 79.0804 13.0753 1034 120.421 43.9787 473.009
1308 0 82.1035 13.8484 1137 119.511 43.8953 470.662
1309 0 84.0618 12.6217 1061 123.108 43.8935 472.142
1310 0 87.1538 13.7229 1196 122.852 44.7483 458.107
1311 0 92.1505 13.0547 1203 124.293 44.7473 459.126
1312 0 94.2812 13.3112 1255 123.393 44.9442 456.896
1313 0 96.1661 13.1335 1263 124.306 44.8852 455.307
1314 0 98.1525 13.9375 1368 121.935 44.5453 456.447
1315 0 101.179 12.9275 1308 124.701 44.7072 457.937
1316 0 104.223 13.9796 1457 121.666 44.6095 459.504
1317 0 105.358 12.2535 1291 127.642 44.1201 457.032
1318 0 110.159 14.0887 1552 123.334 44.0406 454.907
1319 0 113.268 13.3313 1510 125.729 43.8927 453.087
1320 0 116.19 13.6845 1590 124.609 43.6126 453.093
1321 0 123.201 13.3765 1648 124.664 43.6208 452.056
1322 0 126.348 13.906 1757 124.383 43.9357 449.105
1323 0 131.313 13.4183 1762 127.317 43.3814 445.912
1324 1 73.1987 11.9264 873 115.863 43.8488 468.4
1325 0 74.3274 10.7766 801 115.28 44.4357 466.541
1326 0 77.243 10.8748 840 115.727 44.444 465.893
1327 0 75.167 10.0044 752 120.806 43.242 461.487
1328 0 82.2394 10.4451 859 119.296 44.6694 463.767
1329 0 87.1343 11.8208 1030 115.891 43.6951 467.079
1330 0 88.1218 11.0188 971 119.446 42.9495 463.874
1331 0 91.1324 11.3132 1031 118.383 42.8118 465.558
1332 0 93.0835 12.4619 1160 117.146 43.1397 464.203
1333 0 97.1523 12.3929 1204 116.379 44.0365 463.77
1334 0 99.1565 12.3441 1224 116.91 43.8333 460.927
1335 0 102.234 11.8747 1214 118.077 43.8715 460.913
1336 0 106.312 11.5791 1231 120.134 43.2843 455.896
1337 0 109.173 11.9169 1301 119.957 43.628 453.875
1338 0 113.239 11.9393 1352 119.996 42.7448 453.615
1339 0 117.23 11.7718 1380 119.647 43.2058 453.993
1340 0 120.154 12.692 1525 118.506 43.5357 451.229
1341 1 67.0625 9.91613 665 110.035 44.0902 479.347
1342 0 70.0669 12.4881 875 105.379 44.9886 476.501
1343 0 71.1231 11.0653 787 109.592 44.5845 475.799
1344 0 73.1596 10.2652 751 111.065 44.3076 474.374
1345 0 76.2316 11.124 848 109.131 44.4045 473.654
1346 0 78.1407 11.0826 866 109.853 44.1917 470.932
1347 0 81.4051 10.8838 886 109.502 44.2686 470.823
1348 0 82.3702 10.3436 852 111.531 44.311 470.653
1349 0 86.2142 10.6711 920 110.689 43.8511 468.136
1350 0 90.1628 10.2814 927 111.035 43.2578 467.099
1351 0 92.4028 10.9412 1011 110.462 43.185 465.173
1352 0 95.2892 11.4808 1094 109.744 44.2934 464.421
1353 0 98.111 11.0589 1085 108.675 44.623 464.935
1354 0 101.16 11.3187 1145 109.119 44.4175 459.574
1355 0 101.221 10.1461 1027 112.999 44.4537 456.982
1356 0 107.327 10.8826 1168 112.234 43.7628 456.131
1357 0 112.341 11.0289 1239 111.973 43.8515 455.8
1358 0 114.315 10.9435 1251 115.037 44.1223 450.596
1359 0 119.206 11.5347 1375 113.511 43.8444 446.644
1360 1 70.1029 11.2549 789 102.253 43.4474 479.366
1361 0 71.063 11.919 847 101.061 43.098 475.835
1362 0 74.1476 10.9916 815 116.773 43.4613 473.915
1363 0 76.1693 10.1091 770 118.374 44.687 474.103
1364 0 79.2078 11.7034 927 115.398 44.8706 471.771
1365 0 84.3155 10.9233 921 115.05 44.8165 472.422
1366 0 91.3035 9.62723 879 118.639 44.7008 467.535
1367 0 92.3566 10.8168 999 117.12 44.979 466.358
1368 0 91.3375 10.7404 981 115.622 44.4893 468.052
1369 0 90.3325 10.2289 924 119.166 44.4416 461.481
1370 0 95.3116 11.4152 1088 115.994 43.8346 463.741
1371 0 99.3893 10.6853 1062 116.291 44.4435 465.21
1372 0 100.28 12.2956 1233 114.469 43.94 459.13
1373 0 104.279 10.4431 1089 117.888 44.0533 462.777
1374 0 106.383 11.3364 1206 115.779 43.9063 456.799
1375 1 56.0741 8.5601 480 108.869 44.775 484.19
1376 0 58.1577 11.5032 669 99.1555 43.1734 484.761
1377 0 61.2387 10.6632 653 102.308 43.0153 481.677
1378 0 62.157 11.1009 690 101.935 43.6261 481.406
1379 0 63.1476 10.325 652 98.2239 43.9739 479.551
1380 0 65.1478 9.56287 623 100.263 44.435 475.413
1381 0 65.1423 11.0067 717 98.6444 43.9456 474.544
1382 0 68.204 11.4803 783 98.6271 44.166 476.903
1383 0 71.1182 10.7989 768 101.009 43.7096 477.608
1384 0 72.1318 11.4235 824 100.021 44.0218 474.357
1385 0 76.0557 11.6757 888 99.4155 44.5068 474.659
1386 0 75.0944 12.0116 902 100.874 44.3625 473.156
1387 0 76.099 10.3155 785 105.045 44.3287 470.029
1388 0 81.1405 11.6465 945 102.052 44.4063 471.812
1389 0 81.0874 11.3704 922 104.562 44.3438 469.594
1390 0 86.1884 11.3472 978 104.585 44.4622 469.409
1391 0 89.1515 11.6094 1035 104.408 44.086 466.487
1392 0 91.1705 11.8788 1083 104.701 43.8319 466.187
1393 0 91.2503 11.3096 1032 107.48 43.5455 463.767
1394 0 96.1357 12.3991 1192 106.076 43.4262 462.441
1395 0 99.1572 11.749 1165 108.122 43.5494 462.983
1396 1 52.0823 10.061 524 106.361 43.1279 485.281
1397 0 55.0799 10.2215 563 104.618 43.444 484.297
1398 0 56.122 9.21208 517 105.812 43.559 483.164
1399 0 57.0813 11.6325 664 101.416 44.1943 479.572
1400 0 59.0757 10.0549 594 106.84 43.7778 480.386
1401 0 64.2698 12.4164 798 112.059 43.3734 482.133
1402 0 66.17 11.8936 787 116.163 43.5781 481.461
1403 0 67.2924 11.9627 805 121.45 43.4224 481.232
1404 0 70.2425 12.0867 849 121.74 43.9317 479.161
1405 0 72.236 13.7051 990 117.776 43.499 477.646
1406 0 72.1875 12.4537 899 122.177 43.0601 476.873
1407 0 74.2661 13.0073 966 122.066 43.234 474.046
1408 0 76.24 13.7461 1048 119.445 42.9485 476.094
1409 0 80.3694 12.9776 1043 121.838 43.605 473.159
1410 0 81.2586 12.9832 1055 124.068 43.672 469.431
1411 0 85.3422 14.1079 1204 120.337 43.1595 469.225
1412 0 88.3967 14.1069 1247 117.859 43.0706 468.872
1413 0 88.3911 13.2706 1173 121.737 43.6675 464.734
1414 0 90.271 13.4041 1210 121.302 43.4347 466.25
1415 0 93.3669 13.5059 1261 122.25 42.8136 463.128
1416 0 98.4755 13.5567 1335 120.852 43.1019 458.59
1417 0 100.488 13.6533 1372 121.319 43.4067 458.272
1418 0 104.478 14.9314 1560 117.678 43.2071 455.686
1419 0 102.119 13.1122 1339 119.317 43.7326 452.81
1420 0 106.277 12.7496 1355 112.18 43.6679 451.031
1421 1 55.1051 11.8864 655 120.966 43.0061 475.394
1422 0 58.1624 12.5167 728 120.964 44.2019 474.231
1423 0 61.2196 12.4143 760 118.039 43.1829 474.421
1424 0 60.0669 12.3862 744 119.292 43.6707 471.978
1425 0 64.2044 12.6783 814 118.113 44.4914 471.047
1426 0 67.1659 11.613 780 120.672 44.4321 462.219
1427 0 67.1888 12.5467 843 119.069 45.3618 468.87
1428 0 70.2567 11.7284 824 120.705 43.784 468.907
1429 0 73.1869 13.2537 970 117.634 43.9928 469.488
1430 0 74.1162 12.3994 919 117.605 44.321 469.337
1431 0 78.1443 12.2978 961 116.169 44.7971 470.973
1432 0 83.2104 12.7268 1059 117.85 45.1907 471.142
1433 0 85.1215 12.9227 1100 117.61 44.4155 468.704
1434 0 89.0716 13.7867 1228 115.362 44.6783 466.982
1435 0 91.2617 12.645 1154 119.752 43.5173 463.929
1436 0 95.4263 12.5437 1197 119.074 42.9114 462.023
1437 0 99.4667 13.7433 1367 116.141 42.8325 457.236
1438 0 102.443 13.4221 1375 118.541 42.8989 454.784
1439 0 103.465 12.2457 1267 122.028 43.6054 453.636
1440 0 108.506 12.285 1333 121.207 43.8042 450.865
1441 0 111.557 13.2488 1478 119.298 43.8018 448.943
1442 0 113.725 11.8796 1351 124.494 43.8771 446.33
1443 0 118.583 13.2313 1569 120.567 44.0229 446.562
1444 0 122.617 11.85 1453 123.384 44.0255 445.341
1445 0 128.492 12.3666 1589 121.547 44.2278 442.559
1446 0 131.649 12.1459 1599 123.27 44.3421 440.008
1447 1 73.3233 12.0835 886 112.115 43.7968 470.722
1448 0 73.2977 10.7098 785 115.641 43.5924 471.189
1449 0 78.2297 12.3227 964 113.95 43.7967 470.269
1450 0 80.2429 12.4622 1000 114.603 44.75 467.434
1451 0 84.1602 12.7257 1071 113.336 44.5201 468.504
1452 0 86.3257 12.7309 1099 114.123 44.6451 466.102
1453 0 87.2162 11.3167 987 118.596 44.5218 465.682
1454 0 91.1421 11.4437 1043 119.162 43.7498 463.892
1455 0 96.3474 13.3475 1286 113.666 44.4199 462.873
1456 0 99.3775 12.8701 1279 115.443 44.3487 458.542
1457 0 102.224 13.0302 1332 115.295 44.4827 456.529
1458 0 105.364 13.0026 1370 114.826 44.1715 458.981
1459 0 106.643 12.434 1326 117.794 44.0573 454.361
1460 0 113.444 12.9491 1469 116.326 44.9837 454.16
1461 1 58.3243 10.8703 634 113.711 44.8454 480.082
1462 0 61.2359 12.2804 752 109.989 44.2566 478.797
1463 0 65.1695 12.8895 840 107.621 43.7524 479.155
1464 0 67.1635 12.0155 807 108.361 44.3656 478.537
1465 0 68.2368 12.867 878 108.272 45.3052 476.09
1466 0 71.2966 12.5672 896 108.292 44.7712 477.286
1467 0 73.2139 12.4566 912 109.755 45.0888 475.34
1468 0 75.1393 12.7896 961 109.938 44.8959 474.681
1469 0 78.2447 13.2788 1039 108.616 45.2695 471.926
1470 0 81.2078 12.8805 1046 109.629 44.7409 471.857
1471 0 82.1832 13.0805 1075 109.381 44.0967 471.61
1472 0 86.1118 12.7276 1096 109.868 43.5347 468.135
1473 0 90.2171 12.3591 1115 109.704 43.9695 467.014
1474 0 90.2056 12.4272 1121 111.055 43.5219 464.527
1475 0 95.2158 13.0966 1247 110.671 43.6921 464.796
1476 0 100.164 13.6775 1370 108.751 44.0117 461.096
1477 0 102.11 13.7303 1402 108.092 44.4558 462.322
1478 0 104.198 13.1192 1367 110.882 44.2246 460.887
1479 1 56.1025 10.3382 580 108.226 44.9759 482.995
1480 0 58.1393 11.8681 690 111.184 43.8319 483.054
1481 0 57.3109 10.6437 610 106.852 44.8164 478.008
1482 0 60.1001 12.579 756 102.987 44.246 478.271
1483 0 60.1258 12.8065 770 103.851 43.7351 475.488
1484 0 62.1964 11.8496 737 105.904 43.521 477.204
1485 0 63.0702 11.3049 713 107.7 44.0435 475.957
1486 0 67.1073 11.6083 779 106.2 44.0398 474.005
1487 0 67.0789 13.3276 894 102.961 43.9262 472.918
1488 0 73.1546 12.5214 916 102.107 44.1856 473.366
1489 0 69.1488 11.092 767 107.827 44.0235 470.261
1490 0 74.094 11.229 832 106.397 44.4255 470.919
1491 0 74.2327 12.7168 944 103.76 43.9078 469.909
1492 0 78.1897 13.0196 1018 104.788 43.8743 467.315
1493 0 84.1626 14.3413 1207 101.244 44.1102 466.418
1494 0 83.1716 12.2638 1020 107.001 44.4147 467.965
1495 0 86.1785 12.3581 1065 107.603 43.5052 464.415
1496 0 91.2253 12.3431 1126 107.611 43.5631 462.275
1497 0 94.3113 12.3209 1162 108.17 43.9475 461.805
1498 0 94.4266 11.3421 1071 112.513 43.465 457.118
1499 0 97.2592 12.441 1210 110.66 43.3364 456.507
1500 0 101.187 12.2249 1237 111.724 43.4705 450.437
1501 0 104.236 12.5005 1303 111.642 43.4106 453.774
1502 0 106.192 12.8729 1367 111.257 42.9049 452.347
1503 0 111.312 13.5655 1510 106.095 43.406 450.884
1504 0 113.269 13.9049 1575 102.267 43.0667 451.197
1505 0 115.216 13.8435 1595 103.974 43.2978 449.616
1506 0 116.178 13.4276 1560 109.288 44.0372 448.939
1507 1 68.0907 10.6329 724 105.387 44.6464 474.13
1508 0 69.1348 11.9477 826 104.088 44.0533 472.334
1509 0 68.1913 9.86929 673 108.357 44.0832 474.339
1510 0 71.1649 11.2977 804 105.321 44.4988 474.58
1511 0 75.2075 11.6478 876 102.716 43.7272 473.968
1512 0 77.2103 10.7499 830 103.867 43.1904 469.959
1513 0 77.1476 10.3438 798 104.639 43.208 467.305
1514 0 82.1188 11.9826 984 99.2744 43.7297 469.605
1515 0 83.0902 11.2288 933 101.665 43.4652 464.195
1516 0 89.2008 12.399 1106 98.764 44.047 467.387
1517 0 91.1978 12.3029 1122 100.049 43.2228 463.314
1518 0 92.169 12.6073 1162 100.055 43.6377 460.499
1519 0 95.296 11.2282 1070 103.599 44.0991 460.752
1520 0 100.204 12.1951 1222 102.613 43.8372 455.469
1521 0 100.136 12.2233 1224 103.938 44.268 457.653
1522 0 104.156 11.694 1218 105.193 43.6018 457.505
1523 0 104.089 10.9618 1141 108.318 44.0009 455.143
1524 1 57.1001 8.54639 488 105.246 42.7234 477.51
1525 0 57.1045 10.8048 617 106.233 44.2301 476.246
1526 0 59.1365 10.2813 608 105.692 43.7303 477.171
1527 0 61.1903 10.9821 672 103.533 43.6682 476.225
1528 0 61.06 10.8582 663 105.875 43.6848 475.843
1529 0 64.2068 11.1982 719 105.821 43.7622 474.939
1530 0 65.067 11.5266 750 106.971 44.2533 473.891
1531 0 69.0942 12.4034 857 106.025 43.4049 473.979
1532 0 65.175 10.817 705 112.898 43.1305 471.041
1533 0 70.1288 11.7355 823 111.08 43.2722 471.023
1534 0 69.0555 11.9904 828 113.13 43.1727 469.42
1535 0 76.1416 11.3473 864 113.955 43.4016 470.214
1536 0 79.1222 13.6498 1080 110.219 42.2194 468.363
1537 0 81.1631 12.3086 999 113.974 43.0541 467.893
1538 0 84.0777 12.5836 1058 114.146 43.1219 465.494
1539 0 88.0868 13.464 1186 116.379 42.9148 452.615
1540 0 88.172 14.6078 1288 112.144 42.5699 462.814
1541 0 89.1284 11.7695 1049 119.692 42.3117 461.723
1542 0 94.1148 13.2817 1250 116.203 43.0552 460.798
1543 0 96.1863 13.2139 1271 117.725 42.9347 457.758
1544 0 99.1366 13.4461 1333 120.443 41.9122 459.659
1545 0 103.169 15.4213 1591 124.553 41.8988 460.747
1546 0 106.158 13.0843 1389 133.508 42.144 459.063
1547 0 110.137 13.9099 1532 132.052 42.2298 458.424
1548 1 59.1066 11.0817 655 134.351 42.7496 481.71
1549 0 59.1677 12.4561 737 127.864 42.1981 477.236
1550 0 64.3434 12.0448 775 116.857 41.4413 478.213
1551 0 65.1317 11.1313 725 121.607 40.8166 475.53
1552 0 66.0917 11.5143 761 123.353 41.0184 477.367
1553 0 71.1852 11.3226 806 122.44 41.1687 478.517
1554 0 72.1708 11.7776 850 122.656 40.7835 476.521
1555 0 77.1562 13.1422 1014 117.981 40.2396 477.334
1556 0 77.1473 12.1975 941 122.719 41.2827 474.481
1557 0 81.0392 12.167 986 123.071 40.1836 473.188
1558 0 84.1032 13.2813 1117 120.353 40.1038 473.569
1559 0 85.1033 13.278 1130 122.358 40.0062 473.005
1560 0 87.0889 13.136 1144 124.098 40.6486 469.156
1561 0 91.0608 13.156 1198 124.217 40.1903 467.824
1562 0 93.1497 12.2062 1137 126.405 40.4274 467.506
1563 0 95.2763 12.9833 1237 126.029 40.1948 464.729
1564 0 99.4042 14.094 1401 124.053 40.4518 462.56
1565 0 101.564 13.5186 1373 126.481 40.6875 460.562
1566 0 102.292 13.4517 1376 128.664 40.6061 458.698
1567 0 106.368 13.2747 1412 128.747 40.711 458.245
1568 0 110.483 13.1604 1454 128.955 40.2648 455.523
1569 0 115.248 13.7182 1581 127.753 41.1689 453.423
1570 0 119.291 13.6054 1623 128.391 41.0142 452.837
1571 0 124.293 15.0531 1871 124.54 41.179 449.877
1572 0 128.424 14.6857 1886 125.926 40.8229 446.519
1573 1 68.3378 11.0627 756 123.697 40.8148 477.753
1574 0 72.2181 11.576 836 123.967 41.1651 479.122
1575 0 74.2415 13.0116 966 121.556 40.588 474.735
1576 0 76.2125 12.0715 920 124.646 40.2163 473.068
1577 0 80.1511 12.0647 967 124.904 40.5067 473.195
1578 0 79.2799 12.3865 982 125.669 41.5305 471.556
1579 0 83.4448 11.0492 922 127.261 40.6562 470.499
1580 0 86.2684 11.8004 1018 125.355 40.1817 467.863
1581 0 91.5551 12.5607 1150 123.103 40.1139 465.622
1582 0 94.4712 13.0833 1236 121.983 41.0898 465.284
1583 0 95.4787 12.6939 1212 122.447 40.7277 464.362
1584 0 99.3908 12.9288 1285 122.513 41.358 459.412
1585 0 101.422 12.4727 1265 122.535 41.2893 460.494
1586 0 105.389 13.3885 1411 121.195 40.7009 456.357
1587 0 107.428 12.6969 1364 122.856 40.7082 456.157
1588 0 114.548 12.5537 1438 123.121 40.8268 455.147
1589 0 115.351 13.5066 1558 122.305 41.5552 451.644
1590 0 119.33 12.7546 1522 124.186 41.0756 449.141
1591 1 65.217 11.0247 719 117.142 41.0014 480.574
1592 0 68.2055 11.9492 815 120.623 40.8307 476.493
1593 0 70.3906 12.0897 851 115.418 40.4301 475.529
1594 0 71.146 13.1139 933 113.759 40.3087 475.698
1595 0 75.2234 12.5227 942 115.703 40.2792 473.636
1596 0 76.25 12.3541 942 116.377 40.7877 473.002
1597 0 80.2266 12.901 1035 115.181 41.8097 473.916
1598 0 82.2048 12.2742 1009 117.535 41.3181 468.19
1599 0 86.3512 12.6576 1093 115.48 41.764 462.263
1600 0 86.2908 12.145 1048 116.219 41.2662 468.29
1601 0 91.2881 11.9621 1092 116.813 41.4588 466.343
1602 0 93.1434 13.0122 1212 116.6 42.2863 467.154
1603 0 93.158 11.765 1096 120.947 42.1332 463.457
1604 0 99.2721 12.8435 1275 115.966 42.5302 463.713
1605 0 101.194 12.0759 1222 117.89 42.6227 460.457
1606 0 104.231 12.0885 1260 117.204 42.3889 460.494
1607 0 107.312 12.3192 1322 117.13 42.0575 456.353
1608 0 110.251 11.365 1253 118.596 42.2578 455.852
1609 0 114.303 12.4144 1419 116.573 41.8851 451.82
1610 0 120.291 13.3094 1601 113.474 41.8969 451.795
1611 0 121.28 12.1949 1479 116.431 42.4591 452.838
1612 1 64.0993 9.92211 636 111.851 41.2579 481.55
1613 0 67.132 11.7977 792 106.934 41.404 470.952
1614 0 63.2499 10.5771 669 110.054 42.4514 469.827
1615 0 66.0586 9.37047 619 111.733 41.9548 469.68
1616 0 73.1227 11.2277 821 106.756 42.4629 468.308
1617 0 74.129 11.4125 846 107.249 41.857 466.94
1618 0 75.0751 11.5884 870 108.039 41.4632 464.294
1619 0 76.194 12.2451 933 106.125 41.6056 463.456
1620 0 80.1142 12.3074 986 106.09 41.5162 461.638
1621 0 83.1431 12.3402 1026 105.839 40.848 460.148
1622 0 86.0577 12.5846 1083 104.905 40.5078 459.447
1623 0 91.2095 12.2356 1116 105.615 41.6228 457.775
1624 0 95.0892 12.4094 1180 104.816 41.2432 456.147
1625 0 94.1156 11.4115 1074 108.739 41.5959 452.404
1626 0 99.172 10.9003 1081 109.341 41.7872 454.14
1627 0 102.136 12.8456 1312 105.918 41.7492 450.95
1628 0 106.073 13.3493 1416 96.0855 41.9774 448.673
1629 0 107.197 11.4462 1227 109.908 41.7253 446.722
1630 0 115.118 13.1431 1513 105.894 41.267 445.113
1631 0 120.221 13.2506 1593 105.82 41.0477 443.286
1632 0 123.232 12.1641 1499 111.257 40.6531 440.784
1633 1 67.2078 9.07633 610 101.767 40.5393 470.584
1634 0 67.1673 9.94531 668 104.082 41.4521 463.924
1635 0 73.1536 12.0842 884 97.4706 41.7873 463.882
1636 0 73.1483 11.88 869 98.9793 41.9102 466.658
1637 0 74.1652 11.1103 824 100.959 42.1044 464.08
1638 0 78.0754 10.746 839 101.962 41.4386 461.08
1639 0 84.2475 11.1339 938 99.8902 41.42 461.612
1640 0 85.1168 10.4327 888 103.256 42.0507 458.643
1641 0 90.0864 12.1772 1097 99.8514 41.794 457.573
1642 0 90.3111 12.0805 1091 100.614 41.8524 456.736
1643 0 96.2244 12.0448 1159 99.9603 41.8456 456.607
1644 0 96.3066 12.346 1189 101.044 41.7712 452.664
1645 0 98.2905 11.4965 1130 102.954 41.5168 449.917
1646 0 100.275 11.8274 1186 103.702 41.6914 450.999
1647 0 102.129 11.5931 1184 104.242 41.0997 445.938
1648 0 113.162 13.8121 1563 107.738 41.7793 455.392
1649 0 115.154 15.2753 1759 105.484 41.5213 451.96
1650 0 118.195 13.1731 1557 111.026 41.5035 451.406
1651 0 123.129 14.6026 1798 107.024 41.5528 449.14
1652 0 122.146 12.1494 1484 109.946 41.9333 442.607
1653 0 125.087 12.967 1622 108.837 41.9464 436.66
1654 0 131.298 12.6354 1659 109.743 41.965 437.581
1655 0 137.087 11.3358 1554 108.045 41.316 431.126
1656 1 82.1583 13.7783 1132 104.396 41.3984 470.904
1657 0 83.1467 13.1214 1091 105.765 42.7635 470.214
1658 0 84.149 12.6086 1061 108.796 41.9067 465.943
1659 0 88.1466 12.3771 1091 109.475 42.0211 464.199
1660 0 91.1913 12.5012 1140 108.499 41.8184 465.178
1661 0 95.266 15.7034 1496 101.42 41.0394 463.172
1662 0 96.2068 13.5334 1302 108.34 41.1805 458.422
1663 0 99.1728 12.5942 1249 110.25 41.7382 460.696
1664 0 99.232 12.889 1279 112.07 41.7404 454.346
1665 0 103.153 13.1359 1355 113.019 41.1506 455.631
1666 0 106.272 12.2045 1297 116.09 41.0085 451.934
1667 0 109.294 13.0474 1426 113.545 40.9446 449.295
1668 0 113.142 13.5493 1533 113.553 40.9282 429.572
1669 0 112.161 12.6069 1414 114.772 41.9187 442.666
1670 0 115.152 13.2434 1525 116.528 41.3889 443.643
1671 0 121.151 13.0746 1584 115.511 41.3958 435.979
1672 1 65.0872 9.41814 613 118.064 41.8777 467.113
1673 0 70.0783 11.4015 799 114.456 42.0375 470.004
1674 0 74.2261 11.3302 841 119.153 41.3948 471.85
1675 0 78.3368 11.642 912 119.383 41.8257 470.533
1676 0 83.3784 12.7491 1063 116.819 41.6754 469.983
1677 0 85.3684 13.5296 1155 114.952 41.5688 468.713
1678 0 88.2741 12.7671 1127 117.28 41.6078 465.319
1679 0 90.3869 12.8448 1161 116.941 40.6055 448.997
1680 0 91.3679 13.3745 1222 117.25 40.4509 458.222
1681 0 96.4135 12.6849 1223 115.294 39.8782 459.373
1682 0 97.2082 12.2521 1191 111.606 41.5558 459.312
1683 0 100.346 12.138 1218 112.449 41.9056 457.828
1684 0 104.265 12.3819 1291 111.996 41.7064 457.324
1685 0 107.301 12.9263 1387 111.162 42.2596 456.818
1686 0 109.256 11.3678 1242 115.831 41.6836 455.298
1687 1 62.2507 9.89548 616 107.779 42.6412 482.677
1688 0 64.1829 11.3114 726 110.322 42.6791 475
1689 0 66.2814 11.768 780 109.2 41.1705 479.65
1690 0 70.0961 12.383 868 105.772 41.5979 477.446
1691 0 71.1475 12.0735 859 101.023 42.5471 471.877
1692 0 75.1176 12.2741 922 108.331 42.8026 474.294
1693 0 77.1304 12.0186 927 109.894 42.8921 474.367
1694 0 79.1003 12.7559 1009 109.452 41.9306 473.38
1695 0 82.3384 12.9101 1063 109.574 41.7676 471.325
1696 0 83.2239 12.2321 1018 111.742 42.3851 470.922
1697 0 84.3252 11.8707 1001 114.975 41.971 467.612
1698 0 88.2827 12.1655 1074 115.088 42.6462 468.763
1699 0 90.1612 12.0562 1087 117.111 42.6357 466.704
1700 0 92.291 12.1355 1120 117.103 42.3732 463.584
1701 0 94.3826 11.1037 1048 121.716 42.7452 463.65
1702 0 101.366 12.9432 1312 116.77 42.1341 461.599
1703 0 103.199 12.5776 1298 122.127 42.2619 460.337
1704 0 105.231 13.2756 1397 117.416 42.3393 457.981
1705 0 110.404 12.3999 1369 118.25 41.908 457.384
1706 0 111.372 12.2023 1359 119.764 41.638 455.152
1707 0 115.279 11.6934 1348 119.588 41.0297 453.709
1708 0 118.258 11.5679 1368 118.33 41.1484 452.536
1709 1 69.1864 10.6524 737 117.073 42.9932 476.715
1710 0 69.0802 11.7545 812 116.495 42.048 476.915
1711 0 74.0921 11.5127 853 120.56 41.8769 474.727
1712 0 75.0668 11.8161 887 120.321 42.3551 473.025
1713 0 77.1321 11.8239 912 121.018 42.4145 473.361
1714 0 78.1354 11.9024 930 121.533 42.4086 470.947
1715 0 80.2315 11.5042 923 122.117 42.1029 469.022
1716 0 81.1205 11.1439 904 124.986 41.6582 465.467
1717 0 83.1783 10.8923 906 125.655 42.0132 465.077
1718 0 87.132 11.5457 1006 123.305 41.833 464.711
1719 0 88.0888 10.3191 909 126.239 41.6931 462.356
1720 0 89.1587 11.4851 1024 124.354 41.54 459.85
1721 0 90.2044 10.7755 972 126.452 41.3097 458.354
1722 0 99.1798 11.8068 1171 120.477 41.5764 460.442
1723 0 104.26 11.9413 1245 119.313 41.2683 459.783
1724 1 58.12 9.92774 577 113.458 41.8787 484.891
1725 0 58.0398 9.16612 532 111.361 42.3327 482.308
1726 0 60.0445 10.5588 634 104.656 41.7539 482.905
1727 0 62.0515 11.5066 714 104.293 41.7955 480.134
1728 0 64.094 11.1087 712 108.907 41.6587 479.507
1729 0 64.0706 11.222 719 108.555 41.9889 479.153
1730 0 61.1002 10.4746 640 112.431 41.6625 475.695
1731 0 66.0554 12.2776 811 108.179 41.5105 472.953
1732 0 69.0357 11.0667 764 111.267 41.8442 471.59
1733 0 70.0341 11.4944 805 110.795 42.5503 472.164
1734 0 73.1394 11.3755 832 110.974 42.6538 470.793
1735 0 78.1118 13.1478 1027 106.266 42.1237 472.858
1736 0 78.1115 13.4935 1054 107.599 41.4412 471.505
1737 0 81.1288 11.4509 929 112.886 40.7847 468.728
1738 0 84.1103 13.5536 1140 109.383 40.4246 466.592
1739 0 85.2007 12.852 1095 111.071 39.9671 469.144
1740 0 88.1141 13.0059 1146 111.304 40.6562 468.489
1741 0 91.1664 13.1627 1200 113.187 40.6442 466.085
1742 0 93.0828 14.009 1304 112.678 40.4839 466.317
1743 0 95.2031 13.0563 1243 116.315 40.3749 464.544
1744 0 98.3687 13.4901 1327 116.821 40.8757 462.5
1745 0 102.465 13.3118 1364 115.4 40.7339 461.073
1746 0 102.092 13.3115 1359 115.102 40.7638 439.591
1747 0 107.22 12.7588 1368 109.053 41.2683 447.43
1748 0 106.231 10.4112 1106 115.068 40.7215 452.888
1749 1 64.0535 12.1617 779 107.596 42.3068 479.895
1750 0 66.1266 12.098 800 109.14 42.4312 472.005
1751 0 68.1012 13.0981 892 106.515 41.0661 476.914
1752 0 68.0706 11.4587 780 112.299 41.7167 477.503
1753 0 71.124 10.8402 771 112.584 41.4864 477.725
1754 0 71.0691 11.3411 806 112.012 41.4045 473.119
1755 0 75.1889 11.1054 835 111.788 40.4982 473.978
1756 0 76.3182 11.7272 895 111.631 40.5061 470.554
1757 0 81.4027 13.4639 1096 106.815 39.6241 471.931
1758 0 83.3504 11.6976 975 111.466 40.1651 472.298
1759 0 85.3685 12.7565 1089 109.252 39.9908 471.062
1760 0 88.3663 13.1498 1162 108.703 40.8193 469.376
1761 0 90.4303 12.2304 1106 112.422 40.6745 466.535
1762 0 94.1688 11.9679 1127 111.579 40.3594 466.133
1763 0 97.1638 12.7105 1235 110.228 40.1709 464.47
1764 0 101.303 13.4745 1365 109.778 40.4425 461.892
1765 0 102.215 13.0999 1339 112.264 40.7677 460.407
1766 0 105.242 12.6661 1333 113.941 40.8882 460.491
1767 0 106.145 11.7198 1244 109.428 40.8842 451.929
1768 0 108.272 11.5543 1251 112.121 40.8337 450.672
1769 1 58.157 9.76667 568 105.604 40.875 476.132
1770 0 62.3325 11.2461 701 101.86 40.8631 476.643
1771 0 63.1046 12.6932 801 107.375 42.4082 481.85
1772 0 63.0827 11.8891 750 109.968 42.1133 482.225
1773 0 66.1436 11.2029 741 111.949 42.0472 480.097
1774 0 71.085 13.6034 967 105.932 42.1355 478.078
1775 0 73.0931 13.216 966 106.798 42.0248 477.613
1776 0 73.0976 11.9977 877 111.426 42.252 475.592
1777 0 74.157 12.042 893 111.209 42.3953 475.131
1778 0 77.0742 13.7141 1057 107.991 42.8004 473.145
1779 0 79.0654 13.3813 1058 109.236 42.3261 471.318
1780 0 81.1329 12.4487 1010 112.115 42.5792 471.509
1781 0 84.0776 13.7254 1154 108.868 41.6161 468.422
1782 0 84.0753 12.4055 1043 112.54 42.4391 465.8
1783 0 90.078 14.3875 1296 106.09 41.9174 465.154
1784 0 93.1128 12.7695 1189 110.082 42.0622 465.177
1785 0 96.2316 13.3948 1289 109.757 42.5066 460.502
1786 0 98.1482 12.0226 1180 112.657 40.5068 462.316
1787 0 100.271 12.5161 1255 112.729 40.145 457.782
1788 0 104.356 13.5019 1409 110.411 40.7374 455.319
1789 1 56.1495 11.0776 622 112.432 41.3392 477.395
1790 0 59.1869 10.5429 624 113.013 41.5817 476.712
1791 0 60.2163 12.2558 738 108.125 41.9363 475.547
1792 0 63.1512 11.7496 742 116.764 42.0863 479.625
1793 0 62.0725 10.665 662 120.663 42.3792 478.307
1794 0 68.173 13.187 899 113.519 41.8699 477.187
1795 0 69.1013 13.3138 920 113.63 41.062 476.98
1796 0 71.1048 13.1215 933 115.139 40.8457 476.129
1797 0 74.1406 13.5014 1001 114.223 41.4755 475.033
1798 0 76.1442 13.8553 1055 112.709 41.7469 474.391
1799 0 78.1314 14.3348 1120 112.362 41.8741 473.566
1800 0 81.2807 14.5422 1182 112.775 41.2098 471.52
1801 0 83.1288 13.2926 1105 115.949 41.5348 471.463
1802 0 84.2156 14.0829 1186 115.277 41.2934 470.709
1803 0 87.275 14.2882 1247 115.312 41.842 469.949
1804 0 90.2642 13.7153 1238 117.311 42.0638 467.106
1805 0 93.2025 13.5297 1261 117.783 42.0738 466.228
1806 0 96.1896 14.6378 1408 115.942 42.2152 461.974
1807 1 52.0404 10.3958 541 120.804 43.146 484.076
1808 0 56.0762 11.6984 656 116.614 41.6829 484.543
1809 0 56.0361 12.1172 679 116.748 40.4389 484.261
1810 0 57.0699 13.5798 775 114.623 40.6155 482.377
1811 0 60.0822 12.4496 748 116.485 40.1056 482.658
1812 0 62.0254 11.8661 736 118.238 40.1399 482.221
1813 0 63.0471 13.1172 827 116.34 40.1983 480.314
1814 0 65.1095 12.287 800 118.075 39.8438 481.175
1815 0 66.0525 12.9745 857 117.648 40.1949 478.726
1816 0 71.0783 12.9997 924 116.851 40.1991 471.147
1817 0 72.0437 14.0054 1009 115.287 40.2061 472.429
1818 0 74.0403 14.5461 1077 114.5 40.5478 473.812
1819 0 74.0416 13.1548 974 120.388 40.8511 474.399
1820 0 78.0579 14.7326 1150 115.488 39.9148 473.567
1821 0 82.1243 14.5755 1197 114.857 40.1988 474.532
1822 0 82.0601 13.7582 1129 119.353 40.2099 471.678
1823 0 86.1 14.2276 1225 116.9 39.9527 471.294
1824 0 89.0753 14.1004 1256 115.658 39.8018 470.674
1825 0 93.1418 15.0308 1400 112.187 40.81 468.661
1826 0 94.1308 13.4494 1266 115.099 41.8878 468.098
1827 0 99.1288 13.891 1377 113.185 42.0792 465.609
1828 0 100.215 13.7404 1377 110.108 42.1917 462.622
1829 1 54.0874 11.315 612 114.394 42.4314 487.443
1830 0 55.1102 12.3389 680 115.018 42.8691 483.175
1831 0 56.0598 11.7018 656 113.45 43.0168 483.854
1832 0 58.1188 12.1303 705 112.234 42.9801 481.437
1833 0 62.0935 11.692 726 112.388 42.5262 482.529
1834 0 64.1153 13.5849 871 109.29 42.0528 480.68
1835 0 65.0825 12.7838 832 111.885 42.3185 479.095
1836 0 66.0401 11.7202 774 113.994 41.7093 479.475
1837 0 67.0542 11.185 750 115.947 42.108 477.117
1838 0 73.0777 13.8072 1009 108.556 42.1665 477.062
1839 0 73.0624 12.2498 895 113.76 42.3676 476.589
1840 0 76.1396 13.5409 1031 111.049 41.902 473.79
1841 0 77.1494 12.7415 983 114.439 41.4334 474.118
1842 0 79.1438 13.0901 1036 114.966 42.11 471.88
1843 0 83.1304 13.0758 1087 114.42 42.0653 472.695
1844 0 85.0965 13.8784 1181 112.291 41.3776 472.937
1845 0 86.1911 12.9944 1120 114.704 42.2098 473.096
1846 0 90.0776 13.1886 1188 115.277 42.4091 467.849
1847 0 91.1525 13.5816 1238 115.485 42.3199 468.338
1848 0 94.18 13.2406 1247 118.006 42.1965 466.385
1849 0 96.1739 14.9209 1435 114.694 42.1164 464.446
1850 0 98.1226 13.9112 1365 118.811 41.6242 463.437
1851 0 100.149 14.4186 1444 117.918 40.9841 461.346
1852 0 104.128 14.4438 1504 117.659 40.7932 458.262
1853 0 104.14 12.2336 1274 122.262 40.8085 458.74
1854 0 113.087 14.5552 1646 114.321 41.4708 457.844
1855 0 115.122 13.8983 1600 117.428 41.0944 455.513
1856 0 121.102 14.4754 1753 116.116 41.7347 452.307
1857 0 124.236 14.0699 1748 117.541 41.4811 449.055
1858 1 51.0281 11.6014 592 115.664 42.9291 485.083
1859 0 54.0707 12.7241 688 112.417 43.0044 485.548
1860 0 55.0493 12.8249 706 113.558 42.551 485.15
1861 0 57.0551 12.672 723 114.568 42.5035 484.024
1862 0 59.0483 13.2603 783 113.911 42.5977 482.398
1863 0 62.0406 12.8303 796 113.932 42.7475 482.706
1864 0 60.0531 13.155 790 116.206 42.5506 479.905
1865 0 63.0625 13.0505 823 115.113 42.6744 479.708
1866 0 66.042 15.2327 1006 109.802 41.4901 478.712
1867 0 68.0705 13.4713 917 114.169 42.3871 476.618
1868 0 70.1068 14.4637 1014 112.334 41.9911 476.906
1869 0 71.0444 13.203 938 116.309 41.8006 476.939
1870 0 73.1471 13.3293 975 117.496 41.5344 474.583
1871 0 77.0384 14.0969 1086 115.595 41.2219 472.907
1872 0 78.0628 13.9119 1086 114.903 42.1344 471.901
1873 0 79.0397 13.4742 1065 116.757 41.6376 470.62
1874 0 83.06 14.5678 1210 113.903 41.8851 469.12
1875 0 86.0557 14.3512 1235 114.004 41.3126 469.211
1876 0 87.1296 12.9807 1131 117.551 40.9567 469.079
1877 0 88.1368 13.9215 1227 116.363 41.7074 465.518
1878 0 95.1376 14.3266 1363 113.334 40.8907 466.861
1879 1 52.0504 11.95 622 117.196 40.0804 486.63
1880 0 52.0109 12.9011 671 117.227 39.5529 484.827
1881 0 54.0475 12.637 683 117.823 39.1523 484.895
1882 0 57.0413 13.0958 747 116.727 39.0147 485.549
1883 0 58.1312 13.0223 757 116.238 39.2919 485.094
1884 0 59.134 12.8691 761 118.043 39.8594 483.732
1885 0 61.037 12.6153 770 118.743 39.0805 482.212
1886 0 63.0895 12.7438 804 118.259 38.6754 482.331
1887 0 64.0891 13.3408 855 117.739 39.6538 481.664
1888 0 67.1079 12.9344 868 117.881 39.8848 481.843
1889 0 68.0353 12.3171 838 119.915 40.0632 478.833
1890 0 72.0424 14.547 1048 113.984 40.2118 477.453
1891 0 73.1414 12.1955 892 119.471 40.4709 477.907
1892 0 74.0986 12.3619 916 118.951 40.3963 477.142
1893 0 78.1142 13.1346 1026 117.442 40.1852 473.994
1894 0 80.1153 12.4695 999 117.531 40.6416 472.898
1895 0 83.1321 13.3643 1111 113.416 40.5581 472.82
1896 0 82.1141 11.2648 925 119.161 41.1514 468.107
1897 0 89.1051 11.4247 1018 116.358 41.1631 469.999
1898 0 93.1805 11.5367 1075 113.436 40.947 469.095
1899 0 97.0819 12.5049 1214 110.898 40.8517 466.138
1900 0 99.1559 11.9912 1189 112.746 40.9361 463.048
1901 0 99.1836 12.0786 1198 112.999 40.8406 462.745
1902 0 106.138 13.4636 1429 108.676 41.077 461.169
1903 0 108.263 11.5459 1250 113.256 40.48 458.558
1904 1 58.0944 11.3608 660 106.221 41.0652 481.444
1905 0 63.0733 12.1288 765 103.784 41.0954 475.414
1906 0 65.1726 11.9836 781 103.241 40.8105 476.117
1907 0 66.1497 11.3682 752 105.041 40.1529 474.274
1908 0 66.1348 10.282 680 104.504 40.9794 473.653
1909 0 69.1368 12.1209 838 99.827 40.8246 473.686
1910 0 69.1386 11.6288 804 103.175 41.1679 470.004
1911 0 73.0966 12.7776 934 100.502 41.3522 470.908
1912 0 75.1194 12.2871 923 102.545 41.1235 468.659
1913 0 77.1911 13.4601 1039 100.131 40.4475 468.571
1914 0 78.2736 13.1462 1029 102.017 41.6288 467.815
1915 0 80.2532 13.1085 1052 103.473 41.6312 465.564
1916 0 79.2254 11.827 937 107.686 41.8986 463.345
1917 0 85.219 11.9222 1016 106.507 41.4961 465.238
1918 0 87.2521 12.5155 1092 106.915 41.3031 462.692
1919 0 88.2141 12.6057 1112 109.094 41.1772 457.548
1920 0 91.2246 12.8474 1172 110.206 41.0691 458.259
1921 0 96.227 13.8734 1335 108.096 40.985 458.09
1922 0 98.2122 12.7988 1257 111.947 40.6897 455.14
1923 0 100.164 12.5594 1258 113.846 40.8728 453.614
1924 0 103.223 13.8148 1426 110.965 41.2426 454.085
1925 0 106.088 13.6962 1453 111.712 41.733 455.709
1926 0 106.314 12.4537 1324 122.743 40.0876 449.32
1927 0 116.21 13.7166 1594 119.41 39.6493 452.327
1928 0 118.079 15.6251 1845 114.076 39.832 449.456
1929 0 124.187 13.9386 1731 117.501 40.1329 448.19
1930 0 128.142 14.4059 1846 117.75 39.7763 443.57
1931 0 130.212 14.3304 1866 119.569 39.8006 441.014
1932 1 72.0668 12.9324 932 121.733 39.6459 472.118
1933 0 70.1704 10.503 737 126.289 40.3446 463.687
1934 0 75.0655 12.6956 953 119.217 41.3211 466.054
1935 0 77.2298 11.1486 861 124.024 41.0743 463.027
1936 0 76.0893 11.4865 874 124.993 41.0801 461.833
1937 0 82.2672 11.5477 950 120.699 41.1558 459.381
1938 0 87.0623 12.6576 1102 118.869 41.3103 459.613
1939 0 88.1343 12.4015 1093 117.997 40.968 456.032
1940 0 91.2677 13.0276 1189 113.33 41.4323 456.52
1941 0 92.367 12.4936 1154 117.186 41.1464 452.244
1942 0 95.1286 12.5619 1195 118.147 41.2276 450.185
1943 0 98.2888 12.7888 1257 117.562 40.6659 448.738
1944 0 101.339 12.6604 1283 120.002 41.0592 450.335
1945 0 106.244 13.2148 1404 120.467 40.1838 451.642
1946 0 109.356 13.671 1495 119.18 41.0776 440.094
1947 0 111.193 12.5997 1401 121.807 41.03 444.921
1948 0 113.269 13.181 1493 123.086 40.6618 441.62
1949 0 118.231 11.3338 1340 125.36 40.0261 440.572
1950 1 62.2407 8.49926 529 118.416 40.8166 469.913
1951 0 70.116 10.5539 740 112.732 41.25 471.039
1952 0 69.2632 9.87537 684 114.886 41.845 469.44
1953 0 75.2101 11.9266 897 109.341 41.6566 471.193
1954 0 75.082 11.1611 838 111.802 40.8759 470.635
1955 0 76.1282 11.8484 902 112.171 41.5288 468.512
1956 0 79.0702 11.7238 927 114.716 41.3096 464.065
1957 0 81.0935 10.679 866 119.017 42.0162 461.555
1958 0 87.2464 13.9605 1218 110.624 41.5887 464.819
1959 0 91.3015 12.1904 1113 115.086 40.894 462.743
1960 0 90.2227 11.7265 1058 120.452 41.0766 457.809
1961 0 96.1388 12.6068 1212 118.2 41.3828 459.579
1962 0 96.2216 12.783 1230 119.711 41.0008 455.918
1963 0 100.112 12.566 1258 121.444 40.9754 457.114
1964 0 105.28 14.0768 1482 119.706 40.1835 433.911
1965 0 108.126 12.4762 1349 122.234 41.0274 437.486
1966 0 112.266 13.6373 1531 119.389 41.2671 441.438
1967 0 116.3 14.0929 1639 118.023 40.6126 448.415
1968 0 120.328 12.9895 1563 120.505 40.3493 445.661
1969 0 120.251 12.5737 1512 131.24 40.4008 438.795
1970 1 69.1932 11.1283 770 119.344 41.3766 469.864
1971 0 71.187 10.5637 752 123.445 41.2872 467.739
1972 0 76.181 11.3939 868 113.873 40.8894 468.697
1973 0 79.0986 11.8207 935 113.435 40.938 467.111
1974 0 82.1422 11.5653 950 114.379 41.2326 466.952
1975 0 83.2006 11.4663 954 117.32 41.2883 463.923
1976 0 87.165 12.8033 1116 113.447 41.0278 463.497
1977 0 89.2648 12.3005 1098 116.148 40.5337 462.695
1978 0 91.1722 11.6922 1066 119.019 40.803 460.525
1979 0 96.2518 12.0309 1158 118.844 41.5587 460.024
1980 0 96.1438 13.1782 1267 117.635 41.2099 458.78
1981 0 99.3648 11.5433 1147 123.617 40.4507 454.211
1982 0 102.228 12.0026 1227 123.073 40.6976 455.685
1983 0 107.263 12.6978 1362 122.137 41.0198 452.532
1984 0 112.285 12.4594 1399 120.753 40.8756 451.02
1985 0 114.291 12.5294 1432 123.409 41.5587 448.26
1986 0 122.2 14.9918 1832 120.68 41.0639 452.578
1987 1 66.1371 11.1133 735 126.762 40.6803 476.638
1988 0 71.2049 13.3277 949 120.093 41.1507 476.306
1989 0 73.1175 12.0081 878 120.325 40.9476 473.956
1990 0 75.1318 12.112 910 123.645 40.8967 473.718
1991 0 77.1137 12.5918 971 121.383 40.2163 472.724
1992 0 81.2436 12.8626 1045 121.717 40.0545 472.527
1993 0 83.2272 13.9738 1163 119.124 39.4875 471.175
1994 0 86.16 14.299 1232 118.032 40.3401 468.746
1995 0 89.1792 13.8934 1239 119.343 40.4108 466.845
1996 0 91.2424 13.5463 1236 120.674 40.4579 465.269
1997 0 93.1077 13.1461 1224 123.654 39.9158 462.127
1998 0 97.1162 14.045 1364 120.538 39.9567 462.352
1999 0 99.1574 13.2617 1315 123.353 40.1095 462.644
2000 0 102.146 13.6765 1397 122.193 40.1324 456.549
2001 0 106.292 13.6794 1454 121.818 39.4271 459.394
2002 0 107.231 13.6901 1468 123.303 40.218 458.277
2003 0 111.215 13.7122 1525 123.552 39.5377 454.215
2004 0 116.249 13.2131 1536 122.781 39.3262 455.977
2005 0 118.27 13.2071 1562 122.987 39.3764 452.474
2006 0 121.222 12.6627 1535 125.169 39.6169 450.173
2007 0 122.205 13.3219 1628 124.077 39.121 446.529
2008 0 133.149 13.376 1781 121.346 39.6547 445.513
2009 0 135.193 14.2315 1924 120.898 39.8155 443.325
2010 0 139.27 13.1471 1831 123.699 39.0928 439.922
2011 1 77.118 10.2959 794 122.343 38.4144 468.397
2012 0 79.1423 11.6625 923 118.453 38.9707 464.223
2013 0 79.1747 11.6072 919 120.002 39.0653 461.641
2014 0 83.2039 12.1869 1014 115.777 39.3886 464.655
2015 0 87.0892 12.3896 1079 117.077 38.8462 460.952
2016 0 89.2054 11.7706 1050 119.284 39.3514 460.349
2017 0 93.1025 12.1157 1128 118.785 39.6418 459.301
2018 0 95.0548 12.8242 1219 118.52 39.6948 457.444
2019 0 97.0736 11.8673 1152 122.697 39.7977 453.839
2020 0 102.196 12.1726 1244 120.478 40.0394 454.492
2021 0 102.124 11.4762 1172 123.561 41.2466 453.714
2022 0 105.124 11.6244 1222 123.523 40.4083 449.765
2023 0 110.191 11.9974 1322 122.259 40.438 445.511
2024 0 111.061 11.2911 1254 125.569 40.4705 443.472
2025 0 119.138 13.3123 1586 126.465 40.9905 452.486
2026 0 124.289 14.1767 1762 122.56 41.2287 446.938
2027 0 127.356 14.487 1845 120.261 41.252 447.099
2028 1 71.0987 12.2646 872 121.591 42.0034 476.053
2029 0 74.1433 12.0982 897 117.389 42.6355 476.719
2030 0 74.2148 11.588 860 111.829 40.3116 472.765
2031 0 77.1428 12.8074 988 109.171 40.1346 468.574
2032 0 80.1219 13.1674 1055 108.896 40.2199 472.116
2033 0 82.1001 12.4239 1020 111.409 40.051 469.624
2034 0 82.1091 11.436 939 115.08 40.114 469.082
2035 0 87.2345 13.4351 1172 109.458 40.4497 465.811
2036 0 88.156 12.8522 1133 111.302 40.579 466.642
2037 0 93.2191 13.7955 1286 108.423 39.7123 465.172
2038 0 94.2532 12.6362 1191 111.884 40.1948 464.383
2039 0 97.1654 12.9985 1263 110.921 41.7743 462.994
2040 0 98.2352 13.1725 1294 112.274 42.0394 460.985
2041 0 100.18 13.2461 1327 112.567 42.1605 459.557
2042 0 105.233 14.2826 1503 110.215 42.1577 458.998
2043 0 107.244 13.9029 1491 111.451 41.5513 458.069
2044 0 110.145 13.1735 1451 114.701 41.785 455.628
2045 0 114.326 13.9513 1595 111.668 41.7229 455.253
2046 0 119.315 14.0218 1673 111.28 41.4345 449.995
2047 0 122.197 14.3702 1756 112.464 41.0342 450.129
2048 0 124.277 13.9688 1736 114.232 40.5829 444.849
2049 0 125.209 14.0725 1762 113.041 40.7826 441.297
2050 0 132.255 14.0638 1860 112.926 40.6081 436.625
2051 1 70.1483 11.661 818 114.698 41.154 471.462
2052 0 75.2609 12.0381 906 114.148 40.7097 470.512
2053 0 77.0442 12.071 930 118.276 41.9978 470.687
2054 0 79.2861 12.5243 993 118.688 42.1128 469
2055 0 81.2897 12.1787 990 119.327 41.4495 469.286
2056 0 83.3171 13.8987 1158 117.125 41.9387 467.332
2057 0 84.2921 12.0889 1019 121.814 41.5025 467.342
2058 0 89.2399 13.0771 1167 119.326 41.8509 465.057
2059 0 92.2507 14.0595 1297 114.141 41.2074 463.984
2060 0 95.272 14.2749 1360 113.294 40.5721 466.22
2061 0 98.2248 15.3933 1512 112.678 41.17 461.691
2062 0 100.355 13.6914 1374 118.147 41.6033 460.898
2063 0 101.269 12.916 1308 120.983 41.198 459.187
2064 0 104.163 13.4885 1405 119.983 39.8185 454.985
2065 1 55.0686 11.4948 633 122.376 40.4234 483.831
2066 0 61.1212 12.7288 778 119.177 39.8997 481.913
2067 0 61.0571 13.3809 817 119.6 42.2472 479.754
2068 0 63.2034 13.6385 862 116.68 41.9176 478.403
2069 0 67.2026 13.9429 937 115.642 41.4258 477.329
2070 0 67.2332 12.8062 861 119.729 41.3449 476.533
2071 0 69.2797 12.3701 857 122.494 41.1529 471.406
2072 0 72.2966 13.6936 990 117.668 41.2374 471.965
2073 0 74.2157 13.2452 983 119.191 41.6694 471.63
2074 0 74.114 13.6007 1008 119.574 40.6369 470.559
2075 0 79.2754 13.3837 1061 119.376 41.5862 470.707
2076 0 81.2583 13.7217 1115 118.167 41.8377 468.584
2077 0 83.2164 13.8314 1151 118.018 41.3858 469.323
2078 0 87.11 13.9594 1216 117.693 41.1069 467.535
2079 0 90.3821 13.454 1216 118.824 41.5584 464.265
2080 0 92.1668 13.736 1266 118.456 41.2662 463.71
2081 0 94.1333 13.6827 1288 119.516 41.0365 460.339
2082 0 97.1803 12.9759 1261 120.78 40.7002 461.633
2083 0 100.12 12.9844 1300 120.825 40.5631 461.218
2084 0 103.089 12.7948 1319 122.45 39.8469 458.027
2085 0 105.216 13.9903 1472 121.373 40.445 453.849
2086 0 105.108 11.4549 1204 128.15 39.8953 455.267
2087 0 109.179 12.6306 1379 124.165 40.3568 455.008
2088 0 115.361 14.4936 1672 119.717 40.1926 452.877
2089 0 118.339 12.7853 1513 124.9 40.5208 450.586
2090 0 120.187 13.6121 1636 124.389 39.9639 447.421
2091 0 126.324 13.5366 1710 123.794 40.2719 446.554
2092 0 132.326 13.0435 1726 125.323 39.8893 445.645
2093 0 136.231 12.5816 1714 128.089 39.9312 445.118
2094 1 78.1139 12.8786 1006 124.109 40.0765 471.452
2095 0 79.2625 12.7046 1007 128.245 40.281 468.448
2096 0 82.1549 13.0729 1074 125.044 40.7216 468.654
2097 0 86.2155 13.2807 1145 124.991 40.8699 466.003
2098 0 88.1822 13.6649 1205 125.304 40.3544 465.724
2099 0 90.2422 13.22 1193 126.899 39.865 462.675
2100 0 93.1812 12.5025 1165 128.949 40.0944 461.903
2101 0 97.2548 14.6522 1425 123.284 40.4688 458.741
2102 0 100.185 13.6347 1366 126.789 40.5666 456.954
2103 0 100.342 14.042 1409 129.517 40.7892 456.596
2104 0 105.152 13.8657 1458 129.96 41.2483 456.107
2105 0 109.199 13.6997 1496 131.629 40.7667 454.316
2106 0 113.198 13.26 1501 131.587 40.6396 448.02
2107 0 116.311 14.0485 1634 130.138 40.1518 446.293
2108 0 119.335 14.2457 1700 129.822 40.3871 445.677
2109 0 123.464 14.6521 1809 129.107 40.2935 446.421
2110 0 127.27 13.766 1752 132.112 40.335 445.831
2111 0 131.372 14.4323 1896 132.922 39.3518 440.717
2112 1 75.2485 12.5451 944 133.519 40.2564 471.032
2113 0 77.1518 13.791 1064 132.942 39.9427 469.718
2114 0 81.1887 14.8666 1207 129.484 39.6222 471.353
2115 0 83.1605 13.9249 1158 132.078 40.0699 471.712
2116 0 86.1329 14.5125 1250 130.586 39.812 469.81
2117 0 87.1265 14.301 1246 132.425 40.2119 469.155
2118 0 92.1108 14.6345 1348 131.053 40.5237 466.139
2119 0 95.1057 14.2368 1354 132.124 40.2304 458.04
2120 0 98.1711 15.4017 1512 128.363 39.3743 462.938
2121 0 102.252 14.9435 1528 129.086 40.2579 462.772
2122 0 104.156 14.5456 1515 131.998 40.2317 459.211
2123 0 107.097 14.6596 1570 131.36 39.4516 457.861
2124 0 111.097 15.0859 1676 128.19 39.4761 455.143
2125 0 113.248 14.6845 1663 128.225 39.9874 449.91
2126 0 115.396 13.9953 1615 130.762 38.813 447.664
2127 0 122.395 14.592 1786 128.829 39.1803 445.356
2128 0 124.217 14.3539 1783 129.925 38.636 444.575
2129 0 129.245 14.1669 1831 128.001 38.8869 440.974
2130 0 131.442 13.5344 1779 128.314 39.3536 436.898
2131 0 137.241 14.0847 1933 125.154 39.2395 431.401
2132 0 143.233 14.6405 2097 123.841 39.2933 434.039
2133 0 146.499 13.5086 1979 126.235 39.6564 435.47
2134 0 151.219 14.0392 2123 123.712 39.6783 436.276
2135 1 85.1501 12.707 1082 116.75 40.1063 468.25
2136 0 89.2102 12.9806 1158 115.294 39.3748 462.081
2137 0 91.222 12.8149 1169 110.277 40.5133 463.452
2138 0 93.1471 12.4642 1161 112.68 40.6856 457.997
2139 0 95.3362 13.4891 1286 110.625 40.7014 460.967
2140 0 99.0902 12.0698 1196 113.446 40.2542 463.358
2141 0 103.233 12.8447 1326 110.38 40.3643 461.477
2142 0 107.417 13.6012 1461 110.415 40.1869 455.648
2143 0 108.288 13.0116 1409 112.901 40.0717 453.468
2144 0 109.292 11.5745 1265 119.408 40.2625 446.757
2145 0 115.243 13.5627 1563 119.79 39.9283 427.608
2146 0 118.244 12.9055 1526 120.472 40.3139 433.559
2147 0 122.186 12.6119 1541 120.923 40.0273 441.966
2148 0 125.355 12.0298 1508 122.025 40.2905 447.072
2149 0 130.326 13.2974 1733 118.583 40.3451 447.661
2150 0 134.186 13.6676 1834 117.992 40.4198 444.234
2151 0 138.321 14.2712 1974 117.572 40.3622 440.562
2152 0 144.256 13.5038 1948 119.387 41.1258 437.908
2153 0 146.259 11.7463 1718 123.559 40.2119 437.202
2154 0 154.337 12.9976 2006 121.503 40.3121 432.287
2155 1 85.1384 11.7221 998 116.784 39.8657 470.178
2156 0 85.1541 11.8726 1011 119.716 40.3383 468.461
2157 0 87.1865 12.7313 1110 118.418 40.273 467.22
2158 0 92.1495 12.458 1148 117.901 39.9704 467.467
2159 0 93.1173 12.5218 1166 119.648 40.0549 464.393
2160 0 98.1477 12.634 1240 118.365 40.4153 463.09
2161 0 98.343 12.07 1187 121.704 39.5518 458.564
2162 0 102.243 13.0962 1339 120.441 39.5429 457.446
2163 0 107.262 12.7911 1372 120.023 39.6501 457.359
2164 0 109.223 11.6459 1272 124.009 39.9725 455.608
2165 0 112.376 12.298 1382 122.966 39.9023 447.707
2166 0 115.455 12.6456 1460 122.13 39.6329 449.242
2167 0 119.413 13.4156 1602 120.081 39.6973 448.863
2168 0 124.344 12.8997 1604 122.155 39.5468 444.145
2169 0 126.436 12.8207 1621 121.914 39.9377 442.626
2170 0 133.753 13.824 1849 120.179 39.4008 442.381
2171 0 137.472 13.21 1816 121.379 39.4532 440.185
2172 0 141.418 13.1172 1855 123.153 39.0776 436.403
2173 0 147.724 13.2545 1958 122.688 39.2579 437.276
2174 1 81.4393 11.2354 915 120.948 39.1301 465.249
2175 0 87.5614 12.1058 1060 120.759 38.6453 465.108
2176 0 88.3111 12.2861 1085 117.307 39.318 462.359
2177 0 92.3141 11.8508 1094 119.237 39.6645 463.252
2178 0 97.2801 12.87 1252 117.317 39.3043 462.802
2179 0 98.3985 13.0287 1282 118.452 39.4407 459.354
2180 0 101.257 12.256 1241 121.45 39.6801 458.249
2181 0 105.364 13.6385 1437 117.24 39.9819 455.619
2182 0 107.353 12.9759 1393 120.992 39.5047 453.284
2183 0 111.347 13.3277 1484 122.811 39.5573 451.699
2184 0 115.252 14.9585 1724 119.255 39.373 453.535
2185 0 118.629 13.1165 1556 124.911 39.9094 448.369
2186 0 120.749 12.613 1523 129.402 40.0919 443.185
2187 0 126.265 13.9231 1758 124.827 40.0751 444.385
2188 0 130.304 14.1745 1847 125.081 39.3005 441.072
2189 0 134.395 14.4053 1936 124.511 39.3528 440.686
2190 0 139.319 14.736 2053 123.868 39.6313 439.946
2191 0 143.665 13.6219 1957 125.933 39.5866 436.736
2192 0 148.442 13.5069 2005 128.775 39.2324 430.96
2193 0 153.392 13.6904 2100 127.972 39.2933 432.108
2194 1 91.2768 11.2953 1031 122.149 39.9176 464.433
2195 0 92.3915 12.5444 1159 121.288 39.5677 461.222
2196 0 95.2327 12.0862 1151 126.584 39.1529 458.673
2197 0 99.1131 12.4908 1238 127.309 39.0695 435.729
2198 0 102.179 12.0671 1233 129.559 39.0819 441.331
2199 0 105.162 12.5425 1319 128.655 38.7081 441.846
2200 0 105.206 12.6134 1327 129.124 39.8131 445.393
2201 0 111.239 13.4126 1492 124.457 38.9993 453.378
2202 0 113.286 13.4526 1524 125.012 39.1988 452.147
2203 0 116.327 13.0924 1523 126.691 38.6454 448.977
2204 0 120.257 12.8974 1551 128.149 39.1238 446.21
2205 0 122.231 12.7463 1558 128.825 39.1605 443.59
2206 0 126.235 13.3006 1679 127.622 39.0185 442.53
2207 0 130.333 12.9745 1691 128.412 39.5192 440.315
2208 0 136.401 13.2477 1807 127.265 39.7117 436.654
2209 0 139.354 13.907 1938 125.986 39.6605 435.681
2210 0 143.401 13.3821 1919 127.761 39.6357 430.304
2211 0 149.409 13.1987 1972 127.678 39.9244 431.486
2212 0 154.363 13.5395 2090 126.76 39.2239 428.36
2213 0 158.405 12.7647 2022 128.579 39.633 428.383
2214 0 162.363 13.3774 2172 127.189 39.6363 425.827
2215 0 167.28 12.9961 2174 129.549 38.8652 418.968
2216 0 174.279 13.5817 2367 127.743 38.9839 419.505
2217 0 179.573 14.0834 2529 126.674 38.9051 416.315
2218 0 184.3 13.1579 2425 129.584 39.0206 414.117
2219 0 189.478 13.0569 2474 130.586 38.5897 410.071
2220 0 197.445 14.1609 2796 128.029 39.0476 405.724
2221 0 202.314 13.6471 2761 129.421 38.8812 405.536
2222 0 206.587 13.2728 2742 131.015 39.2746 402.978
2223 0 215.433 14.8724 3204 126.574 39.1351 398.757
2224 0 220.365 13.4277 2959 131.777 39.2264 396.213
2225 0 229.254 14.7915 3391 128.104 39.3772 392.759
2226 0 237.321 14.2339 3378 128.196 39.8792 396.451
2227 0 243.471 13.9647 3400 129.238 40.0303 389.168
2228 1 190.378 12.7483 2427 131.495 40.3791 414.869
2229 0 196.34 13.7313 2696 131.707 40.5415 415.102
2230 0 202.392 13.963 2826 134.245 39.8351 406.023
2231 0 211.405 14.1151 2984 132.894 40.377 406.395
2232 0 218.554 14.6828 3209 131.798 40.2153 398.573
2233 0 223.474 13.3617 2986 137.026 40.2498 396.434
2234 0 233.332 14.1301 3297 135.301 40.1662 392.75
2235 0 240.41 13.9844 3362 134.372 40.2335 388.218
2236 0 249.433 13.1498 3280 136.695 39.7866 384.978
2237 0 257.397 13.823 3558 134.949 39.6979 379.971
2238 0 265.556 13.7259 3645 135.722 39.7394 373.75
2239 0 276.361 14.7235 4069 132.642 39.6309 367.826
2240 1 207.275 13.3446 2766 130.775 40.0745 402.475
2241 0 214.364 14.1068 3024 129.148 39.5718 400.502
2242 0 218.43 12.8508 2807 132.786 40.2643 391.828
2243 0 228.433 12.7652 2916 131.924 40.857 392.492
2244 0 237.282 14.0466 3333 128.367 40.3294 389.667
2245 0 243.366 13.7981 3358 130.199 39.687 383.957
2246 0 254.413 14.6415 3725 128.841 39.4271 379.303
2247 0 262.553 14.4961 3806 129.996 40.1211 376.904
2248 0 270.428 14.7026 3976 128.295 40.54 378.519
2249 0 276.52 14.0641 3889 132.965 39.7585 366.726
2250 0 285.553 14.6453 4182 131.794 39.1253 363.545
2251 1 308.516 21.0232 6486 110.586 39.8147 336.177
2252 0 310.588 19.9686 6202 115.272 39.3155 342.505
2253 0 313.622 13.6438 4279 134.587 39.8544 345.631
2254 0 324.527 15.0558 4886 130.427 39.4306 340.619
2255 0 335.552 16.9244 5679 123.749 39.5857 336.846
2256 0 344.581 15.7438 5425 127.977 40.1043 328.115
2257 0 355.517 15.7489 5599 127.758 39.8162 326.17
2258 0 367.458 16.5733 6090 125.209 39.6612 321.313
2259 0 376.671 16.2582 6124 126.591 39.8916 315.297
2260 1 319.361 14.0624 4491 131.733 39.4696 355.371
2261 0 328.698 15.3211 5036 128.702 38.671 336.417
2262 1 49.0318 9.05535 444 105.732 36.9324 490.106
2263 0 48.025 8.9745 431 108.394 36.6009 490.267
2264 0 50.0588 10.3678 519 107.829 36.0347 489.651
2265 0 52.0888 8.52391 444 109.716 39.3581 494.435
2266 0 51.0402 7.01408 358 111.617 40.7933 492.944
2267 0 53.0369 8.44695 448 106.567 40.2388 491.768
2268 0 57.0083 8.47245 483 108.095 39.7329 493.232
2269 0 54.0594 8.93462 483 106.358 38.7329 495.385
2270 0 55.0444 8.72023 480 108.423 38.875 490.188
2271 0 55.0771 9.15081 504 106.714 38.9147 492.474
2272 1 188.318 7.14217 1345 129.042 36.3227 438.384
2273 0 190.391 9.95318 1895 125.844 36.1071 430.176
2274 0 187.171 10.974 2054 127.671 35.8486 422.624
2275 0 192.343 12.3009 2366 126.826 36.1602 415.428
2276 0 199.23 13.6827 2726 123.272 35.8881 414.51
2277 0 203.44 12.1854 2479 128.462 35.5813 407.303
2278 0 211.224 12.8395 2712 127.532 35.5258 408.131
2279 0 217.396 13.1189 2852 127.971 34.3499 404.433
2280 0 223.224 13.1706 2940 128.01 34.3922 398.973
2281 0 230.242 12.9299 2977 128.609 33.696 395.554
2282 0 236.425 12.7736 3020 130.035 33.6765 393.62
2283 1 46.0645 9.16106 422 103.05 33.0829 500.142
2284 0 41.046 7.45505 306 103.451 35.3039 500.582
2285 0 45.0255 8.95049 403 100.742 35.5012 498.757
2286 0 45.0106 9.57552 431 100.949 34.9629 498.766
2287 0 46.2114 10.2356 473 100.15 33.5751 498.076
2288 0 47.0912 9.04628 426 103.648 34.662 500.833
2289 0 46.0925 10.7827 497 100.394 34.662 503.02
2290 0 47.0597 8.81858 415 105.492 34.9735 503.771
2291 0 47.0865 10.1728 479 102.681 35.5846 504.681
2292 0 47.0561 9.39305 442 107.145 35.5068 503.274
2293 0 48.043 9.51232 457 107.293 35.6214 503.295
2294 0 48.0496 10.4683 503 106.087 35.5427 502.08
2295 0 48.0664 8.50906 409 111.127 35.6993 504.802
2296 0 48.0755 9.60989 462 109.632 35.8528 504.368
2297 0 47.0275 9.37749 441 112.358 36.0726 504.447
2298 0 50.0939 10.1809 510 109.737 35.8706 502.312
2299 0 49.1122 8.61293 423 114.943 34.8322 500.461
2300 0 51.069 10.8677 555 110.025 35.0667 502.996
2301 0 51.0322 10.9931 561 110.378 35.0963 501.298
2302 0 51.0392 10.4038 531 113.309 34.5424 501.94
2303 0 53.0683 10.5713 561 110.692 34.5847 499.861
