time division length width area intensity CMx CMy
0 0 51.0967 11.7033 598 131.46 884.064 476.886
1 0 51.0406 12.1472 620 131.029 884.386 476.402
2 0 53.0519 12.1014 642 131.174 883.483 474.889
3 0 57.0716 13.5094 771 124.961 883.746 474.354
4 0 57.0864 12.4548 711 128.454 884.238 474.502
5 0 58.073 12.5532 729 130.534 884.576 473.573
6 0 61.1561 12.0838 739 137.077 884.133 472.097
7 0 61.1862 13.1729 806 134.388 883.919 471.674
8 0 64.1435 12.6279 810 133.583 883.335 470.947
9 0 65.1104 13.6998 892 128.472 883.644 472.021
10 0 68.1645 13.086 892 130.02 883.941 469.939
11 1 33.0362 10.5036 347 128.666 884.553 488.45
12 0 36.0403 10.516 379 131.095 884.683 484.739
13 0 38.0342 12.0155 457 124.287 884.361 485.254
14 0 36.0328 11.4895 414 126.367 884.159 485.971
15 0 39.0808 11.8473 463 124.378 883.341 484.227
16 0 39.0968 11.1262 435 127.949 883.418 484.09
17 0 43.1767 13.5258 584 121.068 882.623 481.113
18 0 45.1509 13.1559 594 124.705 882.628 482.025
19 0 45.1217 13.2087 596 122.602 882.852 481.032
20 0 42.1015 11.1635 470 132.077 882.43 483.2
21 0 45.1231 12.6543 571 126.391 881.744 481.828
22 0 46.0953 12.062 556 123.932 881.223 483.29
23 0 49.0445 12.662 621 122.425 881.692 482.61
24 0 51.082 13.1749 673 121.707 882.617 480.568
25 0 52.0868 12.46 649 123.055 882.136 480.781
26 0 56.0606 12.8968 723 119.895 881.343 480.16
27 0 56.1034 12.2096 685 122.147 880.502 480.234
28 0 57.0899 12.3665 706 122.354 881.666 479.874
29 0 60.1481 13.1841 793 120.801 881.456 476.786
30 0 62.0308 13.2515 822 120.182 881.148 476.884
31 0 66.0957 13.3594 883 121.136 880.899 475.593
32 0 68.0951 12.9084 879 128.531 880.548 473.902
33 0 71.1467 12.8326 913 127.664 880.184 473.641
34 0 72.0606 12.7532 919 129.013 880.059 471.995
35 0 75.1378 12.2176 918 129.963 879.984 472.332
36 0 77.1237 12.3568 953 129.474 880.958 471.257
37 0 81.1753 13.6002 1104 127.595 880.926 467.737
38 0 83.1397 13.748 1143 126.784 880.846 467.122
39 0 86.112 13.8889 1196 126.666 880.603 465.497
40 0 91.1497 13.6259 1242 125.597 880.113 465.268
41 1 46.0368 11.0346 508 128.935 879.782 485.921
42 0 50.0309 13.1119 656 122.523 879.101 484.604
43 0 51.0423 11.7745 601 125.922 879.898 484.599
44 0 52.0881 11.9989 625 124.803 880.39 482.624
45 0 53.0394 11.3501 602 127.58 879.742 482.789
46 0 57.0596 13.0039 742 121.492 879.208 482.499
47 0 58.0752 12.6043 732 124.615 879.051 480.731
48 0 61.1 12.8314 784 123.349 879.631 480.603
49 0 62.048 12.5548 779 125.436 879.241 478.602
50 0 64.0776 13.9206 892 122.805 879.345 477.229
51 0 67.0549 13.7499 922 122.685 879.376 477.987
52 0 70.0164 13.7825 965 123.64 880.155 475.313
53 0 72.0753 13.9437 1005 126.086 880.721 472.952
54 0 75.1142 14.418 1083 123.864 879.376 473.516
55 0 78.1513 13.8961 1086 125.599 878.757 473.354
56 0 80.0563 13.9652 1118 126.792 878.43 471.839
57 0 81.0201 13.8484 1122 129.432 878.613 470.01
58 0 83.1546 13.6132 1132 130.626 878.939 469.352
59 0 87.1646 14.5128 1265 128.681 878.652 468.296
60 0 88.1419 13.0358 1149 133.077 878.292 468.445
61 0 90.131 14.0795 1269 153.634 878.355 466.247
62 0 94.0275 14.1554 1331 129.153 879.311 466.026
63 0 99.1936 14.7086 1459 127.257 879.432 465.219
64 0 102.286 14.8506 1519 128.973 878.583 460.929
65 0 106.119 15.492 1644 124.886 878.088 458.881
66 0 109.142 13.7985 1506 128.833 878.106 459.624
67 0 114.164 15.0398 1717 126.436 878.212 455.883
68 0 120.191 15.3922 1850 127.741 877.522 453.276
69 0 123.239 14.2893 1761 132.175 877.976 450.096
70 1 62.0442 11.3629 705 133.502 878.135 479.838
71 0 67.0637 12.3316 827 128.897 878.245 476.927
72 0 66.2629 11.9977 795 131.662 878.314 473.752
73 0 71.3137 14.5975 1041 122.804 878.113 473.883
74 0 72.0836 12.5687 906 128.236 877.906 474.259
75 0 75.0695 12.5217 940 124.741 878.179 473.916
76 0 80.1303 13.9273 1116 121.819 878.12 471.422
77 0 82.0619 13.3314 1094 125.025 878.122 469.571
78 0 84.0714 13.2269 1112 125.628 877.853 467.254
79 0 87.0478 13.3145 1159 123.566 878.33 465.991
80 0 90.0861 12.4214 1119 124.421 878.741 466.026
81 0 94.0674 12.8312 1207 119.731 878.994 465.712
82 0 97.108 12.4913 1213 119.154 878.605 462.514
83 0 101.06 13.9125 1406 116.435 878.74 460.621
84 0 104.181 12.9391 1348 119.391 878.489 460.177
85 0 109.072 14.4216 1573 115.076 878.292 457.435
86 0 111.134 14.0011 1556 116.598 878.427 453.463
87 1 57.1631 10.3213 590 116.047 879.025 481.136
88 0 62.1323 12.6826 788 108.546 879.506 480.739
89 0 63.0681 12.209 770 109.991 878.165 478.329
90 0 66.1212 11.8721 785 115.69 878.187 477.516
91 0 70.0863 12.1279 850 114.229 878.126 476.407
92 0 73.0503 12.5667 918 113.014 877.574 474.94
93 0 74.075 12.1363 899 114.072 877.448 475.454
94 0 77.1406 13.1448 1014 112.218 877.357 473.293
95 0 78.165 12.9726 1014 113.792 877.333 469.243
96 0 82.1591 13.2913 1092 112.854 876.803 468.257
97 0 85.1693 12.8685 1096 113.31 877.026 467.209
98 0 89.1992 13.1279 1171 112.031 877.235 467.102
99 0 92.1415 13.5661 1250 112.117 877.96 464.477
100 0 97.2045 13.6619 1328 109.555 878.169 464.221
101 0 99.191 12.5213 1242 111.349 877.665 460.671
102 0 104.102 13.1602 1370 107.632 878.253 460.429
103 0 102.13 13.659 1395 105.804 877.822 457.29
104 1 57.0373 10.5194 600 106.957 878.078 484.025
105 0 59.033 12.1119 715 103.502 878.028 482.702
106 0 61.0679 12.4779 762 109.423 878.077 480.882
107 0 63.0486 13.323 840 108.179 878.33 479.355
108 0 64.0696 12.0182 770 110.955 878.777 480.93
109 0 68.0733 11.9724 815 111.22 878.532 477.346
110 0 68.1223 12.4482 848 110.844 878.541 477.15
111 0 72.0658 13.0298 939 109.972 878.424 476.316
112 0 76.0943 13.8775 1056 107.29 878.057 475.676
113 0 78.1063 13.6225 1064 109.91 878.262 473.349
114 0 78.0618 12.2851 959 113.003 878.334 473.091
115 0 82.1727 13.3378 1096 111.648 877.216 472.291
116 0 84.1409 13.0495 1098 112.546 878.016 468.932
117 0 87.2447 12.8833 1124 112.997 877.737 467.743
118 0 91.1905 12.9509 1181 112.752 878.294 465.616
119 0 94.1429 12.6297 1189 112.979 878.654 465.894
120 0 96.1833 12.6321 1215 113.48 877.708 461.774
121 0 100.068 11.9919 1200 113.96 876.958 460.204
122 0 103.095 12.6001 1299 110.743 877.446 457.329
123 0 106.261 12.7704 1357 110.722 878.093 454.588
124 1 57.1571 11.1972 640 103.702 878.464 482.278
125 0 61.0612 12.3646 755 100.625 878.119 482.323
126 0 60.0223 11.579 695 103.41 877.721 482.853
127 0 64.0828 12.0001 769 103.328 877.241 481.458
128 0 64.0509 10.8351 694 108.154 877.474 478.914
129 0 66.066 11.428 755 108.926 877.562 480.058
130 0 69.0195 11.4315 789 109.444 877.663 478.113
131 0 71.0368 12.1486 863 109.37 877.236 475.188
132 0 74.0318 12.2515 907 108.562 877.023 476.378
133 0 76.0276 11.9299 907 110.712 876.644 473.659
134 0 78.0413 11.4683 895 112.419 876.936 472.055
135 0 81.0969 12.4912 1013 111.647 877.209 470.182
136 0 83.0397 12.3435 1025 112.937 877.018 469.835
137 0 87.0487 11.9358 1039 113.647 876.299 467.843
138 0 91.0827 12.9113 1176 112.026 876.744 466.388
139 0 95.0695 12.4961 1188 113.76 877.144 463.96
140 0 99.0597 12.7701 1265 113.465 876.451 462.496
141 0 100.114 11.7467 1176 115.399 876.31 462.875
142 1 50.0592 10.8072 541 108.996 875.773 488.163
143 0 53.0136 11.9969 636 106.393 876.263 484.33
144 0 54.029 12.2157 660 101.752 877.183 483.824
145 0 54.048 11.4898 621 105.108 876.514 484.853
146 0 56.0497 12.4889 700 102.681 876.713 485.184
147 0 58.0919 12.1876 708 103.951 875.822 482.476
148 0 58.0848 11.2078 651 107.418 875.788 480.773
149 0 62.0795 12.5484 779 103.861 875.698 481.403
150 0 62.1274 11.6374 723 107.495 875.285 481.201
151 0 62.0535 11.055 686 108.261 875.932 479.089
152 0 66.0953 11.9978 793 105.934 876.398 479.105
153 0 68.06 12.7975 871 104.372 877.093 477.863
154 0 71.0764 11.8605 843 105.013 877.59 478.178
155 0 72.1251 10.7729 777 107.033 877.691 476.511
156 0 73.1074 11.6678 853 106.399 877.489 475.193
157 0 76.1272 12.2295 931 106.513 877.367 471.966
158 0 79.1198 12.5506 993 105.943 877.461 473.509
159 0 82.309 12.5746 1035 106.374 877.672 471.579
160 0 85.0667 12.3668 1052 106.309 877.163 470.893
161 0 89.1287 11.848 1056 106.686 877.81 470.812
162 0 91.1858 12.1949 1112 108.132 878.08 466.509
163 0 95.1094 11.9757 1139 109.698 878.078 465.755
164 0 95.2028 10.5564 1005 114.55 878.168 460.027
165 0 103.1 13.2977 1371 106.466 878.206 461.379
166 0 106.165 12.0472 1279 110.99 878.27 459.9
167 1 52.0142 12.6504 658 108.418 878.909 484.929
168 0 54.1222 11.6218 629 107.874 878.475 484.221
169 0 56.1317 13.3793 751 103.96 878.606 481.305
170 0 57.1666 12.6997 726 106.818 878.468 481.607
171 0 60.1499 12.685 763 106.819 878.372 480.793
172 0 61.0794 13.2123 807 105.144 878.344 480.699
173 0 63.1239 13.9884 883 103.253 878.126 478.341
174 0 65.1122 12.8547 837 106.528 878.378 479.327
175 0 66.1168 12.0393 796 109.152 878.383 477.608
176 0 67.1258 12.7075 853 109.438 878.073 476.156
177 0 69.1127 11.1123 768 113.27 878.035 477.059
178 0 72.1521 12.9865 937 110.549 878.057 472.963
179 0 75.108 11.2771 847 114.519 877.498 473.183
180 0 77.0965 13.1783 1016 111.936 877.011 470.22
181 0 79.0682 12.837 1015 114.135 877.886 470.507
182 0 82.1456 14.3404 1178 111.52 877.505 466.811
183 0 82.1882 12.374 1017 116.946 878.037 466.794
184 0 82.1882 12.447 1023 141.18 878.022 466.784
185 0 92.1237 14.0355 1293 112.505 878.132 466.114
186 0 93.1332 13.9907 1303 113.991 878.116 463.129
187 0 96.1598 12.6352 1215 117.395 877.957 463.723
188 0 100.213 13.6609 1369 115.199 877.364 462.168
189 0 105.257 13.9849 1472 114.236 877.77 460.612
190 0 105.148 12.5918 1324 117.742 877.632 459.433
191 1 58.0358 12.9058 749 111.636 878.15 483.013
192 0 58.0681 11.7276 681 113.286 878.048 482.818
193 0 60.1414 12.72 765 110.475 877.288 482.007
194 0 64.0661 13.3144 853 111.686 878.446 480.531
195 0 66.0369 12.8564 849 113.316 878.151 478.157
196 0 67.0892 12.6399 848 114.046 878.331 477.695
197 0 70.0222 14.8381 1039 108.568 878.974 475.265
198 0 72.0543 12.671 913 114.314 878.682 475.126
199 0 75.0722 15.4784 1162 107.67 878.661 473.979
200 0 77.0623 13.9238 1073 111.906 878.483 473.246
201 0 79.0858 13.9848 1106 112.67 878.938 469.334
202 0 82.0769 13.4264 1102 114.353 878.707 468.691
203 0 85.1455 14.164 1206 111.917 878.043 468.264
204 0 87.0799 12.5287 1091 113.956 878.125 466.587
205 0 89.1129 14.3862 1282 109.977 878.038 465.701
206 0 92.1446 13.3377 1229 113.939 877.934 465.181
207 0 95.148 14.0308 1335 114.222 877.943 461.846
208 0 98.1345 14.0623 1380 112.764 877.83 462.766
209 0 102.219 13.5786 1388 113.78 877.752 459.963
210 0 103.123 12.936 1334 117.727 878.063 457.764
211 0 107.098 14.1646 1517 115.02 877.848 456.717
212 0 112.165 14.9067 1672 112.591 877.913 456.881
213 0 115.166 12.877 1483 117.57 877.363 454.68
214 0 121.165 14.7073 1782 112.877 877.534 453.485
215 0 124.165 13.0472 1620 118.18 877.985 450.769
216 0 129.121 13.2433 1710 117.866 877.288 446.363
217 1 71.1009 11.3641 808 113.546 877.65 477.522
218 0 74.0512 12.1943 903 111.163 877.524 476.87
219 0 77.1309 12.9779 1001 109.467 878.232 475.708
220 0 77.1012 12.8273 989 115.974 878.477 473.22
221 0 80.2556 12.2982 987 118.053 878.076 472.202
222 0 84.1476 12.8702 1083 117.719 878.568 469.182
223 0 87.1309 13.7265 1196 115.415 877.75 469.651
224 0 91.1637 13.2948 1212 115.581 878.029 467.972
225 0 93.225 13.6444 1272 115.443 878.009 465.542
226 0 96.2207 13.0637 1257 117.602 877.587 464.612
227 0 98.2684 12.3234 1211 120.377 878.019 462.394
228 0 100.305 13.0302 1307 119.958 877.473 456.193
229 0 105.244 13.654 1437 117.229 877.372 455.98
230 0 110.445 13.4637 1487 114.801 877.541 454.102
231 0 112.319 11.7344 1318 118.66 877.923 452.461
232 0 116.449 13.3106 1550 114.317 877.776 451.89
233 0 122.383 12.5997 1542 118.087 877.706 447.685
234 1 66.1574 12.6214 835 110.781 877.956 475.358
235 0 67.1329 13.3467 896 107.996 877.613 471.968
236 0 71.2286 11.2455 801 114.431 877.17 475.974
237 0 72.1088 13.1191 946 112.051 876.616 474.106
238 0 77.1501 14.0765 1086 107.375 877.142 474.859
239 0 78.2068 12.761 998 111.615 878.121 470.42
240 0 80.1844 13.3442 1070 110.79 878.187 468.877
241 0 84.1132 12.6615 1065 108.658 877.845 469.16
242 0 86.2544 13.1935 1138 103.726 877.822 468.869
243 0 87.0736 12.3114 1072 106.956 878.013 468.635
244 0 92.1831 13.4298 1238 104.208 878.269 466.886
245 0 95.1972 12.3743 1178 107.585 878.57 463.793
246 0 98.1328 11.515 1130 110.334 878.065 462.623
247 0 101.179 11.5538 1169 109.708 878.063 462.677
248 0 105.276 12.567 1323 108.643 878.208 457.989
249 0 109.218 12.5621 1372 107.856 878.273 459.408
250 0 111.253 11.6402 1295 110.175 878.457 457.127
251 0 116.238 11.9066 1384 110.282 878.24 453.173
252 0 120.217 13.3592 1606 106.686 878.369 451.902
253 0 123.307 12.4405 1534 109.516 878.68 450.542
254 0 127.249 12.2437 1558 110.25 878.347 449.042
255 1 67.0674 11.481 770 107.64 878.764 479.34
256 0 68.1113 12.2447 834 107.522 878.918 477.621
257 0 70.1868 13.5638 952 104.714 878.475 476.725
258 0 72.0564 11.838 853 109.939 878.322 475.006
259 0 76.0619 12.0034 913 109.181 878.485 475.346
260 0 78.1579 12.2317 956 108.781 878.275 472.981
261 0 80.06 12.2783 983 108.62 878.515 470.228
262 0 84.148 13.0366 1097 106.818 878.002 469.817
263 0 86.2246 12.6878 1094 108.114 878.081 466.945
264 0 88.2071 10.4413 921 113.238 877.212 465.305
265 0 92.2511 12.8779 1188 108.046 877.627 461.208
266 0 94.2391 10.4097 981 110.924 877.745 461.697
267 1 51.1012 11.3109 578 102.299 878.055 481.464
268 0 52.1467 11.6211 606 103.691 878.234 479.47
269 0 54.1367 9.45755 512 107.27 878.211 480.473
270 0 54.13 9.56956 518 140.506 878.263 480.473
271 0 57.1479 9.65915 552 107.779 878.67 478.899
272 0 60.1419 10.7246 645 106.265 877.879 478.214
273 0 60.1286 11.3257 681 106.708 878.539 474.699
274 0 64.1353 10.5558 677 108.099 878.007 474.436
275 0 68.1206 12.6247 860 103.3 876.714 479.963
276 0 69.2886 11.9356 827 104.802 876.981 477.913
277 0 70.1243 12.0785 847 105.956 877.34 476.228
278 0 74.31 12.7035 944 104.236 876.972 473.849
279 0 73.0865 10.2344 748 111.723 876.932 474.195
280 0 77.1335 12.057 930 108.338 876.709 470.506
281 0 81.191 13.1788 1070 106.034 877.397 469.949
282 1 43.0635 10.798 465 100.994 877.348 487.912
283 0 45.1198 9.90696 447 101.662 877.264 488.078
284 0 45.0269 10.8824 490 98.3612 877.32 485.814
285 0 48.1248 12.1767 586 100.058 876.58 486.986
286 0 50.0825 10.4028 521 105.681 877.367 485.488
287 0 49.0913 9.9814 490 107.61 877.008 484.618
288 0 53.0416 11.3873 604 103.045 876.281 485.543
289 0 52.0965 8.92575 465 109.417 876.402 483.368
290 0 55.0694 9.35183 515 108.115 876.637 484.052
291 0 57.0374 9.16943 523 109.226 876.809 481.635
292 0 58.044 10.0786 585 106.615 876.99 482.824
293 0 63.052 11.2923 712 103.528 877.247 481.423
294 0 63.0667 10.4017 656 105.771 877.226 480.334
295 0 63.0672 8.97455 566 108.853 877.864 478.415
296 0 67.0395 11.2471 754 104.968 877.134 476.019
297 0 70.0754 11.8016 827 104.041 877.237 475.021
298 0 69.0665 10.9749 758 106.332 877.302 475.646
299 0 75.12 12.0873 908 103.721 877.185 473.896
300 0 76.0676 11.3978 867 105.15 876.811 472.227
301 0 77.1356 11.0196 850 106.936 876.789 470.524
302 0 81.1488 10.6964 868 106.041 876.351 471.969
303 0 83.1541 10.8353 901 106.475 876.635 469.312
304 0 86.1655 9.67905 834 107.56 876.884 468.878
305 0 89.2197 10.0875 900 106.803 876.438 464.769
306 1 47.0728 10.2182 481 100.846 876.64 484.617
307 0 50.0936 9.64196 483 102.77 876.534 485.468
308 0 54.0777 12.7224 688 98.7108 876.468 486.653
309 0 54.0348 11.4371 618 101.862 876.455 486.223
310 0 57.0552 11.9533 682 101.727 876.318 484.946
311 0 58.0222 12.0471 699 102.496 875.618 483.031
312 0 57.0406 11.5882 661 104.716 875.938 482.151
313 0 61.0801 12.9993 794 102.309 876.112 481.741
314 0 62.0577 13.0201 808 104.235 876.327 480.648
315 0 65.096 13.3802 871 103.727 876.541 480.259
316 0 65.0615 13.8484 901 103.9 876.114 478.839
317 0 67.0266 12.1892 817 107.498 876.64 479.095
318 0 69.0912 12.2302 845 107.591 876.953 478.845
319 0 72.0541 12.9347 932 106.889 877.334 476.571
320 0 74.0453 13.6133 1008 106.117 876.912 475.42
321 0 76.0545 12.7014 966 109.148 876.86 474.852
322 0 78.1883 12.6617 990 109.844 876.735 473.872
323 0 82.0582 12.9298 1061 108.806 876.648 472.933
324 0 85.1865 12.9598 1104 109.762 876.523 472.408
325 0 86.3242 12.8817 1112 111.961 877.389 469.823
326 0 90.1872 13.0395 1176 111.592 877.76 467.239
327 1 46.1531 11.5702 534 108.5 877.818 490.897
328 0 47.3287 12.3604 585 110.19 878.173 485.472
329 0 48.1266 10.8048 520 104.008 878.423 487.206
330 0 50.1166 13.0296 653 101.602 878.063 487.351
331 0 52.0473 12.6616 659 100.429 876.608 487.558
332 0 53.0312 11.5404 612 103.275 877.412 486.392
333 0 54.0511 11.2486 608 114.038 878.416 485.273
334 0 58.1264 12.0943 703 111.001 878.215 486.504
335 0 58.1644 12.4303 723 110.414 878.596 486.96
336 0 60.0302 12.0273 722 112.859 877.734 484.615
337 0 64.1091 13.633 874 107.847 878.037 483.976
338 0 65.0786 12.9997 846 109.876 877.721 482.086
339 0 67.098 12.5041 839 111.144 877.1 481.447
340 0 70.0702 13.3295 934 108.999 877.345 479.594
341 0 70.1099 12.5375 879 109.042 877.825 476.584
342 0 71.1147 11.4041 811 111.195 877.702 477.61
343 0 73.1228 11.8704 868 110.675 877.882 476.191
344 0 78.1 13.1626 1028 107.992 878.012 474.877
345 0 80.0364 11.6822 935 111.472 878.461 473.986
346 0 84.0647 11.848 996 110.951 878.934 473.056
347 0 86.1084 11.6946 1007 112.975 878.779 470.265
348 0 89.1058 11.7164 1044 113.167 877.909 467.922
349 1 45.0314 12.5912 567 107.942 878.482 489.446
350 0 46.0492 13.1816 607 113.727 878.646 489.468
351 0 50.0744 13.7396 688 110.711 879.141 488.509
352 0 48.1265 11.9477 575 117.597 879.913 489.174
353 0 51.147 13.5296 692 113.566 879.575 486.319
354 0 53.1565 12.9429 688 121.749 879.68 487.622
355 0 56.1237 12.9892 729 121.221 879.73 485.897
356 0 57.1346 13.792 788 120.749 879.89 485.138
357 0 60.1369 14.5834 877 117.554 879.613 484.563
358 0 61.0927 13.9297 851 119.957 879.646 482.354
359 0 62.2283 14.0772 876 120.619 879.758 482.605
360 0 66.0463 15.6254 1032 116.737 879.11 479.679
361 0 68.1708 15.3878 1049 117.232 879.543 477.424
362 0 72.0839 15.3155 1104 115.208 879.04 477.351
363 0 73.105 15.2384 1114 115.465 879.294 478.388
364 0 75.1358 17.3819 1306 110.772 879.41 476.506
365 0 78.1616 15.7878 1234 113.925 879.469 471.634
366 0 79.1067 15.22 1204 117.163 879.609 469.303
367 0 82.1083 14.7854 1214 118.256 879.568 470.241
368 0 84.0677 14.3337 1205 120.138 879.239 469.255
369 0 88.1281 15.5456 1370 116.887 879.82 467.292
370 0 89.1651 13.3909 1194 123.253 879.556 467.584
371 1 46.1034 13.9469 643 117.442 879.064 488.551
372 0 46.0495 13.7895 635 119.513 879.365 487.083
373 0 50.0638 15.5002 776 109.973 878.932 485.621
374 0 48.0508 13.6314 655 121.221 879.316 485.313
375 0 52.1032 15.1046 787 116.416 878.942 485.382
376 0 52.0752 14.9976 781 120.032 878.939 484.068
377 0 55.2027 14.7457 814 120.862 879.06 483.198
378 0 55.1174 14.8592 819 122.711 879.231 481.701
379 0 59.1648 16.1245 954 118.49 878.885 480.085
380 0 61.2122 15.9119 974 118.7 878.705 480.92
381 0 62.0902 15.8962 987 120.86 878.275 478.208
382 0 66.1741 15.3988 1019 121.063 878.702 477.304
383 0 68.2823 16.9444 1157 117.9 878.435 476.864
384 0 69.2133 17.54 1214 118.867 879.091 474.8
385 0 73.132 15.766 1153 123.14 879.082 473.942
386 0 74.177 15.9888 1186 123.383 878.401 472.063
387 0 77.0744 16.1273 1243 123.401 878.91 471.161
388 0 79.4452 16.6152 1320 122.544 878.939 470.114
389 0 82.162 17.6481 1450 119.543 878.657 468.393
390 0 83.2038 15.7445 1310 125.71 878.959 467.379
391 0 86.2457 14.9109 1286 126.453 878.877 466.336
392 0 91.3732 15.9894 1461 122.142 879.246 465.883
393 0 93.191 15.3341 1429 124.901 878.897 463.44
394 0 97.319 15.2694 1486 125.038 878.622 460.516
395 0 101.515 15.0717 1530 124.7 878.726 460.538
396 1 49.2975 13.6721 674 132.904 879.01 483.083
397 0 51.1867 14.8672 761 129.242 878.628 481.499
398 0 51.169 14.286 731 132.458 879.327 480.417
399 0 55.255 16.451 909 123.726 878.966 480.658
400 0 57.165 14.9392 854 128.032 878.834 478.856
401 0 57.2 14.3532 821 131.006 878.821 477.697
402 0 62.4111 15.478 966 125.934 879.364 477.606
403 0 63.2914 14.0303 888 129.563 879.19 476.769
404 0 64.2279 15.6163 1003 127.542 879.673 473.228
405 0 67.2434 14.5442 978 129.751 878.898 474.899
406 0 69.2291 14.2281 985 130.697 878.971 473.867
407 0 72.4102 14.8046 1072 130.085 879.147 471.077
408 0 73.3364 15.013 1101 130.342 879.096 471.006
409 0 77.1924 14.9367 1153 129.434 879.042 470.748
410 0 79.2296 14.2876 1132 131.254 878.613 470.026
411 0 83.3358 15.4915 1291 128.27 878.894 466.968
412 0 84.4302 15.3973 1300 129.042 878.815 464.395
413 0 90.3451 15.629 1412 126.385 878.906 463.853
414 0 92.57 14.9941 1388 129.06 878.347 463.082
415 0 96.4447 15.0138 1448 129.03 878.83 461.242
416 0 101.397 15.2667 1548 127.946 878.521 459.202
417 0 103.26 14.3134 1478 132.108 878.427 457.389
418 1 53.1872 11.4501 609 135.167 879.146 482.159
419 0 55.1331 12.8779 710 133.384 878.955 478.993
420 0 58.1384 12.7799 743 132.038 878.902 480.008
421 0 61.1451 13.5415 828 129.804 878.952 476.987
422 0 64.1991 12.8662 826 132.337 879.41 475.783
423 0 65.2388 13.213 862 132.24 879.799 475.532
424 0 68.2183 13.75 938 131.386 879.143 474.579
425 0 71.1408 14.0848 1002 130.823 879.525 473.635
426 0 73.0859 14.1751 1036 132.993 879.183 471.092
427 0 74.1027 12.901 956 136.937 879.101 470.785
428 0 79.0952 14.1222 1117 133.887 878.665 470.095
429 0 81.0739 13.5555 1099 137.46 879.408 469.498
430 0 82.1933 13.6507 1122 139.743 879.078 466.986
431 0 87.2909 13.4035 1170 139.809 879.035 466.897
432 0 92.171 14.4405 1331 136.122 879.314 464.486
433 0 94.2632 13.8442 1305 141.428 879.264 463.552
434 0 98.1962 14.3183 1406 139.558 878.213 462.977
435 0 101.165 14.6691 1484 139.685 878.546 461.313
436 0 104.184 12.9674 1351 145.494 878.687 458.873
437 1 55.0959 10.2912 567 130.273 878.256 485.136
438 0 59.1194 11.6882 691 127.755 877.877 483.522
439 0 59.1277 10.8409 641 134 878.818 483.661
440 0 61.1192 10.8313 662 136.137 879.557 481.572
441 0 65.0822 11.2473 732 134.06 879.608 479.434
442 0 66.1869 10.7423 711 135.24 879.699 479.082
443 0 70.1309 11.8493 831 131.736 879.746 477.574
444 0 71.1287 9.92566 706 137.082 880.214 477.442
445 0 74.1739 11.0955 823 133.583 880.057 476.485
446 0 75.1067 10.1322 761 137.958 880.218 472.732
447 0 76.1645 9.61077 732 140.486 880.081 473.178
448 1 41.0485 9.89075 406 116.379 879.603 493.037
449 0 41.0676 10.3731 426 115.944 880.643 492.286
450 0 42.1202 9.54411 402 85.5174 880.182 491.353
451 0 43.062 10.241 441 117.145 880.614 489.864
452 0 44.06 10.7581 474 115.979 880.869 489.502
453 0 45.051 9.7667 440 117.698 880.02 490.495
454 0 47.0611 10.7307 505 114.053 880.927 487.25
455 0 49.1374 10.8064 531 113.54 880.893 487.292
456 0 48.1174 9.93403 478 117.713 881.477 488.308
457 0 49.1612 9.19424 452 119.259 881.4 486.644
458 0 49.1753 8.33752 410 120.383 881.229 487.412
459 0 52.1852 8.7381 456 119.57 880.985 485.292
460 0 57.1253 10.3807 593 114.019 881.221 486.096
461 0 58.2053 8.24668 480 119.112 881.046 484.271
462 0 60.1904 10.6828 643 113.656 880.949 483.745
463 0 62.19 9.90512 616 115.518 880.644 482.519
464 0 63.2342 10.0262 634 115.259 880.762 482.697
465 0 66.2983 10.6338 705 114.543 880.66 480.696
466 0 68.1806 8.80016 600 118.522 881.45 480.113
467 0 71.3453 10.4982 749 112.59 880.865 479.243
468 0 73.275 8.18833 600 117.71 880.762 479.005
469 0 75.1155 10.4239 783 115.327 881.235 476.791
470 1 38.1107 9.21002 351 116 881.564 492.444
471 0 40.0385 9.8655 395 120.208 879.544 490.473
472 0 39.0337 9.0947 355 115.006 880.727 494.059
473 0 39.088 10.4891 410 114.863 880.49 491.098
474 0 42.1323 10.0873 425 116.064 880.659 490.452
475 0 44.0421 10.0358 442 114.278 880.498 491.543
476 0 48.1317 10.7414 517 110.818 880.963 490.35
477 0 47.1742 9.94187 469 114.791 880.61 489.141
478 0 49.1172 10.4444 513 112.409 880.378 488.489
479 0 49.097 9.61363 472 114.161 880.561 488.451
480 0 51.0703 9.1051 465 115.277 880.57 487.437
481 0 54.1265 10.3092 558 111.326 880.547 488.362
482 0 53.1623 10.1576 540 114.596 880.872 485.224
483 0 58.151 10.2148 594 112.85 879.678 485.359
484 0 61.2108 9.55713 585 114.88 879.742 485.634
485 0 61.1169 9.7518 596 116.975 880.059 480.836
486 0 64.1565 10.3185 662 115.955 880.195 480.485
487 0 70.1791 11.7699 826 112.057 880.074 478.674
488 0 69.061 11.0627 764 114.974 880.491 477.47
489 0 72.0838 10.2103 736 116.842 879.626 477.348
490 0 74.1223 9.49782 704 117.405 880.489 479.472
491 0 79.1958 11.1243 881 113.285 880.141 475.393
492 1 40.0198 9.72019 389 115.925 881.517 493.19
493 0 42.03 11.1825 470 112.996 879.464 490.885
494 0 44.1024 11.6774 515 113.233 879.816 492.198
495 0 45.1675 12.2212 552 112.457 879.373 491.092
496 0 47.0941 11.9336 562 112.746 879.555 492.093
497 0 48.1161 12.1373 584 113.101 879.221 491.241
498 0 48.0978 11.8093 568 115.549 879.69 489.472
499 0 49.1881 11.2222 552 116.917 878.987 489.313
500 0 52.0806 13.3639 696 113.397 879.616 488.454
501 0 54.0886 11.5181 623 120.872 879.904 488.164
502 0 53.1646 10.759 572 125.049 879.885 487.563
503 0 55.177 11.3816 628 123.623 879.377 486.887
504 0 56.153 11.9673 672 122.676 879.353 485.702
505 0 60.2078 12.025 724 121.512 879.398 484.78
506 0 61.1008 12.4385 760 120.299 880.12 484.55
507 0 61.1051 11.603 709 123.073 879.783 484.035
508 0 60.2134 11.26 678 125.864 879.168 482.621
509 0 61.157 11.7566 719 116.05 879.21 481.357
510 0 67.1059 11.5042 772 123.071 879.755 479.556
511 0 68.1829 12.3491 842 121.082 879.651 476.776
512 0 71.0746 11.2417 799 122.228 879.598 479.11
513 0 72.0776 11.4737 827 121.498 879.335 478.938
514 0 77.1329 12.6664 977 119.506 879.142 476.386
515 0 79.1061 13.425 1062 116.976 879.183 474.933
516 1 40.0739 10.5305 422 118.033 877.955 493.946
517 0 42.0727 11.3138 476 116.41 878.723 491.968
518 0 42.1098 11.565 487 110.669 880.318 490.111
519 0 44.0411 11.5574 509 109.281 880.271 492.086
520 0 45.0234 12.1937 549 108.355 879.911 490.639
521 0 48.0714 12.0862 581 108.756 880.267 490.501
522 0 47.0411 11.6919 550 110.013 880.093 489.707
523 0 50.0404 12.33 617 108.026 879.455 489.17
524 0 53.0289 12.9741 688 105.424 879.551 487.644
525 0 53.0974 13.1268 697 106.943 880.185 488.352
526 0 55.098 13.3762 737 105.961 879.89 486.877
527 0 57.1827 12.0491 689 108.424 879.398 485.335
528 0 57.1083 12.415 709 108.889 879.691 485.276
529 0 59.092 12.489 738 108.075 879.448 484.888
530 0 62.0821 13.1761 818 106.309 879.51 482.628
531 0 67.119 13.7964 926 102.968 878.816 481.998
532 0 67.2214 14.1027 948 105.2 878.381 479.634
533 0 70.1358 13.4026 940 105.641 878.714 479.115
534 0 72.077 12.9584 934 107.066 879.151 478.639
535 0 71.0741 10.5946 753 112.032 878.452 477.066
536 0 76.1081 13.1261 999 103.988 878.788 475.541
537 0 79.0977 11.7829 932 104.989 878.41 470.755
538 0 82.2257 11.1766 919 107.276 878.896 469.924
539 0 85.133 12.0752 1028 107.039 878.664 468.901
540 0 86.1854 11.2432 969 112.398 878.528 468.743
541 0 90.1799 12.5638 1133 116.273 879.098 468.079
542 1 47.1075 10.7414 506 117.609 879.354 491.464
543 0 47.1235 11.7351 553 116.204 879.425 490.606
544 0 48.1725 11.272 543 119.652 878.158 486.114
545 0 49.1231 10.891 535 111.308 878.959 486.131
546 0 52.1158 12.1077 631 109.212 878.943 484.681
547 0 51.0226 10.9951 561 113.777 879.037 484.627
548 0 55.0854 11.3279 624 110.05 879.558 483.697
549 0 56.0856 11.8747 666 109.943 879.057 486.311
550 0 61.03 11.8139 721 109.788 879.723 485.434
551 0 60.0943 11.5485 694 112.032 879.246 482.464
552 0 64.0652 13.6111 872 106.259 880.125 482.486
553 0 64.0332 10.3384 662 114.15 879.038 481.183
554 0 69.0328 12.1392 838 110.776 878.973 479.828
555 0 69.0328 12.2116 843 125.17 878.98 479.624
556 0 75.0759 12.7871 960 110.747 878.609 475.277
557 0 78.1224 12.1732 951 113.261 878.938 473.779
558 0 81.1088 12.2798 996 113.699 878.079 473.656
559 0 84.0568 13.0983 1101 111.947 878.295 473.586
560 0 88.103 12.7691 1125 112.071 877.72 472.852
561 1 47.0411 11.9895 564 105.559 878.835 493.222
562 0 48.0469 12.2797 590 106.91 879.003 491.39
563 0 49.0715 13.572 666 107.128 879.022 490.087
564 0 50.0595 13.6238 682 106.359 878.849 490.611
565 0 53.0444 12.235 649 108.926 879.712 489.928
566 0 54.0558 11.6916 632 110.095 879.351 490.025
567 0 56.06 13.2358 742 106.744 879.204 488.315
568 0 58.0104 14.1526 821 104.73 879.136 486.663
569 0 62.0584 13.1489 816 107.053 879.259 485.708
570 0 62.0736 12.4207 771 109.174 878.739 483.052
571 0 65.0824 12.8452 836 106.559 879.317 483.025
572 0 69.1027 13.2267 914 105.61 878.72 480.364
573 0 71.1265 12.7941 910 107.56 878.781 478.781
574 0 71.0516 12.4135 882 109.831 878.18 475.613
575 0 75.0609 12.8029 961 107.823 878.476 477.073
576 0 75.1275 12.7783 960 108.988 878.695 473.499
577 0 82.1627 12.9742 1066 107.228 878.557 473.07
578 0 82.1337 12.504 1027 108.115 878.784 472.472
579 0 86.1339 12.5038 1077 108.025 879.072 473.339
580 0 88.0851 12.2495 1079 109.461 879.054 470.476
581 0 91.1324 12.4764 1137 109.175 879.056 468.443
582 0 96.0659 13.9384 1339 105.449 879.051 465.474
583 0 99.2992 12.5177 1243 109.77 879.503 467.974
584 0 101.191 12.4517 1260 110.71 879.2 461.813
585 1 52.079 10.5417 549 111.552 879.506 488.45
586 0 56.1242 11.9378 670 108.855 879.228 487.106
587 0 58.0665 12.3135 715 107.249 878.667 486.256
588 0 60.0292 12.5272 752 107.34 879.507 485.449
589 0 62.0917 11.8695 737 108.138 879.362 483.745
590 0 65.0733 12.0018 781 107.822 878.835 481.507
591 0 66.0522 11.5666 764 108.849 878.309 481.06
592 0 69.0432 11.9346 824 108.194 878.709 480.4
593 0 73.0413 13.3075 972 105.027 878.583 479.214
594 0 73.0491 11.3075 826 111.258 878.363 477.326
595 0 75.047 11.6194 872 110.998 878.23 477.484
596 0 80.1271 12.0558 966 109.707 878.646 473.395
597 0 83.1618 12.0247 1000 110.333 878.698 472.032
598 0 87.1088 11.721 1021 109.41 878.441 474.09
599 0 89.1153 11.9396 1064 110.643 878.267 469.487
600 0 92.3335 11.6751 1078 110.87 878.212 466.229
601 0 96.1763 12.1963 1173 109.806 878.105 463.754
602 1 49.1921 10.2252 503 107.887 879.672 490.423
603 0 48.0763 11.1073 534 106.129 879.47 489.712
604 0 50.1109 10.357 519 106.306 879.493 486.942
605 0 51.0736 11.4541 585 107.022 879.357 487.026
606 0 52.0732 11.5606 602 119.248 878.329 486.52
607 0 56.0727 12.5551 704 104.616 879.656 485.47
608 0 56.0444 11.3481 636 108.671 879.755 485.234
609 0 59.0877 13.0822 773 103.891 879.867 483.757
610 0 62.2157 12.9067 803 102.763 880.127 483.202
611 0 64.1389 12.1767 781 105.214 879.146 484.036
612 0 66.2276 11.8833 787 106.715 879.59 480.776
613 0 67.1102 12.9041 866 106.771 879.124 478.736
614 0 71.1584 12.1841 867 107.472 879.089 479.538
615 0 73.3063 12.4 909 112.717 878.909 479.01
616 0 76.1728 12.196 929 112.618 878.513 477.62
617 0 78.1278 12.9915 1015 111.81 878.5 475.677
618 0 83.2099 13.2556 1103 111.182 878.141 474.811
619 0 83.2025 12.1751 1013 115.27 878.621 472.505
620 0 87.3264 12.2987 1074 114.752 879.125 470.284
621 1 46.2261 12.136 561 108.105 878.734 489.608
622 0 45.056 11.5856 522 104.966 877.674 491.343
623 0 46.039 10.2522 472 108.034 879.155 491.82
624 0 49.0426 13.0295 639 100.958 878.992 490.649
625 0 49.0382 12.011 589 105.555 879.363 489.205
626 0 52.0328 11.6849 608 105.219 878.765 488.86
627 0 54.0794 12.3892 670 105.693 879.398 488.279
628 0 54.0539 12.2655 663 107.851 879.703 487.804
629 0 54.1168 11.6969 633 110.425 879.174 486.968
630 0 55.1335 11.7533 648 111.872 878.972 486.861
631 0 60.0806 12.4832 750 108.903 879.113 486.32
632 0 61.154 12.2805 751 111.277 878.804 482.939
633 0 64.1126 13.5231 867 107.536 879.248 484.669
634 0 66.1475 12.8803 852 109.907 878.954 482.45
635 0 66.0983 11.5888 766 114.163 878.907 480.935
636 0 70.1317 13.7598 965 109.024 878.369 480.444
637 0 69.1358 12.3814 856 113.39 879.602 479.672
638 0 74.2073 13.2467 983 110.666 879.448 477.931
639 0 74.1781 12.6992 942 113.917 878.716 476.557
640 0 79.1119 12.9816 1027 112.408 878.217 474.983
641 0 81.1742 11.7895 957 116.211 879.012 471.78
642 0 83.2059 12.9919 1081 114.095 879.408 473.227
643 0 87.0477 12.9125 1124 117.618 879.58 471.991
644 0 90.0922 13.8192 1245 114.954 878.983 469.874
645 1 50.0494 11.149 558 121.409 879.744 490.81
646 0 51.1624 12.7046 650 118.174 879.651 488.558
647 0 53.0107 11.658 618 121.56 879.67 488.154
648 0 53.07 11.0232 585 117.268 879.581 489.569
649 0 54.1278 11.9901 649 116.675 879.473 486.78
650 0 58.0614 12.2457 711 114.541 879.086 486.94
651 0 59.0287 11.8925 702 115.751 878.577 486.117
652 0 61.1319 11.4343 699 117.714 878.441 484.79
653 0 62.0845 11.2911 701 118.512 878.096 486.019
654 0 64.0413 11.477 735 117.771 876.692 482.622
655 0 65.0418 11.2851 734 118.094 877.086 481.56
656 0 69.0689 11.5682 799 117.961 877.635 480.872
657 0 72.0464 12.8251 924 115.303 877.054 480.098
658 0 73.1941 13.1295 961 115.028 877.092 477.969
659 0 77.1592 12.5584 969 117.012 878.331 478.926
660 0 81.2091 12.8434 1043 115.144 878.566 478.394
661 0 82.139 12.6006 1035 117.938 878.802 474.624
662 0 88.1026 13.6318 1201 114.959 878.745 473.246
663 0 89.1905 12.535 1118 116.976 878.635 472.125
664 0 93.1072 13.6509 1271 114.604 878.412 468.82
665 1 45.0155 11.907 536 117.142 879.276 491.903
666 0 47.0092 11.9977 564 115.436 878.636 491.828
667 0 49.0287 12.9108 633 115.66 879.348 489.002
668 0 52.0129 13.8619 721 112.404 877.259 489.667
669 0 53.031 14.2181 754 111.886 877.186 488.68
670 0 55.1483 13.0376 719 114.583 877.7 490.028
671 0 56.1687 12.4447 699 116.306 877.798 490.233
672 0 57.0603 13.2842 758 116.46 877.46 488.681
673 0 59.0293 13.5187 798 115.52 877.845 487.51
674 0 61.0972 14.1087 862 114.738 877.667 486.552
675 0 61.0898 13.6193 832 118.456 877.721 485.022
676 0 64.08 12.9057 827 119.562 878.368 483.348
677 0 67.0248 14.7706 990 113.722 877.997 482.954
678 0 69.105 13.5301 935 117.404 877.87 481.491
679 0 71.0617 13.7486 977 117.668 877.564 480.429
680 0 75.1043 14.167 1064 116.024 877.522 480.241
681 0 77.0402 13.6942 1055 117.882 877.795 478.448
682 0 78.0592 15.5139 1211 115.101 877.856 475.368
683 0 82.0515 14.7834 1213 117.346 877.348 475.92
684 0 83.1364 14.0372 1167 120.754 877.003 474.573
685 0 87.1559 15.3403 1337 116.882 877.482 472.81
686 0 89.0499 16.0023 1425 116.446 877.652 473.133
687 0 92.1165 14.6336 1348 120.919 877.846 470.657
688 0 95.0926 15.4691 1471 119.262 878.295 470.444
689 0 98.0634 14.2765 1400 123.924 877.684 468.533
690 0 101.061 15.5847 1575 122.422 878.124 465.352
691 1 48.0412 12.8223 616 126.247 877.542 491.464
692 0 50.055 11.5473 578 116.431 878.344 487.72
693 0 50.0775 11.3624 569 117.763 877.879 486.924
694 0 52.0342 12.0498 627 115.378 877.911 488.88
695 0 54.0525 13.1909 713 113.693 878.386 486.917
696 0 56.0473 12.9533 726 114.231 878.307 486.074
697 0 56.0558 13.5044 757 118.018 878.23 487.472
698 0 59.0642 13.5784 802 118.58 878.039 485.344
699 0 61.0485 13.3828 817 118.995 878.116 484.788
700 0 65.1095 13.7768 897 117.603 878.298 483.508
701 0 67.0875 13.6836 918 117.65 877.932 482.084
702 0 69.0928 13.8075 954 118.013 878.306 481.877
703 0 74.1325 14.7439 1093 114.383 878.344 480.807
704 0 74.1474 13.7969 1023 121.055 878.327 476.08
705 0 78.0429 14.6714 1145 118.766 878.278 476.442
706 0 80.1237 15.5634 1247 116.633 878.905 474.031
707 0 83.0965 14.2485 1184 119.064 878.669 474.948
708 0 85.1415 15.668 1334 116.51 878.843 472.169
709 0 86.1309 13.2705 1143 121.739 878.577 472.046
710 0 90.1034 14.2392 1283 120.389 878.889 469.966
711 0 92.1777 12.7688 1177 123.003 878.907 470.298
712 0 96.1188 13.4833 1296 123.214 878.83 466.352
713 0 99.191 13.5597 1345 123.107 878.48 464.982
714 0 104.098 13.5834 1414 121.757 878.496 462.909
715 0 110.131 14.5372 1601 118.429 877.933 462.292
716 0 111.152 12.7394 1416 124.365 877.924 455.936
717 1 60.0514 12.1063 727 116.161 877.403 483.747
718 0 63.0627 12.7016 801 113.809 877.526 482.315
719 0 62.0806 12.5804 781 120.722 878.885 481.809
720 0 67.0374 12.8137 859 118.875 879.65 480.1
721 0 69.0548 12.8449 887 118.475 879.496 481.846
722 0 71.0409 12.6969 902 120.591 879.466 477.144
723 0 75.1216 14.0173 1053 117.745 879.198 477.18
724 0 77.0448 13.8621 1068 118.234 879.047 475.948
725 0 79.1009 13.8936 1099 119.47 879.43 475.104
726 0 83.1041 14.2592 1185 119.162 879.448 474.409
727 0 86.127 12.9228 1113 123.053 879.294 472.345
728 0 89.1236 13.902 1239 121 878.843 469.765
729 0 92.1839 13.0175 1200 124.192 878.743 468.102
730 0 95.0997 13.2808 1263 123.424 878.741 466.792
731 1 46.0706 11.07 510 120.512 879.19 492.104
732 0 48.1214 11.1385 536 120.009 878.192 490.097
733 0 50.0784 12.7999 641 117.632 877.028 490.273
734 0 51.1489 11.8869 608 121.793 878.477 489.516
735 0 51.1501 10.6549 545 124.396 878.084 490.36
736 0 55.1606 12.1464 670 120.104 878.615 487.3
737 0 56.073 11.3067 634 122.069 878.085 487.446
738 0 59.2147 13.1893 781 117.123 878.328 485.595
739 0 60.1559 11.1377 670 124.019 878.288 483.822
740 0 65.1692 12.9663 845 118.04 878.792 484.117
741 0 67.1523 12.4642 837 119.545 878.836 481.953
742 0 69.127 12.8604 889 119.109 878.407 479.814
743 0 71.2376 14.5288 1035 114.938 878.262 478.072
744 0 73.206 13.9606 1022 117.106 878.37 477.368
745 0 75.1862 12.6619 952 120.563 878.494 475.285
746 0 79.11 13.9173 1101 118.279 878.835 472.059
747 0 82.2027 12.6516 1040 120.294 878.708 470.488
748 1 43.0086 11.8581 510 116.263 879.19 492.961
749 0 45.0206 12.3721 557 116.743 879.388 490.557
750 0 46.2107 12.4646 576 116.069 878.37 488.743
751 0 46.2383 11.7651 544 120.318 878.809 488.399
752 0 47.1806 12.2084 576 118.639 878.592 489.321
753 0 48.1674 13.1417 633 117.537 877.96 487.523
754 0 52.1971 12.3762 646 118.159 878.006 486.881
755 0 53.1678 13.3163 708 115.345 878.274 486.955
756 0 52.1592 13.4013 699 118.637 877.946 484.921
757 0 55.2485 12.9596 716 118.756 878.094 484.852
758 0 57.1953 13.4277 768 118.061 878.184 483.288
759 0 58.252 12.6176 735 119.913 878.309 483.566
760 0 60.2189 13.3181 802 117.883 877.994 483.325
761 0 64.1753 14.289 917 115.954 878.149 479.88
762 0 67.2677 13.305 895 118.544 877.867 479.597
763 0 68.2292 13.9383 951 118.392 877.505 477.585
764 0 70.086 13.4121 940 119.65 877.452 478.328
765 0 73.1529 13.1779 964 121.648 877.97 473.827
766 0 75.1413 13.7607 1034 121.474 877.519 474.079
767 0 79.1821 15.0539 1192 119.194 877.404 473.453
768 1 38.1561 14.4669 552 123.15 879.094 492.991
769 0 39.1759 13.7329 538 124.424 878.528 493.125
770 0 42.2911 15.4643 654 120.307 878.263 491.026
771 0 42.2011 13.6252 575 128.13 878.303 491.108
772 0 44.3395 14.5017 643 125.603 877.442 489.708
773 0 47.3475 14.6787 695 124.436 877.656 489.183
774 0 48.1895 15.356 740 124.146 877.947 488.903
775 0 50.4078 14.6604 739 125.2 878.406 488.677
776 0 51.2549 15.1205 775 124.703 877.764 488.048
777 0 52.2543 13.9893 731 128.654 878.041 487.977
778 0 54.2811 14.038 762 129.311 878.206 486.448
779 0 55.3266 13.4655 745 132.278 878.638 486.228
780 0 59.2636 15.5407 921 125.364 879.015 484.87
781 0 62.2308 15.7157 978 125.408 878.833 483.822
782 0 63.1534 15.5811 984 127.057 878.997 482.323
783 0 67.2583 15.7453 1059 125.382 878.736 481.295
784 0 68.2006 15.7477 1074 126.716 878.574 479.154
785 0 68.1414 15.0569 1026 131.156 877.992 478.593
786 0 71.1448 15.349 1092 130.016 878.423 479.931
787 0 74.2052 16.1444 1198 128.237 878.552 477.508
788 0 77.2235 15.9666 1233 128.555 878.253 477.427
789 0 79.2364 16.1668 1281 129.59 878.148 475.628
790 0 81.1816 15.6193 1268 131.069 878.708 473.731
791 0 83.15 16.0553 1335 131.354 878.896 475.133
792 0 86.2144 15.1599 1307 135.095 878.979 472.95
793 0 90.1123 15.292 1378 134.158 878.983 472.617
794 0 94.2655 15.1275 1426 134.527 879.193 469.721
795 0 97.1655 14.9847 1456 134.797 879.657 469.361
796 0 101.275 15.6899 1589 133.251 879.943 465.296
797 1 47.0868 14.7812 696 142.799 879.243 491.799
798 0 47.1466 15.1655 715 145.952 878.831 489.403
799 0 49.1057 15.4564 759 144.588 879.302 489.909
800 0 50.0963 17.0272 853 140.242 878.801 489.046
801 0 52.0979 15.2981 797 146.996 878.556 487.351
802 0 52.0742 14.8826 775 150.701 879.279 487.924
803 0 56.1375 15.2839 858 148.113 878.711 486.646
804 0 57.1185 15.5291 887 149.988 878.247 484.873
805 0 60.1045 15.6561 941 148.411 878.885 485.301
806 0 62.1003 15.4106 957 150.744 878.877 483.215
807 0 62.1076 14.7325 915 154.944 878.517 483.987
808 0 68.0912 16.6541 1134 145.205 878.875 482.995
809 0 68.0574 16.1628 1100 148.992 878.915 481.634
810 0 70.165 16.1904 1136 148.918 878.715 480.929
811 0 71.0894 15.4875 1101 152.554 877.806 478.231
812 0 76.1462 16.9411 1290 144.645 878.356 478.697
813 0 80.1165 16.4386 1317 145.885 878.42 475.446
814 0 82.2684 15.5102 1276 150.496 877.834 472.684
815 0 86.1112 17.2684 1487 143.57 878.732 473.163
816 0 91.2254 15.7631 1438 148.034 877.967 471.083
817 0 93.0954 15.5754 1450 150.461 878.079 468.406
818 0 97.101 16.2099 1574 148.118 878.248 469.057
819 0 99.1252 15.0315 1490 154.509 878.084 465.024
820 1 46.1248 15.3714 709 154.731 879.226 490.492
821 0 46.0578 15.5674 717 155.982 879.218 490.198
822 0 49.1068 15.2932 751 155.923 879.329 489.727
823 0 51.1095 16.1614 826 153.283 879.157 488.22
824 0 52.1146 15.3316 799 157.049 879.189 487.66
825 0 54.1153 15.9105 861 156.139 878.269 485.984
826 0 54.1175 15.3185 829 160.568 878.52 486.145
827 0 58.1272 16.0854 935 155.825 878.881 485.842
828 0 60.0693 16.1813 972 156.085 878.587 484.305
829 0 62.0755 16.2222 1007 155.787 878.609 484.372
830 0 63.07 15.9664 1007 157.507 879.13 483.272
831 0 69.0757 15.4179 1065 156.907 879.15 481.558
832 0 69.0857 16.1828 1118 154.309 878.973 482.196
833 0 70.0604 15.2868 1071 159.458 878.2 478.442
834 0 74.0555 14.9482 1107 158.519 878.48 476.541
835 0 75.0432 15.5111 1164 157.101 878.338 475.532
836 0 79.1264 16.2778 1288 150.598 878.116 474.686
837 0 85.1914 15.5767 1327 149.172 878.039 471.588
838 0 90.2236 15.3064 1381 148.917 877.362 466.193
839 1 100.592 14.8023 1489 144.991 877.238 463.613
840 0 104.368 15.5125 1619 142.975 877.785 459.879
841 0 112.454 17.3226 1948 134.631 877.579 454.667
842 0 112.505 15.8037 1778 142.16 877.647 453.224
843 0 116.342 14.6637 1706 147.358 876.94 454.3
844 0 119.49 14.972 1789 147.203 877.243 451.335
845 0 121.623 15.0712 1833 148.778 877.957 451.761
846 0 126.33 14.9608 1890 150.176 878.438 446.765
847 0 130.466 14.9157 1946 151.295 877.834 444.831
848 0 135.751 14.8286 2013 153.034 877.687 441
849 0 144.629 17.5415 2537 141.653 878.039 437.959
850 0 144.415 15.2754 2206 151.29 876.535 435.802
851 0 149.526 14.4524 2161 154.848 877.781 434.664
852 0 154.79 14.258 2207 156.749 877.529 430
853 0 160.647 14.647 2353 156.343 877.457 428.319
854 0 166.642 15.1222 2520 153.682 877.554 426.434
855 1 116.434 10.4866 1221 159.404 877.03 449.62
856 0 120.7 11.3587 1371 158.432 877.179 448.264
857 0 125.683 12.8657 1617 153.654 876.913 446.75
858 0 129.552 12.6745 1642 154.113 877.018 444.99
859 0 136.842 13.7604 1883 150.363 877.046 439.127
860 0 142.7 12.9923 1854 152.278 876.922 436.519
861 0 147.835 12.5139 1850 155.472 876.779 427.898
862 0 156.767 13.0193 2041 151.889 877.559 427.659
863 0 160.773 13.3356 2144 151.329 877.5 423.659
864 0 165.652 11.8682 1966 157.139 876.917 424.535
865 0 171.801 13.1198 2254 152.506 877.49 421.254
866 0 176.704 12.7105 2246 154.195 877.627 418.608
867 0 182.775 12.3704 2261 156.094 877.568 414.774
868 0 189.615 13.0686 2478 154.002 878.087 410.794
869 1 37.0199 8.02271 297 129.906 877.791 493.835
870 0 41.0412 9.06407 372 127.185 878.293 493.358
871 0 43.1171 9.48579 409 127.856 878.533 492.086
872 0 44.139 10.399 459 130.131 878.453 490.763
873 0 42.1378 8.42474 355 137.149 878.707 492.628
874 0 48.0974 10.0629 484 132.911 878.357 491.099
875 0 52.0865 8.94666 466 135.957 877.732 489.753
876 1 186.309 4.29394 800 149.331 878.254 457.5
877 0 185.389 5.37249 996 149.416 878.231 449.349
878 0 187.955 8.1828 1538 150.616 877.439 427.873
879 0 191.754 9.13669 1752 150.15 877.212 422.324
880 0 195.876 9.38861 1839 150.673 877.309 418.828
881 0 203.993 9.76503 1992 149.978 877.218 412.919
882 0 210.8 11.1717 2355 147.086 878.223 408.579
883 0 219.034 9.94365 2178 149.607 877.578 404.764
884 0 225.168 11.6935 2633 145.798 877.273 400.608
885 0 232.813 10.764 2506 148.229 877.423 400.102
886 0 238.602 10.2933 2456 151.724 877.767 390.26
887 0 246.987 10.9358 2701 148.902 878.101 392.541
888 0 253.05 10.1324 2564 151.555 877.439 386.995
889 0 260 11.35 2951 147.656 877.311 379.655
890 0 267.791 11.2364 3009 146.393 877.308 383.732
891 0 275.022 10.1737 2798 148.002 876.799 378.832
892 0 274.319 4.06461 1115 148.786 876.612 431.784
893 1 39.0947 9.71998 380 130.434 875.99 495.705
894 0 40.0237 10.3688 415 126.641 876.622 494.646
895 0 43.0796 11.235 484 122.114 877.074 494.403
896 0 39.0341 10.2731 401 128.19 878.349 493.18
897 0 42.014 10.2585 431 127.555 878.292 493.155
898 0 42.0579 10.5569 444 126.86 877.908 492.405
899 0 45.0316 9.88195 445 127.193 878.106 492.991
900 0 46.0112 10.6061 488 124.98 878 492.029
901 0 48.0157 10.6424 511 124.386 877.693 490.728
902 0 53.1576 11.6446 619 118.94 878.355 489.128
903 0 52.1032 11.2469 586 121.106 878.538 489.377
904 0 56.115 12.0645 677 117.558 878.858 487.27
905 0 58.0918 11.499 668 117.416 878.019 488.588
906 0 59.1132 11.1819 661 118.091 878.599 488.295
907 0 60.1134 11.2454 676 118.749 878.46 485.235
908 0 64.1384 11.1478 715 118.636 878.48 484.727
909 0 65.1957 11.5038 750 117.523 878.323 483.591
910 0 67.1397 11.6027 779 116.756 878.475 483.434
911 0 71.15 11.9044 847 115.778 878.158 481.71
912 0 70.2111 12.6333 887 115.1 877.982 480.95
913 0 72.187 11.678 843 116.541 877.9 481.11
914 0 75.226 11.06 832 117.638 877.684 479.41
915 0 76.3145 12.2126 932 114.872 877.753 478.308
916 0 80.1397 11.8917 953 115.639 877.323 476.535
917 1 42.1406 9.9429 419 120.976 877.773 493.611
918 0 44.1422 12.0746 533 112.178 877.807 493.732
919 0 43.1293 12.0104 518 113.297 877.871 493.685
920 0 47.1294 12.5399 591 111.206 878.364 492.105
921 0 48.0266 12.3473 593 112.58 878.821 491.147
922 0 49.0983 12.2815 603 112.139 878.836 491.35
923 0 50.0657 12.3837 620 111.692 878.845 491.748
924 0 53.0816 12.8293 681 108.855 878.557 489.734
925 0 54.1768 13.0683 708 108.049 878.525 488.466
926 0 54.1278 12.101 655 111.174 878.321 488.692
927 0 56.1639 13.1579 739 108.487 877.632 486.801
928 0 57.1646 11.5981 663 111.677 878.115 487.481
929 0 58.078 12.8104 744 109.483 878.044 486.058
930 0 62.0921 13.3833 831 106.705 878.19 485.297
931 0 63.1342 12.814 809 108.209 878.156 483.703
932 0 65.2572 14.0981 920 103.985 878.056 483.367
933 0 66.0414 12.9313 854 107.713 877.917 481.772
934 0 69.1613 12.6516 875 107.225 878.069 480.69
935 0 72.2802 11.7875 852 107.918 877.541 480.628
936 0 75.1324 11.7393 882 106.06 877.812 480.566
937 0 75.1439 10.4067 782 106.921 876.6 477.441
938 1 39.0132 11.6371 454 104.427 876.888 496.385
939 0 39.0734 11.4912 449 104.612 876.615 496.018
940 0 42.049 12.1525 511 103.826 876.622 492.91
941 0 43.0282 11.8062 508 99.9803 878.283 490.445
942 0 44.1418 10.7834 476 98.4139 877.737 489.824
943 0 45.0547 10.8535 489 98.9182 877.663 488.018
944 0 47.0743 11.1313 524 98.25 877.681 487.307
945 0 48.1094 10.7048 515 99.8582 878.381 487.814
946 0 49.0432 10.1543 498 101.516 877.807 485.757
947 0 50.1018 10.0795 505 101.026 877.952 486.644
948 0 52.0547 11.1806 582 99.9553 878.299 484.01
949 0 56.0911 10.0907 566 99.8975 878.827 485.378
950 0 56.0924 11.1602 626 100.193 878.075 482.513
951 0 57.1017 11.068 632 100.812 878.299 484.131
952 0 61.0466 12.384 756 97.6349 877.874 481.126
953 0 60.0389 11.2927 678 100.957 878.028 478.844
954 0 62.2702 10.3902 647 102.858 878.065 481.89
955 0 66.1015 11.6185 768 101.003 877.609 479.055
956 0 68.097 10.9109 743 103.703 877.412 477.265
957 0 71.1189 11.4878 817 103.083 877.333 475.502
958 0 74.1671 12.2022 905 103.628 877.213 473.24
959 0 78.0917 11.256 879 105.196 877.605 473.47
960 0 80.075 12.251 981 107.399 876.974 472.419
961 0 83.1042 12.6829 1054 107.281 876.509 467.99
962 0 85.1162 12.9823 1105 107.789 876.648 467.189
963 0 88.157 12.5118 1103 109.184 877.027 467.344
964 1 44.0095 10.9976 484 101.076 877.397 490.494
965 0 45.0641 11.3616 512 101.857 877.158 488.25
966 0 48.0672 12.1496 584 101.899 877.194 489.738
967 0 50.0781 13.2793 665 103.226 876.866 488.844
968 0 50.0848 12.7783 640 104.614 876.97 488.695
969 0 51.0938 12.3694 632 105.96 877.06 487.908
970 0 52.0828 12.9793 676 106.45 877.37 486.555
971 0 54.0813 13.0544 706 107.424 876.752 486.295
972 0 56.0552 12.7375 714 107.16 876.646 486.153
973 0 59.0563 13.2077 780 106.651 876.659 483.67
974 0 60.0586 11.7718 707 110.897 876.47 483.996
975 0 63.0866 12.6017 795 109.026 876.598 483.104
976 0 65.1481 13.1854 859 108.811 876.645 480.102
977 0 69.0528 14.3224 989 104.971 876.965 480.848
978 0 69.0376 11.9645 826 112.788 876.49 477.929
979 0 73.0766 12.9727 948 109.25 876.616 478.801
980 0 74.1047 14.1961 1052 108.556 876.882 475.353
981 0 75.0709 13.1209 985 110.628 876.444 476.115
982 0 79.0638 13.4448 1063 109.367 876.802 476.155
983 0 82.1114 14.3464 1178 109.124 876.936 472.714
984 0 85.0412 13.4641 1145 110.391 877.098 473.614
985 0 88.0947 13.6785 1205 110.735 877.039 470.076
986 0 90.0638 13.8568 1248 109.291 877.397 470.099
987 0 94.1457 12.7674 1202 112.388 877.196 467.163
988 0 97.1976 13.7761 1339 109.164 877.131 466.679
989 1 51.1685 13.5239 692 107.932 877.423 487.305
990 0 54.1681 13.3843 725 107.568 877.175 486.385
991 0 55.065 12.5488 691 104.42 877.606 487.912
992 0 57.0553 12.707 725 104.68 878.589 484.492
993 0 58.0259 12.8391 745 105.652 878.293 483.117
994 0 61.089 13.2593 810 103.799 878.425 483.14
995 0 63.0241 13.7408 866 103.426 878.187 483.16
996 0 62.0358 12.38 768 108.424 877.634 479.766
997 0 62.0301 12.365 767 145.764 876.644 479.791
998 0 70.0999 14.2796 1001 108.191 877.9 475.596
999 0 71.1213 13.6246 969 110.193 877.24 473.391
1000 0 75.1021 13.6348 1024 108.78 877.489 476.716
1001 0 79.0437 14.6754 1160 106.007 876.845 473.959
1002 0 81.0801 14.9358 1211 106.244 876.678 471.367
1003 0 84.0623 14.0372 1180 107.97 876.552 470.979
1004 0 86.1095 14.3538 1236 107.12 876.632 468.471
1005 0 90.1063 15.1377 1364 105.804 877.271 465.732
1006 0 93.2799 13.6042 1269 106.359 877.073 463.883
1007 0 95.1704 15.6351 1488 103.647 876.792 461.093
1008 0 99.1005 13.562 1344 106.923 876.525 461.458
1009 0 99.2864 14.1006 1400 108.998 876.534 459.644
1010 0 105.13 14.9529 1572 104.951 877.024 461.463
1011 0 106.071 13.5193 1434 111.234 877.135 457.88
1012 1 52.1266 10.321 538 101.799 877.929 481.729
1013 0 54.0411 10.64 575 101.633 877.259 480.012
1014 0 57.1412 11.5678 661 99.528 877.289 481.359
1015 0 57.1171 11.5727 661 100.93 877.168 477.859
1016 0 60.0842 11.4339 687 100.916 877.162 480.904
1017 0 63.0502 13.3069 839 98.1406 876.59 479.085
1018 0 64.107 12.1048 776 102.188 877.313 477.13
1019 0 64.0893 11.3748 729 104.977 877.299 475.257
1020 0 69.1068 11.5329 797 105.035 877.171 475.117
1021 0 70.0714 12.5872 882 104.173 877.132 472.608
1022 0 72.1856 11.1241 803 106.679 876.869 472.659
1023 0 77.1885 12.5796 971 103.509 876.943 471.103
1024 0 78.1027 11.4081 891 104.813 877.498 471.497
1025 0 81.1816 11.7761 956 106.337 877.726 468.019
1026 0 82.1179 11.5078 945 107.759 877.403 466.935
1027 0 86.131 12.214 1052 105.564 877.638 467.299
1028 0 88.1756 12.373 1091 106.554 877.696 464.164
1029 0 92.1036 12.0408 1109 106.146 877.417 461.89
1030 0 94.207 11.0395 1040 109.201 877.746 459.26
1031 1 49.0633 9.96672 489 106.072 878.125 486.902
1032 0 50.1322 10.213 512 105.607 878.191 486.369
1033 0 53.0923 11.3011 600 104.353 878.413 483.893
1034 0 54.1134 11.2172 607 106.814 878.165 483.511
1035 0 56.0975 12.0504 676 108.519 878.476 481.388
1036 0 58.1594 11.0902 645 112.115 877.619 481.715
1037 0 59.0742 11.1216 657 112.834 878.566 480.724
1038 0 62.1371 10.9596 681 113.103 877.953 479.577
1039 0 66.1626 12.2728 812 110.974 878.366 478.171
1040 0 68.2368 11.2696 769 112.753 877.899 479.549
1041 0 69.1603 13.3313 922 109.991 877.606 477.856
1042 0 69.2926 10.8381 751 117.075 878.124 475.863
1043 0 74.1195 13.5727 1006 110.059 878.133 477.449
1044 0 74.1261 11.2916 837 116.724 878.152 475.158
1045 0 76.1751 13.1145 999 113.202 877.528 474.277
1046 0 78.1556 12.1936 953 115.237 878.359 471.455
1047 0 84.1382 13.9057 1170 110.907 878.178 471.734
1048 0 84.2471 12.3684 1042 114.635 877.775 469.433
1049 0 89.154 10.8015 963 116.127 877.585 470.227
1050 0 91.2275 12.2551 1118 113.52 877.326 467.792
1051 0 93.1929 10.9558 1021 116.597 877.477 466.3
1052 0 96.1665 13.1023 1260 112.295 877.445 464.115
1053 0 100.163 11.7109 1173 114.469 877.702 462.274
1054 1 52.0804 11.175 582 107.981 878.369 485.947
1055 0 55.066 11.2229 618 109.843 878.555 483.532
1056 0 56.0986 11.8006 662 107.467 878.314 484.644
1057 0 59.097 12.2003 721 103.34 877.9 481.709
1058 0 61.1863 13.6142 833 99.916 877.705 481.689
1059 0 64.1312 13.5347 868 99.735 877.302 480.916
1060 0 66.1904 12.464 825 103.155 877.436 479.324
1061 0 67.0905 11.5367 774 104.915 877.226 478.59
1062 0 69.1694 11.6092 803 104.747 877.594 476.941
1063 0 72.2328 11.7952 852 104.671 877.232 475.934
1064 0 71.2274 9.50477 677 108.26 877.65 477.939
1065 0 74.244 11.5026 854 107.014 877.029 474.34
1066 0 78.2722 12.8654 1007 103.651 877.013 472.938
1067 0 80.2669 12.3214 989 104.277 877.632 471.725
1068 0 82.2529 10.6015 872 108.743 877.442 469.828
1069 0 87.3027 11.8782 1037 106.513 877.425 467.152
1070 0 89.209 11.8262 1055 106.091 876.99 468.905
1071 0 88.1665 10.1286 893 109.05 877.286 465.788
1072 0 94.0977 10.7442 1011 106.676 877.516 464.466
1073 0 94.1069 9.82925 925 110.07 877.97 458.776
1074 1 48.0266 10.5358 506 104.589 878.83 480.982
1075 0 52.0307 12.8001 666 102.541 878.62 484.599
1076 0 54.0318 11.3452 613 107.073 876.786 484.463
1077 0 56.0397 11.474 643 107.981 877.317 482.802
1078 0 57.0518 11.2705 643 107.431 876.454 482.636
1079 0 59.0465 10.4663 618 110.793 876.479 481.398
1080 0 58.0316 11.5971 673 108.33 876.511 481.233
1081 0 64.0681 12.1745 780 108.06 876.749 481.899
1082 0 66.0452 12.5369 828 107.907 876.432 479.072
1083 0 68.0693 11.5324 785 111.666 876.555 478.09
1084 0 70.0975 10.9134 765 112.77 876.813 479.297
1085 0 73.121 12.4041 907 111.245 876.071 476.594
1086 0 75.133 13.1899 991 110.12 876.013 473.161
1087 0 77.076 11.9492 921 113.692 875.977 474.065
1088 0 80.0692 12.3019 985 112.508 876.282 474.352
1089 0 82.0887 13.6681 1122 110.709 876.315 470.806
1090 0 85.0598 12.2855 1045 111.974 875.653 469.714
1091 0 86.2261 12.4324 1072 113.996 875.927 466.812
1092 0 90.0883 11.4554 1032 116.496 876.372 467.295
1093 0 94.2129 11.8561 1117 116.876 876.67 465.823
1094 0 96.1512 12.2723 1180 117.52 876.372 463.875
1095 0 100.131 13.0329 1305 115.5 875.946 461.995
1096 1 53.1297 10.9355 581 112.661 875.719 487.585
1097 0 53.022 11.7687 624 111.112 876.465 489.213
1098 0 54.0347 11.3631 614 112.596 876.179 486.275
1099 0 56.132 11.7758 661 118.334 876.148 483.691
1100 0 59.0991 12.6398 747 114.652 875.953 483.116
1101 0 62.23 12.3092 766 115.336 876.697 481.967
1102 0 65.1713 12.3827 807 114.118 876.574 481.434
1103 0 64.1801 12.1221 778 116.734 876.887 479.274
1104 0 69.114 13.5139 934 111.825 876.606 477.605
1105 0 70.4276 12.6229 889 114.592 876.54 476.607
1106 0 72.2614 12.9806 938 113.412 876.206 477.09
1107 0 74.1833 13.5475 1005 112.852 876.215 474.398
1108 0 79.2929 13.3555 1059 111.812 876.89 472.023
1109 0 81.3209 12.7765 1039 112.97 877.541 472.382
1110 0 84.4814 13.1627 1112 112.164 877.445 468.297
1111 0 85.2366 13.222 1127 108.981 876.657 468.249
1112 0 86.3355 11.7912 1018 111.935 876.632 468.862
1113 0 89.2327 13.0445 1164 106.604 876.55 463.603
1114 0 92.2844 12.0389 1111 110.962 877.655 460.428
1115 1 47.2631 9.22496 436 105.89 877.681 484.697
1116 0 49.2802 10.6737 526 103.612 877.673 482.133
1117 0 48.0491 9.88572 475 102.029 876.941 481.882
1118 0 52.1134 11.0912 578 98.9602 877.462 483.555
1119 0 52.0514 10.528 548 102.314 877.252 480.272
1120 0 53.1254 10.8611 577 102.496 877.076 479.913
1121 0 55.0881 9.16714 505 104.964 876.665 479.204
1122 0 55.1261 10.7934 595 105.099 876.521 476.733
1123 0 59.214 11.0447 654 103.873 877.093 476.147
1124 0 60.1144 10.2139 614 106.632 876.863 477.008
1125 0 63.1209 10.6621 673 104.792 876.768 474.013
1126 0 64.2959 10.6228 683 105.078 876.864 473.714
1127 0 68.2721 11.4542 782 103.572 877.455 471.625
1128 0 72.2479 10.8239 782 104.912 877.101 471.061
1129 0 73.1814 9.79757 717 106.734 876.771 469.197
1130 0 76.3097 10.1036 771 105.082 876.869 470.831
1131 0 78.2294 11.3768 890 104.382 877.071 464.843
1132 0 80.1261 11.4445 917 105.074 877.008 464.188
1133 0 85.1994 12.4883 1064 103.433 877.347 464.141
1134 0 90.1597 12.611 1137 103.38 876.856 463.298
1135 0 91.2264 11.8825 1084 107.085 876.853 463.692
1136 1 49.1494 10.3155 507 111.732 878.704 483.189
1137 0 47.0997 10.2124 481 114.715 878.304 479.759
1138 0 52.0609 11.4865 598 111.244 878.403 485.346
1139 0 54.0841 12.0553 652 109.614 878.327 485.928
1140 0 55.0563 12.2965 677 109.798 878.251 484.47
1141 0 57.0516 12.55 716 110.399 877.853 485.124
1142 0 60.2549 12.7293 767 109.493 877.718 484.248
1143 0 61.1286 11.8602 725 113.247 877.739 481.443
1144 0 63.3582 12.0111 761 115.087 877.748 481.238
1145 0 67.3036 13.3425 898 111.491 877.255 478.49
1146 0 69.2432 13.0554 904 113.052 877.409 477.254
1147 0 72.3153 13.5794 982 111.724 876.62 475.72
1148 0 75.291 12.7771 962 114.146 876.674 473.89
1149 0 78.4202 13.7592 1079 112.091 875.882 472.037
1150 0 80.2666 12.147 975 116.515 875.891 471.241
1151 0 82.4329 11.8763 979 117.333 875.264 467.042
1152 1 43.3122 10.2512 444 109.428 875.248 489.962
1153 0 44.2251 10.944 484 104.965 877.605 488.525
1154 0 46.075 12.6316 582 102.045 875.129 489.43
1155 0 46.0295 10.3412 476 107.973 875.183 489.91
1156 0 46.0526 10.7052 493 107.41 874.834 491.266
1157 0 49.0582 10.0493 493 107.844 875.126 490.584
1158 0 50.065 10.9857 550 107.658 875.653 487.105
1159 0 52.0403 10.6648 555 108.279 875.894 487.18
1160 0 52.0403 10.7801 561 122.007 876.911 487.303
1161 0 57.0692 11.232 641 109.332 875.546 485.162
1162 0 56.0555 11.3459 636 110.847 875.454 483.63
1163 0 59.0613 11.9367 705 109.028 875.694 481.526
1164 0 61.1088 10.5713 646 112.358 875.774 480.971
1165 0 63.1022 10.8237 683 111.044 875.925 482.922
1166 0 66.0855 10.4108 688 112.093 875.922 481.882
1167 0 68.0729 10.9588 746 112.629 875.696 477.303
1168 0 71.0212 11.1938 795 112.176 875.892 479.904
1169 0 74.088 11.1354 825 113.429 875.793 476.827
1170 0 76.0964 12.2213 930 112.394 876.115 475.585
1171 0 79.1006 11.7698 931 114.731 874.845 473.382
1172 0 82.2156 10.4481 859 117.43 875.371 475.024
1173 1 43.141 10.5932 457 119.735 875.365 491.057
1174 0 45.2025 11.3711 514 113.852 876.916 491.121
1175 0 44.0162 10.9959 484 113.471 875.432 491.607
1176 0 45.0339 10.592 477 116.254 875.424 491.788
1177 0 48.0445 12.6549 608 111.628 875.212 490.176
1178 0 48.0605 11.7768 566 114.576 875.797 488.638
1179 0 51.0978 11.1551 570 114.444 875.461 488.686
1180 0 52.0367 11.2805 587 114.46 875.206 487.554
1181 0 57.0416 12.4997 713 109.75 875.853 487.344
1182 0 56.0304 11.7615 659 113.775 875.563 484.052
1183 0 58.0913 11.7057 680 114.725 875.634 483.143
1184 0 59.0404 11.5853 684 115.228 875.658 482.459
1185 0 62.0631 12.6968 788 113.419 875.202 482.777
1186 0 63.0973 12.2351 772 114.662 876.11 481.661
1187 0 65.1896 12.1645 793 115.932 876.228 480.914
1188 0 66.082 12.091 799 118.536 876.065 480.364
1189 0 68.1081 12.4508 848 117.738 876.176 479.241
1190 0 70.0558 12.5757 881 118.33 876.95 476.757
1191 0 74.171 12.6195 936 117.514 876.374 475.995
1192 0 77.1564 12.87 993 117.242 876.263 472.462
1193 0 78.1202 12.2375 956 120.395 876.407 472.482
1194 0 81.1043 13.0942 1062 117.756 875.655 471.69
1195 0 85.1751 12.7972 1090 119.074 876.307 468.826
1196 0 89.1243 12.6453 1127 120.175 876.2 468.841
1197 0 90.0527 13.7253 1236 120.492 875.841 467.262
1198 1 45.0461 10.3894 468 130.03 875.299 489.066
1199 0 45.0369 10.5469 475 121.267 876.255 487.078
1200 0 47.0194 11.1869 526 121.49 876.143 485.272
1201 0 48.027 10.161 488 123.211 875.932 485.949
1202 0 51.0418 11.3044 577 122.045 876.137 483.692
1203 0 51.0281 11.8366 604 122.013 876.026 483.007
1204 0 52.0237 11.5332 600 122.793 875.318 483.133
1205 0 55.0497 12.7703 703 119.4 875.077 481.233
1206 0 56.0538 10.7575 603 126.657 875.604 480.456
1207 0 59.0517 11.1597 659 125.719 875.325 479.885
1208 0 60.0431 11.5417 693 125.98 875.193 477.391
1209 0 61.0548 11.0557 675 126.523 875.652 477.89
1210 0 63.0708 12.2878 775 123.933 875.542 477.081
1211 0 64.0304 10.6356 681 120.292 876.351 476.959
1212 0 67.1358 12.1843 818 114.824 875.971 478.1
1213 0 69.1012 10.9694 758 118.636 876.215 476.116
1214 0 71.0491 10.2464 728 120.865 876.591 473.081
1215 0 71.1307 9.34898 665 123.054 876.959 473.229
1216 0 74.0421 10.2104 756 119.083 876.64 473.893
1217 0 77.061 10.6279 819 117.454 876.945 473.19
1218 0 80.0621 10.8791 871 118.847 876.979 469.355
1219 0 84.138 11.9565 1006 114.095 877.44 469.488
1220 1 42.065 9.46156 398 116.108 877.791 487.57
1221 0 46.1642 10.9176 504 110.24 877.321 487.232
1222 0 46.2419 9.51518 440 114.755 876.059 485.773
1223 0 49.0603 12.0464 591 110.034 875.345 484.303
1224 0 51.0242 11.0732 565 111.315 875.457 484.46
1225 0 52.0378 11.0112 573 112.127 875.768 482.682
1226 0 54.0325 10.8823 588 115.371 876.199 486.913
1227 0 55.0797 12.8723 709 118.147 876.238 486.635
1228 0 58.0524 11.972 695 120.252 876.419 485.173
1229 0 58.126 12.3009 715 119.848 876.257 485.867
1230 0 60.0934 12.3641 743 120.331 876.911 483.973
1231 0 62.1012 11.9804 744 119.573 876.714 482.96
1232 0 64.1182 12.321 790 118.457 876.149 482.346
1233 0 66.0313 11.9943 792 118.948 876.266 481.583
1234 0 67.0456 12.5437 841 118.059 876.062 479.446
1235 0 69.1566 13.3031 920 117.774 875.756 479.73
1236 0 72.2075 12.9349 934 118.474 876.438 478.333
1237 0 74.1527 12.2315 907 118.083 877.554 476.546
1238 0 77.1939 13.4726 1040 114.431 877.42 475.741
1239 0 76.1936 12.1008 922 120.299 877.912 475.664
1240 0 80.1151 12.3323 988 119.157 877.645 473.122
1241 0 82.1617 11.3557 933 124.785 877.454 472.079
1242 1 43.0806 9.79559 422 123.197 878.408 493.277
1243 0 44.0932 12.2468 540 118.698 878.187 491.07
1244 0 46.0454 12.922 595 116.353 878.341 492.054
1245 0 46.0275 11.7104 539 123.974 877.438 490.245
1246 0 47.0229 12.143 571 122.32 877.587 489.755
1247 0 48.0272 12.2223 587 122.862 877.533 489.632
1248 0 50.0265 10.7543 538 126.002 877.595 491.009
1249 0 53.0697 12.5118 664 121.929 877.598 487.883
1250 0 54.0499 11.2119 606 125.409 877.343 486.759
1251 0 56.0811 12.4106 696 121.901 877.17 485.01
1252 0 59.088 12.9468 765 120.307 876.732 485.374
1253 0 58.0929 12.0324 699 124.425 876.931 484.438
1254 0 61.1136 12.2886 751 123.148 876.284 483.097
1255 0 62.1098 12.2203 759 122.914 876.258 481.664
1256 0 63.1456 11.5606 730 125.558 877.214 481.536
1257 0 66.1321 12.6565 837 121.552 876.835 480.26
1258 0 67.1814 11.6252 781 124.789 876.763 477.987
1259 0 70.1396 12.5749 882 121.244 876.936 478.007
1260 0 74.1981 12.9383 960 119.447 877.223 475.876
1261 0 75.1286 11.5801 870 122.343 877.029 476.31
1262 0 79.0759 13.0887 1035 116.984 876.778 474.493
1263 0 83.19 12.766 1062 116.342 876.688 472.961
1264 0 86.0897 12.4173 1069 117.748 877.181 470.957
1265 0 86.1512 11.6307 1002 120.248 877.273 468.876
1266 0 91.1182 12.2368 1115 117.794 876.727 467.87
1267 0 94.1676 12.945 1219 115.741 876.956 466.149
1268 0 96.0794 11.5738 1112 119.494 877.114 464.159
1269 1 53.0323 11.4836 609 116.603 878.473 486.015
1270 0 52.1337 12.794 667 112.985 875.885 479.273
1271 0 53.186 11.9956 638 106.602 876.373 479.901
1272 0 55.1318 12.0076 662 103.583 876.888 481.074
1273 0 56.0951 10.2326 574 108.369 876.071 477.841
1274 0 57.1497 10.4637 598 107.092 876.482 480.388
1275 0 61.1557 12.5745 769 102.762 876.385 477.013
1276 0 61.1619 12.0663 738 104.94 876.304 474.76
1277 0 65.2073 11.9158 777 103.414 877.283 474.792
1278 0 68.0955 11.9244 812 102.227 877.584 472.819
1279 0 70.085 12.6275 885 101.581 877.286 473.445
1280 0 70.0868 11.657 817 103.923 877.316 473.698
1281 0 76.1235 12.8475 978 100.525 877.408 471.094
1282 0 78.1138 12.1489 949 102.934 877.398 468.378
1283 0 81.104 12.6381 1025 100.853 876.631 468.804
1284 0 84.1156 11.6387 979 103.32 877.318 466.611
1285 0 88.1775 12.5542 1107 101.007 877.62 464.663
1286 0 89.1058 11.2338 1001 104.649 877.33 464.56
1287 0 94.1453 12.3214 1160 102.262 877.756 462.396
1288 1 46.1148 10.1486 468 102.167 877.998 484.729
1289 0 49.049 11.5395 566 105.673 878.731 487.737
1290 0 50.1436 12.1052 607 103.094 877.698 487.26
1291 0 52.0787 11.617 605 105.281 878.035 484.374
1292 0 54.1728 12.3124 667 103.798 878.462 483.936
1293 0 57.1431 12.0225 687 103.234 878.162 483.333
1294 0 57.1112 12.1342 693 104.635 878.153 483.421
1295 0 60.081 12.2335 735 104.861 877.993 481.416
1296 0 63.1359 12.4335 785 103.729 877.822 480.203
1297 0 64.224 11.9893 770 105.208 877.688 481.281
1298 0 66.1217 12.1594 804 105.674 878.367 480.331
1299 0 69.1602 11.7119 810 108.264 877.864 477.633
1300 0 69.1354 12.4104 858 107.571 878.105 477.241
1301 0 72.1212 12.4651 899 108.078 877.338 477.012
1302 0 76.1825 12.8901 982 106.744 877.901 474.688
1303 0 77.1184 12.5262 966 108.94 878.023 472.644
1304 0 82.1318 13.4783 1107 106.355 877.392 472.51
1305 0 84.2707 11.7716 992 111.015 877.227 472.532
1306 0 87.2478 13.2725 1158 109.152 877.383 470.03
1307 0 90.1087 13.4837 1215 109.454 877.235 468.288
1308 1 44.1101 10.9952 485 114.231 877.802 491.377
1309 0 47.2192 12.9397 611 110.303 877.727 487.584
1310 0 49.2807 11.8505 584 116.382 877.94 488.392
1311 0 49.2374 11.3532 559 119.417 877.852 487.741
1312 0 50.2872 11.5337 580 119.105 877.812 487.31
1313 0 53.246 12.3577 658 116.331 877.694 486.111
1314 0 53.2572 12.5241 667 117.576 877.271 485.94
1315 0 54.3064 12.7793 694 116.357 877.504 485.67
1316 0 56.2514 13.2441 745 115.895 877.412 484.57
1317 0 57.3141 13.1905 756 115.54 877.213 483.996
1318 0 61.2048 13.0545 799 115.392 877.186 481.905
1319 0 62.322 12.5959 785 116.166 877.061 481.185
1320 0 64.1335 13.1444 843 114.558 876.877 481.23
1321 0 64.2018 12.118 778 118.294 876.937 480.073
1322 0 68.2806 12.6244 862 116.573 877.486 480.231
1323 0 69.249 11.7836 816 118.871 876.87 476.681
1324 0 72.2841 12.2157 883 116.276 877.436 477.521
1325 0 74.3293 12.2294 909 117.276 877.726 472.592
1326 0 76.2425 12.1323 925 118.529 877.705 472.712
1327 0 81.2788 14.7025 1195 110.436 876.731 470.375
1328 0 81.2244 12.5701 1021 114.57 876.772 469.792
1329 0 83.1982 11.9474 994 115.531 876.39 469.298
1330 0 90.3268 14.3147 1293 111.609 876.697 465.2
1331 0 92.2419 12.2612 1131 114.574 876.604 465.367
1332 1 49.0244 10.0154 491 110.124 877.684 489.46
1333 0 50.1365 10.8105 542 109.768 877.721 485.749
1334 0 53.2331 12.4922 665 106.25 877.352 483.447
1335 0 55.2779 11.8854 657 112.504 876.324 484.896
1336 0 54.0167 11.3113 611 113.18 875.758 484.394
1337 0 58.0627 12.5726 730 108.893 876.006 484.759
1338 0 61.1724 12.1133 741 110.324 875.34 481.694
1339 0 64.182 12.8852 827 108.283 875.773 480.733
1340 0 66.1349 12.8979 853 108.653 875.903 479.962
1341 0 69.1664 14.1109 976 104.732 876.414 478.01
1342 0 71.1813 13.0793 931 105.289 876.27 476.39
1343 0 73.0432 12.0203 878 108.434 876.009 475.738
1344 0 76.0724 11.6205 884 109.596 875.719 475.842
1345 0 77.0493 12.6932 978 107.978 876.016 474.071
1346 0 82.1112 13.1285 1078 105.221 875.767 472.683
1347 0 83.1514 12.4592 1036 108.063 875.732 470.29
1348 0 87.1276 12.7055 1107 108.337 875.873 469.287
1349 1 48.0698 11.5665 556 107.257 875.36 491.239
1350 0 47.0795 12.4258 585 108.157 874.757 488.053
1351 0 51.0233 12.8961 658 104.397 874.862 489.008
1352 0 51.0658 12.5133 639 105.981 878.282 486.698
1353 0 53.1464 12.9642 689 104.089 878.496 486.491
1354 0 53.1038 11.7506 624 107.119 878.413 486.615
1355 0 56.0934 13.0497 732 104.608 878.358 484.459
1356 0 58.0809 12.2588 712 105.673 877.59 484.639
1357 0 60.1306 13.5372 814 102.602 877.452 483.088
1358 0 60.1079 11.313 680 108.528 877.924 483.182
1359 0 60.1731 11.8325 712 108.678 877.756 481.31
1360 0 64.1226 13.4118 860 104.541 877.345 479.99
1361 0 68.1249 12.8294 874 104.997 877.057 478.606
1362 0 68.1906 12.4797 851 107.002 877.011 479.019
1363 0 71.1461 13.6199 969 104.03 877.878 476.128
1364 0 74.2721 13.1947 980 102.21 878.222 475.574
1365 0 73.1487 11.7432 859 106.666 877.795 474.313
1366 0 77.1059 12.4634 961 104.29 876.183 474.527
1367 0 82.1503 13.0371 1071 103.346 876.472 472.173
1368 1 41.0792 9.83467 404 110 875.453 491.28
1369 0 43.0462 10.7791 464 108.071 876.084 488.808
1370 0 43.04 12.1747 524 102.26 877.792 490.071
1371 0 45.039 11.0793 499 103.345 878.431 489.523
1372 0 48.0682 12.3783 595 102.059 878.267 488.867
1373 0 49.1541 11.881 584 103.488 878.476 489.43
1374 0 50.0767 12.0615 604 103.361 878.301 487.725
1375 0 51.1426 11.2431 575 106.101 878.278 486.937
1376 0 52.0937 11.6905 609 105.65 878.506 487.154
1377 0 55.1014 10.9979 606 106.657 877.944 485.85
1378 0 57.1089 11.837 676 104.241 878.362 485.29
1379 0 57.1151 11.8533 677 125.765 879.326 485.251
1380 0 61.1102 10.9802 671 114.496 876.592 484.551
1381 0 62.1134 10.3842 645 116.357 876.281 482.784
1382 0 63.1398 10.6272 671 115.657 876.443 482.618
1383 0 65.1076 9.92204 646 118.714 876.204 481.194
1384 0 66.1434 9.73643 644 118.565 876.637 480.152
1385 0 70.3049 10.17 715 117.706 877.927 476.548
1386 0 75.1729 11.7862 886 106.57 878.079 476.753
1387 0 76.2393 11.8836 906 108.328 877.676 475.461
1388 0 78.1449 12.3745 967 105.315 878.047 474.745
1389 1 40.069 11.5301 462 108.258 878.589 494.017
1390 0 41.0204 10.8726 446 109.836 878.98 493.493
1391 0 43.0791 11.6298 501 105.609 878.236 493.395
1392 0 43.1283 11.431 493 110.454 877.915 489.633
1393 0 45.1439 11.7624 531 111.701 876.186 490.518
1394 0 47.0098 10.8063 508 114.531 874.75 489.715
1395 0 47.0443 11.0534 520 113.858 875.117 489.229
1396 0 48.0725 12.71 611 111.386 875.277 488.185
1397 0 50.0435 12.1694 609 111.813 874.777 488.611
1398 0 50.0173 11.0362 552 116.105 874.721 486.866
1399 0 50.0375 10.9318 547 117.212 875.835 488.026
1400 0 52.0257 10.1296 527 118.139 874.979 487.277
1401 0 54.038 10.7147 579 116.782 874.592 486.608
1402 0 56.0248 12.1375 680 114.931 874.896 484.078
1403 0 57.0682 11.828 675 115.479 875.016 482.745
1404 0 58.1253 12.8515 747 113.493 875.656 483.004
1405 0 60.0587 13.1372 789 112.568 875.202 481.677
1406 0 61.0377 11.6649 712 115.507 874.747 481.077
1407 0 63.0821 11.4454 722 115.335 874.751 481.186
1408 0 66.0268 12.2375 808 113.223 874.614 476.88
1409 0 69.0739 11.5673 799 113.349 875.272 478.285
1410 0 71.0276 11.5589 821 113.954 875.225 476.486
1411 0 73.2955 12.6747 929 113.095 875.215 473.733
1412 0 77.0944 12.2966 948 112.88 876.094 474.299
1413 0 77.2754 13.0184 1006 111.823 877.11 473.428
1414 0 82.2762 12.373 1018 113.989 876.731 470.811
1415 1 39.0739 11.4655 448 110.647 876.73 490.44
1416 0 41.0526 10.8154 444 111.135 876.849 491.901
1417 0 41.0405 10.5505 433 114.4 877.564 488.896
1418 0 44.0595 11.9838 528 111.235 876.322 488.96
1419 0 46.0182 11.452 527 115.139 878.391 486.336
1420 0 46.0298 11.7533 541 114.518 877.858 488.492
1421 0 48.054 12.1322 583 115.456 877.741 486.446
1422 0 48.1005 12.1828 586 116.427 877.771 486.527
1423 0 50.0601 12.0655 604 117.772 877.061 484.98
1424 0 49.085 10.7569 528 122.426 877.642 484.163
1425 0 53.0755 12.5482 666 117.851 878.484 483.05
1426 0 52.0232 12.3791 644 121.295 878.458 482.146
1427 0 56.0732 13.0009 729 118.963 879.213 482.182
1428 0 59.0908 12.98 767 117.89 877.799 482.115
1429 0 61.0927 14.1261 863 116.99 877.855 479.321
1430 0 63.1203 14.4645 913 116.061 877.934 477.797
1431 0 67.1088 13.9624 937 116.638 878.143 477.838
1432 0 67.2608 13.4551 905 120.066 878.143 475.557
1433 0 67.2608 13.4848 907 152.795 879.142 475.552
1434 0 71.3457 14.2265 1015 120.94 877.691 472.364
1435 0 74.2248 14.1597 1051 120.895 877.324 471.948
1436 0 76.2187 13.212 1007 123.981 876.944 470.874
1437 1 41.0504 12.2289 502 120.022 877.765 489.498
1438 0 42.0118 12.4727 524 119.931 877.697 489.172
1439 0 43.025 14.3405 617 112.109 875.444 483.648
1440 0 45.0768 13.8209 623 110.88 875.449 488.157
1441 0 45.1403 12.7602 576 115.453 875.34 487.578
1442 0 48.1353 13.9814 673 112.079 875.492 486.96
1443 0 48.1436 13.6051 655 114.501 875.701 486.176
1444 0 50.1076 13.2315 663 115.756 875.704 484.724
1445 0 50.0635 13.6027 681 116.115 875.932 486.485
1446 0 52.0968 13.974 728 115.228 876.11 485.904
1447 0 53.0573 13.6079 722 117.899 875.848 483.488
1448 0 55.0342 13.8096 760 117.707 875.647 483.801
1449 0 57.0474 13.8657 791 116.927 875.906 484.149
1450 0 58.0368 14.4391 838 117.037 876.278 482.119
1451 0 58.0454 13.5584 787 121.091 875.921 482.903
1452 0 62.0514 14.3913 893 118.965 876.357 480.944
1453 0 64.0415 13.8036 884 120.895 875.911 480.856
1454 0 64.0241 13.8073 884 123.34 875.714 479.596
1455 0 67.1314 14.4791 972 121.687 876.238 479.965
1456 0 69.0842 13.346 922 124.772 875.913 480.295
1457 0 71.0787 14.4488 1027 121.987 876.02 478.832
1458 0 74.027 13.9544 1033 123.413 875.663 477.433
1459 0 75.1095 14.0595 1056 124.852 875.56 475.271
1460 0 80.0558 14.6273 1171 123.634 876.649 475.256
1461 0 81.0719 14.4686 1173 125.391 876.091 473.396
1462 0 82.0656 13.2455 1087 130.442 875.504 472.453
1463 0 87.2962 14.2733 1246 125.479 875.026 471.587
1464 0 89.0888 13.0656 1164 129.669 875.672 468.509
1465 1 46.0874 11.8037 544 134.647 876.601 488.55
1466 0 47.0476 12.3492 581 131.664 876.25 488.427
1467 0 50.1028 13.153 659 128.571 877.024 487.357
1468 0 50.0603 12.7846 640 132.733 876.781 485.917
1469 0 53.3215 13.2967 709 129.355 877.299 486.968
1470 0 55.1246 12.6441 697 129.918 876.578 487.265
1471 0 56.1253 13.3273 748 129.255 876.14 484.892
1472 0 57.1591 12.8064 732 132.056 875.538 483.74
1473 0 58.1651 12.8771 749 131.362 876.025 482.498
1474 0 61.196 12.6642 775 130.997 875.912 481.705
1475 0 62.1163 12.9274 803 129.943 875.844 480.738
1476 0 63.0505 12.5296 790 130.829 876.096 481.42
1477 0 68.1011 13.3331 908 127.75 878.056 479.026
1478 0 69.0688 12.35 853 130.487 877.734 477.959
1479 0 70.0419 11.5788 811 133.046 877.757 477.56
1480 0 75.0504 12.5649 943 128.599 878.036 478.05
1481 0 75.1517 12.0423 905 132.76 878.27 474.446
1482 0 80.0998 13.1836 1056 128.285 877.623 473.356
1483 0 81.1314 12.942 1050 128.259 877.176 474.49
1484 0 85.1638 12.7754 1088 128.908 876.757 471.618
1485 0 86.2308 11.9679 1032 131.442 877.108 470.637
1486 0 89.2178 12.2285 1091 130.342 877.209 469.554
1487 1 44.1726 11.0249 487 123.93 877.214 491.692
1488 0 45.0685 12.603 568 122.125 877.407 488.514
1489 0 47.0831 11.3629 535 121.357 877.185 489.667
1490 0 50.1786 12.037 604 118.176 877.402 489.159
1491 0 51.0363 12.5793 642 115.872 877.078 488.259
1492 0 51.1254 11.4816 587 121.092 876.998 486.256
1493 0 54.111 13.2136 715 116.853 877.053 486.123
1494 0 56.0841 13.7472 771 114.83 877.55 485.968
1495 0 59.1217 13.8697 820 114.64 876.68 485.094
1496 0 60.0542 13.9541 838 115.28 876.852 484.389
1497 0 62.1439 13.5331 841 117.252 877.065 483.52
1498 0 65.0931 13.5805 884 116.973 876.845 482.042
1499 0 67.1181 13.3645 897 118.174 876.736 481.493
1500 0 67.1366 12.9438 869 121.264 876.809 479.731
1501 0 71.3212 12.1703 868 125.719 876.7 475.359
1502 0 73.2066 13.1409 962 122.17 876.502 476.11
1503 0 74.254 11.6088 862 122.485 876.7 473.705
1504 0 76.1019 12.1416 924 118.756 876.225 474.117
1505 0 79.1006 13.034 1031 117.537 876.441 474.146
1506 0 80.0891 13.2228 1059 122.064 877.233 473.34
1507 0 81.0839 12.9619 1051 123.673 877.276 472.177
1508 0 82.152 13.3655 1098 122.575 876.957 471.758
1509 0 82.215 11.7132 963 129.817 876.826 470.864
1510 0 83.0896 12.3361 1025 128.194 876.921 469.55
1511 1 45.0097 10.1978 459 120.893 877.148 492.479
1512 0 47.0194 12.2503 576 110.024 876.84 490.116
1513 0 48.0581 12.1103 582 107.466 876.766 489.333
1514 0 49.0756 12.2668 602 104.555 876.741 489.256
1515 0 48.1101 11.4737 552 106.591 876.73 489.607
1516 0 51.0793 11.8443 605 103.397 877.05 487.853
1517 0 53.1695 11.8489 630 103.884 876.27 486.114
1518 0 54.1273 10.8633 588 105.427 877.109 485.481
1519 0 56.1113 12.2614 688 101.308 877.112 486.971
1520 0 59.0613 12.5294 740 100.985 876.884 483.946
1521 0 60.2522 10.9042 657 105.072 877.088 482.761
1522 0 60.1526 11.4209 687 105.444 876.945 482.796
1523 0 63.1656 11.8261 747 104.552 877.422 483.079
1524 0 63.1595 10.4022 657 109.076 876.107 482.108
1525 0 67.0404 12.1718 816 106.977 875.365 477.832
1526 0 70.1164 12.465 874 106.121 876.277 478.546
1527 0 71.0775 11.1428 792 111.477 875.242 477.619
1528 0 75.0375 12.2472 919 109.536 875.205 476.53
1529 0 75.2806 13.0711 984 109.598 876.192 474.863
1530 0 77.1377 12.186 940 112.876 876.884 475.96
1531 0 79.1615 10.8007 855 116.578 876.655 476.075
1532 1 43.1533 12.0501 520 112.521 876.94 492.304
1533 0 44.0531 11.3272 499 113.08 877.062 493.289
1534 0 44.1043 11.8356 522 114.109 876.657 492.19
1535 0 47.1293 11.182 527 115.061 876.941 490.269
1536 0 47.1427 11.5394 544 114.879 875.818 490.294
1537 0 48.1612 11.0462 532 115.575 876.408 488.739
1538 0 51.0879 12.9776 663 109.416 876.557 487.888
1539 0 53.1153 12.3693 657 110.285 876.44 487.347
1540 0 54.1192 11.9366 646 111.488 876.139 486.875
1541 0 57.1169 12.3606 706 109.426 875.666 485.254
1542 0 59.1425 12.2078 722 109.841 876.429 485.169
1543 0 60.1741 11.2341 676 112.049 876.346 484.984
1544 0 63.172 13.1387 830 107.258 875.034 482.929
1545 0 65.1227 12.653 824 109.025 875.001 481.981
1546 0 65.1968 12.3166 803 111.269 875.332 479.801
1547 0 68.1116 12.0244 819 111.783 875.429 479.123
1548 0 70.1318 11.9062 835 112.418 874.751 476.968
1549 0 73.1618 12.6842 928 110.428 874.625 478.341
1550 0 75.216 13.202 993 109.701 874.72 474.502
1551 0 76.2051 11.2722 859 116.05 874.376 474.4
1552 0 79.0955 11.6062 918 114.674 874.613 472.568
1553 0 85.1009 13.9834 1190 107.977 874.834 470.891
1554 0 87.0961 13.1005 1141 111.535 874.588 467.947
1555 0 91.1293 11.9281 1087 114.868 874.054 466.988
1556 1 47.0301 11.2481 529 117.159 875.709 490.276
1557 0 48.0625 10.8193 520 119.612 875.163 488.617
1558 0 49.0629 12.3311 605 116.005 874.717 484.836
1559 0 51.0556 13.1034 669 113.148 874.416 489.021
1560 0 53.1566 12.4349 661 108.778 874.64 486.887
1561 0 53.1178 11.9357 634 111.467 874.737 486.634
1562 0 57.0841 11.8772 678 110.482 874.513 486.283
1563 0 56.1367 11.8283 664 112.596 874.626 484.824
1564 0 61.1406 12.0705 738 110.654 874.679 482.4
1565 0 62.1931 11.3678 707 112.528 874.819 482.066
1566 0 65.1099 12.0565 785 111.082 874.64 480.031
1567 0 67.138 12.3179 827 110.366 874.502 479.069
1568 0 69.1569 12.2475 847 110.893 873.969 477.78
1569 0 72.0513 13.1851 950 108.885 874.224 477.98
1570 0 75.139 11.1926 841 115.258 873.943 477.809
1571 0 77.3093 12.948 1001 119.477 873.934 476.691
1572 0 80.2525 13.2955 1067 119.008 873.627 475.858
1573 0 82.2131 11.677 960 123.016 873.33 473.157
1574 1 40.0534 10.1864 408 119.162 872.993 494.154
1575 0 43.2281 11.2427 486 115.023 875.107 489.897
1576 0 43.1 10.8121 466 107.882 875.47 490.521
1577 0 44.0487 10.5111 463 110.832 875.203 491.302
1578 0 45.0334 11.769 530 107.889 875.964 490.468
1579 0 47.0593 11.1986 527 107.677 875.159 489.562
1580 0 49.0619 11.4957 564 107.261 874.922 489.44
1581 0 49.1199 10.9935 540 108.685 874.793 489.078
1582 0 50.1048 10.957 549 108.692 875.758 489.106
1583 0 52.1066 11.0735 577 108.154 875.26 486.906
1584 0 53.1088 13.1428 698 104.4 875.713 486.663
1585 0 53.0609 9.91313 526 106.011 874.732 481.656
1586 0 56.0982 12.0147 674 101.254 874.312 481.174
1587 0 58.1862 10.0711 586 105.49 874.136 480.712
1588 0 58.1221 11.3038 657 104.798 874.201 479.492
1589 0 61.1105 11.1765 683 104.921 873.933 480.035
1590 0 64.0504 10.0546 644 107.092 873.742 478.741
1591 0 67.052 11.5731 776 105.068 873.687 475.655
1592 0 68.0781 10.8846 741 110.225 873.779 475.955
1593 0 71.1046 10.7869 767 109.179 873.572 475.455
1594 0 72.0811 10.1968 735 111.761 873.826 471.65
1595 1 39.0481 9.34745 365 98.8301 874.756 491.214
1596 0 40.1538 8.7912 353 99.3711 874.677 489.368
1597 0 40.0873 9.35458 375 100.899 875.333 488.104
1598 0 41.0844 9.93079 408 99.5882 875.282 489.176
1599 0 42.1012 9.35841 394 101.254 874.985 487.015
1600 0 44.1076 9.97561 440 99.225 874.7 484.302
1601 0 45.1114 10.3743 468 99.4402 874.622 486.06
1602 0 48.1082 9.58256 461 100.39 874.705 483.698
1603 0 50.103 11.2369 563 97.4902 874.245 484.471
1604 0 52.0529 12.8331 668 100.443 874.099 486.762
1605 0 51.0602 10.752 549 106.31 874.044 486.277
1606 0 54.0364 10.1968 551 106.036 873.947 486.728
1607 0 55.0698 11.1858 616 105.644 873.911 484.644
1608 0 58.0334 11.4761 666 103.18 874.038 486.167
1609 0 59.076 11.4429 676 104.518 873.967 482.79
1610 0 61.0347 11.305 690 104.29 873.914 483.37
1611 0 65.0636 12.3725 805 102.27 874.35 480.995
1612 0 66.0422 11.7198 774 104.397 873.938 477.59
1613 0 70.0566 12.4899 875 101.706 873.552 479.067
1614 0 71.1018 11.2796 802 104.996 874.252 476.362
1615 0 73.1057 12.5845 920 102.199 873.697 476.477
1616 0 76.094 11.5909 882 103.814 874.29 475.474
1617 0 80.1308 12.8665 1031 101.96 874.315 474.393
1618 0 81.1424 11.0177 894 106.33 874.101 474.174
1619 1 43.0375 10.5257 453 109.951 873.38 492.066
1620 0 44.2412 12.364 547 104.335 875.424 491.144
1621 0 45.0838 12.754 575 102.821 874.821 487.165
1622 0 49.1221 12.9066 634 101.779 874.746 489.235
1623 0 49.0239 12.2593 601 104.077 875.777 489.646
1624 0 51.0596 13.8074 705 100.183 875.252 488.687
1625 0 50.0851 11.8798 595 105.793 875.692 487.397
1626 0 53.0321 14.2178 754 99.2772 875.568 485.285
1627 0 55.1928 11.4145 630 104.654 875.567 486.3
1628 0 58.2164 13.2952 774 93.2817 875.567 484.742
1629 0 58.1952 13.8156 804 99.8271 875.235 482.587
1630 0 59.1511 12.3075 728 104.446 874.72 481.37
1631 0 61.0767 12.0668 737 105.898 874.354 481.269
1632 0 65.1404 12.5575 818 103.996 874.174 479.282
1633 0 67.0846 13.1327 881 102.783 874.027 478.765
1634 0 68.1574 12.3684 843 105.153 874.518 478.024
1635 0 71.1904 12.5438 893 105.626 874.75 476.445
1636 0 72.0699 11.4195 823 108.869 874.628 475.312
1637 0 74.1488 12.7851 948 106.285 874.618 473.498
1638 0 80.263 12.5836 1010 105.714 874.087 471.211
1639 0 84.0902 14.425 1213 101.871 874.053 471.566
1640 0 85.0729 12.3776 1053 108.85 874.612 469.205
1641 1 44.0528 10.3739 457 113.591 875.341 490.328
1642 0 45.3391 10.5207 477 110.197 873.65 487.063
1643 0 47.0866 11.9992 565 103.947 875.074 482.752
1644 0 49.0853 11.8976 584 102.839 873.755 488.779
1645 0 48.1606 10.2574 494 106.889 873.49 488.202
1646 0 50.1142 10.5759 530 106.109 873.387 488.251
1647 0 50.0422 10.4912 525 106.712 872.952 486.309
1648 0 55.0376 11.6829 643 103.818 873.12 484.925
1649 0 55.1035 11.2697 621 104.351 873.063 485.037
1650 0 57.2303 12.8079 733 101.359 873.132 482.899
1651 0 58.0421 11.44 664 104.943 873.072 481.756
1652 0 59.1735 11.0522 654 105.42 873.399 481.419
1653 0 62.1021 10.7404 667 106.123 873.705 480.438
1654 0 64.1556 10.4434 670 107.04 873.9 481.154
1655 0 66.0279 10.9348 722 106.949 873.575 480.036
1656 0 71.0842 12.3797 880 102.407 874.173 479.356
1657 0 72.0857 12.4435 897 104.662 873.682 475.195
1658 0 75.2192 12.7228 957 103.938 872.72 474.608
1659 0 77.1522 11.4838 886 107.098 873.062 474.155
1660 0 78.1588 12.4234 971 105.717 873.17 470.091
1661 0 84.2526 11.9284 1005 106.121 872.661 470.199
1662 1 42.1453 11.1044 468 104.145 872.88 488.254
1663 0 45.1772 12.2628 554 100.845 873.274 487.67
1664 0 46.2092 11.1233 514 102.93 873.052 488.916
1665 0 48.1512 12.3777 596 101.871 872.601 488.659
1666 0 48.0991 12.4535 599 103.578 872.72 486.551
1667 0 51.1579 12.5689 643 101.963 872.577 486.513
1668 0 52.2067 11.4736 599 104.484 872.564 484.933
1669 0 57.0891 13.8731 792 97.4002 873.287 483.008
1670 0 53.1872 11.3749 605 107.663 872.995 484.473
1671 0 57.0405 11.185 638 106.638 873.006 481.265
1672 0 61.1742 12.9957 795 102.343 872.522 481.664
1673 0 62.0271 12.1237 752 105.945 872.775 481.892
1674 0 63.0716 12.5413 791 106.222 872.743 478.98
1675 0 66.1083 12.6913 839 106.787 872.838 479.675
1676 0 69.1622 13.1864 912 105.089 872.935 478.901
1677 0 72.121 13.6715 986 104.211 872.837 476.627
1678 0 75.1176 12.9264 971 106.824 873.219 476.258
1679 0 76.0822 12.6705 964 107.643 872.682 475.766
1680 0 80.108 12.9575 1038 107.609 872.675 474.122
1681 0 83.1353 14.3381 1192 104.799 872.281 471.31
1682 0 84.1242 12.2557 1031 111.221 872.828 470.872
1683 0 88.1463 12.8536 1133 110.362 873.381 470.526
1684 1 45.009 10.709 482 113.83 872.315 491.124
1685 0 45.0211 10.3951 468 116.128 872.91 489.786
1686 0 46.0964 11.2373 518 105.886 872.913 486.983
1687 0 48.0447 11.7391 564 107.048 872.917 484.308
1688 0 49.064 11.0876 544 109.18 873.447 484.824
1689 0 48.0803 10.6073 510 113.41 872.951 481.769
1690 0 50.0889 11.4197 572 111.692 873.647 482.692
1691 0 53.0771 11.1347 591 111.225 873.807 483.966
1692 0 53.0825 12.019 638 112.092 873.704 482.335
1693 0 55.0641 11.4957 633 113.03 873.809 481.97
1694 0 57.0796 12.2986 702 112.486 872.85 479.165
1695 0 60.0749 11.4524 688 114.299 872.881 479.942
1696 0 61.0475 11.4992 702 115.174 873.305 477.699
1697 0 63.1212 12.2463 773 114.662 873.053 475.93
1698 0 66.121 11.9175 788 114.935 873.938 476.65
1699 0 69.1222 12.1813 842 114.28 874.182 474.841
1700 0 69.0739 11.9148 823 117.344 873.644 471.987
1701 0 72.0686 12.6269 910 115.832 873.807 470.276
1702 0 75.093 11.5057 864 118.668 873.426 468.683
1703 0 79.1681 12.9598 1026 114.921 873.79 467.57
1704 0 82.1557 11.6851 960 115.943 873.785 464.638
1705 0 84.1343 13.0743 1100 113.19 873.268 462.025
1706 0 86.2977 12.4685 1076 114.021 873.193 463.454
1707 0 87.1385 11.2579 981 118.061 873.003 463.76
1708 0 92.0964 12.0743 1112 116.746 872.798 461.944
1709 1 48.0533 10.2386 492 106.62 873.888 487.222
1710 0 45.1543 9.96582 450 109.369 874.067 486.08
1711 0 49.0513 11.8447 581 114.324 874.229 488.451
1712 0 49.1531 12.2881 604 114.204 874.349 487.257
1713 0 50.2399 11.9228 599 116.452 874.598 487.015
1714 0 53.2598 12.5423 668 111.6 874.524 486.775
1715 0 53.1143 12.0306 639 115.773 874.41 484.326
1716 0 55.13 12.2438 675 113.121 873.729 483.12
1717 0 58.1789 12.4272 723 111.523 874.209 483.858
1718 0 58.143 11.5749 673 114.091 874.056 481.62
1719 0 62.0618 11.5369 716 111.696 873.994 481.419
1720 0 63.1205 11.7078 739 112.793 873.848 479.912
1721 0 64.3019 12.0992 778 112.089 873.802 481.366
1722 0 67.1081 11.5187 773 115.031 874.094 478.706
1723 0 71.3256 12.5621 896 110.528 874.307 475.674
1724 0 70.2796 12.3507 868 112.558 874.427 474.876
1725 0 71.2627 12.054 859 114.73 874.519 473.728
1726 0 74.2192 12.6517 939 113.999 874.672 471.663
1727 0 77.3097 12.8833 996 114.534 874.465 470.521
1728 0 79.3647 12.8017 1016 115.261 874.572 470.452
1729 0 80.132 12.2423 981 116.345 874.974 470.992
1730 0 84.0728 13.2266 1112 114.966 874.484 468.441
1731 0 86.1199 11.8672 1022 118.849 874.558 465.075
1732 0 90.1151 12.6061 1136 116.961 874.724 467.116
1733 0 92.1613 12.6083 1162 117.855 875.495 464.647
1734 0 95.1135 12.6481 1203 119.013 875.66 463.272
1735 0 96.1204 13.2022 1269 126.455 875.034 462.017
1736 0 99.1787 11.8271 1173 132.492 874.794 459.489
1737 0 102.208 12.7094 1299 129.988 874.753 458.697
1738 0 106.11 12.7415 1352 130.255 874.234 455.887
1739 0 108.179 13.8567 1499 127.114 873.696 456.734
1740 0 114.088 13.5685 1548 127.469 874.13 456.501
1741 0 116.147 12.3808 1438 132.01 874.111 450.675
1742 0 121.148 14.9982 1817 125.514 873.96 450.663
1743 0 124.106 12.6746 1573 130.779 874.046 446.139
1744 0 128.16 13.2802 1702 129.049 874.299 443.012
1745 0 133.175 12.63 1682 128.959 873.732 443.686
1746 0 137.279 12.4491 1709 131.01 873.609 440.868
1747 1 75.1442 12.15 913 124.677 873.58 470.396
1748 0 79.2409 12.4431 986 122.553 873.435 468.489
1749 0 82.1943 12.215 1004 123.824 873.404 468.236
1750 0 86.1231 13.0627 1125 118.992 875.043 468.247
1751 0 87.0688 12.6681 1103 120.448 874.684 467.327
1752 0 90.2062 13.8682 1251 118.802 874.341 465.826
1753 0 92.2198 12.6112 1163 122.108 873.981 464.175
1754 0 97.1926 14.0957 1370 118.25 873.574 462.555
1755 0 100.196 13.5434 1357 119.407 873.318 461.589
1756 0 101.248 11.7632 1191 123.473 873.58 458.631
1757 0 106.174 11.7449 1247 122.922 872.816 457.5
1758 1 59.1845 10.5433 624 120.854 873.032 479.25
1759 0 62.198 12.9747 807 116.688 872.823 478.078
1760 0 62.0606 11.2471 698 117.404 874.709 474.049
1761 0 66.0352 11.9633 790 116.387 874.472 472.562
1762 0 68.0708 11.2383 765 118.192 874.267 472.241
1763 0 69.1111 12.0531 833 117.637 873.728 471.289
1764 0 71.0931 12.3781 880 117.888 873.947 469.366
1765 0 73.1101 11.3254 828 120.374 874.127 469.686
1766 0 73.0898 10.9454 800 124 874.455 465.745
1767 0 76.0388 10.8892 828 124.35 873.928 464.75
1768 0 83.0354 11.8383 983 121.113 874.186 463.905
1769 0 85.1673 11.8942 1013 121.802 873.797 463.165
1770 0 89.1329 11.7577 1048 123.715 873.736 459.785
1771 0 90.0685 11.2914 1017 125.873 874.459 457.278
1772 0 91.1653 11.1556 1017 127.179 873.946 453.035
1773 0 97.0917 11.7724 1143 125.971 873.259 453.649
1774 0 99.1316 11.4595 1136 127.202 873.565 454.508
1775 0 105.163 11.7057 1231 125.052 873.435 452.768
1776 1 55.1578 10.334 570 122.779 873.119 484.714
1777 0 52.2327 9.72571 508 123.992 874.065 476.36
1778 0 54.2072 10.4783 568 121.806 874.685 476.725
1779 0 61.1815 11.5394 706 121.61 873.195 479.779
1780 0 59.1604 11.4266 676 138.399 873.222 479.12
1781 0 63.1798 11.9817 757 113.203 872.707 478.716
1782 0 63.083 10.6685 673 116.572 873.676 478.438
1783 0 67.1675 10.779 724 114.793 873.274 477.298
1784 0 71.2639 11.3662 810 112.14 873.454 476.507
1785 0 70.3069 11.1227 782 114.841 873.966 475.261
1786 0 74.1965 12.2647 910 111.627 872.997 473.882
1787 0 74.199 12.2778 911 134.589 872.001 473.704
1788 0 79.1783 11.6825 925 113.419 872.863 471.322
1789 0 82.14 12.0769 992 112.457 872.832 471.291
1790 0 84.1893 12.4244 1046 111.755 872.835 472.138
1791 0 85.1618 10.9674 934 117.671 873.262 466.803
1792 0 88.3026 11.2568 994 116.745 873.093 468.554
1793 0 90.205 10.8087 975 119.158 873.472 464.767
1794 0 95.276 12.0387 1147 115.236 873.258 464.59
1795 0 99.1087 12.0575 1195 115.187 872.828 463.227
1796 1 52.0362 10.0699 524 116.756 871.771 485.223
1797 0 54.1732 12.0539 653 111.859 874.891 480.119
1798 0 55.2021 11.8836 656 108.968 874.872 481.646
1799 0 58.1201 12.0096 698 108.361 874.92 483.341
1800 0 57.1315 12.0074 686 110.077 874.267 482.041
1801 0 59.115 11.5876 685 111.845 874.539 480.696
1802 0 62.1298 13.4396 835 107.764 874.613 480.642
1803 0 64.1892 12.3697 794 110.083 875.188 479.985
1804 0 65.1592 12.7227 829 110.828 875.399 479.77
1805 0 65.2142 12.0219 784 115.062 875.212 476.935
1806 0 69.1743 12.7649 883 114.211 875.488 477.239
1807 0 72.3019 12.9872 939 118.441 875.291 476.527
1808 0 73.2577 12.5721 921 120.978 874.667 474.953
1809 0 76.1906 12.5606 957 120.42 874.931 473.508
1810 0 78.1548 12.5264 979 120.568 875.276 473.266
1811 0 82.2955 12.3336 1015 121.128 874.968 471.493
1812 0 82.2206 11.98 985 123.441 874.97 470.194
1813 0 85.1984 12.9815 1106 122.608 874.913 467.005
1814 0 87.2293 12.2436 1068 123.888 874.48 468.917
1815 0 91.2786 12.8289 1171 122.686 874.594 465.659
1816 0 92.2986 12.6762 1170 123.041 874.604 465.938
1817 0 95.1916 12.2805 1169 124.686 874.541 465.889
1818 1 49.0777 10.4324 512 119.992 872.723 487.123
1819 0 51.068 10.5937 541 119.353 872.845 486.817
1820 0 51.0391 11.4422 584 112.158 872.182 483.096
1821 0 52.0583 9.71986 506 105.626 873.569 481.19
1822 0 56.0412 11.4023 639 101.437 873.385 482.022
1823 0 56.1146 9.35585 525 106.77 873.95 479.958
1824 0 57.1691 9.69055 554 105.792 873.928 478.175
1825 0 61.1212 11.9762 732 99.6407 874.406 478.083
1826 0 62.1381 10.3479 643 103.877 874.086 473.908
1827 0 61.081 11.0018 672 101.807 874.539 475.257
1828 0 66.1798 11.6954 774 99.3308 874.596 475.55
1829 0 68.0655 11.7093 797 100.689 873.602 474.443
1830 0 67.1165 11.6067 779 101.945 873.851 473.484
1831 0 70.0804 10.6306 745 103.221 874.101 470.518
1832 0 73.0484 11.9921 876 100.116 874.128 469.508
1833 0 77.0451 10.2537 790 103.744 873.63 467.657
1834 0 78.0374 10.6231 829 103.959 873.177 464.996
1835 0 80.1006 11.6728 935 102.975 873.563 464.545
1836 0 83.0722 10.7015 889 104.853 872.892 464.535
1837 0 83.059 9.5354 792 108.521 873.422 460.62
1838 0 87.1638 10.6351 927 105.397 873.679 462.437
1839 0 91.1052 10.5922 965 105.973 873.302 457.103
1840 0 95.0439 10.8897 1035 105.09 873.43 457.911
1841 0 99.1215 11.6826 1158 103.41 872.764 456.109
1842 0 104.201 11.5066 1199 103.836 873.373 455.927
1843 1 53.021 8.39289 445 107.124 873.2 481.33
1844 0 58.0807 11.1225 646 102.587 872.433 478.506
1845 0 60.0778 11.1356 669 102.652 873.29 479.441
1846 0 60.0443 10.8087 649 103.744 873.854 475.955
1847 0 59.0514 10.4655 618 109.328 874.885 475.023
1848 0 65.3494 11.4309 747 104.699 873.625 473.151
1849 0 67.0916 11.0893 744 105.964 873.477 472.684
1850 0 69.2223 10.6324 736 107.943 872.95 470.351
1851 0 70.0327 10.5379 738 109.883 872.459 467.806
1852 0 72.1852 9.82196 709 112.604 872.467 469.087
1853 0 77.121 11.4625 884 108.171 872.474 468.581
1854 0 80.2254 11.2059 899 109.317 873.056 464.971
1855 0 85.2066 12.5577 1070 105.208 873.587 463.769
1856 0 87.222 11.1669 974 110.041 873.488 462.504
1857 0 88.2326 10.903 962 111.818 873.449 459.464
1858 1 44.094 9.57047 422 105.156 873.879 483.72
1859 0 47.101 10.1059 476 104.071 873.931 484.317
1860 0 48.1076 11.5366 555 113.728 872.91 489.431
1861 0 50.1036 11.117 557 115.77 873.077 488.722
1862 0 52.1457 12.1774 635 113.25 873.266 488.376
1863 0 53.0815 12.6974 674 113.657 873.056 485.233
1864 0 56.0793 12.411 696 113.731 873.217 485.622
1865 0 57.1512 13.3506 763 112.362 873.248 484.509
1866 0 59.2485 13.283 787 113.278 872.329 483.494
1867 0 59.1102 13.1449 777 114.669 873.323 483.542
1868 0 58.2446 12.7737 744 117.301 873.062 483.181
1869 0 62.2003 11.7524 731 119.601 872.818 480.599
1870 0 65.2724 12.8538 839 116.299 872.813 477.195
1871 0 70.3485 14.3287 1008 112.551 872.67 475.597
1872 0 70.2673 13.2494 931 115.506 873.755 472.351
1873 0 71.2359 12.7464 908 116.029 873.414 474.629
1874 0 74.4318 14.174 1055 112.953 873.665 473.155
1875 0 76.3474 13.3731 1021 115.407 873.699 472.784
1876 0 78.4039 13.4432 1054 116.25 873.567 470.564
1877 0 80.4406 13.8736 1116 121.868 873.956 469.584
1878 0 81.5441 12.8887 1051 125.26 874.436 470.187
1879 0 86.5529 14.107 1221 120.918 873.969 467.133
1880 0 87.4947 14.2752 1249 121.733 873.285 466.914
1881 0 90.4341 13.0703 1182 125.176 873.174 466.063
1882 0 93.5062 14.4375 1350 119.125 873.366 464.267
1883 0 94.2302 12.1405 1144 119.436 873.903 463.243
1884 0 97.2299 12.7944 1244 119.132 874.343 460.651
1885 0 100.244 12.4596 1249 121.109 873.58 460.058
1886 0 103.201 12.6258 1303 121.757 873.071 459.711
1887 0 107.2 13.8992 1490 117.814 874.066 458.808
1888 0 111.23 12.8652 1431 119.753 874.166 457.549
1889 0 114.286 12.3287 1409 121.613 874.51 455.764
1890 0 116.332 12.1549 1414 123.124 874.222 451.153
1891 1 57.1757 11.4559 655 118.073 875.011 483.886
1892 0 59.2971 12.9011 765 115.139 874.644 482.003
1893 0 63.1837 12.5824 795 114.771 874.258 480.917
1894 0 65.0834 13.306 866 112.919 874.598 479.906
1895 0 65.1952 12.0714 787 117.306 874.356 478.36
1896 0 70.1881 13.0934 919 113.088 874.523 477.687
1897 0 73.1622 13.2445 969 112.498 874.436 475.689
1898 0 74.1724 12.8619 954 112.769 874.544 476.574
1899 0 78.2331 12.5778 984 112.356 874.663 473.097
1900 0 80.159 12.2881 985 113.054 875.13 472.998
1901 0 84.1299 12.8254 1079 111.63 874.913 469.844
1902 1 43.0805 11.3044 487 114.684 875.977 490.25
1903 0 45.0835 12.0887 545 111.299 875.648 489.429
1904 0 47.1574 12.9566 611 108.196 875.686 488.948
1905 0 48.039 12.7605 613 108.71 875.912 488.336
1906 0 49.0646 11.4747 563 112.307 875.536 487.082
1907 0 52.0713 13.155 685 107.565 875.007 486.404
1908 0 54.0517 12.488 675 107.886 875.305 486.585
1909 0 54.1424 11.5806 627 111.035 874.959 485.198
1910 0 57.0744 13.0882 747 106.797 874.932 483.822
1911 0 59.0679 12.3756 731 109.068 874.789 483.83
1912 0 61.1669 13.455 823 106.484 874.689 482.314
1913 0 65.161 12.6917 827 107.644 874.187 480.51
1914 0 66.1532 12.2594 811 110.29 875.24 480.76
1915 0 67.1329 11.4996 772 115.017 875.176 479.86
1916 0 67.178 9.98839 671 119.538 875.308 480.566
1917 0 72.086 11.625 838 115.025 874.999 478.105
1918 0 74.1652 12.2969 912 114.546 874.831 476.232
1919 0 77.147 10.9013 841 117.341 874.738 477.501
1920 1 41.0437 11.5243 473 114.302 875.226 493.051
1921 0 44.0865 12.1352 535 112.83 874.692 492.122
1922 0 43.1331 12.0557 520 115.581 871.823 492.031
1923 0 44.0659 11.5736 510 118.137 871.988 492.622
1924 0 46.0774 12.0015 553 118.975 874.07 490.684
1925 0 47.12 11.5662 545 120.272 874.229 491.429
1926 0 48.0569 11.6112 558 122.079 873.559 490.009
1927 0 50.174 11.8587 595 122.304 873.296 488.649
1928 0 47.0546 10.7322 505 119.022 872.996 489.111
1929 0 50.0377 12.3707 619 115.33 873.317 488.57
1930 0 51.0393 11.207 572 118.056 872.787 490.526
1931 0 53.098 12.1285 644 118.217 872.609 488.787
1932 0 55.0267 11.3581 625 123.363 872.539 487.578
1933 0 57.0973 12.1021 691 121.101 872.915 487.502
1934 0 58.0517 11.5759 672 124.588 873.363 485.646
1935 0 58.0219 11.2888 655 128.218 873.092 484.206
1936 0 60.0452 11.2748 677 126.213 873.077 485.21
1937 0 64.1034 12.1522 779 124.861 872.951 483.874
1938 0 63.0929 12.1884 769 126.735 873.15 482.446
1939 0 65.1099 11.7647 766 127.629 872.822 481.721
1940 0 69.1045 12.1844 842 125.656 873.391 481.732
1941 0 71.1649 12.6045 897 126.502 873.201 480.019
1942 0 71.1491 12.0732 859 129.247 873.629 477.773
1943 0 75.1556 12.2546 921 127.649 873.189 477.736
1944 0 77.1225 11.7475 906 129.202 873.528 475.317
1945 0 80.1663 11.9751 960 126.22 872.593 474.798
1946 0 82.117 10.5216 864 130.981 873.475 470.678
1947 0 84.094 13.0093 1094 131.408 874.488 471.332
1948 1 43.0163 10.4147 448 128.547 873.529 493.176
1949 0 46.0108 11.9537 550 124.436 872.593 491.867
1950 0 46.0193 12.2557 564 126.154 872.77 490.19
1951 0 47.074 11.7899 555 126.802 872.989 488.914
1952 0 48.0924 12.3512 594 125.82 873.38 488.064
1953 0 51.143 12.2206 625 126.21 873.149 487.941
1954 0 52.0772 12.2703 639 126.962 872.57 486.258
1955 0 54.0516 12.1551 657 126.583 873.665 486.855
1956 0 57.05 13.6372 778 122.666 873.629 486.388
1957 0 56.0215 12.4595 698 128.868 874.092 484.668
1958 0 59.0686 13.1203 775 126.07 873.286 484.068
1959 0 61.0391 13.09 799 125.882 872.638 483.743
1960 0 61.0705 13.0341 796 127.33 872.999 482.959
1961 0 64.0608 13.6121 872 124.226 873.177 480.467
1962 0 66.0743 13.2275 874 125.443 873.111 480.306
1963 0 68.0568 13.0773 890 127.352 872.879 479.282
1964 0 70.0586 12.775 895 128.277 872.661 479.03
1965 0 71.1269 13.8344 984 126.447 873.2 478.953
1966 0 72.0542 13.7119 988 128.76 873.615 475.673
1967 0 76.1412 12.3849 943 133.376 873.259 475.643
1968 0 77.1314 11.811 911 135.656 872.955 474.495
1969 0 79.1055 12.9321 1023 132.757 872.925 473.165
1970 1 43.0208 11.7385 505 133.168 872.659 489.945
1971 0 45.0318 12.0581 543 129.602 872.908 491.085
1972 0 46.0305 12.1441 559 132.222 873.506 488.152
1973 0 46.1327 12.2906 567 135.055 873.959 488.446
1974 0 49.022 12.8718 631 132.531 873.301 487.661
1975 0 50.0616 12.3448 618 135.273 873.238 485.642
1976 0 51.0642 11.4562 585 136.573 873.116 485.92
1977 0 53.0635 12.4191 659 133.889 872.745 485.651
1978 0 55.2033 12.771 705 132.82 873.22 483.075
1979 0 58.0923 13.995 813 128.93 873.744 482.82
1980 0 60.0539 13.5212 812 130.399 873.382 481.214
1981 0 60.0604 13.6363 819 131.573 872.951 480.912
1982 0 62.0641 13.6794 849 130.552 873.22 480.247
1983 0 62.1192 13.297 826 132.071 873.6 479.329
1984 0 66.128 12.748 843 130.639 873.145 477.843
1985 0 69.1508 12.6969 878 130.585 874.11 478.987
1986 0 71.2038 13.3982 954 128.474 873.411 477.698
1987 0 73.1451 14.4918 1060 125.846 873.704 475.551
1988 0 76.1826 13.3101 1014 128.699 873.896 473.585
1989 0 78.3282 12.4476 975 129.881 874.04 472.477
1990 0 79.1512 13.3921 1060 128.061 874.171 472.241
1991 0 83.1983 13.3416 1110 127.211 873.533 470.819
1992 0 84.2366 12.3343 1039 130.837 873.504 470.824
1993 0 89.3371 13.2868 1187 129.319 873.682 466.424
1994 0 92.3322 13.4514 1242 127.631 873.892 467.715
1995 0 95.4066 12.0327 1148 131.01 874.133 465.041
1996 0 99.3574 13.1646 1308 121.832 874.314 463.667
1997 1 52.2634 12.3987 648 122.878 873.733 486.9
1998 0 53.2152 12.4964 665 125.456 874.235 483.812
1999 0 56.1652 13.3178 748 122.761 873.989 484.437
2000 0 57.1277 13.0585 746 122.713 873.391 484.76
2001 0 59.1323 13.343 789 122.461 872.531 483.024
2002 0 62.1105 13.8624 861 121.372 873.354 480.971
2003 0 62.1433 13.1149 815 125.146 872.672 480.481
2004 0 63.1754 12.6157 797 127.511 872.415 479.255
2005 0 67.0959 12.8622 863 125.425 872.131 477.428
2006 0 70.2633 14.1895 997 122.123 873.293 473.59
2007 0 73.2004 15.4917 1134 118.589 873.482 472.694
2008 0 76.3684 14.0503 1073 122.315 873.897 470.794
2009 0 76.4519 13.0016 994 126.472 874.02 470.324
2010 0 79.1921 13.3347 1056 125.545 873.448 469.033
2011 0 84.3143 14.3155 1207 121.263 873.234 467.594
2012 0 87.3231 13.639 1191 123.381 873.456 466.393
2013 0 89.1835 13.7581 1227 123.331 873.309 466.029
2014 0 92.2724 14.0454 1296 121.765 873.437 463.942
2015 0 93.1032 12.6848 1181 119.45 872.416 459.376
2016 1 48.0462 10.0112 481 116.096 872.696 484.514
2017 0 48.0148 10.4134 500 117.44 873.052 484.044
2018 0 51.0237 11.5437 589 123.594 873.025 487.757
2019 0 51.1041 10.4101 532 126.756 873.041 486.737
2020 0 56.0834 11.6612 654 123.18 873.561 485.664
2021 0 56.1214 11.8137 663 114.944 874.784 479.947
2022 0 57.1515 11.4258 653 114.602 874.807 479.348
2023 0 61.3793 11.5022 706 114.575 874.575 477.955
2024 0 60.162 10.8374 652 119.032 874.655 477.35
2025 0 62.2091 10.2879 640 119.162 874.997 475.872
2026 0 63.2012 10.6327 672 118.635 874.324 473.53
2027 0 66.134 12.2327 809 115.693 874.45 470.428
2028 0 68.135 11.169 761 118.657 874.11 470.315
2029 0 70.155 11.945 838 119.82 873.803 467.567
2030 0 71.16 11.425 813 122.665 874.274 468.1
2031 0 75.1625 12.32 926 120.492 874.47 466.992
2032 0 76.209 12.0196 916 121.18 874.328 465.958
2033 0 78.1712 11.0399 863 124.509 873.965 463.959
2034 0 83.2284 12.1713 1013 122.071 874.231 463.666
2035 0 86.2567 13.3671 1153 118.814 874.526 462.617
2036 0 88.1913 12.5863 1110 121.21 874.508 460.696
2037 0 91.2956 13.2975 1214 118.197 873.871 463.176
2038 0 95.2497 12.189 1161 121.314 874.235 459.568
2039 0 98.2224 11.586 1138 123.73 874.06 460.295
2040 0 101.182 11.504 1164 124.489 874.37 457.603
2041 1 54.0909 10.6672 577 116.607 875.147 485.321
2042 0 56.088 10.2518 575 117.816 874.313 483.995
2043 0 59.1417 12.394 733 113.447 874.573 479.682
2044 0 60.0908 11.8487 712 115.493 874.556 480.358
2045 0 63.1028 11.6952 738 114.785 874.413 478.591
2046 0 64.085 12.343 791 113.842 874.632 478.033
2047 0 68.0955 12.409 845 112.778 874.31 477.995
2048 0 70.1776 12.7819 897 112.437 874.047 475.201
2049 0 72.0924 13.0804 943 112.389 874.43 473.575
2050 0 74.1661 13.308 987 111.319 874.621 472.158
2051 0 78.1371 13.4763 1053 111.116 874.405 471.729
2052 0 80.1462 13.1011 1050 112.643 873.856 469.257
2053 0 82.1632 12.3048 1011 114.056 874.348 470.944
2054 0 84.1533 12.5485 1056 114.271 874.633 467.262
2055 0 87.133 12.0964 1054 115.365 874.314 464.766
2056 1 41.021 10.2874 422 116.429 875.467 489.521
2057 0 43.0135 11.136 479 112.027 874.877 488.802
2058 0 44.0409 10.1951 449 113.027 875.457 488.597
2059 0 46.02 10.2347 471 112.594 874.958 486.363
2060 0 49.084 12.7129 624 105.971 874.58 485.502
2061 0 49.1073 10.7723 529 112.346 875.2 485.975
2062 0 52.0859 11.9418 622 107.096 875.513 486.251
2063 0 54.0211 11.9398 645 108.06 872.802 484.115
2064 0 54.0359 11.2518 608 110.094 872.898 483.898
2065 0 55.051 11.0806 610 112.021 873.575 483.254
2066 0 58.0567 11.6093 674 109.439 872.369 482.156
2067 0 60.0189 11.763 706 110.492 872.908 480.082
2068 0 61.0605 11.7261 716 111.777 872.746 480.284
2069 0 64.0805 12.063 773 110.125 872.417 478.032
2070 0 67.067 11.5258 773 111.484 872.277 477.217
2071 0 68.1119 11.2462 766 112.305 872.255 477.993
2072 0 70.0831 11.1725 783 113.267 872.485 475.688
2073 0 72.0816 11.5009 829 113.168 872.678 473.68
2074 0 76.0883 11.8021 898 111.115 871.741 473.808
2075 0 78.1138 11.8289 924 112.014 872.831 469.949
2076 0 81.1173 11.3663 922 112.916 873.048 469.389
2077 0 84.1473 13.0961 1102 110.258 872.881 469.587
2078 1 41.0618 9.20563 378 115.196 872.378 486.177
2079 0 43.2248 9.53157 412 112.854 873.085 482.019
2080 0 46.0848 10.9147 503 100.853 873.616 481.362
2081 0 48.0813 10.8566 522 101.341 873.395 482.186
2082 0 49.1378 9.7888 481 104.137 873.141 480.04
2083 0 49.1084 7.79907 383 113.875 872.227 481.217
2084 0 48.0969 7.75518 373 116.81 871.96 478.646
2085 0 53.1807 9.15745 487 111.478 872.961 479.337
2086 0 50.1305 9.2359 463 113.873 872.339 474.261
2087 0 56.1335 9.90496 556 110.937 872.852 476.432
2088 0 57.1089 9.40308 537 112.939 872.849 475.788
2089 0 59.1536 10.0416 594 112.658 873.02 473.125
2090 0 61.2175 9.31106 570 115.921 872.24 472.947
2091 0 64.121 10.0747 646 113.929 872.424 471.573
2092 0 68.1418 10.9478 746 112.18 871.987 470.02
2093 0 72.2181 12.0191 868 109.843 872.253 470.583
2094 0 74.2731 10.9596 814 112.006 872.209 470.23
2095 0 76.1033 10.9457 833 112.078 872.565 469.555
2096 0 80.1883 11.5229 924 111.064 872.99 466.998
2097 0 83.0906 11.7221 974 111.416 873.153 466.766
2098 1 42.0875 8.93376 376 108.457 873.189 485.298
2099 0 45.0869 11.1119 501 103.962 872.816 485.846
2100 0 45.1386 10.789 487 106.762 872.622 483.554
2101 0 46.2127 9.9107 458 109.548 873.153 483.052
2102 0 46.1361 9.40695 434 112.988 873.38 482.454
2103 0 49.1211 11.0136 541 110.882 873.392 480.954
2104 0 51.1875 12.0342 616 108.352 873.995 481.893
2105 0 50.11 10.8761 545 116.547 873.327 480.312
2106 0 53.185 11.225 597 115.229 873.191 479.901
2107 0 55.2887 11.3766 629 115.221 872.806 479.844
2108 0 57.1572 12.2469 700 113.734 873.046 477.756
2109 0 60.1098 12.7933 769 112.221 873.116 476.692
2110 0 61.2736 11.8648 727 115.073 873.004 475.319
2111 0 62.1165 11.897 739 115.969 872.249 476.495
2112 0 64.1538 10.8022 693 120.003 872.434 473.407
2113 0 69.1312 12.6282 873 114.849 872.298 473.923
2114 0 70.1251 11.6221 815 118.663 872.332 473.617
2115 0 75.1649 13.783 1036 112.982 872.772 470.468
2116 0 74.2029 12.3445 916 119.055 872.862 470.991
2117 0 78.1076 11.6634 911 121.24 873.154 468.116
2118 0 84.1405 13.0971 1102 116.65 873.235 467.535
2119 1 41.1272 11.0389 454 119.808 874.368 490.463
2120 0 45.1292 10.3702 468 120.556 873.667 488.57
2121 0 46.0503 11.8566 546 117.758 874.408 489.859
2122 0 47.0416 11.4792 540 120.363 874.724 488.837
2123 0 48.0381 12.2403 588 117.835 874.097 488.862
2124 0 51.0117 12.5069 638 116.658 874.246 486.483
2125 0 53.1172 11.8417 629 116.744 874.668 487.289
2126 0 56.0695 12.9125 724 113.377 873.453 485.301
2127 0 57.098 13.363 763 112.218 873.683 485.047
2128 0 57.1124 12.0114 686 115.516 873.172 483.458
2129 0 59.1298 12.7178 752 114.113 873.023 481.465
2130 0 60.2189 13.0026 783 113.561 873.416 482.163
2131 0 62.1561 13.1926 820 112.868 872.72 479.335
2132 0 66.1558 14.4507 956 109.065 872.704 478.215
2133 0 68.1382 12.7975 872 112.203 873.134 478.98
2134 0 69.2344 14.2559 987 108.298 873.025 476.367
2135 0 72.1981 12.6596 914 110.37 873.23 476.221
2136 0 75.1674 11.5209 866 111.97 873.07 475.703
2137 0 77.1379 12.8601 992 109.292 873.412 473.236
2138 0 81.1995 12.9311 1050 108.248 874.039 471.35
2139 0 82.0878 12.913 1060 109.373 873.896 469.623
2140 0 86.1359 11.865 1022 112.529 873.653 469.4
2141 1 45.0113 11.3971 513 110.918 874.345 490.337
2142 0 46.0428 11.5979 534 110.056 873.725 489.94
2143 0 48.0613 11.8807 571 108.312 874.2 489.956
2144 0 48.1363 11.9868 577 110.385 874.23 487.78
2145 0 50.0588 12.2056 611 109.501 873.712 486.118
2146 0 52.1356 11.4893 599 109.528 874.045 484.962
2147 0 53.0918 11.8097 627 109.365 873.726 484.458
2148 0 53.1859 11.3376 603 111.408 873.959 484.186
2149 0 54.1811 9.85584 534 114.176 874.034 484.455
2150 0 57.0912 12.0859 690 108.27 873.856 482.858
2151 0 58.1626 11.0724 644 110.663 873.5 483.915
2152 0 61.1994 11.6504 713 108.644 874.114 480.76
2153 0 62.3285 10.8137 674 109.436 873.429 480.789
2154 0 65.1163 11.825 770 106.944 873.429 479.809
2155 0 66.2462 11.1705 740 109.811 872.554 478.369
2156 0 69.2761 12.212 846 108.064 873.109 476.875
2157 0 72.2142 11.3136 817 110.411 873.015 477.361
2158 0 75.2882 12.3658 931 107.098 873.061 474.551
2159 0 77.4089 11.8849 920 108.023 873.209 474.876
2160 0 81.3478 12.5387 1020 106.247 873.683 472.022
2161 0 84.4098 12.7592 1077 105.864 872.903 469.066
2162 1 39.2067 10.7635 422 106.32 872.682 487.182
2163 0 41.0852 9.58983 394 108.33 873.538 485.353
2164 0 43.1328 9.92285 428 106.925 873.659 485.238
2165 0 45.1241 12.0335 543 102.492 873.663 482.939
2166 0 46.0949 10.3482 477 105.562 873.294 484.753
2167 0 47.1055 11.7821 555 103.254 873.429 483.274
2168 0 49.1418 11.477 564 104.03 873.158 482.027
2169 0 50.0961 10.3601 519 106.11 873.393 482.062
2170 0 52.1717 12.0755 630 103.416 873.033 480.317
2171 0 53.0519 11.3851 604 105.008 873.073 480.459
2172 0 54.0364 11.6588 630 105.34 872.833 478.575
2173 0 57.0644 11.5133 657 105.336 872.945 479.242
2174 0 60.0558 10.9731 659 105.191 872.727 479.269
2175 0 64.1032 12.0587 773 102.779 872.587 474.962
2176 0 65.3216 12.4767 815 103.222 872.351 472.509
2177 0 66.1868 11.4071 755 106.804 872.924 472.429
2178 0 69.2917 12.7432 883 104.011 872.537 470.559
2179 0 70.1364 10.9929 771 107.35 872.721 469.477
2180 0 75.1886 11.93 897 105.279 872.775 466.844
2181 0 75.1272 11.7135 880 106.803 872.752 464.361
2182 0 78.1833 12.1126 947 105.136 872.403 465.756
2183 0 83.224 12.0158 1000 104.762 872.51 466.13
2184 1 43.2706 10.8619 470 98.7532 872.736 484.638
2185 0 46.2105 10.1492 469 99.2601 873.222 487.04
2186 0 47.0853 12.488 588 104.592 872.937 487.718
2187 0 48.2372 11.5886 559 100.222 874.009 487.819
2188 0 50.1211 11.9112 597 99.7085 873.018 489.127
2189 0 53.1731 11.6788 621 100.9 873.283 486.717
2190 0 53.24 11.2885 601 103.434 873.458 485.251
2191 0 57.1854 13.36 764 98.7526 873.387 482.472
2192 0 58.2369 12.638 736 102.622 873.255 482.766
2193 0 60.1615 12.2504 737 104.083 873.161 482.634
2194 0 63.2361 13.5524 857 101.414 873.789 482.064
2195 0 64.2513 11.9842 770 106.129 873.536 481.838
2196 0 64.3051 12.0519 775 108.279 873.246 478.254
2197 0 68.1905 12.2011 832 108.447 873.201 477.559
2198 0 71.2146 12.7642 909 110.273 873.011 476.636
2199 0 74.315 13.4428 999 109.989 872.719 475.735
2200 0 77.4131 13.3052 1030 111.266 873.458 473.212
2201 0 78.2789 13.2858 1040 113.345 872.92 470.502
2202 0 83.3676 13.9743 1165 111.46 873.609 468.51
2203 0 85.2661 12.1502 1036 116.951 872.995 469.398
2204 0 87.2087 12.3268 1075 116.953 873.153 468.722
2205 1 46.3142 11.422 529 114.268 873.476 488.539
2206 0 48.1661 11.1904 539 114.035 873.273 488.62
2207 0 49.1969 12.6837 624 113.439 873.106 489.101
2208 0 51.0947 12.0756 617 115.078 873.574 487.447
2209 0 52.1171 12.1265 632 115.272 873.704 487.103
2210 0 55.2933 12.7321 704 114.264 873.442 484.021
2211 0 56.0947 11.9263 669 116.822 873.771 483.646
2212 0 59.0981 13.0292 770 114.564 873.223 483.526
2213 0 60.1076 12.4444 748 117.092 873.084 485.036
2214 0 63.0552 13.1631 830 115.812 873.022 482.04
2215 0 64.1251 12.616 809 119.53 872.114 480.535
2216 0 66.1589 12.3339 816 122.017 872.145 481.04
2217 0 69.142 12.8431 888 122.912 872.18 476.693
2218 0 74.2996 13.6205 1012 120.106 872.165 475.399
2219 0 74.1673 12.5123 928 123.047 871.711 475.596
2220 0 78.2885 13.9995 1096 120.241 872.197 470.819
2221 0 81.1947 13.2151 1073 123.837 871.942 468.335
2222 0 83.3452 13.1141 1093 123.996 872.477 468.027
2223 1 40.3006 9.80133 395 126.061 872.263 489.575
2224 0 43.5356 11.1403 485 122.845 872.365 487.542
2225 0 46.248 11.5248 533 121.917 872.394 487.642
2226 0 47.2903 13.1528 622 118.949 872.754 484.926
2227 0 47.189 12.2062 576 121.812 872.536 487.038
2228 0 49.2346 12.5928 620 120.824 872.586 486
2229 0 50.28 12.2116 614 122.055 873.181 484.84
2230 0 53.1136 13.6123 723 118.532 872.162 483.539
2231 0 52.1562 13.1528 686 123.257 872.885 482.818
2232 0 55.1405 13.3296 735 121.858 872.703 485.516
2233 0 57.1486 13.7536 786 121.593 872.884 484.878
2234 0 57.0376 13.6051 776 123.738 873.298 485.647
2235 0 59.0724 12.6624 748 126.852 873.349 483.493
2236 0 61.0373 14.4502 882 124.484 872.844 482.188
2237 0 63.0936 13.7098 865 128.351 872.916 481.022
2238 0 65.0948 13.5188 880 130.107 873.067 480.428
2239 0 68.1017 13.9791 952 129.606 872.964 480.136
2240 0 70.2924 14.2405 1001 127.12 873.187 475.984
2241 0 73.1679 13.7492 1006 130.384 872.717 474.334
2242 0 74.2086 13.9741 1037 130.364 873.538 474.681
2243 0 75.1397 13.4949 1014 134.729 873.974 471.227
2244 0 78.1222 13.9397 1089 134.087 873.543 470.298
2245 0 80.3016 14.1467 1136 134.202 873.023 472.055
2246 0 83.2492 14.0662 1171 135.504 872.856 470.061
2247 0 86.1787 14.7136 1268 134.338 873.507 468.547
2248 0 88.2712 14.1382 1248 136.471 873.824 468.081
2249 0 92.2357 15.2327 1405 132.838 873.213 466.524
2250 0 95.2699 13.9708 1331 137.593 872.539 462.998
2251 0 96.2034 14.1679 1363 138.401 873.249 460.481
2252 0 100.235 13.7876 1382 139.009 872.737 459.613
2253 1 51.2036 10.7219 549 136.74 873.393 484.248
2254 0 51.0162 10.4869 535 129.041 872.652 484.789
2255 0 56.034 11.9392 669 124.374 872.576 484.002
2256 0 57.1853 11.7862 674 128.411 873.24 479.521
2257 0 58.0764 11.0888 644 130.436 872.904 480.043
2258 0 61.1653 11.0193 674 130.685 872.697 479.407
2259 0 63.074 12.2079 770 127.673 872.783 480.414
2260 0 64.0678 12.1746 780 128.865 872.494 481.092
2261 0 68.1091 12.157 828 129.489 872.419 479.778
2262 0 69.2054 11.921 825 131.246 872.453 481.376
2263 0 71.1022 11.5327 820 133.756 872.244 480.918
2264 0 75.1341 11.9387 897 133.03 871.709 481.215
2265 0 76.0989 12.6152 960 135.07 871.291 478.15
2266 0 79.1002 13.0973 1036 133.279 870.845 479.922
2267 0 80.095 12.5476 1005 135.855 870.515 477.573
2268 0 82.3172 11.6987 963 138.754 870.669 479.076
2269 0 85.1871 11.9854 1021 136.134 869.979 479.741
2270 0 89.1189 11.5015 1025 136.717 870.088 478.033
2271 0 93.0874 11.9243 1110 136.226 870.28 475.773
2272 0 95.0697 11.3285 1077 137.03 870.141 474.27
2273 0 98.157 11.4714 1126 136.944 869.888 472.431
2274 1 54.1092 9.27754 502 137.498 870.753 496.464
2275 0 60.023 11.4456 687 132.967 869.307 494.261
2276 0 60.1719 12.4809 751 135.153 869.969 493.391
2277 0 61.0825 11.5909 708 138.287 869.72 492.162
2278 0 65.149 12.0493 785 134.795 869.814 491.069
2279 0 66.0492 11.2946 746 138.769 869.164 488.299
2280 0 71.2255 12.0884 861 132.826 869.225 487.662
2281 0 71.2472 11.8461 844 135.185 868.36 485.23
2282 0 73.2885 11.9937 879 134.9 868.33 482.873
2283 0 77.2632 11.2861 872 134.367 867.972 484.339
2284 0 80.3205 13.0477 1048 129.993 867.187 477.266
2285 0 80.3011 12.9512 1040 136.744 866.172 477.306
2286 0 85.4145 12.9486 1106 128.958 867.019 476.19
2287 0 86.3154 11.6549 1006 131.049 867.207 476.065
2288 0 88.1763 10.8079 953 125.526 866.785 475.771
2289 1 48.0655 9.57028 460 115.102 866.859 496.698
2290 0 50.1366 9.85307 494 113.437 867.593 499.336
2291 0 52.0975 10.8259 564 110.176 867.062 500.305
2292 0 54.0284 10.8091 584 110.361 866.767 498.219
2293 0 55.0505 11.7892 649 108.92 866.883 496.196
2294 0 56.0535 10.5792 593 111.121 866.373 496.47
2295 0 58.0381 11.9232 692 110.603 866.871 496.877
2296 0 61.0955 11.6375 711 109.958 866.866 495.277
2297 0 63.0699 11.2256 708 110.549 867.523 496.192
2298 0 65.0735 12.0787 786 108.424 867.237 494.511
2299 0 68.0996 11.6594 794 109.126 866.411 491.66
2300 0 70.0878 11.7995 827 110.139 866.579 489.658
2301 0 73.131 11.2401 822 110.939 866.483 486.825
2302 0 73.108 10.1767 744 117.984 866.039 484.734
2303 0 80.1611 11.5767 928 114.375 865.845 483.849
2304 0 79.0919 10.1907 806 118.833 865.421 481.02
2305 0 82.1714 11.2448 924 116.985 866.258 480.688
2306 0 85.1612 11.7189 998 115.514 865.84 480.156
2307 0 89.2006 11.1546 995 119.621 866.203 475.363
2308 0 90.3517 10.5366 952 121.321 865.977 473.557
2309 0 94.3547 11.6475 1099 117.627 866.046 474.15
2310 1 47.1623 10.114 477 113.432 865.413 500.537
2311 0 50.066 11.325 567 110.82 865.891 498.758
2312 0 52.1163 11.3016 589 110.949 866.056 497.842
2313 0 55.0808 11.4196 629 109.464 866.2 498.568
2314 0 56.1429 11.8092 663 109.532 865.677 493.911
2315 0 58.1629 11.3474 660 109.467 865.639 494.123
2316 0 61.2166 12.0556 738 107.669 865.73 494.828
2317 0 61.0584 11.317 691 110.096 865.76 493.951
2318 0 63.1159 11.978 756 108.992 866.184 492.433
2319 0 66.0853 12.3174 814 107.646 866.212 492.043
2320 0 68.1044 12.3487 841 108.332 866.451 490.449
2321 0 70.1507 11.5181 808 110.363 866.519 489.892
2322 0 72.0634 11.9756 863 110.656 866.622 486.88
2323 0 74.03 11.2117 830 112.731 866.584 487.12
2324 0 78.1414 11.5816 905 113.11 866.382 485.834
2325 0 78.1811 10.2966 805 118.191 866.359 482.519
2326 0 81.1846 10.2236 830 118.158 866.968 483.763
2327 0 81.1849 10.9503 889 118.834 866.587 480.217
2328 0 87.2346 12.1741 1062 115.826 866.26 477.808
2329 0 87.342 11.1974 978 119.346 866.399 475.005
2330 0 91.3373 11.3097 1033 119.256 866.624 475.244
2331 0 93.362 11.6321 1086 119.752 867.05 473.404
2332 0 95.3058 10.6814 1018 121.744 867.024 474.122
2333 0 101.321 12.3667 1253 115.501 866.863 472.178
2334 1 53.068 11.4382 607 108.329 866.527 495.42
2335 0 52.174 10.35 540 109.583 867.789 493.794
2336 0 56.1978 12.2958 691 109.499 867.932 494.88
2337 0 58.113 11.013 640 109.358 868 489.684
2338 0 60.2519 11.8835 716 107.096 867.869 489.264
2339 0 62.1238 11.6702 725 107.513 867.554 489.044
2340 0 65.219 11.9137 777 106.269 867.782 486.547
2341 0 67.1762 11.254 756 108.279 868.122 485.161
2342 0 68.2964 10.0152 684 112.963 868.291 481.956
2343 0 70.2268 9.8965 695 112.937 868.186 479.414
2344 0 72.2572 10.1305 732 113.064 868.225 479.949
2345 0 73.1824 10.3713 759 114.457 867.613 476.079
2346 0 77.3324 9.6596 747 116.289 868.669 473.677
2347 0 81.3745 11.5761 942 111.361 868.727 471.606
2348 0 84.3275 11.7162 988 109.485 869.224 474.004
2349 0 86.3313 10.8883 940 113.249 868.571 467.06
2350 0 90.2839 11.1759 1009 111.445 869.219 470.276
2351 0 92.3504 11.6621 1077 111.797 869.257 465.124
2352 1 48.3165 9.31359 450 108.231 869.058 487.651
2353 0 49.4238 9.34772 462 107.056 870.182 487.874
2354 0 53.3036 10.6184 566 104.862 870.288 486.253
2355 0 54.3593 10.9641 596 105.574 869.45 486.268
2356 0 57.203 11.7127 670 103.885 869.572 485.227
2357 0 57.2754 11.2963 647 105.53 869.292 483.866
2358 0 60.1878 12.5939 758 102.843 869.956 482.971
2359 0 62.1049 11.2873 701 105.519 870.164 483.583
2360 0 63.1763 10.5103 664 108.518 870.309 480.318
2361 0 66.092 12.2102 807 105.061 870.315 481.3
2362 0 67.0826 11.6275 780 107.342 870.167 480.787
2363 0 71.0472 11.4853 816 108.034 869.511 479.002
2364 0 73.0672 11.8795 868 107.961 869.205 477.409
2365 0 75.0785 12.134 911 109.081 868.937 474.578
2366 0 76.0314 11.0612 841 113.317 869.655 473.879
2367 0 79.1508 12.3814 980 110.557 869.184 471.26
2368 0 82.1685 12.45 1023 110.011 869.174 469.155
2369 0 86.2422 12.6156 1088 108.761 869.158 470.738
2370 0 88.2386 11.7296 1035 112.072 868.931 468.711
2371 0 89.2855 12.4096 1108 112.595 868.849 463.615
2372 0 94.2078 12.8864 1214 110.491 870.16 464.964
2373 0 97.3127 12.3005 1197 111.734 869.817 464.919
2374 0 101.282 14.0894 1427 108.956 870.467 459.678
2375 0 103.329 12.1166 1252 113.256 870.363 459.334
2376 1 55.1023 11.5422 636 108.22 869.833 483.638
2377 0 57.0982 10.1229 578 109.23 869.779 484.329
2378 0 57.1045 10.6471 608 108.715 870.896 485.005
2379 0 61.2184 12.4636 763 104.822 871.417 482.083
2380 0 61.2151 10.6183 650 109.015 871.297 483.235
2381 0 66.1152 12.1152 801 105.121 870.774 481.404
2382 0 68.1464 12.5025 852 103.824 871.525 480.032
2383 0 69.154 10.2814 711 108.37 871.419 479.142
2384 0 72.0922 12.1095 873 104.675 871.072 480.971
2385 0 73.1748 11.8347 866 105.901 870.647 478.706
2386 0 75.1985 12.3274 927 105.436 871.56 478.121
2387 0 78.3199 12.1936 955 106.748 871.692 475.185
2388 0 80.1718 11.176 896 110.663 871.205 475.798
2389 0 83.2064 10.6843 889 112.92 871.018 473.649
2390 0 87.1586 12.1044 1055 110.573 870.62 469.798
2391 0 90.3595 11.7973 1066 111.655 870.489 467.381
2392 0 91.2306 11.7504 1072 113.213 870.399 465.941
2393 0 96.2005 12.5675 1209 112.477 870.496 464.447
2394 1 49.0912 12.3036 604 111.568 871.68 487.596
2395 0 49.0326 10.646 522 115.098 871.751 490.856
2396 0 52.1722 11.1937 584 113.533 871.846 488.182
2397 0 56.1066 13.2248 742 109.976 871.888 486.97
2398 0 57.1131 12.554 717 110.671 871.969 486.55
2399 0 59.0529 12.8529 759 111.076 871.381 485.041
2400 0 61.0806 12.9665 792 109.14 871.071 484.787
2401 0 63.0598 12.3851 781 110.318 871.374 482.326
2402 0 66.0976 11.9672 791 110.148 871.353 483.054
2403 0 62.1554 11.0047 684 115.23 870.884 480.841
2404 0 70.1504 12.0883 848 111.243 871.226 481.664
2405 0 73.2047 12.103 886 110.607 870.887 478.466
2406 0 77.1183 12.7467 983 108.589 871.06 478.206
2407 0 79.199 12.1845 965 112.266 871.085 475.95
2408 1 40.1112 11.8172 474 114.958 871.042 493.352
2409 0 41.0399 11.5254 473 117.226 871.873 491.378
2410 0 44.3561 12.6476 561 112.799 871.914 489.289
2411 0 46.1414 12.0066 554 113.347 871.227 491.166
2412 0 48.1079 12.8253 617 111.689 870.786 488.533
2413 0 48.2063 12.2183 589 116.851 871.8 487.73
2414 0 50.1408 12.5247 628 116.346 872.381 486.78
2415 0 52.1059 11.5918 604 118.631 871.826 487.341
2416 0 53.1484 12.1923 648 119.25 872.125 484.245
2417 0 56.2418 11.9662 673 118.44 870.709 484.468
2418 0 57.1766 12.7675 730 117.449 870.051 480.297
2419 0 59.393 11.3481 674 119.99 870.743 480.185
2420 0 63.4975 12.7092 807 115.644 870.436 479.109
2421 0 65.3406 13.0241 851 115.257 870.381 476.4
2422 0 65.5191 12.8359 841 116.197 870.578 476.778
2423 0 67.3252 12.8035 862 116.101 870.638 476.117
2424 0 72.3765 13.6923 991 112.902 870.51 474.41
2425 0 71.4015 12.2827 877 117.511 870.173 473.208
2426 0 74.2424 11.2604 836 118.897 869.959 472.373
2427 0 78.3455 12.6491 991 115.312 870.922 470.957
2428 0 82.3291 12.8873 1061 114.331 870.506 470.28
2429 0 84.2678 12.1755 1026 116.07 870.516 468.589
2430 0 87.344 13.4525 1175 114.055 870.706 466.036
2431 0 88.3016 12.7631 1127 116.188 871.283 466.328
2432 0 91.3634 12.8498 1174 116.687 870.902 462.994
2433 0 96.4984 14.1868 1369 113.028 870.562 462.585
2434 0 98.3958 13.8014 1358 114.663 870.498 460.616
2435 0 102.445 13.8709 1421 114.43 869.958 459.416
2436 0 105.424 13.8773 1463 114.742 870.861 458.513
2437 0 109.35 13.3607 1461 116.534 870.394 456.905
2438 0 113.468 14.2948 1622 115.027 870.457 453.099
2439 0 116.268 14.2258 1654 115.935 870.793 451.756
2440 0 121.313 13.7083 1663 117.359 870.201 452.121
2441 0 125.293 14.5658 1825 114.296 870.882 449.34
2442 1 65.126 13.2359 862 114.72 870.987 478.459
2443 0 69.0567 12.9749 896 115.554 870.933 478.249
2444 0 70.1045 12.139 851 118.356 871.542 479.313
2445 0 74.1588 10.9899 815 124.785 871.745 473.972
2446 0 77.1783 13.4753 1040 119.124 872.281 473.264
2447 0 79.1632 13.769 1090 119.584 872.113 469.813
2448 0 84.2053 13.4908 1136 120.657 871.828 468.107
2449 0 86.2877 12.6669 1093 123.237 871.805 468.145
2450 0 90.2232 15.0183 1355 118.774 872.804 464.141
2451 0 93.3927 12.7847 1194 124.884 871.853 456.987
2452 0 95.2942 13.7154 1307 123.474 871.858 456.664
2453 0 98.2745 12.9433 1272 126.213 872.333 456.829
2454 0 103.186 13.5581 1399 125.338 871.623 454.548
2455 0 106.332 14.0033 1489 124.626 872.24 454.703
2456 0 106.261 14.342 1524 126.172 872.533 453.013
2457 0 112.316 15.7858 1773 120.582 872.82 453.724
2458 0 115.187 14.368 1655 126.069 872.813 451.503
2459 0 119.302 13.9142 1660 128.196 872.476 447.813
2460 0 122.262 14.2563 1743 127.38 872.466 448.344
2461 1 70.138 11.7055 821 120.654 872.804 474.501
2462 0 71.1918 11.153 794 122.128 873.078 474.535
2463 0 73.0519 11.5808 846 121.553 872.498 470.449
2464 0 76.0392 11.9018 905 121.46 870.495 470.983
2465 0 79.0777 12.8102 1013 115.518 869.913 472.678
2466 0 81.1261 12.0676 979 117.861 869.937 470.725
2467 0 84.1165 11.6267 978 119.586 870.725 468.861
2468 0 87.0739 12.5526 1093 115.567 870.109 468.973
2469 0 90.1355 12.5589 1132 115.421 870.493 464.168
2470 0 93.0856 12.7625 1188 114.13 870.614 464.987
2471 0 97.1763 12.0091 1167 115.97 870.4 463.059
2472 0 99.0562 11.448 1134 113.446 870.39 462.849
2473 0 102.215 13.2368 1353 114.773 871.054 458.916
2474 0 106.148 11.2391 1193 118.009 870.89 458.968
2475 0 110.177 12.725 1402 113.078 870.64 455.748
2476 0 114.258 11.1853 1278 114.116 871.364 453.933
2477 1 66.0629 9.9148 655 105.208 872.028 477.256
2478 0 70.0352 11.3086 792 102.192 871.924 476.279
2479 0 69.074 10.1196 699 105.425 872.063 474.604
2480 0 74.1284 11.8443 878 108.722 872.558 473.102
2481 0 75.0417 11.1272 835 110.304 872.892 471.944
2482 0 78.0812 11.8979 929 107.532 872.911 472.562
2483 0 85.0622 13.1198 1116 103.37 873.916 468.698
2484 0 85.0483 11.4758 976 108.259 873.95 466.72
2485 0 86.0526 11.83 1018 108.241 873.565 466.556
2486 0 87.1083 11.3652 990 110.185 872.769 464.831
2487 0 90.1389 10.7834 972 104.885 870.969 466.65
2488 0 94.1002 11.3283 1066 104.53 871.487 465.293
2489 0 95.0862 10.5168 1000 106.227 870.787 463.975
2490 0 102.102 12.4092 1267 102.75 870.608 461.313
2491 0 103.166 10.6915 1103 105.397 870.621 461.665
2492 0 106.111 11.9591 1269 103.187 871.47 456.828
2493 1 61.0361 8.84722 540 103.559 871.27 480.083
2494 0 64.1414 10.9913 705 96.7035 871.685 480.182
2495 0 66.0442 10.2507 677 98.7371 871.969 480.267
2496 0 66.097 10.4695 692 99.0694 872.377 476.462
2497 0 68.0861 10.1489 691 99.6585 872.684 479.64
2498 0 69.065 10.0919 697 101.187 872.752 478.11
2499 0 71.1109 11.3063 804 97.7575 872.932 478.144
2500 0 72.0739 11.0442 796 100.459 872.887 474.117
2501 0 73.0964 9.00181 658 105.59 873.936 469.769
2502 0 76.0649 10.5042 799 101.008 872.841 472.377
2503 0 78.0552 9.82638 767 101.911 873.871 473.103
2504 0 81.1511 9.93209 806 102.885 873.504 464.254
2505 0 86.1276 9.71814 837 102.337 873.139 468.253
2506 0 88.1062 10.3057 908 102.814 872.974 462.708
2507 0 90.2931 10.0894 911 102.956 873.286 463.963
2508 0 94.1263 10.4753 986 102.789 873.631 460.92
2509 0 97.1083 10.514 1021 103.403 873.525 460.342
2510 0 100.119 11.6861 1170 102.001 873.342 459.013
2511 0 103.162 9.73226 1004 106.127 873.233 460.724
2512 0 107.122 11.3049 1211 104.186 873.354 457.657
2513 0 108.142 10.8561 1174 106.898 873.348 455.049
2514 0 111.168 11.4781 1276 108.356 873.529 458.199
2515 0 114.208 10.9011 1245 111.836 874.028 450.194
2516 0 120.24 11.7847 1417 108.363 873.532 450.795
2517 1 64.1056 9.71833 623 107.926 874.424 473.709
2518 0 65.1424 9.57902 624 108.971 871.13 474.756
2519 0 70.1055 10.9692 769 103.645 870.737 473.081
2520 0 72.0522 11.9219 859 103.665 870.643 470.9
2521 0 73.0589 10.3067 753 106.05 871.084 468.871
2522 0 75.1053 11.131 836 104.711 870.167 469.109
2523 0 79.1666 11.9621 947 102.77 871.541 466.644
2524 0 79.1617 11.9376 945 121.309 872.554 466.576
2525 0 83.1525 12.9882 1080 101.565 872.071 465.456
2526 0 86.1672 12.7311 1097 103.092 872.326 465.332
2527 0 88.2423 12.987 1146 103.958 872.168 463.543
2528 0 90.1553 11.9793 1080 106.597 871.893 464.472
2529 0 93.142 12.6688 1180 105.305 872.373 460.872
2530 0 97.1188 10.8733 1056 110.353 871.898 459.088
2531 0 100.205 12.5941 1262 107.355 872.315 457.232
2532 0 102.231 11.836 1210 111.131 872.781 457.011
2533 1 52.1718 9.7179 507 113.112 872.418 482.436
2534 0 55.198 11.3591 627 109.435 871.955 480.557
2535 0 56.4006 10.8509 612 112.444 873.24 476.436
2536 0 57.3442 11.492 659 111.895 873.876 477.522
2537 0 58.3139 11.6439 679 112.898 873.106 474.888
2538 0 61.209 12.0897 740 112.068 872.253 474.101
2539 0 62.2053 11.3978 709 113.563 873.175 476.059
2540 0 62.2168 11.4921 715 115.41 872.996 473.965
2541 0 64.234 12.3299 792 113.468 873.136 472.547
2542 0 68.4 11.7983 807 114.144 872.99 472.333
2543 0 69.3004 12.5107 867 112.817 873.577 473.213
2544 0 70.3464 13.8031 971 111.189 873.063 472.861
2545 0 72.2423 12.375 894 116.053 872.934 469.658
2546 0 73.2093 12.9902 951 115.09 873.085 468.353
2547 0 78.2856 12.927 1012 114.164 873.161 468.854
2548 0 81.263 13.6594 1110 112.556 873.587 467.796
2549 0 81.2157 13.0886 1063 115.387 873.997 468.162
2550 0 82.2289 12.4652 1025 117.505 874.437 466.533
2551 0 82.2289 12.5139 1029 145.332 874.462 466.575
2552 0 88.2073 12.8788 1136 116.946 873.643 463.636
2553 0 92.1605 13.2595 1222 116.11 874.248 462.868
2554 0 95.1301 13.4658 1281 116.927 874.782 459.373
2555 0 98.2129 13.8678 1362 115.925 874.69 459.516
2556 0 98.1647 14.4146 1415 115.237 873.999 458.266
2557 0 102.267 13.6408 1395 116.928 874.454 456.135
2558 0 101.146 12.2299 1237 121.012 872.868 457.847
2559 0 104.103 12.9583 1349 120.086 872.838 454.885
2560 1 58.072 10.5731 614 113.469 871.989 480.464
2561 0 58.1883 10.5691 615 103.102 873.743 475.675
2562 0 58.1453 11.8152 687 103.962 873.699 474.368
2563 0 61.2102 11.1419 682 98.9575 873.265 473.119
2564 0 62.0534 10.072 625 100.754 874.098 474.251
2565 0 64.1122 11.6671 748 99.0468 873.328 471.66
2566 0 66.1769 10.8346 717 100.237 874.054 471.212
2567 0 66.1288 10.9483 724 100.797 874.084 468.845
2568 0 69.0947 9.68236 669 102.405 873.469 471.634
2569 0 70.1066 10.2558 719 102.293 873.466 468.772
2570 0 73.1862 11.259 824 100.733 874.039 467.183
2571 0 77.0553 10.9532 844 100.597 873.203 466.193
2572 0 79.0962 11.7578 930 98.4763 873.697 465.171
2573 0 81.2026 11.4282 928 99.3664 873.606 463.725
2574 0 85.091 11.9989 1021 98.0686 873.481 463.317
2575 0 85.1544 12.7885 1089 98.4444 872.89 461.368
2576 0 87.0599 11.8769 1034 98.5116 872.75 458.158
2577 0 86.0978 11.1037 956 101.773 873.484 459.053
2578 0 90.1828 12.7186 1147 98.5937 873.062 455.405
2579 0 94.1011 12.4441 1171 99.2639 873.453 455.203
2580 0 98.2191 11.8714 1166 99.9631 873.069 454.502
2581 0 100.139 12.2829 1230 100.991 872.966 451.794
2582 0 102.162 12.441 1271 102.456 872.125 451.09
2583 0 107.069 11.0022 1178 105.967 872.579 448.027
2584 0 108.234 11.7153 1268 105.077 872.986 447.292
2585 1 59.0893 10.0187 592 96.4916 873.356 474.454
2586 0 61.1588 8.87852 543 103.422 873.411 467.114
2587 0 64.1369 10.5556 677 99.7976 874.331 469.931
2588 0 65.0248 12.9489 842 96.0677 873.905 470.065
2589 0 68.0277 10.4516 711 100.712 873.873 470.474
2590 0 71.0957 11.0274 784 100.69 874.33 465.695
2591 0 73.1091 10.71 783 101.462 874.24 464.29
2592 0 77.1203 10.905 841 100.555 873.913 461.397
2593 0 77.1172 11.087 855 101.146 874.357 459.932
2594 0 79.0771 10.7869 853 102.951 873.598 457.829
2595 0 85.1724 11.4122 972 100.532 873.712 461.663
2596 0 85.0927 9.70706 826 105.045 873.372 459.194
2597 0 90.108 12.0411 1085 100.718 873.818 457.969
2598 0 91.0778 10.3428 942 104.477 872.658 456.209
2599 0 95.154 11.907 1133 103.076 871.977 449.981
2600 0 95.2138 10.6812 1017 105.895 872.361 449.504
2601 1 54.0461 8.40023 454 99.8128 872.885 472.784
2602 0 58.1424 10.1475 590 96.9373 873.775 473.33
2603 0 59.0272 10.2156 603 99.869 874.292 472.502
2604 0 62.0662 10.9561 680 104.638 874.96 476.315
2605 0 66.0921 10.9695 725 105.834 874.844 475.13
2606 0 68.126 12.8145 873 102.472 874.88 474.192
2607 0 71.0978 13.3056 946 101.309 874.39 472.222
2608 0 73.1943 11.408 835 104.735 874.548 473.049
2609 0 77.0879 12.4533 960 103.402 874.974 469.656
2610 0 77.033 12.4882 962 104.301 875.234 466.713
2611 0 79.0641 11.5855 916 106.261 873.913 468.116
2612 0 83.1334 13.2317 1100 104.003 874.262 466.297
2613 0 86.0968 13.4035 1154 102.906 874.541 466.253
2614 0 89.1514 13.0901 1167 104.145 874.237 463.715
2615 0 92.0907 12.6071 1161 105.336 874.266 463.262
2616 0 97.1729 14.819 1440 100.402 874.012 463.035
2617 0 96.1508 11.2116 1078 109.67 874.639 460.703
2618 0 102.327 14.1311 1446 103.032 874.161 459.731
2619 0 105.137 13.8676 1458 103.005 873.882 458.271
2620 1 59.0888 11.6773 690 98.713 874.167 482.922
2621 0 61.1399 10.6477 651 99.8679 874.473 482.892
2622 0 61.1227 12.1886 745 98.3074 874.226 480.962
2623 0 65.1366 11.7906 768 96.763 873.302 480.294
2624 0 68.0986 13.3189 907 94.4895 873.475 479.364
2625 0 68.1647 12.6165 860 97.214 873.201 476.52
2626 0 71.2071 12.0634 859 96.454 872.376 476.79
2627 0 72.2716 12.5776 909 97.3685 872.612 472.7
2628 0 73.2564 12.9681 950 97.2368 872.827 473.191
2629 0 76.1783 12.7858 974 97.9856 871.923 472.486
2630 0 79.1936 12.2106 967 98.6019 872.252 469.993
2631 0 82.1991 12.5184 1029 98.2556 872.361 469.511
2632 0 84.144 12.9421 1089 97.4463 872.801 468.6
2633 0 87.2907 13.3233 1163 97.2691 871.937 464.75
2634 0 89.2117 13.1485 1173 97.532 872.22 468.599
2635 0 93.1548 13.3434 1243 97.3612 871.998 466.934
2636 0 96.1179 12.7552 1226 100.34 872.013 465.131
2637 0 100.16 12.6797 1270 100.601 871.82 463.275
2638 0 105.15 13.6757 1438 99.4736 871.209 461.775
2639 0 107.143 11.8066 1265 104.848 871.576 459.122
2640 0 109.111 11.0713 1208 109.352 871.127 459.823
2641 1 60.1525 12.8673 774 104.256 871.208 482.07
2642 0 63.2336 12.2561 775 105.155 871.475 481.597
2643 0 63.2624 13.4203 849 104.32 871.622 478.334
2644 0 65.3382 12.4429 813 106.93 871.26 478.916
2645 0 68.1333 12.1526 828 108.012 871.706 479.094
2646 0 68.1988 12.3023 839 105.849 872.445 479.585
2647 0 71.113 12.6559 900 104.84 871.978 477.331
2648 0 73.0881 12.5465 917 105.153 872.785 476.481
2649 0 74.077 12.4465 922 104.998 872.837 477.213
2650 0 79.21 12.2081 967 105.153 872.677 473.011
2651 0 80.0711 11.9769 959 107.123 872.421 471.938
2652 0 83.1134 10.1909 847 111.306 872.525 469.116
2653 0 87.1028 12.2614 1068 106.195 872.386 467.2
2654 1 48.0419 9.24194 444 106.667 872.254 489.194
2655 0 52.048 11.4702 597 105.36 872.198 488.107
2656 0 50.0498 9.59045 480 102.09 871.762 483.519
2657 0 50.0288 10.434 522 104.307 872.661 483.209
2658 0 51.0227 10.4071 531 106.333 873.269 480.011
2659 0 51.0749 9.98534 510 107.563 871.933 478.988
2660 0 55.0291 10.7398 591 104.526 871.832 479.897
2661 0 60.1442 12.1707 732 99.8374 872.079 479.178
2662 0 61.1318 11.8269 723 101.932 872.419 476.651
2663 0 60.0809 10.4026 625 106.861 872.718 474.299
2664 0 63.138 11.6253 734 104.014 872.259 473.519
2665 0 68.0386 11.2877 768 103.103 871.947 474.142
2666 0 70.0923 12.1697 853 101.223 872.108 472.181
2667 0 70.1315 11.3216 794 104.364 872.23 469.159
2668 0 75.1025 10.945 822 104.727 872.203 468.1
2669 0 77.1528 11.5226 889 102.985 871.934 469.017
2670 0 77.1013 10.5446 813 106.018 872.106 465.43
2671 0 81.0538 12.0784 979 102.38 871.937 464.564
2672 0 83.1183 10.4189 866 106.095 871.9 461.192
2673 1 46.0494 7.73084 356 102.132 871.596 482.73
2674 0 47.0629 10.1566 478 104.13 871.573 476.837
2675 0 50.0294 10.8736 544 99.1802 872.382 479.842
2676 0 50.0463 10.0307 502 102.237 871.765 476.94
2677 0 52.0358 9.72407 506 104.217 872.273 474.164
2678 0 52.0395 10.3383 538 103.559 871.822 474.091
2679 0 59.0741 10.7831 637 101.656 871.754 477.248
2680 0 59.2295 10.8223 641 101.159 871.086 474.931
2681 0 58.1007 10.8949 633 103.498 871.48 474.183
2682 0 60.116 10.6461 640 104.117 871.633 475.978
2683 0 62.0773 10.4386 648 105.002 871.84 474.15
2684 0 65.1158 10.5044 684 105.12 870.909 471.775
2685 0 67.1115 11.1605 749 103.633 871.114 472.085
2686 0 69.0917 11.5933 801 102.965 871.348 471.518
2687 0 72.191 13.1318 948 99.5021 871.255 468.819
2688 0 73.0861 11.8901 869 102.904 870.988 464.518
2689 0 74.2545 10.262 762 107.205 870.824 465.606
2690 0 77.2326 11.6143 897 104.446 871.239 460.613
2691 0 78.2323 11.7215 917 119.493 870.228 460.822
2692 0 86.1231 12.1454 1046 103.302 871.174 460.996
2693 0 88.2179 11.5056 1015 104.539 871.107 462.066
2694 0 92.0987 11.7808 1085 104.514 870.503 458.818
2695 0 93.1208 9.71856 905 109.423 870.474 455.193
2696 1 51.1225 9.72174 497 97.0101 871.272 483.974
2697 0 51.0584 11.2224 573 99.5393 871.447 483.08
2698 0 54.1165 9.99695 541 101.634 871.802 483.946
2699 0 57.1432 10.6399 608 101.988 872.262 482.656
2700 0 55.19 9.422 520 101.223 871.483 481.527
2701 0 60.1569 11.1375 670 96.5015 871.469 477.181
2702 0 61.1012 10.9327 668 97.1048 871.728 476.487
2703 0 62.1822 9.37568 583 101.23 871.552 477.497
2704 0 66.1627 10.8218 716 97.0866 871.68 476.721
2705 0 65.0949 9.63208 627 97.6156 871.809 473.974
2706 0 66.1092 9.86248 652 97.7929 871.932 471.681
2707 0 69.174 10.0616 696 97.2888 871.724 469.928
2708 0 73.1737 9.53895 698 97.818 871.679 469.961
2709 0 78.1453 10.8772 850 96.0776 871.18 468.088
2710 0 79.2253 12.2814 973 94.6855 870.962 467.698
2711 0 82.4484 10.6491 878 98.2938 871.306 464.99
2712 0 84.3352 12.2487 1033 96.879 870.999 462.883
2713 0 87.3185 10.5476 921 100.053 871.379 463.957
2714 0 88.2549 12.7698 1127 98.3061 871.09 461.636
2715 0 92.2446 10.8191 998 102.978 871.124 457.822
2716 0 96.2405 12.2817 1182 101.642 870.591 455.79
2717 0 96.2405 12.2506 1179 131.491 869.582 455.708
2718 0 96.2063 12.2133 1175 131.096 868.596 455.679
2719 0 106.371 11.6479 1239 105.015 871.343 452.314
2720 0 109.426 10.7378 1175 106.662 871.483 453.613
2721 0 113.333 12.5559 1423 104.001 871.766 450.941
2722 0 116.221 12.0719 1403 104.951 871.644 447.215
2723 1 66.1779 11.2424 744 96.8629 871.281 475.035
2724 0 69.1576 11.0183 762 95.769 872.367 473.127
2725 0 70.2003 10.6125 745 96.6671 872.046 468.097
2726 0 72.1887 11.2483 812 95.7635 872.463 467.367
2727 0 74.1047 10.4852 777 98.175 872.775 468.032
2728 0 76.1376 11.0195 839 97.1871 872.833 466.393
2729 0 81.1248 11.8336 960 95.951 872.241 465.777
2730 0 83.1693 11.687 972 97.1646 872.566 466.635
2731 0 85.1238 11.1955 953 99.7597 873.199 463.004
2732 0 86.1251 11.0421 951 101.615 873.321 459.551
2733 0 89.1575 10.2403 913 104.116 872.83 458.078
2734 0 93.3221 10.6941 998 103.646 872.706 458.05
2735 0 96.231 11.9296 1148 102.434 872.736 455.781
2736 0 100.278 11.5778 1161 103.581 872.801 456.852
2737 0 104.19 12.8899 1343 101.462 872.686 455.753
2738 0 108.234 13.0089 1408 102.477 872.516 453.484
2739 0 111.237 13.296 1479 102.037 872.688 452.384
2740 0 113.253 12.1939 1381 105.539 873.183 452.558
2741 0 117.159 12.6581 1483 105.543 873.121 450.304
2742 0 120.29 12.6112 1517 106.568 872.319 450.153
2743 0 122.103 12.1782 1487 109.749 872.518 446.716
2744 0 127.202 13.3646 1700 106.548 872.714 450.976
2745 0 131.187 11.2511 1476 114.866 872.944 445.906
2746 0 135.135 12.0398 1627 112.669 872.937 445.886
2747 1 72.1943 10.6518 769 105.476 873.497 474.568
2748 0 78.1895 11.3442 887 104.016 873.366 470.361
2749 0 81.1717 12.6768 1029 101.053 873.087 470.054
2750 0 84.119 12.0187 1011 101.068 873.124 469.493
2751 0 85.1868 11.8446 1009 102.513 873.353 467
2752 0 90.1984 12.4503 1123 101.075 873.63 464.262
2753 0 92.1448 12.2416 1128 102.13 873.08 461.494
2754 0 95.2048 11.3545 1081 102.966 873.183 464.97
2755 0 98.2151 12.6864 1246 101.627 873.081 459.359
2756 0 101.253 13.1749 1334 101.3 872.843 456.826
2757 0 103.216 12.1492 1254 103.855 873.333 457.203
2758 0 107.313 11.7321 1259 104.461 873.217 456.39
2759 0 113.272 13.3484 1512 101.881 873.431 454.165
2760 0 114.233 12.9472 1479 104.3 872.757 453.394
2761 0 120.192 13.4368 1615 102.926 872.868 451.607
2762 0 121.188 12.5838 1525 104.536 873.71 449.86
2763 0 127.178 13.9882 1779 103.162 873.413 444.826
2764 0 131.28 13.3836 1757 104.793 872.872 445.454
2765 0 135.282 12.6255 1708 106.56 872.627 440.349
2766 1 74.2368 9.71216 721 105.208 873.151 472.975
2767 0 79.1966 12.0839 957 104.248 873.214 471.766
2768 0 80.2026 10.7602 863 102.745 873.386 469.591
2769 0 82.0888 10.7201 880 102.699 873.511 470.595
2770 0 84.1531 11.6336 979 102.676 874.696 466.105
2771 0 89.2369 11.8337 1056 101.351 874.478 466.208
2772 0 92.2728 12.1379 1120 102.524 874.49 462.778
2773 0 95.2196 12.5709 1197 102.709 874.087 462.496
2774 0 97.2444 12.2269 1189 104.246 873.888 462.392
2775 0 99.1424 11.7205 1162 107.906 873.82 460.91
2776 0 104.266 10.5308 1098 110.538 873.839 459.822
2777 0 107.335 11.0216 1183 110.734 872.964 456.466
2778 0 111.137 10.5995 1178 111.134 872.643 455.07
2779 0 112.26 9.94123 1116 112.83 872.605 456.36
2780 0 113.212 9.12446 1033 116.624 872.434 452.508
2781 0 121.223 9.90736 1201 114.57 871.729 451.514
2782 1 64.0888 11.0784 710 103.842 872.38 477.023
2783 0 64.2007 10.4204 669 106.416 871.97 476.849
2784 0 65.1407 11.1451 726 104.873 870.844 477.875
2785 0 69.1003 11.9681 827 102.516 870.923 477.665
2786 0 71.1123 11.7139 833 104.429 870.694 475.543
2787 0 74.1532 12.2584 909 101.939 871.356 475.466
2788 0 75.1542 12.0552 906 104.381 871.366 472.205
2789 0 77.1018 11.0374 851 107.14 871.454 471.685
2790 0 78.1264 11.2254 877 107.597 871.346 472.165
2791 0 82.1234 11.9576 982 106.199 871.288 472.263
2792 0 84.1055 11.2716 948 107.958 871.182 469.162
2793 0 85.2081 11.736 1000 108.175 871.408 469.807
2794 0 87.1658 11.4609 999 110.83 870.98 465.342
2795 0 92.1105 12.0942 1114 108.433 871.022 465.785
2796 0 93.0943 10.5162 979 112.723 870.495 463.278
2797 0 96.0851 11.3753 1093 112.053 871.24 460.161
2798 0 100.174 12.7578 1278 108.171 871.248 460.551
2799 0 102.186 10.4711 1070 112.825 871.465 461.138
2800 0 106.164 12.2923 1305 107.569 871.044 460.529
2801 0 109.215 11.7567 1284 110.022 870.685 459.681
2802 0 111.087 11.3335 1259 111.419 871.468 456.301
2803 0 114.272 10.195 1165 113.638 871.781 454.957
2804 0 120.252 11.5424 1388 110.094 871.571 451.199
2805 1 65.1137 10.8272 705 105.455 870.953 479.448
2806 0 67.1007 10.2532 688 107.219 871.439 477.533
2807 0 70.0936 11.6416 816 103.129 871.195 475.763
2808 0 72.1168 11.6062 837 102.293 871.526 477.722
2809 0 75.1876 11.5977 872 103.069 871.497 475.087
2810 0 76.1933 11.6283 886 103.025 871.448 475.746
2811 0 80.0763 12.613 1010 101.715 871.643 474.123
2812 0 81.0931 12.4672 1011 102.772 871.65 472.295
2813 0 84.1438 11.9082 1002 103.157 872.011 470.914
2814 0 87.1357 13.0716 1139 100.224 871.426 469.534
2815 0 90.1701 12.0328 1085 102.094 871.377 470.353
2816 0 91.0834 11.8353 1078 104.198 871.009 465.712
2817 0 95.0737 13.316 1266 101.209 870.662 463.908
2818 0 96.192 13.4627 1295 101.859 870.449 466.212
2819 0 99.1732 12.0799 1198 105.621 871.191 462.753
2820 0 101.107 11.4038 1153 107.86 871.324 461.973
2821 1 56.0652 11.1299 624 108.622 870.747 485.204
2822 0 58.3089 11.9364 696 110.086 871.457 479.125
2823 0 59.1994 10.2535 607 113.399 873.249 482.74
2824 0 61.0751 10.1023 617 114.17 872.794 479.942
2825 0 64.1701 12.1552 780 109.836 873.52 477.196
2826 0 66.0844 11.0919 733 111.87 873.281 478.94
2827 0 68.1737 12.0574 822 110.089 873.055 476.129
2828 0 69.1082 11.0117 761 112.753 872.551 474.775
2829 0 72.1402 12.448 898 109.695 872.704 474.567
2830 0 73.1971 12.7464 933 109.9 872.838 472.492
2831 0 76.0651 11.9634 910 111.454 872.269 473.816
2832 0 78.1573 12.8843 1007 110.46 872.231 469.257
2833 0 80.1474 12.477 1000 111.521 872.194 469.556
2834 0 83.2501 12.8889 1073 111.715 871.214 469.715
2835 0 85.2172 12.9551 1104 112.621 870.808 470.738
2836 0 86.1379 12.3407 1063 115.266 870.919 467.289
2837 0 89.1523 12.473 1112 115.467 870.988 468.369
2838 0 92.2664 14.1763 1308 111.591 870.405 466.791
2839 0 95.1356 12.3403 1174 117.364 870.888 464.004
2840 0 99.1358 13.1839 1307 115.699 870.292 465.076
2841 0 103.173 13.6276 1406 114.772 870.502 462.353
2842 0 106.318 12.2839 1306 118.396 870.514 461.287
2843 0 108.276 12.3758 1340 119.487 870.962 460.625
2844 0 112.445 14.4338 1623 115.376 871.67 454.989
2845 1 58.2096 11.6991 681 104.25 872.67 481.956
2846 0 60.3268 10.8741 656 106.274 872.226 480.979
2847 0 63.1105 11.9473 754 101.979 871.871 482.178
2848 0 65.2172 10.8867 710 105.428 872.134 481.093
2849 0 63.1504 9.96035 629 103.682 871.254 474.556
2850 0 66.1146 11.4044 754 100.649 871.959 476.808
2851 0 68.1088 10.9824 748 101.888 871.394 475.365
2852 0 71.2835 11.7559 838 101.288 871.455 472.661
2853 0 70.2446 10.4634 735 105.041 871.829 471.004
2854 0 75.2131 11.3278 852 103.054 872.38 472.054
2855 0 79.1672 13.1746 1043 99.9262 872.516 469.336
2856 0 81.3322 11.0411 898 104.972 872.27 469.312
2857 0 83.2046 12.1628 1012 104.653 872.195 467.218
2858 0 86.2576 12.1033 1044 105.72 871.846 467.347
2859 0 88.2565 11.3079 998 109.335 871.248 464.278
2860 0 90.0982 12.1201 1092 109.886 871.774 466.114
2861 0 95.1706 12.8716 1225 108.246 870.55 464.033
2862 0 98.2279 12.8579 1263 109.025 871.04 461.946
2863 0 102.184 13.0548 1334 108.097 871.464 462.202
2864 0 106.12 12.4293 1319 110.666 871.751 461.321
2865 0 107.17 11.2905 1210 112.416 871.363 462.126
2866 1 59.0994 11.4891 679 107.797 871.708 487.163
2867 0 61.1067 12.29 751 107.534 872.145 485.198
2868 0 64.0953 11.4205 732 110.115 871.94 484.131
2869 0 66.1784 12.4814 826 109.119 871.126 480.736
2870 0 68.1071 12.5244 853 108.305 871.734 480.353
2871 0 71.1814 13.2619 944 106.493 871.593 478.135
2872 0 74.0792 13.6881 1014 105.642 871.762 478.439
2873 0 75.2009 11.9148 896 110.705 871.895 477.525
2874 0 77.1494 12.7286 982 109.947 871.297 475.981
2875 0 82.1306 13.5394 1112 106.662 871.486 476.042
2876 0 84.1296 13.8596 1166 108.196 871.585 473.843
2877 0 85.1637 13.7265 1169 109.077 871.802 471.89
2878 0 87.2077 11.9944 1046 112.218 871.59 473.99
2879 0 90.1314 13.6245 1228 109.795 871.415 468.533
2880 0 93.2538 12.9003 1203 111.796 871.214 465.83
2881 0 98.1099 12.4045 1217 113.479 870.8 466.077
2882 0 99.1313 12.1657 1206 114.849 871.394 463.647
2883 0 103.116 12.6944 1309 114.05 871.608 463.437
2884 1 54.0359 11.2518 608 119.191 872.288 485.041
2885 0 58.1589 12.6378 735 114.581 871.411 481.861
2886 0 59.0553 12.2258 722 113.112 871.37 483.846
2887 0 63.0464 12.8318 809 112.037 870.787 482.287
2888 0 64.0229 12.433 796 112.937 870.735 481.661
2889 0 67.1494 13.254 890 109.216 870.809 479.821
2890 0 69.1105 12.9647 896 110.038 870.453 481.356
2891 0 70.05 12.1056 848 113.618 870.278 477.689
2892 0 70.0635 11.5324 808 114.979 871.16 477.743
2893 0 74.0777 13.1484 974 108.929 870.606 476.914
2894 0 75.1401 12.9624 974 110.147 871.171 474.131
2895 0 78.1716 12.69 992 106.14 871.161 471.168
2896 0 79.1003 10.9102 863 111.389 871.392 468.051
2897 0 83.112 12.441 1034 108.174 871.713 467.04
2898 0 85.1024 12.0091 1022 109.263 871.457 465.114
2899 0 89.1901 11.7838 1051 110.319 871.208 464.118
2900 0 90.2138 11.1956 1010 111.744 871.737 465.132
2901 0 92.1995 11.3016 1042 112.559 871.282 462.815
2902 0 96.2706 11.1976 1078 113.353 870.513 458.05
2903 0 101.221 11.5095 1165 115.439 870.642 458.873
2904 0 105.187 11.6554 1226 116.836 870.794 458.291
2905 0 110.3 11.6319 1283 118.262 870.844 454.275
2906 0 112.158 12.9639 1454 116.309 869.948 451.356
2907 1 54.0557 10.2672 555 112.477 871.085 485.508
2908 0 52.1268 9.36178 488 110.949 870.279 478.115
2909 0 54.055 8.69486 470 112.798 870.56 477.294
2910 0 59.0915 12.066 713 105.195 871.769 477.056
2911 0 59.0833 11.2214 663 110.41 873.676 475.709
2912 0 61.0856 10.7718 658 109.796 871.622 474.346
2913 0 61.0541 10.8592 663 113.961 869.609 474.303
2914 0 67.0827 12.0597 809 106.681 871.714 473.522
2915 0 70.0592 12.047 844 105.896 870.552 470.047
2916 0 71.0824 11.0998 789 109.179 871.8 468.227
2917 0 74.061 12.0846 895 107.859 870.839 469.534
2918 0 74.0815 11.0149 816 111.33 871.442 469.857
2919 0 80.1161 11.6581 934 110.175 871.074 469.091
2920 0 81.0966 12.3063 998 109.797 870.969 468.698
2921 0 85.1676 11.5302 982 112.504 871.254 466.435
2922 0 87.1002 13.5935 1184 110.285 870.753 463.655
2923 0 90.0663 12.191 1098 113.15 870.969 465.532
2924 0 92.0672 12.3823 1140 114.14 871.959 461.976
2925 0 95.2074 13.6754 1302 111.823 871.761 460.28
2926 0 95.1681 11.0856 1055 120.567 871.688 454.983
2927 0 101.158 12.4064 1255 116.602 871.588 457.147
2928 0 105.121 12.8994 1356 115.811 870.964 455.321
2929 0 112.193 13.0133 1460 116.462 870.951 448.101
2930 1 62.0349 11.8965 738 112.29 871.114 472.14
2931 0 62.0927 12.2398 760 110.38 871.386 475.933
2932 0 66.0895 11.5752 765 112.035 870.976 473.838
2933 0 67.0655 12.704 852 110.447 871.022 471.603
2934 0 70.1892 13.4636 945 108.321 871.149 472.855
2935 0 71.1288 12.7093 904 111.655 871.638 471.234
2936 0 76.0471 13.439 1022 110.62 870.822 467.002
2937 0 77.1232 12.7718 985 111.054 871.109 465.557
2938 0 81.1072 11.9472 969 111.831 870.904 466.266
2939 0 84.1416 12.3958 1043 110.783 871.034 466.493
2940 0 87.1071 13.6269 1187 107.415 870.825 463.904
2941 0 91.1318 12.8934 1175 108.727 870.87 463.412
2942 0 94.0881 14.2207 1338 106.325 870.007 461.61
2943 0 98.169 12.2747 1205 110.206 870.779 457.408
2944 0 101.132 11.6284 1176 111.425 870.492 457.436
2945 0 105.201 12.3193 1296 110.622 869.846 457.286
2946 0 112.11 13.1834 1478 110.781 870.578 456.023
2947 0 115.271 12.6659 1460 111.703 870.55 453.357
2948 1 61.0945 11.9651 731 110.186 870.399 480.851
2949 0 64.1098 11.1215 713 111.691 871.022 478.309
2950 0 67.0398 12.9923 871 106.02 870.793 479.342
2951 0 69.0788 12.5798 869 107.857 870.572 477.555
2952 0 71.0914 12.3503 878 108.456 869.679 476.444
2953 0 74.0913 12.903 956 107.119 870.682 476.789
2954 0 76.112 12.3765 942 109.45 870.628 474.587
2955 0 79.083 13.4289 1062 107.329 871.061 471.801
2956 0 81.1605 13.0975 1063 108.041 870.729 471.498
2957 0 85.0823 12.0707 1027 111.08 871.279 468.498
2958 0 87.1203 12.2933 1071 111.824 870.444 468.459
2959 0 90.1192 12.6721 1142 112.312 870.588 466.63
2960 0 91.0691 11.958 1089 115.107 870.711 466.388
2961 0 94.0888 11.9674 1126 114.05 870.498 461.792
2962 0 99.2266 11.7307 1164 115.521 870.081 460.561
2963 0 103.066 11.4587 1181 116.982 869.419 458.247
2964 0 106.086 11.2362 1192 118.348 869.711 456.409
2965 1 58.0707 11.2621 654 108.688 869.882 482.158
2966 0 59.1535 11.4448 677 114.134 870.728 479.343
2967 0 59.0494 11.1771 660 117.15 871.288 479.636
2968 0 61.0424 11.9425 729 115.823 871.698 478.837
2969 0 64.035 11.728 751 115.948 871.742 479.31
2970 0 65.0862 10.6167 691 120.302 871.601 474.557
2971 0 68.0217 11.4375 778 117.676 872.026 476.134
2972 0 68.0321 10.0688 685 122.305 872.099 473.164
2973 0 71.0269 10.672 758 120.942 871.625 472.826
2974 0 75.0808 11.441 859 117.611 871.052 472.312
2975 0 77.1657 10.6783 824 119.922 871.155 471.697
2976 0 80.0699 12.7514 1021 115.954 871.493 468.774
2977 0 83.1379 12.0643 1003 117.862 871.106 467.836
2978 0 86.1275 12.5976 1085 116.187 871.982 466.136
2979 0 86.0623 11.573 996 120.02 871.935 464.808
2980 0 91.0593 10.7512 979 120.121 871.803 465.831
2981 0 93.1932 11.1703 1041 120.728 871.506 462.01
2982 0 98.2963 10.9872 1080 121.052 871.428 462.169
2983 0 100.123 11.7255 1174 119.233 871.859 463.624
2984 0 105.105 11.4076 1199 119.525 871.452 461.99
2985 0 108.111 12.3669 1337 117.113 871.577 458.794
2986 1 57.0436 12.0084 685 111.164 870.826 484.111
2987 0 57.2429 10.01 573 115.986 871.157 483.176
2988 0 62.0596 11.1022 689 114.938 870.671 481.212
2989 0 63.1471 10.8794 687 116.608 870.077 479.112
2990 0 63.1005 12.4405 785 114.648 871.064 477.585
2991 0 65.1372 10.7926 703 118.309 870.632 476.071
2992 0 68.1932 12.2593 836 115.714 870.784 473.629
2993 0 70.0926 13.0114 912 113.688 870.874 474.405
2994 0 73.298 11.4191 837 118.613 871.133 471.667
2995 0 74.1438 12.732 944 115.273 870.269 474.464
2996 0 77.1988 13.109 1012 115.722 870.576 471.185
2997 0 76.1406 11.4656 873 121.953 870.958 470.472
2998 0 81.1949 12.7348 1034 117.739 871.251 470.423
2999 0 84.0411 12.5772 1057 118.409 870.781 469.377
3000 0 87.1964 12.2367 1067 119.809 870.892 468.306
3001 0 90.2105 12.6371 1140 119.789 870.501 466.138
3002 0 94.1824 12.3908 1167 119.74 870.561 466.143
3003 0 97.1414 12.8164 1245 117.232 870.937 464.593
3004 0 99.1814 12.8653 1276 117.921 870.774 464.582
3005 0 103.156 13.2033 1362 118.203 871.029 461.286
3006 0 108.105 14.3842 1555 115.723 870.605 457.332
3007 0 111.262 13.0593 1453 119.812 870.393 456.878
3008 0 115.345 14.2182 1640 116.979 870.014 456.339
3009 0 118.207 13.9331 1647 117.87 870.43 453.94
3010 1 66.1593 12.9838 859 109.773 870.74 482.568
3011 0 66.2091 12.1887 807 114.341 869.716 474.102
3012 0 68.1959 13.168 898 110.07 870.17 475.922
3013 0 70.1594 13.3981 940 109.412 869.801 472.728
3014 0 73.2397 12.3567 905 110.623 870.172 473.955
3015 0 76.1971 11.7983 899 112.447 870.868 473.82
3016 0 79.1733 12.2642 971 111.875 871.381 470.934
3017 0 82.2303 13.2068 1086 107.139 871.317 470.668
3018 0 86.2096 12.7364 1098 108.166 871.015 471.453
3019 0 88.1157 12.3361 1087 110.07 871.621 466.826
3020 0 90.2952 13.3562 1206 109.143 870.698 464.998
3021 0 93.3774 12.2192 1141 111.858 870.818 465.542
3022 0 95.1626 12.5575 1195 112.42 870.684 462.072
3023 0 100.139 11.484 1150 115.878 870.979 457.181
3024 0 102.26 12.2139 1249 114.681 870.902 458.06
3025 0 105.358 11.5511 1217 121.324 870.588 457.703
3026 0 111.3 13.2615 1476 113.711 870.345 454.424
3027 1 63.2317 11.45 724 111.396 871.017 480.372
3028 0 63.2013 10.9017 689 113.53 871.15 479.457
3029 0 66.1971 11.36 752 107.564 870.528 478.105
3030 0 67.0864 11.3436 761 109.118 870.405 476.239
3031 0 69.1175 11.0826 766 109.987 870.497 477.819
3032 0 72.1708 11.9162 860 108.692 870.598 477.465
3033 0 77.1699 12.5178 966 107.165 870.159 476.54
3034 0 77.0472 12.395 955 110.306 870.51 475.515
3035 0 80.1927 12.4325 997 112.491 870.611 472.704
3036 0 83.1224 12.5478 1043 113.502 871.143 469.633
3037 0 86.1295 12.2606 1056 114.513 871.433 468.996
3038 0 89.1823 14.2853 1274 110.62 870.779 468.12
3039 0 91.2756 13.1689 1202 114.696 871.364 465.096
3040 0 94.1322 13.566 1277 113.969 871.344 463.657
3041 0 96.2679 13.3586 1286 115.072 871.998 462.041
3042 0 100.311 12.5909 1263 117.138 871.497 461.854
3043 0 103.176 13.6562 1409 115.436 872.004 459.115
3044 0 106.275 14.2554 1515 115.002 872.261 457.046
3045 0 107.155 11.8053 1265 122.778 871.992 453.546
3046 0 114.198 14.5712 1664 109.178 871.876 454.306
3047 0 114.154 13.9723 1595 115.952 871.166 451.233
3048 0 117.168 14.5603 1706 116.998 871.57 454.186
3049 1 63.088 11.9991 757 105.417 871.889 480.984
3050 0 64.185 12.9469 831 111.409 872.832 476.381
3051 0 64.185 12.9158 829 134.514 873.84 476.355
3052 0 65.147 11.1133 724 121.751 871.819 477.586
3053 0 67.0931 13.2502 889 116.826 871.568 477.417
3054 0 68.1011 12.2465 834 118.372 871.451 478.415
3055 0 68.0884 11.441 779 121.433 871.602 476.11
3056 0 72.1039 12.8703 928 118.207 872.442 475.594
3057 0 76.1014 12.168 926 118.585 872.461 472.356
3058 0 78.1661 12.6014 985 115.406 871.888 473.11
3059 0 79.2841 12.184 966 117.229 872.402 468.181
3060 0 81.145 12.5208 1016 115.427 872.268 465.822
3061 0 84.1952 12.281 1034 115.416 872.229 466.48
3062 0 87.0452 11.27 981 116.499 872.023 467.585
3063 0 86.215 10.845 935 114.084 871.719 468.025
3064 0 89.1352 11.8584 1057 113.695 871.665 466.373
3065 0 92.0799 12.1959 1123 114.482 872.022 463.041
3066 0 95.0672 12.5595 1194 114.706 871.52 460.56
3067 1 52.0572 9.98902 520 111.183 870.76 485.26
3068 0 54.0751 10.356 560 112.088 870.738 485.682
3069 0 56.0947 11.1775 627 113.045 869.909 478.046
3070 0 57.0542 12.3041 702 113.791 870.719 482.597
3071 0 59.1377 11.9213 705 119.312 870.218 480.57
3072 0 61.0887 12.9484 791 117.408 870.391 479.812
3073 0 63.0545 12.3385 778 119.994 869.792 478.73
3074 0 62.0245 11.705 726 124.05 869.464 477.654
3075 0 66.0635 11.8068 780 123.097 869.6 476.323
3076 0 68.052 11.8733 808 124.381 869.209 474.288
3077 0 68.0341 10.7299 730 129.129 870.327 474.218
3078 0 71.0834 12.4361 884 125.601 869.819 474.303
3079 0 72.0463 12.6446 911 127.05 869.408 471.074
3080 0 73.0319 12.0358 879 130.98 869.684 470.11
3081 0 77.0792 12.4677 961 128.901 870.033 470.98
3082 0 79.036 12.2223 966 130.733 869.741 467.698
3083 0 82.0972 12.6557 1039 130.872 870.1 467.876
3084 0 83.1246 12.4271 1033 131.681 870.581 466.93
3085 0 85.0891 12.9511 1102 131.591 870.29 464.661
3086 0 87.0995 12.8703 1121 133.143 870.17 464.657
3087 0 91.1431 13.4404 1225 131.596 870.335 462.235
3088 0 91.0812 12.2748 1118 135.681 869.94 459.988
3089 0 94.1991 13.2379 1247 132.77 870.359 459.152
3090 0 97.1557 12.6704 1231 134.645 870.435 458.5
3091 0 101.103 14.2528 1441 128.6 870.135 458.228
3092 0 103.092 12.4937 1288 129.773 870.03 456.637
3093 0 105.133 13.2024 1388 130.355 870.928 452.347
3094 0 106.132 12.4279 1319 132.764 870.202 453.929
3095 0 109.144 12.314 1344 133.163 870.323 452.731
3096 0 117.068 13.5562 1587 128.125 870.705 449.51
3097 0 118.082 12.4406 1469 131.594 870.41 447.961
3098 0 123.134 13.0996 1613 130.384 870.97 443.839
3099 0 127.209 13.6626 1738 127.991 870.848 440.013
3100 0 133.234 12.752 1699 128.837 870.65 440.133
3101 0 137.369 13.7949 1895 127.277 871.149 436.175
3102 0 144.338 13.5931 1962 128.234 870.964 431.955
3103 0 147.369 14.7656 2176 126.3 870.27 427.891
3104 0 152.443 13.6248 2077 128.772 870.285 426.487
3105 0 159.257 13.9963 2229 127.5 870.663 420.915
3106 0 158.255 14.0469 2223 148.033 870.661 420.866
3107 0 168.213 13.6018 2288 128.227 871.344 414.637
3108 1 83.1196 9.84124 818 121.93 871.066 460.782
3109 0 87.1545 10.7051 933 121.223 871.567 458.247
3110 0 91.1466 13.8239 1260 113.289 871.935 457.267
3111 0 91.2317 13.4602 1228 114.96 871.957 456.3
3112 0 95.2124 12.4143 1182 116.992 871.321 453.959
3113 0 97.1106 12.4497 1209 117.257 872.446 455.895
3114 0 104.136 11.581 1206 117.667 872.979 452.468
3115 0 108.184 13.1813 1426 114.529 871.562 451.998
3116 0 113.107 12.749 1442 113.239 872.689 449.906
3117 0 116.119 11.738 1363 115.319 872.369 447.68
3118 1 54.0311 10.7346 580 105.169 873.095 480.664
3119 0 58.053 10.1803 591 103.827 872.117 477.198
3120 0 60.2198 10.744 647 110.645 871.884 480.629
3121 0 60.2206 11.0593 666 111.489 872.174 477.866
3122 0 63.2081 12.6724 801 107.821 871.928 478.884
3123 0 66.1281 11.2811 746 111.192 872.539 477.21
3124 0 64.3829 10.4065 670 115.657 872.546 475.23
3125 0 70.2828 13.3603 939 107.895 872.575 474.994
3126 0 72.2803 12.5207 905 110.328 872.388 474.21
3127 0 74.2417 13.1597 977 111.683 872.606 472.465
3128 0 75.1948 11.9024 895 115.687 872.737 471.359
3129 0 78.2233 10.9686 858 117.516 872.582 469.027
3130 0 79.4526 10.9499 870 118.263 872.408 466.549
3131 0 80.2397 11.2164 900 116.517 872.249 465.838
3132 0 83.2155 9.21703 767 112.228 872.872 470.287
3133 0 85.1897 9.696 826 112.167 871.994 465.406
3134 0 90.2232 8.33488 752 113.449 873.084 467.656
3135 0 92.344 10.0385 927 111.83 872.523 461.169
3136 0 94.1979 9.64989 909 112.409 872.685 461.277
3137 0 100.155 9.8847 990 111.983 871.727 459.972
3138 1 56.0322 10.7974 605 104.99 873.243 483.64
3139 0 57.0416 11.0621 631 108.41 873.273 481.128
3140 0 59.1467 11.5307 682 113.682 873.249 479.021
3141 0 60.2372 10.8571 654 116.208 872.576 477.558
3142 0 65.2191 12.251 799 111.443 872.382 478.245
3143 0 65.3014 12.9094 843 110.374 872.636 478.152
3144 0 67.2223 12.9273 869 111.227 873.021 475.59
3145 0 70.3946 12.6714 892 111.353 873.377 475.379
3146 0 71.2298 11.9473 851 113.652 872.879 474.865
3147 0 73.3216 12.6566 928 112.242 872.957 473.066
3148 0 73.3326 11.9183 874 115.048 872.569 470.388
3149 0 76.2566 11.6842 891 114.698 872.881 469.973
3150 0 78.2385 12.4619 975 112.641 873.032 471.78
3151 0 82.3341 13.8825 1143 108.146 872.674 471.095
3152 0 82.3372 12.716 1047 111.853 873.316 468.3
3153 0 84.3536 12.7558 1076 112 872.529 468.399
3154 0 88.3646 12.1995 1078 113.833 872.48 464.973
3155 0 91.2086 13.2005 1204 108.822 872.541 466.081
3156 0 93.3694 13.3877 1250 109.058 872.25 462.474
3157 0 96.2884 12.6807 1221 111.042 872.103 459.853
3158 0 97.2611 11.4948 1118 107.301 871.984 458.207
3159 0 102.174 13.7511 1405 103.167 872.061 457.996
3160 0 105.319 12.277 1293 106.971 871.493 457.507
3161 0 106.276 12.0158 1277 109.84 872.092 455.709
3162 0 110.302 11.7133 1292 110.697 871.735 455.386
3163 0 113.2 12.0759 1367 110.312 871.89 453.792
3164 0 117.254 12.3407 1447 110.536 871.775 453.721
3165 0 120.262 12.3896 1490 111.444 871.66 447.706
3166 0 125.34 12.869 1613 110.851 872.102 445.828
3167 0 128.443 13.0408 1675 112.662 871.714 442.439
3168 1 73.2124 9.77977 716 107.676 871.561 473.151
3169 0 75.2507 10.8969 820 108.779 872.463 470.467
3170 0 77.322 12.8553 994 108.014 871.713 467.297
3171 0 79.1891 11.8703 940 111.283 871.488 468.995
3172 0 81.3037 12.7915 1040 112.797 870.808 465.943
3173 0 84.1974 12.732 1072 113.891 871.325 465.413
3174 0 86.1966 13.5504 1168 111.356 871.227 466.773
3175 0 87.3859 12.2331 1069 116.695 871.768 463.24
3176 0 90.4882 12.1231 1097 117.022 871.614 463.673
3177 0 94.3442 14.0337 1324 112.901 870.655 462.516
3178 0 96.4605 12.9276 1247 116.531 870.925 461.004
3179 0 98.3314 12.5189 1231 118.847 871.218 458.867
3180 0 102.313 14.1429 1447 113.985 870.059 457.209
3181 0 104.396 12.7208 1328 118.651 870.068 456.052
3182 0 108.29 13.3161 1442 116.936 869.82 452.484
3183 0 110.343 12.5427 1384 119.533 870.334 448.212
3184 0 111.58 12.4037 1384 119.979 869.999 449.475
3185 0 117.277 13.3871 1570 114.304 870.196 446.697
3186 0 120.295 12.3696 1488 118.502 870.299 442.291
3187 0 125.37 12.2358 1534 118.354 870.026 448.761
3188 1 72.2564 9.57701 692 118.646 870.097 472.007
3189 0 75.3371 11.4286 861 114.143 870.697 471.857
3190 0 76.2381 11.7658 897 114.249 870.567 467.406
3191 0 79.181 12.2757 972 112.237 870.501 467.362
3192 0 78.1547 10.6711 834 121.139 871.187 458.752
3193 0 81.3483 10.326 840 120.092 870.898 458.867
3194 0 84.1612 12.5117 1053 114.594 870.746 459.16
3195 0 88.1975 12.8802 1136 113.82 871.001 458.372
3196 0 88.197 12.8462 1133 135.616 872.012 458.413
3197 0 92.258 11.9014 1098 118.061 870.832 455.489
3198 0 86.1459 11.051 952 125.162 870.838 449.004
3199 0 97.2054 10.3389 1005 123.323 870.451 448.777
3200 0 97.2273 11.612 1129 122.236 870.435 448.551
3201 0 99.1854 12.1893 1209 122.18 869.966 446.652
3202 0 107.433 12.4356 1336 118.613 869.713 446.656
3203 0 112.446 13.0552 1468 116.542 869.563 446.99
3204 0 114.168 11.2729 1287 119.24 870.253 448.316
3205 0 119.25 11.9581 1426 118.185 869.568 446.511
3206 1 69.203 9.86951 683 109.072 870.659 473.419
3207 0 70.2656 10.2184 718 113.329 870.88 474.501
3208 0 75.0942 11.1726 839 106.273 869.757 474.731
3209 0 77.0829 10.5341 812 108.085 869.686 471.454
3210 0 80.1959 12.3074 987 103.963 869.932 469.435
3211 0 83.2174 12.3652 1029 103.08 870.859 468.217
3212 0 85.1669 11.2015 954 106.644 871.584 465.591
3213 0 85.2291 11.1582 951 107.001 870.994 467.862
3214 0 89.3153 11.1291 994 107.463 871.04 464.902
3215 0 91.2689 10.617 969 108.592 870.802 463.981
3216 0 93.1954 9.95757 928 110.941 870.716 462.227
3217 0 97.2354 11.5184 1120 107.771 870.588 460.136
3218 0 101.282 11.6901 1184 108.285 870.561 459.665
3219 0 103.284 12.3155 1272 107.422 870.105 459.462
3220 0 105.208 12.309 1295 109.412 870.198 457.155
3221 0 106.347 11.3026 1202 115.553 870.126 452.731
3222 0 110.349 10.8293 1195 117.815 870.137 450.025
3223 0 116.238 11.7604 1367 116.832 869.814 452.639
3224 0 118.354 13.4089 1587 114.738 869.829 448.669
3225 0 120.24 10.4873 1261 122.886 869.695 449.704
3226 0 125.264 12.5256 1569 117.222 870.744 449.152
3227 0 129.286 12.4298 1607 119.754 870.283 442.951
3228 0 131.251 12.2056 1602 122.984 870.095 440.244
3229 0 137.346 14.0376 1928 118.057 870.792 442.379
3230 0 139.582 11.8783 1658 124.409 870.356 434.446
3231 1 80.238 10.3691 832 119.632 870.15 463.339
3232 0 83.2445 11.4362 952 114.589 871.026 466.409
3233 0 83.1848 9.01608 750 115.375 870.596 463.664
3234 0 87.181 10.3692 904 110.612 869.451 463.978
3235 0 89.2056 9.87607 881 113.006 870.397 463.585
3236 0 94.1634 11.9155 1122 109.915 870.584 463.853
3237 0 96.2354 11.8771 1143 111.161 870.647 460.615
3238 0 99.1593 12.3438 1224 110.392 871.236 461.032
3239 0 103.237 12.4374 1284 110.886 870.93 460.566
3240 0 104.107 12.0453 1254 114.454 870.53 455.242
3241 0 108.2 11.8485 1282 115.701 870.778 455.783
3242 0 112.092 12.4005 1390 115.784 870.447 453.675
3243 0 114.129 12.0828 1379 119.811 869.92 450.944
3244 0 116.107 12.4282 1443 124.185 870.55 453.886
3245 0 118.132 11.3432 1340 130.819 870.427 450.76
3246 0 122.099 11.7609 1436 130.12 870.076 447.891
3247 0 125.33 12.9419 1622 128.642 871.239 446.012
3248 0 130.34 13.2883 1732 129.622 871.123 440.066
3249 0 134.312 13.357 1794 130.749 871.084 438.912
3250 0 140.306 12.4727 1750 134.812 870.101 437.206
3251 1 80.1833 11.3989 914 120.313 871.09 468.975
3252 0 83.2022 10.3603 862 122.236 871.646 470.05
3253 0 84.1086 10.6053 892 122.642 872.029 467.722
3254 0 87.1603 11.4158 995 121.168 871.666 463.837
3255 0 90.1414 10.894 982 121.991 871.722 465.18
3256 0 94.149 11.9173 1122 119.998 871.664 462.873
3257 0 94.172 10.81 1018 124.414 871.287 460.032
3258 0 95.1832 10.9893 1046 125.569 871.745 456.205
3259 0 102.165 10.7179 1095 125.366 871.765 459.991
3260 0 104.21 11.6016 1209 124.188 871.47 457.948
3261 0 107.214 11.8548 1271 123.3 871.532 454.1
3262 0 109.204 11.071 1209 127.567 871.872 453.702
3263 0 113.292 11.6336 1318 126.446 871.608 451.121
3264 0 116.236 12.1563 1413 124.76 871.616 449.894
3265 0 119.351 12.1239 1447 125.91 871.308 448.103
3266 0 123.301 12.9926 1602 125.024 871.194 445.599
3267 0 126.282 12.2187 1543 128.634 871.204 444.265
3268 0 130.172 11.9534 1556 122.175 870.259 442.424
3269 1 70.1348 10.1804 714 117.742 870.748 470.514
3270 0 73.1534 10.6215 777 117.736 870.466 461.843
3271 0 74.1353 10.6967 793 117.035 870.417 462.018
3272 0 76.1844 9.93641 757 116.346 870.704 468.363
3273 0 80.1101 11.9585 958 111.588 869.946 467.316
3274 0 82.0724 12.4768 1024 110.521 870.191 466.556
3275 0 85.0844 11.3064 962 112.748 870.363 464.469
3276 0 86.131 12.005 1034 111.334 870.072 463.613
3277 0 91.1699 11.9447 1089 110.632 870.294 463.947
3278 0 90.0965 11.6653 1051 112.872 870.099 460.01
3279 0 95.0997 12.3449 1174 110.773 870.728 457.658
3280 0 99.0616 12.0632 1195 111.829 870.295 457.372
3281 0 101.15 12.9214 1307 110.985 870.796 457.969
3282 0 105.241 13.6259 1434 109.499 870.838 455.948
3283 0 109.326 12.9338 1414 110.624 870.774 453.02
3284 0 111.28 12.8325 1428 111.056 870.485 453.981
3285 0 113.245 12.8571 1456 111.263 870.587 453.554
3286 0 117.224 11.815 1385 114.435 870.469 451.093
3287 0 122.145 12.3051 1503 113.769 870.214 445.496
3288 0 122.158 11.4033 1393 116.363 869.369 443.56
3289 0 129.209 12.5688 1624 114.725 870.791 439.093
3290 1 73.12 11.2281 821 112.6 870.46 466.515
3291 0 77.2069 12.0715 932 109.333 871.767 469.156
3292 0 82.0854 11.8291 971 110.378 871.999 464.354
3293 0 83.1662 11.9399 993 109.407 872.398 461.943
3294 0 85.1591 13.4689 1147 106.398 872.384 462.454
3295 0 87.1081 11.17 973 112.141 872.388 459.999
3296 0 88.0792 12.5001 1101 109.51 872.51 457.607
3297 0 91.1198 11.3696 1036 113.317 872.339 453.583
3298 0 97.2355 12.4132 1207 109.517 872.299 455.997
3299 0 97.0527 11.8183 1147 112.658 872.295 452.056
3300 0 105.309 13.3132 1402 108.631 872.659 453.695
3301 0 108.265 12.4325 1346 114.078 872.273 450.064
3302 0 110.167 11.9183 1313 116.039 872.333 447.65
3303 0 114.33 11.1344 1273 117.705 871.626 446.067
3304 1 65.1695 11.0021 717 112.734 872.538 471.351
3305 0 62.2478 10.4261 649 116.099 872.18 467.285
3306 0 68.5319 10.1267 694 112.903 871.761 468.343
3307 0 69.3697 9.39892 652 113.765 871.978 467.761
3308 0 74.4335 10.6135 790 110.575 872.297 467.522
3309 0 75.3854 10.0019 754 113.032 872.211 465.26
3310 0 78.2557 10.7724 843 111.134 872.323 465.73
3311 0 82.2738 9.82087 808 112.678 872.13 463.678
3312 0 85.2829 11.3856 971 109.434 872.674 465.16
3313 0 87.4729 11.3864 996 110.313 872.22 462.66
3314 0 92.3332 11.9242 1101 108.927 872.637 465.805
3315 0 93.0842 12.537 1167 108.987 871.553 462.903
3316 0 96.2141 13.1166 1262 106.882 872.298 461.327
3317 0 99.222 12.205 1211 109.34 872.852 457.346
3318 0 102.311 11.9342 1221 110.49 873.199 458.336
3319 0 105.29 10.7418 1131 113.973 873.324 456.65
3320 0 110.283 11.8242 1304 111.799 872.999 454.873
3321 0 113.271 10.1262 1147 115.663 873.157 452.183
3322 1 64.1311 11.5233 739 105.093 873.402 479.299
3323 0 65.1574 10.6511 694 109.277 873.079 478.628
3324 0 68.1671 10.5476 719 105.633 872.641 476.239
3325 0 69.2004 11.0982 768 106.359 872.161 473.156
3326 0 71.2251 12.3412 879 103.279 871.834 474.493
3327 0 73.2225 12.0455 882 103.896 871.942 472.164
3328 0 74.4341 11.0165 820 106.445 871.678 471.756
3329 0 79.2642 11.8843 942 103.512 871.644 467.607
3330 0 81.2073 12.2156 992 102.754 871.624 470.779
3331 0 84.3298 11.9768 1010 103.865 871.252 466.504
3332 0 86.2807 11.706 1010 104.497 871.755 467.878
3333 0 90.33 11.9229 1077 104.252 871.895 467.737
3334 0 90.2407 12.378 1117 105.442 871.527 465.19
3335 0 92.2342 10.2782 948 111.738 871.579 461.51
3336 0 96.3396 11.3972 1098 110.046 871.718 459.958
3337 0 99.2577 11.5356 1145 111.375 872.478 458.857
3338 0 102.309 12.7164 1301 110.715 871.745 456.518
3339 0 106.33 10.7872 1147 114.521 871.729 458.07
3340 0 108.251 11.8891 1287 113.658 871.213 453.309
3341 0 111.28 12.4282 1383 113.259 870.727 452.821
3342 0 114.332 10.6619 1219 118.658 870.565 453.12
3343 0 117.44 11.674 1371 118.046 871.147 448.4
3344 0 121.266 12.4273 1507 117.823 871.034 447.027
3345 0 123.248 11.6675 1438 120.045 870.506 446.362
3346 0 128.193 11.5529 1481 121.61 871.045 443.866
3347 0 134.296 12.5097 1680 118.649 871.293 444.457
3348 0 138.462 12.1694 1685 120.412 870.929 438.564
3349 0 143.266 13.4924 1933 117.439 870.616 436.534
3350 0 148.31 12.9121 1915 118.917 871.234 434.839
3351 1 82.1496 10.347 850 114.58 870.908 469.726
3352 0 86.1401 11.1446 960 112.576 870.994 468.885
3353 0 90.1469 12.3354 1112 111.455 871.975 465.059
3354 0 94.2082 10.9332 1030 115.083 872.009 465.874
3355 0 94.2905 12.5039 1179 113.603 871.729 465.186
3356 0 97.2638 12.7385 1239 115.311 871.966 460.738
3357 0 100.225 12.1527 1218 116.401 871.92 462.69
3358 0 102.161 12.6271 1290 116.943 872.256 458.064
3359 0 104.231 12.8081 1335 117.691 871.625 456.521
3360 0 109.297 12.3608 1351 119.21 872.047 455.514
3361 0 111.238 10.0236 1115 124.004 872.454 458.116
3362 0 116.441 12.1778 1418 121.257 872.161 452.335
3363 0 119.261 13.0303 1554 119.542 872.448 451.396
3364 0 118.371 10.6952 1266 125.894 871.983 452.991
3365 0 126.458 11.4268 1445 124.482 872.345 448.445
3366 0 131.418 11.3911 1497 124.271 871.379 449.265
3367 0 135.416 12.5613 1701 122.752 870.999 444.279
3368 0 140.437 12.0552 1693 123.729 871.272 442.898
3369 0 144.498 13.1282 1897 122.178 871.599 436.382
3370 0 150.733 11.3644 1713 126.208 870.891 434.374
3371 0 156.487 15.9502 2496 114.933 871.189 428.254
3372 0 157.374 12.5815 1980 125.478 870.488 426.98
3373 0 164.51 13.2393 2178 123.852 871.243 424.967
3374 0 169.443 11.7267 1987 126.648 871.135 427.661
3375 0 173.287 12.4764 2162 127.512 871.55 419.611
3376 1 95.3151 11.2469 1072 123.686 871.478 455.223
3377 0 101.224 12.2797 1243 121.342 871.17 453.37
3378 0 105.375 13.656 1439 118.263 871.477 451.246
3379 0 108.331 13.6803 1482 117.316 870.803 452.54
3380 0 111.439 12.2937 1370 122.558 871.804 449.642
3381 0 114.284 13.2915 1519 120.394 871.841 443.001
3382 0 118.413 12.5831 1490 121.854 872.04 447.295
3383 0 123.319 13.4853 1663 118.607 871.638 446.313
3384 0 126.376 12.629 1596 122.204 871.226 440.624
3385 0 129.413 12.2862 1590 124.652 871.633 440.126
3386 0 132.342 12.3241 1631 124.931 871.14 436.858
3387 0 140.397 13.8963 1951 119.897 870.722 430.368
3388 0 141.352 13.0384 1843 123.355 870.232 432.169
3389 0 148.392 14.1517 2100 120.632 870.441 428.972
3390 0 155.29 12.4928 1940 123.637 870.841 428.178
3391 0 158.263 12.8457 2033 123.765 870.683 425.144
3392 0 163.253 12.9554 2115 124.565 871.051 423.182
3393 0 167.392 13.0472 2184 125.635 870.595 417.516
3394 0 172.419 12.9858 2239 126.355 870.606 415.878
3395 0 181.378 13.618 2470 124.879 870.733 415.215
3396 0 188.372 13.9989 2637 125.384 870.778 407.806
3397 0 189.347 12.5009 2367 130.152 870.413 405.228
3398 1 108.24 11.3175 1225 122.873 871.226 446.763
3399 0 108.233 11.2627 1219 146.084 871.242 446.672
3400 0 116.303 11.7194 1363 119.901 871.122 444.358
3401 0 115.301 10.1473 1170 125.839 870.96 441.245
3402 0 121.287 11.2955 1370 121.874 871.401 442.65
3403 0 129.263 13.2056 1707 117.291 871.147 437.156
3404 0 128.181 12.2171 1566 122.198 871.062 428.819
3405 0 137.2 13.4767 1849 117.07 871.912 432.707
3406 0 145.226 13.4136 1948 116.848 871.716 431.792
3407 0 144.289 11.2898 1629 123.634 871.77 425.88
3408 1 85.2266 11.0294 940 119.443 870.373 458.423
3409 0 89.3897 12.7755 1142 115.469 871.19 459.767
3410 0 93.1101 13.3176 1240 112.797 872.567 458.988
3411 0 92.1 12.1173 1116 117.994 872.215 454.116
3412 0 98.1643 12.6828 1245 116.445 871.97 454.059
3413 0 98.1861 11.7837 1157 120.381 872.755 451.161
3414 0 103.136 13.458 1388 116.627 872.053 450.13
3415 0 104.13 12.2923 1280 121.42 871.57 447.03
3416 0 108.229 12.6583 1370 121.187 870.804 444.883
3417 0 112.215 12.3246 1383 122.601 870.636 442.398
3418 0 115.15 12.7313 1466 122.966 870.752 440.652
3419 0 115.172 12.147 1399 126.157 871.222 436.556
3420 0 124.568 13.1334 1636 122.236 870.472 437.552
3421 0 126.239 13.2526 1673 123.8 870.82 435.931
3422 0 129.35 12.7252 1646 126.832 870.419 432.646
3423 0 134.255 12.9753 1742 126.098 870.888 432.741
3424 0 134.15 11.7108 1571 131.878 870.684 428.139
3425 0 143.231 12.5741 1801 129.857 870.341 423.908
3426 0 146.418 11.3169 1657 133.722 870.664 424.218
3427 0 155.543 13.3661 2079 127.927 870.469 423.641
3428 0 160.368 12.7582 2046 131.851 870.803 417.379
3429 0 165.324 14.1964 2347 129.175 870.551 416.726
3430 0 169.46 13.0532 2212 131.383 871.573 415.182
3431 0 176.465 13.0848 2309 130.765 871.49 414.922
3432 0 182.38 14.6617 2674 127.97 871.355 409.105
3433 0 187.53 13.2299 2481 131.631 870.962 410.476
3434 0 193.534 14.1267 2734 131.23 871.565 404.034
3435 0 198.425 13.8995 2758 133.196 871.909 399.792
3436 0 204.373 13.079 2673 135.399 871.746 399.662
3437 0 212.389 14.1297 3001 133.201 871.436 395.615
3438 0 217.308 13.2024 2869 136.905 871.479 392.704
3439 0 225.363 14.5366 3276 133.587 871.453 386.723
3440 0 233.555 14.1337 3301 133.714 871.151 385.044
3441 0 243.224 13.9008 3381 134.546 870.77 378.662
3442 0 248.483 14.8823 3698 132.094 871.405 376.375
3443 0 249.314 12.0009 2992 137.819 871.034 382.435
3444 1 60.2031 10.3151 621 107.731 870.196 471.227
3445 0 63.425 9.933 630 107.127 871.554 472.711
3446 0 63.6384 9.44399 601 109.609 871.619 469.077
3447 0 61.2086 9.99859 612 110.219 871.495 470.551
3448 0 64.1242 10.0118 642 110.788 869.829 471.687
3449 0 65.2241 11.1308 726 108.729 870.731 469.596
3450 0 68.2552 10.241 699 111.82 870.239 465.924
3451 0 69.2891 11.5314 799 109.229 870.613 464.831
3452 0 72.1887 11.9963 866 108.762 870.924 463.236
3453 0 74.1585 11.6777 866 110.24 871.014 458.931
3454 0 70.1616 9.77743 686 118.226 870.767 456.974
3455 0 77.4316 10.5512 817 114.772 871.355 459.352
3456 0 78.2558 11.488 899 113.717 870.442 459.207
3457 0 80.3852 12.5521 1009 110.707 869.786 456.698
3458 0 83.267 10.5924 882 114.972 869.734 455.203
3459 0 86.2372 13.2657 1144 108.351 870.031 452.958
3460 0 89.3495 10.6884 955 115.258 870.053 451.536
3461 0 93.4753 12.3669 1156 110.378 870.131 451.807
3462 0 96.5745 12.6638 1223 110.377 869.377 448.593
3463 1 378.657 10.1913 3859 145.047 869.458 307.932
3464 1 265.51 5.36325 1424 137.936 869.862 382.664
3465 0 272.215 6.5022 1770 96.0859 869.924 421.284
3466 0 114.594 14.6779 1682 101.988 870.021 445.757
3467 0 118.557 15.326 1817 100.351 869.711 444.421
3468 0 119.659 14.1401 1692 104.731 869.799 442.968
3469 0 121.536 14.0535 1708 105.706 869.888 442.034
3470 0 127.584 15.19 1938 102.045 868.843 440.198
3471 0 127.378 14.2882 1820 105.831 869.506 438.832
3472 0 130.349 14.1543 1845 106.873 869.701 438.446
3473 0 134.584 15.5219 2089 104.375 869.348 435.854
3474 0 136.554 13.0571 1783 111.138 869.504 432.976
3475 0 140.521 13.7417 1931 110.289 869.719 429.378
3476 0 145.693 15.7248 2291 105.463 870.085 428.247
3477 0 151.602 14.7558 2237 107.574 869.583 426.345
3478 0 155.37 15.3826 2390 106.273 869.412 425.241
3479 1 94.3387 11.6389 1098 112.582 869.54 457.132
3480 0 96.2276 12.6991 1222 113.294 870.008 452.886
3481 0 96.227 11.1715 1075 118.741 869.854 450.768
3482 0 101.27 13.8738 1405 110.213 869.492 453.013
3483 0 104.222 13.1162 1367 113.931 870.306 448.419
3484 0 105.298 13.0107 1370 115.468 870.347 447.617
3485 0 109.324 12.8883 1409 116.067 870.373 446.889
3486 0 112.266 12.2299 1373 119.044 869.872 446.175
3487 0 113.369 12.0756 1369 122.037 869.465 442.46
3488 0 119.251 12.7713 1523 120.129 869.898 440.743
3489 0 123.206 12.7754 1574 120.708 869.683 441.409
3490 0 125.236 13.9417 1746 118.884 869.767 436.462
3491 0 127.235 12.5044 1591 124.878 870.084 432.161
3492 0 131.339 13.3852 1758 122.685 869.638 434.213
3493 0 136.282 13.5087 1841 122.742 869.692 433.04
3494 0 139.317 13.9107 1938 123.513 870.131 427.795
3495 0 140.427 12.6828 1781 128.07 869.993 426.867
3496 0 147.474 13.2227 1950 127.155 870.031 424.56
3497 0 151.29 13.0148 1969 130.519 869.687 420.292
3498 0 155.349 13.3635 2076 129.651 869.715 416.051
3499 0 159.234 14.262 2271 127.71 870.183 417.428
3500 0 164.237 13.584 2231 131.031 869.534 414.337
3501 0 172.269 13.4847 2323 130.814 869.428 408.863
3502 0 171.346 13.1022 2245 135.441 869.882 403.739
3503 0 181.419 13.4055 2432 132.89 870.028 405.17
3504 0 185.29 14.2318 2637 131.617 870.236 403.897
3505 0 190.411 13.8385 2635 133.841 870.052 398.015
3506 0 192.298 13.8535 2664 136.141 869.876 389.796
3507 0 201.482 13.5198 2724 136.342 869.764 390.889
3508 0 210.384 14.2169 2991 134.241 869.861 387.056
3509 0 208.368 14.5512 3032 135.839 870.567 384.383
3510 1 22.0377 3.72089 82 85.7927 872.195 491.317
3511 0 23.0882 5.67389 131 84.2137 871.954 490.702
3512 0 22.0319 1.45244 32 89.2812 872 492.156
3513 0 19 0.526316 10 91.8 871.4 494.1
3514 0 22.0319 4.85659 107 84.514 872.037 489.935
3515 0 21.0036 1.7616 37 87.4324 872.432 494.054
3516 0 22.0188 2.99743 66 87.303 872.136 490.727
3517 0 22.0588 4.17067 92 87.25 871.674 490.609
3518 0 20.0103 2.19887 44 90.4773 871.614 487.318
3519 1 299.391 15.3746 4603 137.232 870.25 343.112
3520 0 302.407 14.6326 4425 140.667 870.204 334.279
3521 0 315.372 15.1503 4778 138.27 869.989 322.071
3522 0 326.678 15.7158 5134 136.534 869.743 318.826
3523 0 332.461 14.6874 4883 140.724 870.312 313.027
3524 1 303.412 11.1729 3390 152.756 869.983 327.494
3525 0 323.454 16.6608 5389 138.692 870.772 296.058
3526 0 330.575 16.6286 5497 139.904 870.75 291.284
3527 0 342.726 16.3396 5600 141.936 870.037 286.55
3528 0 344.532 13.1802 4541 150.324 870.253 297.753
3529 0 341.537 12.3588 4221 152.403 870.545 300.294
3530 0 313.495 14.5297 4555 140.348 871.097 308.083
3531 0 290.57 17.0183 4945 136.386 870.89 307.855
3532 0 302.581 17.0764 5167 136.401 871.292 300.837
3533 0 313.603 17.0949 5361 136.432 871.272 294.532
3534 0 320.502 15.9032 5097 141.077 871.368 287.633
3535 0 337.606 16.1016 5436 140.112 871.637 277.089
3536 1 142.518 7.2131 1028 133.259 871.621 405.362
3537 0 139.292 6.61203 921 136.9 871.328 401.801
3538 0 140.467 10.7 1503 129.479 871.53 391.075
3539 1 188.512 11.6279 2192 118.053 870.817 403.271
3540 0 180.485 8.62677 1557 131.082 871.31 384.275
3541 0 201.445 14.3662 2894 110.058 870.844 397.372
3542 0 206.691 14.8289 3065 109.157 870.749 398.353
3543 0 211.592 14.7501 3121 102.202 871.3 390.328
3544 0 216.527 15.1852 3288 110.357 870.866 388.347
3545 0 224.657 15.1164 3396 110.809 871.243 387.113
3546 0 228.399 14.9213 3408 112.213 871.316 386.167
3547 0 234.596 14.233 3339 114.876 870.502 378.145
3548 0 242.589 17.3545 4210 106.624 870.715 377.56
3549 0 246.398 15.341 3780 112.831 871.008 373.88
3550 0 251.565 13.7102 3449 117.606 871.178 370.277
3551 0 258.594 13.6121 3520 118.8 870.983 359.052
3552 0 267.667 15.0374 4025 115.243 871.186 363.145
3553 0 273.547 14.9152 4080 116.926 870.886 355.45
3554 0 282.655 14.5902 4124 118.961 870.674 349.54
3555 0 288.573 16.4153 4737 114.026 871.5 351.353
3556 1 209.422 10.338 2165 124.717 870.667 386.756
3557 0 215.441 10.8939 2347 124.161 870.441 383.056
3558 0 223.438 11.4081 2549 121.895 870.175 385.217
3559 0 228.377 11.2796 2576 123.165 870.637 379.263
3560 0 235.511 12.6448 2978 119.964 870.712 377.777
3561 0 239.282 11.6306 2783 121.724 870.377 381.206
3562 0 246.235 11.7692 2898 123.024 870.315 372.881
3563 0 251.386 11.9776 3011 123.479 870.377 365.982
3564 0 257.323 10.7647 2770 127.694 870.526 354.765
3565 0 263.401 12.1032 3188 123.515 870.741 360.644
3566 0 271.466 13.2724 3603 120.727 870.107 349.752
3567 0 270.434 10.2243 2765 128.878 870.639 350.128
3568 0 272.376 8.64982 2356 132.004 870.62 354.84
3569 1 19.016 5.10097 97 84.8557 870.021 486.361
3570 0 24.0068 2.91584 70 86.2571 869.7 491.429
3571 0 34.011 1.2937 44 89.4773 869.841 482.182
3572 0 40.0396 1.59842 64 87.5156 870.062 477.406
3573 0 43.0073 3.60404 155 84.0129 871.336 481.968
3574 0 39.0379 3.76557 147 81.6531 871.292 484.034
3575 0 40.0182 2.34893 94 84.5532 871.606 484.808
3576 0 38.006 1.55239 59 85.4576 872.034 479.254
3577 0 41.027 1.97431 81 83.358 873 482.383
3578 1 12.0036 4.33202 52 80.7115 873.231 473.596
3579 1 30.0074 1.76623 53 82.6415 873.245 480.717
3580 0 36.0111 1.02746 37 85.5946 873.919 481.757
3581 0 38.0488 3.60064 137 80.781 874.256 479.489
3582 1 0 0 0 -nan -nan -nan
3583 1 0 0 2.12291e-313 -nan 1.2732e-313 8.51533e-317
3584 1 33.0667 1.93548 64 82.1406 874.781 484.656
3585 0 37.0629 5.47717 203 77.3448 873.975 481.522
3586 0 0 0 0 -nan -nan -nan
3587 0 46.0837 4.73053 218 78.0917 874.5 480.321
3588 0 46.2109 6.25393 289 78.1938 873.692 481.121
3589 0 48.2977 4.82424 233 86.2489 873.047 478.09
3590 0 49.3425 6.60688 326 89.1748 872.767 475.761
3591 1 70.6418 5.86055 414 93.0652 872.239 477.826
3592 0 69.5786 6.61123 460 96.3065 872.576 479.176
3593 0 68.5749 7.43712 510 97.0078 872.133 473.58
3594 0 68.3944 6.78418 464 103.802 872.571 476.496
3595 0 59.0769 13.5417 800 72.605 873.759 487.969
3596 0 58.197 12.6811 738 75.0718 873.359 487.13
3597 0 59.1891 14.2594 844 76.3069 874.398 486.25
3598 0 58.1142 12.9917 755 82.0132 874.999 484.356
3599 0 60.1225 13.2064 794 82.0126 874.225 485.142
3600 0 60.173 13.9764 841 82.3496 874.183 483.958
3601 0 61.0808 15.1439 925 80.6 874.394 483.463
3602 0 60.1534 14.1804 853 84.0856 874.56 484.278
3603 0 60.1135 15.4874 931 83.9592 874.69 484.98
3604 0 61.1483 15.6668 958 84.5365 874.866 483.303
3605 0 60.1424 15.7293 946 84.7833 874.702 481.952
3606 0 63.2592 14.9385 945 85.5259 874.411 482.055
3607 0 61.2507 15.51 950 86.9368 875.101 476.506
3608 0 63.0809 15.8368 999 85.2462 875.05 482.639
3609 0 63.1594 16.6088 1049 84.9485 875.15 479.09
3610 0 62.1838 16.2583 1011 86.541 875.123 482.075
3611 0 61.143 15.5046 948 88.8797 875.089 476.89
3612 0 62.1503 16.6371 1034 86.8801 874.676 476.916
3613 0 62.1233 15.2761 949 85.4953 874.178 478.387
3614 0 62.1516 14.1268 878 88.3417 874.57 478.608
3615 0 65.2145 15.6867 1023 83.3773 874.907 480.797
3616 0 63.1842 16.349 1033 84.1394 874.99 473.63
3617 0 65.1948 15.6301 1019 84.1698 874.9 477.698
3618 0 63.1635 16.5285 1044 83.2912 875.645 480.464
3619 0 64.3373 16.7399 1077 82.8319 874.295 477.119
3620 0 64.2927 14.574 937 88.3468 874.612 471.393
