time division length width area intensity CMx CMy
0 0 29.0469 11.3954 331 172.227 808.474 487.115
1 0 31.0214 12.3463 383 166.909 808.903 486.603
2 0 30.1022 12.524 377 168.202 808.016 486.753
3 0 32.0845 12.1554 390 171.09 807.759 485.733
4 0 33.0492 12.7991 423 166.728 808.39 485.548
5 0 32.029 12.676 406 164.232 809.089 486.438
6 0 33.0723 12.8809 426 162.239 808.505 485.469
7 0 33.0483 13.1625 435 168.225 808.244 485.664
8 0 34.0293 12.4892 425 160.826 808.132 486.612
9 0 34.0151 13.347 454 155.608 808.452 486.251
10 0 37.0875 14.1018 523 150.929 808.893 486.01
11 0 37.0586 14.2207 527 154.082 809.171 485.467
12 0 38.1032 13.6996 522 157.354 808.925 484.255
13 0 38.0796 13.5506 516 156.983 808.975 485.81
14 0 39.0229 13.633 532 158.472 808.532 485.566
15 0 42.0381 14.1776 596 154.24 807.772 484.312
16 0 42.0492 14.0074 589 155.978 808.01 484.74
17 0 44.0359 13.9432 614 155.687 807.686 484.098
18 0 46.0307 14.3817 662 153.092 807.529 483.778
19 0 46.0268 13.5356 623 157.181 807.814 484.23
20 0 46.0165 14.2557 656 157.598 807.149 483.38
21 0 49.0406 15.1099 741 155.397 806.323 482.425
22 0 50.1151 14.6862 736 157.474 805.819 483.518
23 0 51.0166 14.1719 723 163.093 806.436 482.822
24 0 54.0205 14.2539 770 161.978 807.239 481.891
25 0 55.0599 15.0019 826 157.766 806.672 481.047
26 0 57.0631 15.439 881 156.27 805.755 478.63
27 0 57.0558 14.442 824 160.513 804.85 478.561
28 0 59.0538 14.5969 862 160.103 805.894 476.848
29 0 62.068 14.8708 923 157.699 805.763 476.703
30 0 64.0957 15.4144 988 154.572 805.635 476.519
31 0 67.2292 15.3207 1030 154.85 805.564 474.619
32 0 69.1092 14.6869 1015 157.927 805.167 472.835
33 0 72.1187 14.9199 1076 155.034 804.724 473
34 0 75.221 14.7964 1113 154.66 804.582 472.758
35 0 76.3124 16.0655 1226 151.762 804.206 469.583
36 0 80.2176 15.9067 1276 150.339 805.112 467.84
37 0 82.1764 15.4302 1268 152.515 805.102 468.239
38 0 85.1237 14.802 1260 153.506 805.128 465.635
39 1 43.0427 12.2901 529 158.425 804.849 486.524
40 0 43.0349 13.5704 584 155.856 804.392 485.301
41 0 44.0585 13.414 591 156.205 804.19 484.508
42 0 46.0102 12.4972 575 147.814 804.27 488.002
43 0 49.01 14.14 693 143.756 805.016 485.768
44 0 50.0261 13.1331 657 152.225 804.819 485.102
45 0 52.0097 14.4012 749 147.777 804.798 483.33
46 0 54.0552 14.6702 793 145.069 804.324 482.981
47 0 55.1075 13.2287 729 150.296 804.229 482.329
48 0 56.1044 13.457 755 149.959 804.821 480.538
49 0 59.0382 13.9232 822 146.746 804.348 480.016
50 0 62.0663 14.0817 874 145.277 804.434 479.881
51 0 65.0537 14.4342 939 143.257 804.473 478.087
52 0 66.0665 14.8487 981 142.019 805.171 476.55
53 0 67.0553 13.5858 911 145.525 805.359 476.568
54 0 71.1698 14.1212 1005 143.977 804.626 473.698
55 0 71.0337 13.8244 982 146.49 803.896 473.459
56 0 75.1604 14.6487 1101 142.32 803.458 473.381
57 0 78.1026 14.4682 1130 142.7 803.752 471.418
58 0 79.1015 13.9441 1103 145.093 803.917 470.504
59 0 83.2705 14.8672 1238 141.978 803.646 468.691
60 0 85.2322 13.9619 1190 144.833 803.292 468.156
61 0 85.2322 14.0088 1194 152.119 803.292 468.168
62 0 92.2933 13.1104 1210 147.904 803.836 464.064
63 0 97.1887 14.1066 1371 144.312 803.802 462.153
64 0 102.081 14.3808 1468 141.891 803.061 462.55
65 1 53.0439 12.6122 669 136.529 803.507 485.211
66 0 55.0735 12.8919 710 136.448 803.235 483.539
67 0 57.0194 12.3291 703 136.432 803.075 484.22
68 0 60.0846 13.2313 795 141.353 802.674 482.35
69 0 64.1904 13.1017 841 139.505 802.954 480.521
70 0 64.1483 12.5023 802 141.965 803.04 478.041
71 0 67.2596 13.2769 893 137.787 803.18 479.306
72 0 68.1524 12.34 841 141.642 803.163 476.837
73 0 71.1317 12.5261 891 141.589 802.844 476.237
74 0 74.1251 13.3693 991 138.168 802.744 475.123
75 0 77.1423 13.4427 1037 136.613 802.908 474.021
76 0 78.1683 12.1021 946 140.706 802.895 473.084
77 0 81.1261 12.6223 1024 139.463 803.185 471.913
78 0 85.1397 12.1213 1032 138.656 803.053 471.451
79 0 89.1186 12.6797 1130 135.987 803.407 467.997
80 0 91.2457 12.7458 1163 135.576 803.89 466.248
81 0 95.116 11.8487 1127 134.601 803.856 464.038
82 1 52.0153 12.4771 649 123.22 803.308 485.871
83 0 52.0439 11.8169 615 125.789 803.675 484.982
84 0 57.0388 11.8866 678 131.518 803.739 483.833
85 0 59.0666 11.1061 656 131.613 803.62 482.838
86 0 62.0485 12.3774 768 126.62 803.714 481.171
87 0 64.0483 11.8504 759 127.348 803.602 479.69
88 0 66.0358 11.8875 785 126.902 803.989 477.362
89 0 70.0228 12.1675 852 125.02 803.933 476.96
90 0 72.0262 11.829 852 124.847 803.905 476.522
91 0 74.0893 11.4051 845 125.935 803.044 475.638
92 0 77.1632 12.0913 933 124.296 802.319 472.73
93 0 80.2245 12.5897 1010 124.055 802.251 470.824
94 0 82.1029 12.326 1012 124.154 802.05 469.873
95 1 42.0378 10.4906 441 121.397 803.374 489.728
96 0 45.0365 11.9459 538 115.086 802.604 489.206
97 0 46.0453 11.6407 536 111.412 801.476 489.19
98 0 47.0329 11.9491 562 111.585 801.749 489.292
99 0 48.0066 12.1858 585 111.979 802.393 488.619
100 0 48.0085 12.1645 584 119.051 803.404 488.598
101 0 50.0223 11.315 566 116.327 801.935 486.947
102 0 50.0571 12.5057 626 114.829 802.427 485.831
103 0 52.0731 10.5813 551 115.795 802.158 485.626
104 0 54.0624 12.0786 653 116.842 802.351 484.91
105 0 55.0408 11.2462 619 119.228 802.283 486.863
106 0 56.0858 10.6087 595 120.692 801.724 486.41
107 0 57.0423 10.9743 626 121.65 801.922 485.045
108 0 61.0286 11.1423 680 122.034 802.331 483.84
109 0 63.0586 11.1325 702 122.689 802.288 483.101
110 0 63.0689 11.5429 728 123.901 802.389 480.074
111 0 65.0347 10.2099 664 127.294 802.244 479.336
112 0 69.0433 12.427 858 121.779 802.052 479.677
113 0 70.0771 11.3018 792 126.895 802.341 477.045
114 0 74.1674 12.0673 895 122.904 802.301 476.806
115 0 76.1193 11.9155 907 124.538 801.485 475.718
116 0 79.1055 11.4278 904 125.26 802.55 473.802
117 0 84.0691 13.9052 1169 117.551 801.683 470.221
118 1 41.0038 9.95029 408 122.605 802.623 490.652
119 0 44.0391 10.8086 476 119.313 801.662 490.401
120 0 45.0373 11.1907 504 119.716 802.171 488.01
121 0 49.0716 11.7787 578 116.663 801.104 487.597
122 0 50.0428 12.0497 603 113.755 800.305 487.415
123 0 49.0285 11.993 588 111.764 800.827 488.136
124 0 50.0324 10.873 544 114.32 800.783 487.879
125 0 53.0374 11.9161 632 110.388 801.528 487.081
126 0 53.0105 11.4506 607 113.152 801.717 486.364
127 0 54.0509 11.1376 602 115.694 800.934 485.166
128 0 56.1391 10.5274 591 117.78 801.139 485.115
129 0 56.081 11.9292 669 115.012 800.981 482.87
130 0 60.0261 12.6778 761 112.068 801.377 482.516
131 0 60.0471 12.8899 774 112.274 800.99 482.844
132 0 61.0516 11.1709 682 117.669 800.613 481.456
133 0 64.0378 11.7431 752 116.012 800.544 481.021
134 0 66.0407 12.1743 804 116.005 801.077 480.037
135 0 67.0569 11.0503 741 120.506 800.771 477.834
136 0 72.081 12.2085 880 117.106 800.825 476.758
137 0 74.144 12.5971 934 116.047 800.036 477.057
138 0 76.1945 13.1374 1001 116.206 800.601 474.374
139 0 77.1317 11.5776 893 120.056 800.998 473.271
140 0 80.0796 13.4491 1077 116.972 800.389 471.336
141 0 84.1225 12.2084 1027 118.51 800.113 474.146
142 0 86.0711 12.0714 1039 119.084 800.141 471.391
143 1 45.0423 10.9453 493 118.507 800.905 488.931
144 0 48.0891 11.7282 564 113.512 801.511 489.702
145 0 48.1204 12.1362 584 109.175 802.127 488.661
146 0 49.0495 11.1928 549 116.403 801.281 487.519
147 0 48.0404 12.6352 607 111.682 801.104 486.733
148 0 51.0433 12.8322 655 110.504 801.043 486.263
149 0 51.0364 11.7171 598 116.191 800.729 486.774
150 0 52.1324 10.3582 540 115.344 800.415 487.4
151 0 57.0565 13.1974 753 107.916 800.782 484.977
152 0 58.0589 12.4529 723 110.555 802.459 482.739
153 0 60.0653 13.3188 800 109.669 802.744 481.52
154 0 61.0411 13.7612 840 109.442 802.976 480.398
155 0 62.1911 11.8988 740 114.385 802.811 480.654
156 0 65.1099 12.6709 825 112.919 802.225 478.839
157 0 68.0426 13.6679 930 110.942 802.022 477.322
158 0 71.0931 13.2643 943 112.293 802.042 478.155
159 0 71.1771 13.2065 940 115.763 801.423 477.249
160 0 72.11 12.6612 913 118.712 801.324 475.526
161 0 78.1141 13.6595 1067 115.647 801.681 474.545
162 0 78.0754 13.6535 1066 117.191 801.963 473.419
163 0 81.0794 13.9123 1128 117.784 801.871 472.139
164 0 84.1046 14.0183 1179 116.787 802.116 471.153
165 0 88.0968 14.9722 1319 114.4 802.136 468.788
166 0 90.082 13.0548 1176 120.431 802.155 467.063
167 1 49.098 12.2001 599 120.623 803.254 488.449
168 0 50.0952 12.2367 613 121.874 802.868 486.254
169 0 52.1127 12.8759 671 117.568 802.96 486.423
170 0 52.129 13.294 693 117.447 803.165 484.56
171 0 54.0606 13.3184 720 117.406 802.943 485.59
172 0 56.1587 13.355 750 117.232 802.683 481.847
173 0 55.0509 12.443 685 119.927 802.575 483.209
174 0 60.0573 14.2864 858 114.548 802.702 480.692
175 0 61.0549 13.1193 801 118.161 802.833 480.433
176 0 63.0755 13.9832 882 116.745 802.522 480.41
177 0 67.1097 15.1245 1015 113.686 802.513 477.966
178 0 65.1055 12.9482 843 122.219 802.563 476.905
179 0 71.0659 14.1277 1004 117.051 802.056 476.428
180 0 74.0802 13.5664 1005 118.879 801.608 474.093
181 0 79.0997 13.9824 1106 116.495 802.521 473.806
182 0 78.0696 13.7313 1072 120.868 802.159 469.354
183 0 81.0928 12.6398 1025 128.751 802.766 468.88
184 0 81.0928 12.5535 1018 162.263 802.75 468.947
185 0 87.2187 13.277 1158 129.043 802.102 465.349
186 0 91.1968 13.7066 1250 126.688 802.39 464.308
187 1 47.1654 12.0003 566 121.292 802.375 485.843
188 0 49.078 13.611 668 117.367 801.021 485.129
189 0 50.0506 11.9279 597 118.452 802.755 486.811
190 0 50.1222 12.4296 623 118.533 802.554 485.066
191 0 53.0355 11.2 594 119.446 802.545 485.611
192 0 54.0844 12.6099 682 118.27 802.529 482.721
193 0 57.0823 12.228 698 117.716 802.761 482.971
194 0 56.0892 11.036 619 121.426 802.414 482.79
195 0 60.0944 13.6119 818 115.328 802.112 480.881
196 0 63.0747 13.0956 826 116.019 802.443 478.973
197 0 65.1319 12.8508 837 115.955 803.182 479.244
198 0 65.0462 12.0222 782 118.208 802.891 479.143
199 0 70.1693 12.9971 912 116.023 802.729 476.828
200 0 71.2217 12.2294 871 118.379 802.587 476.007
201 0 73.2082 12.1708 891 119.631 803.021 473.113
202 0 75.0961 13.2497 995 118.185 802.791 472.637
203 0 78.2085 12.39 969 119.603 802.664 472.606
204 0 80.0831 12.8242 1027 120.218 802.519 470.184
205 0 82.088 13.3028 1092 120.087 802.379 468.348
206 0 84.083 12.7017 1068 122.622 802.478 467.148
207 0 86.0468 12.5513 1080 123.263 802.594 466.932
208 0 90.0511 13.1592 1185 121.5 801.932 463.031
209 0 92.0599 12.2855 1131 122.454 802.049 462.415
210 0 97.1622 14.5221 1411 117.15 802.408 460.254
211 0 100.075 12.001 1201 123.226 802.391 457.425
212 0 105.072 12.7437 1339 121.023 802.633 457.606
213 1 50.0475 10.1703 509 119.937 802.591 481.845
214 0 55.0606 12.1502 669 111.744 802.855 479.954
215 0 57.0873 11.6663 666 110.724 803.378 481.896
216 0 59.0898 13.5726 802 106.758 802.547 479.751
217 0 60.1144 11.8774 714 111.447 802.622 478.994
218 0 61.0323 12.3705 755 110.044 802.482 479.85
219 0 63.0883 12.5063 789 111.971 802.644 478.087
220 0 66.1844 11.8608 785 113.549 802.487 477.501
221 0 69.1567 12.7826 884 110.794 802.044 477.166
222 0 70.1089 12.2238 857 112.706 802.582 476.473
223 0 73.0558 13.0448 953 110.846 801.851 474.724
224 0 74.0481 14.0449 1040 110.596 802.046 472.994
225 0 79.1251 13.2196 1046 112.07 802.24 472.465
226 0 78.084 12.858 1004 116.253 801.646 470.266
227 0 83.0467 14.1848 1178 112.601 802.018 466.933
228 0 85.2367 12.4946 1065 117.521 801.676 467.554
229 0 89.0854 13.7284 1223 114.282 801.581 464.687
230 0 92.0491 12.7106 1170 116.04 802.11 463.968
231 0 96.1312 13.5752 1305 113.722 802.251 463.511
232 0 97.1548 12.0632 1172 118.869 802.03 461.538
233 0 101.184 12.0869 1223 119.149 801.856 458.896
234 0 103.206 13.071 1349 118.044 801.892 455.546
235 1 56.0486 13.2385 742 110.468 801.097 482.255
236 0 58.053 12.9192 750 111.195 801.404 480.925
237 0 59.037 13.1443 776 107.139 801.258 481.582
238 0 59.0506 12.0067 709 110.261 801.423 480.508
239 0 60.0369 11.293 678 113.378 802.242 479.217
240 0 65.0381 12.4389 809 109.875 802.133 478.535
241 0 64.0232 11.7614 753 113.546 801.924 477.351
242 0 67.0731 12.3149 826 111.605 801.183 477.966
243 0 66.1004 11.0438 730 117.456 801.556 474.796
244 0 73.0713 12.1115 885 113.482 801.122 474.984
245 0 74.1201 11.4544 849 114.974 801.294 473.749
246 0 77.0499 12.8229 988 111.976 801.501 471.377
247 0 80.119 12.5688 1007 112.91 802.374 470.643
248 0 82.1973 11.667 959 114.328 802.982 469.162
249 0 85.1173 12.9938 1106 110.756 802.714 467.996
250 0 87.0814 11.5983 1010 114.699 802.833 464.663
251 1 43.0329 9.66703 416 112.087 803.144 488.832
252 0 44.0125 10.3834 457 110.825 803.112 487.022
253 0 48.015 10.8508 521 109.083 803.457 485.893
254 0 47.0141 9.9332 467 116.334 803.392 484.214
255 0 52.0172 10.6311 553 112.828 803.465 485.143
256 0 51.0217 9.62335 491 116.049 803.682 483.58
257 0 52.0572 11.0071 573 114.586 803.368 483.175
258 0 56.0281 12.0118 673 111.262 803.22 482.392
259 0 55.0352 11.7198 645 113.626 803.538 482.529
260 0 57.0699 13.4221 766 109.991 803.521 480.679
261 0 59.0457 11.7367 693 113.945 803.615 479.517
262 0 62.0534 11.4579 711 114.343 802.947 479.999
263 0 62.0605 11.4566 711 115.211 803.141 479.456
264 0 64.0544 12.2552 785 114.064 802.352 476.53
265 0 66.1051 12.0717 798 114.986 802.807 477.397
266 0 68.0555 12.9894 884 112.992 802.943 475.934
267 0 69.2318 12.2198 846 115.939 802.651 476.208
268 0 74.1103 12.9537 960 113.268 802.524 474.414
269 0 74.1103 13.0211 965 145.589 803.538 474.434
270 0 78.1521 12.6932 992 115.248 802.79 471.487
271 0 82.2935 12.2245 1006 116.124 803.21 471.746
272 1 41.0828 10.6857 439 111.41 802.478 491.966
273 0 41.03 11.2357 461 109.653 803.434 491.959
274 0 43.0953 12.484 538 104.874 803.208 490.372
275 0 43.0301 10.8761 468 110.348 803.216 490.752
276 0 45.1166 11.3705 513 109.448 803.314 490.277
277 0 46.0138 12.8222 590 105.341 803.624 491.037
278 0 48.0145 12.5587 603 107.167 803.413 488.388
279 0 50.0563 12.3261 617 108.459 803.532 487.856
280 0 51.0593 12.4561 636 109.274 802.961 486.835
281 0 53.0548 12.7227 675 109.88 803.621 485.006
282 0 52.1016 12.2837 640 112.175 803.745 487.289
283 0 54.0476 12.452 673 113.856 803.707 486.254
284 0 55.0579 12.5504 691 115.397 803.796 485.297
285 0 59.0432 13.4308 793 112.057 803.174 483.137
286 0 61.0685 13.5094 825 113.081 803.75 482.926
287 0 61.0505 11.9573 730 120.471 803.468 482.423
288 0 62.0763 13.9989 869 116.384 802.627 479.578
289 0 67.0304 13.4118 899 117.833 802.378 479.953
290 0 69.1417 14.3474 992 114.484 802.983 479.228
291 0 72.0662 13.2795 957 117.527 803.206 478.65
292 0 74.0604 14.3802 1065 115.194 803.223 475.739
293 0 75.047 13.7114 1029 119.094 802.544 475.602
294 0 79.0887 15.9188 1259 111.027 803.232 473.95
295 0 79.1269 13.194 1044 119.282 803.646 471.832
296 1 41.0152 11.8737 487 119.76 803.587 493.446
297 0 44.0394 11.6714 514 122.247 803.696 491.16
298 0 45.0129 12.7297 573 118.281 803.471 490.091
299 0 44.0206 12.2443 539 119.963 802.842 491.241
300 0 46.0346 12.1865 561 119.891 802.561 490.084
301 0 47.1147 13.0532 615 118.068 803.18 487.859
302 0 49.0297 11.9927 588 120.696 802.912 487.621
303 0 49.0532 12.0685 592 120.137 802.981 487.959
304 0 52.1068 11.937 622 118.59 802.947 488.111
305 0 50.0519 12.487 625 118.493 802.91 487.97
306 0 54.0728 11.8544 641 118.073 803.201 486.324
307 0 56.0782 12.4647 699 116.449 803.272 484.661
308 0 57.072 11.7395 670 118.624 802.93 484.428
309 0 59.1037 12.385 732 117.074 803.339 484.639
310 0 60.0777 13.3494 802 114.734 802.975 484.581
311 0 62.1936 12.4933 777 118.806 802.281 480.394
312 0 65.0286 11.7948 767 120.256 802.579 479.412
313 0 70.0747 13.0004 911 116.226 802.707 480.407
314 0 69.0492 12.9473 894 118.628 802.663 478.625
315 0 70.1107 11.9383 837 122.888 803.147 477.761
316 0 74.1993 13.1672 977 120.957 802.566 474.438
317 0 77.0986 12.711 980 121.301 802.774 474.558
318 0 81.1167 13.8073 1120 119.025 802.865 472.552
319 0 83.0944 12.8649 1069 122.329 802.855 472.865
320 0 87.0901 14.1233 1230 116.385 802.702 469.607
321 1 45.0564 11.6077 523 119.088 803.203 492.558
322 0 47.0739 11.4288 538 122 802.985 489.797
323 0 48.0448 12.5092 601 119.201 801.288 489.201
324 0 50.0171 12.5957 630 117.219 801.273 490.097
325 0 51.0375 13.1472 671 118.276 802.951 488.595
326 0 55.0777 14.1981 782 113.279 803.217 487.93
327 0 53.0572 12.4017 658 121.158 803.47 486.863
328 0 57.0936 13.329 761 118.033 803.515 486.448
329 0 56.0409 13.1154 735 120.962 802.778 484.14
330 0 59.0281 13.1124 774 118.426 802.273 484.276
331 0 59.0786 13.3551 789 119.068 801.692 483.669
332 0 63.1563 14.4879 915 115.75 802.85 482.637
333 0 63.0943 13.7889 870 118.829 802.875 481.824
334 0 65.1064 13.8235 900 119.194 802.929 481.602
335 0 67.1777 14.0076 941 119.414 803.558 478.298
336 0 70.0909 13.1115 919 122.14 802.595 477.212
337 0 72.0616 12.9056 930 122.426 802.983 476.955
338 0 75.1994 13.9895 1052 119.669 802.827 475.683
339 0 77.0849 13.4786 1039 122.754 802.349 475.488
340 0 78.1804 13.3793 1046 125.089 802.495 472.139
341 0 80.0777 12.8625 1030 127.8 802.384 473.831
342 0 84.0851 13.2604 1115 125.865 802.35 471.269
343 1 44.0691 11.2324 495 127.564 803.218 490.095
344 0 46.0226 11.4074 525 125.989 803.044 489.078
345 0 47.0217 12.4623 586 122.352 803.991 489.918
346 0 50.1052 14.1303 708 117.099 804.49 488.511
347 0 48.0894 12.6223 607 124.54 802.412 487.1
348 0 49.059 12.5155 614 125.64 801.66 485.94
349 0 51.0576 13.3575 682 123.026 802.553 486.777
350 0 53.0155 13.0716 693 122.934 802.075 486.739
351 0 54.06 13.7995 746 122.31 802.57 486.398
352 0 56.0389 12.8482 720 125.793 803.132 485.918
353 0 59.0513 12.5992 744 125.356 802.973 484.739
354 0 59.0623 13.4942 797 125.58 802.99 483.598
355 0 62.0305 14.2027 881 124.208 803.157 481.61
356 0 62.0535 14.2458 884 125.945 803.437 479.725
357 0 65.0725 13.4926 878 128.394 803.189 480.419
358 0 68.085 13.2335 901 129.172 803.057 479.573
359 0 70.0938 14.4806 1015 126.598 803.285 477.767
360 0 71.0784 13.6328 969 131.496 802.633 477.848
361 0 75.1642 14.1956 1067 128.44 803.444 475.799
362 0 78.0962 14.0468 1097 128.84 802.906 473.787
363 0 79.0816 14.0235 1109 129.639 803.167 470.764
364 0 82.1111 14.0785 1156 129.434 803.172 470.42
365 0 84.0849 13.308 1119 131.374 803.248 467.745
366 0 87.0994 13.41 1168 130.011 803.431 468.564
367 0 91.0558 13.5961 1238 129.114 803.321 465.275
368 1 49.1188 11.4416 562 126.085 804.162 489.139
369 0 49.0475 12.8447 630 118.073 804.562 487.856
370 0 51.147 11.77 602 118.797 804.332 486.341
371 0 53.0754 12.0206 638 116.793 802.923 488.049
372 0 55.0222 12.3586 680 114.085 803.36 487.629
373 0 56.1028 11.4433 642 117.231 803.075 483.302
374 0 59.0656 12.4777 737 113.822 803.3 483.55
375 0 60.0261 11.3117 679 116.511 802.923 483.975
376 0 63.0388 12.3257 777 114.131 803.085 481.543
377 0 65.0971 12.1972 794 115.018 803.443 481.379
378 0 67.1013 11.8627 796 115.892 803.402 478.716
379 0 67.0832 11.1056 745 117.915 803.185 477.054
380 0 73.1292 11.8694 868 114.757 802.982 476.872
381 0 75.0521 12.7511 957 113.622 802.699 474.866
382 0 78.0302 11.8031 921 120.755 803.508 473.218
383 0 82.0913 12.9977 1067 116.169 803.151 472.321
384 0 83.1301 11.6805 971 119.054 803.78 471.067
385 0 84.0948 12.4265 1045 117.882 803.728 468.227
386 0 90.1368 12.481 1125 116.877 803.223 467.537
387 1 41.059 10.8624 446 111.036 803.863 491.646
388 0 44.0664 11.8004 520 107.71 804.083 490.727
389 0 46.0329 11.079 510 108.963 803.639 489.825
390 0 44.1015 11.2921 498 111.082 802.811 489.574
391 0 47.0539 12.8151 603 107.433 802.95 487.993
392 0 49.1348 12.0078 590 109.749 803.046 488.632
393 0 50.1357 12.2867 616 109.612 802.969 486.808
394 0 52.0633 13.8101 719 105.537 802.836 486.716
395 0 53.1237 12.1038 643 109.316 802.751 486.025
396 0 56.079 12.5894 706 108.874 802.836 484.154
397 0 57.058 12.128 692 110.764 802.327 484.686
398 0 60.1441 12.5698 756 110.172 803.171 483.702
399 0 60.0643 12.1869 732 113.149 802.69 481.88
400 0 62.1122 11.9622 743 114.746 802.555 480.865
401 0 64.0573 12.1922 781 115.119 802.766 479.886
402 0 67.0906 11.9987 805 117.231 803.282 478.976
403 0 70.0871 12.3418 865 116.834 802.928 478.434
404 0 75.2115 13.5219 1017 121.15 803.433 476.41
405 0 77.1327 13.2758 1024 121.113 802.691 476.938
406 0 79.1314 12.5867 996 122.447 802.951 475.788
407 0 80.1231 12.8427 1029 123.356 803.26 473.389
408 0 85.0512 12.1221 1031 122.505 803.387 473.516
409 0 87.2269 13.4018 1169 118.737 803.399 470.607
410 0 90.1364 13.8013 1244 117.202 803.282 469.805
411 0 92.1847 11.5637 1066 122.392 803.7 469.028
412 0 96.1461 12.3874 1191 121.241 803.67 464.712
413 0 99.2477 12.5242 1243 120.136 803.794 463.855
414 0 105.395 13.0557 1376 118.127 803.259 462.541
415 1 54.1569 10.9127 591 115.482 804.289 487.024
416 0 57.1337 12.2345 699 113.119 803.155 486.339
417 0 57.3031 12.8265 735 109.573 802.925 484.971
418 0 58.079 11.7771 684 111.829 803.798 485.677
419 0 61.0772 12.9344 790 109.287 804.147 483.09
420 0 62.2036 12.3787 770 111.605 803.884 482.047
421 0 64.1989 12.5392 805 112.502 804.062 480.737
422 0 66.1241 11.5692 765 114.486 804.516 480.861
423 0 69.1438 12.6114 872 112.603 804.86 479.216
424 0 72.1493 13.181 951 112.651 804.098 478.206
425 0 75.1581 13.1855 991 114.662 804.41 475.784
426 0 75.1426 11.9905 901 120.706 804.055 476.152
427 0 77.1845 12.1916 941 121.355 804.168 474.419
428 0 81.2158 12.2883 998 121.099 803.531 473.935
429 0 82.0945 12.0958 993 124.66 804.298 471.54
430 0 86.1134 12.5416 1080 123.779 804.09 468.922
431 0 91.1285 13.9254 1269 121.148 804.006 468.219
432 0 94.2651 12.9422 1220 122.712 804.453 467.811
433 0 96.1405 13.4283 1291 122.714 804.647 465.059
434 0 99.1666 12.3731 1227 125.541 803.593 463.231
435 0 102.189 12.8977 1318 123.905 804.068 463.85
436 1 53.0707 10.0809 535 123.617 804.68 488.084
437 0 56.0454 13.0787 733 115.887 804.591 485.996
438 0 56.115 11.2091 629 119.631 804.405 485.978
439 0 60.1117 12.8594 773 113.678 804.356 483.816
440 0 61.1316 12.4813 763 114.4 804.48 482.815
441 0 65.0812 12.8762 838 111.959 804.535 481.572
442 0 65.1239 11.6701 760 115.061 804.364 482.105
443 0 67.1199 12.4106 833 113.723 803.922 479.525
444 0 69.1818 11.3036 782 117.008 804.139 479.751
445 0 72.1753 11.3058 816 116.716 804.158 478.495
446 0 74.164 12.1218 899 115.424 804.38 477.676
447 0 77.2035 12.0072 927 115.595 804.091 475.166
448 0 78.2274 12.0162 940 115.789 804.026 474.711
449 0 81.0965 11.7021 949 113.548 804.098 472.897
450 0 80.1482 10.6303 852 79.581 803.581 476.513
451 0 88.1369 11.5275 1016 111.174 803.841 468.035
452 0 91.1684 11.2868 1029 111.905 804.031 467.527
453 0 94.0964 10.3298 972 116.28 803.209 466.904
454 0 99.1561 12.324 1222 111.067 804.093 463.323
455 1 50.2029 11.2743 566 107.32 803.813 486.369
456 0 52.2185 11.6051 606 107.548 804.102 483.535
457 0 53.3003 12.4577 664 105.5 804.327 485.155
458 0 55.2129 11.8269 653 106.409 803.651 485.596
459 0 59.0679 12.3417 729 105.097 804.947 486.281
460 0 58.0357 11.9926 696 107.743 805.029 483.891
461 0 61.0478 12.007 733 112.924 805.291 482
462 0 64.0578 10.912 699 114.691 804.897 481.878
463 0 65.0574 12.4198 808 111.903 804.804 480.08
464 0 66.0793 12.7877 845 111.335 804.787 479.994
465 0 69.1092 13.0373 901 108.677 803.744 478.436
466 0 69.0925 13.0405 901 110.279 804.423 479.118
467 0 74.083 13.2554 982 109 804.101 477.998
468 0 76.0968 12.011 914 114.251 803.802 475.281
469 0 78.1663 12.8828 1007 112.096 804.247 474.833
470 0 79.2163 12.8635 1019 114.109 804.61 473.834
471 0 82.27 13.3341 1097 113.419 804.919 470.708
472 0 84.3655 12.6829 1070 116.029 804.645 467.821
473 0 87.2979 12.7724 1115 116.625 804.184 467.562
474 0 90.3041 13.0891 1182 116.624 804.356 464.237
475 0 94.2196 14.5299 1369 112.968 804.268 465.083
476 0 96.2193 13.9161 1339 114.16 804.765 462.106
477 0 102.475 12.9203 1324 116.036 804.424 462.079
478 0 104.236 12.4046 1293 117.881 804.147 460.408
479 1 56.076 11.9124 668 112.198 804.648 482.699
480 0 57.1263 12.4286 710 108.917 804.551 483.88
481 0 60.0672 11.1042 667 113.45 803.192 483.435
482 0 62.0458 12.5391 778 108.321 803.391 480.027
483 0 63.2114 12.4345 786 108.517 803.621 479.16
484 0 66.1679 13.2239 875 105.403 803.514 479.155
485 0 68.0486 13.123 893 104.713 803.159 478.376
486 0 69.0576 12.2217 844 107.463 802.705 477.384
487 0 72.074 13.3058 959 105.821 803.189 476.344
488 0 74.1491 11.895 882 109.354 803.506 475
489 0 76.0497 12.5444 954 108.283 802.517 474.505
490 0 79.095 12.112 958 109.684 803.062 471.992
491 0 84.0666 12.9302 1087 106.224 802.818 473.614
492 0 84.1714 12.6409 1064 109.356 803.672 468.404
493 0 86.2116 10.1726 877 114.704 803.052 468.571
494 0 92.2284 12.6967 1171 109.132 803.473 465.86
495 0 94.2268 12.247 1154 110.417 803.194 462.443
496 1 47.0543 9.94596 468 108.669 803.355 487.919
497 0 50.0852 12.7982 641 101.003 803.262 487.017
498 0 50.0788 11.2023 561 104.396 805.159 485.875
499 0 51.0332 11.0712 565 105.301 804.494 484.706
500 0 55.0975 12.2147 673 104.73 805.202 484.113
501 0 56.0607 12.0762 677 108.109 805.487 482.959
502 0 56.0853 11.5182 646 110.221 805.483 483.187
503 0 56.1622 11.4846 645 113.465 805.198 480.591
504 0 61.0922 11.2453 687 112.115 805.173 479.773
505 0 63.139 12.9397 817 108.203 804.733 478.435
506 0 66.1195 12.4472 823 109.188 805.26 478.724
507 0 68.1081 11.6726 795 110.624 804.906 477.595
508 0 69.1347 12.208 844 110.935 804.805 475.742
509 0 70.1398 13.0454 915 109.381 804.985 475.705
510 0 76.1221 12.2566 933 111.81 805.345 474.943
511 0 76.0737 11.4363 870 115.045 804.892 472.96
512 0 83.1092 13.1153 1090 110.669 804.973 471.623
513 0 84.077 13.1546 1106 111.58 804.716 471.929
514 0 90.2468 13.8731 1252 110.708 804.255 471.12
515 0 89.1241 11.4672 1022 119.779 804.333 469.456
516 0 93.1365 11.671 1087 120.709 803.806 466.619
517 1 51.0909 10.9413 559 121.669 805.03 489.231
518 0 53.0911 11.5462 613 121.86 804.943 486.816
519 0 53.0399 11.5762 614 121.963 804.792 486.497
520 0 55.0439 13.1713 725 111.884 803.557 486.279
521 0 57.103 12.5913 719 114.065 805.079 485.892
522 0 58.1403 12.8826 749 114.638 804.738 484.832
523 0 57.1345 11.4292 653 120.139 803.948 483.786
524 0 60.1312 12.3896 745 116.787 804.036 483.702
525 0 63.0561 11.8466 747 118.819 804.894 481.83
526 0 67.1429 12.3319 828 115.448 804.645 481.141
527 0 68.129 13.4451 916 112.93 804.118 478.725
528 0 69.1437 11.223 776 119.487 804.512 477.892
529 0 72.2036 11.98 865 117.909 804.335 478.813
530 0 74.126 11.9122 883 119.434 804.443 476.941
531 0 78.1496 11.913 931 118.965 803.541 476.035
532 0 77.1812 12.218 943 123.228 803.427 473.902
533 0 80.1326 11.6432 933 123.28 803.457 471.723
534 0 84.1553 11.562 973 124.445 802.52 472.711
535 0 88.1504 12.5467 1106 131.91 802.717 471.633
536 0 89.213 12.1955 1088 134.881 802.331 468.847
537 1 49.09 10.2057 501 131.703 801.224 488.327
538 0 50.1714 11.381 571 123.722 803.8 486.723
539 0 53.1591 12.3027 654 120.677 803.628 487.08
540 0 54.1266 11.8241 640 121.998 801.75 486.088
541 0 55.0771 11.1662 615 121.836 802.128 485.47
542 0 57.0918 11.3151 646 121.467 801.975 484.819
543 0 58.1121 11.822 687 120.061 802.099 484.294
544 0 62.0801 12.0006 745 118.73 801.682 481.408
545 0 61.0875 12.0319 735 118.596 801.918 482.654
546 0 63.1124 12.8342 810 118.905 801.993 480.035
547 0 66.1208 12.5528 830 119.301 802.175 479.06
548 0 68.1035 12.7453 868 117.998 802.889 478.131
549 0 70.1239 12.3353 865 118.925 802.139 477.888
550 0 73.0925 13.052 954 116.762 802.951 477.172
551 0 75.1212 12.979 975 116.977 802.516 475.01
552 0 78.1532 13.4096 1048 115.123 803.21 476.438
553 0 78.1217 13.2102 1032 117.456 802.437 474.248
554 0 80.0796 12.3377 988 122.252 802.645 471.641
555 0 80.0796 12.4002 993 139.726 801.678 471.539
556 0 89.1512 14.066 1254 117.812 802.518 470.132
557 0 90.2095 12.5597 1133 123.977 802.865 466.717
558 0 94.1972 13.5991 1281 119.68 802.141 469.418
559 0 96.1027 12.8612 1236 123.981 802.388 464.917
560 0 100.203 13.283 1331 122.32 801.696 465.566
561 0 102.136 13.1099 1339 123.863 802.459 463.536
562 0 105.144 13.4958 1419 123.081 802.721 460.123
563 0 107.134 12.3303 1321 125.628 802.495 458.896
564 1 58.1046 9.22474 536 118.713 802.955 483.707
565 0 58.0562 10.9205 634 115.412 803.729 481.137
566 0 63.1875 12.2809 776 112.756 802.832 482.064
567 0 63.1329 11.452 723 119.746 804.445 482.862
568 0 65.0953 11.7366 764 119.119 804.555 480.241
569 0 68.1167 11.8326 806 117.536 804.692 480.216
570 0 69.0599 12.1344 838 117.237 804.056 479.638
571 0 74.0644 11.706 867 117.273 804.541 478.732
572 0 74.1083 13.035 966 114.292 803.823 476.481
573 0 76.1132 13.0858 996 115.045 803.82 475.671
574 0 80.1755 12.061 967 116.884 803.474 474.639
575 0 84.1682 12.8552 1082 114.139 803.678 473.52
576 0 85.0795 13.0819 1113 115.298 804.004 471.847
577 0 89.192 12.6693 1130 116.26 803.75 469.703
578 0 90.113 12.329 1111 117.892 803.735 467.507
579 0 92.275 12.3544 1140 119.337 803.764 464.314
580 0 97.1818 11.5865 1126 120.806 803.806 467.025
581 0 99.1025 11.3317 1123 126.33 803.993 462.517
582 1 50.1347 10.013 502 117.908 804.414 487.42
583 0 51.1863 10.9795 562 117.078 804.886 487.329
584 0 55.1761 12.2879 678 113.59 804.546 486.198
585 0 56.0932 11.1422 625 117.933 804.238 485.416
586 0 57.0471 12.3933 707 115.713 803.339 483.95
587 0 57.094 11.7175 669 117.981 803.247 485.587
588 0 57.0462 10.8509 619 120.834 803.556 484.015
589 0 61.072 11.511 703 119.185 803.424 484.555
590 0 60.1059 11.513 692 119.642 803.46 484.225
591 0 63.2349 11.5443 730 118.827 803.367 483.207
592 0 65.1532 11.542 752 119.438 803.886 479.439
593 0 69.0574 12.5403 866 116.619 803.568 479.298
594 0 70.1514 11.7175 822 119.163 803.545 478.376
595 0 72.1757 11.7353 847 120.164 803.531 476.92
596 0 77.1148 11.5412 890 119.516 804.084 476.871
597 0 77.1131 11.6323 897 121.777 804.437 474.971
598 0 80.0921 11.9487 957 119.389 803.974 474.476
599 0 84.114 13.0537 1098 118.037 803.807 472.818
600 0 86.216 11.8075 1018 122.224 803.7 470.807
601 1 43.0967 10.14 437 122.828 804.247 489.762
602 0 46.0509 11.6827 538 118.156 801.693 491.97
603 0 48.0173 11.2251 539 118.776 801.827 488.944
604 0 47.0616 11.4743 540 115.204 802.452 489.504
605 0 49.0607 11.9444 586 115.915 802.106 488.174
606 0 49.0657 12.0043 589 133.289 801.115 488.143
607 0 51.017 11.702 597 118.039 802.72 487.409
608 0 55.0291 12.0845 665 115.896 802.979 487.068
609 0 56.0316 12.0825 677 117.826 803.025 485.409
610 0 59.0421 11.9406 705 117.061 803.277 487.033
611 0 60.1355 12.8543 773 115.712 802.291 484.947
612 0 61.0828 12.2457 748 117.316 802.918 484.316
613 0 62.1024 11.6904 726 117.052 802.405 481.888
614 0 66.0506 12.8235 847 114.481 803.736 480.274
615 0 68.1739 12.7175 867 116.025 803.23 481.089
616 0 70.0657 12.2314 857 118.256 803.208 479.137
617 0 71.0809 12.5209 890 119.649 803.138 477.189
618 0 77.173 13.6058 1050 116.283 803.264 477.616
619 0 79.0848 12.6826 1003 120.732 803.74 475.809
620 0 81.1124 12.1313 984 122.869 804.34 476.103
621 0 85.0584 13.1557 1119 121.023 804.066 473.247
622 1 41.0206 10.9945 451 125.78 803.878 495.064
623 0 43.071 12.1195 522 123.276 803.554 494.061
624 0 45.1168 11.8803 536 119.058 803.929 493.631
625 0 46.0767 11.8932 548 120.752 803.531 492.529
626 0 45.0735 12.7126 573 121.232 803.461 492.808
627 0 45.0152 12.418 559 124.068 803.537 492.234
628 0 49.0196 12.0564 591 123.496 803.865 493.206
629 0 50.04 12.3301 617 123.87 803.532 489.935
630 0 52.1258 13.525 705 120.05 803.305 490.784
631 0 52.1457 13.3664 697 122.977 803.379 490.638
632 0 53.191 12.3517 657 127.137 803.236 488.711
633 0 57.3348 13.8659 795 120.478 803.551 488.948
634 0 57.1033 13.064 746 125.201 803.395 486.871
635 0 60.0587 13.3203 800 123.914 803.332 485.65
636 0 62.0411 14.4259 895 121.598 802.806 484.961
637 0 63.0427 13.4195 846 124.877 804.033 482.825
638 0 64.0805 13.6391 874 123.973 803.994 483.59
639 0 67.0561 13.8988 932 124.089 803.274 482.359
640 0 69.1325 13.4814 932 125.474 802.674 481.554
641 0 71.0998 14.1351 1005 124.661 803.441 479.282
642 0 73.0644 13.6455 997 126.036 803.81 479.156
643 0 76.1009 13.5084 1028 128.345 804.097 476.287
644 0 78.1157 12.9935 1015 129.79 803.507 477.631
645 1 41.0234 11.9444 490 131.604 804.267 492.176
646 0 43.0634 11.8895 512 128.836 804.121 492.846
647 0 44.0384 12.4437 548 124.666 804.347 494.201
648 0 45.036 12.9008 581 124.019 804.344 491.943
649 0 46.0427 12.6622 583 125.106 804.269 490.998
650 0 48.0598 11.9643 575 127.626 804.026 491.078
651 0 49.0794 12.4696 612 126.351 803.804 491.034
652 0 51.0706 12.6296 645 125.389 803.695 490.515
653 0 51.026 11.9547 610 128.93 802.948 490.051
654 0 54.0398 12.5093 676 125.942 803.284 489.429
655 0 56.1029 12.6197 708 125.417 803.822 488.408
656 0 55.0848 12.1449 669 128.481 804.058 487.525
657 0 56.037 12.0991 678 129.612 803.395 487.055
658 0 59.0936 12.5564 742 126.977 803.284 486.089
659 0 61.0813 12.246 748 127.303 803.239 485.579
660 0 62.0815 12.6125 783 126.677 803.378 484.576
661 0 65.0339 11.8553 771 128.089 803.01 485.485
662 0 67.0509 12.4234 833 126.778 803.427 481.024
663 0 69.062 11.1784 772 129.001 803.426 479.229
664 0 73.0609 12.7839 934 123.964 803.215 478.379
665 0 73.1517 11.0455 808 126.399 803.496 479.075
666 0 77.0717 12.4819 962 121.681 802.889 478.107
667 0 82.0875 12.9374 1062 121.633 803.407 475.122
668 0 82.118 12.2263 1004 124.568 803.168 474.134
669 0 86.1294 12.7715 1100 122.191 803.023 471.344
670 0 89.1056 12.5806 1121 123.413 802.86 471.128
671 1 46.0375 13.5759 625 117.488 802.542 491.454
672 0 47.0978 13.3127 627 119.038 803.057 492.349
673 0 47.0518 13.2407 623 120.716 803.485 491.034
674 0 48.0201 13.5985 653 120.577 803.348 490.79
675 0 50.0179 12.8154 641 120.63 803.538 491.938
676 0 52.0335 12.492 650 122.097 804.143 491.308
677 0 52.0313 12.4733 649 123.632 803.72 488.658
678 0 55.061 13.3851 737 120.484 803.597 488.06
679 0 55.0817 12.8536 708 123.542 803.186 486.121
680 0 59.103 13.0619 772 121.567 803.082 486.354
681 0 59.1167 12.6022 745 123.119 803.251 484.439
682 0 62.1529 13.2254 822 122.028 803.255 483.387
683 0 64.0635 12.9715 831 123.343 802.562 482.316
684 0 66.1074 13.5234 894 120.812 802.62 482.436
685 0 67.0902 12.6099 846 123.955 802.991 479.864
686 0 70.0964 12.2403 858 125.38 802.894 479.552
687 0 74.0632 13.502 1000 122.453 802.96 478.114
688 1 39.0219 11.6089 453 121.453 803.687 494.576
689 0 38.1928 10.7874 412 120.995 802.59 488.845
690 0 37.067 9.55027 354 115.686 802.294 494.025
691 0 39.1096 9.35832 366 117.735 802.123 492.385
692 0 40.0227 9.91937 397 123.343 801.771 494.753
693 0 42.0649 11.0306 464 120.735 801.504 494.481
694 0 43.0356 11.0374 475 121.276 801.173 493.552
695 0 46.0298 12.5571 578 117.99 801.974 491.251
696 0 47.0421 12.627 594 117.717 801.865 490.822
697 0 47.057 11.4967 541 120.165 801.835 491.795
698 0 48.1198 10.5778 509 123.862 801.827 489.727
699 0 51.0412 12.0491 615 119.979 801.933 488.647
700 0 53.0243 11.7493 623 120.103 802.124 488.292
701 0 55.0781 10.9299 602 124.013 801.435 487.766
702 0 57.1898 11.4531 655 122.626 801.808 485.301
703 0 59.0586 13.4104 792 117.831 802.091 483.876
704 0 62.0581 11.5698 718 120.585 801.979 482.368
705 0 65.0541 12.2821 799 116.588 801.829 482.651
706 0 66.0606 11.0051 727 119.674 802.846 482.568
707 0 70.0489 11.7918 826 117.41 802.789 480.661
708 1 36.0684 11.395 411 116.345 802.883 497.311
709 0 36.0086 10.803 389 119.193 802.833 495.666
710 0 39.0684 12.2094 477 114.321 804.149 495.901
711 0 40.0159 11.5454 462 114.056 803.838 495.632
712 0 41.062 12.4202 510 113.71 804.182 493.229
713 0 43.0337 13.5243 582 111.686 803.5 493.876
714 0 43.0392 12.3841 533 115.199 803.583 492.931
715 0 43.0214 12.8308 552 115.246 803.083 490.957
716 0 47.0702 12.9381 609 113.552 803.2 491.059
717 0 50.0335 12.4317 622 114.178 803.477 491.839
718 0 49.0405 13.2951 652 115.348 803.702 489.261
719 0 50.0254 12.4537 623 117.703 803.759 489.042
720 0 54.0517 13.8756 750 113.604 803.979 486.652
721 0 54.081 13.6092 736 116.151 803.587 487.246
722 0 57.0938 13.8018 788 115.731 803.768 486.245
723 0 58.1023 13.4418 781 117.196 803.67 485.963
724 0 60.0506 12.9557 778 118.371 803.54 484.338
725 0 62.0595 12.9553 804 118.776 803.846 484.267
726 0 64.0206 13.7924 883 117.014 803.846 482.869
727 0 66.2354 13.8748 919 117.32 803.789 482.027
728 0 68.0503 12.4173 845 121.163 803.663 480.686
729 0 69.2162 13.6384 944 118.739 803.481 478.701
730 0 72.0935 12.9415 933 119.899 803.588 478.122
731 0 74.1298 14.3262 1062 116.573 802.77 476.204
732 0 78.1799 13.341 1043 118.969 802.853 476.076
733 0 79.097 12.5795 995 122.703 802.458 474.872
734 0 83.0476 12.9203 1073 123.512 802.952 472.098
735 0 87.1099 12.5129 1090 132.849 802.618 472.224
736 1 45.0386 11.5012 518 128.137 803.597 493.205
737 0 45.0524 13.5176 609 122.764 802.517 490.752
738 0 48.0331 11.4296 549 130.443 803.148 493.668
739 0 48.035 11.8247 568 132.454 803.215 491.938
740 0 49.0366 11.6851 573 134.206 803.497 490.478
741 0 53.0242 12.7866 678 129.923 803.581 489.67
742 0 50.0491 10.6895 535 139.353 803.15 488.987
743 0 55.0577 12.8048 705 131.647 802.855 487.806
744 0 55.0558 13.114 722 131.335 802.67 488.639
745 0 59.0231 14.0623 830 128.171 802.723 487.196
746 0 60.049 13.006 781 131.536 803.097 486.544
747 0 61.0343 13.0418 796 133.892 802.84 484.334
748 0 63.0312 13.4854 850 133.372 802.756 484.156
749 0 64.1004 13.8689 889 133.956 802.065 482.793
750 0 65.0918 13.1507 856 136.312 801.961 481.648
751 0 68.0771 13.1762 897 136.487 802.613 481.045
752 0 71.139 12.8059 911 137.251 802.098 479.461
753 0 72.1164 14.7678 1065 130.596 802.055 478.497
754 0 74.0842 13.3902 992 134.714 801.856 478.158
755 0 75.056 12.6705 951 128.592 802.313 476.539
756 0 80.0769 13.2123 1058 127.521 802.233 477.898
757 1 42.0296 11.3729 478 129.41 801.872 494.316
758 0 43.0325 11.8283 509 126.253 802.114 495.012
759 0 45.0946 12.751 575 124.917 803.019 491.501
760 0 47.0271 12.2057 574 125.861 801.915 491.854
761 0 48.1706 12.1651 586 126.638 803.633 491.503
762 0 51.0819 13.821 706 121.982 803.357 489.776
763 0 54.0767 13.3514 722 120.859 803.109 490.136
764 0 54.0446 13.0633 706 123.123 803.079 488.552
765 0 54.1171 12.8425 695 124.714 803.712 486.764
766 0 56.1142 13.5082 758 122.059 803.292 487.396
767 0 57.1259 12.9889 742 124.927 803.202 485.898
768 0 58.0831 12.7232 739 125.365 804.061 485.743
769 0 61.0853 12.769 780 123.224 803.34 484.428
770 0 65.0471 13.2981 865 120.803 803.364 482.628
771 0 67.1204 13.8408 929 119.983 803.432 482.936
772 0 70.0725 13.6287 955 121.583 802.631 480.648
773 0 71.0959 13.6857 973 122.357 802.892 477.784
774 0 72.1241 13.5045 974 123.256 803.027 478.905
775 0 76.0726 13.6054 1035 121.412 803.388 477.337
776 0 77.1119 13.033 1005 122.869 802.832 476.421
777 0 79.0407 14.2711 1128 120.596 802.725 473.991
778 0 82.0432 12.725 1044 124.606 802.875 473.335
779 0 85.1501 12.7892 1089 125.269 803.011 473.879
780 0 90.0409 14.2047 1279 119.779 803.106 470.167
781 1 47.057 11.5392 543 124.606 802.204 490.829
782 0 49.02 11.6687 572 124.166 802.378 489.191
783 0 51.038 13.0883 668 120.272 802.211 488.445
784 0 52.0828 13.2865 692 116.74 802.204 488.699
785 0 53.0817 12.0757 641 122.349 801.691 487.404
786 0 53.0524 12.5913 668 122.169 802.037 486.636
787 0 57.063 13.4062 765 119.063 802.459 486.893
788 0 59.0966 12.6065 745 121.447 803.697 487.251
789 0 60.096 13.6948 823 119.989 803.593 486.864
790 0 63.0932 14.011 884 118.172 804.128 486.086
791 0 62.0495 13.3442 828 124.535 804.252 484.197
792 0 63.0748 12.6199 796 128.157 803.937 484.358
793 0 68.1529 14.4088 982 122.386 804.187 482.586
794 0 70.0578 13.9171 975 127.485 804.162 480.548
795 0 72.1878 13.8805 1002 128.715 804.247 481.215
796 0 74.0945 13.3208 987 132.162 804.369 479.376
797 0 77.0791 13.8689 1069 132.232 803.674 477.646
798 0 80.1974 14.19 1138 132.475 803.36 476.575
799 0 84.1303 14.2636 1200 131.333 803.468 476.718
800 0 86.3152 13.4159 1158 135.561 802.927 473.757
801 0 86.2438 13.9256 1201 136.052 802.734 471.959
802 0 92.2182 13.9452 1286 132.274 803.49 470.608
803 0 94.2121 14.4992 1366 130.847 802.775 466.389
804 0 98.2111 14.5707 1431 129.344 802.47 463.694
805 0 99.2195 12.0944 1200 133.265 802.692 459.813
806 1 52.2744 10.5023 549 125.512 803.231 483.213
807 0 54.0966 10.204 552 127.399 802.623 482.225
808 0 56.1337 11.3479 637 117.256 802.735 482.168
809 0 59.1253 11.9915 709 115.69 802.798 481.447
810 0 60.301 12.3381 744 115.409 802.742 482.109
811 0 61.2559 11.9172 730 118.292 801.973 478.341
812 0 61.1323 11.7614 719 119.623 802.474 477.878
813 0 65.2578 12.1671 794 117.654 802.679 479.594
814 0 67.1278 11.6345 781 120.515 802.293 476.12
815 0 71.088 14.8126 1053 122.168 803.695 477.661
816 0 73.0678 13.727 1003 125.335 803.096 476.858
817 0 75.0859 13.4113 1007 126.221 803.321 476.45
818 0 79.0889 14.6291 1157 122.348 803.404 474.226
819 0 82.0714 13.3055 1092 125.909 803.267 473.943
820 0 83.0819 14.4917 1204 123.801 803.748 472.748
821 0 87.1773 13.9027 1212 123.854 803.703 471.384
822 0 89.0756 13.0226 1160 127.762 803.733 470.025
823 0 93.0915 13.3739 1245 125.026 803.475 469.286
824 0 94.1565 13.4032 1262 125.77 803.608 468.009
825 0 97.0822 13.4422 1305 124.734 802.621 464.893
826 0 103.116 14.4595 1491 121.447 802.51 461.686
827 0 105.179 13.7099 1442 124.913 802.716 459.559
828 1 55.1286 12.4436 686 125.258 802.889 486.427
829 0 55.1481 11.315 624 111.542 802.112 483.554
830 0 55.0652 10.6419 586 115.336 802.705 482.121
831 0 58.1184 11.4422 665 112.765 802.791 482
832 0 60.1802 12.0305 724 112.182 802.656 480.468
833 0 62.0907 11.8214 734 113.21 801.922 479.988
834 0 65.0684 10.7272 698 117.426 801.937 478.341
835 0 67.1728 11.8947 799 117.414 801.715 481.541
836 0 71.118 12.5566 893 115.193 801.462 479.507
837 0 73.0968 13.0101 951 114.502 801.468 477.592
838 0 76.1129 12.7048 967 115.329 800.866 476.558
839 0 78.1243 11.8785 928 118.994 800.821 475.168
840 0 81.1775 11.9491 970 119.414 801.452 474.479
841 1 39.0505 10.7553 420 115.948 800.933 495.812
842 0 40.0122 10.6217 425 117.228 801.162 493.494
843 0 42.0552 11.5562 486 110.969 800.44 491.08
844 0 45.0909 12.2419 552 111.011 800.764 492.266
845 0 46.013 12.4313 572 111.07 801.797 493.012
846 0 47.0292 12.5029 588 111.968 801.954 490.638
847 0 48.0447 12.2594 589 112.594 801.424 489.978
848 0 51.1374 12.5153 640 111.367 801.503 488.898
849 0 51.1371 12.5545 642 111.729 801.9 487.727
850 0 52.0276 11.4939 598 115.03 800.401 487.324
851 0 53.0954 11.7713 625 115.31 802.035 486.285
852 0 56.0585 11.6129 651 114.158 801.765 486.796
853 0 57.0586 12.198 696 114.267 801.716 485.559
854 0 58.0496 12.6099 732 112.496 801.702 482.969
855 0 60.1039 13.3935 805 110.472 801.127 483.63
856 0 62.0696 12.1799 756 113.937 801.237 484.263
857 0 62.0699 11.8415 735 115.645 800.995 481.739
858 0 64.0761 11.9233 764 116.096 801.093 481.111
859 0 69.0664 12.9875 897 111.912 800.926 480.707
860 0 69.0841 11.9854 828 115.946 800.953 479.36
861 0 74.0747 12.9869 962 112.957 800.875 478.235
862 0 75.0552 12.7639 958 114.352 801.712 478.45
863 0 79.0691 13.7728 1089 112.221 801.619 475.838
864 0 79.0842 12.1643 962 118.23 801.722 476.576
865 0 83.1885 12.9104 1074 115.076 802.183 475.126
866 1 45.0091 11.3755 512 114.406 802.787 494.438
867 0 45.0304 12.5027 563 114.306 802.819 492.204
868 0 48.0618 12.4007 596 116.888 803.057 491.393
869 0 46.0615 12.7873 589 116.626 802.401 489.772
870 0 50.0796 12.1207 607 114.853 802.722 491.166
871 0 50.0911 12.7567 639 114.867 802.551 490.28
872 0 50.1407 10.8495 544 120.336 802.472 489.085
873 0 53.1905 12.0886 643 117.645 802.886 486.972
874 0 55.132 11.8262 652 119.046 802.633 487.072
875 0 57.0928 13.084 747 115.415 802.021 486.857
876 0 59.1304 12.3963 733 117.141 803.029 483.874
877 0 61.1755 12.2762 751 117.776 802.999 482.96
878 0 64.1965 11.9165 765 117.552 802.467 484.024
879 0 67.0729 12.479 837 115.818 802.319 483.042
880 0 68.0807 12.6321 860 117.366 802.294 481.17
881 0 69.1023 12.0691 834 120.143 802.149 478.517
882 0 73.208 12.4167 909 118.285 803.226 478.938
883 0 75.1598 11.8414 890 118.951 802.724 479.064
884 0 79.1759 13.1732 1043 115.5 802.402 476.313
885 0 81.1178 13.7331 1114 115.303 802.557 474.495
886 0 84.1151 12.6493 1064 118.504 802.974 473.73
887 0 87.1212 12.9934 1132 118.367 803.111 471.387
888 1 50.1519 11.9437 599 118.28 803.12 488.997
889 0 50.0316 11.033 552 121.332 803.125 489.083
890 0 53.1014 12.9187 686 116.466 803.06 488.439
891 0 54.0595 13.5221 731 113.056 802.67 487.906
892 0 56.1059 12.2625 688 115.56 802.622 487.674
893 0 57.0287 13.4143 765 114.344 802.252 485.831
894 0 58.1564 12.0709 702 118.382 802.615 485.84
895 0 60.1231 13.7385 826 114.133 802.748 485.305
896 0 62.0871 12.6918 788 117.352 802.835 483.973
897 0 65.0462 14.0977 917 112.833 802.619 481.733
898 0 68.0811 13.6161 927 114.594 802.073 480.335
899 0 69.0699 13.7107 947 115.205 802.218 479.583
900 0 70.1149 12.0374 844 120.219 802.277 478.704
901 0 73.0892 12.8336 938 118.109 802.06 476.914
902 0 78.0939 13.2149 1032 116.003 801.903 476.597
903 0 78.1176 12.9676 1013 118.462 802.02 474.65
904 0 81.0886 12.8255 1040 118.705 802.366 473.968
905 0 85.1797 13.0195 1109 115.237 801.001 472.697
906 1 40.032 10.9912 440 118.655 800.702 491.85
907 0 45.0324 11.6583 525 114.097 800.971 492.164
908 0 45.0265 11.571 521 116.486 801.679 491.217
909 0 47.0524 11.6041 546 114.958 802.789 491.22
910 0 47.0286 11.7588 553 115.376 802.917 491.034
911 0 49.0324 13.5421 664 111.86 802.726 488.447
912 0 52.1133 13.6242 710 110.692 802.476 488.114
913 0 54.1596 13.4048 726 110.74 802.474 487.844
914 0 53.0273 11.8618 629 117.294 802.393 487.132
915 0 58.0661 13.4157 779 112.189 802.376 485.893
916 0 59.0434 12.4993 738 114.974 802.016 485.329
917 0 60.1499 12.9011 776 115.722 801.979 483.244
918 0 62.0559 12.6821 787 116.184 802.05 484.113
919 0 65.0669 13.8627 902 114.88 802.048 481.247
920 0 67.0418 12.798 858 117.821 802.242 481.57
921 0 69.0803 13.5929 939 116.82 802.347 479.431
922 0 73.1188 13.8268 1011 115.793 802.505 479.51
923 0 73.0959 13.7217 1003 118.021 802.549 477.035
924 0 76.0815 13.7879 1049 118.001 802.369 477.985
925 0 77.1431 13.1703 1016 120.396 802.319 474.966
926 0 81.0813 13.3816 1085 120.501 802.505 472.549
927 0 83.0874 12.7336 1058 118.63 801.569 470.062
928 0 86.0801 13.1273 1130 121.765 802.258 472.307
929 0 86.0554 13.8283 1190 124.636 802.039 470.418
930 0 89.1016 13.479 1201 122.486 802.255 468.174
931 0 91.0674 13.2759 1209 123.436 802.171 469.234
932 0 96.0626 14.3032 1374 119.055 802.018 468.341
933 0 99.1333 13.6685 1355 121.613 801.956 465.669
934 0 103.075 13.6114 1403 120.201 802.159 463.979
935 0 105.096 13.9015 1461 119.353 801.723 463.408
936 0 108.101 13.5983 1470 120.658 801.818 459.737
937 0 113.195 13.9759 1582 118.736 801.864 458.232
938 0 116.159 14.1358 1642 117.767 802.373 456.839
939 0 118.129 13.7053 1619 119.578 802.267 452.477
940 0 124.079 12.9191 1603 120.251 802.142 452.387
941 0 129.115 14.5297 1876 116.176 802.189 450.972
942 0 130.089 14.1673 1843 117.09 802.193 451.147
943 0 134.11 15.1816 2036 115.391 802.048 446.053
944 0 139.129 13.7499 1913 118.059 802.084 445.624
945 0 144.339 12.8171 1850 121.576 802.629 441.118
946 0 149.292 13.1018 1956 120.262 801.96 437.353
947 1 77.122 12.8627 992 113.166 802.317 477.421
948 0 75.0397 11.7404 881 117.83 802.885 475.281
949 0 80.317 13.1355 1055 117.858 802.227 471.702
950 0 83.0693 13.5549 1126 117.41 801.604 469.757
951 0 84.1575 13.0113 1095 118.662 801.802 467.536
952 0 88.146 15.4063 1358 111.68 801.312 465.813
953 0 91.0847 14.1297 1287 115.027 801.382 466.308
954 0 94.0632 13.5866 1278 116.394 801.531 465.574
955 0 96.0787 13.8324 1329 115.566 801.293 465.05
956 0 97.1776 13.2335 1286 119.468 801.382 461.771
957 0 101.08 14.2164 1437 117.147 801.256 459.905
958 0 105.107 14.8039 1556 116.022 801.304 459.395
959 0 107.108 13.3417 1429 121.136 801.741 457.414
960 0 109.096 12.2919 1341 122.516 801.421 456.338
961 0 115.139 13.8528 1595 113.329 801.367 451.277
962 0 117.189 13.7471 1611 115.144 801.363 447.96
963 0 122.087 13.9982 1709 115.968 801.583 448.087
964 0 127.069 15.165 1927 120.571 801.762 447.642
965 0 129.197 14.5204 1876 124.031 801.89 447.835
966 0 135.167 15.1294 2045 123.376 801.319 441.46
967 0 137.133 15.2188 2087 124.276 801.043 437.757
968 0 142.295 15.5522 2213 123.613 801.373 434.679
969 1 76.0648 11.9635 910 128.144 801.055 468.513
970 0 78.2753 12.5071 979 128.671 801.629 471.369
971 0 83.1488 13.6863 1138 125.312 800.704 470.475
972 0 86.1972 15.1977 1310 121.63 801.605 470.921
973 0 88.3091 14.2228 1256 124.033 801.618 471.005
974 0 91.2515 14.0491 1282 126.522 801.425 467.77
975 0 93.3879 14.9163 1393 124.019 801.618 467.462
976 0 97.2446 15.97 1553 121.737 801.637 463.46
977 0 100.442 13.8089 1387 132.279 802.185 460.894
978 0 105.404 14.8192 1562 129.44 801.85 460.28
979 0 107.453 14.0247 1507 130.953 801.739 460.164
980 0 111.297 14.4928 1613 130.737 801.91 457.829
981 0 114.299 14.2171 1625 131.286 801.431 455.218
982 0 117.107 14.6618 1717 126.541 801.515 445.52
983 0 120.108 13.7377 1650 127.682 801.382 448.116
984 0 126.156 13.3723 1687 127.979 801.465 444.402
985 0 129.183 13.3609 1726 129.106 801.373 441.629
986 0 133.138 14.5188 1933 127.033 801.58 438.019
987 1 61.1442 9.50213 581 125.835 801.427 475.718
988 0 66.1431 10.4017 688 119.988 801.715 476.115
989 0 66.2146 11.8856 787 113.802 802.83 479.615
990 0 67.1023 11.8178 793 119.19 802.346 480.549
991 0 70.1988 12.1085 850 119.92 802.552 477.762
992 0 72.2304 11.6571 842 120.23 803.449 476.595
993 0 76.1905 11.8912 906 120.185 803.703 476.514
994 0 80.2465 14.1315 1134 115.274 803.66 473.737
995 0 81.2024 12.906 1048 120.585 803.378 470.302
996 0 84.1701 12.6886 1068 125.368 803.019 471.526
997 0 86.2001 13.5731 1170 124.814 803.209 469.858
998 0 88.0643 12.752 1123 128.524 803.239 467.527
999 0 91.1976 12.8622 1173 130.043 802.575 467.277
1000 0 95.1651 13.3557 1271 128.597 803.083 465.911
1001 0 97.1226 12.1393 1179 132.081 802.681 463.756
1002 0 101.129 12.8153 1296 129.753 802.389 462.554
1003 1 54.0845 11.6299 629 124.548 802.758 484.56
1004 0 55.1352 11.9706 660 121.511 801.661 484.044
1005 0 57.1837 12.5211 716 119.844 801.872 482.394
1006 0 60.0847 11.4339 687 121.269 802.917 484.876
1007 0 61.0707 13.3779 817 117.152 802.558 482.898
1008 0 62.0897 11.7411 729 121.623 802.324 484.364
1009 0 65.1272 13.7116 893 116.347 802.193 481.794
1010 0 66.2466 12.7252 843 119.766 802.637 479.989
1011 0 68.1332 11.8885 810 122.699 802.599 480.258
1012 0 71.2314 13.2666 945 118.985 802.396 478.182
1013 0 74.1334 12.8687 954 120.472 802.031 477.205
1014 0 76.1571 12.4611 949 121.882 801.692 477.05
1015 0 77.3343 13.28 1027 123.571 801.738 473.389
1016 0 79.3971 13.8292 1098 122.825 801.571 473.052
1017 0 82.0987 13.8005 1133 123.463 801.283 471.508
1018 0 84.321 12.8556 1084 127.186 802.018 469.278
1019 0 86.177 12.776 1101 134.89 801.784 466.735
1020 0 88.2876 13.8298 1221 133.364 801.686 463.748
1021 0 89.1592 12.6403 1127 137.801 801.681 462.075
1022 0 92.2389 12.6844 1170 136.083 801.281 460.414
1023 0 96.3588 12.661 1220 135.294 801.355 459.77
1024 0 99.35 12.9441 1286 134.316 801.395 458.799
1025 1 51.1341 11.2645 576 131.858 801.931 481.87
1026 0 53.1167 12.5196 665 126.783 801.543 480.665
1027 0 54.139 12.1724 659 128.571 801.436 479.498
1028 0 57.1918 12.6592 724 130.198 801.981 482.097
1029 0 58.1193 13.7992 802 127.934 801.913 480.923
1030 0 62.1476 13.4036 833 126.894 802.018 481.435
1031 0 63.2174 14.3948 910 125.275 801.819 479.318
1032 0 64.108 14.2572 914 124.559 802.446 478.296
1033 0 65.1945 13.0686 852 127.958 802.407 477.608
1034 0 69.2081 14.1891 982 123.747 802.266 475.734
1035 0 69.2169 13.176 912 127.731 802.027 474.407
1036 0 74.1439 14.2965 1060 123.123 801.559 473.653
1037 0 77.1832 13.3449 1030 125.438 801.935 472.259
1038 0 80.197 13.4045 1075 124.683 801.531 472.346
1039 0 82.2241 14.5699 1198 122.514 802.063 469.661
1040 0 82.091 14.691 1206 119.742 801.614 466.685
1041 0 85.103 13.7363 1169 122.952 801.386 467.818
1042 0 87.1807 13.1681 1148 125.689 801.956 466.111
1043 0 90.1679 14.2512 1285 123.918 801.936 463.485
1044 0 92.0802 13.9552 1285 126.223 801.912 464.219
1045 0 95.2174 13.5479 1290 128.075 801.388 460.968
1046 0 100.122 13.7533 1377 126.761 802.2 459.371
1047 0 101.082 12.6432 1278 130.565 801.867 457.944
1048 1 56.0771 11.0562 620 123.769 801.795 482.821
1049 0 58.0404 11.9744 695 119.01 801.468 481.317
1050 0 59.0833 12.0169 710 115.338 801.303 481.825
1051 0 62.1414 12.6808 788 113.499 801.461 481.26
1052 0 63.0381 12.0245 758 116.22 801.668 477.532
1053 0 66.1669 12.0906 800 116.731 801.919 477.108
1054 0 70.0669 13.1731 923 113.619 801.756 476.321
1055 0 72.1306 12.0199 867 116.166 801.968 473.451
1056 0 73.0535 11.7585 859 119.586 801.925 474.839
1057 0 75.0361 12.0742 906 120.246 801.78 472.805
1058 0 80.1536 12.1018 970 118.714 801.366 471.019
1059 0 80.0775 11.6138 930 121.424 800.996 470.88
1060 0 84.1424 12.7165 1070 120.559 800.989 469.19
1061 0 87.0532 12.2569 1067 122.836 800.739 465.799
1062 0 91.1388 12.5194 1141 120.723 801.353 465.21
1063 0 93.1515 10.9177 1017 127.71 800.903 464.435
1064 1 50.0751 10.9036 546 118.593 801.601 487.348
1065 0 50.1081 11.3754 570 120.574 800.819 485.505
1066 0 54.0244 13.0867 707 116.406 800.88 487.146
1067 0 54.1109 10.922 591 123.032 801.232 485.628
1068 0 56.0646 12.2002 684 121.44 801.336 486.697
1069 0 58.0657 12.0898 702 122.35 801.848 484.895
1070 0 59.0689 12.2569 724 121.727 801.789 485.649
1071 0 61.0755 12.6074 770 122.764 801.27 482.905
1072 0 64.286 12.4444 800 122.546 801.825 482.518
1073 0 68.1241 13.5341 922 120.024 802.254 481.033
1074 0 71.1483 13.4929 960 121.977 802.627 478.266
1075 0 72.1743 12.4837 901 126.533 802.644 478.101
1076 0 76.0748 13.8811 1056 125.913 801.99 474.277
1077 0 79.1689 13.1996 1045 127.32 801.765 474.266
1078 0 81.2439 13.4041 1089 126.358 801.502 473.226
1079 0 84.1385 12.9548 1090 128.573 801.466 470.88
1080 0 88.2229 12.7518 1125 129.779 801.46 470.705
1081 0 91.1463 12.65 1153 128.84 801.037 468.087
1082 0 94.1656 13.7311 1293 126.422 801.395 466.2
1083 0 97.2468 12.4734 1213 130.881 801.518 464.147
1084 1 53.0877 12.2627 651 124.032 801.685 485.131
1085 0 55.1281 12.7521 703 121.174 802.058 483.007
1086 0 56.2121 11.3499 638 124.219 801.853 480.024
1087 0 59.0757 12.9156 763 122.678 801.552 485.425
1088 0 60.0997 12.263 737 125.318 801.573 484.822
1089 0 63.0469 13.6089 858 123.049 801.672 482.417
1090 0 65.0706 13.6006 885 122.779 800.944 483.635
1091 0 64.1291 11.5548 741 129.59 801.003 482.165
1092 0 69.108 13.6598 944 124.044 802.183 478.597
1093 0 72.1084 13.4658 971 123.682 801.867 478.97
1094 0 72.0493 12.1028 872 129.683 801.719 476.742
1095 0 74.066 11.8948 881 129.627 801.183 475.88
1096 0 78.0606 13.1693 1028 127.076 800.786 473.615
1097 0 81.0862 12.9245 1048 127.336 801.743 473.25
1098 0 84.1129 12.6853 1067 128.217 801.317 471.681
1099 0 87.0908 14.4103 1255 126.712 801.229 469.103
1100 0 87.0519 12.1652 1059 131.876 801.024 467.656
1101 0 92.0984 13.5616 1249 127.634 801.759 465.945
1102 0 96.0601 13.3666 1284 127.176 801.543 466.019
1103 0 99.1065 13.6621 1354 127.797 801.929 461.945
1104 0 102.047 13.3468 1362 127.559 801.797 463.383
1105 0 106.178 11.9987 1274 130.88 800.96 457.267
1106 0 112.11 13.4511 1508 126.594 800.62 457.168
1107 0 115.166 13.7888 1588 129.003 801.035 455.748
1108 1 63.1433 11.0226 696 125.741 802.697 480.542
1109 0 64.0895 11.8896 762 117.514 803.136 480.068
1110 0 65.1406 12.8645 838 116.512 802.879 478.332
1111 0 69.0828 11.1316 769 118.649 803.082 478.939
1112 0 68.1207 11.3769 775 120.756 802.841 475.804
1113 0 70.171 11.5005 807 119.669 802.435 474.135
1114 0 74.1652 12.3508 916 117.422 803.561 473.596
1115 0 79.096 13.1612 1041 113.084 803.157 475.132
1116 0 79.1391 12.5602 994 115.309 803.256 474.098
1117 0 83.1681 12.5649 1045 115.586 802.766 471.322
1118 0 83.0975 10.9149 907 120.217 803.12 467.762
1119 0 86.1391 11.6904 1007 118.04 803.097 468.277
1120 0 89.0896 12.19 1086 118.019 802.846 465.493
1121 0 92.1598 10.7639 992 119.952 802.415 464.227
1122 0 97.1388 11.6225 1129 118.411 802.263 463.865
1123 0 99.1147 12.5511 1244 117.755 802.658 460.674
1124 0 105.112 13.7758 1448 113.925 802.356 461.664
1125 1 56.0299 9.29861 521 121.134 802.791 484.177
1126 0 60.1219 11.6097 698 115.454 801.619 483.552
1127 0 63.1186 12.4527 786 112.078 801.158 479.855
1128 0 63.038 10.8823 686 111.878 801.802 481.615
1129 0 65.0678 11.4957 748 112.116 801.372 481.96
1130 0 67.0389 12.187 817 111.487 801.239 481.346
1131 0 69.1557 10.0932 698 115.944 801.817 478.93
1132 0 70.1358 11.5348 809 115.53 801.586 477.138
1133 0 73.0549 10.9917 803 117.144 802.045 476.375
1134 0 77.1344 12.3162 950 116.107 801.828 474.78
1135 0 78.1372 11.339 886 119.508 802.076 474.525
1136 0 81.0908 12.0852 980 118.977 802.418 473.332
1137 0 84.0967 11.1538 938 118.12 802.144 469.263
1138 0 85.1726 10.6959 911 121.524 802.195 468.117
1139 0 87.2211 11.9123 1039 119.283 802.147 467.464
1140 1 46.0333 10.0579 463 111.622 803.201 487.898
1141 0 48.0438 9.88681 475 110.815 802.726 485.444
1142 0 51.0896 10.7262 548 118.617 803.319 488.086
1143 0 49.217 10.8499 534 111.301 802.242 489.669
1144 0 51.0316 10.7972 551 111.439 802.089 489.672
1145 0 53.0379 10.6528 565 113.124 801.703 486.4
1146 0 53.1398 10.3689 551 114.405 801.929 486.65
1147 0 56.0749 10.5573 592 113.407 801.117 483.601
1148 0 58.0581 10.7651 625 112.523 801.245 483.387
1149 0 59.1809 10.9664 649 112.767 800.307 480.941
1150 0 60.0343 10.6273 638 114.047 800.155 480.65
1151 0 62.0232 10.9475 679 117.81 799.119 480.523
1152 0 66.0683 10.6254 702 117.631 799.444 480.527
1153 0 67.0706 10.1088 678 118.869 799.755 478.886
1154 0 70.0952 11.4558 803 116.046 800.067 478.899
1155 0 71.1228 11.8809 845 116.09 800.292 477.672
1156 0 75.0745 12.4676 936 114.772 799.981 474.123
1157 0 75.1499 11.0579 831 118.262 800.15 475.657
1158 0 80.0544 11.6046 929 117.371 800.339 473.258
1159 0 83.2157 12.7139 1058 114.913 799.759 469.834
1160 0 83.2157 12.6899 1056 134.422 799.773 469.746
1161 0 89.1739 12.6382 1127 119.184 799.707 468.587
1162 0 90.2272 12.4242 1121 121.439 799.516 466.966
1163 0 93.1233 12.0593 1123 123.029 799.835 465.337
1164 0 97.1653 12.7412 1238 122.048 799.92 464.299
1165 0 100.203 12.7042 1273 122.836 800.045 460.797
1166 0 104.166 13.5937 1416 119.843 800.256 460.549
1167 1 61.0658 10.4641 639 122.174 799.739 482.845
1168 0 63.179 11.2537 711 118.634 799.819 484.007
1169 0 64.0913 12.1077 776 110.862 801.126 482.523
1170 0 67.0672 12.7633 856 112.188 802.73 481.856
1171 0 66.0571 12.0956 799 116.081 801.819 478.496
1172 0 72.0813 12.916 931 112.067 802.437 478.533
1173 0 73.0961 13.1608 962 118.129 802.627 474.968
1174 0 75.0523 12.6845 952 119.801 802.898 475.893
1175 0 78.0446 12.4544 972 120.351 802.611 474.507
1176 0 78.0736 12.8597 1004 121.227 802.595 472.302
1177 0 83.1024 12.8155 1065 120.404 802.393 473.569
1178 0 88.116 14.1745 1249 116.479 802.765 469.998
1179 0 88.0901 13.4521 1185 119.912 802.279 469.416
1180 0 88.0688 12.4562 1097 124.674 801.799 467.256
1181 0 95.1316 13.6127 1295 120.891 802.236 466.469
1182 0 98.1 13.843 1358 120.021 802.328 463.445
1183 0 102.144 14.6264 1494 117.117 802.179 463.584
1184 0 105.101 13.9675 1468 117.664 802.429 462.088
1185 1 57.0798 11.3876 650 118.72 802.497 485.666
1186 0 58.0375 12.2852 713 118.798 803.142 485.031
1187 0 61.0583 12.0049 733 120.782 803.075 484.378
1188 0 61.0587 13.4624 822 119.052 802.738 481.759
1189 0 63.0388 14.2611 899 116.97 802.513 480.742
1190 0 64.0185 13.0587 836 119.248 803.189 481.304
1191 0 64.0288 11.7135 750 125.327 803.148 478.888
1192 0 68.0638 12.7087 865 121.039 803.168 479.271
1193 0 70.0699 13.301 932 120.698 803.191 476.91
1194 0 74.0958 13.8739 1028 118.054 802.399 476.057
1195 0 75.0557 13.6032 1021 120.539 802.935 475.233
1196 0 78.1252 12.9152 1009 121.777 802.888 474.248
1197 0 79.0875 12.8339 1015 123.626 802.748 473.485
1198 0 83.0967 12.5516 1043 123.017 802.724 470.711
1199 0 87.1398 12.9562 1129 120.105 803.39 470.915
1200 0 88.1505 12.2745 1082 123.447 803 468.03
1201 0 92.0445 12.2658 1129 122.947 802.838 466.798
1202 1 47.155 10.5397 497 121.606 803.487 488.489
1203 0 50.134 11.569 580 120.447 803.066 485.091
1204 0 51.1644 11.2969 578 120.434 801.995 485.234
1205 0 52.3473 11.3473 594 120.998 801.056 484.414
1206 0 52.3828 11.2251 588 122.895 801.585 484.058
1207 0 57.3007 11.5531 662 120.718 801.424 485.311
1208 0 59.328 12.7933 759 117.175 801.428 484.769
1209 0 60.2489 13.3281 803 116.349 801.579 483.158
1210 0 62.2337 13.9956 871 114.014 801.346 482.809
1211 0 64.2459 12.7168 817 117.684 801.654 480.711
1212 0 64.1912 12.5095 803 118.025 801.22 482.068
1213 0 65.183 12.8101 835 118.611 801.301 479.305
1214 0 70.3284 14.6456 1030 112.831 801.578 477.643
1215 0 71.2293 14.2919 1018 114.157 801.806 476.286
1216 0 74.3383 13.8825 1032 113.367 801.423 475.203
1217 0 76.2547 12.7336 971 115.835 801.764 475.916
1218 0 79.2607 13.7899 1093 114.02 801.573 473.748
1219 0 81.3255 13.9931 1138 113.799 801.37 472.378
1220 0 83.1889 13.7037 1140 115.021 800.866 471.814
1221 0 87.2594 13.1791 1150 116.443 801.097 469.79
1222 0 89.1781 13.7366 1225 114.755 800.104 468.064
1223 0 91.1386 12.9693 1182 117.581 800.37 465.438
1224 0 96.2484 13.86 1334 113.92 800.45 465.318
1225 0 98.2354 13.2539 1302 116.783 800.649 461.061
1226 0 103.116 12.6653 1306 116.904 800.721 460.882
1227 0 109.251 13.1898 1441 112.854 801.57 460.733
1228 0 108.242 13.0448 1412 115.208 801.674 457.907
1229 1 58.0928 9.88075 574 110.164 800.873 475.909
1230 0 63.1335 11.5311 728 102.019 802.245 480.599
1231 0 66.11 11.8136 781 100.492 802.018 480.297
1232 0 68.12 12.2578 835 100.095 801.408 479.867
1233 0 71.1029 12.4468 885 99.9322 801.475 478.279
1234 0 73.093 12.573 919 99.4037 801.38 476.661
1235 0 75.1992 12.1544 914 100.88 800.956 474.042
1236 0 77.2045 11.5667 893 102.38 801.429 473.376
1237 0 79.2168 11.5506 915 103.149 801.249 472.548
1238 0 82.1177 12.0924 993 101.729 801.834 471.392
1239 0 86.2098 12.0172 1036 102.105 802.097 468.628
1240 0 90.1807 13.107 1182 99.7107 801.835 467.178
1241 0 93.2019 11.9847 1117 101.025 801.628 469.964
1242 0 95.2799 11.5449 1100 103.942 801.405 466.282
1243 0 98.3693 11.528 1134 105.084 801.433 462.913
1244 0 102.255 12.4591 1274 103.132 801.418 460.075
1245 0 105.187 12.1593 1279 103.74 800.595 461.344
1246 0 106.159 10.9835 1166 106.599 800.766 459.591
1247 0 114.222 12.5983 1439 103.55 800.632 457.615
1248 1 59.3797 10.677 634 115.819 800.249 478.527
1249 0 64.4328 11.7952 760 112.095 800.784 478.937
1250 0 63.2561 11.6827 739 109.873 800.12 472.413
1251 0 65.109 12.6711 825 99.5188 801.575 478.499
1252 0 67.1386 11.305 759 102.063 801.145 479.91
1253 0 69.0603 11.3524 784 101.881 801.129 477.561
1254 0 73.1735 11.6982 856 101.113 800.144 474.067
1255 0 75.1523 12.1487 913 98.9102 800.332 475.656
1256 0 75.1534 12.3481 928 100.719 801.768 472.1
1257 0 78.1952 12.6862 992 99.2823 800.869 471.558
1258 0 81.1272 12.7208 1032 98.5998 800.956 471.45
1259 0 83.2526 11.6032 966 101.159 800.99 468.442
1260 0 88.2948 12.3563 1091 99.0614 801.348 466.634
1261 0 91.2231 13.4615 1228 97.4853 801.07 464.748
1262 0 94.3775 13.5202 1276 97.5658 800.58 461.77
1263 0 96.4138 11.9485 1152 100.878 800.503 459.838
1264 0 101.429 13.714 1391 97.4752 800.919 458.633
1265 0 104.446 13.0115 1359 99.8705 801.085 457.294
1266 0 104.207 11.7459 1224 108.149 800.491 455.458
1267 0 110.233 11.6209 1281 107.98 800.761 451.077
1268 0 115.436 13.8085 1594 102.773 801.096 451.099
1269 0 116.403 11.5118 1340 109.238 801.557 448.484
1270 0 120.44 11.981 1443 107.736 800.57 446.341
1271 0 125.679 13.2799 1669 103.854 801.136 447.839
1272 0 128.385 11.8628 1523 106.575 801.578 444.777
1273 0 130.5 10.1762 1328 110.861 800.596 438.959
1274 0 136.499 10.9085 1489 108.48 800.915 442.426
1275 0 143.395 12.5807 1804 105.619 800.856 437.819
1276 0 145.372 10.738 1561 112.398 800.798 434.28
1277 1 72.1763 11.1255 803 97.4558 802.179 474.826
1278 0 73.1309 11.1854 818 98.4046 802.557 473.649
1279 0 74.2267 10.6026 787 101.178 802.202 472.537
1280 0 76.1516 9.62554 733 104.385 802.145 468.247
1281 0 83.2684 11.0606 921 101.712 802.23 468.232
1282 0 81.1235 10.9093 885 105.408 802.532 465.275
1283 0 88.1609 11.445 1009 104.046 801.736 466.774
1284 0 92.263 11.4347 1055 105.757 801.97 465.173
1285 0 92.2214 11.1905 1032 109.273 801.299 459.783
1286 0 98.1973 12.1796 1196 107.985 800.971 460.536
1287 0 102.223 12.8053 1309 108.221 801.296 459.272
1288 0 103.427 11.6991 1210 113.424 800.443 452.255
1289 0 110.41 13.5224 1493 109.832 800.882 450.286
1290 0 114.331 12.9186 1477 111.548 800.066 451.324
1291 1 65.2471 10.2227 667 112.007 800.619 475.511
1292 0 70.367 11.369 800 110.811 801.166 474.894
1293 0 72.2293 12.7926 924 108.983 800.71 472.316
1294 0 73.1659 12.5878 921 111.544 801.113 472.672
1295 0 75.1156 12.8868 968 112.663 800.858 474.485
1296 0 75.1179 13.6985 1029 110.869 800.311 474.849
1297 0 81.146 13.1245 1065 112.888 799.984 471.376
1298 0 82.1047 12.8251 1053 114.245 800.667 471.257
1299 0 85.2573 13.9343 1188 111.255 800.164 468.57
1300 0 86.0977 12.5207 1078 114.796 800.455 469.983
1301 0 89.1206 13.6781 1219 112.66 799.636 465.341
1302 0 92.1316 14.2839 1316 111.489 800.324 466.087
1303 0 94.2205 12.9377 1219 116.115 800.514 466.391
1304 0 96.109 13.7448 1321 115.712 799.98 461.45
1305 0 100.116 13.744 1376 116.352 799.735 460.353
1306 0 100.113 13.8044 1382 117.764 799.837 459.528
1307 0 104.235 13.3641 1393 119.071 799.674 459.659
1308 0 107.068 13.1132 1404 121.365 799.704 456.483
1309 0 112.065 13.0371 1461 121.789 799.567 455.818
1310 0 117.314 13.1953 1548 121.472 800.966 454.105
1311 0 120.107 13.1133 1575 121.391 800.914 452.19
1312 0 123.206 13.3272 1642 122.933 800.988 449.081
1313 0 128.144 13.7813 1766 119.139 800.921 447.751
1314 0 133.176 13.0128 1733 119.823 800.482 447.837
1315 0 136.143 11.1721 1521 120.677 800.908 443.497
1316 1 78.1683 10.3495 809 118.643 800.239 472.119
1317 0 77.2084 12.0842 933 116.423 801.169 462.887
1318 0 80.0914 11.824 947 123.533 800.717 461.616
1319 0 83.0921 11.6979 972 123.423 800.517 463.26
1320 0 84.1294 11.6131 977 125.353 800.483 458.992
1321 0 90.1344 12.4703 1124 120.671 800.613 458.506
1322 0 90.1147 12.3842 1116 122.55 802.109 454.322
1323 0 95.1341 12.824 1220 120.539 801.425 453.639
1324 0 100.263 13.2651 1330 116.269 801.814 453.651
1325 0 102.146 12.7269 1300 118.08 802.262 454.349
1326 0 108.241 13.8488 1499 114.855 802.181 453.712
1327 0 110.154 13.1089 1444 118.096 801.168 451.315
1328 0 115.256 13.8474 1596 115.224 801.519 449.748
1329 0 119.238 13.3012 1586 116.211 801.008 447.043
1330 0 121.17 12.2968 1490 117.652 801.429 448.605
1331 0 123.258 13.2973 1639 116.184 801.005 442.725
1332 0 127.389 13.0388 1661 116.478 800.6 440.515
1333 0 130.229 13.2306 1723 115.739 800.756 439.002
1334 1 72.2301 9.62203 695 113.699 800.718 467.338
1335 0 75.2896 12.0601 908 109.293 801.123 465.619
1336 0 80.1077 12.1462 973 110.738 799.563 473.065
1337 0 83.2407 13.0105 1083 109.731 799.817 470.671
1338 0 82.1533 11.369 934 115.031 799.278 470.336
1339 0 85.0617 12.9553 1102 110.846 799.691 469.155
1340 0 89.167 13.1551 1173 109.755 799.926 465.945
1341 0 90.1691 11.3564 1024 114.518 800.07 464.707
1342 0 94.2497 12.8913 1215 110.43 800.578 462.841
1343 0 97.1883 12.3163 1197 111.558 800.321 462.162
1344 0 99.1902 12.3803 1228 111.576 800.102 459.563
1345 0 102.327 12.0007 1228 112.013 800.345 456.744
1346 0 104.22 12.3392 1286 110.598 800.339 457.306
1347 0 108.297 13.4261 1454 106.351 800.556 456.942
1348 0 113.188 12.2274 1384 109.423 800.66 454.038
1349 0 117.201 14.1893 1663 104.538 800.378 452.094
1350 0 118.451 13.0771 1549 107.394 799.917 451.845
1351 0 122.376 13.7609 1684 106.933 799.919 449.688
1352 0 124.404 13.9304 1733 106.483 801.523 446.601
1353 0 129.294 12.6611 1637 106.891 801.525 445.418
1354 0 133.518 11.2269 1499 108.257 801.648 443.512
1355 0 139.318 12.4463 1734 106.442 801.757 439.952
1356 0 144.507 12.1932 1762 107.602 801.224 438.569
1357 1 83.1586 10.9429 910 94.7593 801.854 471.036
1358 0 85.254 11.5303 983 96.6368 801.024 470.14
1359 0 89.2084 11.8823 1060 94.2189 800.661 462.738
1360 0 92.2602 11.7927 1088 95.3621 800.24 464.836
1361 0 95.2741 12.018 1145 94.9895 799.987 462.619
1362 0 98.1839 10.8877 1069 96.7961 800.005 465.593
1363 0 102.311 12.9018 1320 94.4864 801.125 461.538
1364 0 104.186 12.0746 1258 97.6073 801.374 456.789
1365 0 105.269 11.4564 1206 99.0199 800.876 456.858
1366 0 109.228 12.2587 1339 96.7132 800.571 458.274
1367 0 114.401 12.8233 1467 96.6578 800.837 452.029
1368 0 118.321 13.3619 1581 102.593 800.826 451.759
1369 0 122.228 11.5031 1406 104.639 801.072 454.378
1370 0 125.185 12.2379 1532 103.695 800.751 450.396
1371 0 131.136 12.3078 1614 102.139 801.076 444.744
1372 0 136.211 12.231 1666 102.068 800.259 444.661
1373 1 75.2088 11.0891 834 99.0216 800.27 473.156
1374 0 80.1993 11.3343 909 98.6414 800.062 471.529
1375 0 82.2387 13.2419 1089 97.3425 800.202 469.062
1376 0 83.0999 10.361 861 103.539 802.482 469.734
1377 0 86.2865 12.3426 1065 100.932 801.392 467.594
1378 0 90.2952 12.9797 1172 100.074 801.888 468.2
1379 0 89.3028 11.9257 1065 141.94 801.791 466.931
1380 0 96.3107 12.4389 1198 101.394 802.244 465.942
1381 0 96.2581 11.1783 1076 106.517 801.77 462.09
1382 0 100.432 12.7748 1283 103.341 801.567 459.333
1383 0 105.354 11.7414 1237 106.245 800.743 458.679
1384 0 108.321 13.0168 1410 103.634 801.124 458.097
1385 0 114.642 12.84 1472 104.404 801.535 452.829
1386 1 63.2797 11.0146 697 104.166 801.646 474.26
1387 0 65.3227 12.155 794 100.969 801.217 474.071
1388 0 66.0512 11.7485 776 95.7204 802.557 477.646
1389 0 70.0649 12.3171 863 101.435 802.848 476.701
1390 0 73.0459 12.2389 894 101.226 803.135 477.308
1391 0 75.0609 10.698 803 104.663 802.69 475.918
1392 0 77.0955 11.7646 907 102.842 802.579 473.31
1393 0 79.1127 11.9955 949 103.413 802.247 470.429
1394 0 83.3162 13.6468 1137 101.202 801.92 470.211
1395 0 85.2346 11.5211 982 104.949 802.415 472.248
1396 0 86.3558 12.5296 1082 104.703 801.527 469.621
1397 0 89.3253 12.0235 1074 106.243 801.574 468.252
1398 0 91.2762 11.6788 1066 106.772 801.609 469.293
1399 0 94.2769 11.6253 1096 109.127 801.859 463.934
1400 0 97.2267 11.9206 1159 109.065 801.428 463.413
1401 0 101.259 12.8483 1301 106.471 801.234 464.438
1402 0 104.3 12.2148 1274 109.043 801.378 461.291
1403 0 105.209 11.7385 1235 110.856 801.549 462.215
1404 0 108.279 11.7752 1275 111.445 801.934 459.638
1405 0 112.25 12.2405 1374 112.702 801.547 456.525
1406 0 116.221 13.0183 1513 109.412 801.111 455.461
1407 1 64.0594 10.2561 657 107.353 802.015 478.332
1408 0 67.1355 12.5716 844 101.532 801.647 478.527
1409 0 67.1061 11.4148 766 102.632 802.319 478.333
1410 0 72.1864 12.3015 888 99.1104 802.297 475.783
1411 0 71.202 11.9519 851 101.041 801.841 475.727
1412 0 74.2525 11.5821 860 102.434 801.638 472.8
1413 0 76.2124 11.796 899 102.667 802.087 472.343
1414 0 80.1555 12.3759 992 99.3034 801.684 469.423
1415 0 81.1801 11.185 908 98.9879 800.806 464.371
1416 0 84.179 10.6677 898 99.9243 800.866 466.301
1417 0 87.2472 11.2554 982 100.143 801.081 464.525
1418 0 89.2114 11.6913 1043 99.8773 800.746 463.99
1419 0 94.2491 11.4908 1083 100.727 801.448 459.197
1420 0 95.2775 10.1703 969 105.01 801.169 458.47
1421 0 96.2037 11.4237 1099 105.106 801.212 457.645
1422 1 49.1866 11.0599 544 103.893 802.303 481.851
1423 0 52.2164 11.031 576 105.056 801.231 481.997
1424 0 54.1088 11.1257 602 105.598 802.332 482.728
1425 0 56.0608 11.5589 648 105.821 803.185 482.096
1426 0 58.0545 12.6777 736 104.083 803.01 481.284
1427 0 59.0497 11.9052 703 107.209 803.774 481.249
1428 0 59.0539 11.6165 686 109.219 802.344 479.071
1429 0 60.0413 12.3915 744 108.294 802.456 480.254
1430 0 62.0626 11.6334 722 110.819 802.525 478.583
1431 0 64.068 12.5648 805 108.77 802.676 479.016
1432 0 65.1366 13.4487 876 108.154 803.061 475.804
1433 0 65.1366 13.4794 878 134.967 803.075 475.962
1434 0 67.1207 12.8276 861 111.107 802.506 475.583
1435 0 69.0647 13.2774 917 110.293 802.037 474.502
1436 0 72.0676 13.4041 966 110.145 801.448 470.8
1437 0 74.0751 13.8238 1024 109.271 801.541 470.591
1438 0 75.0821 12.9059 969 112.816 801.506 469.955
1439 0 78.1309 14.3733 1123 109.412 801.974 467.726
1440 0 80.0965 13.8333 1108 111.439 801.959 467.356
1441 0 81.0488 14.0656 1140 112.158 801.857 465.448
1442 0 84.0806 13.4038 1127 114.702 801.734 465.248
1443 0 87.2007 14.3462 1251 111.323 801.906 465.097
1444 0 87.1436 13.5064 1177 115.838 801.839 461.975
1445 0 90.1472 12.8678 1160 117.441 802.037 463.767
1446 0 93.1032 14.6504 1364 114.999 802.094 462.249
1447 0 96.1396 14.0005 1346 117.586 801.61 458.895
1448 0 98.2234 13.4082 1317 122.2 801.656 458.493
1449 0 101.151 14.0186 1418 120.616 801.713 456.7
1450 1 58.0465 10.9912 638 120.519 802.755 482.063
1451 0 59.1872 11.4552 678 112.94 801.695 475.205
1452 0 59.1846 11.0164 652 115.586 801.212 472.218
1453 0 59.128 12.549 742 112.977 801.802 471.643
1454 0 64.1052 12.4951 801 110.017 801.323 475.398
1455 0 66.0551 12.6561 836 110.98 801.91 471.795
1456 0 68.1211 13.2998 906 110.003 801.6 471.185
1457 0 71.2042 13.0891 932 109.79 801.662 470.623
1458 0 73.0756 12.576 919 110.255 801.233 471.878
1459 0 74.3348 10.8697 808 116.449 801.26 466.313
1460 0 78.1445 12.8864 1007 112.044 802.079 466.065
1461 0 79.1895 12.0218 952 114.354 801.489 465.264
1462 0 82.1503 12.3311 1013 114.042 800.906 466.019
1463 0 85.0704 12.3192 1048 113.756 800.225 465.414
1464 0 87.0729 11.6224 1012 116.336 800.638 463.534
1465 0 89.1981 12.2312 1091 115.287 802.066 460.027
1466 0 94.2493 12.6049 1188 114.38 801.375 458.655
1467 0 95.3679 12.8765 1228 115.221 801.805 456.462
1468 0 99.2205 12.699 1260 115.582 801.556 454.93
1469 0 101.208 12.2026 1235 115.162 801.549 457.01
1470 0 104.147 12.8184 1335 114.894 801.091 454.85
1471 1 58.0308 12.0626 700 121.183 801.883 481.349
1472 0 60.2868 13.2865 801 118.707 800.985 478.71
1473 0 59.025 13.1639 777 120.382 801.912 478.03
1474 0 64.0504 13.5831 870 115.246 801.508 479.018
1475 0 65.1098 14.0685 916 114.895 801.352 477.538
1476 0 68.0502 13.7399 935 116.363 801.733 477.082
1477 0 71.085 13.505 960 117.381 802.151 475.964
1478 0 73.1207 13.4435 983 117.797 802.031 476.114
1479 0 74.0767 13.7965 1022 118.547 801.958 473.862
1480 0 77.0951 14.6832 1132 116.001 802.176 472.843
1481 0 79.2055 14.2288 1127 117.105 802.297 472.946
1482 0 81.0826 14.2077 1152 118.581 801.561 469.301
1483 0 83.1319 14.4229 1199 118.789 801.025 466.427
1484 0 86.1714 14.4131 1242 118.802 800.595 464.757
1485 0 90.0847 15.441 1391 115.579 800.959 465.594
1486 0 92.217 14.9105 1375 117.116 800.999 461.794
1487 0 94.14 15.0096 1413 117.735 800.844 461.742
1488 0 97.1813 14.3958 1399 120.016 801.011 459.671
1489 0 101.182 15.319 1550 118.219 800.87 456.311
1490 0 105.201 14.9048 1568 119.892 801.27 454.899
1491 0 106.183 14.1643 1504 123.202 800.959 452.688
1492 0 109.179 14.4992 1583 125.533 800.931 452.897
1493 0 114.139 14.7189 1680 125.421 801.029 451.646
1494 0 118.253 15.044 1779 125.454 801.369 449.119
1495 0 120.209 13.7593 1654 131.29 800.462 443.952
1496 1 64.1548 11.8775 762 127.007 800.887 476.429
1497 0 64.0953 11.3425 727 125.029 801.188 474.784
1498 0 67.1015 13.8894 932 120.814 800.912 474.055
1499 0 70.1641 13.0694 917 128.087 800.867 473.121
1500 0 72.1553 13.3324 962 128.233 800.991 471.478
1501 0 75.0816 14.0247 1053 127.836 800.915 470.407
1502 0 76.0873 12.9325 984 132.588 800.541 468.905
1503 0 78.0636 13.0278 1017 127.533 800.661 467.579
1504 0 79.0585 12.0038 949 126.874 800.242 467.442
1505 0 81.1036 13.7725 1117 125.121 800.495 465.136
1506 0 82.0318 13.3972 1099 132.332 801.122 466.207
1507 0 81.0453 11.4997 932 140.328 801.313 464.274
1508 0 83.1248 13.1369 1092 134.159 801.025 464.597
1509 0 85.138 13.5897 1157 136.685 800.826 464.251
1510 0 87.0556 12.8653 1120 140.538 800.05 466.08
1511 0 90.0712 14.1555 1275 133.084 800.284 462.594
1512 0 94.1701 14.357 1352 131.095 799.993 457.392
1513 1 48.1008 10.4988 505 134.16 800.218 479.091
1514 0 52.1791 11.4989 600 127.178 800.122 480.695
1515 0 55.071 12.2387 674 127.878 800.432 482.668
1516 0 57.1144 12.6588 723 124.643 800.459 480.552
1517 0 56.102 11.1582 626 116.409 799.842 479.422
1518 0 57.0843 10.6684 609 116.251 800.529 480.118
1519 0 60.068 11.1374 669 114.849 800.462 479.815
1520 0 61.1168 11.8625 725 115.712 800.52 476.098
1521 0 60.179 11.5655 696 118.711 800.81 475.251
1522 0 61.0562 11.1045 678 120.382 800.631 476.302
1523 0 65.0935 12.1057 788 119.027 801.184 474.675
1524 0 67.1202 11.755 789 120.184 800.346 474.203
1525 0 68.121 10.9364 745 124.533 800.521 472.138
1526 0 69.0783 11.8416 818 124.846 800.622 471.968
1527 0 71.1116 11.9952 853 127.186 800.28 471.411
1528 0 72.0983 12.0807 871 130.414 800.277 471.114
1529 0 75.0701 12.162 913 133.588 800.589 469.193
1530 0 76.1085 12.1143 922 134.634 801.022 468.608
1531 0 79.142 12.6229 999 134.539 800.481 467.057
1532 0 84.1818 13.4471 1132 130.661 799.851 466.318
1533 1 44.0178 9.7915 431 134.248 799.998 489.49
1534 0 46.1194 10.8631 501 137.018 799.691 487.733
1535 0 49.0687 13.0633 641 141.908 799.52 486.991
1536 0 51.1077 12.9922 664 143.956 798.661 486.834
1537 0 53.0426 14.4412 766 136.886 799.573 487.905
1538 0 51.0382 13.0686 667 144.289 799.517 487.339
1539 0 55.0544 12.8963 710 143.23 800.086 487.286
1540 0 58.0553 13.6938 795 139.747 799.357 485.792
1541 0 59.0928 13.555 801 141.164 799.055 485.408
1542 0 61.0439 13.9408 851 140.036 799.859 484.544
1543 0 63.0931 13.6465 861 139.479 799.664 482.886
1544 0 63.0944 12.8379 810 143.885 798.495 482.436
1545 0 65.0145 13.8584 901 141.208 798.474 481.509
1546 0 69.0556 13.7425 949 140.654 798.867 481.547
1547 0 69.0581 14.3358 990 139.842 799.103 481.073
1548 0 72.1299 16.0266 1156 131.145 798.462 478.68
1549 0 73.1417 14.178 1037 138.46 798.357 479
1550 0 77.0658 15.2467 1175 135.004 798.449 476.014
1551 0 79.1025 14.7024 1163 131.248 798.533 471.989
1552 0 79.3943 13.4267 1066 135.478 798.729 470.73
1553 0 82.3454 13.3341 1098 135.413 798.779 470.543
1554 0 83.1461 13.1215 1091 137.484 798.39 467.617
1555 0 87.1666 14.0994 1229 134.697 797.806 467.332
1556 0 88.2623 13.6298 1203 136.747 798.869 467.242
1557 0 92.1749 13.7131 1264 136.116 798.359 467.306
1558 0 95.0909 13.7237 1305 135.102 797.857 464.688
1559 0 100.214 13.7107 1374 134.953 797.798 463.055
1560 0 101.136 13.7735 1393 135.804 798.447 460.2
1561 0 106.17 14.1848 1506 135.088 798.376 460.072
1562 1 58.0315 11.8901 690 127.958 798.774 486.888
1563 0 62.122 12.9906 807 124.753 798.7 482.736
1564 0 62.1577 13.0957 814 124.182 798.622 481.87
1565 0 63.0578 12.7343 803 123.828 799.057 482.923
1566 0 67.1689 13.935 936 119.566 798.896 480.66
1567 0 70.0949 12.6115 884 120.713 799.002 480.058
1568 0 72.0388 13.1734 949 119.223 798.432 478.073
1569 0 75.0677 13.8675 1041 117.529 799.404 475.893
1570 0 78.0743 13.295 1038 118.027 798.316 475.61
1571 0 79.0775 14.2392 1126 117.256 798.489 472.019
1572 0 81.0559 13.8053 1119 119.296 798.027 471.576
1573 0 85.1449 15.0919 1285 115.455 797.774 471.398
1574 0 86.1959 12.9357 1115 121.695 797.799 469.071
1575 0 89.119 13.2071 1177 120.975 798.08 469.889
1576 0 91.0777 12.934 1178 124.893 798.272 468.048
1577 0 96.1056 13.4331 1291 123.264 798.321 467.1
1578 0 99.0947 13.1188 1300 124.17 799.022 465.092
1579 0 105.06 13.0972 1376 123.444 798.371 463.23
1580 1 56.0776 11.3949 639 118.761 798.72 485.818
1581 0 58.0595 12.8833 748 115.003 798.503 485.154
1582 0 60.0455 12.1741 731 116.911 798.698 484.185
1583 0 62.053 12.7472 791 115.981 799.135 481.276
1584 0 64.1039 13.4469 862 112.892 798.633 482.352
1585 0 65.0839 13.3213 867 113.875 798.564 481.476
1586 0 69.0823 13.3609 923 112.911 798.193 480.702
1587 0 72.1214 13.4357 969 112.133 798.535 477.173
1588 0 70.0712 12.0592 845 118.425 798.822 476.885
1589 0 77.0385 14.0319 1081 111.565 799.475 477.737
1590 0 79.072 14.7081 1163 110.117 799.003 473.675
1591 0 81.1361 13.5821 1102 113.5 798.975 472.863
1592 0 82.0589 13.5391 1111 117.745 798.558 470.83
1593 0 82.0903 12.7542 1047 117.323 798.6 469.094
1594 0 87.0887 13.3657 1164 115.518 798.599 467.552
1595 0 92.0912 14.5725 1342 111.976 798.842 469.719
1596 0 92.0686 13.5986 1252 115.676 798.804 465.871
1597 0 94.1063 13.2935 1251 116.487 799.631 466.164
1598 0 97.1125 12.6142 1225 117.775 799.585 466.331
1599 0 101.113 14.1525 1431 114.851 799.755 461.874
1600 0 103.134 13.9624 1440 115.903 799.252 461.707
1601 0 107.173 13.5669 1454 118.269 799.439 460.706
1602 0 111.108 13.1674 1463 120.756 799.286 457.81
1603 0 116.177 13.9442 1620 119.639 799.175 455.554
1604 0 120.137 13.6511 1640 122.075 798.623 448.774
1605 1 63.1212 12.2463 773 120.875 798.899 476.626
1606 0 68.0192 13.7755 937 117.013 798.677 477.869
1607 0 69.1538 14.2725 987 114.738 799.478 479.687
1608 0 70.1808 13.4367 943 118.043 799.641 478.341
1609 0 74.1937 13.2491 983 118.613 799.448 475.425
1610 0 77.0956 14.1383 1090 115.748 799.483 477.372
1611 0 77.1627 12.3635 954 122.081 800.019 474.206
1612 0 82.1314 13.9046 1142 117.088 799.793 472.511
1613 0 84.133 13.134 1105 118.349 799.517 469.874
1614 0 86.0696 12.1413 1045 112.198 799.619 467.925
1615 0 90.1355 13.1247 1183 110.41 798.998 466.093
1616 0 93.1288 13.1001 1220 110.75 799.662 465.315
1617 0 95.0981 12.5975 1198 112.535 799.275 464.463
1618 0 99.0633 14.95 1481 107.219 799.012 463.077
1619 0 101.179 12.3346 1248 112.407 799.095 462.933
1620 0 104.211 13.1464 1370 112.091 799.104 459.293
1621 0 107.1 13.2866 1423 113.408 798.498 454.595
1622 0 111.103 12.3579 1373 115.283 797.919 455.042
1623 0 115.184 12.9706 1494 115.726 798.847 453.67
1624 0 121.109 13.5085 1636 113.298 798.319 450.983
1625 0 125.257 13.652 1710 112.033 798.8 452.141
1626 0 129.135 12.0185 1552 115.289 798.812 452.29
1627 1 74.106 12.6305 936 108.991 798.811 474.77
1628 0 77.1451 13.3904 1033 100.365 799.35 473.676
1629 0 79.2204 12.2696 972 107.367 799.283 476.956
1630 0 81.0693 11.669 946 109.526 798.852 475.909
1631 0 84.0987 12.1643 1023 110.242 798.489 473.043
1632 0 89.0674 13.6526 1216 105.66 797.973 467.833
1633 0 91.1469 12.6499 1153 108.06 797.627 468.307
1634 0 95.2611 13.4787 1284 107.538 798.081 465.21
1635 0 99.2726 13.3169 1322 108.19 798.346 466.23
1636 0 100.29 13.112 1315 110.31 798.284 461.636
1637 0 102.185 12.9276 1321 111.484 798.391 462.495
1638 0 108.211 12.8915 1395 114.118 797.836 461.239
1639 0 113.231 14.519 1644 110.553 797.883 459.571
1640 1 59.1926 11.7751 697 108.022 798.065 483.722
1641 0 61.1216 12.3361 754 109.162 798.123 482.618
1642 0 63.1449 12.3209 778 107.991 799.121 485.86
1643 0 65.174 12.3055 802 109.496 799.256 483.206
1644 0 67.1556 13.0592 877 108.27 799.007 483.331
1645 0 69.2456 12.9683 898 109.847 798.765 479.992
1646 0 70.18 12.7102 892 111.098 798.767 481.808
1647 0 71.1676 12.2387 871 114.783 798.201 476.103
1648 0 77.165 14.2033 1096 110.615 798.529 473.862
1649 0 78.2957 12.1718 953 116.956 798.826 472.08
1650 0 80.1642 13.622 1092 113.647 798.98 472.939
1651 0 83.1926 13.8113 1149 115.56 798.727 468.144
1652 0 85.2068 13.1445 1120 116.721 799.021 468.795
1653 0 87.3247 13.3067 1162 118.033 799.289 466.761
1654 0 90.3111 13.675 1235 117.76 799.577 466.764
1655 0 92.2605 12.9199 1192 119.336 799.259 465.822
1656 0 97.3187 12.5258 1219 119.162 799.515 465.355
1657 0 100.197 11.9665 1199 119.988 799.366 465.415
1658 1 54.0918 11.536 624 116.123 799.175 488.917
1659 0 55.0497 11.862 653 114.703 799.11 484.986
1660 0 57.0976 12.5049 714 113.032 798.493 480.489
1661 0 61.0891 13.0301 796 116.42 798.476 484.902
1662 0 61.0867 13.1616 804 116.831 798.585 484.407
1663 0 64.0694 13.501 865 116.014 798.988 482.8
1664 0 64.0857 13.123 841 118.604 799.134 480.294
1665 0 68.1342 13.5761 925 119.299 798.357 480.624
1666 0 69.1476 13.3338 922 120.782 798.352 482.125
1667 0 71.0974 13.8683 986 120.94 798.189 479.469
1668 0 73.1067 13.5555 991 123.124 798.188 476.533
1669 0 76.123 13.5701 1033 124.775 798.936 477.422
1670 0 77.1523 13.078 1009 128.24 798.671 475.469
1671 0 80.132 13.4902 1081 126.55 798.584 475.296
1672 0 83.1443 14.0358 1167 125.912 798.049 473.613
1673 0 85.1568 13.9507 1188 129.448 798.357 471.782
1674 0 87.1612 14.3298 1249 128.583 798.388 472.464
1675 0 90.127 13.7362 1238 131.805 798.399 471.037
1676 0 93.1902 15.1518 1412 129.477 798.329 468.131
1677 0 96.1849 15.0543 1448 130.104 798.229 467.207
1678 0 99.241 15.1449 1503 130.255 798.588 465.2
1679 0 100.292 14.1287 1417 136.362 798.048 464.867
1680 0 105.227 15.1291 1592 132.414 797.974 463.42
1681 0 107.21 14.5695 1562 135.305 797.504 461.538
1682 0 111.255 14.8397 1651 134.405 798.187 459.748
1683 0 114.247 14.3811 1643 135.981 798.661 460.233
1684 0 121.276 15.3122 1857 132.59 798.379 457.246
1685 0 125.34 14.6003 1830 134.786 798.957 455.168
1686 0 129.141 15.1773 1960 134.631 797.887 451.135
1687 1 67.0472 12.8715 863 136.537 798.122 481.101
1688 0 71.0878 13.7436 977 134.651 799.266 477.964
1689 0 73.1296 14.5222 1062 127.343 798.701 473.12
1690 0 75.0711 13.374 1004 128.927 799.018 472.247
1691 0 76.041 13.1377 999 132.189 799.268 470.662
1692 0 82.1117 14.8578 1220 127.03 799.022 468.2
1693 0 82.0908 13.814 1134 131.752 799.189 466.595
1694 0 87.1313 14.5757 1270 129.277 798.209 464.6
1695 0 89.0813 14.5261 1294 129.8 798.114 463.94
1696 0 92.1752 14.2989 1318 131.18 798.57 463.287
1697 0 95.0687 15.2101 1446 130.084 798.295 461.321
1698 0 98.0812 15.3036 1501 130.704 798.737 462.075
1699 0 101.164 15.3612 1554 132.319 798.802 458.477
1700 0 105.135 14.7144 1547 135.674 798.796 455.61
1701 0 109.126 15.8991 1735 132.238 799.172 453.896
1702 0 112.319 14.6369 1644 137.082 798.69 451.72
1703 1 60.1243 12.8567 773 136.217 799.034 478.004
1704 0 63.0549 12.7032 801 130.749 798.98 475.772
1705 0 66.1529 12.6827 839 122.02 798.868 477.38
1706 0 68.0621 13.1938 898 120.765 798.708 473.688
1707 0 69.0515 12.411 857 124.119 798.23 473.362
1708 0 70.2247 13.1293 922 124.174 797.941 470.451
1709 0 74.1309 13.719 1017 126.891 798.625 469.673
1710 0 75.0887 14.2365 1069 129.768 798.12 468.988
1711 0 77.1438 15.2702 1178 128.149 797.778 470.621
1712 0 76.1059 14.4273 1098 133.923 798.163 470.027
1713 0 78.0933 15.776 1232 131.472 798.433 470.254
1714 0 78.1514 16.5064 1290 131.234 798.512 468.886
1715 0 77.0573 15.5469 1198 137.028 798.184 467.018
1716 0 75.0534 13.7502 1032 133.632 797.73 471.235
1717 0 71.0784 13.2108 939 141.666 798.485 473.585
1718 0 74.1316 14.6092 1083 139.28 798.423 472.958
1719 0 75.0435 14.8314 1113 137.108 798.361 472.742
1720 0 75.0317 14.234 1068 141.951 798.171 472.002
1721 0 77.0718 14.5968 1125 140.635 797.976 471.304
1722 0 76.1125 14.7413 1122 143.029 798.302 469.402
1723 0 78.0471 14.8372 1158 141.195 798.108 472.123
1724 0 80.1281 16.1242 1292 140.128 798.141 475.653
1725 0 81.0543 15.027 1218 144.054 798.261 475.493
1726 0 83.0617 15.952 1325 140.676 798.487 471.787
1727 0 84.0642 16.2376 1365 140.427 798.185 471.675
1728 0 85.1354 15.6104 1329 142.269 798.284 471.746
1729 0 88.1203 16.137 1422 139.366 798.583 470.241
1730 0 88.1151 16.7054 1472 138.661 798.158 467.905
1731 0 90.0796 16.3411 1472 139.255 798.196 466.384
1732 0 92.1393 15.9975 1474 143.132 798.257 466.181
1733 0 92.1957 15.7057 1448 146.49 798.889 463.887
1734 0 97.1471 15.2552 1482 144.895 799.125 466.476
1735 0 100.162 14.9359 1496 147.098 798.551 462.7
1736 0 104.282 16.3403 1704 142.638 798.254 460.259
1737 1 53.1497 13.1703 700 147.633 798.417 485.103
1738 0 58.1246 13.3334 775 147.235 798.03 482.516
1739 0 57.1547 14.4345 825 147.07 797.382 482.401
1740 0 60.0406 13.9572 838 145.289 798.119 482.907
1741 0 61.0225 15.1092 922 142.382 798.067 482.473
1742 0 62.0159 14.4318 895 143.895 797.992 482.398
1743 0 64.0213 14.7295 943 144.317 797.843 478.826
1744 0 67.0854 13.6989 919 142.653 798.287 474.965
1745 0 69.037 14.1229 975 141.173 797.961 473.637
1746 0 72.1577 14.1773 1023 140.429 798.525 474.437
1747 0 73.0549 14.5644 1064 140.713 798.229 471.565
1748 0 75.1824 14.9902 1127 139.463 797.818 470.96
1749 0 78.128 14.809 1157 139.349 798.011 470.013
1750 0 79.138 14.8854 1178 139.53 798.434 469.78
1751 0 83.1179 15.3276 1274 136.94 798.033 466.847
1752 0 85.1255 14.4493 1230 139.46 798.385 465.342
1753 0 88.0941 14.4732 1275 138.387 798.209 465.033
1754 0 91.2371 14.6761 1339 137.436 798.125 462.713
1755 0 94.0437 14.3019 1345 138.047 797.834 462.434
1756 0 99.2196 14.5536 1444 134.983 797.822 460.546
1757 1 53.0455 12.9511 687 130.891 797.463 481.236
1758 0 54.0715 12.7609 690 128.829 797.929 481.897
1759 0 55.1361 12.188 672 129.695 797.75 481.143
1760 0 59.086 12.2025 721 128.689 798.581 480.738
1761 0 61.0844 13.1294 802 124.757 798.559 481.223
1762 0 63.2708 12.7863 809 123.956 798.363 481.26
1763 0 66.1422 12.7453 843 125.369 798.114 478.957
1764 0 67.0978 12.4445 835 127.25 798.479 478.693
1765 0 70.1696 12.9258 907 126.336 798.733 477.221
1766 0 73.1148 13.1984 965 127.034 799.032 476.733
1767 0 73.1568 11.3592 831 133.314 798.545 476.579
1768 0 78.1696 12.8311 1003 129.87 798.779 475.586
1769 0 80.1991 13.1672 1056 130.322 798.344 474.298
1770 0 81.2448 13.1578 1069 132.737 798.246 471.826
1771 0 85.2908 13.0964 1117 132.443 799.005 471.277
1772 0 88.1482 13.171 1161 130.742 798.495 473.137
1773 1 47.0579 11.3265 533 129.154 799.173 490.39
1774 0 50.0517 11.9077 596 127.953 799.092 488.696
1775 0 52.1108 12.0321 627 126.718 799.129 486.818
1776 0 52.0904 11.4993 599 124.728 798.972 484.566
1777 0 56.0708 11.753 659 122.323 799.099 485.404
1778 0 56.1731 11.8918 668 123.552 799.208 483.25
1779 0 59.1 12.1151 716 122.518 798.976 482.869
1780 0 59.1 12.1658 719 130.803 798.968 482.886
1781 0 61.1237 11.9594 731 124.888 798.129 480.851
1782 0 62.0827 11.3397 704 128.101 798.849 476.889
1783 0 65.0981 11.6747 760 125.187 798.547 475.13
1784 0 70.0234 11.5533 809 124.574 798.933 475.991
1785 0 72.0643 13.2659 956 120.84 799.44 472.747
1786 0 76.0852 12.578 957 122.03 798.537 473.136
1787 0 76.113 12.6916 966 129.177 797.542 473.208
1788 0 81.127 12.7948 1038 122.639 798.451 470.633
1789 0 82.0284 11.4107 936 124.475 798.145 471.405
1790 0 87.0433 12.5914 1096 121.795 798.247 466.519
1791 1 47.086 11.4896 541 116.627 798.983 488.595
1792 0 47.0532 11.4126 537 118.52 799.27 487.467
1793 0 49.0704 12.7572 626 115.633 798.695 484.337
1794 0 50.0577 11.8264 592 117.117 798.373 486.956
1795 0 50.0215 12.5946 630 123.225 797.446 487.765
1796 0 55.0713 12.729 701 120.454 797.466 485.76
1797 0 55.1176 11.4845 633 123.578 798.071 485.87
1798 0 58.0874 13.4797 783 117.7 797.863 484.344
1799 0 61.035 13.2383 808 118.021 798.041 484.417
1800 0 62.067 12.2932 763 121.59 797.573 483.903
1801 0 66.0693 12.8653 850 119.575 797.909 481.833
1802 0 65.0604 13.6181 886 119.779 797.859 481.629
1803 0 70.0271 13.1092 918 120.378 798.39 479.747
1804 0 73.036 14.0889 1029 117.809 798.572 479.381
1805 0 74.0609 13.2999 985 121.383 798.617 477.454
1806 0 75.0634 13.5486 1017 121.241 799.438 476.792
1807 0 78.0681 12.6172 985 124.252 799.319 476.783
1808 0 81.1035 13.7725 1117 121.158 798.557 472.301
1809 0 83.1253 12.9564 1077 123.729 798.682 473.864
1810 0 87.0419 13.2005 1149 124.051 798.651 472.209
1811 0 89.124 14.3957 1283 121.676 798.588 470.445
1812 0 93.1118 13.9188 1296 123.914 798.425 469.14
1813 0 95.0671 14.2952 1359 124.903 798.514 467.077
1814 0 99.0808 14.1602 1403 125.253 798.418 466.669
1815 1 51.0456 11.2252 573 132.197 798.897 490.829
1816 0 52.0743 13.1351 684 129.775 798.849 489.126
1817 0 55.0446 14.2248 783 126.783 799.052 487.582
1818 0 58.0998 14.1481 822 125.394 799.35 486.83
1819 0 58.1099 13.3884 778 128.942 799.622 485.724
1820 0 60.1089 13.7084 824 127.322 798.523 485.756
1821 0 61.0807 14.2271 869 126.679 798.763 483.891
1822 0 63.0636 13.7639 868 128.609 798.711 482.661
1823 0 67.0536 15.1222 1014 124.085 798.384 480.26
1824 0 69.0973 13.6474 943 129.199 798.258 477.922
1825 0 71.0931 13.7144 975 129.51 798.408 478.714
1826 0 71.1032 13.9234 990 131.546 798.337 476.445
1827 0 76.104 14.559 1108 128.366 798.831 474.894
1828 0 78.136 14.7307 1151 128.75 798.927 474.214
1829 0 80.1071 13.5069 1082 133.917 798.399 473.439
1830 0 84.1405 13.9291 1172 132.675 798.765 470.695
1831 0 85.1211 13.6394 1161 134.99 798.972 469.131
1832 0 87.0911 13.8935 1210 134.532 798.927 467.918
1833 0 90.0849 14.2865 1287 133.521 798.444 467.446
1834 0 91.0851 13.6576 1244 136.062 798.135 465.065
1835 0 95.2355 13.5559 1291 136.432 798.263 464.689
1836 0 97.1293 13.6519 1326 136.175 797.578 464.198
1837 0 104.175 14.3412 1494 133.282 798.011 463.145
1838 0 106.073 14.4052 1528 138.058 798.058 461.378
1839 0 108.106 13.7735 1489 140.341 798.022 458.711
1840 0 111.233 13.5032 1502 141.32 797.84 458.71
1841 0 117.212 15.1521 1776 137.498 797.325 454.425
1842 0 122.117 15.3377 1873 135.685 798.054 455.038
1843 0 126.308 14.9634 1890 138.029 797.991 448.967
1844 0 129.222 14.7266 1903 138.494 797.304 449.333
1845 0 135.234 14.7004 1988 138.812 798.207 443.71
1846 0 140.333 14.7792 2074 137.654 798.509 440.67
1847 0 140.333 14.6651 2058 152.859 798.512 440.298
1848 0 148.444 14.5105 2154 139.882 798.01 437.54
1849 0 155.274 13.9431 2165 140.916 797.964 435.236
1850 0 160.422 15.4093 2472 136.83 797.481 431.778
1851 0 167.199 15.5443 2599 135.963 797.119 429.778
1852 0 171.326 15.0649 2581 139.105 797.102 427.606
1853 0 176.331 15.641 2758 138.115 796.881 423.615
1854 0 181.366 14.9091 2704 140.2 797.391 424.347
1855 0 187.324 15.4492 2894 138.082 797.82 420.944
1856 0 191.403 14.7856 2830 140.926 797.784 416.53
1857 0 197.337 15.6838 3095 137.79 797.611 415.404
1858 0 204.453 14.8347 3033 139.299 798.24 412.324
1859 0 213.432 14.1918 3029 139.919 798.329 411.346
1860 0 222.486 14.5987 3248 139.421 797.942 404.678
1861 1 170.559 14.2648 2433 143.798 798.266 427.046
1862 0 176.502 14.8327 2618 142.036 798.424 424.028
1863 0 185.407 15.4957 2873 139.619 798.384 420.624
1864 0 192.35 16.0697 3091 138.354 798.361 418.222
1865 0 198.402 14.148 2807 143.647 798.332 415.85
1866 0 206.481 15.3186 3163 139.11 797.429 413.403
1867 0 213.56 15.2651 3260 138.117 798.346 408.675
1868 0 221.508 15.7918 3498 136.972 797.933 404.566
1869 1 69.1954 11.4892 795 139.992 798.389 472.245
1870 0 73.2803 12.2407 897 135.352 798.281 474.509
1871 0 74.2121 12.1543 902 133.875 797.71 473.551
1872 0 78.1604 13.7154 1072 126.586 798.474 473.034
1873 0 79.2327 13.2521 1050 125.294 798.237 469.554
1874 0 83.2045 13.8694 1154 126.014 798.386 467.749
1875 0 86.1655 13.8106 1190 126.905 798.413 466.909
1876 0 88.1143 13.9024 1225 128.433 798.193 465.607
1877 0 90.25 13.6731 1234 128.833 798.438 464.273
1878 0 94.1709 13.8578 1305 128.615 798.884 463.038
1879 0 98.1801 14.0965 1384 127.673 798.355 462.916
1880 0 100.176 13.4664 1349 131.945 797.469 458.427
1881 0 103.145 13.9804 1442 130.721 797.35 457.813
1882 0 108.107 13.8659 1499 127.025 796.662 446.492
1883 0 107.098 12.652 1355 131.754 797.052 450.588
1884 0 115.263 14.0461 1619 130.548 797.817 451.264
1885 0 118.234 14.0822 1665 131.962 796.747 449.467
1886 0 122.143 13.9918 1709 132.612 796.167 448.531
1887 0 124.206 13.5017 1677 136.277 796.927 441.426
1888 0 128.135 13.9775 1791 136.706 797.171 437.522
1889 0 132.13 14.1376 1868 136.73 797.381 436.181
1890 0 133.177 14.1841 1889 138.436 797.168 437.625
1891 0 139.213 14.7256 2050 136.387 797.68 434.759
1892 0 142.209 15.414 2192 135.529 797.604 430.823
1893 0 145.162 14.3771 2087 140.386 797.291 428.206
1894 0 147.251 13.3378 1964 144.323 797.628 425.584
1895 0 154.367 14.2907 2206 140.637 797.484 422.861
1896 0 156.304 14.4527 2259 140.756 797.587 420.556
1897 0 163.252 14.3888 2349 139.713 797.506 420.447
1898 0 168.361 14.653 2467 138.617 797.686 417.151
1899 0 172.343 13.183 2272 143.084 797.807 415.216
1900 0 178.255 13.7331 2448 142.302 798.122 409.448
1901 0 184.375 14.1993 2618 141.008 797.906 409.591
1902 1 113.279 11.3525 1286 136.449 798.39 446.035
1903 0 115.323 11.5848 1336 137.982 798.106 440.393
1904 0 121.506 12.806 1556 132.391 798.434 443.277
1905 0 125.398 12.6876 1591 134.613 798.332 437.109
1906 0 128.338 12.4982 1604 133.695 798.044 438.561
1907 0 131.469 11.9724 1574 136.183 797.497 429.836
1908 0 138.279 12.8942 1783 131.416 797.851 430.962
1909 0 145.235 13.2338 1922 128.852 797.44 431.747
1910 0 148.252 11.2511 1668 135.381 797.628 422.552
1911 0 154.218 12.1063 1867 132.667 797.629 421.587
1912 0 157.277 12.5511 1974 131 797.744 421.822
1913 0 165.332 12.7682 2111 129.32 797.191 423.953
1914 0 169.492 13.0567 2213 129.627 798.344 417.714
1915 0 175.576 13.2479 2326 129.462 798.422 414.644
1916 0 179.543 11.9971 2154 133.805 798.386 409.233
1917 0 187.374 12.5471 2351 131.328 798.154 408.813
1918 0 193.596 13.9001 2691 128.181 798.024 403.425
1919 1 130.341 10.2193 1332 123.376 798.009 443.41
1920 0 131.335 11.4136 1499 123.564 797.582 434.769
1921 0 134.587 10.9743 1477 123.957 797.563 438.012
1922 0 139.361 10.5482 1470 125.548 797.232 435.867
1923 0 142.422 10.3144 1469 126.507 797.459 434.451
1924 0 147.49 10.6787 1575 126.737 797.664 427.657
1925 0 155.407 12.4062 1928 122.375 798.046 425.379
1926 0 159.602 11.0274 1760 127.001 797.36 421.757
1927 0 166.645 11.7735 1962 124.209 796.963 420.955
1928 0 171.615 11.689 2006 124.405 797.366 420.537
1929 0 175.623 11.5873 2035 125.953 797.578 415.729
1930 0 181.601 12.7257 2311 124.499 797.328 412.703
1931 0 186.311 12.082 2251 129.994 797.219 405.88
1932 0 193.491 12.6931 2456 132.712 797.192 404.69
1933 0 199.281 13.077 2606 132.992 797.546 403.866
1934 0 202.484 11.8133 2392 139.025 798.334 403.941
1935 0 206.355 13.2296 2730 136.756 797.753 402.629
1936 0 208.444 11.4995 2397 142.965 797.692 400.395
1937 0 216.479 12.7541 2761 139.842 797.812 396.989
1938 0 222.891 12.2481 2730 144.125 798.01 392.73
1939 0 227.803 12.2299 2786 143.205 797.693 395.953
1940 0 235.836 13.4755 3178 141.209 798.227 391.852
1941 1 31.0714 9.20461 286 115.951 798.535 498.486
1942 0 29.0464 9.22661 268 119.657 798.78 497.06
1943 0 33.0562 9.77123 323 118.387 798.406 496.344
1944 0 32.0445 10.267 329 119.228 798.641 497.523
1945 0 33.1432 10.8921 361 117.623 797.895 496.485
1946 0 34.0496 10.4847 357 118.784 798.801 495.796
1947 0 34.0553 10.894 371 116.124 798.69 496.013
1948 0 34.0995 10.5867 361 120.723 798.623 496.778
1949 0 35.0854 12.0848 424 116.269 798.064 496.406
1950 0 34.0456 10.6034 361 122.255 798.307 497.546
1951 0 36.0771 11.2814 407 118.971 798.651 497.425
1952 0 38.0908 11.5251 439 117.043 799.203 496.125
1953 0 38.059 10.8516 413 121.039 799.007 496.312
