time division length width area intensity CMx CMy
0 0 94.1715 12.9126 1216 130.789 284.753 455.039
1 0 99.1299 13.2352 1312 128.327 284.215 451.368
2 0 102.167 13.8695 1417 127.156 284.755 450.622
3 0 106.213 13.7083 1456 125.992 283.9 449.218
4 0 110.262 13.9577 1539 123.017 284.491 447.839
5 0 114.151 13.6048 1553 123.879 284.292 448.121
6 1 62.1252 10.7364 667 122.285 284.892 474.133
7 0 63.0975 11.9181 752 123.414 285.037 471.371
8 0 65.1196 12.0547 785 129.062 285.906 469.576
9 0 66.0964 12.4969 826 127.786 284.615 469.123
10 0 70.1816 13.4793 946 125.021 284.036 467.068
11 0 73.1909 12.5015 915 126.731 283.999 466.993
12 0 75.1107 12.4749 937 127.099 286.265 466.11
13 0 77.1718 12.8285 990 126.236 286.065 465.546
14 0 81.2052 14.1863 1152 121.126 285.676 466.044
15 0 82.1095 13.5064 1109 124.565 285.085 463.956
16 0 83.1486 12.9888 1080 125.846 285.603 460.493
17 0 85.0988 13.4314 1143 125.559 285.331 462.245
18 0 89.168 12.6054 1124 126.882 285.227 457.483
19 0 89.168 12.6727 1130 147.269 286.238 457.45
20 0 95.3124 13.0203 1241 122.041 285.707 456.036
21 1 50.3453 11.6198 585 117.641 285.938 478.609
22 0 52.1576 12.654 660 117.374 285.583 475.608
23 0 55.0706 11.8938 655 121.424 285.147 476.811
24 0 58.2415 11.624 677 129.251 286.715 473.669
25 0 59.1572 11.4441 677 129.422 285.917 473.672
26 0 61.0977 11.8826 726 128.025 286.258 471.376
27 0 63.3385 12.5832 797 126.161 286.907 470.598
28 0 63.2409 12.9505 819 124.451 285.567 470.175
29 0 67.225 12.4805 839 124.985 286.136 468.982
30 0 73.3134 12.999 953 122.275 286.538 466.95
31 0 74.3684 12.6936 944 121.863 286.359 468.002
32 0 72.2908 12.7679 923 123.581 286.398 465.342
33 0 77.108 12.6705 977 121.369 286.87 464.778
34 0 78.1025 12.9445 1011 121.663 287.145 463.479
35 0 81.1437 12.0897 981 121.705 286.049 462.803
36 0 82.1606 12.9016 1060 120.819 285.942 458.669
37 0 85.2255 12.4024 1057 120.123 285.382 461.285
38 0 84.2252 11.2912 951 150.631 284.399 459.731
39 0 91.2077 12.0714 1101 121.151 286.094 456.586
40 0 94.2552 13.3786 1261 116.199 285.225 455.392
41 0 97.2211 12.271 1193 119.211 285.567 454.895
42 1 50.1755 11.2007 562 120.685 286.034 476.911
43 0 50.2029 12.1507 610 120.816 287.215 474.425
44 0 54.1918 14.1719 768 113.367 287.016 475.255
45 0 53.1482 13.4529 715 117.938 286.29 475.917
46 0 55.2071 11.9731 661 121.548 286.29 473.245
47 0 55.1247 12.4082 684 122.319 286.406 471.51
48 0 57.0526 12.357 705 122.359 287.733 471.763
49 0 57.0464 12.4285 709 122.389 287.052 470.33
50 0 61.0694 12.756 779 120.997 286.861 469.931
51 0 62.1145 14.3123 889 116.044 287.25 470.429
52 0 62.0594 13.5193 839 119.082 286.601 469.967
53 0 61.0694 12.756 779 122.223 287 470.286
54 0 65.0745 14.1684 922 116.836 286.745 468.672
55 0 66.0657 13.971 923 117.723 287.697 469.589
56 0 67.123 14.019 941 118.011 286.825 467.758
57 0 70.1383 14.2148 997 117.921 287.369 466.166
58 0 70.0585 13.817 968 120.626 287.832 466.593
59 0 73.0657 13.7411 1004 120.091 287.272 466.401
60 0 75.1105 14.046 1055 119.995 286.989 463.138
61 0 76.0968 14.0742 1071 120.437 286.023 461.845
62 0 80.0769 14.5111 1162 118.167 286.622 460.969
63 0 80.059 13.8898 1112 122.024 286.973 461.978
64 0 82.0664 13.8912 1140 122.5 287.386 460.748
65 0 85.0967 14.8067 1260 119.553 286.352 458.983
66 0 87.0954 13.7091 1194 122.87 286.647 458.889
67 0 86.1826 13.6687 1178 118.016 286.421 460.749
68 0 88.204 12.2103 1077 123.746 286.452 457.023
69 1 49.0674 11.4333 561 128.565 287.009 475.988
70 0 51.1168 12.0313 615 128.603 286.745 475.343
71 0 52.1296 13.9268 726 111.53 286.621 474.419
72 0 55.1264 12.8251 707 114.895 286.996 475.115
73 0 57.099 13.1876 753 113.523 286.22 474.479
74 0 58.0877 13.1353 763 114.467 286.337 473.419
75 0 60.0562 13.6872 822 115.989 286.224 472.162
76 0 62.0764 14.2244 883 123.682 286.171 472.009
77 0 62.1045 13.3002 826 124.95 286.099 469.983
78 0 65.1387 13.5403 882 121.794 285.621 469.546
79 0 66.0793 13.7865 911 121.798 286.251 468.361
80 0 68.0833 13.0428 888 123.466 286.322 467.444
81 0 71.188 13.1483 936 122.393 285.938 466.946
82 0 72.1 13.5229 975 123.594 286.888 467.297
83 0 80.1642 13.4474 1078 116.209 285.941 460.442
84 0 71.0685 14.3242 1018 118.335 285.512 449.637
85 1 83.2946 11.9576 996 121 286.298 456.414
86 0 81.086 13.2945 1078 120.569 286.477 462.522
87 0 86.1901 12.9133 1113 119.208 285.72 457.21
88 0 91.0724 10.8705 990 116.52 286.54 450.073
89 0 93.1663 10.873 1013 116.399 286.192 450.05
90 0 97.088 11.3093 1098 116.713 286.679 448.096
91 0 100.111 12.0167 1203 115.295 287.016 448.656
92 0 99.0844 12.3632 1225 117.202 286.923 450.52
93 0 102.09 13.2726 1355 115.649 286.719 449.074
94 0 106.168 16.2102 1721 107.172 287.033 447.529
95 0 113.09 17.7912 2012 100.457 285.332 444.751
96 0 114.056 16.6936 1904 104.026 286.28 441.68
97 1 59.0591 12.6822 749 113.196 286.721 475.008
98 0 58.0583 12.2808 713 115.764 286.215 474.374
99 0 63.042 12.1982 769 113.339 286.957 471.804
100 0 60.0628 12.7034 763 108.979 285.267 438.477
101 0 63.1149 13.6893 864 98.0938 284.699 434.544
102 0 63.1861 13.9588 882 99.1361 285.494 432.149
103 0 67.0698 12.3304 827 100.908 284.9 423.236
104 0 66.1422 12.3371 816 102.501 285.727 422.841
105 0 70.1381 12.9887 911 101.391 285.092 432.087
106 0 71.143 13.5502 964 100.282 285.445 440.889
107 1 96.0908 9.23085 887 104.263 286.206 448.139
108 0 97.1141 9.15418 889 103.853 285.263 454.52
109 1 72.1217 9.89993 714 107.902 285.571 441.52
110 1 18.0556 7.31074 132 57.3258 286.818 492.773
111 0 20.0107 3.84794 77 65.7532 287.429 496.597
112 0 18.0133 4.10806 74 63.7568 288.027 494.216
113 0 20.0015 3.19976 64 64.2812 288.094 495.531
114 0 21.2878 7.37513 157 51.1783 288.344 489.58
115 0 0 0 0 -nan -nan -nan
116 0 9.00046 5.33306 48 68.375 287 496.896
117 0 20.0101 5.99696 120 57.7583 287.325 493.425
118 0 0 0 0 -nan -nan -nan
119 0 10.0008 5.69953 57 66.8947 286.877 496.579
120 0 15.0042 5.5318 83 64.7349 287.349 494.964
121 0 12.0053 4.91449 59 68.6441 287.17 496.254
122 0 16.0231 7.48917 120 62.4417 287.25 494.483
123 0 14.0055 8.99646 126 63.8651 287.651 495.429
124 0 13.0213 6.067 79 69.481 286.544 495.316
125 1 72.1386 13.4463 970 101.776 285.508 467.616
126 0 74.1621 13.9155 1032 97.4021 285.625 466.697
127 0 76.2508 13.6523 1041 97.5514 284.947 466.363
128 0 78.1078 12.4443 972 99.5638 286.109 468.311
129 0 80.1701 12.9225 1036 99.7307 284.838 465.007
130 0 85.104 14.8759 1266 94.4905 285.523 461.818
131 0 87.1666 13.4914 1176 97.8172 285.824 460.742
132 0 88.1096 14.1982 1251 96.4572 285.395 458.603
133 0 88.1469 12.014 1059 102.748 285.127 459.529
134 1 48.0242 12.7436 612 103.026 285.998 479.962
135 0 49.0199 13.5659 665 102.568 286.035 478.152
136 0 46.0373 12.0555 555 102.874 285.793 479.312
137 0 48.029 11.5139 553 102.365 285.922 479.844
138 0 51.1104 10.9176 558 101.181 286.373 477.81
139 0 55.1324 12.2614 676 96.9941 285.601 473.885
140 0 56.2294 12.947 728 96.0618 285.916 473.54
141 0 60.1548 12.0024 722 95.4778 285.597 474.226
142 0 56.1681 13.1569 739 97.8471 285.05 475.36
143 0 60.1231 12.6906 763 97.1507 285.06 474.472
144 0 66.1628 11.0636 732 91.7486 285.852 468.862
145 0 65.0772 11.2021 729 92.6626 284.948 468.145
146 0 65.0716 12.4478 810 94.0123 284.984 470.114
147 0 65.0571 10.0834 656 96.8277 284.87 472.594
148 0 72.2799 12.4516 900 90.5244 284.712 467.066
149 0 72.1664 12.9977 938 91.8433 284.849 466.334
150 0 74.137 12.3016 912 94.0735 285.07 465.782
151 0 75.1542 13.5588 1019 93.7291 284.986 465.095
152 0 79.1939 11.756 931 95.2943 285.404 462.091
153 0 86.1398 11.4813 989 95.1365 285.872 456.116
154 1 169.201 11.9917 2029 96.6831 285.068 410.418
155 1 92.4591 11.8755 1098 94.7605 285.182 452.372
156 0 94.1518 10.9079 1027 97.7585 284.676 451.07
157 0 92.2007 12.5813 1160 95.8664 285.017 456.947
158 0 91.1031 11.7669 1072 98.9851 284.52 456.667
159 0 95.1104 12.8272 1220 96.8098 285.212 455.782
160 0 101.195 11.967 1211 99.3427 284.503 452.805
161 0 106.201 12.7776 1357 98.5858 284.881 448.615
162 0 106.331 13.3921 1424 99.7458 285.029 449.656
163 0 104.315 12.4911 1303 102.932 285.107 435.507
164 1 74.2418 13.2675 985 87.8568 285.505 459.126
165 0 73.1955 12.4051 908 92.0055 284.416 459.525
166 0 72.2308 9.87113 713 99.6858 284.729 458.227
167 0 67.1998 11.0119 740 101.707 285.032 464.322
168 0 71.1104 13.8798 987 95.9463 284.874 465.286
169 0 73.1266 12.8681 941 97.2784 285.881 466.581
170 0 80.1325 15.9236 1276 88.5431 284.933 460.498
171 0 80.1466 12.4647 999 97.017 285.595 459.289
172 0 79.238 13.6677 1083 96.8957 285.329 463.708
173 0 80.2049 12.6301 1013 99.7295 285.418 462.353
174 0 84.2217 13.5832 1144 97.9712 286.122 460.682
175 0 87.3055 12.6567 1105 100.35 286.356 458.849
176 0 90.1759 11.899 1073 101.272 285.556 458.997
177 0 91.303 11.7959 1077 103.065 286.136 456.103
178 0 94.1586 11.6293 1095 102.659 285.595 455.932
179 0 99.1379 12.7499 1264 99.7484 285.932 455.621
180 0 101.212 11.7081 1185 102.424 285.874 453.28
181 0 105.11 12.2444 1287 102.122 285.805 446.816
182 0 108.257 11.3988 1234 102.608 285.827 450.831
183 0 113.307 11.994 1359 101.784 285.598 444.993
184 0 118.209 12.7909 1512 99.2765 285.591 443.435
185 0 119.212 9.82286 1171 101.789 285.501 446.975
186 0 122.242 12.5816 1538 103.653 285.058 445.799
187 0 127.47 12.0891 1541 102.944 284.713 443.404
188 1 73.1032 13.0911 957 98.7597 284.577 467.496
189 0 75.1615 12.7592 959 98.1679 284.947 467.678
190 0 78.1307 12.3255 963 99.1101 284.679 463.533
191 0 80.1133 12.4449 997 96.8104 285.291 466.291
192 0 86.2003 10.4292 899 99.0823 284.962 466.675
193 0 86.2438 12.0241 1037 97.0878 285.165 462.141
194 0 89.1075 10.8072 963 94.2658 284.834 456.637
195 0 93.09 11.0323 1027 94.5735 285.209 458.864
196 0 94.1761 9.79017 922 98.1182 284.924 454.456
197 0 98.1794 10.8373 1064 95.9511 283.878 456.003
198 0 101.067 11.2301 1135 95.585 284.935 454.251
199 0 103.161 10.7308 1107 97.664 284.313 449.713
200 0 107.305 7.98655 857 101.42 284.832 450.837
201 1 62.3465 10.57 659 95.1608 284.132 471.211
202 0 67.3494 11.0023 741 94.5762 284.269 466.02
203 0 60.3514 10.704 646 104.542 284.577 448.506
204 0 62.2478 11.3578 707 103.972 284.28 443.221
205 0 65.1611 10.1901 664 105.19 284.245 438.991
206 0 64.4737 10.6555 687 106.994 284.175 438.894
207 0 67.3354 11.1977 754 104.554 284.443 442.865
208 0 68.4159 11.8394 810 104.633 284.033 440.531
209 0 68.356 11.3084 773 106.825 284.955 440.089
210 0 70.4346 10.4636 737 108.243 284.046 430.366
211 0 73.2727 11.232 823 107.606 284.826 431.027
212 0 73.296 12.0061 880 103.872 284.62 431.289
213 0 77.3404 11.249 870 106.43 284.092 429.67
214 0 80.2103 11.9062 955 105.408 284.349 430.434
215 0 83.335 13.7997 1150 99.7713 285.204 437.253
216 0 85.2015 11.9951 1022 102.582 286.018 434.917
217 0 87.2993 11.9932 1047 102.124 285.381 430.411
218 0 90.2228 12.1255 1094 100.98 285.133 433.288
219 1 47.0554 10.392 489 100.344 284.583 457.427
220 0 52.3462 12.2263 640 103.214 285.569 456.633
221 0 55.2113 13.5661 749 100.593 283.762 458.778
222 0 61.0902 13.2263 808 101.866 284.17 469.745
223 0 59.1715 11.5596 684 108.155 283.851 471.139
224 0 59.0593 13.224 781 107.647 285.042 471.522
225 0 62.2326 13.096 815 104.867 284.634 471.697
226 0 63.0218 14.2014 895 103.189 284.846 469.485
227 0 66.1304 14.1387 935 102.973 284.581 470.034
228 0 68.1276 13.005 886 105.326 284.78 470.833
229 0 68.0712 12.3694 842 106.398 285.305 467.575
230 0 69.0884 12.3465 853 107.828 285.689 466.188
231 0 74.2044 14.3657 1066 101.481 285.706 465.373
232 0 76.0882 13.1821 1003 104.957 285.993 466.353
233 0 76.1879 13.703 1044 105.734 285.383 461.515
234 0 78.1475 12.7835 999 105.682 285.523 463.427
235 0 82.235 13.7168 1128 103.26 285.552 462.847
236 0 82.0935 13.1192 1077 105.838 285.14 461.942
237 0 92.1623 12.5756 1159 103.652 284.898 452.662
238 0 93.129 12.3055 1146 104.998 283.816 454.927
239 1 58.1157 10.0489 584 99.875 284.288 471.11
240 0 50.0544 11.2478 563 100.135 283.481 452.849
241 0 50.0995 11.9362 598 93.4799 284.565 455.751
242 0 51.0993 10.9395 559 99.9481 284.496 462.986
243 0 59.0693 13.7974 815 93.9202 284.339 472.95
244 0 63.091 14.598 921 91.3496 284.473 470.858
245 0 60.0411 12.1917 732 99.8716 284.734 472.093
246 0 63.1364 14.3816 908 95.3062 284.379 468.525
247 0 63.1559 13.9654 882 96.8265 283.569 472.111
248 0 64.0638 13.3929 858 99.6748 284.01 470.634
249 0 66.039 14.2037 938 98.0437 284.055 469.884
250 0 66.0574 12.7616 843 101.248 284.159 470.247
251 0 75.0558 15.1887 1140 91.0667 284.211 465.35
252 0 79.2614 19.2528 1526 81.0374 284.144 458.603
253 0 84.1149 16.1684 1360 87.0147 284.615 461.982
254 0 84.2528 17.8273 1502 85.3089 283.718 463.602
255 0 84.3133 17.4824 1474 86.903 283.99 456.756
256 0 76.0906 13.2737 1010 101.498 284.053 451.701
257 0 80.1338 13.9267 1116 98.5968 284.265 441.247
258 0 84.0837 13.9147 1170 98.3051 283.504 440.282
259 0 85.0848 13.9978 1191 100.848 283.424 439.432
260 0 86.1997 12.7147 1096 102.609 284.883 444.156
261 1 16.0076 8.18359 131 95.4504 286.603 498.061
262 0 19.0426 9.0324 172 105.052 286.134 497.436
263 0 19.0045 10.8396 206 103.044 285.019 496.112
264 0 19.003 9.31434 177 105.644 285.508 497.311
265 0 18.0617 8.74782 158 109.291 286.449 496.665
266 0 19.0032 9.4721 180 103.222 285.167 497.711
267 0 21.0035 9.95072 209 103.531 286.45 495.88
268 0 21.0027 10.6653 224 101.714 285.598 495.884
269 0 20.0117 9.29458 186 104.156 285.919 497.828
270 0 19.0101 11.7306 223 101.735 286.278 496.036
271 1 66.0918 12.6339 835 101.908 285.547 472.425
272 0 70.1241 12.4208 871 100.935 284.409 472.41
273 0 72.0756 13.2777 957 100.161 285.527 470.77
274 0 74.2277 11.9362 886 103.027 285.851 468.125
275 1 18.026 10.3739 187 94.754 286.706 496.444
276 0 18.0268 9.15302 165 97.4606 287.242 497.345
277 0 19.0078 9.89068 188 97.1277 288.133 495.319
278 0 18.0115 9.54948 172 97.9477 287.244 497.11
279 0 17.0064 7.46777 127 104.717 287.866 495.921
280 0 19.0018 8.84129 168 100.976 285.75 497.679
281 0 20.0415 8.53231 171 99.1228 287.561 495.269
282 0 17.0016 7.82279 133 102.383 286.94 497.15
283 0 19.052 9.44784 180 98.7667 287.156 496.206
284 0 17.0242 9.28089 158 101.608 286.62 497.418
285 1 101.181 13.4313 1359 107.375 286.561 452.85
286 0 106.392 13.281 1413 106.759 286.522 451.324
287 0 106.24 13.8177 1468 104.533 285.608 449.369
288 0 106.151 8.77049 931 110.02 286.071 452.786
289 1 65.3354 10.2242 668 95.6377 286.314 469.81
290 0 68.104 10.6014 722 92.8047 286.231 470.666
291 0 64.0879 12.9041 827 93.7183 285.882 475.986
292 0 64.2881 13.1128 843 94.5955 284.813 471.745
293 0 66.4161 11.8345 786 96.0776 285.429 472.569
294 0 70.2375 11.9167 837 95.1063 285.481 470.624
295 0 70.2314 12.4588 875 94.6309 284.818 470.355
296 0 71.1694 11.016 784 97.8954 284.166 469.21
297 0 75.2005 12.7792 961 95.3226 284.967 466.1
298 0 78.0476 11.3392 885 97.2147 284.898 468.663
299 0 81.1601 11.6806 948 95.7743 285.154 465.493
300 0 82.0759 11.8305 971 97.7353 286.319 466.002
301 0 87.0836 12.3674 1077 95.9666 285.768 465.696
302 1 19.0069 9.78594 186 99.5591 285.925 495.124
303 0 18.002 7.33251 132 103.697 287.697 495.553
304 1 92.208 11.0945 1023 99.6921 285.52 458.767
305 0 97.1425 12.3221 1197 98.3308 285.313 460.13
306 1 53.1168 11.0511 587 100.867 285.37 478.428
307 0 56.0914 11.3386 636 101.841 285.917 477.728
308 1 18.0062 7.7751 140 105.864 286.457 496.907
309 0 18.0439 8.20222 148 105.601 286.318 495.527
310 0 19.0104 8.57424 163 102.528 284.736 495.528
311 0 18.0093 8.55112 154 104.045 285.338 495.455
312 0 17.0034 7.82197 133 106.436 285.737 496.383
313 0 19.0112 8.46868 161 102.801 286.205 495.87
314 0 19.0087 8.57503 163 102.706 286.166 496.325
315 0 21.009 8.99613 189 98.0106 285.968 495.677
316 0 21.0059 9.23552 194 122.5 285.015 495.515
317 0 18.0045 8.88669 160 99.0812 286.256 497.362
318 0 19.0036 10.6296 202 96.6436 286.252 497.213
319 0 18.013 8.60491 155 95.0903 288.155 497.381
320 0 19.0348 8.82594 168 98.0536 288.685 495.488
321 0 16.0033 7.7484 124 102.782 288.266 496.806
322 0 19.0116 8.88931 169 100.047 286.734 496.343
323 0 17.0068 8.8788 151 100.728 287 496.397
324 0 19.0016 8.57822 163 98.3313 286.166 497.975
325 0 17.0083 8.76045 149 96.5503 287.752 497.738
326 0 16.0022 8.81131 141 102.007 285.986 497.667
327 0 17.0022 10.1163 172 98.5523 286.796 497.494
328 0 18.0284 8.15382 147 102.524 286.844 497.102
329 1 53.022 12.0704 640 95.9281 286.964 479.384
330 0 53.0746 10.9092 579 96.3126 286.777 483.019
331 0 53.0453 9.57673 508 101.209 286.815 479.577
332 0 53.162 10.5715 562 99.4609 286.141 478.468
333 0 55.0988 10.4358 575 99.1913 286.19 478.866
334 0 56.1433 11.0254 619 97.6317 286.115 479.152
335 0 59.0764 11.9676 707 95.43 286.3 477.342
336 0 61.0619 11.9551 730 95.1685 286.87 476.905
337 0 60.0773 9.2381 555 99.0396 286.67 476.189
338 0 63.1307 10.9297 690 96.8058 286.717 474.59
339 0 66.0637 11.3527 750 95.4547 286.831 475.435
340 0 67.0409 11.7391 787 94.9263 286.778 472.873
341 0 68.0647 10.4606 712 98.1643 286.802 471.34
342 0 70.0701 10.3896 728 97.9492 286.889 473.962
343 1 16.0013 10.0617 161 99.1988 286.652 497.609
344 0 17.0034 8.46887 144 99.2222 286.993 498.708
345 1 76.1675 11.7373 894 97.1141 286.007 469.306
346 0 85.2263 14.8663 1267 89.3512 286.133 462.995
347 0 83.1447 15.5031 1289 89.2793 286.119 464.136
348 0 84.0732 13.8926 1168 94.4349 286.712 463.208
349 0 84.219 13.0256 1097 96.6974 286.15 465.026
350 0 84.1955 12.1978 1027 101.11 286.225 463.905
351 1 96.1005 15.13 1454 93.064 286.28 457.536
352 0 94.0951 12.6043 1186 100.935 285.363 462.514
353 0 96.1091 12.6835 1219 100.646 284.919 459.638
354 0 104.233 14.813 1544 94.6749 285.036 454.753
355 0 104.119 14.3297 1492 95.7647 285.713 452.551
356 1 153.246 6.86477 1052 104.728 285.593 460.176
357 0 153.177 7.06371 1082 102.201 285.624 453.9
358 1 137.349 15.8719 2180 82.9633 285.359 429.059
359 1 81.2244 7.52237 611 95.036 285.079 453.985
360 0 80.1628 9.54308 765 90.5726 284.782 461.885
361 0 72.3433 12.3992 897 91.2754 284.867 471.389
362 0 73.0833 12.1368 887 93.0936 285.965 473.715
363 0 77.0792 15.4776 1193 84.3277 285.624 467.744
364 0 76.1709 12.0781 920 92.6739 285.642 467.373
365 0 78.1198 11.9176 931 93.5134 285.458 469.019
366 0 80.0737 12.5384 1004 92.9522 285.661 468.823
367 0 82.0677 11.4783 942 93.6836 284.813 467.057
368 1 18.0176 9.21323 166 87.6626 287.169 497.536
369 0 17.0257 7.753 132 90.6591 286.561 497.803
370 0 15.0021 10.1985 153 87.183 287.072 498.719
371 0 17.0101 8.28919 141 88.2837 286.766 498.447
372 0 18.0026 9.6653 174 84.477 285.839 499.264
373 0 15.0278 9.38264 141 90.1277 284.355 498.426
374 0 15.0045 7.53108 113 91.2478 286.487 499.761
375 0 15.0012 8.79929 132 83.5379 286.091 499.765
376 0 14.0022 8.35581 117 86.8547 284.162 499.068
377 0 15.0309 8.0501 121 85.6942 284.132 499.702
378 0 13.0141 8.14499 106 86.5943 284.481 500.557
379 0 13.001 8.46088 110 85.9182 284.545 500.036
380 0 12.0013 5.74938 69 93.1884 284.87 500.072
381 0 15.002 7.39902 111 85.1532 284.054 500.27
382 0 13.0006 7.07657 92 87.1522 284.489 500.609
383 0 12.0005 7.9997 96 88.3542 284.938 499.75
384 0 15.0302 6.71982 101 87.0099 284.347 500.366
385 0 14.0549 6.83038 96 87.7604 283.927 499.271
386 0 13.0158 6.76102 88 90.2727 283.716 500.352
387 0 13.0218 8.52418 111 86.6306 284.189 498.91
388 0 14.0185 7.77542 109 86.7706 284 499.899
389 0 12.0167 7.73926 93 89.3226 284.172 500.269
390 0 14.017 8.41835 118 84.0085 283.949 499.932
391 0 14.0015 8.4991 119 83.6218 284.118 499.025
392 0 15.0355 7.2495 109 86.0184 283.468 500.165
393 0 17.0579 10.3764 177 72.6723 284.051 499.966
394 0 16.0167 9.05305 145 77.0345 283.917 500.021
395 0 14.0138 7.34992 103 85.301 284.728 500.447
396 0 14.0045 7.99743 112 83.5268 283.938 500.598
397 0 16.005 8.62229 138 76 284.971 499.623
398 0 19.5244 8.50217 166 68.4277 284.687 498.012
399 0 17.0147 10.4028 177 70.8362 285.446 499.13
400 0 16.012 7.61927 122 81.2705 284.336 500.418
401 0 14.0022 8.49864 119 82.916 284.798 500.235
402 0 15.0041 8.1311 122 82.6721 285.467 499.459
403 0 15.0014 7.59927 114 87.7368 285.447 499.579
404 0 16.0064 7.99679 128 87.2031 285.953 500.109
405 0 15.0221 9.58587 144 81.9306 285.396 499.868
406 0 17.0264 7.87013 134 73.9925 285.022 500.075
407 0 16.0007 9.99955 160 72.6438 285.519 499.462
408 0 18.0078 10.2733 185 67.6054 285.07 497.346
409 0 17.0016 11.1166 189 67.4339 284.862 498.233
410 0 16.0022 7.12401 114 80.8158 284.447 500.763
411 0 15.0266 6.58832 99 84.6667 284.152 500.909
412 0 15.0125 9.0591 136 83.0074 285.029 500.14
413 1 88.2074 12.3119 1086 101.724 284.51 461.788
414 0 90.1684 12.4212 1120 102.858 284.45 460.42
415 0 92.1958 11.378 1049 105.778 284.049 461.004
416 0 97.3002 12.631 1229 103.246 284.248 457.179
417 1 53.1673 9.57356 509 99.0039 285.493 483.532
418 0 55.1161 12.392 683 96.4217 284.969 478.398
419 0 54.0999 10.8503 587 95.77 284.491 480.741
420 0 59.2351 12.2731 727 92.8762 284.586 476.68
421 0 59.1807 12.5379 742 93.0755 284.009 479.849
422 0 59.247 11.3255 671 96.2563 284.404 477.77
423 0 61.1617 10.5131 643 96.7481 283.529 479.089
424 0 64.1293 11.1494 715 97.7469 284.096 474.722
425 0 64.2626 10.0058 643 99.8118 284.502 475.47
426 0 68.2531 11.6478 795 97.1585 284.303 474.445
427 0 68.1506 11.6213 792 97.9495 284.622 474.165
428 0 71.1068 13.3321 948 95.2859 283.679 471.388
429 0 72.301 11.6872 845 99.5988 283.889 470.709
430 0 74.3144 12.1376 902 99.306 284.499 469.967
431 0 79.1745 11.7588 931 108.027 284.267 466.041
432 0 81.3281 12.9476 1053 105.559 283.561 464.788
433 0 83.2462 13.0216 1084 105.453 283.265 464.404
434 0 86.2234 12.2936 1060 108.332 284.595 463.701
435 0 89.2909 11.6921 1044 109.569 284.17 461.694
436 0 91.1689 13.2282 1206 108.223 284.828 461.866
437 0 96.2083 13.003 1251 108.504 284.163 460.233
438 1 17.0531 7.44734 127 83.0551 282.244 499.953
439 0 16.0529 8.72117 140 85.4 283.329 498.514
440 0 21.0544 10.0692 212 62.9009 285.175 495.745
441 0 20.0133 7.84479 157 68.8599 282.446 497.777
442 0 12.0015 9.99875 120 75.35 284.475 500.225
443 0 18.1497 7.82383 142 72.2394 285.838 499.296
444 0 20.1864 10.8489 219 59.8858 284.808 494.671
445 0 19.0088 8.52238 162 70.9259 282.074 498.117
446 0 18.0114 12.0479 217 65.6221 284.714 497.719
447 0 19.0695 7.28913 139 73.3165 285.209 500.022
448 0 20.1785 13.4301 271 60.0074 284.734 496.45
449 0 18.0176 8.99122 162 70.5556 284.728 499.525
450 0 12.0025 9.24808 111 78.3964 284.036 500.369
451 0 18.031 7.32072 132 72.1061 284.341 498.712
452 0 18.0274 11.1497 201 65.592 285.408 497.194
453 0 14.0229 7.9156 111 76.1532 284.288 499.82
454 0 14.0116 6.56597 92 84.4456 284.62 500.185
455 1 93.1924 11.2134 1045 103.179 283.563 459.527
456 0 97.2065 12.602 1225 99.4008 283.985 460.636
457 0 102.309 12.1495 1243 100.173 284.262 458.54
458 0 101.302 11.6977 1185 103.057 284.456 455.548
459 0 106.286 12.6922 1349 101.999 284.735 452.259
460 1 55.2751 9.53413 527 97.8368 284.389 481.133
461 0 59.2413 11.5798 686 93.5262 284.407 480.749
462 0 59.1674 12.2534 725 94.5186 284.39 479.455
463 0 58.228 9.42845 549 99.2259 283.73 478.967
464 0 63.1573 11.6218 734 95.8624 284.165 478.059
465 0 63.2523 11.3672 719 96.5369 284.388 476.733
466 0 64.129 10.6816 685 97.5387 284.66 477.121
467 0 68.1584 10.7984 736 97.0312 284.317 475.625
468 0 71.3209 11.6936 834 95.6966 284.423 473.679
469 0 72.1966 11.5102 831 95.8159 283.816 472.522
470 0 77.2468 12.5572 970 93.5763 283.877 467.603
471 0 77.1564 12.3126 950 94.9084 283.66 468.533
472 0 81.3967 13.3175 1084 92.9114 283.889 467.37
473 0 83.1971 13.2096 1099 93.2966 284.414 466.128
474 0 83.2089 11.3329 943 97.3171 284.048 465.38
475 0 87.2616 12.7089 1109 94.9035 284.013 465.011
476 0 91.1362 12.816 1168 94.7543 284.196 463.64
477 0 94.2912 11.8569 1118 96.5197 283.717 461.689
478 0 102.345 15.8875 1626 86.2768 283.348 452.681
479 0 103.256 14.0137 1447 92.5847 283.592 456.351
480 0 102.244 11.9616 1223 98.5323 283.845 457.354
481 1 53.137 12.703 675 97.9793 283.676 480.135
482 0 54.1233 12.1944 660 102.911 284.279 481.288
483 0 58.099 13.7524 799 97.2741 284.384 478.534
484 0 60.4464 13.5327 818 96.9059 284.318 478.346
485 0 61.1385 12.6598 774 99.3062 283.328 478.037
486 0 62.2745 12.6697 789 100.085 283.536 476.914
487 0 65.3648 12.6062 824 99.3981 282.879 477.488
488 0 67.3206 13.5323 911 97.6092 282.256 476.155
489 0 69.3065 12.2066 846 99.6206 282.76 474.892
490 0 73.1858 14.1284 1034 95.1838 283.186 471.732
491 0 77.201 15.8547 1224 91.0858 283.217 469.923
492 0 79.322 15.7712 1251 92.0168 283.567 468.599
493 0 78.2468 14.7099 1151 96.0452 283.352 468.516
494 0 80.1653 13.6468 1094 99.4159 282.966 468.213
495 0 79.1121 14.056 1112 98.3309 283.636 467.184
496 0 80.2107 11.5197 924 102.947 283.675 466.495
497 0 81.143 11.7817 956 101.563 283.812 467.682
498 0 81.2656 11.0871 901 102.477 283.446 467.906
499 1 17.0277 8.51553 145 90.6621 282.841 499.559
500 0 17.0566 8.55972 146 92.6575 282.822 499.089
501 0 17.0078 10.0542 171 89.0877 282.988 498.287
502 0 17.0321 8.57207 146 90.5548 282.589 499.308
503 0 20.015 8.09394 162 69.1111 281.346 498.512
504 0 24.3192 7.97724 194 65.0052 281.943 498.026
505 0 14.0369 10.5436 148 70.6757 281.52 499.399
506 0 23.4696 8.30862 195 64.8103 281.872 497.908
507 0 21.2929 9.34582 199 61.4975 281.955 496.779
508 1 32.072 5.01996 161 64.3851 282.876 495.87
509 0 30.0186 4.33064 130 71.5769 282.115 500.485
510 0 27.2396 4.77247 130 69.5077 283.8 500.146
511 0 34.0607 4.11031 140 67.7857 284.143 497.007
512 0 28.0966 4.76926 134 69.5746 283.396 500.418
513 0 28.2276 8.57318 242 51.5868 283.033 490
514 0 34.0178 4.0273 137 68.4526 284.445 498.394
515 0 26.0356 4.53225 118 71.7458 284.983 500.619
516 0 33.0651 4.65747 154 67.8506 284.442 499.838
517 0 27.2255 6.72164 183 62.8142 285.607 497.65
518 0 29.0097 5.61882 163 65.2086 284.497 498.767
519 0 25.0385 7.30873 183 65.0109 285.06 500.071
520 0 23.0222 6.08108 140 69.2357 284.5 499.129
521 0 18.0025 7.94335 143 72.2308 284.832 501.531
522 0 17.0043 9.11534 155 71.3419 284.535 500.987
523 0 14.0022 9.85557 138 84.0217 284.493 500.239
524 1 100.171 12.0094 1203 103.85 283.784 458.406
525 0 104.212 11.4286 1191 100.939 284.244 456.003
526 1 17.0544 7.73993 132 82.2273 284.826 501.303
527 0 16.0124 8.11872 130 84.0462 286.146 501.646
528 0 16.0235 8.17549 131 83.7939 284.534 501.634
529 0 17.1034 8.65324 148 81.6014 285.155 501.02
530 0 17.0092 8.87756 151 77.4503 284.728 501.166
531 0 15.0073 7.92946 119 81.4454 285.563 502.067
532 0 17.0047 9.64438 164 79.0671 284.116 501.628
533 1 72.1138 12.3555 891 91.2177 283.644 474.216
534 0 78.0632 15.116 1180 84.628 283.964 471.537
535 0 77.1652 12.4797 963 90.3863 283.936 471.668
536 0 80.1127 11.5712 927 92.5858 284.177 468.84
537 0 79.1013 12.7432 1008 89.6806 284.212 469.11
538 1 94.1344 16.3915 1543 78.9527 283.436 458.548
539 0 94.2449 15.3854 1450 83.5283 283.439 461.119
540 0 90.1448 11.4815 1035 94.3121 283.147 464.586
541 0 94.1696 12.5943 1186 97.0725 282.967 463.775
542 0 98.1513 11.9713 1175 97.8817 282.942 458.515
543 0 101.26 11.9296 1208 98.2914 283.174 460.256
544 0 103.129 13.1098 1352 97.125 283.254 458.304
545 1 59.0392 12.0598 712 96.0169 283.586 479.73
546 0 59.0836 10.6798 631 102.271 284.567 481.865
547 0 61.0581 12.3489 754 99.8355 282.968 479.468
548 0 63.0508 12.6882 800 99.6812 283.34 476.912
549 0 65.1043 11.6121 756 101.488 283.479 478.332
550 0 66.1075 12.1015 800 100.359 282.172 475.188
551 0 72.1829 12.7177 918 96.781 283.078 474.176
552 0 74.1905 12.7914 949 96.9895 283.477 472.259
553 0 75.3075 11.8448 892 99.7937 283.839 470.654
554 0 76.1145 11.1017 845 101.581 283.373 470.413
555 0 79.0898 12.5553 993 94.6032 283.877 468.804
556 0 81.0798 12.3952 1005 97.99 283.802 468.429
557 0 82.158 11.1736 918 104.471 283.88 465.719
558 0 85.1739 13.2083 1125 92.016 283.46 466.652
559 0 85.1216 12.6525 1077 96.9304 283.245 464.663
560 0 87.1814 11.7456 1024 99.3213 282.927 465.207
561 0 87.2548 12.5838 1098 99.4199 283.328 462.646
562 0 88.1924 12.1779 1074 101.326 282.401 462.578
563 0 88.1554 11.6385 1026 103.905 282.863 466.095
564 0 90.311 12.1026 1093 105.683 282.532 465.112
565 0 99.1645 12.5751 1247 71.7322 283.848 465.71
566 1 51.0564 12.4372 635 98.6614 283.535 484.55
567 0 54.1123 13.4905 730 95.4767 284.125 482.862
568 0 53.0879 11.886 631 99.5262 283.594 482.36
569 0 57.081 13.0867 747 95.2704 283.442 480.968
570 0 59.0955 12.4036 733 95.91 283.675 481.81
571 0 60.0751 13.7162 824 94.1201 284.029 479.65
572 0 60.2058 12.5735 757 96.6737 284.025 479.68
573 0 60.0776 11.7681 707 100.719 283.76 477.58
574 0 63.1321 11.8799 750 99.812 284.196 478.227
575 0 65.1032 12.9794 845 97.2142 283.71 478.652
576 0 63.1205 12.1672 768 101.62 284.159 476.762
577 0 68.1202 13.1679 897 98.3122 284.279 475.533
578 0 68.17 12.5128 853 102.304 283.654 474.674
579 0 69.2279 11.5127 797 104.58 283.615 475.187
580 0 71.1951 13.147 936 102.458 283.818 473.995
581 0 72.2648 11.444 827 108.461 283.687 473.019
582 0 74.1656 12.5665 932 106.148 284.261 470.837
583 0 76.1613 10.8979 830 108.466 284.06 472.154
584 0 79.1323 12.9404 1024 104.33 283.719 471.321
585 1 48.094 11.0617 532 104.357 283.207 485.85
586 0 48.0662 11.1929 538 107.809 282.914 484.649
587 0 48.0968 10.8115 520 111.75 284.317 482.812
588 0 51.1049 12.1123 619 108.782 283.541 483.263
589 0 59.2121 15.0138 889 95.8639 283.726 477.911
590 0 57.0348 13.4479 767 104.674 284.492 480.026
591 0 59.1307 13.5124 799 105.149 284.317 477.882
592 0 60.122 13.0235 783 107.96 283.507 477.152
593 0 61.0781 13.5073 825 108.314 284.073 477.827
594 0 59.0538 11.6504 688 115.818 283.429 478.491
595 0 62.1285 12.2488 761 115.39 284.097 477.832
596 0 62.0514 12.2479 760 117.267 284.358 476.259
597 0 65.0742 12.8315 835 115.581 283.832 476.583
598 0 66.0474 13.3086 879 115.644 283.503 475.237
599 0 68.1426 13.6772 932 115.562 282.482 473.849
600 0 70.0685 13.3441 935 116.916 282.412 472.866
601 0 70.1254 13.4188 941 115.187 282.016 475.545
602 0 75.1655 13.2508 996 115.958 282.507 471.659
603 0 74.1604 12.028 892 120.61 282.896 470.203
604 0 79.3392 12.9066 1024 117.088 282.747 469.953
605 0 82.1839 14.4676 1189 113.518 282.557 467.261
606 0 83.1772 12.7198 1058 119.333 283.435 464.893
607 1 16.0291 7.86072 126 77.7222 281.444 501.317
608 0 15.002 7.73228 116 76.7241 283.198 501.078
609 0 17.0038 10.2918 175 64.6514 282.754 500.2
610 0 18.0286 9.92866 179 64.4581 283.944 499.38
611 0 17.0233 5.87431 100 73.99 282.83 501.71
612 0 13.0082 6.53434 85 81.2235 283.188 502.494
613 0 12.0022 7.41532 89 88.4045 281.876 502.27
614 0 13.0058 6.68932 87 89.3333 283.31 503.103
615 1 70.0553 7.19432 504 118.218 282.968 482.177
616 1 48.0527 11.3417 545 119.65 282.055 462.952
617 0 51.1391 12.1825 623 119.467 283.1 466.079
618 0 52.088 12.0949 630 117.852 281.524 456.178
619 0 56.1413 13.4838 757 112.583 282.325 455.889
620 0 57.0355 13.6056 776 113.289 281.034 453.42
621 1 84.1667 10.598 892 108.711 282.307 461.23
622 1 62.1482 12.0358 748 114.235 282.171 458.503
623 1 14.0039 7.14085 100 75.85 283.56 503.49
624 0 16.0851 9.76057 157 69.3057 283.841 501.541
625 0 14.0197 8.91602 125 73.552 283.632 502.344
626 0 14.0072 7.28197 102 76.0686 284.235 502.274
627 0 19.0625 10.282 196 63.6122 283.276 501.235
628 0 14.0034 7.42679 104 74.8173 283.808 503.433
629 0 0 0 0 -nan -nan -nan
630 0 10.007 7.29486 73 87.4521 284 504.452
631 0 10.0041 7.09706 71 88.0141 284.113 504.535
632 1 96.1374 14.6041 1404 107.506 281.868 461.717
633 0 99.2715 14.133 1403 108.231 281.932 461.098
634 0 101.287 13.8715 1405 108.839 282.684 459.67
635 0 104.172 13.7081 1428 110.394 281.975 457.929
636 0 108.158 14.8393 1605 111.599 281.65 458.297
637 0 108.389 13.8205 1498 109.72 282.091 456.856
638 0 115.296 14.3457 1654 113.202 282.65 453.216
639 0 118.194 14.8569 1756 111.947 282.306 451.28
640 0 124.199 14.6056 1814 112.105 282.62 447.962
641 0 126.32 15.0254 1898 111.612 282.817 446.574
642 1 9.00411 6.88574 62 87.6129 284.581 503.935
643 0 11.0009 6.45403 71 83.6197 283.873 504.69
644 0 8.00054 6.87454 55 86.5818 284 504.564
645 0 11.0006 6.18148 68 86.5 284.132 503.338
646 0 11.0016 7.72612 85 83.3882 284.129 503.624
647 0 11.0004 8.27242 91 82.2967 283.659 503.385
648 0 9.00247 9.21969 83 82.8554 283.675 503.482
649 0 9.00199 8.55367 77 83.4416 284.519 504.325
650 0 10.003 7.79764 78 77.3974 283.705 503.654
651 0 10.0068 7.19513 72 81.1111 283.694 504.194
652 0 15.0056 5.19807 78 73.8333 284.115 501.923
653 0 16.0661 6.16205 99 62.798 284.848 498.515
654 0 14.0013 6.64222 93 73.086 283.419 502.925
655 0 8.00138 5.2491 42 86.2857 285.19 502
656 0 9.00056 7.22177 65 85.3231 283.4 503.646
657 0 10.0074 7.99412 80 82.825 282.862 503.512
658 0 11.0007 7.63587 84 82.3571 282.81 503.429
659 0 10.0009 8.09924 81 81.5802 283.247 503.198
660 0 12.0085 8.49396 102 77.2353 284.167 502.676
661 0 11.0007 5.99964 66 82.197 283.242 503.182
662 0 11.0026 7.45281 82 81.6829 282.683 503.207
663 0 8.00042 6.24967 50 88.36 284.84 502.52
664 0 9.00121 7.33235 66 82.8333 282.636 502.621
665 0 8.00037 5.49974 44 85.2045 284.773 502.75
666 0 10.0063 6.29602 63 83.1429 284.381 502.349
667 0 9.00151 3.33277 30 90.5 285.7 500.6
668 0 10.0015 7.0989 71 83.0704 284.648 502
669 0 10.0018 7.89856 79 83.4557 283.544 502.291
670 0 9.00052 5.33302 48 87.0833 284.042 502.396
671 0 9.00341 7.33056 66 83.8939 285.621 501.212
672 0 8.00091 5.37439 43 85.4186 284.046 502.814
673 0 11.0009 7.45393 82 81.3659 284.073 501.841
674 0 8.00008 4.99995 40 86.35 282.875 502.825
675 0 10.01 6.29372 63 84.6032 282.73 502.286
676 0 5 5 25 89.28 282.64 501.8
677 0 9.00052 9.11058 82 81.0976 283.183 501.585
678 1 72.3253 12.6097 912 112.751 282.803 469.927
679 0 73.2504 12.0545 883 114.472 283.143 469.238
680 0 72.2294 11.2004 809 119.225 283.356 468.991
681 0 76.301 12.9094 985 114.688 283.266 465.673
682 0 78.244 13.3557 1045 114.933 282.573 468.958
683 0 80.3256 13.3706 1074 116.926 283.081 466.667
684 0 86.4054 12.6728 1095 120.408 283.235 460.527
685 0 89.4735 12.2718 1098 121.121 283.051 457.417
686 0 91.4626 13.8308 1265 113.303 282.857 462.657
687 0 85.1563 13.1171 1117 122.227 283.552 449.747
688 0 88.169 13.5535 1195 120.523 283 449.567
689 1 47.0637 11.3888 536 121.793 282.565 471.856
690 0 55.0418 11.9001 655 119.855 283.261 477.861
691 0 57.0762 12.0716 689 119.694 283.271 475.496
692 0 53.0863 13.2049 701 119.933 282.807 466.187
693 0 54.0872 14.1069 763 118.717 282.948 464.398
694 0 55.0454 13.6251 750 120.969 282.795 454.5
695 0 58.0281 13.1316 762 123.167 283.222 454.018
696 0 57.0101 12.6995 724 127.471 283.156 452.64
697 0 60.0281 13.627 818 124.353 283.319 452.95
698 0 61.0923 13.6187 832 124.516 283.149 451.064
699 0 62.0802 12.4194 771 129.113 283.134 450.359
700 0 66.1092 13.5382 895 124.496 283.904 454.645
701 0 75.0919 12.771 959 123.917 284.666 468.681
702 0 74.1745 12.9829 963 126.576 284.3 467.682
703 0 79.141 12.7241 1007 125.992 283.364 465.773
704 0 79.2787 11.6425 923 129.728 284.579 462.495
705 0 83.3725 12.3542 1030 125.601 284.163 462.722
706 0 88.2197 11.7321 1035 127.008 283.193 457.9
707 0 88.2958 13.9418 1231 122.142 283.846 461.905
708 1 12.0204 6.4058 77 90.2597 285.519 500.494
709 0 13.0212 5.91344 77 90.7273 284.935 500.416
710 0 10.0021 6.69861 67 95.4925 286.373 499.269
711 0 10.0113 6.49268 65 93.5077 285.769 500.246
712 0 8.0002 5.87485 47 96.766 284.617 499.872
713 0 8.00237 6.12319 49 93.9796 283.612 500.388
714 0 8.00056 7.74946 62 89.9355 286 500.242
715 0 9.00863 4.55119 41 97.2195 283.268 500.756
716 0 10.0081 6.89441 69 95.3333 283.928 500.058
717 0 11.0008 7.3631 81 91.5185 284.877 499.667
718 0 10.0023 6.99842 70 93.0143 284.8 499.857
719 0 11.0004 5.72704 63 92.5556 286.46 500
720 0 9.00491 6.77408 61 96.2951 284 499.459
721 0 0 0 0 -nan -nan -nan
722 0 10.0048 5.19753 52 96.6538 284.519 499.5
723 0 9.00108 6.77696 61 96.6721 282.41 495.508
724 0 14.0016 7.14204 100 84.47 287.02 497.29
725 0 11.01 5.54042 61 85.9344 285.082 500.689
726 0 13.0009 8.76864 114 95.114 283.684 498.482
727 0 13.0025 6.38339 83 85.6868 286.518 498.554
728 0 13.0009 6.76877 88 93.5114 283.17 498.807
729 1 2 6.5 13 80.1538 285.385 494.154
730 0 10.0161 4.49274 45 94.8222 282.956 499.511
731 0 12.0207 6.65519 80 87.4125 283.175 498.812
732 0 12.0068 5.16375 62 89.1452 283.887 500.226
733 0 14.034 6.48426 91 87.9231 283.791 498.714
734 0 15.0037 5.39867 81 88.3827 284.284 499.111
735 0 13.0018 4.69167 61 93.9672 286.164 498.836
736 0 10.001 3.49964 35 95.2571 286.543 499.657
737 0 12.0006 5.99969 72 91.0972 284.806 500.236
738 0 14.0634 6.18626 87 89.3103 285.644 500.069
739 0 14.0323 6.62756 93 87.0323 285.011 500.667
740 0 13.0093 6.61065 86 89.0581 285.244 499.826
741 1 81.3013 13.4807 1096 105.378 283.933 464.359
742 0 79.3355 11.5711 918 111.769 283.514 463.682
743 0 84.1956 12.1978 1027 109.896 283.999 461.604
744 0 84.2849 11.734 989 112.488 283.341 461.842
745 0 89.129 12.6334 1126 110.291 283.566 462.497
746 0 90.1753 13.4294 1211 109.111 282.746 460.889
747 0 97.1181 13.5299 1314 106.2 282.924 453.84
748 0 97.3159 12.4748 1214 109.946 282.914 454.733
749 0 97.1586 12.6288 1227 112.06 282.94 457.44
750 0 101.101 13.8872 1404 109.101 282.553 456.704
751 0 103.209 12.557 1296 113.185 282.492 454.989
752 0 109.158 14.337 1565 108.683 282.017 453.337
753 0 112.261 13.1569 1477 111.257 282.729 447.258
754 0 116.251 13.2644 1542 111.515 282.866 445.842
755 0 118.329 13.7752 1630 110.762 283.26 442.467
756 0 122.436 12.5371 1535 112.107 282.833 443.99
757 1 70.1697 11.0161 773 105.468 284.169 470.743
758 0 73.1169 12.1723 890 102.753 284.03 471.529
759 0 77.2306 11.2132 866 104.711 283.919 466.94
760 0 77.1794 11.8685 916 104.905 283.663 464.522
761 0 79.2292 10.741 851 107.22 283.623 463.644
762 0 83.1153 12.5127 1040 102.406 283.562 466.091
763 0 83.1588 12.1334 1009 104.961 283.226 465.265
764 0 87.2402 13.5832 1185 101.748 282.65 464.854
765 0 87.1536 12.8968 1124 105.298 282.335 460.932
766 0 93.2044 13.2505 1235 103.088 281.994 462.289
767 0 93.1374 12.9808 1209 105.091 282.72 460.436
768 0 97.2152 13.4958 1312 103.008 282.416 459.64
769 0 101.148 15.1065 1528 100.499 282.61 458.245
770 0 102.227 13.0983 1339 105.988 282.19 455.827
771 0 105.145 12.5921 1324 105.807 282.081 455.159
772 0 107.208 10.5589 1132 107.481 281.511 452.546
773 0 112.167 13.8098 1549 100.205 282.09 451.054
774 0 117.26 13.7899 1617 101.103 282.377 449.5
775 0 119.237 12.2781 1464 104.49 282.725 447.296
776 1 69.0968 11.5056 795 101.853 281.795 472.364
777 0 71.1708 10.7488 765 103.297 282.328 473.434
778 0 74.2402 13.0388 968 98.2686 282.052 469.657
779 0 77.0527 12.3163 949 100.555 282.169 468.92
780 0 79.2146 12.2831 973 100.369 281.742 470.334
781 0 80.0986 12.7718 1023 101.154 282.471 467.277
782 0 83.0876 13.8769 1153 98.1639 281.757 464.754
783 0 84.1412 11.1123 935 94.9476 282.301 467.058
784 0 86.1152 10.0563 866 99.3868 282.16 464.396
785 0 92.26 11.2725 1040 97.3692 282.153 464.861
786 1 127.49 6.61228 843 168.541 281.925 438.4
787 1 89.1556 11.8893 1060 110.444 280.221 423.616
788 0 92.2545 12.0536 1112 108.062 279.911 425.323
789 0 95.0865 12.9146 1228 105.724 280.571 425.623
790 0 94.1711 11.8614 1117 109.401 281.171 428.165
791 0 98.1393 13.1446 1290 104.026 280.268 429.616
792 0 102.358 12.8666 1317 105.686 280.862 422.494
793 0 107.471 14.0502 1510 102.485 280.907 423.154
794 1 59.2217 10.3847 615 109.07 280.776 442.486
795 0 61.1332 11.4831 702 106.228 281.158 443.201
796 0 68.4348 11.6169 795 111.034 280.707 436.348
797 0 69.2786 12.9477 897 109.853 281.952 437.938
798 0 72.4313 11.9009 862 112.722 282.23 438.254
799 0 75.3693 13.6793 1031 109.026 282.07 442.07
800 0 75.2762 12.5139 942 111.511 281.882 444.427
801 0 79.4136 12.7434 1012 109.858 281.429 446.028
802 0 82.2329 13.0361 1072 108.482 282.675 446.7
803 0 84.3144 13.1887 1112 108.902 281.295 445.174
804 0 88.3927 12.7952 1131 109.392 282.309 448.741
805 1 9.00052 5.11082 46 75.8913 284.239 502.478
806 0 10.001 5.99941 60 73.55 283.333 501.283
807 0 10.0197 5.98819 60 72.1333 283.983 502.217
808 0 10.0001 8.79993 88 69.2955 282.83 502.67
809 0 10.0027 3.59902 36 75.8333 282.722 503.222
810 0 7 3.42857 24 78.7083 281.833 503.042
811 0 11.0196 5.35412 59 73.661 284.271 501.932
812 0 10.0014 6.69906 67 71.0448 283.388 502.746
813 0 10.0087 4.79585 48 74.3542 283.604 503.083
814 0 7 3 21 77.381 282.857 502.81
815 0 8.00164 4.62405 37 74.9459 282.973 503
816 0 9.00026 3.55545 32 74.8438 283.406 502.375
817 0 10.0005 5.19975 52 72.1346 282.962 502.115
818 0 9.00107 4.55501 41 74.5366 282.634 503.537
819 0 8.00124 6.74895 54 73.8518 282.556 501.926
820 0 9.00163 5.22128 47 75.4043 281.787 502.128
821 0 10.0064 6.99553 70 71.7286 282.743 502.486
822 0 10.002 6.69867 67 72.7463 282.642 502.433
823 0 8.0003 3.99985 32 76.6562 282.438 502.219
824 0 7.00011 5.57134 39 75.2564 284.82 502
825 0 9.00276 5.44278 49 73.7755 282.49 501.449
826 0 9.00165 5.11018 46 73.7174 283.109 502.065
827 0 0 0 0 -nan 0 0
828 0 0 0 4 67 284.5 496
829 0 8.00815 4.1208 33 76.0909 284.212 500.667
830 1 56.2738 11.5684 651 98.2565 280.837 467.693
831 0 58.1942 10.654 620 101.969 281.984 466.995
832 0 58.1718 13.0132 757 100.022 281.7 463.853
833 1 71.0558 12.4268 883 97.5357 282.788 468.443
834 0 65.114 13.9448 908 98.054 283.507 464.089
835 0 64.1082 11.8706 761 104.357 283.431 462.724
836 0 69.0843 13.1578 909 100.498 283.351 461.587
837 0 68.0664 13.4721 917 101.335 282.173 461.397
838 0 75.0632 12.4029 931 102.882 282.845 458.723
839 1 87.1601 13.1941 1150 97.1113 282.174 462.543
840 0 77.1163 13.2397 1021 102.654 282.527 455.163
841 0 81.1293 14.1626 1149 100.642 281.951 452.799
842 0 82.1522 14.2297 1169 101.502 282.227 453.249
843 0 84.226 13.5944 1145 103.611 281.886 449.43
844 0 86.2025 12.7607 1100 105.472 283.654 446.511
845 0 87.1869 14.1191 1231 102.068 282.186 444.146
846 0 88.1308 12.697 1119 105.173 282.411 441.49
847 0 90.0776 13.1664 1186 104.487 282.936 437.152
848 0 94.1476 11.8537 1116 107.652 281.614 438.208
849 0 102.217 14.3812 1470 101.045 282.573 437.323
850 0 102.119 13.259 1354 105.233 282.535 431.426
851 0 106.131 13.2477 1406 105.936 282.461 423.217
852 0 107.134 13.4318 1439 104.181 282.259 427.949
853 1 61.0655 11.5122 703 101.663 283.125 450.64
854 0 59.0819 11.3233 669 104.087 283.091 448.737
855 0 62.0701 12.6631 786 100.331 282.472 449.178
856 0 66.0262 11.4046 753 100.635 282.627 450.857
857 0 67.0379 11.68 783 101.715 281.036 444.319
858 0 72.1216 12.576 907 98.4267 281.487 446.003
859 0 72.0698 11.919 859 101.107 281.751 443.321
860 0 75.128 11.141 837 101.839 281.755 442.153
861 0 78.1517 13.1027 1024 98.0781 282.116 442.829
862 0 79.0924 12.163 962 101.553 281.976 437.878
863 0 83.0775 11.724 974 101.969 282.33 437.05
864 1 102.146 10.2304 1045 98.6785 282.52 450.589
865 0 97.1104 12.0275 1168 97.8878 282.9 454.479
866 1 16.023 8.05094 129 71.9147 284.023 497.752
867 0 13.0211 6.37428 83 70.4578 284.084 497.241
868 0 10.0004 7.8997 79 69.5696 282.392 500.785
869 0 9.00084 6.88825 62 67.629 283.597 500.774
870 0 8.00067 4.7496 38 72.6842 282.316 501.079
871 0 9.01484 6.54476 59 69.6949 282.288 501.847
872 0 10.0097 6.59359 66 71.3333 282.348 502.833
873 0 10.0005 5.39975 54 72.1296 283.204 501.963
874 0 9.0004 5.11088 46 71.3696 282.739 502
875 0 9.00027 5.22207 47 72.7447 282.808 501.936
876 0 7 2.85714 20 76.25 283.15 500.75
877 0 9.00111 8.99889 81 68.0741 281.58 500.938
878 1 79.2305 13.6059 1078 97.538 282.697 455.472
879 0 81.2232 12.5334 1018 100.203 282.963 453.926
880 0 84.1507 14.7711 1243 95.0515 283.023 452.557
881 0 85.3526 12.5128 1068 100.365 282.994 452.042
882 0 88.2129 12.5832 1110 100.886 282.624 450.26
883 1 14.0144 5.63706 79 70.2152 282.278 499.949
884 1 2 6.5 13 66.9231 284.462 493.154
885 1 11.0015 6.27188 69 77.8261 282.899 499.087
886 0 12.0023 6.832 82 76.061 281.793 498.878
887 0 12.0058 8.16272 98 73.2857 282.418 499.98
888 0 16.0023 7.6239 122 77.0164 282.295 499.582
889 0 11.0027 7.5436 83 78.9759 282 499.386
890 1 119.146 13.4373 1601 98.6952 282.208 437.928
891 0 117.169 12.2473 1435 103.564 281.203 433.066
892 1 75.1799 9.51052 715 100.155 283.508 464.863
893 0 75.2244 10.7944 812 97.6589 282.554 467.656
894 0 80.1153 9.83583 788 99.335 282.605 462.074
895 1 12.0054 6.66366 80 75.4875 283.538 497.738
896 0 14.0132 7.27886 102 75.6471 282.245 498.157
897 0 14.0216 5.91944 83 76.3012 282.964 497.976
898 0 12.001 5.49953 66 74.5303 284.682 499.258
899 0 13.0144 5.30183 69 73.7971 284.609 499.681
900 0 12.0058 7.07994 85 71.5529 284.2 500.765
901 0 14.0087 5.28245 74 75.7703 282.284 499.014
902 0 8.00113 5.62421 45 68.7556 283.067 500.089
903 0 9.00137 5.44362 49 68.0204 282.918 500.327
904 0 7.00011 5.85705 41 69.3902 283.195 500.585
905 0 8.00021 6.87482 55 67.8909 282.218 499.818
906 0 9.0017 7.55413 68 67.2647 282.941 499.485
907 0 0 0 0 -nan -nan -nan
908 0 8.00028 3.99986 32 69.8438 283.219 501
909 0 8.00087 4.24954 34 69.6471 282.206 500.618
910 0 10.0061 6.69594 67 64.6418 284.731 499.149
911 0 8.0006 8.24938 66 65.4545 282.515 498.894
912 0 9.00259 6.10935 55 68.0182 283.618 499.345
913 0 8.00118 5.74915 46 69.1739 282 499.543
914 0 9.00461 4.99744 45 69.1111 281.356 499.089
915 0 8.00057 6.74952 54 65.5556 283.278 501.37
916 0 10.0002 4.79992 48 67.625 281.833 501.354
917 0 9.00113 3.44401 31 69.7097 281.097 499.129
918 0 8.00527 7.37015 59 66.678 281.17 499.119
919 0 9.00087 4.88841 44 66.5909 282.205 498.023
920 1 101.086 12.059 1219 91.443 282.658 444.372
921 1 112.203 11.5059 1291 92.8466 282.352 442.752
922 0 107.151 11.1712 1197 94.5238 281.89 442.615
923 0 112.297 12.369 1389 94.6134 281.537 438.854
924 1 62.0846 11.1622 693 97.6147 282.85 454.872
925 0 63.1626 10.6392 672 93.7976 282.475 456.808
926 0 70.1172 9.14183 641 84.0686 283.183 465.345
927 0 71.0866 10.1426 721 83.8336 282.709 469.825
928 0 71.1068 9.59121 682 85.9575 283.548 467.114
929 0 71.1099 9.60485 683 117.189 284.553 467.296
930 0 77.0856 11.1953 863 84.737 283.384 464.781
931 0 81.2142 10.4538 849 85.9859 283.772 462.867
932 0 83.1755 10.4478 869 86.5558 283.514 462.016
933 0 87.0801 9.71519 846 88.4917 283.818 461.125
934 0 88.0651 10.5263 927 88.9418 283.669 459.927
935 0 91.1002 9.96705 908 90.6839 283.789 459.835
936 0 94.137 10.3466 974 91.5308 282.788 456.073
937 0 98.1933 11.1718 1097 91.2662 283.504 454.292
938 0 101.051 11.1825 1130 92.2292 283.775 452.134
939 0 105.139 10.7192 1127 94.1996 283.584 451.492
940 0 108.207 9.94392 1076 96.3151 283.741 449.168
941 0 113.244 10.7379 1216 95.0419 284.141 447.516
942 0 115.288 11.1807 1289 96.2886 284.032 446
943 0 120.082 11.3172 1359 96.2671 283.875 447.888
944 0 121.148 10.5986 1284 101.157 284.15 440.621
945 1 70.1439 9.83692 690 103.861 283.268 465.926
946 0 73.1214 10.5851 774 99.0982 283.413 467.884
947 0 73.1222 9.34053 683 105.363 282.586 460.609
948 0 77.2083 11.0221 851 100.739 283.64 463.15
949 0 79.1749 11.0262 873 100.921 282.881 463.395
950 0 82.1577 11.9648 983 100.107 283.198 459.587
951 0 86.1503 11.7701 1014 100.09 283.619 459.268
952 0 88.3627 13.4559 1189 97.005 283.44 457.703
953 0 90.1838 11.5764 1044 101.404 283.295 455.966
954 0 95.1604 12.2845 1169 99.3832 282.513 450.757
955 0 94.3091 11.5259 1087 101.995 282.716 453.846
956 0 98.1784 13.557 1331 97.3944 282.264 455.041
957 1 17.1833 7.74009 133 74.7368 281.895 494.684
958 0 14.0431 7.33456 103 71.3301 281.301 497.612
959 0 15.0026 6.46554 97 75.9278 284.856 494.753
960 0 12.001 5.49956 66 76.2273 285.258 497.576
961 0 13.0008 4.38436 57 78.807 284.807 497.439
962 0 15.0406 8.0449 121 74.7603 283.711 497.446
963 0 12.0026 7.16511 86 78.4767 282.477 496.546
964 0 13.0067 6.68886 87 79.7816 282.31 497.046
965 0 12.0224 1.82992 22 73.9545 283.955 494.818
966 0 13.0026 5.38353 70 73.9143 284.057 496.486
967 0 12.0241 3.65932 44 76.5 284.545 496.705
968 0 16.0063 7.43456 119 77.1429 282.672 496.571
969 0 14.0255 7.55764 106 75.2264 283.047 496.17
970 0 15.0217 9.38643 141 72.4326 282.908 494.475
971 0 13.0317 6.67602 87 74.1149 282.632 496.287
972 0 13.0408 4.83098 63 76.8254 283.032 495.333
973 0 13.0136 3.68844 48 73.4375 282.625 495.375
974 0 14.0138 5.06642 71 77.4789 282.704 497.07
975 0 15.0013 8.73257 131 76 282.298 496.527
976 0 14.0091 7.70927 108 73.4167 284.13 496.389
977 0 15.0039 7.53138 113 76.2124 283.991 495.611
978 0 14.0034 6.9983 98 77.6633 284.929 494.98
979 0 13.0172 7.14439 93 77.0968 284.43 496.849
980 0 13.0044 6.38246 83 82.2771 284.229 496.675
981 0 0 0 0 -nan -nan -nan
982 0 10.0015 4.69929 47 73.6596 282 498.064
983 0 13.0204 8.21787 107 73.9065 283.243 497.355
984 0 0 0 0 -nan -nan -nan
985 0 0 0 4.29837e-322 -nan 373 -0.0655476
986 1 85.3751 10.4363 891 104.345 282.755 454.47
987 0 78.1198 12.9417 1011 103.13 281.833 451.614
988 0 83.3201 13.0701 1089 102.239 282.098 450.176
989 0 85.1096 13.1478 1119 102.979 282.767 449.707
990 0 87.2128 13.8397 1207 102.085 282.05 448.193
991 0 89.1192 13.207 1177 104.698 282.822 445.992
992 0 94.1144 14.3336 1349 101.617 282.563 444.826
993 0 96.3718 14.029 1352 103.299 283.091 444.528
994 0 98.1269 12.9119 1267 107.423 282.983 440.978
995 0 102.188 13.162 1345 106.094 283.068 441.701
996 0 106.19 13.4476 1428 103.843 283.908 440.143
997 0 107.204 12.2757 1316 107.621 283.287 439.441
998 0 112.176 12.4358 1395 107.745 283.026 437.069
999 0 121.111 12.1376 1470 107.061 283.214 436.637
1000 0 120.127 13.236 1590 106.378 283.355 434.142
1001 0 125.236 11.3545 1422 107.624 282.879 432.329
1002 0 129.192 11.6571 1506 103.469 282.355 429.523
1003 1 76.1979 10.4465 796 97.005 282.661 453.513
1004 0 85.1177 9.55148 813 93.8303 282.953 455.026
1005 0 82.1188 10.6553 875 91.3394 283.415 463.798
1006 0 84.1032 10.0591 846 93.1915 283.087 459.861
1007 0 91.1098 10.416 949 91.3688 284.174 456.393
1008 0 91.28 10.0022 913 92.9934 283.804 455.984
1009 0 95.2199 12.0038 1143 91.4698 282.984 456.683
1010 0 101.39 11.6382 1180 91.2653 283.758 444.931
1011 0 101.22 10.66 1079 94.6756 283.02 445.019
1012 0 108.148 12.8435 1389 96.8625 282.946 447.792
1013 0 110.176 10.9371 1205 96.0075 282.667 442.46
1014 0 115.293 12.247 1412 95.5574 283.196 440.658
1015 0 120.253 11.4591 1378 98.5123 282.451 439.57
1016 0 123.432 11.0993 1370 102.16 283.004 435.131
1017 0 120.445 12.7112 1531 107.379 283.173 434.647
1018 1 69.1124 10.7795 745 105.677 283.826 459.852
1019 0 79.2563 10.6238 842 105.417 283.38 457.164
1020 0 78.1974 12.1232 948 101.021 284.406 456.576
1021 0 79.2162 12.2576 971 106.892 283.507 454.645
1022 0 86.1857 12.009 1035 106.932 283.069 452.773
1023 0 82.2457 13.6056 1119 105.766 282.74 452.794
1024 0 86.1785 13.6345 1175 106.66 283.846 447.874
1025 0 89.1624 13.2679 1183 108.431 283.502 447.261
1026 0 96.1108 13.755 1322 106.847 283.835 448.421
1027 0 93.2461 13.3089 1241 110.866 283.066 446.415
1028 0 96.2664 13.7223 1321 110.709 283.282 443.411
1029 0 98.413 13.9514 1373 108.76 282.749 443.596
1030 0 103.276 13.4687 1391 111.335 283.654 442.001
1031 1 114.357 14.1574 1619 108.259 283.125 441.013
1032 0 113.34 12.9874 1472 114.889 283.179 437.306
1033 0 119.461 14.4818 1730 110.224 283.788 440.423
1034 0 119.143 11.8681 1414 119.364 281.825 434.968
1035 0 123.207 13.6112 1677 114.678 282.994 436.751
1036 0 128.202 14.3134 1835 112.035 283.767 435.591
1037 0 131.278 13.4523 1766 110.375 282.666 430.208
1038 0 134.217 12.9492 1738 114.648 283.275 434.158
1039 0 140.162 13.8768 1945 112.691 282.676 429.82
1040 1 79.0769 10.8249 856 112.223 283.965 462.155
1041 0 80.0926 11.7739 943 110.439 285.102 459.775
1042 0 83.0645 11.0035 914 112.22 283.523 457.848
1043 0 85.1112 12.9713 1104 108.282 282.88 457.796
1044 0 86.1201 12.7961 1102 109.612 282.842 456.578
1045 0 87.1944 11.8012 1029 113.963 282.947 452.437
1046 0 92.2954 12.9584 1196 110.831 283.171 452.212
1047 0 94.2109 11.6122 1094 113.794 282.119 451.792
1048 0 93.187 12.4588 1161 115.713 282.823 444.419
1049 0 103.392 11.7804 1218 112.186 283.196 448.678
1050 0 106.262 11.434 1215 114.328 282.974 442.026
1051 0 107.351 12.2682 1317 110.367 283.901 446.26
1052 0 107.118 10.9132 1169 114.682 283.33 447.381
1053 0 115.294 13.1404 1515 107.542 283.92 445.965
1054 0 116.363 11.7907 1372 113.23 283.385 436.157
1055 0 118.271 11.1355 1317 115.615 283.571 434.791
1056 0 124.397 11.198 1393 114.697 283.853 433.176
1057 0 132.433 12.8366 1700 109.732 283.592 427.266
1058 0 134.333 13.1018 1760 110.582 283.076 428.718
1059 0 142.444 12.805 1824 109.902 283.742 424.128
1060 0 143.381 12.9585 1858 110.47 283.36 420.163
1061 0 147.356 11.7199 1727 112.407 283.507 418.179
1062 0 152.333 11.8884 1811 111.319 282.885 418.122
1063 0 155.453 11.4311 1777 112.59 283.284 408.669
1064 0 161.272 12.2278 1972 112.288 283.509 401.401
1065 0 172.274 12.9735 2235 109.418 283.434 408.424
1066 0 174.305 13.2182 2304 108.389 282.979 403.493
1067 1 184.457 13.2552 2445 108.157 283.111 400.254
1068 1 92.2462 11.0032 1015 100.391 284.017 442.49
1069 0 95.1696 10.5706 1006 100.572 283.73 444.447
1070 0 101.25 12.9383 1310 96.4382 284.212 439.07
1071 0 103.149 11.7306 1210 99.1636 284.292 438.244
1072 0 109.278 11.2648 1231 100.36 284.082 437.944
1073 0 107.215 10.6048 1137 103.829 284.726 434.244
1074 0 113.24 12.5663 1423 100.699 283.945 432.4
1075 0 116.206 11.884 1381 104.394 284.146 430.127
1076 0 125.138 12.1466 1520 103.432 283.121 427.261
1077 0 124.186 10.7097 1330 107.633 283.44 422.992
1078 0 129.278 12.9953 1680 104.107 284.132 424.328
1079 0 133.139 11.5594 1539 107.242 283.126 420.666
1080 0 138.116 12.8153 1770 104.579 284.016 415.112
1081 0 143.15 12.2599 1755 105.601 283.934 416.817
1082 0 147.264 11.7476 1730 107.401 284.005 412.19
1083 0 152.165 12.6704 1928 105.359 284.721 412.106
1084 0 157.298 13.2361 2082 104.397 284.14 407.919
1085 0 163.312 14.4937 2367 102.895 283.808 405.406
1086 0 170.485 13.7314 2341 105.531 284.117 401.39
1087 0 176.274 13.7456 2423 104.37 283.867 400.693
1088 0 183.31 14.1509 2594 103.834 283.878 396.257
1089 0 186.432 12.9592 2416 108.544 284.587 391.965
1090 1 104.081 10.2613 1068 101.087 284.691 435.948
1091 0 108.183 11.4621 1240 104.856 284.26 431.65
1092 0 116.523 10.1697 1185 97.357 284.086 434.876
1093 1 12.0289 6.40125 77 73.5325 284.065 493.26
1094 0 10.0018 3.09945 31 75.4839 284.71 493.903
1095 0 11.0106 4.6319 51 77.7647 284.882 490.863
1096 0 9.01177 5.8812 53 75 284.132 490.528
1097 0 11.007 7.54068 83 72.4699 285.494 492.855
1098 1 133.333 9.78001 1304 100.38 283.819 426.759
1099 0 136.358 10.025 1367 101.961 283.558 417.314
1100 0 140.156 11.0449 1548 102.307 283.793 414.426
1101 0 144.151 12.1678 1754 103.741 283.609 412.878
1102 0 150.273 12.3442 1855 105.543 282.925 411.837
1103 0 155.298 13.1618 2044 104.103 283.857 406.686
1104 0 161.145 11.381 1834 108.167 282.845 404.629
1105 0 164.386 11.3878 1872 109.068 284.449 403.066
1106 1 11.0021 3.54477 39 79.1026 285.077 492.18
1107 0 14.0046 5.85522 82 74.2439 284.988 493.207
1108 0 14.0063 5.21192 73 75.3151 284.219 490.822
1109 0 15.001 8.99938 135 70.6148 284.089 491.681
1110 0 14.0255 8.41326 118 72.5508 284.644 491.254
1111 0 13.0118 5.61028 73 75.8356 284.63 492.548
1112 0 20.02 7.84214 157 72.0955 284.847 488.076
1113 0 17.0047 7.46854 127 72.5039 283.858 489.827
1114 0 16.0017 5.18694 83 74.6145 284.663 488.626
1115 0 15.0007 4.79978 72 74.0556 283.347 491.375
1116 0 17.0541 6.21553 106 74.1132 284.094 490.34
1117 0 17.0126 3.93826 67 77.4179 283.866 488.791
1118 0 18.0163 7.04918 127 72.5906 284.409 488.087
1119 0 18.0116 5.60751 101 76.5148 284.02 487.713
1120 0 15.0189 9.05524 136 71.9706 284.61 487.632
1121 0 21.0036 4.18976 88 76.9545 283.841 487.466
1122 0 19.0131 6.78478 129 74.3411 284.961 487.876
1123 0 19.0183 7.62422 145 72.9724 284.821 484.483
1124 0 14.0299 5.77338 81 76.7037 283.728 489.037
1125 0 15.0046 8.19751 123 74.8699 283.35 488.089
1126 0 17.043 9.68142 165 74.0788 283.661 486.8
1127 0 15.0242 4.19325 63 80.254 284.317 487.048
1128 0 18.0326 7.37553 133 75.7068 283.624 486.677
1129 0 19.1373 6.21821 119 76.7227 284.084 486.756
1130 0 25.1772 7.90397 199 75.7688 283.487 487.638
1131 0 24.204 5.78416 140 77.2714 284.55 489.136
1132 1 107.192 8.1349 872 98.2489 283.82 441.741
1133 0 106.312 8.63492 918 95.6928 283.596 440.719
1134 0 107.265 10.6373 1141 92.7686 283.606 444.692
1135 1 11.006 4.63385 51 79.6471 284.824 492.02
1136 0 12.0139 6.32603 76 78.3158 285.303 492.092
1137 0 10.0003 2.9999 30 81.3333 284.7 492.867
1138 0 11.0097 4.35979 48 78.2083 284.979 493.833
1139 0 13.0109 9.06932 118 73.4746 284.381 492.33
1140 0 11.008 3.81539 42 80.3571 284.643 493.476
1141 0 13.013 4.38025 57 80.579 283.719 492
1142 0 13.0083 7.68742 100 76.8 285.22 492.26
1143 0 14.055 6.40343 90 78.1556 283.844 491.822
1144 0 11.0017 4.27208 47 80.0638 282.957 493.83
1145 1 150.448 11.293 1699 97.661 282.813 423.905
1146 1 89.1111 14.308 1275 82.6808 282.456 451.759
1147 1 12.0012 8.99908 108 72.7685 284.278 493.63
1148 0 13.0144 5.60917 73 76.411 283.973 492.781
1149 0 11.0009 6.09044 67 76.6866 284.239 493.821
1150 0 8.00184 4.12405 33 79.1818 284.485 492.485
1151 0 11.0013 5.99928 66 77.8636 283.424 490.182
1152 0 10.0157 11.0826 111 69.1171 284.027 489.712
1153 1 107.196 17.1089 1834 77.3222 283.436 440.06
1154 0 106.286 17.2459 1833 79.94 284.511 440.575
1155 0 105.129 10.2827 1081 100.598 282.452 429.804
1156 0 101.158 12.9204 1307 96.3412 283.143 419.942
1157 0 102.153 11.982 1224 99.7737 283.517 420.002
1158 0 102.13 13.1499 1343 100.042 283.387 417.813
1159 0 108.137 12.3084 1331 101.833 283.307 413.037
1160 0 109.105 12.2909 1341 103.1 283.538 411.551
1161 0 113.129 12.552 1420 102.917 283.849 413.995
1162 0 118.153 13.7449 1624 100.552 284.017 414.346
1163 0 118.083 13.8632 1637 101.682 284.393 408.007
1164 0 122.091 12.1058 1478 104.274 283.288 413.858
1165 0 124.055 12.2446 1519 105.014 282.486 407.352
1166 0 131.231 13 1706 103.866 283.514 405.466
1167 0 133.258 12.397 1652 105.521 283.872 407.287
1168 1 70.0443 9.32268 653 100.985 283.184 438.986
1169 0 73.0516 10.253 749 96.231 284.435 449.676
1170 0 84.1943 9.14551 770 102.7 284.319 449.853
1171 0 85.1 10.7638 916 90.4738 283.698 450.883
1172 0 87.1938 10.62 926 91.6955 284.077 449.247
1173 0 87.0914 10.7244 934 90.772 284.095 452.365
1174 0 92.1086 10.2705 946 91.852 284.659 448.184
1175 0 95.1307 11.3528 1080 89.9157 285.531 449.005
1176 0 99.1758 10.9402 1085 89.7567 285.034 447.839
1177 0 101.121 10.9374 1106 90.3273 285.163 443.723
1178 0 106.112 11.3276 1202 89.3112 284.77 444.332
1179 0 109.15 11.0307 1204 89.4543 284.798 445.689
1180 0 114.098 12.4805 1424 87.7788 284.528 441.931
1181 0 115.137 11.508 1325 92.9577 285.051 437.252
1182 0 118.189 12.4208 1468 90.5654 284.86 438.448
1183 1 11.0018 3.45397 38 67.421 286.579 496.789
1184 0 12.0009 4.83297 58 68.3621 285.414 494.603
1185 0 10.003 3.99881 40 69.475 285.25 495.45
1186 0 9.00297 4.99835 45 65.1333 284.422 495.133
1187 1 82.1777 8.90753 732 83.5068 284.239 462.501
1188 0 81.2244 8.70428 707 85.6011 284.768 458.668
1189 0 72.0714 9.71259 700 90.5143 283.244 454.997
1190 0 73.0534 10.7182 783 95.3052 283.71 452.147
1191 0 75.129 12.006 902 92.5022 283.876 452.762
1192 0 79.0528 11.7643 930 95.1839 283.634 451.933
1193 0 82.1624 9.57859 787 90.2579 284.391 457.067
1194 0 84.118 9.32025 784 89.1939 284.219 458.255
1195 1 11.0011 7.09022 78 68.2692 284.615 495.218
1196 0 12.0034 6.91471 83 67.0241 284.566 496.325
1197 0 13.005 4.8443 63 70.3492 283.19 495.444
1198 0 13.0013 6.69166 87 65.4942 284.138 497.437
1199 0 8.00024 4.24987 34 69.2941 284.647 496.706
1200 0 12.0096 7.82705 94 65 284.532 496.468
1201 0 13.0235 6.14276 80 66.8375 285.2 495.362
1202 0 11.0018 4.27202 47 69.2553 284.277 496.66
1203 0 11.0013 4.90853 54 66.3518 283.833 496.537
1204 0 11.0208 4.89983 54 70.5 284.685 495.611
1205 0 10.0024 2.99929 30 64.1 282.633 496.067
1206 1 70.0527 6.23816 437 84.3158 283.27 459.913
1207 0 65.1382 10.5622 688 80.9084 283.342 461.781
1208 0 64.1664 11.6104 745 86.0107 284.072 461.169
1209 0 68.1278 13.4306 915 82.188 284.297 462.965
1210 0 68.2046 11.6268 793 86.5876 284.545 458.329
1211 0 71.1078 11.8412 842 83.7209 284.072 459.428
1212 0 72.1527 13.2635 957 81.0585 284.426 458.026
1213 0 72.1388 11.4363 825 86.1176 283.748 456.038
1214 0 74.1428 12.395 919 84.6235 284.173 454.978
1215 0 76.1372 12.7796 973 85.2045 282.892 455.017
1216 0 74.065 11.1254 824 89.7694 283.245 452.816
1217 0 79.0925 11.0124 871 90.8083 283.912 453.545
1218 0 83.1505 11.5213 958 89.2944 283.142 451.974
1219 0 82.1997 11.4842 944 90.9248 283.073 450.71
1220 0 87.0891 12.9063 1124 88.1334 283.522 449.79
1221 0 88.1004 11.7366 1034 90.9478 282.88 448.273
1222 0 90.0916 10.3783 935 93.7112 283.903 449.477
1223 0 94.0796 13.5205 1272 88.0904 283.516 445.917
1224 0 97.1594 11.8877 1155 90.4848 285.037 447.765
1225 0 98.1437 11.4832 1127 91.7551 283.927 441.982
1226 0 104.072 12.5009 1301 90.1737 284.142 442.467
1227 0 104.068 11.1754 1163 93.1763 284.027 443.972
1228 0 107.153 12.3935 1328 91.3825 283.355 438.617
1229 1 61.1483 12.1671 744 92.9852 283.126 462.219
1230 0 60.0759 10.8363 651 96.3379 286.346 463.737
1231 0 65.0896 10.739 699 92.6295 286.336 465.418
1232 0 65.0677 11.5265 750 91.924 285.744 467.137
1233 0 65.1255 10.9174 711 94.2729 285.083 465.117
1234 0 71.1615 12.029 856 91.5269 286.245 465.675
1235 0 70.0952 10.1434 711 97.0886 285.703 459.702
1236 0 75.0889 12.4386 934 92.1692 285.516 462.802
1237 0 77.161 10.8215 835 95.7317 286.172 460.836
1238 0 79.1937 11.2635 892 94.824 285.508 461.299
1239 0 82.1618 11.526 947 94.1943 285.4 459.959
1240 0 84.1017 12.58 1058 92.8743 285.926 455.94
1241 0 87.3372 11.5987 1013 93.0592 285.837 455.935
1242 0 88.3252 11.7181 1035 95.4106 285.969 451.566
1243 0 92.1366 12.0582 1111 93.811 286.212 452.209
1244 0 94.149 12.9051 1215 93.2379 285.784 451.52
1245 0 94.3302 12.0852 1140 96.4956 285.278 448.016
1246 0 99.2307 12.3752 1228 95.6832 284.441 446.634
1247 0 100.224 12.4022 1243 96.2872 284.962 447.883
1248 0 105.29 11.7865 1241 97.743 285.38 445.971
1249 0 107.219 12.1527 1303 97.0506 284.311 444.711
1250 1 56.0917 9.60926 539 88.2226 284.395 469.334
1251 0 58.1638 8.97465 522 86.7241 284.013 467.513
1252 0 61.1427 8.99536 550 87.8927 284.585 466.956
1253 0 61.1522 10.2204 625 87.496 284.61 463.627
1254 0 63.1922 10.5867 669 89.0882 284.81 468.448
1255 0 64.1197 10.4492 670 92.7254 284.218 466.64
1256 0 64.1364 9.6513 619 95.0436 284.546 466.365
1257 0 69.1114 10.8086 747 97.5368 284.954 464.428
1258 0 69.2587 10.0637 697 100.255 285.264 463.841
1259 0 72.1214 11.3281 817 97.9253 284.782 460.952
1260 0 74.0952 12.8888 955 94.7853 284.676 461.516
1261 0 79.2461 13.1615 1043 92.9521 284.673 461.662
1262 0 79.2554 13.1852 1045 94.0966 284.74 459.389
1263 0 81.1046 11.8489 961 96.6368 284.681 459.537
1264 0 82.1157 12.7016 1043 95.9214 285.21 457.519
1265 0 88.1388 12.6165 1112 95.554 284.156 452.115
1266 0 90.1592 12.733 1148 95.4948 284.358 453.671
1267 0 92.1082 11.7471 1082 98.3189 284.604 449.075
1268 0 93.2241 11.5528 1077 99.8292 284.26 445.526
1269 0 97.2703 11.6068 1129 98.8042 284.991 445.502
1270 0 100.283 12.4947 1253 96.763 285.478 443.599
1271 0 103.189 12.8889 1330 94.9045 285.125 445.987
1272 0 104.179 13.2465 1380 94.8877 284.678 444.37
1273 0 106.2 13.1921 1401 95.5468 285.747 442.341
1274 1 58.1264 7.56971 440 96.7295 284.78 466.652
1275 0 62.2301 10.1077 629 91.1097 284.574 468.006
1276 0 63.1254 9.67914 611 94.7365 285.087 465.169
1277 0 64.1305 10.8685 697 92.2066 284.849 465.363
1278 0 66.1078 10.135 670 95.2343 284.534 460.166
1279 0 68.1333 12.593 858 90.0163 285.129 464.19
1280 0 71.2847 12.0643 860 90.7337 285.028 465.919
1281 0 72.0868 12.2769 885 93.1898 284.706 463.286
1282 0 71.1116 10.4202 741 97.3468 285.483 460.789
1283 0 76.077 11.3701 865 95.0509 284.664 462.546
1284 0 76.1151 12.2446 932 95.7049 285.528 456.43
1285 0 81.1011 11.9974 973 95.5231 285.955 459.399
1286 0 82.1227 12.9197 1061 94.0132 285.747 458.973
1287 0 84.1952 11.3783 958 96.9708 284.918 455.235
1288 0 87.0544 11.8776 1034 96.2002 286.097 453.768
1289 0 91.0798 11.7809 1073 96.1212 286.15 454.471
1290 0 93.0792 10.8402 1009 98.0505 285.435 448.505
1291 0 97.0913 12.5037 1214 95.5132 286.848 450.272
1292 0 99.1332 12.0242 1192 96.5117 286.313 447.684
1293 0 101.061 12.1214 1225 96.1559 287.234 449.241
1294 0 104.226 10.3141 1075 99.013 286.868 447.927
1295 1 55.0706 10.2051 562 90.1975 287.617 470.911
1296 0 58.0595 10.0759 585 89.8889 287.147 468.284
1297 0 60.1554 11.1711 672 90.119 287.321 467.21
1298 0 61.0683 10.8894 665 98.1804 286.829 467.564
1299 0 65.1087 11.596 755 95.7881 287.078 465.511
1300 0 64.0655 10.5361 675 99.123 286.104 463.326
1301 0 66.0802 10.5326 696 100.713 286.94 461.876
1302 0 70.1211 12.8207 899 95.01 286.957 464.185
1303 0 72.1171 11.5229 831 98.2623 287.16 463.023
1304 0 73.1786 10.4812 767 100.143 286.86 458.07
1305 0 76.0818 12.0791 919 98.1719 286.709 458.724
1306 0 81.203 12.4749 1013 96.5844 287.104 460.536
1307 0 81.1438 12.5456 1018 98.2367 286.68 458.112
1308 0 84.2719 12.0088 1012 99.9022 286.742 456.256
1309 0 85.2456 11.5431 984 101.944 286.906 454.993
1310 0 87.1896 12.2377 1067 101.575 286.986 452.276
1311 0 91.2385 13.1085 1196 100.112 286.331 452.74
1312 0 94.1538 12.3521 1163 102.353 286.264 450.666
1313 0 95.1516 11.6971 1113 105.217 285.678 446.956
1314 0 96.1198 12.5364 1205 104.506 285.634 445.489
1315 0 102.126 12.6021 1287 102.715 285.3 447.451
1316 0 104.192 12.4673 1299 103.346 285.505 441.51
1317 0 106.242 11.8127 1255 105.648 285.086 443.699
1318 0 108.071 13.0192 1407 103.989 285.572 438.925
1319 0 113.191 13.1725 1491 103.689 285.92 437.409
1320 0 114.155 11.1077 1268 107.164 285.115 443.85
1321 0 117.146 11.968 1402 107.946 285.857 435.498
1322 0 120.209 12.0872 1453 108.111 285.094 433.656
1323 1 64.0863 8.06725 517 105.812 285.321 462.331
1324 0 69.24 9.8498 682 99.8152 285.384 463.848
1325 0 71.2034 11.5865 825 100.356 285.044 463.187
1326 0 74.1708 11.8106 876 99.7123 284.666 463.384
1327 0 76.1371 11.3611 865 101.171 284.268 461.079
1328 0 80.1571 10.7664 863 101.366 284.629 460.779
1329 0 79.1708 11.2289 889 102.387 283.955 457.513
1330 0 82.1108 10.3153 847 105.324 284.548 458.106
1331 0 84.1767 10.4067 876 105.96 284.292 458.667
1332 0 85.25 11.085 945 107.854 284.074 454.803
1333 0 92.1228 10.8008 995 106.294 284.882 456.225
1334 0 93.3386 10.778 1006 109.522 283.494 449.918
1335 0 96.2017 11.216 1079 107.501 284.494 451.668
1336 0 99.2329 12.4052 1231 104.443 284.49 450.5
1337 0 102.189 10.9699 1121 104.97 283.924 449.459
1338 0 108.181 11.5732 1252 103.671 283.719 450.526
1339 0 106.198 10.3297 1097 108.25 282.321 444.4
1340 1 56.0412 9.5287 534 97.1311 283.225 472.609
1341 0 57.1435 9.95738 569 91.1758 282.538 470.292
1342 0 57.0498 7.83526 447 92.3624 283.74 473.221
1343 0 59.1132 8.88127 525 92.3105 283.139 467.514
1344 0 62.101 11.4813 713 88.2034 283.067 469.09
1345 0 59.0606 8.27962 489 93.3231 283.157 464.924
1346 0 64.0954 8.54976 548 92.281 283.325 463.416
1347 0 63.1305 9.63085 608 92.6266 283.498 461.465
1348 0 68.1396 9.26041 631 90.0555 283.374 465.987
1349 0 67.1121 11.2349 754 89.4377 282.761 459.101
1350 0 69.0897 10.3633 716 91.6662 282.383 459.852
1351 0 72.0685 10.7675 776 90.5348 282.365 459.398
1352 0 71.0964 11.0976 789 91.7858 283.449 455.678
1353 0 77.0778 9.84719 759 92.1449 282.651 462.187
1354 0 78.0768 11.335 885 90.6316 283.22 459.134
1355 0 80.1496 10.942 877 92.4709 283.166 459.812
1356 0 84.1221 10.4966 883 93.1495 282.592 459.71
1357 0 84.1246 11.0669 931 92.1547 283.093 457.038
1358 0 86.3969 8.69245 751 98.9987 283.445 454.886
1359 0 85.162 9.98098 850 98.5329 283.295 451.719
1360 0 93.2623 11.6017 1082 95.0388 282.12 446.542
1361 0 92.0681 9.97088 918 99.9488 281.898 447.646
1362 0 98.126 10.7821 1058 97.7136 282.457 449.036
1363 0 100.228 9.40857 943 99.9936 281.786 451.318
1364 0 103.276 10.4284 1077 100.962 281.733 446.435
1365 1 57.1714 9.91755 567 100.845 281.377 469.845
1366 0 54.1532 10.4149 564 103.766 281.355 467.566
1367 0 59.2101 9.40717 557 106.029 281.487 467.156
1368 0 58.0391 11.251 653 103.432 281.813 464.787
1369 0 66.1298 9.55697 632 104.345 282.714 465.815
1370 0 69.148 10.7306 742 102.364 282.043 465.54
1371 0 71.1826 12.2221 870 99.177 281.344 467.601
1372 0 72.1944 10.8457 783 102.959 281.787 468.18
1373 0 75.1439 12.7489 958 99.0532 281.245 465.389
1374 0 77.1142 11.5024 887 98.1094 280.991 464.237
1375 0 80.1502 12.227 980 96.5796 281.647 463.927
1376 0 83.2022 12.0189 1000 97.643 281.289 462.146
1377 0 84.1001 11.2961 950 93.159 281.326 460.771
1378 0 86.2313 11.5039 992 92.9536 280.802 460.457
1379 0 89.1722 12.1563 1084 91.833 282.008 458.487
1380 0 93.1512 13.4298 1251 89.2902 281.076 455.799
1381 0 92.1655 10.9151 1006 93.2008 280.903 456.67
1382 0 97.2817 11.1532 1085 92.282 280.869 455.692
1383 0 98.322 10.5266 1035 94.4879 280.426 452.42
1384 0 102.21 11.0459 1129 94.0133 280.356 451.64
1385 0 105.378 9.42326 993 96.6838 280.447 449.82
1386 0 109.173 11.7337 1281 93.7135 280.998 446.129
1387 1 60.1641 9.52395 573 92.4188 281.574 472.031
1388 0 62.1154 11.4464 711 91.7468 281.72 471.736
1389 0 62.0984 9.82312 610 102.851 281.879 469.718
1390 0 65.0469 10.8076 703 100.539 281.795 469.738
1391 0 66.1129 11.1325 736 100.511 282.14 468.743
1392 0 71.1211 11.7827 838 97.8365 281.251 467.705
1393 0 71.1194 13.2594 943 95.6511 280.674 464.271
1394 0 74.2502 12.5118 929 96.5404 281.18 464.592
1395 0 77.1339 12.4329 959 95.8238 280.878 463.119
1396 0 78.1018 11.6259 908 97.6278 281.43 462.905
1397 0 81.108 11.7621 954 96.3742 281.743 462.323
1398 0 85.0866 11.4002 970 96.399 281.37 460.088
1399 0 84.2246 11.6712 983 97.1068 281.047 459.308
1400 0 86.1654 11.4083 983 98.0183 280.966 456.937
1401 0 91.1807 13.062 1191 94.3795 280.635 454.736
1402 0 91.1182 11.3589 1035 98.514 280.877 452.31
1403 0 96.2221 12.44 1197 96.1086 280.465 453.274
1404 0 99.0586 12.3967 1228 96.3046 280.459 451.494
1405 0 102.167 12.8809 1316 95.5904 279.871 451.442
1406 0 106.142 12.3232 1308 96.8028 280.124 450.699
1407 1 56.1264 11.1534 626 92.0463 280.048 473.069
1408 0 57.0487 8.81703 503 100.314 281.107 471.497
1409 0 58.078 9.86603 573 97.4241 281.075 474.075
1410 0 61.1075 11.7171 716 93.9749 281.316 473.992
1411 0 62.074 11.2285 697 95.3027 280.713 470.796
1412 0 64.2421 10.7562 691 96.6787 281.135 468.732
1413 0 68.179 12.9952 886 91.4876 281.502 468.936
1414 0 70.1582 13.0562 916 91.238 280.514 470.024
1415 0 68.1751 11.1184 758 95.8786 280.734 469.098
1416 0 73.0911 10.0559 735 97.2912 281.318 462.733
1417 0 71.1891 11.5608 823 96.2187 281.083 458.301
1418 0 76.1839 11.3541 865 95.8058 281.136 457.993
1419 0 80.0964 12.0605 966 94.4596 281.486 458.335
1420 0 82.1299 12.9551 1064 94.1664 280.179 455.556
1421 0 85.2018 10.9857 936 95.578 279.918 455.306
1422 0 89.1487 11.2845 1006 94.331 280.643 457.691
1423 0 93.1229 11.7694 1096 94.3047 281.101 453.817
1424 0 87.1966 12.5464 1094 95.0878 281.083 450.729
1425 0 92.0773 10.6867 984 99.2307 279.689 446.586
1426 0 98.1899 12.0888 1187 96.401 280.548 447.866
1427 0 97.1234 10.6977 1039 100.372 280.349 441.01
1428 0 105.136 12.9356 1360 94.6448 280.777 442.818
1429 0 107.159 11.9729 1283 97.1551 280.744 441.44
1430 0 113.274 14.0456 1591 93.0044 280.194 441.565
1431 0 116.242 12.3879 1440 95.7979 281.161 439.559
1432 0 119.175 11.7222 1397 97.9349 280.057 437.738
1433 0 123.189 12.5904 1551 96.5603 279.711 434.654
1434 1 62.0678 9.53795 592 89.6402 279.966 467.593
1435 0 60.0663 8.77363 527 89.7211 280.353 466.004
1436 0 67.1709 8.82822 593 89.5244 279.794 461.884
1437 0 68.0671 11.3271 771 85.166 280.931 467.39
1438 0 72.0618 10.4077 750 86.4733 280.985 466.109
1439 0 73.1259 8.51955 623 89.8379 280.53 464.454
1440 0 77.0808 10.249 790 87.6228 281.028 463.933
1441 0 80.1214 10.222 819 87.8291 281.469 464.946
1442 0 81.2129 11.4268 928 87.1724 280.581 458.508
1443 0 84.1122 8.45299 711 90.6554 280.942 461.997
1444 0 85.1023 9.85873 839 90.9535 281.07 457.184
1445 0 90.088 11.1336 1003 88.8674 280.666 457.152
1446 0 93.1626 9.2419 861 92.2671 280.64 455.074
1447 0 93.2301 11.241 1048 90.3454 280.66 450.244
1448 0 96.1121 10.3941 999 91.7628 280.91 449.605
1449 0 102.233 9.71312 993 92.281 281.236 450.205
1450 0 104.123 10.0458 1046 91.0554 279.342 448.748
1451 0 108.156 11.1229 1203 90.2818 280.712 448.068
1452 0 111.287 11.1244 1238 91.0339 280.635 446.497
1453 0 112.231 11.0397 1239 91.3261 280.745 448.884
1454 0 117.09 9.34324 1094 94.479 281.036 446.137
1455 1 67.2493 11.7325 789 92.7528 280.51 466.223
1456 0 70.1158 12.3653 867 93.8016 279.791 464.924
1457 0 69.1016 11.0272 762 98.5105 281.556 465.689
1458 0 73.1086 12.0095 878 97.2665 281.192 463.178
1459 0 74.0495 11.7354 869 98.3084 282.305 463.397
1460 0 79.203 11.6789 925 99.4205 281.519 462.405
1461 0 78.0774 12.4364 971 99.4799 280.751 459.591
1462 0 82.2097 13.3561 1098 97.4945 280.846 457.658
1463 0 84.1625 13.5096 1137 97.1768 280.967 457.898
1464 0 88.0953 12.4297 1095 99.3854 281.058 456.079
1465 0 90.0919 13.464 1213 97.0157 280.678 454.251
1466 0 92.0962 13.2036 1216 98.0888 280.91 453.016
1467 0 95.085 13.6089 1294 96.3748 281.032 452.624
1468 0 100.282 13.7512 1379 94.6693 280.865 451.503
1469 0 97.1403 11.9518 1161 95.7037 281.759 447
1470 0 101.213 11.1745 1131 95.6525 281.924 451.809
1471 0 105.222 12.8775 1355 92.6812 281.016 448.018
1472 0 112.253 13.5142 1517 90.7475 281.734 449.009
1473 0 114.134 11.688 1334 94.0802 281.61 447.964
1474 0 111.174 11.1267 1237 96.5683 280.805 443.635
1475 0 121.229 12.8847 1562 91.9757 281.683 445.018
1476 0 123.207 11.9555 1473 94.5465 281.578 443.382
1477 0 133.205 13.7683 1834 90.5807 281.324 439.874
1478 0 136.271 13.2236 1802 91.9967 281.267 437.134
1479 0 141.203 14.0861 1989 90.2127 281.187 437.36
1480 0 142.249 12.8577 1829 93.9612 281.027 432.562
1481 0 149.2 11.8633 1770 95.5938 281.044 434.955
1482 0 155.384 12.9936 2019 94.7786 280.617 430.088
1483 0 159.229 12.8808 2051 96.5914 280.763 427.683
1484 0 167.426 13.2775 2223 97.2955 280.308 421.356
1485 1 93.1694 11.7099 1091 97.2621 279.959 460.671
1486 0 96.2726 12.8801 1240 96.1774 280.259 456.047
1487 0 100.147 13.1807 1320 95.7227 280.141 456.236
1488 0 100.241 12.9887 1302 96.235 279.929 456.192
1489 0 105.371 13.4857 1421 94.7199 280.654 453.208
