time division length width area intensity CMx CMy
0 0 43.0728 15.4854 667 116.016 354.616 478.846
1 0 46.0339 16.2489 748 110.932 355.207 478.579
2 0 45.0429 15.2299 686 119.292 354.047 478.039
3 0 45.0239 15.1031 680 122.197 354.315 478.138
4 0 47.0383 15.6256 735 120.099 354.699 477.761
5 0 48.018 15.5567 747 117.648 355.232 477.091
6 0 48.1081 16.4837 793 117.603 354.54 474.995
7 0 51.0481 16.6901 852 114.662 354.495 475.518
8 0 50.0471 15.905 796 119.798 353.996 475.619
9 0 53.0575 16.6046 881 115.047 354.193 474.923
10 0 54.0357 15.7488 851 118.935 354.589 476.038
11 0 55.0236 14.9572 823 121.902 354.885 475.052
12 0 57.0257 17.3957 992 114.945 354.807 474.999
13 0 60.0293 15.9589 958 117.573 354.666 474.409
14 0 60.0693 15.7318 945 118.321 354.079 473.669
15 0 60.084 15.9111 956 119.485 353.5 471.606
16 0 64.0969 17.0991 1096 114.282 353.755 472.816
17 0 65.0867 15.948 1038 120.224 353.368 470.866
18 0 67.1531 16.3656 1099 118.363 353.062 469.476
19 0 68.0569 15.6193 1063 126.055 353.498 471.149
20 0 71.1139 15.9181 1132 126.936 352.814 469.976
21 0 73.116 16.6995 1221 125.055 352.203 469.698
22 0 77.1733 17.5838 1357 121.848 351.685 469.856
23 1 38.0657 11.953 455 133.411 352.262 488.582
24 0 40.05 12.6841 508 132.785 352.874 485.888
25 0 41.0886 13.1667 541 131.445 352.475 485.54
26 0 42.1 13.3017 560 133.077 351.675 485.525
27 0 44.1001 13.6281 601 133.231 350.835 485.767
28 0 45.0495 14.0512 633 135.649 351.926 484.648
29 0 48.0386 14.8214 712 132.851 352.018 484.718
30 0 50.0615 14.9017 746 130.551 351.889 484.882
31 0 51.0636 14.4917 740 133.7 351.886 483.578
32 0 51.0282 14.1294 721 136 351.545 482.354
33 0 52.0638 14.6935 765 130.833 351.203 482.393
34 0 55.0363 14.8266 816 129.395 350.985 482.789
35 0 55.1139 15.2775 842 128.999 350.831 483.235
36 0 56.1183 15.4673 868 129.463 351.744 480.974
37 0 60.0481 16.3203 980 127.49 351.686 480.355
38 0 60.0388 15.3734 923 131.685 351.573 479.454
39 0 62.0681 15.8374 983 129.812 351.336 479.602
40 0 66.1396 16.1174 1066 127.19 350.765 477.074
41 0 66.0638 16.5446 1093 126.988 350.674 475.525
42 0 68.1094 14.9612 1019 129.901 350.027 476.746
43 0 73.0391 15.5533 1136 126.836 350.584 475.264
44 0 73.1866 14.3605 1051 130.657 350.585 473.08
45 0 76.0785 15.7206 1196 125.346 350.579 472.824
46 0 80.1241 16.1999 1298 122.591 350.039 471.598
47 0 82.1843 15.1732 1247 125.907 349.942 469.787
48 0 83.0827 15.0693 1252 126.03 350.472 468.714
49 0 88.0461 17.1274 1508 118.893 350.023 466.465
50 0 90.0872 14.7524 1329 125.575 350.087 464.969
51 0 93.1632 15.4138 1436 122.774 350.026 464.205
52 0 98.0654 14.9186 1463 122.332 350.852 463.632
53 0 101.191 15.6536 1584 121.755 351.007 459.146
54 0 104.072 15.5854 1622 121.493 350.183 460.387
55 1 54.06 13.9845 756 120.644 349.602 483.843
56 0 56.1275 14.7699 829 119.15 349.101 484.239
57 0 59.0488 14.1408 835 122.316 349.657 481.192
58 0 62.1019 14.8144 920 119.877 350.034 481.235
59 0 62.0893 13.9477 866 124.016 349.657 481.096
60 0 64.0818 14.0914 903 125.196 349.451 478.764
61 0 67.1452 13.7314 922 126.439 349.653 478.652
62 0 69.0713 14.5502 1005 125.539 350.015 477.571
63 0 72.0797 14.7892 1066 124.633 350.05 476.983
64 0 74.0951 14.6703 1087 127.361 349.155 474.083
65 0 76.0615 14.9879 1140 127.928 348.95 474.655
66 0 79.0518 14.0035 1107 131.244 348.898 473.479
67 0 80.064 13.4642 1078 134.375 349.008 471.715
68 0 85.1299 15.3295 1305 129.46 348.484 470.403
69 0 87.0708 14.046 1223 133.744 348.805 468.737
70 0 92.0665 14.2723 1314 132.671 348.843 466.578
71 0 95.0609 15.0325 1429 131.251 348.975 464.859
72 1 50.0582 13.3645 669 129.815 349.235 486.347
73 0 51.0675 13.394 684 133.026 348.585 484.499
74 0 55.043 13.1897 726 127.427 348.514 483.61
75 0 53.0942 12.4496 661 130.123 348.722 485.856
76 0 54.138 11.8586 642 132.299 348.685 485.986
77 0 57.0244 13.3101 759 130.183 349.087 483.364
78 0 59.0489 13.7175 810 128.272 348.899 483.065
79 0 61.0621 13.6582 834 129.046 349.295 481.429
80 0 65.1478 14.352 935 125.597 349.679 481.267
81 0 66.1112 14.0672 930 127.344 349.923 478.887
82 0 69.1009 14.0664 972 127.286 349.237 477.657
83 0 70.0672 12.3596 866 132.876 349.478 475.888
84 0 75.066 14.6937 1103 126.385 349.19 476.115
85 0 78.0583 14.6173 1141 126.471 349.23 474.805
86 0 80.0672 14.1756 1135 128.692 349.248 473.983
87 0 81.1279 14.508 1177 129.595 349.234 473.246
88 0 83.1092 14.2824 1187 131.95 349.579 470.73
89 0 85.0996 14.6299 1245 132.028 349.306 469.168
90 0 89.1021 13.4004 1194 134.944 349.268 466.94
91 0 92.2357 13.9425 1286 133.704 349.138 465.481
92 0 95.1676 14.0384 1336 133.884 348.35 462.769
93 0 97.2035 13.446 1307 136.643 347.992 461.019
94 0 102.162 14.1637 1447 134.645 347.769 459.634
95 1 53.0815 11.586 615 128.411 347.802 484.306
96 0 55.0484 13.2247 728 128.198 347.423 484.361
97 0 55.0902 12.3615 681 125.89 347.927 485.636
98 0 59.0781 12.9828 767 126.037 347.821 482.911
99 0 60.0535 12.2224 734 130.029 348.52 483.189
100 0 62.082 13.5627 842 126.996 348.729 480.657
101 0 64.0247 13.323 853 128.933 348.086 478.941
102 0 66.0887 12.3622 817 130.895 348.35 480.51
103 0 68.1065 14.5654 992 122.68 347.957 478.594
104 0 71.1077 12.8256 912 130.752 348.259 477.188
105 0 74.0657 14.0011 1037 128.989 348.023 476.421
106 0 76.1313 12.82 976 133.778 347.559 473.266
107 0 79.1297 14.2298 1126 129.843 347.722 473.561
108 0 82.1644 14.2032 1167 130.594 348.213 470.518
109 0 85.0934 13.3853 1139 132.944 347.872 469.499
110 0 88.1515 13.647 1203 131.087 348.191 467.336
111 0 89.1286 12.252 1092 135.175 348.245 468.54
112 1 48.1384 11.9447 575 128.123 348.224 487.843
113 0 51.023 12.1514 620 128.566 348.435 487.277
114 0 49.1244 11.4811 564 128.984 347.869 487.583
115 0 51.1027 11.9955 613 127.463 347.07 486.095
116 0 54.0229 10.9768 593 128 347.744 485.953
117 0 56.0296 12.2078 684 125.322 347.699 485.132
118 0 56.1171 10.5494 592 131.088 348.201 484.723
119 0 60.0963 12.4467 748 127.104 348.676 483.13
120 0 62.2222 12.2625 763 127.62 347.805 482.587
121 0 63.1229 12.6737 800 130.299 347.42 479.429
122 0 65.1806 11.8747 774 130.611 347.258 480.804
123 0 68.171 12.5713 857 130.413 347.692 477.861
124 0 71.1272 12.4566 886 130.087 347.623 478.203
125 0 73.1469 13.2063 966 130.03 348.256 474.635
126 0 76.0808 13.0914 996 129.483 348.226 476.481
127 0 78.0712 11.7585 918 134.929 348.02 475.199
128 0 82.0846 12.7308 1045 132.245 348.23 471.941
129 1 44.0306 10.5608 465 131.994 348.695 491.574
130 0 43.0272 11.2952 486 128.805 349.051 490.895
131 0 46.0524 12.0732 556 128.072 349.137 490.018
132 0 46.0336 12.3605 569 123.991 347.404 491.197
133 0 44.0272 11.6746 514 128.298 347.196 490.259
134 0 46.1408 11.3132 522 128.115 347.613 490.797
135 0 47.0491 11.1798 526 130.487 347.49 489
136 0 49.0369 11.5219 565 130.223 347.573 488.552
137 0 51.0741 12.198 623 128.308 346.987 487.748
138 0 51.0954 11.5079 588 132.645 347.689 486.84
139 0 53.0664 12.7388 676 128.485 348.015 488.068
140 0 54.0163 12.885 696 129.464 347.427 486.101
141 0 56.0673 12.8596 721 129.445 347.214 485.674
142 0 57.0373 12.3428 704 132.037 347.099 483.845
143 0 59.134 12.9198 764 131.107 347.864 482.814
144 0 60.0567 12.4549 748 132.96 347.93 483.063
145 0 63.1185 13.0865 826 131.435 347.862 481.321
146 0 64.0975 13.1362 842 131.607 348.236 480.103
147 0 65.1456 12.8635 838 132.976 347.883 479.523
148 0 68.2082 13.1069 894 132.638 347.728 478.959
149 0 71.1704 13.1234 934 132.5 347.989 478.305
150 0 73.1354 13.4818 986 132.856 347.453 476.09
151 0 76.1614 12.6311 962 133.906 347.705 475.771
152 0 78.1781 13.2134 1033 134.308 348.148 472.86
153 0 79.0879 13.9086 1100 132.93 348.664 471.735
154 0 84.0734 14.868 1250 128.139 348.962 470.702
155 1 43.0043 10.3245 444 132.653 349.196 490.727
156 0 42.0076 10.6171 446 130.756 348.834 488.668
157 0 47.0522 12.6243 594 127.104 348.429 489.019
158 0 46.0675 12.7205 586 124.904 348.628 489.756
159 0 47.1278 13.0496 615 123.886 348.348 489.312
160 0 50.0504 12.0479 603 125.401 348.638 488.955
161 0 49.071 12.0642 592 126.375 348 487.674
162 0 51.0616 11.9855 612 126.971 348.302 486.786
163 0 50.0486 11.8485 593 128.509 348.7 487.103
164 0 53.1072 13.1621 699 124.848 348.68 484.544
165 0 56.0846 11.7501 659 127.639 349.158 484.781
166 0 56.0663 11.4507 642 129.318 349.083 483.645
167 0 59.0972 12.6402 747 126.458 349.292 483.131
168 0 61.0781 13.0489 797 125.689 348.979 482.356
169 0 60.133 12.9047 776 127.116 349.098 481.979
170 0 64.1228 13.443 862 127.331 349.073 478.519
171 0 68.0779 12.7501 868 128.418 349.165 479.783
172 0 67.1014 12.8611 863 130.895 349.012 478.112
173 0 69.1338 12.7 878 132.631 348.778 477.024
174 0 75.0632 13.2155 992 129.931 349.069 474.938
175 0 78.1055 13.1873 1030 129.882 349.094 475.193
176 0 78.1028 12.8677 1005 133.244 348.465 472.257
177 0 81.1549 13.5174 1097 130.443 348.704 470.179
178 0 82.037 12.1043 993 135.167 348.817 469.036
179 0 88.0652 12.5248 1103 134.615 347.497 466.637
180 1 45.0222 11.1723 503 132.96 348.437 488.423
181 0 49.1159 12.2974 604 124.682 348.738 487.007
182 0 47.079 11.7037 551 126.779 348.488 486.889
183 0 50.0372 11.9911 600 125.607 348.947 485.812
184 0 51.0691 11.8467 605 125.324 349.013 486.803
185 0 53.0783 12.133 644 124.592 349.068 484.756
186 0 57.0644 12.2493 699 122.391 349.097 485.702
187 0 55.1266 11.2287 619 128.816 349.029 483.409
188 0 60.1054 11.6129 698 125.209 348.215 483.355
189 0 61.0828 13.2607 810 120.648 348.589 480.748
190 0 62.0323 11.3973 707 124.902 348.395 482.455
191 0 65.1511 12.7089 828 122.106 348.315 478.634
192 0 67.05 12.4385 834 124.05 348.327 478.092
193 0 69.0678 12.1909 842 124.379 348.648 476.752
194 0 74.0687 12.3399 914 121.791 347.984 476.453
195 0 76.0749 11.6201 884 124.132 347.813 475.777
196 0 78.1064 12.8927 1007 122.815 348.273 472.083
197 0 81.1608 12.8141 1040 121.388 348.771 472.874
198 0 81.0874 12.2584 994 125.059 348.4 469.924
199 0 87.1186 12.5805 1096 127.064 347.79 468.609
200 0 89.1054 11.9297 1063 129.655 347.714 465.421
201 1 47.0445 10.2881 484 123.591 348.661 488.831
202 0 48.055 10.5296 506 124.231 348.955 485.725
203 0 51.0605 11.1632 570 120.17 348.563 486.516
204 0 53.1047 12.2211 649 126.57 348.419 485.418
205 0 55.1448 11.497 634 126.935 348.546 485.229
206 0 57.1405 11.953 683 125.489 348.83 483.939
207 0 58.1102 13.113 762 123.757 348.782 481.089
208 0 59.251 12.388 734 123.448 348.48 481.531
209 0 59.1724 11.627 688 124.884 348.547 481.775
210 0 62.246 12.4185 773 122.334 348.702 479.762
211 0 65.1692 11.7847 768 123.081 348.546 477.418
212 0 66.1229 11.6752 772 123.81 348.771 476.017
213 0 70.1904 12.2951 863 120.606 348.251 476.759
214 0 72.0592 12.1706 877 121.258 348.613 473.423
215 0 70.0913 11.5706 811 124.227 348.705 473.397
216 0 75.0966 12.2509 920 121.382 348.009 471.327
217 0 78.0482 12.2104 953 121.674 348.069 469.677
218 0 81.0677 11.879 963 120.511 348.524 470.58
219 0 86.1825 12.4503 1073 118.993 349.285 468.178
220 0 85.1888 10.06 857 126.053 349.314 466.642
221 0 89.1495 11.6434 1038 122.243 348.777 465.4
222 1 46.0123 10.6928 492 115.967 349.555 485.72
223 0 48.0621 10.965 527 114.266 348.469 487.535
224 0 50.102 11.1772 560 114.139 348.704 483.195
225 0 52.1285 11.5868 604 113.232 348.829 486.457
226 0 53.0224 10.5993 562 115.552 347.907 484.747
227 0 55.1191 12.5728 693 114.658 347.948 484.127
228 0 55.0325 11.7385 646 118.624 347.644 481.667
229 0 58.0972 11.1365 647 119.476 347.725 481.261
230 0 59.069 11.0041 650 119.889 348.078 481.16
231 0 62.0587 12.327 765 115.136 348.409 477.165
232 0 63.1872 12.2651 775 116.148 348.213 479.275
233 0 64.1597 12.8897 827 114.619 348.307 478.486
234 0 65.1361 13.1264 855 115.675 348.167 476.267
235 0 67.141 12.6599 850 116.753 348.136 476.264
236 0 69.0991 12.2722 848 117.748 348.085 475.675
237 0 70.0695 11.0604 775 121.848 347.968 475.886
238 0 75.1474 12.5753 945 117.224 348.408 473.099
239 0 74.1425 13.1773 977 128.193 349.395 472.451
240 0 81.1762 13.5261 1098 116.089 349.171 470.954
241 0 86.21 15.0331 1296 111.535 349.181 468.551
242 0 86.2715 12.2868 1060 116.989 348.945 466.751
243 0 87.0984 11.7798 1026 115.72 349.331 464.485
244 0 91.1221 10.689 974 115.554 348.988 461.721
245 1 48.0525 10.5718 508 105.348 349.713 483.97
246 0 51.0749 11.8258 604 106.649 349.323 483.637
247 0 52.1883 13.3746 698 114.109 347.738 482.309
248 0 51.0512 10.4797 535 107.434 348.503 483.146
249 0 54.0172 10.9965 594 107.747 348.433 479.741
250 0 57.0654 11.1802 638 106.487 348.445 480.511
251 0 57.0355 11.4139 651 107.487 348.08 480.324
252 0 58.0332 11.4762 666 108.47 348.186 478.165
253 0 62.096 12.9316 803 105.355 348.606 477.974
254 0 63.0417 12.0396 759 108.138 348.289 475.743
255 0 66.0485 11.5218 761 108.846 348.427 476.424
256 0 68.1426 12.5912 858 106.246 349.153 473.446
257 0 72.0819 11.5702 834 109.388 348.659 473.066
258 0 74.2587 13.7896 1024 104.482 348.509 472.221
259 0 75.0427 12.6328 948 109.994 348.443 469.573
260 0 80.0723 13.8125 1106 115.198 348.029 473.602
261 0 82.0471 14.0773 1155 115.63 348.327 471.613
262 0 86.0746 14.9986 1291 113.117 347.762 470.407
263 1 44.0129 11.6784 514 115.089 348.08 490.914
264 0 45.0111 12.2414 551 110.368 347.276 490.677
265 0 45.0459 11.9878 540 110.237 348.391 489.724
266 0 48.0441 12.8632 618 107.95 347.574 489.513
267 0 49.0214 11.7704 577 112.17 347.508 489.099
268 0 51.1506 11.4368 585 111.834 347.638 488.451
269 0 52.0298 11.6087 604 112.098 347.98 487.682
270 0 54.0698 13.8894 751 106.995 348.076 485.672
271 0 54.0645 12.6885 686 110.767 348.319 486.109
272 0 56.0205 14.1377 792 107.403 347.699 484.15
273 0 58.0436 13.5932 789 109.496 347.996 483.565
274 0 59.0857 13.3704 790 110.467 347.63 481.929
275 0 62.1265 12.8608 799 109.215 347.521 483.315
276 0 64.0652 13.6423 874 107.973 347.879 481.212
277 0 66.1084 13.0089 860 109.715 348.127 480.297
278 0 67.1143 13.41 900 109.269 347.869 479.43
279 0 68.173 12.791 872 111.594 347.979 477.212
280 0 71.0546 13.3419 948 108.389 348.863 477.483
281 0 73.2058 12.3488 904 119.519 349.025 477.115
282 0 76.1237 12.7687 972 118.705 349.18 475.542
283 0 78.1733 12.8177 1002 117.737 349.107 475.609
284 0 81.1002 13.8101 1120 115.402 349.184 475.121
285 0 83.0989 12.0218 999 120.091 348.594 472.32
286 0 84.1321 12.6111 1061 119.663 349.141 470.479
287 0 89.2133 12.274 1095 116.837 348.776 469.258
288 0 92.1588 12.8148 1181 114.474 348.04 466.713
289 0 95.2028 12.1635 1158 113.827 348.193 466.535
290 0 97.192 12.82 1246 110.9 348.252 463.125
291 1 47.1357 9.94999 469 108.226 349.141 487.002
292 0 51.0347 11.4628 585 102.809 348.007 487.745
293 0 52.0813 11.674 608 102.523 348.229 486.482
294 0 56.0388 11.0102 617 102.588 348.241 485.981
295 0 56.0881 12.3734 694 100.281 348.865 483.125
296 0 58.0582 11.8846 690 102.119 348.152 482.171
297 0 61.1131 11.4378 699 102.486 348.392 483.08
298 0 62.1017 11.8837 738 101.911 348.477 481.821
299 0 64.1542 11.7841 756 102.995 348.16 480.095
300 0 67.1237 12.1865 818 101.077 347.978 478.767
301 0 71.1498 12.1434 864 101.604 348.061 477.984
302 0 73.1861 11.3136 828 109.598 347.574 476.902
303 0 74.1859 11.0129 817 109.526 347.796 475.466
304 0 79.1061 11.5415 913 106.563 347.904 474.601
305 0 82.1353 11.9924 985 106.042 347.768 473.419
306 0 83.0841 10.7361 892 108.942 348.115 471.868
307 0 87.1553 11.2099 977 107.975 348.298 467.953
308 0 90.1079 11.5417 1040 105.904 348.098 469.659
309 1 44.05 10.9421 482 102.187 347.89 489.259
310 0 44.0985 9.95498 439 106.376 348.08 489.925
311 0 46.0692 10.7664 496 103.583 347.456 489.02
312 0 46.1003 10.3253 476 106.113 348.565 490.576
313 0 50.0559 10.748 538 104.73 349.303 488.963
314 0 49.0671 11.148 547 106.68 348.985 486.541
315 0 50.0832 10.9817 550 108.22 349.553 485.069
316 0 54.1061 11.2187 607 105.946 349.27 486.728
317 0 55.0618 10.5881 583 108.945 349.568 484.206
318 0 56.0678 10.5586 592 109.645 349.775 483.576
319 0 59.078 11.0701 654 106.644 349.884 485.26
320 0 59.1071 10.5064 621 109.763 349.395 484.298
321 0 62.1468 11.2958 702 107.855 349.486 483.322
322 0 65.1411 11.7898 768 108.652 349.155 480.354
323 0 67.2372 11.69 786 109.174 349.229 478.828
324 0 70.2044 12.2642 861 108.574 348.931 478.729
325 0 71.116 12.5851 895 109.457 349.026 476.428
326 0 76.0987 12.8123 975 107.753 349.286 477.408
327 0 78.116 12.8271 1002 108.377 349.427 476.796
328 0 79.1713 12.1761 964 112.381 349.626 472.242
329 0 82.3194 11.2246 924 114.517 348.969 474.24
330 1 42.1883 10.0976 426 115.556 349.232 491.075
331 0 45.0461 12.0321 542 110.59 348.67 491.45
332 0 45.0627 12.0277 542 112.847 349.891 490.275
333 0 47.0287 12.3967 583 111.407 350.108 489.477
334 0 47.0552 11.6247 547 111.697 349.589 490.839
335 0 50.0827 12.2997 616 108.8 350.076 490.067
336 0 51.1065 12.6403 646 109.259 349.096 488.567
337 0 49.0523 10.866 533 115.03 349.463 488.298
338 0 54.1307 13.6152 737 107.336 349.172 486.524
339 0 53.1998 11.3158 602 113.449 348.666 486.831
340 0 55.0726 11.8571 653 111.93 348.937 485.853
341 0 57.1317 12.4099 709 110.767 349 484.01
342 0 59.1342 11.8206 699 110.851 348.926 483.681
343 0 59.159 12.0015 710 111.469 349.165 483.073
344 0 61.2271 12.5108 766 107.93 349.525 483.651
345 0 61.1435 11.7919 721 110.548 350.043 480.953
346 0 65.0707 11.9409 777 109.515 350.291 480.387
347 0 67.1175 12.858 863 106.848 349.908 477.518
348 0 69.0847 11.5945 801 108.715 349.027 479.727
349 0 68.0902 11.191 762 111.77 348.802 475.551
350 0 72.1059 12.4262 896 108.344 348.539 474.059
351 0 78.0418 13.4671 1051 103.428 349.051 475.846
352 0 78.1295 12.2745 959 107.038 349.886 474.128
353 0 82.1117 12.1542 998 106.969 349.897 471.396
354 1 43.0254 10.7611 463 104.812 351.188 491.784
355 0 43.2221 10.3188 446 106.836 351.222 489.314
356 0 46.1956 12.144 561 102.927 351.105 488.622
357 0 46.1956 12.0574 557 137.855 352.106 488.648
358 0 51.065 13.0422 666 100.944 350.97 487.605
359 0 50.0727 11.5632 579 105.598 350.682 489.724
360 0 51.144 12.0249 615 106.8 350.402 487.865
361 0 51.074 11.2777 576 108.41 351.26 487.25
362 0 54.0503 11.7113 633 105.687 350.659 488.098
363 0 57.1307 13.0928 748 102.418 350.795 485.754
364 0 57.0697 13.2995 759 103.116 350.697 483.935
365 0 60.0692 11.7698 707 105.405 350.591 483.205
366 0 61.1326 12.5792 769 104.459 350.527 482.612
367 0 64.0666 12.6431 810 102.315 350.351 482.932
368 0 66.047 12.6122 833 103.573 350.367 479.856
369 0 67.046 13.1701 883 103.776 350.412 477.55
370 0 70.085 12.8844 903 103.769 350.646 477.885
371 0 73.1183 12.9926 950 103.568 350.249 477.055
372 0 75.2298 12.0564 907 105.998 350.598 475.035
373 0 76.0935 11.499 875 110.822 350.213 472.888
374 0 80.0951 11.9108 954 108.809 350.242 471.838
375 1 41.0682 9.7886 402 102.577 349.98 494.371
376 0 42.0569 10.3194 434 103.742 349.853 492.442
377 0 45.0695 11.1162 501 100.808 349.357 492.445
378 0 45.0546 11.9855 540 100.693 349.965 489.137
379 0 48.0734 12.4185 597 98.3668 350.352 489.415
380 0 51.1663 12.176 623 98.8555 349.693 489.377
381 0 49.0979 11.0188 541 103.843 349.242 489.068
382 0 51.2247 12.7673 654 100.112 349.526 487.362
383 0 54.1124 13.2317 716 98.3492 349.272 487.613
384 0 54.0995 11.4973 622 104.223 349.767 486.193
385 0 54.1022 11.5337 624 104.551 349.949 485.518
386 0 57.1129 11.2409 642 104.877 349.369 484.788
387 0 59.0871 11.7284 693 105.016 349.729 481.418
388 0 62.0963 12.9315 803 102.468 349.711 481.645
389 0 64.1194 13.085 839 103.205 349.467 480.855
390 0 65.1633 13.5045 880 103.381 349.77 479.114
391 0 66.0818 11.849 783 108.034 349.871 478.026
392 0 71.1601 12.5773 895 105.769 350.144 478.931
393 0 73.2193 12.6469 926 106.853 349.881 476.322
394 0 74.1913 12.3465 916 113.479 349.679 474.289
395 0 80.194 14.041 1126 107.821 349.753 474.103
396 0 77.2154 10.6844 825 118.046 349.771 472.565
397 0 83.1255 11.8255 983 113.883 349.428 473.714
398 0 85.1475 12.1671 1036 114.558 350.101 471.016
399 0 88.2178 12.4578 1099 112.843 349.305 470.83
400 1 47.0961 10.9138 514 111.35 348.856 489.85
401 0 46.0346 11.1872 515 112.858 349.105 488.86
402 0 48.0264 12.0559 579 112.016 350.358 485.862
403 0 51.1095 12.1308 620 111.415 349.011 487.406
404 0 51.0277 11.2488 574 115.915 349.436 486.199
405 0 54.0892 11.8508 641 113.101 348.81 487.131
406 0 57.1 12.8196 732 111.954 348.698 483.611
407 0 58.0411 13.4388 780 111.296 348.949 483.919
408 0 60.1123 11.3454 682 116.39 349.001 483.516
409 0 61.0475 11.876 725 115.946 348.894 482.668
410 0 64.0813 14.6064 936 106.19 348.941 480.846
411 0 65.0487 12.9595 843 111.849 349.038 480.337
412 0 67.0818 13.1034 879 111.974 349.358 479.603
413 0 70.1851 13.5071 948 111.084 350.001 478.532
414 0 72.1065 13.2304 954 113.537 349.496 477.614
415 0 73.1214 13.6212 996 114.598 349.906 475.863
416 0 78.0669 14.795 1155 110.592 349.852 475.175
417 0 80.0791 14.136 1132 112.958 349.836 474.288
418 0 81.1146 13.0433 1058 117.766 350.129 473.509
419 0 86.1398 14.964 1289 112.99 350.198 471.865
420 0 89.1654 13.3684 1192 117.412 350.067 469.878
421 0 91.1043 13.7205 1250 117.642 350.224 466.596
422 0 94.1461 13.4472 1266 118.764 350.617 466.256
423 0 95.0757 12.1798 1158 123.161 350.955 464.683
424 1 53.0286 11.3524 602 121.882 351.048 487.64
425 0 52.0237 11.1488 580 120.666 351.3 488.583
426 0 53.0364 11.2564 597 119.896 349.878 488.363
427 0 55.0658 12.6757 698 113.784 350.507 487.266
428 0 57.0623 12.9332 738 113.103 348.869 486.287
429 0 58.0443 12.8178 744 114.659 349.991 485.63
430 0 58.149 12.382 720 116.061 350.581 484.179
431 0 60.1046 11.9957 721 118 350.699 482.825
432 0 62.0393 11.4444 710 115.583 351.245 483.445
433 0 65.1114 13.1314 855 111.47 351.135 481.73
434 0 67.0535 11.7667 789 114.146 350.11 481.589
435 0 69.1402 11.9033 823 114.123 350.733 480.29
436 0 72.066 11.9751 863 113.79 350.954 479.362
437 0 73.0605 13.0166 951 111.649 350.902 477.509
438 0 76.1012 12.26 933 113.195 350.481 477.643
439 0 78.1308 13.1062 1024 112.521 350.198 473.39
440 0 80.097 11.4486 917 116.119 350.807 474.838
441 0 82.0669 11.0641 908 117.045 350.718 474.129
442 0 87.0442 12.7292 1108 112.884 350.323 471.17
443 0 91.2148 12.8159 1169 112.399 350.048 470.078
444 0 94.1342 13.5232 1273 111.683 350.05 466.687
445 1 50.0254 12.1338 607 112.773 349.091 487.453
446 0 51.0697 11.8661 606 111.766 349.792 488.089
447 0 55.0504 12.8065 705 107.145 349.447 486.6
448 0 55.1164 12.7367 702 109.442 350.615 486.266
449 0 60.0973 12.929 777 107.079 351.03 484.569
450 0 60.1646 13.9783 841 78.654 350.803 483.889
451 0 62.2959 13.5322 843 107.995 350.843 482.847
452 0 63.1069 12.566 793 111.844 351.127 480.26
453 0 66.0804 13.4382 888 110.01 350.203 479.383
454 0 70.2045 13.0618 917 110.505 350.891 478.852
455 0 70.0952 12.5258 878 114.435 351.147 476.543
456 0 73.0821 13.1906 964 113.753 351.646 475.354
457 0 76.0544 13.4903 1026 113.539 351.538 474.009
458 0 79.1119 13.424 1062 114.376 351.35 473.126
459 0 79.1262 11.6776 924 120.922 351.103 472.818
460 0 84.0696 14.2739 1200 114.114 351.338 470.496
461 0 87.1108 12.9146 1125 118.732 351.225 468.252
462 0 90.0816 12.5109 1127 120.22 351.084 466.987
463 1 46.0383 9.94823 458 118.465 351.074 490.764
464 0 48.0462 10.594 509 118.627 351.079 489.68
465 0 49.0618 12.0868 593 117.555 351.481 488.224
466 0 51.0298 11.8754 606 118.741 352.498 487.361
467 0 52.0638 11.5819 603 118.118 351.718 488.638
468 0 49.0246 9.83181 482 121.442 350.129 487.716
469 0 52.0428 10.8757 566 118.36 350.754 487.143
470 0 55.0199 10.9415 602 117.015 350.355 486.962
471 0 57.0338 12.2033 696 113.356 350.036 484.178
472 0 57.0821 11.1243 635 115.827 350.917 486.392
473 0 60.0686 12.1528 730 114.147 350.451 485.022
474 0 62.0475 12.297 763 114.046 349.435 483.113
475 0 64.0531 12.0369 771 114.058 349.336 481.918
476 0 66.0463 12.4004 819 112.129 349.656 481.631
477 0 66.1488 10.3857 687 118.37 349.32 480.582
478 0 70.0473 12.5772 881 112.047 349.094 481.484
479 0 72.031 12.8556 926 113.361 349.27 478.575
480 0 74.0518 11.6945 866 115.109 349.274 479.188
481 0 79.089 12.7072 1005 113.014 349.181 476.463
482 0 79.1198 11.1097 879 118.741 349.71 475.359
483 0 84.0919 13.7469 1156 110.502 348.766 472.361
484 0 87.1759 12.2855 1071 112.003 348.599 471.129
485 0 89.215 11.9262 1064 113.01 349.128 470.836
486 1 48.0572 11.091 533 111.887 349.026 488.619
487 0 51.1173 12.3637 632 107.277 350.579 488.394
488 0 52.0677 12.9255 673 106.551 351.012 488.361
489 0 54.0764 14.3316 775 104.375 350.08 486.328
490 0 56.0183 12.0675 676 111.741 350.104 486.059
491 0 56.0826 11.9288 669 111.28 350.167 484.474
492 0 62.1511 12.0513 749 108.865 351.095 484.761
493 0 63.0984 11.5851 731 110.201 350.35 484.792
494 0 64.184 12.5109 803 108.816 350.67 483.004
495 0 66.1808 13.1307 869 107.934 350.23 481.473
496 0 67.1061 12.2493 822 111.631 350.651 480.71
497 0 69.084 12.5644 868 111.002 350.364 479.613
498 0 71.1009 13.8817 987 107.83 350.87 479.917
499 0 75.0932 14.2756 1072 107.66 350.176 477.044
500 0 76.0503 14.3063 1088 112.223 351.303 475.505
501 0 80.0818 12.8119 1026 119.075 351.55 474.187
502 0 82.1227 13.906 1142 116.796 351.574 472.931
503 0 85.1138 13.3233 1134 119.138 351.527 471.513
504 0 88.1107 13.5511 1194 121.228 350.381 470.144
505 0 91.0452 14.5642 1326 118.695 349.577 469.446
506 1 47.0769 11.0033 518 126.349 350.048 492.06
507 0 48.1063 12.8258 617 120.929 349.844 489.593
508 0 48.0696 11.8786 571 126.1 349.669 489.525
509 0 50.0464 12.0488 603 116.247 349.609 487.592
510 0 52.0275 11.8976 619 119.759 350.053 487.7
511 0 54.0379 11.899 643 119.782 350.412 489.1
512 0 55.041 12.5906 693 119.613 349.792 487.046
513 0 57.041 12.9731 740 118.357 349.811 487.107
514 0 58.0466 11.7147 680 124.422 349.484 484.971
515 0 60.0517 12.9888 780 120.633 349.763 483.835
516 0 62.0406 13.1043 813 118.898 349.413 483.963
517 0 63.0499 13.0056 820 120.817 349.409 481.446
518 0 63.2079 12.1029 765 124.731 349.426 480.933
519 0 69.0473 13.6718 944 118.446 349.179 480.367
520 0 69.059 12.3807 855 123.678 348.779 479.792
521 0 72.2188 12.1021 874 124.317 349.351 477.661
522 0 74.0639 12.8403 951 122.268 348.998 476.834
523 0 78.0685 13.3216 1040 119.323 348.272 475.79
524 1 42.0285 11.397 479 118.198 348.299 493.572
525 0 44.0728 10.3238 455 120.367 349.031 493.092
526 0 43.0317 10.8292 466 122.723 348.964 491.605
527 0 43.0267 11.6904 503 116.863 348.982 491.165
528 0 44.0355 10.5369 464 116.112 351.159 491.897
529 0 45.0818 10.7139 483 116.48 351.234 492.354
530 0 46.074 10.9823 506 116.374 351.344 490.433
531 0 48.0739 11.2951 543 113.707 350.652 490.764
532 0 49.0601 10.7012 525 117.51 349.985 488.756
533 0 52.0901 11.2881 588 113.253 350.32 488.184
534 0 53.0608 11.3078 600 113.433 350.933 487.863
535 0 54.0598 11.6538 630 112.14 349.679 487.34
536 0 57.0466 12.2531 699 110.333 349.973 486.484
537 0 56.1224 11.564 649 112.909 349.76 483.686
538 0 59.0761 12.1877 720 111.526 350.094 483.438
539 0 60.0722 10.3542 622 115.121 350.297 484.423
540 0 60.1516 10.9889 661 115.141 350.185 482.841
541 0 64.1977 12.2902 789 110.52 350.414 480.297
542 0 67.1347 13.0782 878 108.884 350.525 480.344
543 0 69.045 11.6301 803 110.354 350.658 480.751
544 0 70.0645 12.3886 868 110.349 350.126 476.197
545 0 72.1077 12.3149 888 110.464 350.394 476.181
546 0 76.0538 12.741 969 109.492 350.402 475.602
547 0 77.0662 11.4836 885 112.729 350.451 475.269
548 0 81.2068 12.6837 1030 110.132 350.707 473.563
549 0 84.156 12.3818 1042 110.812 350.098 471.332
550 0 86.1654 11.8841 1024 110.755 350.774 472.223
551 0 90.1532 12.9779 1170 108.615 350.326 469.732
552 0 90.1978 11.4526 1033 112.945 350.875 468.193
553 0 96.2158 13.293 1279 108.441 350.124 467.385
554 0 98.0875 13.7122 1345 114.073 350.83 462.761
555 0 98.0717 11.3896 1117 120.044 350.606 461.868
556 0 103.117 12.0736 1245 119.027 350.485 460.116
557 0 105.113 12.0537 1267 119.448 350.705 458.482
558 0 110.243 12.3092 1357 115.907 349.839 458.937
559 0 115.272 13.2122 1523 110.152 349.788 451.613
560 0 116.299 12.4937 1453 113.082 348.778 451.824
561 1 57.0514 8.3083 474 109.025 349.259 480.542
562 0 60.0951 10.5999 637 106.124 349.848 476.892
563 0 65.1467 10.3305 673 104.53 349.571 474.869
564 0 67.1108 11.5183 773 104.057 350.505 481.845
565 0 69.0696 10.8152 747 105.714 350.754 481.05
566 0 72.2559 10.7673 778 106.312 350.229 476.559
567 0 74.0919 12.7679 946 102.02 349.903 476.013
568 0 78.1328 11.9924 937 103.662 350.239 476.613
569 0 79.08 12.0764 955 104.255 350.326 473.21
570 0 80.1233 11.9316 956 104.705 349.791 473.069
571 0 84.101 12.4493 1047 102.857 350.31 472.112
572 0 87.0928 13.2387 1153 101.497 349.691 468.36
573 0 88.0912 11.9308 1051 105.294 349.461 467.207
574 0 91.0561 11.9157 1085 104.147 348.851 466.059
575 0 94.0477 12.0258 1131 104.653 349.028 465.653
576 0 99.0937 12.6143 1250 102.426 349.546 463.954
577 0 101.219 12.3791 1253 104.394 349.522 463.33
578 0 104.216 13.7119 1429 101.472 349.639 462.46
579 0 108.156 12.4357 1345 107.106 350.117 460.716
580 0 112.16 11.9116 1336 109.957 350.103 458.723
581 0 116.244 12.1555 1413 108.401 350.081 455.686
582 1 60.1263 11.0434 664 103.872 350.242 482.785
583 0 61.2771 11.293 692 107.049 350.516 481.916
584 0 62.0327 11.5262 715 103.803 350.231 482.313
585 0 66.1256 11.5084 761 104.576 350.193 479.205
586 0 68.0909 11.5728 788 104.697 350.264 479.066
587 0 73.1176 12.4183 908 102.643 350.458 478.439
588 0 74.1555 12.9323 959 102.399 350.954 476.257
589 0 74.052 12.4912 925 105.728 350.479 473.084
590 0 76.167 11.5142 877 108.169 350.44 471.327
591 0 79.0708 12.9125 1021 106.829 349.933 474.277
592 0 84.0886 13.1885 1109 111.885 350.904 471.497
593 0 86.0993 13.6238 1173 110.214 350.677 470.826
594 0 89.0566 12.8458 1144 111.356 350.464 471.656
595 0 89.1637 12.6509 1128 110.424 350.239 467.513
596 0 93.1868 13.8002 1286 107.175 350.53 466.296
597 0 95.1566 11.7175 1115 112.752 350.613 464.057
598 0 100.174 13.2769 1330 108.824 349.945 464.329
599 1 52.0165 11.8808 618 105.646 349.94 487.269
600 0 55.0414 12.6814 698 102.89 349.556 486.835
601 0 55.1427 12.7125 701 104.582 348.96 485.937
602 0 56.0563 11.1138 623 107.811 349.518 487.083
603 0 59.1338 12.9368 765 103.929 349.824 486.515
604 0 59.1171 13.0927 774 105.637 350.167 485.058
605 0 60.0543 13.3546 802 105.581 349.979 485.117
606 0 61.1186 11.9604 731 110.554 350.342 483.837
607 0 64.0655 13.8296 886 106.802 350.571 483.019
608 0 66.0925 12.8608 850 111.045 350.733 481.289
609 0 69.0756 14.086 973 108.415 350.8 482.185
610 0 67.1227 12.8571 863 116.264 350.979 478.305
611 0 70.0658 11.7604 824 118.477 349.886 479.405
612 0 73.0884 14.544 1063 112.071 350.352 478.547
613 0 74.105 13.2785 984 117.403 350.171 476.497
614 0 76.1146 13.703 1043 118.535 350.015 475.33
615 0 77.0918 12.9326 997 120.899 349.74 473.819
616 0 80.0915 11.7116 938 124.336 349.719 475.127
617 0 84.0776 14.9743 1259 116.567 349.688 471.463
618 0 85.0795 13.7166 1167 121.918 348.811 471.147
619 0 89.0952 14.9279 1330 118.604 349.059 467.436
620 0 91.0972 12.9532 1180 122.046 350.345 466.604
621 0 92.1134 13.364 1231 121.054 349.956 466.245
622 0 96.0769 13.8951 1335 119.801 349.778 464.268
623 0 95.1533 12.2539 1166 121.603 349.245 460.688
624 0 103.099 13.3173 1373 117.986 349.28 458.119
625 0 105.151 13.0478 1372 119.489 348.817 456.416
626 0 107.166 12.5879 1349 120.658 348.853 451.628
627 1 59.1135 11.4695 678 109.813 349.223 480.678
628 0 64.0695 12.2211 783 107.225 349.805 480.668
629 0 62.1182 10.6088 659 113.736 349.182 478.48
630 0 64.1387 10.0251 643 114.97 349.009 478.286
631 0 68.1344 10.1564 692 114.406 349.1 478.231
632 0 69.0915 11.5354 797 113.838 348.888 475.06
633 0 70.2276 11.2064 787 115.332 349.22 474.499
634 0 71.0746 10.5382 749 118.064 349.007 471.475
635 0 74.119 10.1863 755 120.09 348.983 471.219
636 0 78.1508 11.4266 893 117.764 348.548 471.19
637 0 79.0989 11.3908 901 119.241 349.623 469.585
638 0 83.1175 12.2597 1019 118.814 349.446 466.917
639 0 86.1889 11.5676 997 120.899 348.853 467.677
640 0 89.2002 12.4439 1110 122.304 348.286 463.615
641 0 90.1673 11.5008 1037 126.735 348.845 462.26
642 0 95.1317 12.057 1147 134.185 348.789 467.927
643 1 49.0756 9.84196 483 135.323 348.992 487.145
644 0 52.0985 11.2287 585 132.347 348.597 484.482
645 0 56.078 12.1616 682 122.346 348.537 483.695
646 0 52.075 9.67835 504 118.492 349.395 480.131
647 0 56.0967 11.5871 650 123.735 348.315 485.462
648 0 58.1205 11.5106 669 122.686 348.227 485.439
649 0 61.1202 10.8311 662 125.042 348.325 484.136
650 0 62.107 12.2692 762 120.959 348.005 481.298
651 0 65.0861 11.2005 729 121.318 347.883 481.72
652 0 68.1469 12.0182 819 120.027 347.719 478.15
653 0 70.1474 12.2884 862 119.666 347.314 477.679
654 0 73.1072 11.2301 821 122.086 347.669 476.074
655 0 76.1038 12.0493 917 118.929 348.312 477.117
656 0 77.1122 12.0603 930 119.739 348.617 472.462
657 0 79.0884 10.836 857 122.602 347.772 472.489
658 0 82.1034 11.2054 920 121.75 347.515 470.133
659 0 86.1012 11.1961 964 121.684 347.512 468.472
660 0 90.1377 11.2162 1011 120.559 347.802 467.467
661 0 92.1138 11.8115 1088 119.666 348.171 465.451
662 1 51.1189 10.1724 520 123.092 349.154 486.867
663 0 51.0653 10.5355 538 115.102 349.649 487.197
664 0 53.0649 10.9489 581 115.062 347.995 486.117
665 0 56.0461 11.8831 666 109.521 348.398 486.599
666 0 57.0992 10.8057 617 112.246 347.767 486.373
667 0 58.0838 11.7589 683 110.783 348.097 484.962
668 0 57.0508 10.9026 622 113.35 347.85 483.098
669 0 61.0349 10.6824 652 112.98 349.813 482.98
670 0 65.0698 13.0783 851 105.483 350.015 480.872
671 0 67.0867 12.3571 829 107.914 349.869 480.359
672 0 66.0889 11.772 778 110.613 349.618 478.508
673 0 71.0485 11.4429 813 110.603 349.889 478.359
674 0 72.1208 11.8551 855 110.105 349.595 476.874
675 0 74.1038 12.2126 905 110.292 349.822 476.483
676 0 75.1166 12.5405 942 111.623 350.418 475.188
677 0 79.1159 12.6902 1004 111.286 349.984 472.947
678 0 82.1008 13.386 1099 109.194 349.901 473.449
679 0 83.0764 12.3621 1027 113.227 349.007 471.132
680 0 88.1398 13.0134 1147 111.7 349.326 472.477
681 0 90.207 12.6376 1140 113.409 349.531 470.153
682 0 91.1522 12.2433 1116 115.56 349.316 468.331
683 0 94.0902 12.8175 1206 117.124 348.837 467.923
684 0 98.1021 11.906 1168 119.62 348.532 467.312
685 0 100.143 13.0314 1305 116.569 349.067 467.316
686 1 57.0633 12.4423 710 117.261 349.817 485.32
687 0 57.0209 10.54 601 120.779 349.767 484.977
688 0 60.0526 10.7239 644 117.384 350.475 482.531
689 0 62.0235 12.9145 801 117.025 349.652 484.431
690 0 64.0714 11.4872 736 121.325 349.064 484.382
691 0 67.1251 11.4711 770 121.519 348.886 482.038
692 0 70.1017 13.1523 922 117.111 348.986 478.05
693 0 72.1314 12.8931 930 117.919 348.531 478.914
694 0 73.0985 11.5597 845 121.693 348.333 475.467
695 0 75.1001 10.8921 818 122.789 348.796 473.908
696 0 81.0605 13.0026 1054 117.546 348.557 474.064
697 0 84.1448 13.3223 1121 116.834 348.548 474.88
698 0 87.1737 12.7447 1111 117.113 348.197 471.408
699 0 90.1331 12.6369 1139 117.336 348.27 470.515
700 0 94.2648 13.1863 1243 116.008 348.306 469.791
701 1 49.0613 10.0283 492 117.051 347.209 491.848
702 0 51.2345 12.3159 631 114.098 348.292 488.16
703 0 51.4863 12.1391 625 115.138 348.861 483.157
704 0 53.0347 11.6716 619 115.931 347.352 487.645
705 0 54.0351 11.2334 607 118.301 346.901 485.881
706 0 55.0505 12.1706 670 116.255 348.127 484.518
707 0 57.0451 11.6925 667 117.402 347.796 484.997
708 0 58.0397 12.0952 702 116.999 348.111 481.811
709 0 60.0534 11.1068 667 117.372 347.799 482.652
710 0 62.0758 11.4698 712 117.048 348.088 481.608
711 0 64.0439 12.5227 802 113.888 348.241 479.963
712 0 65.0768 12.9847 845 112.559 348.236 480.903
713 0 67.0755 12.7916 858 114.05 347.809 479.253
714 0 69.1698 12.7512 882 113.584 347.819 478.315
715 0 71.1284 13.3561 950 111.541 347.497 477.508
716 0 72.1264 12.3117 888 115.141 347.503 476.854
717 0 75.1568 12.9596 974 112.994 347.901 475.721
718 0 78.1568 12.6029 985 114.086 348.086 474.921
719 0 81.1444 12.9153 1048 112.769 348.467 472.871
720 0 83.1919 13.571 1129 112.446 348.81 471.241
721 0 85.1067 12.6077 1073 115.229 348.485 470.863
722 0 91.1207 13.1145 1195 112.196 348.413 470.585
723 1 49.1408 9.76785 480 111.583 347.994 492.458
724 0 50.0806 11.801 591 109.024 347.721 489.137
725 0 52.1462 12.6759 661 108.43 348.293 488.617
726 0 52.0542 11.4304 595 113.872 347.975 487.072
727 0 54.0951 11.7386 635 113.175 348.093 487.006
728 0 53.1514 11.138 592 115.892 347.943 485.267
729 0 56.0895 12.0343 675 113.683 348 486.584
730 0 60.1603 12.7991 770 111.13 348.851 484.818
731 0 60.1342 13.1373 790 110.748 348.075 485.063
732 0 63.1212 13.1493 830 110.546 348.295 483.724
733 0 64.1378 13.3774 858 110.606 347.969 483.057
734 0 67.1016 13.9341 935 109.219 348.52 481.618
735 0 67.171 13.3689 898 111.471 347.958 481.281
736 0 70.1055 11.5683 811 110.418 348.464 481.793
737 0 71.1096 12.094 860 108.414 347.579 481.808
738 0 74.1233 11.7642 872 106.802 347.813 480.247
739 0 77.1722 12.1028 934 106.049 347.903 478.431
740 0 80.0924 12.0486 965 107.094 348.489 475.875
741 0 83.0775 11.3388 942 108.636 348.577 475.124
742 0 87.1159 12.0185 1047 103.709 348.313 470.997
743 1 46.0361 10.9045 502 105.849 347.488 493.04
744 0 48.1188 12.5523 604 102.305 347.664 491.848
745 0 49.0768 12.1239 595 104.382 347.834 491.318
746 0 50.0733 12.1422 608 102.359 348.298 491.803
747 0 51.1424 12.475 638 102.862 349.652 491.509
748 0 53.1256 12.7622 678 102.565 349.434 490.204
749 0 55.0621 12.6948 699 102.425 349.69 488.386
750 0 55.108 11.7406 647 106.187 349.527 488.114
751 0 56.0523 10.7043 600 108.78 349.99 489.932
752 0 58.0911 12.1878 708 107.857 349.362 487.53
753 0 61.1516 11.3652 695 109.04 349.148 488.03
754 0 62.0489 12.2162 758 109.09 349.04 487.579
755 0 65.0913 12.7667 831 107.833 349.167 485.499
756 0 66.1525 12.9096 854 109.364 348.902 484.766
757 0 68.1076 12.3921 844 111.505 348.896 483.544
758 0 71.1464 12.7905 910 110.415 348.924 481.877
759 0 73.1366 12.7433 932 109.159 349.016 480.471
760 0 76.2593 13.5197 1031 108.366 348.622 477.753
761 0 78.1157 12.8015 1000 109.232 348.743 479.729
762 0 79.0851 12.6573 1001 112.015 348.498 477.604
763 0 85.0627 11.5092 979 112.019 349.013 475.619
764 0 87.0728 12.8283 1117 111.085 348.778 471.671
765 0 89.1079 12.6139 1124 111.226 349.617 471.786
766 0 92.1257 12.2224 1126 113.063 349.274 468.426
767 0 95.0925 11.9463 1136 114.57 349.135 468.163
768 1 51.0411 10.9716 560 112.316 350.314 492.052
769 0 52.1534 12.1181 632 112.348 350.182 487.071
770 0 54.1024 13.4005 725 108.166 350.197 487.058
771 0 56.0251 13.4404 753 109.238 349.42 488.262
772 0 56.0648 12.4142 696 113.734 347.664 485.211
773 0 58.1152 12.957 753 112.377 347.926 484.919
774 0 60.0888 12.5647 755 113.868 348.062 484.428
775 0 63.1507 13.159 831 111.878 348.374 484.437
776 0 64.0836 11.7971 756 114.148 347.534 482.521
777 0 66.1701 11.8029 781 114.994 348.009 480.663
778 0 66.0751 10.9118 721 118.401 348.284 479.56
779 0 70.0824 12.1857 854 116.201 348.838 479.629
780 0 72.1639 12.43 897 115.923 349.336 479.154
781 0 75.1009 13.5418 1017 114.038 349.198 477.893
782 0 78.0468 14.0044 1093 112.147 349.397 476.631
783 0 81.1706 12.8248 1041 114.5 348.845 473.727
784 0 83.1422 12.9657 1078 114.996 348.822 472.969
785 0 84.119 12.2208 1028 118.656 348.198 471.437
786 0 88.1389 12.5824 1109 117.294 348.638 470.425
787 0 89.173 10.945 976 122.674 348.844 469.605
788 0 94.0951 11.0208 1037 119.739 348.623 465.753
789 0 97.0918 11.4943 1116 119.633 348.645 465.773
790 0 99.1318 11.5099 1141 119.408 349.223 463.122
791 1 51.017 10.6043 541 117.534 350.636 490.264
792 0 53.0549 12.9488 687 111.303 350.854 487.795
793 0 54.0852 11.4634 620 114.403 350.152 487.127
794 0 56.0449 12.4186 696 108.884 348.803 485.803
795 0 56.0824 10.8412 608 112.462 348.86 487.005
796 0 58.0682 11.5209 669 110.283 349.181 485.175
797 0 62.0843 13.2562 823 104.504 348.516 483.878
798 0 63.0294 11.2646 710 109.348 348.192 483.158
799 0 67.1325 13.1829 885 104.533 348.605 480.766
800 0 68.1474 12.2235 833 106.336 348.125 480.884
801 0 70.092 12.2981 862 106.439 348.034 478.452
802 0 72.0769 12.1398 875 107.12 348.666 478.383
803 0 74.23 12.7576 947 107.623 348.853 479.064
804 0 76.0621 12.0691 918 109.375 348.394 475.606
805 0 81.198 13.2023 1072 105.509 348.826 477.251
806 0 83.1377 12.8341 1067 107.633 348.971 474.786
807 0 84.1983 12.0192 1012 109.939 348.649 475.302
808 0 86.2207 11.4358 986 112.428 348.999 472.505
809 0 90.1181 12.2062 1100 111.391 348.933 470.548
810 1 51.0224 10.9952 561 113.052 349.029 490.237
811 0 51.032 12.6195 644 109.818 348.317 489.374
812 0 49.133 10.1968 501 114.563 348.703 489.471
813 0 51.0311 11.4832 586 113.113 349.526 488.99
814 0 55.101 12.9399 713 111.396 348.223 486.006
815 0 56.0224 12.6021 706 113.061 350.092 485.742
816 0 60.1401 14.0505 845 108.708 349.415 486.589
817 0 60.0622 13.4361 807 111.219 349.597 486.781
818 0 62.0721 12.8399 797 114.39 349.586 484.157
819 0 63.0643 11.8451 747 116.586 349.495 483.292
820 0 66.0815 12.6662 837 114.699 349.971 482.134
821 0 70.0797 13.556 950 111.08 349.952 479.822
822 0 70.1154 12.8788 903 114.949 350.084 480.54
823 0 73.0835 12.4789 912 114.844 349.901 480.361
824 0 75.1043 13.0885 983 113.808 349.999 479.708
825 0 78.0863 12.6911 991 115.439 349.006 476.379
826 0 81.0837 13.1469 1066 114.344 349.259 474.992
827 0 84.1104 13.9341 1172 111.887 349.416 474.448
828 0 85.1029 12.3615 1052 116.152 349.277 474.147
829 0 88.038 13.0285 1147 115.056 349.165 471.5
830 1 48.156 12.6879 611 118.396 350.083 490.766
831 0 51.0203 11.7404 599 119.09 350.524 489.295
832 0 50.062 11.7255 587 121.242 350.525 487.087
833 0 54.057 13.1713 712 113.374 349.756 488.81
834 0 56.1512 12.1636 683 114.688 349.748 487.536
835 0 58.1736 12.3424 718 109.943 349.081 487.755
836 0 57.0953 11.1918 639 111.365 349.083 487.767
837 0 60.0982 11.8473 712 109.843 349.014 485.131
838 0 62.1461 11.5695 719 109.847 348.395 485.481
839 0 66.1501 11.3681 752 110.455 348.298 482.859
840 0 67.1088 11.2504 755 110.491 348.902 482.746
841 0 69.0645 12.51 864 108.736 348.661 482.02
842 0 72.1054 12.4124 895 109.197 348.8 478.701
843 0 75.0928 12.3181 925 108.904 348.21 480.858
844 0 79.0345 13.3359 1054 105.238 347.294 477.918
845 0 81.0839 11.7903 956 108.365 348.106 474.697
846 0 83.1459 11.6783 971 109.967 348.496 473.696
847 0 87.065 12.3586 1076 108.284 348.144 471.078
848 0 91.0792 12.0884 1101 109.923 347.93 471.086
849 1 46.0378 10.7955 497 106.875 347.775 494.6
850 0 47.0316 12.0132 565 106.966 346.481 491.581
851 0 49.0287 11.1771 548 105.13 347.828 491.358
852 0 52.0326 11.4159 594 106.126 348.828 490.923
853 0 53.0138 12.4307 659 107.437 347.316 489.303
854 0 52.0419 11.4139 594 110.961 347.352 488.832
855 0 55.0818 12.4179 684 107.026 346.655 489.506
856 0 58.0777 13.5164 785 105.296 347.096 488.089
857 0 61.1002 12.9132 789 106.281 346.986 487.651
858 0 60.0695 12.2525 736 109.065 347.053 485.895
859 0 61.0579 12.742 778 109.251 347.302 484.071
860 0 64.1258 12.4287 797 109.343 347.172 483.9
861 0 66.0259 12.9646 856 108.508 346.741 482.843
862 0 68.1422 12.3272 840 109.298 347.505 483.042
863 0 69.068 13.0162 899 108.796 347.571 480.386
864 0 73.091 13.9142 1017 105.184 346.993 482.7
865 0 75.0886 13.9835 1050 105.56 347.455 480.095
866 0 77.1101 13.4224 1035 107.971 347.732 478.243
867 0 79.0658 12.8374 1015 109.533 347.664 477.062
868 0 83.2758 13.029 1085 109.041 348.192 476.368
869 0 87.1917 13.1779 1149 108.861 347.391 474.617
870 0 88.0788 13.3063 1172 109.536 347.761 473.457
871 0 91.0571 13.0577 1189 110.055 347.717 472.597
872 0 95.2616 14.2345 1356 107.851 347.499 470.303
873 1 49.0663 11.0667 543 109.786 347.858 493.007
874 0 51.0255 12.288 627 110.545 347.558 490.861
875 0 52.053 10.7967 562 116.899 346.986 490.162
876 0 52.117 12.3376 643 113.207 348.039 489.243
877 0 57.0913 12.6464 722 108.683 348.143 488.555
878 0 58.0462 12.6451 734 109.069 347.275 488.635
879 0 58.0383 12.7502 740 109.676 347.093 487.743
880 0 61.112 14.2198 869 106.052 347.267 484.591
881 0 63.1057 14.2776 901 105.806 347.269 485.244
882 0 64.0451 12.0852 774 107.331 348.417 483.716
883 0 65.0355 12.6239 821 106.113 347.84 483.006
884 0 66.1192 11.4036 754 109.857 348.142 480.385
885 0 70.0881 12.1704 853 107.856 348.401 480.43
886 0 72.0822 13.5262 975 105.204 348.804 477.917
887 0 74.103 13.2383 981 106.67 348.955 477.522
888 0 76.0946 12.5107 952 108.224 348.371 477.445
889 0 81.213 13.4954 1096 106.087 348.176 473.748
890 0 84.1158 13.9807 1176 107.844 348.031 473.324
891 0 84.2035 12.4342 1047 113.703 347.502 471.599
892 0 89.105 10.8187 964 115.869 348.239 471.796
893 0 90.3445 11.8989 1075 114.473 347.957 468.229
894 1 46.2908 11.1469 516 111.395 348.653 490.576
895 0 50.2652 12.6529 636 109.569 348.681 488.108
896 0 52.2451 13.2261 691 107.181 348.994 487.342
897 0 53.0544 12.9113 685 109.352 348.288 487.603
898 0 53.0587 12.7029 674 111.119 347.656 487.221
899 0 56.1327 12.2389 687 112.475 347.934 486.039
900 0 57.1026 13.6071 777 109.731 347.771 485.472
901 0 59.1221 11.8061 698 113.5 347.691 485.375
902 0 61.2215 13.1 802 112.214 347.46 482.718
903 0 65.0912 13.6424 888 110.204 347.53 482.814
904 0 65.1551 12.0789 787 115.834 348.037 482.023
905 0 67.1372 12.8841 865 114.776 347.274 480.925
906 0 69.0832 14.649 1012 111.435 347.693 479.064
907 0 73.1066 13.6513 998 113.508 347.862 479.418
908 0 74.1446 14.3369 1063 114.786 348.037 477.556
909 0 77.257 14.2382 1100 114.165 348.693 476.667
910 0 81.1314 14.3348 1163 112.881 348.819 478.264
911 0 82.1886 13.9679 1148 116.043 348.564 473.302
912 0 86.1231 14.398 1240 115.544 348.23 473.704
913 0 88.1214 14.968 1319 114.682 348.179 472.113
914 0 91.1547 14.2834 1302 115.635 347.849 470.482
915 0 93.1598 13.4607 1254 117.643 347.844 471.162
916 0 96.2083 13.9593 1343 117.427 347.563 467.262
917 0 98.1486 12.9498 1271 120.784 347.574 465.006
918 1 56.0286 13.6537 765 114.277 347.593 485.579
919 0 59.1667 13.4028 793 112.29 347.657 487.878
920 0 60.1046 13.6762 822 113.696 347.802 485.436
921 0 63.0636 13.0027 820 112.088 348.404 485.523
922 0 64.1043 12.5889 807 112.672 348.652 481.586
923 0 67.086 13.6243 914 110.632 348.852 481.768
924 0 68.0375 13.2721 903 112.004 348.537 480.838
925 0 71.0649 13.4103 953 112.046 348.551 479.506
926 0 72.0713 12.5709 906 114.894 348.642 478.417
927 0 76.1664 13.9825 1065 111.354 347.887 477.794
928 0 77.2257 12.8714 994 114.928 348.304 476.847
929 0 80.0571 13.965 1118 114.495 347.962 476.085
930 0 83.0845 12.9747 1078 115.529 348.322 473.669
931 0 86.1374 13.2927 1145 115.282 348.26 470.442
932 0 89.1451 13.966 1245 113.794 348.076 469.48
933 0 93.1124 13.5213 1259 114.341 347.99 468.658
934 0 95.2095 13.0134 1239 115.703 348.121 466.269
935 0 97.1805 12.8112 1245 117.041 347.677 465.074
936 0 103.26 13.345 1378 114.978 347.882 463.775
937 0 102.37 12.7381 1304 117.188 347.833 460.184
938 0 106.298 11.6747 1241 119.007 348.349 461.349
939 0 113.361 13.9378 1580 113.644 347.992 456.722
940 0 114.308 12.7813 1461 117.146 347.99 455.003
941 0 118.453 12.8237 1519 117.616 348.097 453.457
942 0 123.248 13.3471 1645 115.968 348.079 452.664
943 0 127.225 14.1481 1800 114.666 348.012 448.828
944 0 132.361 13.9996 1853 115.386 348.121 445.733
945 0 136.25 13.8055 1881 117.842 348.717 443.242
946 0 137.22 12.6804 1740 121.534 348.14 439.422
947 0 145.299 14.1639 2058 116.759 347.978 439.532
948 0 150.226 14.6114 2195 116.845 348.567 437.512
949 0 154.195 12.7825 1971 121.446 349.172 434.868
950 0 161.327 14.7588 2381 116.871 348.578 432.979
951 0 164.265 14.0991 2316 120.951 348.67 426.413
952 0 169.352 13.9886 2369 121.108 348.414 424.05
953 0 176.39 13.85 2443 121.273 348.408 421.924
954 0 182.238 13.7787 2511 123.215 348.402 416.683
955 0 186.322 13.6323 2540 124.002 348.11 415.837
956 0 191.372 13.8422 2649 125.217 348.018 409.541
957 0 202.448 14.4284 2921 123.649 347.877 407.909
958 0 207.236 14.5245 3010 124.049 347.844 405.25
959 0 215.396 14.9446 3219 123.387 348.316 399.484
960 1 167.202 13.4807 2254 123.546 348.227 430.549
961 0 173.268 14.0649 2437 123.321 347.665 425.092
962 0 182.305 14.5251 2648 121.923 347.758 420.713
963 0 188.258 14.7404 2775 122.012 347.935 413.686
964 0 197.281 14.5174 2864 120.532 347.769 414.499
965 0 204.265 15.2302 3111 119.691 347.66 407.841
966 1 214.288 14.6719 3144 122.349 347.973 402.049
967 0 222.355 14.288 3177 122.32 347.444 400.825
968 0 230.269 15.4992 3569 120.54 347.74 395.857
969 0 238.262 14.6561 3492 122.414 348.1 390.909
970 0 249.281 14.4496 3602 123.457 348.288 385.218
971 0 258.484 14.2175 3675 125.142 347.914 377.947
972 0 268.741 15.2675 4103 123.286 347.267 376.506
973 1 63.2499 11.7471 743 105.929 347.824 476.166
974 0 66.2411 12.062 799 113.421 347.743 476.452
975 0 70.2206 13.9418 979 109.171 348.487 477.613
976 0 70.1714 12.5835 883 113.29 348.411 476.074
977 0 72.1331 13.1701 950 112.275 348.865 476.166
978 0 73.1534 12.8907 943 114.99 348.345 474.961
979 0 76.1371 13.1211 999 113.888 348.27 471.897
980 0 79.1594 12.8349 1016 113.691 348.481 472.198
981 0 81.3575 11.7875 959 115.607 347.741 470.559
982 0 86.3552 13.6877 1182 111.166 348.071 468.13
983 0 90.3921 13.7844 1246 111.269 347.797 465.124
984 0 94.4766 12.8709 1216 112.108 348.016 463.641
985 1 50.0698 11.0246 552 104.08 349.181 487.453
986 0 49.1715 11.0837 545 104.739 349.602 485.338
987 0 51.1156 10.1143 517 107.828 349.418 486.694
988 0 54.0616 11.4869 621 104.71 349.301 486.066
989 0 57.1317 13.0225 744 102.46 347.73 484.168
990 0 59.0977 12.1155 716 105.489 347.528 483.635
991 0 62.0778 11.7272 728 112.49 349.147 480.971
992 0 67.1542 13.1489 883 106.796 349.967 481.345
993 0 66.2083 13.0497 864 107.844 350.226 481.527
994 0 71.0972 13.3198 947 106.603 350.232 479.273
995 0 71.1712 12.1257 863 109.36 350.001 479.54
996 0 74.1522 12.3934 919 109.388 349.329 476.948
997 0 75.164 12.5858 946 111.02 349.401 474.033
998 0 76.1638 12.4206 946 112.202 349.057 473.23
999 0 80.3816 12.5153 1006 111.275 348.42 472.034
1000 0 83.4381 12.5243 1045 111.304 348.709 471.615
1001 0 88.3206 12.6471 1117 110.378 348.357 470.031
1002 0 89.4123 12.6828 1134 110.618 347.951 467.608
1003 0 93.4043 12.8795 1203 110.395 347.848 463.828
1004 0 94.3986 11.8858 1122 111.618 347.638 464.162
1005 1 54.1134 11.0878 600 108.52 348.87 482.88
1006 0 54.1183 11.1423 603 108.234 349.1 481.03
1007 0 56.0392 12.2236 685 104.799 349.22 477.936
1008 0 57.0231 12.0477 687 107.894 349.271 482.818
1009 0 60.0679 12.1529 730 106.897 349.121 482.04
1010 0 62.0472 11.8458 735 107.856 349.51 481.004
1011 0 62.0455 12.2491 760 109.054 349.725 480.379
1012 0 67.0782 13.2681 890 105.449 349.344 479.062
1013 0 68.0809 12.5145 852 108.031 349.201 477.399
1014 0 70.1745 13.8369 971 104.533 348.759 477.279
1015 0 71.0808 12.0989 860 110.257 348.953 476.003
1016 0 72.1646 14.3283 1034 105.705 348.868 475.317
1017 0 75.0803 11.8806 892 111.632 348.368 473.713
1018 0 76.1655 10.8579 827 113.283 349.094 472.134
1019 0 79.1295 11.399 902 111.146 348.875 470.361
1020 0 81.177 12.0354 977 110.941 348.59 468.992
1021 0 85.0535 12.8507 1093 108.246 348.5 466.248
1022 0 87.1337 11.3274 987 109.214 348.033 462.845
1023 0 88.1429 12.3776 1091 109.462 348.118 459.154
1024 0 95.2656 12.103 1153 108.702 348.384 459.504
1025 1 52.0304 9.8404 512 105.377 348.992 478.588
1026 0 55.0653 9.66126 532 106.445 348.925 477.051
1027 0 55.0368 10.7019 589 106.363 349.309 477.343
1028 0 57.0568 12.1283 692 104.311 349.488 475.721
1029 0 59.0689 11.7998 697 108.397 349.813 479.122
1030 0 61.0966 11.6046 709 106.231 349.244 481.252
1031 0 63.1756 12.4573 787 104.916 349.116 480.483
1032 0 65.2015 11.2267 732 108.148 349.126 481.09
1033 0 65.1918 11.5505 753 108.093 349.036 477.351
1034 0 70.2053 13.603 955 102.012 348.829 479.172
1035 0 71.2818 12.163 867 107.144 348.551 476.805
1036 0 72.3375 12.9255 935 106.487 348.046 474.537
1037 0 74.3575 12.6282 939 107.523 348.353 474.289
1038 0 77.2276 12.2236 944 107 347.944 476.676
1039 0 79.2389 13.2637 1051 106.687 348.54 472.365
1040 0 80.1639 11.5264 924 109.976 347.886 473.087
1041 0 83.3025 12.9048 1075 108.395 347.643 469.116
1042 0 86.2264 13.5689 1170 106.644 347.97 468.101
1043 0 88.1745 12.8609 1134 107.754 348.813 465.929
1044 0 89.1438 11.8685 1058 109.534 348.941 467.163
1045 0 94.1264 12.4407 1171 108.194 348.053 465.762
1046 0 98.227 13.4993 1326 105.714 349.324 460.678
1047 1 55.1167 11.9383 658 104.029 349.062 485.836
1048 0 55.2844 10.0028 553 98.5678 348.465 485.174
1049 0 58.164 11.7599 684 99.0044 347.232 484.02
1050 0 59.071 11.4946 679 99.2946 347 484.89
1051 0 58.1262 11.6987 680 100.235 347.212 484.104
1052 0 61.1119 11.5362 705 100.776 347.296 481.816
1053 0 63.0437 12.8482 810 98.4 347.605 481.315
1054 0 65.0426 12.1305 789 99.9024 347.819 479.459
1055 0 69.0951 12.794 884 98.1595 347.729 477.844
1056 0 70.0662 12.1885 854 99.5468 347.632 477.956
1057 0 70.1221 10.7669 755 103.061 347.604 477.921
1058 0 75.1326 11.859 891 100.893 347.336 476.163
1059 0 78.0905 13.113 1024 99.1777 347.205 474.836
1060 0 79.1329 11.4744 908 103.871 347.221 471.892
1061 0 83.1058 13.188 1096 100.525 347.046 471.714
1062 0 85.0541 11.5103 979 105.243 347.197 470.429
1063 0 86.0719 11.99 1032 105.874 346.975 466.441
1064 0 91.1121 12.4352 1133 104.728 347.524 466.641
1065 0 95.1238 12.6992 1208 105.207 347.015 466.179
1066 0 97.06 12.8992 1252 105.171 347.034 464.437
1067 0 101.18 13.2635 1342 105.089 347.709 462.632
1068 1 52.0235 10.9566 570 108.233 347.13 485.904
1069 0 55.0889 11.1819 616 108.463 347.679 486.813
1070 0 57.0596 12.2679 700 103.957 346.939 484.466
1071 0 59.0417 12.5674 742 104.371 346.597 484.17
1072 0 61.0606 13.2819 811 103.041 346.803 483.824
1073 0 63.042 12.5789 793 105.237 347.473 482.488
1074 0 66.068 13.0018 859 104.561 347.738 482.547
1075 0 66.0643 11.8975 786 108.627 347.772 481.034
1076 0 67.0811 13.6104 913 105.629 347.666 479.035
1077 0 70.2296 12.9433 909 107.587 348.359 479.007
1078 0 73.0936 12.0257 879 109.073 348.197 479.367
1079 0 73.0658 10.8259 791 113.798 348.221 477.434
1080 0 77.0801 13.0384 1005 111.661 348.17 475.313
1081 0 81.1302 13.805 1120 106.629 347.893 474.861
1082 0 82.0707 12.9644 1064 110.358 349.055 473.645
1083 0 85.1822 12.8313 1093 111.374 349.146 472.405
1084 0 88.0701 12.5468 1105 112.276 349.195 471.388
1085 0 89.1396 12.7328 1135 114.078 348.307 469.412
1086 0 91.2301 12.5726 1147 116.001 348.213 467.738
1087 0 97.125 13.9305 1353 112.343 348.089 467.128
1088 0 100.147 13.0608 1308 114.92 348.25 465.264
1089 0 104.304 12.5403 1308 118.843 348.271 462.886
1090 1 57.1928 10.9454 626 116.019 347.366 487.77
1091 0 58.1435 11.8328 688 113.552 347.609 484.007
1092 0 61.0974 12.3246 753 113.363 348.332 483.548
1093 0 63.1395 12.3219 778 115.761 348.518 480.856
1094 0 67.2744 11.9511 804 116.045 348.1 479.878
1095 0 68.236 12.7645 871 114.631 347.489 477.513
1096 0 71.2279 12.5934 897 114.858 347.202 478.062
1097 0 69.2009 12.3698 856 117.527 348.165 476.089
1098 0 75.1914 13.2861 999 114.445 347.781 476.037
1099 0 75.1546 12.8402 965 117.683 347.547 475.016
1100 0 77.3246 11.872 918 114.313 347.716 475.4
1101 0 80.1841 11.8602 951 114.991 348.505 473.305
1102 0 83.3275 12.9369 1078 113.19 348.578 471.765
1103 0 87.2224 13.2076 1152 116.159 349.116 470.943
1104 0 92.0756 12.9024 1188 116.763 348.516 468.503
1105 0 94.4064 13.0076 1228 116.783 348.446 466.733
1106 1 51.2255 12.0643 618 112.314 348.427 486.694
1107 0 51.2458 11.3375 581 114.831 348.417 486.508
1108 0 53.0757 11.3234 601 115.925 348.777 485.687
1109 0 57.2004 13.3915 766 109.974 349.051 484.615
1110 0 58.2178 12.2643 714 114.041 348.609 486.179
1111 0 61.1762 12.5212 766 113.272 348.954 483.625
1112 0 61.2353 12.2478 750 115.881 348.733 483.272
1113 0 63.1657 12.7126 803 115.202 348.528 481.366
1114 0 66.2048 12.9749 859 114.279 349.561 481.377
1115 0 67.2065 12.1268 815 115.925 349.164 479.196
1116 0 71.2828 12.4294 886 114.5 348.941 478.719
1117 0 75.3641 12.4993 942 113.768 348.569 477.092
1118 0 75.2 11.8484 891 115.941 348.813 477.122
1119 0 77.2164 12.7175 982 115.464 348.758 474.663
1120 0 82.3607 13.4409 1107 112.617 348.811 474.48
1121 0 81.1096 12.1934 989 116.076 348.529 473.778
1122 0 85.2406 12.6818 1081 116.022 348.17 471.14
1123 0 86.2148 12.7936 1103 116.262 348.748 468.76
1124 1 44.1541 10.8031 477 114.495 349.101 491.161
1125 0 45.0607 11.7175 528 112.532 348.826 490.64
1126 0 47.1208 10.9081 514 112.549 348.874 491.327
1127 0 49.1224 10.1379 498 115.948 349.129 489.655
1128 0 50.1063 11.1962 561 114.642 348.67 487.688
1129 0 51.0365 11.2664 575 118.278 348.903 486.031
1130 0 53.0456 11.7258 622 111.035 347.715 479.955
1131 0 55.091 12.2888 677 108.684 348.9 487.604
1132 0 57.0621 12.5828 718 109.446 348.591 485.276
1133 0 58.0479 12.5069 726 109.266 348.665 484.781
1134 0 61.1437 13.411 820 107.472 348.333 483.36
1135 0 63.0423 13.2134 833 108.504 348.495 483.078
1136 0 65.0406 12.7613 830 109.227 348.74 481.981
1137 0 66.0439 12.6128 833 111.848 348.466 480.038
1138 0 68.0714 13.0745 890 111.372 348.531 479.062
1139 0 71.3419 12.6013 899 114.368 348.434 477.743
1140 0 75.2408 14.4735 1089 112.287 348.465 476.399
1141 0 77.1892 14.3414 1107 116.636 348.309 476.613
1142 0 80.1783 14.4428 1158 117.009 348.629 474.444
1143 0 82.1088 14.5904 1198 117.77 348.763 471.32
1144 0 85.2758 14.4238 1230 118.926 348.325 471.684
1145 0 87.3552 14.1949 1240 120.313 347.986 469.515
1146 0 89.2853 13.5633 1211 123.343 348.088 468.283
1147 0 93.262 15.0329 1402 119.69 347.295 465.878
1148 0 94.3003 13.6161 1284 123.837 347.491 465.165
1149 0 98.2584 14.3499 1410 122.475 346.796 462.009
1150 0 102.257 14.3266 1465 122.553 346.675 462.34
1151 0 105.226 13.8274 1455 124.178 346.414 460.12
1152 0 106.194 14.304 1519 122.486 346.893 460.396
1153 1 60.1823 11.3655 684 115.693 347.591 481
1154 0 60.0476 10.0587 604 117.28 346.916 476.97
1155 0 63.1399 12.3535 780 108.644 347.169 474.345
1156 0 66.0528 11.733 775 112.815 346.725 475.817
1157 0 67.1122 10.9667 736 114.897 346.541 473.02
1158 0 73.1462 13.3295 975 106.934 347.972 478.393
1159 0 71.2055 10.6874 761 115.116 347.887 475.304
1160 0 71.196 10.5624 752 145.1 346.884 475.29
1161 0 80.2003 11.9202 956 115.294 347.391 474.247
1162 0 84.1834 11.76 990 116.61 347.152 471.972
1163 0 83.1442 10.6682 887 120.132 347.46 469.25
1164 0 86.1048 12.2061 1051 118.163 347.552 466.408
1165 0 90.1275 11.7611 1060 117.512 347.58 469.081
1166 0 94.204 11.4432 1078 118.974 347.722 466.099
1167 0 97.1144 12.2124 1186 117.406 347.548 463.527
1168 0 100.242 11.6119 1164 120.429 347.796 460.46
1169 0 104.151 11.7041 1219 123.464 347.707 458.728
1170 0 109.127 13.049 1424 116.452 347.794 459.842
1171 1 61.1584 9.95774 609 118.46 346.589 481.847
1172 0 63.191 11.1092 702 112.323 346.674 482.265
1173 0 66.1143 12.4179 821 107.934 346.548 479.236
1174 0 67.0309 11.9348 800 110.09 346.926 479.278
1175 0 71.0592 11.5678 822 109.352 346.674 479.167
1176 0 71.0696 11.2706 801 111.944 348.159 475.757
1177 0 74.1673 11.3932 845 112.282 348.026 472.295
1178 0 76.0441 12.1903 927 110.218 348.581 473.238
1179 0 80.0564 11.8916 952 110.113 347.873 474.977
1180 0 79.1458 11.4851 909 113.207 347.585 471.444
1181 0 84.0887 12.463 1048 110.666 347.84 469.556
1182 0 87.2312 11.6587 1017 112.072 347.947 470.288
1183 0 88.1094 11.4176 1006 114.48 347.909 467.889
1184 0 94.1924 12.8673 1212 109.691 347.903 468.144
1185 0 96.1236 12.5984 1211 113.012 347.542 465.009
1186 1 53.0817 11.4164 606 114.884 349.013 484.007
1187 0 56.0247 11.1201 623 114.307 349.091 482.831
1188 0 56.0782 11.6266 652 113.787 348.959 483.854
1189 0 60.0878 12.4817 750 117.055 348.724 482.46
1190 0 61.1359 11.7607 719 119.334 349.392 481.576
1191 0 63.0512 12.7198 802 116.247 349.293 480.589
1192 0 64.0412 13.1634 843 115.996 349.059 478.198
1193 0 64.1133 12.8834 826 116.764 349.138 479.156
1194 0 67.0556 12.6313 847 117.028 348.384 478.396
1195 0 67.1338 11.6037 779 120.077 348.978 477.592
1196 0 70.0723 12.9723 909 115.512 348.867 478.475
1197 0 73.2394 12.07 884 118.305 347.578 475.758
1198 0 74.1335 12.2886 911 116.864 347.64 475.339
1199 0 76.0933 12.9709 987 114.515 348.507 474.206
1200 0 78.0691 12.3865 967 116.971 348.411 471.554
1201 0 80.1773 11.961 959 116.86 348.273 472.371
1202 0 84.1485 12.1571 1023 116.189 348.374 470.184
1203 0 85.1764 11.3647 968 119.048 347.822 468.8
1204 0 89.1039 12.3451 1100 115.469 347.184 467.226
1205 0 89.2708 10.2721 917 123.545 346.389 463.71
1206 0 94.3042 12.4385 1173 118.142 346.921 464.927
1207 0 95.266 11.4207 1088 122.267 346.608 463.364
1208 0 98.2345 12.9893 1276 120.508 346.657 458.728
1209 0 102.278 11.7718 1204 123.836 346.988 458.404
1210 0 104.211 11.2273 1170 121.858 346.84 459.409
1211 0 108.224 12.4095 1343 122.106 347.131 454.838
1212 0 110.243 12.1277 1337 122.701 346.565 454.242
1213 0 114.18 12.3139 1406 122.434 346.636 454.337
1214 0 119.173 12.4441 1483 121.603 347.001 450.104
1215 1 64.076 10.7841 691 116.959 347.534 479.887
1216 0 66.1487 10.809 715 106.164 347.6 473.052
1217 0 69.0845 11.6379 804 115.826 348.929 475.203
1218 0 70.2225 11.2642 791 120.521 348.508 475.145
1219 0 74.176 11.2705 836 119.041 348.413 475.14
1220 0 77.1338 12.407 957 117.078 347.934 474.392
1221 0 79.1544 12.2672 971 118.255 348.009 472.404
1222 0 78.2357 11.8105 924 121.258 346.952 469.952
1223 0 84.1785 11.7132 986 121.169 347.182 470.475
1224 0 85.2271 12.9771 1106 118.32 347.203 469.12
1225 0 88.2029 13.1515 1160 119.598 347.348 467.219
1226 0 93.1712 13.9743 1302 116.455 347.329 467.463
1227 0 94.2382 13.4234 1265 119.675 347.796 464.406
1228 0 98.1562 13.2748 1303 120.361 347.795 463.533
1229 0 100.373 14.8944 1495 117.532 347.599 461.659
1230 0 104.242 13.459 1403 121.299 348.139 460.953
1231 0 105.215 13.1255 1381 122.293 347.946 459.542
1232 0 110.314 14.4497 1594 118.574 347.38 458.393
1233 0 113.243 13.8817 1572 121.825 347.457 455.537
1234 0 117.254 13.2532 1554 123.564 347.214 455.353
1235 1 64.2481 10.9575 704 123.403 347.432 480.646
1236 0 65.1538 11.327 738 124.458 348.004 479.443
1237 0 70.1957 13.8043 969 115.254 348.128 477.759
1238 0 70.125 12.7487 894 117.292 348.206 476.602
1239 0 73.1364 13.55 991 115.985 348.442 477.476
1240 0 76.2289 13.9317 1062 113.377 348.009 477.13
1241 0 78.2984 13.6912 1072 114.249 347.78 475.264
1242 0 79.2889 12.8643 1020 118.81 347.727 473.378
1243 0 82.2827 14.0734 1158 116.168 347.75 471.432
1244 0 85.2102 13.719 1169 117.168 347.779 469.401
1245 0 88.3591 13.547 1197 117.18 346.824 470.047
1246 0 92.3987 14.2426 1316 114.563 347.104 463.942
1247 0 93.1339 12.3371 1149 120.111 347.534 464.96
1248 0 95.1662 13.4607 1281 118.467 347.4 459.707
1249 0 96.1378 12.7421 1225 121.774 347.451 458.347
1250 0 101.247 12.4942 1265 121.485 347.412 457.794
1251 0 103.207 11.8693 1225 122.211 347.126 455.772
1252 1 54.215 10.2186 554 119.576 347.217 477.69
1253 0 58.127 11.4233 664 116.541 347.601 477.968
1254 0 59.0268 12.3164 727 119.849 347.686 479.618
1255 0 61.1064 12.0446 736 119.33 347.731 479.327
1256 0 64.0228 12.5268 802 119.121 348.52 477.534
1257 0 68.0724 11.7522 800 119.442 348.186 477.39
1258 0 68.0592 13.4442 915 115.745 348.066 477.604
1259 0 68.0316 12.2149 831 121.462 348.061 475.029
1260 0 72.0493 13.4353 968 117.514 348.457 474.589
1261 0 74.0488 13.248 981 119.396 348.129 473.657
1262 0 78.1007 12.6631 989 119.824 347.725 471.391
1263 0 80.0391 13.4309 1075 118.137 347.668 470.744
1264 0 81.0366 12.8707 1043 121.049 347.912 469.739
1265 0 83.1025 13.2246 1099 121.847 348.036 467.297
1266 0 85.1308 12.1578 1035 125.29 347.465 465.79
1267 0 89.2176 13.7193 1224 121.549 347.564 464.123
1268 0 92.2343 13.4874 1244 123.387 347.347 463.693
1269 0 95.1825 12.2186 1163 126.936 347.955 463.62
1270 0 95.1743 12.0516 1147 128.951 346.874 458.139
1271 0 102.167 13.6247 1392 124.83 347.626 458.547
1272 1 59.1358 11.7526 695 121.753 348.927 482.321
1273 0 57.0701 11.3019 645 113.295 346.372 478.833
1274 0 58.0711 11.2104 651 112.571 347.194 477.708
1275 0 57.0882 8.91603 509 116.809 347.574 478.599
1276 0 60.1133 10.7297 645 114.727 347.532 475.355
1277 0 63.0943 11.1737 705 112.126 348.706 476.35
1278 0 65.0468 11.8223 769 111.043 348.823 475.852
1279 0 66.1315 10.086 667 116.139 348.391 474.735
1280 0 71.1971 12.1072 862 112.101 348.434 473.676
1281 0 73.1569 12.2066 893 112.454 348.57 473.531
1282 0 73.2149 11.9101 872 114.127 349.107 473.597
1283 0 78.1144 11.944 933 114.146 348.235 471.138
1284 0 78.1161 12.3662 966 115.828 348.717 468.864
1285 0 82.1072 12.3253 1012 116.604 348.499 468.314
1286 0 83.1212 11.381 946 119.362 348.032 467.153
1287 0 86.1107 11.9613 1030 119.713 348.409 466.975
1288 0 91.1868 12.2825 1120 118.572 347.662 465.523
1289 0 92.155 12.989 1197 118.89 348.021 464.818
1290 0 94.0591 12.0881 1137 120.709 347.223 462.415
1291 0 100.076 13.1999 1321 118.542 347.463 461.172
1292 0 103.07 13.2531 1366 118.993 347.614 456.739
1293 0 105.232 12.8193 1349 119.004 347.595 455.563
1294 0 110.165 12.9442 1426 120.34 347.769 451.22
1295 0 110.169 11.2918 1244 123.278 347.617 448.402
1296 1 60.0952 12.0642 725 114.863 347.957 476.59
1297 0 64.195 11.1224 714 114.696 347.796 476.944
1298 0 65.1321 11.3769 741 114.52 348.547 476.731
1299 0 68.134 12.901 879 111.737 347.99 473.203
1300 0 70.1041 12.2817 861 112.13 348.411 473.431
1301 0 74.0922 13.0918 970 110.477 347.429 471.737
1302 0 74.1655 12.5395 930 113.444 348.094 470.862
1303 0 76.0417 12.3222 937 114.765 348.393 469.901
1304 0 78.1074 12.9565 1012 113.72 347.659 468.686
1305 0 80.1233 12.8802 1032 115.031 347.307 465.317
1306 0 84.1111 12.103 1018 117.064 347.472 465.568
1307 0 88.104 12.735 1122 115.43 347.388 462.665
1308 0 89.1316 13.351 1190 114.42 347.388 464.939
1309 0 92.1011 12.9423 1192 116.145 347.296 461.888
1310 0 94.1288 12.4935 1176 118.488 347.705 460.999
1311 0 100.112 14.4138 1443 113.226 347.663 457.412
1312 0 103.097 13.3273 1374 115.622 347.732 458.348
1313 0 106.077 12.9717 1376 116.669 347.724 455.318
1314 0 109.13 12.6822 1384 116.723 346.975 454.893
1315 0 113.092 13.9621 1579 114.077 347.382 450.141
1316 1 63.1117 11.0122 695 112.337 347.207 480.007
1317 0 63.1089 10.7275 677 118.015 347.959 473.721
1318 0 66.1023 11.0889 733 114.402 347.02 475.105
1319 0 69.1559 10.9174 755 114.119 346.977 475.532
1320 0 74.0419 11.0478 818 113.654 346.736 472.802
1321 0 75.1135 11.3029 849 112.098 346.928 470.527
1322 0 79.0689 13.1151 1037 108.201 347.343 468.683
1323 0 80.1216 10.9583 878 112.505 347.391 467.224
1324 0 82.1335 10.8117 888 113.744 347.65 465.073
1325 0 85.1909 11.2806 961 111.907 348.353 466.178
1326 0 89.1571 11.934 1064 112.253 348.099 463.749
1327 0 90.0896 10.9114 983 115.106 347.417 464.992
1328 0 93.236 11.9267 1112 116.491 347.876 462.665
1329 0 98.1693 12.3053 1208 114.911 347.4 462.572
1330 0 103.2 12.3643 1276 115.306 347.639 459.674
1331 0 106.14 11.8806 1261 116.487 347.43 460.966
1332 0 110.184 11.7803 1298 117.897 347.661 457.376
1333 0 114.233 11.7742 1345 119.07 347.72 453.317
1334 0 118.191 14.3158 1692 112.757 347.874 451.611
1335 1 67.0605 10.5278 706 115.089 348.783 479.585
1336 0 68.1428 11.0503 753 115.89 348.072 475.822
1337 0 70.0844 11.2293 787 120.02 348.262 474.177
1338 0 75.1032 12.1566 913 115.312 347.887 476.079
1339 0 77.0577 12.1597 937 116.265 348.075 473.338
1340 0 79.0511 12.9663 1025 114.881 348.245 471.16
1341 0 83.0436 12.4633 1035 114.565 348.571 470.285
1342 0 86.0547 13.8168 1189 112.034 349.148 469.006
1343 0 89.0586 12.677 1129 115.406 348.863 466.857
1344 0 92.0779 12.9347 1191 114.697 348.627 467.176
1345 0 95.0869 13.4719 1281 113.813 348.837 465.183
1346 0 97.1331 12.7454 1238 116.529 348.684 463.846
1347 0 99.065 12.2849 1217 118.868 348.569 460.098
1348 0 103.097 13.0847 1349 117.388 348.57 458.655
1349 0 106.097 13.3651 1418 117.069 348.382 458.472
1350 0 108.098 13.1177 1418 118.474 347.642 456.63
1351 0 112.177 13.1221 1472 118.22 347.465 454.818
1352 0 118.118 13.4272 1586 116.971 348.694 453.668
1353 0 120.153 13.6076 1635 117.193 348.877 452.327
1354 1 70.068 11.5316 808 113.578 348.077 478.275
1355 0 71.0315 12.4311 883 114.369 346.18 474.866
1356 0 74.098 12.6994 941 114.269 345.7 475.12
1357 0 77.1565 12.6496 976 114.688 346.057 475.071
1358 0 79.1258 13.0678 1034 114.567 346.6 473.757
1359 0 82.26 13.3479 1098 113.847 346.445 473.026
1360 0 84.1553 12.7502 1073 115.893 346.023 472.482
1361 0 86.2948 12.7122 1097 116.387 346.038 470.252
1362 0 89.2812 12.8583 1148 115.914 346.181 470.126
1363 0 93.4929 13.8085 1291 113.266 347.631 466.857
1364 0 97.4444 13.2999 1296 114.657 347.834 466.91
1365 0 97.3579 12.7365 1240 118.574 347.118 461.266
1366 0 101.397 12.6632 1284 117.879 347.026 462.691
1367 0 104.384 12.5498 1310 119.576 347.369 460.892
1368 0 106.428 11.9329 1270 122.257 346.581 458.373
1369 0 110.333 11.9366 1317 121.689 346.806 457.177
1370 1 61.3319 11.0057 675 116.652 347.361 482.997
1371 0 63.2402 11.6224 735 117.148 347.793 479.389
1372 0 66.255 11.6369 771 116.018 347.602 481.715
1373 0 67.3008 11.5303 776 118.249 347.682 479.405
1374 0 67.0629 12.1677 816 111.287 348.703 479.618
1375 0 69.1615 11.8274 818 112.112 348.835 478.696
1376 0 71.1006 11.6033 825 112.856 349.172 479.781
1377 0 75.0478 11.3661 853 112.699 348.564 477.993
1378 0 77.1624 12.3247 951 111.111 349.033 476.679
1379 0 77.1624 12.2599 946 143.691 350.036 476.797
1380 0 81.1029 13.2424 1074 110.429 349.27 475.23
1381 0 84.2157 12.2661 1033 112.657 348.88 473.302
1382 0 88.058 11.9126 1049 112.343 348.986 472.622
1383 0 87.0604 11.8423 1031 116.242 348.684 469.875
1384 0 91.0805 11.4953 1047 116.904 348.948 468.785
1385 0 93.1019 11.6861 1088 118.771 349.329 466.795
1386 0 97.2051 12.664 1231 115.169 349.042 464.244
1387 0 100.213 12.9225 1295 112.551 348.744 465.094
1388 0 102.317 11.8944 1217 109.744 348.324 457.613
1389 0 104.346 11.7111 1222 112.565 347.354 451.718
1390 1 59.0409 11.1448 658 105.512 346.83 477.85
1391 0 58.102 11.1012 645 103.682 346.591 477.953
1392 0 60.1091 10.8137 650 100.683 347.597 476.012
1393 0 60.1794 8.52451 513 105.702 347.322 474.971
1394 0 64.1862 10.8435 696 101.477 347.652 476.529
1395 0 64.1484 9.96127 639 104.599 347.948 472.194
1396 0 68.1335 10.2152 696 103.517 347.244 472.027
1397 0 68.1801 11.1176 758 101.468 347.645 472.656
1398 0 73.1415 9.88494 723 102.983 347.415 471.784
1399 0 72.2147 10.2334 739 104.189 347.824 468.426
1400 0 76.0558 11.0051 837 102.796 347.428 467.84
1401 0 79.2651 10.3324 819 103.751 347.051 468.919
1402 0 82.1237 11.5314 947 102.386 347.229 465.468
1403 0 83.1163 10.9365 909 104.245 347.277 464.678
1404 0 87.1385 10.8792 948 103.168 347.861 465.284
1405 0 93.1446 12.3571 1151 101.728 347.13 461.487
1406 0 94.118 11.6343 1095 103.953 347.013 460.594
1407 0 96.0741 11.616 1116 104.571 347.004 458.398
1408 0 96.1084 11.0292 1060 108.15 346.317 454.235
1409 1 55.1022 9.90886 546 102.745 347.996 479.978
1410 0 52.0929 10.0589 524 103.853 347.859 481.387
1411 0 53.0837 9.92772 527 106.744 347.222 477.903
1412 0 58.0692 11.779 684 103.746 347.287 478.694
1413 0 61.067 10.775 658 101.222 347.138 475.684
1414 0 61.0523 11.3345 692 101.993 346.751 473.522
1415 0 63.0264 12.1378 765 100.984 346.227 473.22
1416 0 65.0814 10.9248 711 103.37 346.322 473.174
1417 0 67.0966 13.0856 878 98 346.412 470.558
1418 0 70.1819 11.8264 830 101.243 346.018 467.13
1419 0 72.2145 12.1859 880 101.23 346.919 467.578
1420 0 76.1446 13.146 1001 99.0549 346.595 466.991
1421 0 76.0505 10.9269 831 105.6 346.726 464.975
1422 0 80.0656 12.6771 1015 101.287 346.679 465.778
1423 0 81.0748 13.3087 1079 101.729 345.904 462.049
1424 0 85.1133 12.8065 1090 101.409 346.793 463.703
1425 0 86.1717 13.7168 1182 102.238 347.533 459.315
1426 0 89.1943 12.8932 1150 104.215 347.627 460.023
1427 0 93.0774 13.3222 1240 103.816 348.33 457.785
1428 0 94.1163 12.9096 1215 106.322 346.923 456.552
1429 0 98.0968 13.6498 1339 104.671 347.018 454.423
1430 0 100.105 12.377 1239 107.97 347.195 453.297
1431 0 103.212 13.4093 1384 106.723 348.117 450.086
1432 0 107.27 12.8088 1374 108.557 348.545 452.087
1433 0 110.156 13.2721 1462 108.085 347.518 448.8
1434 0 113.129 13.1974 1493 109.698 347.885 444.415
1435 0 119.204 13.1958 1573 110.257 347.522 443.742
1436 0 124.284 14.4267 1793 107.559 346.954 442.781
1437 1 66.0843 10.3958 687 109.918 347.512 468.926
1438 0 69.0826 10.7987 746 109.418 347.288 468.598
1439 0 71.2438 10.6816 761 109.899 347.996 466.905
1440 0 71.1265 11.0507 786 112.864 348.21 463.664
1441 0 75.0806 10.6419 799 112.252 348.008 464.935
1442 0 78.0468 11.9672 934 110.112 347.956 463.511
1443 0 81.126 10.5638 857 113.196 347.868 460.186
1444 0 83.1654 11.0623 920 112.697 348.095 458.182
1445 0 86.1537 10.6322 916 112.771 348.242 460.92
1446 0 90.121 12.461 1123 109.248 348.467 457.758
1447 0 95.1953 11.9334 1136 109.375 348.092 458.907
1448 0 97.1415 12.2914 1194 110.663 347.904 453.541
1449 0 103.098 11.8722 1224 110.448 348.208 456.882
1450 0 105.185 13.5666 1427 107.794 348.533 455.132
1451 0 108.245 12.8874 1395 110.287 348.235 452.272
1452 0 112.186 11.2135 1258 114.687 348.5 450.153
1453 0 115.119 12.7607 1469 114.508 347.941 452.329
1454 0 121.165 14.1872 1719 110.187 347.12 452.435
1455 0 122.21 11.7503 1436 116.291 348.326 450.146
1456 0 127.477 13.2259 1686 113.656 347.844 444.317
1457 0 131.237 12.725 1670 115.035 347.998 442.305
1458 1 73.2398 11.8378 867 113.584 347.881 470.917
1459 0 76.2869 13.0953 999 110.525 347.787 472.08
1460 0 77.1811 12.3605 954 116.824 348.441 472.34
1461 0 81.3046 12.4101 1009 116.229 347.926 471.93
1462 0 80.171 11.7499 942 120.214 347.315 468.202
1463 0 83.1763 12.7801 1063 117.882 346.873 466.994
1464 0 88.197 13.9347 1229 114.092 347.384 467.221
1465 0 91.1741 12.9094 1177 116.15 348.725 467.666
1466 0 91.2336 13.175 1202 116.53 347.945 464.734
1467 0 95.257 12.3455 1176 117.372 348.394 465.425
1468 0 98.1686 12.8656 1263 117.294 348.269 461.819
1469 0 99.1712 12.7053 1260 119.096 348.79 461.095
1470 0 104.209 12.6093 1314 118.445 348.24 461.102
1471 0 107.209 12.4524 1335 119.601 347.321 458.718
1472 0 110.194 12.8864 1420 118.188 346.723 456.492
1473 0 114.267 14.4486 1651 113.866 347.144 456.26
1474 0 119.304 13.7967 1646 116.453 346.787 453.712
1475 0 120.168 13.2399 1591 120.602 346.499 447.29
1476 0 121.12 13.6889 1658 113.377 347.402 451.178
1477 0 125.11 11.5259 1442 116.954 347.57 452.032
1478 0 130.238 12.0088 1564 116.323 346.345 447.426
1479 1 72.2197 10.7727 778 118.352 345.947 473.859
1480 0 76.1145 11.9557 910 115.751 346.153 472.776
1481 0 80.1888 12.1588 975 115.683 346.449 471.261
1482 0 81.107 12.3294 1000 116.955 345.7 468.443
1483 0 83.1568 13.3002 1106 114.974 345.387 469.134
1484 0 88.1257 12.9247 1139 114.986 345.14 468.264
1485 0 88.1817 13.0526 1151 116.288 345.539 465.909
1486 0 92.1234 13.2105 1217 116.302 345.614 465.347
1487 0 95.2525 13.06 1244 116.935 345.523 464.842
1488 0 99.2263 12.799 1270 117.475 345.587 461.24
1489 0 101.158 13.4641 1362 116.12 345.604 459.627
1490 0 105.103 12.9588 1362 118.065 346.663 459.887
1491 0 106.159 12.8769 1367 119.413 346.383 454.751
1492 1 60.1938 9.93458 598 121.564 345.604 483.286
1493 0 61.3043 11.027 676 114.195 346.12 482.254
1494 0 62.2579 11.4524 713 115.372 346.839 480.642
1495 0 65.2766 12.0411 786 113.813 346.028 481.19
1496 0 64.1402 11.2566 722 117.853 346.091 480.407
1497 0 66.2033 11.3438 751 118.935 346.506 477.393
1498 0 67.2302 12.4051 834 118.444 346.235 476.104
1499 0 71.1048 12.5589 893 115.802 346.135 477.495
1500 0 72.1582 10.962 791 121.185 346.255 473.89
1501 0 76.4398 12.258 937 117.616 345.805 473.808
1502 0 77.2044 12.1755 940 118.784 345.855 474.044
1503 0 79.1963 12.0334 953 116.275 346.178 470.22
1504 0 81.2673 12.4035 1008 112.29 345.957 472.765
1505 0 82.3312 12.2918 1012 115.266 346.24 470.008
1506 0 83.3269 12.349 1029 120.295 346.864 471.498
1507 0 85.1851 12.197 1039 122.235 347.006 470.245
1508 0 83.1154 12.0555 1002 124.618 346.729 470.991
1509 0 87.2165 12.5894 1098 124.001 346.356 469.462
1510 0 90.209 12.7149 1147 124.085 346.503 468.18
1511 0 92.3182 12.2511 1131 123.813 345.866 467.515
1512 0 96.2619 13.2867 1279 119.422 345.492 465.582
1513 0 100.246 12.9083 1294 117.301 345.665 466.842
1514 0 102.232 13.0879 1338 116.349 345.987 464.442
1515 0 106.233 12.3126 1308 116.831 345.982 461.96
1516 0 107.321 12.3555 1326 116.876 346.624 459.797
1517 0 112.462 13.0356 1466 116.081 345.99 455.715
1518 1 63.1955 11.6939 739 114.176 346.483 478.785
1519 0 59.0978 11.3879 673 112.917 346.196 473.718
1520 0 63.1309 10.5337 665 113.072 346.042 473.05
1521 0 64.0775 10.5809 678 105.333 346.944 474.022
1522 0 65.1652 9.36083 610 109.954 346.825 470.866
1523 0 68.071 11.2676 767 106.061 347.609 472.866
1524 0 63.1321 8.75941 553 115.213 346.911 470.872
1525 0 69.0668 11.1486 770 110.614 346.94 471.397
1526 0 70.1159 9.86938 692 113.984 346.908 469.163
1527 0 74.1563 12.15 901 110.546 346.545 469.002
1528 0 74.1407 9.95405 738 117.734 346.509 465.684
1529 0 77.1294 11.7465 906 115.188 346.778 466.032
1530 0 79.1826 9.77487 774 121.054 347.421 466.519
1531 0 83.1024 11.1549 927 118.751 347.014 466.2
1532 0 87.1345 11.465 999 117.479 346.417 463.839
1533 1 48.0703 9.79815 471 114.59 346.703 483.809
1534 0 47.0249 9.71825 457 123.265 347.16 482.632
1535 0 48.0373 9.72162 467 115.672 347.863 481.887
1536 0 49.1037 10.7935 530 113.009 346.013 481.626
1537 0 50.0666 9.58723 480 114.65 346.471 481.781
1538 0 51.1688 9.5566 489 115.93 346.687 480.325
1539 0 55.1574 10.0802 556 114.901 346.444 480.124
1540 0 57.093 11.6827 667 111.369 346.199 480.627
1541 0 58.0888 10.6217 617 114.449 345.843 477.943
1542 0 61.0786 11.0841 677 112.489 346.724 477.139
1543 0 60.0759 10.9695 659 113.829 346.472 475.68
1544 0 63.1162 11.7086 739 111.825 345.269 475.47
1545 0 66.0992 11.4676 758 112.158 345.376 476.933
1546 0 68.1764 11.0155 751 113.352 345.651 475.563
1547 0 70.1913 11.9815 841 110.226 345.63 473.923
1548 0 72.0496 11.5615 833 113.031 344.806 470.193
1549 0 74.1592 11.3809 844 113.227 344.822 473.536
1550 0 78.1024 11.5873 905 112.985 345.003 468.824
1551 0 81.1287 11.8577 962 111.651 344.494 468.223
1552 0 82.1352 11.4932 944 112.791 344.696 467.341
1553 0 84.1229 11.6853 983 113.039 344.674 464.065
1554 0 89.082 11.3266 1009 113.602 344.323 463.356
1555 0 88.0824 10.002 881 117.425 343.749 462.028
1556 0 96.159 11.2106 1078 113.476 344.634 461.137
1557 0 99.2088 11.622 1153 113.043 344.36 458.793
1558 0 102.163 11.2859 1153 114.436 343.69 455.748
1559 0 107.254 11.1418 1195 114.343 343.71 454.794
1560 1 58.1438 10.0269 583 108.955 344.799 480.017
1561 0 58.0928 10.8447 630 110.527 344.337 476.786
1562 0 63.1132 11.7091 739 115.64 345.382 480.719
1563 0 65.0408 12.0232 782 114.28 345.692 481.788
1564 0 66.0665 12.0333 795 114.611 345.745 481.133
1565 0 69.0504 11.9623 826 114.607 345.942 480.178
1566 0 71.11 12.4736 887 113.708 345.885 477.483
1567 0 74.0829 12.3375 914 114.055 345.91 475.317
1568 0 77.1186 13.4468 1037 111.251 345.459 475.712
1569 0 77.076 12.6758 977 115.684 346.327 472.538
1570 0 82.0954 12.9484 1063 115.323 346.104 473.65
1571 0 85.0953 13.9726 1189 112.145 346.272 473.446
1572 0 88.0811 13.0334 1148 115.488 345.754 471.089
1573 0 93.1513 15.0937 1406 109.134 345.373 470.368
1574 0 95.153 13.8304 1316 114.026 345.454 467.885
1575 0 94.112 12.1982 1148 119.665 345.705 467.46
1576 0 99.0809 12.3435 1223 119.573 345.354 466.076
1577 1 55.0353 12.7373 701 118.87 345.501 485.907
1578 0 56.0334 12.9209 724 112.075 346.436 484.434
1579 0 59.0741 13.1361 776 109.098 345.612 485.871
1580 0 60.0623 12.9033 775 110.96 345.252 483.663
1581 0 62.0724 12.7271 790 111.408 345.062 483.408
1582 0 63.058 11.8938 750 115.431 346.073 481.631
1583 0 64.0701 12.7673 818 113.326 345.611 481.84
1584 0 65.1235 12.008 782 115.738 346.251 480.73
1585 0 69.0546 12.2946 849 113.784 346.1 480.576
1586 0 71.1117 13.6968 974 111.177 345.438 477.388
1587 0 73.0417 12.5819 919 114.347 345.433 477.622
1588 0 75.1418 12.8158 963 115.058 345.465 475.185
1589 0 78.1434 12.7458 996 114.949 346.177 475.889
1590 0 80.0439 13.2427 1060 114.774 345.781 475.196
1591 0 82.0758 13.7556 1129 115.132 345.769 473.018
1592 0 86.0632 13.769 1185 116.287 345.289 470.905
1593 0 89.1135 13.1967 1176 116.537 345.301 472.623
1594 0 91.1294 11.6099 1058 120.599 345.321 471.199
1595 0 94.1161 12.814 1206 117.99 345.373 469.531
1596 0 99.1397 13.1935 1308 116.899 345.385 466.456
1597 0 100.139 12.922 1294 118.31 346.005 464.669
1598 1 54.0653 11.4121 617 120.164 346.668 488.044
1599 0 55.0509 11.6983 644 117.939 346.767 486.733
1600 0 58.1467 13.3628 777 110.946 346.248 485.375
1601 0 58.0698 12.64 734 114.441 346.29 482.62
1602 0 60.1538 13 782 113.26 346.252 484.923
1603 0 62.166 12.8527 799 113.413 346.116 482.005
1604 0 64.1148 13.5226 867 112.582 346.171 480.707
1605 0 67.2616 13.8712 933 111.362 346.224 480.862
1606 0 68.0699 13.6184 927 113.436 346.06 478.916
1607 0 71.1638 14.024 998 112.327 345.673 478.704
1608 0 72.0978 12.5108 902 117.457 345.729 476.507
1609 0 75.1998 12.6596 952 117.202 345.602 475.511
1610 0 79.1982 13.1064 1038 115.983 345.643 475.43
1611 0 81.2958 13.2848 1080 117.818 345.994 473.188
1612 0 81.2348 13.6764 1111 118.744 345.852 472.202
1613 0 83.2319 12.8917 1073 121.359 345.437 470.711
1614 0 87.1781 14.2008 1238 117.52 345.883 469.517
1615 0 91.2599 14.5299 1326 116.832 345.284 468.189
1616 0 91.325 13.9721 1276 119.757 345.861 463.372
1617 0 94.2083 12.8863 1214 122.235 345.264 464.227
1618 0 96.2643 13.1825 1269 121.664 345.104 459.517
1619 0 97.2222 13.4126 1304 120.255 345.382 458.228
1620 0 99.1616 13.2813 1317 121.181 345.325 457.138
1621 0 105.153 12.6102 1326 121.963 344.654 453.514
1622 0 108.216 13.8242 1496 119.413 344.15 450.832
1623 0 109.238 11.3148 1236 127.422 345.197 450.278
1624 0 114.222 12.4494 1422 124.101 344.729 448.502
1625 0 120.359 11.9974 1444 124.816 345.125 445.709
1626 1 66.1032 11.83 782 119.434 345.316 472.29
1627 0 68.1473 12.561 856 117.665 344.442 474.742
1628 0 69.2 12.8179 887 105.713 345.15 474.33
1629 0 74.3279 11.5838 861 115.408 344.967 467.546
1630 0 77.3738 12.0325 931 115.314 344.536 467.484
1631 0 78.178 12.2925 961 118.482 344.044 466.985
1632 0 80.2236 11.817 948 120.734 343.89 465.676
1633 0 83.2594 12.0107 1000 120.03 343.76 464.096
1634 0 86.3089 12.9535 1118 119.455 344.298 462.147
1635 0 89.292 12.1623 1086 121.541 344.542 459.753
1636 0 93.2322 12.1524 1133 120.986 344.544 458.299
1637 0 96.1969 12.3601 1189 120.883 344.603 456.908
1638 0 99.3109 13.0902 1300 119.922 343.975 457.538
1639 0 102.108 13.2703 1355 120.376 343.951 457.514
1640 0 105.307 13.0381 1373 122.117 344.605 456.889
1641 0 109.299 12.507 1367 126.398 345.042 457.124
1642 0 113.129 13.8426 1566 123.413 345.006 455.094
1643 0 115.223 13.3481 1538 122.605 344.898 451.728
1644 0 118.412 10.8435 1284 129.422 344.884 452.15
1645 1 67.0775 12.4036 832 114.141 345.082 479.831
1646 0 69.1524 10.8601 751 118.663 345.158 476.423
1647 0 71.1484 11.2301 799 118.11 344.393 477.408
1648 0 74.2488 13.6298 1012 114.111 344.445 477.25
1649 0 77.095 12.4003 956 117.446 344.446 476.073
1650 0 78.1102 13.1481 1027 116.659 344.504 477.345
1651 0 80.0356 12.4695 998 121.122 344.505 474.6
1652 0 82.0957 12.4245 1020 122.193 344.833 473.085
1653 0 86.0992 12.2882 1058 123.569 345.055 470.581
1654 0 89.1922 13.9698 1246 120.111 345.308 469.412
1655 0 91.1881 11.7779 1074 126.659 345.088 465.388
1656 0 94.3988 13.0404 1231 124.487 345.38 463.389
1657 0 98.3694 13.7746 1355 123.254 345.24 461.604
1658 0 99.1907 12.4508 1235 128.148 344.56 459.099
1659 0 103.212 13.293 1372 127.095 344.884 457.34
1660 0 106.405 12.7625 1358 128.793 344.738 453.99
1661 0 109.396 12.2948 1345 130.004 344.172 454.136
1662 0 112.146 12.9295 1450 129.761 344.302 449.843
1663 0 115.393 13.1204 1514 129.784 344.74 451.712
1664 0 119.375 12.7163 1518 130.887 344.937 448.793
1665 0 121.319 12.4053 1505 133.391 344.14 447.361
1666 0 126.22 12.0583 1522 134.399 344.154 443.822
1667 0 131.273 11.8913 1561 132.751 344.071 443.889
1668 0 136.254 12.7776 1741 129.8 344.316 440.769
1669 0 141.345 11.9566 1690 131.882 345.194 440.48
1670 0 146.233 12.0424 1761 131.887 344.821 435.209
1671 0 151.121 12.3941 1873 129.587 344.637 434.422
1672 1 83.1828 12.3824 1030 119.302 344.125 470.19
1673 0 87.2259 12.3702 1079 120.352 344.272 468.863
1674 0 90.2301 13.9754 1261 115.137 344.092 469.612
1675 0 92.1861 13.8741 1279 116.728 344.474 466.936
1676 0 97.3526 13.0043 1266 118.475 344.449 466.229
1677 0 99.3382 13.1973 1311 119.163 344.375 462.157
1678 0 100.236 12.3808 1241 121.815 344.774 460.652
1679 0 106.4 12.6974 1351 120.579 344.325 460.408
1680 0 108.125 12.4301 1344 124.028 344.414 458.181
1681 0 112.339 12.1507 1365 125.506 343.903 454.393
1682 0 118.316 13.9795 1654 120.511 344.736 449.871
1683 1 63.225 10.9134 690 120.248 345.246 482.555
1684 0 65.0998 12.6575 824 120.398 344.671 481.244
1685 0 68.2521 10.5491 720 120.078 345.521 482.249
1686 0 72.1577 13.027 940 114.248 344.815 477.517
1687 0 73.2509 12.5323 918 116.044 344.809 475.134
1688 0 76.1354 12.8455 978 115.895 345.298 475.567
1689 0 81.1815 13.2296 1074 115.703 344.462 474.782
1690 0 81.1149 13.1788 1069 117.266 344.468 472.451
1691 0 85.3248 12.3645 1055 117.431 344.935 473.806
1692 0 87.4904 13.0529 1142 118.416 344.61 467.88
1693 0 91.3137 12.0902 1104 119.76 344.633 465.784
1694 0 93.5971 11.9662 1120 120.109 343.793 463.261
1695 0 97.3128 12.4341 1210 119.117 343.799 462.823
1696 0 102.422 13.4736 1380 116.102 344.33 461.087
1697 0 105.643 11.8607 1253 120.672 344.144 461.291
1698 0 107.311 13.4189 1440 118.613 344.756 458.627
1699 1 60.3257 11.3882 687 116.437 345.02 482.371
1700 0 61.3731 12.8069 786 114.302 344.688 480.796
1701 0 63.3065 11.2153 710 119.715 344.958 480.349
1702 0 67.4394 12.7967 863 115.606 344.413 478.352
1703 0 69.3559 12.5151 868 115.82 344.568 478.568
1704 0 69.2528 12.4183 860 114.836 344.681 476.866
1705 0 71.3229 11.6933 834 116.294 344.237 475.709
1706 0 76.3845 13.5891 1038 110.956 344.004 475.196
1707 0 76.3905 12.0696 922 117.091 343.547 472.198
1708 0 79.4108 11.9631 950 118.376 343.436 471.089
1709 0 86.2539 12.9038 1113 113.618 344.365 471.367
1710 0 84.3486 11.7014 987 119.917 343.63 468.371
1711 0 90.3845 12.3694 1118 117.493 343.208 466.814
1712 0 93.4664 12.0899 1130 118.117 343.642 466.897
1713 0 96.4989 12.881 1243 117.023 343.805 467.46
1714 0 97.3056 12.8872 1254 119.388 343.863 463.918
1715 0 104.408 12.6619 1322 119.159 343.579 462.927
1716 0 106.557 13.1385 1400 121.346 343.036 459.547
1717 0 110.598 14.0056 1549 120.482 343.528 457.753
1718 1 58.3808 12.0074 701 122.815 343.983 483.882
1719 0 63.2399 13.2827 840 119.194 343.999 483.404
1720 0 63.5185 13.2717 843 123.687 343.572 481.18
1721 0 64.3389 13.4133 863 124.864 343.377 479.883
1722 0 67.4447 13.0329 879 126.024 343.619 479.767
1723 0 70.3416 13.2639 933 125.024 343.488 479.134
1724 0 72.2425 13.2609 958 125.879 343.613 477.161
1725 0 73.3644 13.4943 990 127.99 343.79 475.291
1726 0 77.3998 13.2558 1026 127.099 343.895 476.055
1727 0 77.1943 12.8766 994 131.972 343.748 473.494
1728 0 83.1639 13.8401 1151 128.259 343.766 473.018
1729 0 83.1934 13.3184 1108 130.597 344.155 470.891
1730 0 85.2003 13.0281 1110 132.182 343.719 471.177
1731 0 90.2351 13.2543 1196 132.191 343.759 469.443
1732 0 93.2787 14.1833 1323 130.175 343.933 467.831
1733 0 98.1721 15.0348 1476 128.339 344.572 465.527
1734 0 98.1564 14.8335 1456 132.257 344.788 463.666
1735 0 102.183 14.2 1451 135.496 344.143 462.179
1736 0 106.147 14.7438 1565 134.286 343.971 460.599
1737 0 108.225 14.3128 1549 136.324 344.036 457.58
1738 0 112.212 14.1607 1589 136.053 343.535 457.439
1739 1 64.1311 12.8799 826 132.315 343.115 480.59
1740 0 66.1896 12.1469 804 133.781 343.689 480.275
1741 0 69.1211 13.5849 939 129.623 343.645 478.62
1742 0 71.2607 13.9628 995 129.83 343.638 475.343
1743 0 75.1311 13.8292 1039 128.712 343.426 475.675
1744 0 76.337 13.388 1022 130.606 343.744 474.062
1745 0 80.1597 13.5979 1090 128.955 343.325 471.674
1746 0 82.2171 13.3427 1097 128.894 343.846 471.822
1747 0 86.1051 13.4719 1160 128.24 343.602 469.855
1748 0 88.1528 13.5333 1193 127.488 343.197 468.432
1749 0 91.1675 13.4149 1223 127.673 343.325 466.159
1750 0 95.1751 13.533 1288 127.527 343.859 463.885
1751 0 98.265 13.2397 1301 127.513 343.57 462.974
1752 0 100.306 14.2663 1431 125.073 343.901 462.443
1753 0 102.179 15.1402 1547 123.087 343.791 461.775
1754 0 106.173 14.1279 1500 126.299 343.734 455.572
1755 0 110.219 13.3733 1474 127.544 343.556 456.558
1756 0 112.095 13.2923 1490 128.282 343.436 454.181
1757 0 117.258 13.756 1613 125.492 342.693 452.679
1758 0 121.412 14.9491 1815 121.585 343.149 452.64
1759 0 121.16 13.3956 1623 127.55 343.137 445.516
1760 0 127.114 13.3109 1692 126.814 343.815 443.226
1761 0 132.184 14.1167 1866 124.274 343.733 444.524
1762 0 136.176 13.3945 1824 126.011 343.474 441.24
1763 0 141.229 14.6075 2063 122.695 343.333 437.091
1764 0 147.348 13.933 2053 123.766 343.516 435.43
1765 0 151.282 14.159 2142 123.344 343.752 432.032
1766 0 157.277 13.9245 2190 124.341 344.003 429.501
1767 0 161.196 13.251 2136 127.069 343.597 426.889
1768 0 168.248 14.0863 2370 124.689 343.732 421.055
1769 0 175.309 14.7397 2584 122.966 343.332 419.631
1770 0 181.269 15.3804 2788 123.359 343.315 415.974
1771 1 101.216 11.2236 1136 129.733 343.926 452.668
1772 0 105.219 12.9349 1361 124.537 343.603 452.447
1773 0 107.206 12.9284 1386 124.843 343.571 452.535
1774 0 110.191 13.1862 1453 125.47 343.795 446.329
1775 0 110.308 12.3201 1359 129.961 343.729 441.214
1776 0 115.176 12.1466 1399 128.948 343.864 444.776
1777 0 121.177 13.3028 1612 125.087 344.088 440.14
1778 0 124.353 14.1855 1764 123.081 344.481 437.908
1779 0 129.258 13.8173 1786 123.973 344.156 436.021
1780 0 129.258 13.9179 1799 165.121 344.142 436.114
1781 0 137.155 12.3291 1691 128.493 343.481 429.74
1782 1 83.1518 11.028 917 120.822 344.023 457.988
1783 0 83.244 9.86258 821 124.424 343.448 456.51
1784 0 84.2119 9.78484 824 124.604 343.819 453.993
1785 0 88.3146 12.0025 1060 119.716 344.73 453.571
1786 0 92.4094 13.2995 1229 115.566 344.024 451.395
1787 0 92.3863 13.2704 1226 146.289 343.013 451.292
1788 0 98.1912 12.5266 1230 118.346 343.567 449.982
1789 0 93.1646 11.3348 1056 123.944 343.765 443.003
1790 0 104.187 11.1626 1163 121.686 343.978 447.439
1791 0 107.468 9.81686 1055 126.86 344.342 442.604
1792 0 109.335 10.573 1156 125.58 344.108 438.353
1793 0 116.301 11.0489 1285 122.357 344.648 442.074
1794 0 117.529 11.478 1349 121.127 344.458 441.107
1795 0 121.372 9.99407 1213 125.154 344.252 440.02
1796 0 127.185 11.8961 1513 119.584 344.357 441.079
1797 0 128.418 9.95968 1279 126.31 344.675 431.825
1798 0 136.176 12.0359 1639 118.486 344.592 437.015
1799 0 138.374 11.4256 1581 120.169 344.77 436.066
1800 0 145.176 13.1909 1915 116.192 344.241 433.238
1801 0 147.159 11.1783 1645 121.897 344.71 432.207
1802 1 89.1781 9.11659 813 106.768 345.367 463.601
1803 0 94.2447 9.99526 942 105.382 345.969 463.979
1804 0 96.1342 10.4645 1006 104.657 346.043 464.261
1805 0 100.133 11.6245 1164 109.277 344.389 457.884
1806 0 99.1109 9.37333 929 118.684 344.475 458.495
1807 0 104.105 11.0274 1148 115.94 344.34 452.291
1808 0 109.102 11.448 1249 113.963 343.883 453.335
1809 0 108.127 10.6079 1147 116.248 344.18 452.328
1810 0 112.142 9.7287 1091 118.592 344.08 450.693
1811 0 116.199 10.5422 1225 116.833 344.153 448.777
1812 0 119.175 9.74199 1161 119.903 343.971 442.181
1813 0 123.2 10.8198 1333 117.16 344.206 441.157
1814 0 125.186 10.1928 1276 119.452 343.526 442.897
1815 0 128.218 10.2716 1317 119.396 343.682 440.708
1816 0 132.164 10.8577 1435 118.675 343.709 437.429
1817 0 139.203 12.2914 1711 113.199 344.138 438.592
1818 0 141.273 9.64092 1362 121.608 343.905 433.852
1819 0 143.333 7.85581 1126 125.417 344.563 426.467
1820 0 149.255 10.1571 1516 118.571 344.259 426.464
1821 1 86.1358 8.71879 751 107.237 344.386 462.936
1822 0 89.1695 10.3286 921 108.011 343.637 464.425
1823 0 89.2484 10.129 904 110.148 343.164 463.226
1824 0 92.0952 9.16443 844 110.745 345.65 464.942
1825 0 92.0944 8.93648 823 113.443 346.193 459.363
1826 0 96.1421 8.63305 830 115.311 346.049 455.275
1827 0 100.063 10.2635 1027 111.729 346.343 456.467
1828 0 103.248 11.6031 1198 110.21 346.315 454.795
1829 0 106.234 10.6463 1131 113.149 345.937 454.405
1830 0 106.135 10.8069 1147 113.807 346.17 453.446
1831 0 111.149 11.0752 1231 113.129 346.311 447.155
1832 0 115.252 11.6007 1337 113.699 346.307 450.022
1833 0 114.227 9.83132 1123 118.49 345.837 446.119
1834 0 119.266 10.2795 1226 118.958 345.415 440.367
1835 0 123.168 11.1149 1369 117.563 345.564 445.605
1836 0 126.143 10.7021 1350 116.951 344.816 445.068
1837 0 127.262 11.6531 1483 115.013 345.189 440.782
1838 0 132.202 10.5747 1398 117.057 343.722 445.693
1839 0 124.36 11.1933 1392 117.091 343.833 429.344
1840 0 125.205 11.1258 1393 117.09 343.676 427.08
1841 1 69.129 8.46244 585 109.309 344.089 458.634
1842 0 77.1694 8.6174 665 105.353 344.765 463.738
1843 0 85.1204 10.7495 915 98.4667 343.852 464.87
1844 0 84.1616 9.69563 816 102.001 342.974 467.463
1845 0 88.148 9.04161 797 103.917 343.739 466.678
1846 0 91.1544 8.91894 813 105.284 344.315 461.36
1847 0 93.0957 9.75341 908 104.501 344.118 461.956
1848 0 95.0699 9.77176 929 106.638 344.113 461.266
1849 0 99.1625 10.2962 1021 106.126 344.06 459.169
1850 0 101.225 10.9162 1105 106.104 343.578 456.038
1851 0 105.193 10.4094 1095 107.509 343.016 455.264
1852 0 109.165 11.6704 1274 105.078 343.075 452.714
1853 0 111.102 11.35 1261 106.495 342.937 452.205
1854 0 111.216 10.7808 1199 108.934 344.44 442.556
1855 0 116.11 11.0585 1284 107.29 344.411 442.713
1856 0 121.124 11.8969 1441 109.489 345.288 449.112
1857 0 126.125 13.1219 1655 118.825 345.419 449.163
1858 0 130.132 12.4258 1617 121.535 345.738 447.597
1859 0 135.131 13.0836 1768 120.82 345.506 444.167
1860 1 78.2965 10.4347 817 120.19 344.547 468.471
1861 0 81.3759 11.453 932 117.961 344.583 466.416
1862 0 83.161 12.59 1047 116.268 345.26 467.91
1863 0 87.3022 11.5919 1012 117.716 345.332 466.09
1864 0 90.2793 12.6386 1141 116.363 345.201 464.619
1865 0 93.3357 12.8568 1200 115.887 345.22 463.55
1866 0 94.3202 11.8744 1120 118.863 344.212 464.059
1867 0 96.2468 11.9173 1147 119.307 345.147 462.697
1868 0 100.429 12.3271 1238 118.25 344.603 461.137
1869 0 104.464 13.9282 1455 115.438 344.364 456.893
1870 0 106.386 12.3889 1318 120.668 344.087 456.568
1871 0 108.383 11.2472 1219 124.638 343.796 455.282
1872 0 112.302 12.8137 1439 118.532 344.85 452.94
1873 0 116.299 12.8547 1495 118.002 344.379 454.478
1874 0 118.351 12.3108 1457 120.744 344.574 449.871
1875 0 122.373 12.8214 1569 119.672 344.295 449.521
1876 0 123.356 11.9572 1475 123.163 344.111 448.082
1877 0 127.293 12.4988 1591 122.414 344.659 444.3
1878 1 71.2101 8.55216 609 122.829 344.726 473.023
1879 0 70.1215 9.88285 693 115.453 344.873 469.87
1880 0 74.1363 11.6542 864 112.797 344.083 466.266
1881 0 77.1256 9.81515 757 109.124 343.844 465.727
1882 0 74.1072 9.1759 680 117.31 344.381 459.251
1883 0 81.0792 11.0386 895 110.699 344.193 462.903
1884 0 82.1229 10.6548 875 111.533 344.544 464.627
1885 0 84.0792 10.276 864 113.411 343.786 461.229
1886 0 89.1684 11.7306 1046 110.866 343.318 458.98
1887 0 91.1012 11.6025 1057 111.774 344.185 457.888
1888 0 94.217 12.0785 1138 111.077 344.385 456.507
1889 0 97.1318 11.4792 1115 112.61 344.623 454.463
1890 0 100.199 11.5869 1161 112.205 344.302 456.426
1891 0 101.122 12.0448 1218 112.901 344.89 452.072
1892 0 105.182 11.6369 1224 113.453 344.606 451.623
1893 0 107.186 11.0462 1184 116.774 344.152 440.923
1894 0 112.221 12.5288 1406 112.18 344.422 439.127
1895 0 112.176 11.7494 1318 114.75 343.889 442.289
1896 0 117.318 11.1577 1309 115.148 344.011 440.284
1897 0 120.203 11.3474 1364 114.771 343.796 446.952
1898 0 120.132 10.5801 1271 118.052 343.87 442.384
1899 0 128.238 11.5878 1486 114.922 343.987 441.881
1900 0 128.253 10.5651 1355 119.411 344.385 437.621
1901 0 133.139 11.8072 1572 116.293 344.049 435.198
1902 0 133.219 11.072 1475 118.729 344.186 432.502
1903 0 143.355 11.3913 1633 111.304 344.325 431.066
1904 1 74.111 8.89207 659 106.816 345.37 465.19
1905 0 78.1969 10.4352 816 109.457 345.331 466.413
1906 0 79.1343 11.0066 871 112.995 344.851 465.253
1907 0 85.1356 11.2291 956 105.848 343.314 465.051
1908 0 82.1061 10.2307 840 105.843 344.656 461.242
1909 0 88.167 11.3875 1004 102.85 344.502 459.969
1910 0 91.152 11.7606 1072 102.177 344.494 457.16
1911 0 93.1206 11.0502 1029 104.155 344.343 457.726
1912 0 95.2022 11.922 1135 103.114 344.392 453.358
1913 0 95.382 11.1447 1063 106.13 344.05 451.448
1914 0 98.1314 9.31404 914 109.979 345.173 450.716
1915 0 105.141 11.0994 1167 105.821 344.983 449.052
1916 0 101.32 10.8468 1099 107.885 344.963 444.779
1917 0 107.209 10.9506 1174 107.921 344.763 444.241
1918 0 109.146 12.3321 1346 105.605 344.794 444.929
1919 0 118.118 12.8939 1523 112.24 345.154 449.596
1920 0 121.123 13.1271 1590 112.748 345.207 448.291
1921 0 127.191 13.6173 1732 110.326 345.136 446.477
1922 0 129.172 13.2691 1714 111.806 344.687 441.274
1923 0 132.167 13.5661 1793 111.371 344.834 440.843
1924 0 134.153 12.8808 1728 113.632 344.969 435.62
1925 0 140.225 12.9577 1817 113.684 344.912 430.608
1926 0 141.202 11.0268 1557 120.38 344.324 428.98
1927 1 80.1595 10.5165 843 113.127 344.476 460.911
1928 0 83.1214 11.3328 942 110.798 345.183 462.292
1929 0 82.0884 11.4876 943 112.492 345.558 457.58
1930 0 84.1014 10.5706 889 115.286 345.28 456.124
1931 0 90.132 12.0712 1088 111.956 345.222 458.063
1932 0 92.1207 11.3004 1041 117.163 344.979 455.823
1933 0 91.1045 10.1971 929 122.133 345.214 452.44
1934 0 96.1158 11.2156 1078 119.915 345.745 452.127
1935 0 99.2436 11.2854 1120 120.721 345.253 451.391
1936 0 104.096 13.4299 1398 115.068 345.177 451.383
1937 0 107.083 11.7666 1260 118.849 345.206 448.704
1938 0 109.216 12.1411 1326 118.461 345.044 446.643
1939 0 116.169 13.5837 1578 113.015 344.959 445.717
1940 0 116.087 11.2588 1307 120.849 345.712 442.992
1941 0 118.126 11.6147 1372 122.44 345.384 442.162
1942 0 124.175 12.6112 1566 119.713 345.494 439.121
1943 1 68.0759 9.82727 669 115.77 345.277 467.19
1944 0 73.1623 10.2238 748 117.906 345.406 464.553
1945 0 77.11 11.114 857 113.849 345.202 467.48
1946 0 76.0506 10.5982 806 118.21 346.124 462.798
1947 0 79.0981 10.822 856 117.214 346.06 463.978
1948 0 85.156 12.3421 1051 112.639 345.891 462.07
1949 0 88.2558 12.6904 1120 103.995 344.907 463.885
1950 0 88.2228 10.1108 892 109.416 344.58 461.322
1951 0 93.0948 11.2251 1045 105.579 344.865 462.372
1952 0 95.1295 11.4265 1087 106.373 345.199 461.017
1953 0 97.3149 11.1083 1081 108.234 344.587 460.316
1954 0 101.244 10.7364 1087 110.963 343.78 454.374
1955 0 104.275 10.7504 1121 109.951 344.547 455.797
1956 0 103.397 9.9616 1030 114.837 344.479 450.195
1957 0 109.365 10.7073 1171 113.952 345.213 450.45
1958 0 113.206 11.0242 1248 114.656 344.845 448.813
1959 0 113.308 10.67 1209 120.936 344.21 440.676
1960 0 121.498 12.4118 1508 118.743 343.696 442.68
1961 1 67.1926 12.2484 823 111.939 344.762 476.693
1962 0 69.2728 10.9855 761 109.551 344.423 473.564
1963 0 72.4596 10.2954 746 108.275 344.076 471.054
1964 0 72.1999 10.7479 776 109.439 343.751 467.192
1965 0 76.4811 10.7347 821 107.747 344.262 467.453
1966 0 79.2558 11.8603 940 105.447 344.388 465.61
1967 0 81.2299 10.5134 854 109.58 343.956 466.814
1968 0 84.467 11.5785 978 108.67 343.551 463.301
1969 0 87.3244 13.2036 1153 104.816 343.268 465.485
1970 0 91.3038 13.1758 1203 105.001 343.458 464.408
1971 0 93.4334 14.1063 1318 103.598 343.696 461.438
1972 0 94.4134 11.3967 1076 110.675 344.176 458.819
1973 0 98.4474 13.9872 1377 104.719 344.244 458.301
1974 0 101.227 12.4275 1258 110.221 344.165 457.884
1975 0 102.427 11.6571 1194 113.09 344.412 452.976
1976 0 106.522 12.4763 1329 109.601 344.336 453.567
1977 0 109.326 11.8636 1297 111.325 343.781 455.362
1978 0 113.325 12.7068 1440 112.361 343.58 451.693
1979 0 116.448 12.366 1440 114.283 344.504 452.24
1980 0 119.314 12.0103 1433 116.134 344.313 444.509
1981 0 121.333 12.2967 1492 116.395 343.422 443.377
1982 0 128.302 13.2656 1702 112.181 343.859 447.236
1983 0 133.61 12.8658 1719 114.264 344.359 440.496
1984 1 77.4855 10.5568 818 106.4 344.056 474.483
1985 0 80.2263 10.8817 873 105.782 344.904 471.645
1986 0 82.2241 11.3227 931 104.35 344.01 469.963
1987 0 87.2498 13.4785 1176 100.202 344.115 468.27
1988 0 88.3251 11.6049 1025 105.032 344.231 467.797
1989 0 92.2621 11.825 1091 103.418 344.28 467.846
1990 0 95.2383 12.117 1154 104.171 344.521 464.086
1991 0 98.1747 11.8768 1166 106.317 343.879 464.178
1992 0 101.214 12.103 1225 109.16 343.92 462.64
1993 0 104.2 11.1997 1167 111.869 343.488 462.924
1994 0 108.276 12.071 1307 110.081 344.245 460.133
1995 0 110.277 11.0268 1216 112.4 343.947 457.755
1996 0 114.318 10.9257 1249 111.808 343.986 456.936
1997 0 117.356 12.0233 1411 111.671 343.478 451.974
1998 0 120.394 12.293 1480 111.754 343.69 450.809
1999 0 124.535 13.1209 1634 111.267 343.846 448.196
2000 0 127.532 12.3185 1571 114.053 343.992 443.684
2001 0 131.65 12.989 1710 112.482 343.206 441.726
2002 0 136.416 12.8798 1757 112.221 344.074 440.549
2003 0 141.455 12.2441 1732 113.143 343.43 438.299
2004 1 77.2278 10.2683 793 103.591 343.683 473.055
2005 0 78.3192 11.3254 887 101.899 343.338 472.697
2006 0 82.1761 9.84471 809 105.394 343.731 470.507
2007 0 84.2232 12.0276 1013 101.603 343.817 468.177
2008 0 86.2997 11.6686 1007 102.347 344.178 467.772
2009 0 86.1913 10.6739 920 106.225 344.218 464.68
2010 0 91.2354 10.873 992 104.959 343.682 465.026
2011 0 94.1572 12.3411 1162 104.27 343.627 462.609
2012 0 97.2327 11.3439 1103 107.228 343.446 461.313
2013 0 99.2507 11.9596 1187 106.727 343.789 459.778
2014 0 100.214 11.8247 1185 108.617 343.672 455.763
2015 0 105.263 12.0935 1273 107.487 343.155 456.004
2016 0 108.253 11.3808 1232 108.151 343.061 456.903
2017 0 112.288 12.0138 1349 107.168 343.475 451.629
2018 0 113.264 8.86426 1004 115.009 343.667 450.222
2019 0 118.328 10.3357 1223 112.13 343.669 447.887
2020 1 67.1159 9.50595 638 104.654 343.928 478.361
2021 0 70.1837 10.2588 720 105.157 344.91 474
2022 0 73.1088 10.9016 797 101.846 343.92 474.457
2023 0 75.1399 10.2209 768 105.917 344.465 471.384
2024 0 78.1577 12.5643 982 101.482 344.631 471.078
2025 0 80.1592 10.7536 862 104.421 344.918 470.512
2026 0 82.1545 12.0505 990 101.484 344.619 467.562
2027 0 84.1413 11.0053 926 103.308 344.719 467.844
2028 0 89.1252 11.3997 1016 102.412 344.467 465.087
2029 0 93.1598 12.6127 1175 99.7532 344.318 465.648
2030 0 97.1222 11.2436 1092 103.012 344.275 464.085
2031 0 98.1545 11.543 1133 103.829 344.515 461.989
2032 0 102.147 12.247 1251 102.436 344.532 460.476
2033 0 106.143 12.6433 1342 102.73 344.489 458.405
2034 0 107.132 11.6772 1251 106.244 344.608 454.541
2035 0 111.286 11.9422 1329 105.279 344.969 454.974
2036 0 113.412 12.6529 1435 105.539 344.99 449.677
2037 0 117.327 11.7791 1382 107.545 344.342 446.95
2038 0 119.29 11.5601 1379 108.545 344.737 445.302
2039 0 125.557 12.5043 1570 105.997 344.694 444.824
2040 0 128.453 12.417 1595 108.021 345.034 441.859
2041 0 133.385 13.7872 1839 103.751 345.206 442.732
2042 0 136.367 11.1904 1526 109.607 345.231 440.588
2043 0 143.4 12.2734 1760 107.084 344.794 438.421
2044 0 145.55 10.3607 1508 110.829 344.828 438.364
2045 0 152.37 11.8855 1811 105.9 344.844 436.967
2046 1 88.2394 10.8115 954 100.032 345.089 470.892
2047 0 91.1879 11.1638 1018 100.293 344.572 465.911
2048 0 95.1753 12.0094 1143 97.4252 344.689 461.748
2049 0 98.1366 11.4942 1128 98.6099 345.074 461.054
2050 0 101.153 12.2883 1243 97.5543 345.294 461.054
2051 0 104.269 11.1539 1163 100.923 344.975 460.386
2052 0 107.267 10.9819 1178 102.715 344.425 458.161
2053 0 111.219 11.5358 1283 102.274 344.865 456.345
2054 0 112.293 10.6953 1201 105.517 345.137 452.221
2055 0 117.206 13.088 1534 100.116 344.723 454.21
2056 0 118.216 11.9866 1417 103.399 345.175 453.577
2057 0 123.248 10.8399 1336 106.894 344.552 448.469
2058 0 126.291 12.5187 1581 103.68 344.788 449.693
2059 0 129.595 11.3739 1474 106.71 344.401 447.145
2060 0 131.307 12.071 1585 106.549 343.9 441.676
2061 0 137.48 12.5036 1719 106.507 344.419 443.574
2062 0 140.393 11.6744 1639 110.067 344.82 440.121
2063 0 145.299 12.2506 1780 109.533 344.263 436.504
2064 0 152.368 13.9925 2132 104.343 344.103 436.228
2065 0 158.294 12.2367 1937 110.747 344.856 434.689
2066 0 163.341 13.9953 2286 110.682 344.185 428.699
2067 0 168.529 12.8821 2171 112.725 344.289 429.528
2068 1 93.1836 11.2895 1052 109.257 344.718 463.215
2069 0 96.3084 13.5606 1306 104.744 344.655 463.388
2070 0 97.2894 12.3241 1199 108.599 344.897 458.99
2071 0 101.351 12.5899 1276 103.926 344.333 460.327
2072 0 103.261 11.2337 1160 108.367 344.434 457.844
2073 0 108.359 12.9938 1408 104.098 344.52 459.08
2074 0 109.25 12.4852 1364 106.132 343.466 456.674
2075 0 109.401 10.7495 1176 112.007 344.468 454.7
2076 0 114.543 11.8645 1359 109.114 344.668 453.043
2077 0 119.507 13.2209 1580 108.658 344.206 448.942
2078 0 123.623 14.5523 1799 106.527 343.868 446.933
2079 0 125.61 13.2553 1665 108.744 344.47 447.376
2080 0 128.678 12.2787 1580 111.823 344.18 442.519
2081 0 135.663 13.6294 1849 107.582 343.959 440.672
2082 0 135.52 11.5998 1572 112.621 343.875 437.054
2083 0 140.616 13.6257 1916 108.771 343.573 433.827
2084 0 143.671 11.8396 1701 112.748 343.605 431.773
2085 0 149.564 12.7772 1911 110.002 344.236 431.153
2086 0 153.532 13.209 2028 108.419 343.803 425.489
2087 0 155.512 11.8769 1847 112.16 344.155 423.113
2088 0 164.652 13.3979 2206 109.669 343.886 419.764
2089 0 169.596 13.5911 2305 107.263 344.033 421.272
2090 1 102.444 9.9371 1018 105.537 343.634 456.204
2091 0 106.549 11.5158 1227 103.134 343.792 454.189
2092 0 109.451 12.6084 1380 102.886 343.293 450.798
2093 0 112.767 12.5569 1416 104.513 343.328 446.713
2094 0 115.613 11.9537 1382 106.077 343.249 445.246
2095 0 120.592 12.1732 1468 104.576 343.382 444.226
2096 0 121.677 11.3744 1384 107.168 343.941 441.324
2097 0 126.708 12.3907 1570 104.578 344.054 439.684
2098 0 128.846 12.3403 1590 105.163 343.55 436.72
2099 0 133.746 12.4788 1669 104.331 343.071 437.2
2100 0 139.65 11.9942 1675 104.605 343.231 434.489
2101 0 142.558 11.3287 1615 105.446 343.703 434.621
2102 0 146.554 12.5756 1843 104.37 343.777 427.813
2103 0 152.603 12.0836 1844 106.055 343.871 428.782
2104 0 155.711 12.1892 1898 105.368 344.28 431.169
2105 1 89.3988 10.5482 943 99.6649 343.451 466.175
2106 0 92.6343 10.3957 963 104.82 343.306 458.043
2107 0 95.4878 11.7921 1126 100.864 342.745 460.139
2108 0 94.427 9.80652 926 108.481 343.151 456.178
2109 0 102.458 11.3608 1164 105.647 343.042 455.909
2110 0 106.274 13.1829 1401 103.236 343.098 453.197
2111 0 107.303 13.0192 1397 105.534 342.337 451.431
2112 0 110.433 11.3371 1252 109.544 342.649 452.936
2113 0 111.456 10.1744 1134 114.55 342.453 448.157
2114 0 116.394 12.011 1398 110.91 342.497 449.448
2115 0 117.371 12.2262 1435 113.075 342.948 442.563
2116 0 122.176 11.9991 1466 113.733 342.939 443.643
2117 0 126.421 12.2606 1550 113.568 343.112 444.741
2118 0 129.379 13.5417 1752 112.216 343.228 439.43
2119 0 135.477 12.4006 1680 114.687 342.862 439.345
2120 0 139.325 12.9051 1798 114.379 342.156 437.793
2121 0 142.535 13.7229 1956 112.751 343.098 434.66
2122 0 147.454 13.2855 1959 114.177 343.179 430.012
2123 0 151.345 13.7302 2078 112.841 342.706 427.968
2124 1 81.2279 9.9227 806 116.794 342.7 459.635
2125 0 87.2333 11.945 1042 111.116 343.088 464.817
2126 0 90.2517 12.4762 1126 110.882 342.005 465.107
2127 0 93.3237 13.7586 1284 108.63 342.347 462.794
2128 0 95.19 13.7409 1308 110.039 341.86 461.557
2129 0 95.1206 12.5525 1194 114.757 342.007 457.757
2130 0 100.267 13.7633 1380 111.025 342.274 457.339
2131 0 103.303 12.8458 1327 114.05 341.723 453.8
2132 0 106.217 12.9546 1376 115.06 341.809 454.191
2133 0 110.155 15.0788 1661 109.416 342.099 453.143
2134 0 112.218 13.3491 1498 114.049 342.168 451.141
2135 0 114.306 12.5366 1433 117.129 342.513 447.456
2136 0 117.309 13.7842 1617 114.882 342.221 447.554
2137 0 120.417 13.2374 1594 116.659 342.563 446.161
2138 0 123.281 13.092 1614 117.46 342.936 446.01
2139 0 128.204 14.6173 1874 113.012 342.796 443.935
2140 0 129.27 13.8315 1788 116.514 342.82 439.088
2141 0 135.306 14.1309 1912 114.619 342.91 441.082
2142 0 139.551 13.7154 1914 114.868 342.765 440.119
2143 0 142.245 15.0023 2134 111.966 342.615 438.288
2144 0 146.298 13.9032 2034 115.865 342.904 433.977
2145 0 151.281 15.1771 2296 113.278 342.525 430.296
2146 0 159.489 14.4336 2302 114.265 342.864 426.508
2147 0 162.331 13.7189 2227 116.402 342.462 424.435
2148 1 95.4278 10.3324 986 114.317 342.806 458.108
2149 0 98.38 11.1811 1100 112.975 342.802 455.606
2150 0 96.3119 11.4212 1100 115.745 343.377 442.429
2151 0 103.269 10.768 1112 115.242 343.194 446.658
2152 0 107.382 10.635 1142 116.468 343.972 444.464
2153 0 114.278 14.316 1636 106.054 342.928 446.321
2154 0 113.298 11.9772 1357 113.274 342.907 446.381
2155 0 116.353 12.3675 1439 114.119 342.295 440.937
2156 0 121.291 11.6744 1416 114.78 342.877 438.287
2157 0 122.402 9.75472 1194 120.446 342.889 433.093
2158 1 15.007 3.7316 56 84 340.804 500.875
2159 0 19.032 5.56957 106 83.7925 340.491 498.849
2160 0 17.0052 4.52804 77 84.9351 341.26 496.753
2161 0 17.0335 6.45786 110 82.4909 340.236 497.736
2162 0 16.0188 6.5548 105 81.3429 340.771 500.457
2163 0 20.0057 6.49814 130 80.4385 341.869 500.4
2164 0 15.0068 3.73163 56 74.7143 343.036 493.982
2165 0 11.0008 6.36317 70 69.7857 343.314 501.657
2166 0 18.1516 6.00499 109 82.7798 345.615 498.385
2167 0 22.0014 5.31783 117 82.453 343.556 498.59
2168 0 23.0171 7.73338 178 79.0787 343.82 499
2169 0 22.0126 5.04257 111 82.2793 344.396 497.64
2170 0 22.0287 5.22047 115 80.287 343.539 502.191
2171 0 14.002 6.78473 95 78.3158 342.747 502.737
2172 0 19.0009 3.78929 72 83.25 342.236 500.375
2173 0 19.032 2.99496 57 84.5263 342.649 499.632
2174 0 24.0064 7.45635 179 77.6983 342.57 500.101
2175 0 19.0145 6.10062 116 81.6034 342 497.75
2176 0 21.0171 6.32817 133 79.3534 343.271 500.436
2177 0 20.0025 5.29933 106 81.5566 343.896 500.217
2178 0 19.015 6.9419 132 81.1288 343.932 498.727
2179 0 22.0183 5.63167 124 82.879 344.298 496.113
2180 0 18.0138 3.16424 57 86.7368 345.351 496.825
2181 0 23.0088 5.86733 135 84.0148 344.948 496.237
2182 0 20.003 5.44919 109 85.6789 345.982 493.853
2183 0 19.0035 1.94701 37 88.9459 343.919 497.405
2184 1 173.271 11.2367 1947 108.52 342.299 418.858
2185 1 108.217 8.48293 918 103.343 342.593 445.217
2186 1 23.0038 3.99934 92 86.7935 344.446 499.457
2187 0 24.0048 3.83257 92 87.3152 346 497.348
2188 0 25.0159 6.67575 167 82.982 345.048 498.186
2189 0 27.0151 6.5889 178 83.7135 345.264 497.893
2190 0 24.0215 6.70232 161 84.3478 345.348 498.335
2191 0 19.0079 3.10398 59 90.2203 345.153 498.153
2192 0 25.0227 7.07357 177 84.5932 345.525 497.554
2193 0 17.0099 6.99591 119 83.4622 345.034 499.958
2194 0 19.0024 3.84162 73 87.6849 346.315 500.233
2195 0 21.0193 5.70903 120 86.0583 345.092 499.208
2196 0 25.0323 4.99355 125 86.776 341.92 496.016
2197 0 22.0908 3.9383 87 86.3218 340.391 496.069
2198 0 21.0485 4.37085 92 85.9674 340.228 495.326
2199 0 16.0038 5.37374 86 86.1163 339.802 496.047
2200 0 19.0071 1.10485 21 91.1429 340.476 497
2201 0 23.048 4.72925 109 85.3945 340.422 495.908
2202 0 21.0471 3.37339 71 88.3521 340.465 495.803
2203 0 20.0048 6.1985 124 84.629 339.798 497.202
2204 0 18.0031 2.7773 50 87.68 340.32 497.92
2205 0 21.0161 6.04299 127 85.3622 340.157 497.157
2206 0 26.015 4.95868 129 85.6899 339.961 496.07
2207 0 16.0048 4.12375 66 87.6667 340.803 496.636
2208 0 18.0313 3.60485 65 90.0769 342.277 498.292
2209 0 18.0025 3.22177 58 88.3621 341.966 499.672
2210 0 18.0056 4.60967 83 87.7108 342.325 499.289
2211 0 21.0446 5.79721 122 87.6148 342.746 496.131
2212 1 158.208 10.6 1677 103.069 342.148 429.886
2213 0 164.313 11.2286 1845 101.778 342.815 426.601
2214 0 171.305 12.0954 2072 98.9213 342.682 426.712
2215 0 172.319 10.8346 1867 103.994 341.815 421.762
2216 0 179.461 11.5234 2068 103.538 341.795 420.42
2217 0 183.353 12.0969 2218 102.933 341.833 419.594
2218 0 189.265 10.5883 2004 106.491 341.967 413.598
2219 0 192.146 10.6377 2044 108.712 341.561 400.988
2220 0 202.377 11.612 2350 107.698 342.105 401.544
2221 0 204.202 11.1605 2279 108.921 341.875 399.864
2222 0 212.358 12.3282 2618 107.434 342.447 394.566
2223 0 216.325 11.5891 2507 108.576 342.272 397.251
2224 0 222.266 11.9721 2661 109.299 342.298 389.267
2225 0 226.433 10.8509 2457 115.041 343.9 384.943
2226 0 236.441 12.3371 2917 113.049 344.104 383.067
2227 0 241.293 11.5254 2781 115.024 343.874 379.951
2228 0 245.453 11.1631 2740 117.269 344.136 374.153
2229 0 251.446 12.1299 3050 116.605 344.133 368.789
2230 0 259.37 12.0947 3137 117.073 343.415 363.948
2231 0 267.548 14.831 3968 111.281 343.24 354.392
2232 0 279.713 16.5705 4635 107.323 343.316 351.9
2233 1 76.3261 9.3939 717 105.305 344.025 457.29
2234 0 81.3792 9.87968 804 102.978 343.963 459.08
2235 0 81.1938 8.54745 694 95.3429 343.705 454.262
2236 0 86.0819 10.3855 894 95.2125 342.185 458.915
2237 0 82.2512 7.29473 600 105.947 342.608 450.78
2238 0 86.1462 7.54531 650 105.512 342.791 452.963
2239 0 91.2105 9.04501 825 101.798 343.17 455.611
2240 0 92.2391 9.94155 917 101.214 343.074 454.031
2241 0 95.2017 9.55865 910 103.575 342.601 451.432
2242 0 101.202 11.8081 1195 98.5531 343.679 455.3
2243 0 100.347 9.81595 985 104.534 344.425 439.255
2244 0 101.418 10.0673 1021 106.265 343.63 439.465
2245 1 19.0029 2.73643 52 82.7308 346.442 493.885
2246 0 18.0015 2.77755 50 83.14 345.7 496.56
2247 0 12.001 3.1664 38 83.2632 346.974 493.132
2248 0 13.0004 6.23057 81 80.3457 346.975 490.654
2249 0 11.0054 3.54373 39 83.0513 345.769 491.051
2250 0 16.0022 3.6245 58 83.1379 344.897 493.431
2251 1 125.343 9.86098 1236 111.765 343.844 434.559
2252 0 130.261 11.7533 1531 108.688 343.476 439.799
2253 0 134.243 11.3227 1520 110.253 343.947 443.162
2254 1 78.1497 9.92967 776 103.054 342.11 470.494
2255 0 85.2389 11.3681 969 102.273 342.23 465.103
2256 0 86.197 11.8566 1022 101.57 342.79 467.377
2257 0 86.1523 10.8064 931 103.735 342.169 467.789
2258 0 90.1845 12.1529 1096 103.482 341.975 467.297
2259 0 92.1663 11.2731 1039 106.266 342.227 467.038
2260 0 95.1687 12.357 1176 103.946 341.957 468.254
2261 0 96.2292 12.5222 1205 105.773 342.305 464.322
2262 0 100.204 11.5265 1155 109.367 342.177 464.874
2263 0 102.194 12.2903 1256 108.972 342.039 464.35
2264 0 104.12 12.3031 1281 111.576 341.415 463.581
2265 0 107.145 11.2838 1209 114.505 341.366 465.847
2266 0 111.177 11.855 1318 110.981 340.764 465.067
2267 0 110.217 11.7042 1290 113.763 340.45 459.775
2268 0 114.146 10.7581 1228 115.886 340.583 460.375
2269 0 117.2 11.2116 1314 114.456 339.833 461.816
2270 0 121.158 11.1178 1347 115.66 339.816 459.278
2271 0 125.125 11.6923 1463 115.034 340.008 459.532
2272 0 130.237 12.8765 1677 110.795 340.125 454.989
2273 0 132.28 11.9972 1587 114.246 339.876 452.698
2274 0 135.286 10.6367 1439 118.21 339.519 452.305
2275 0 139.224 12.8355 1787 115.542 339.961 448.903
2276 0 142.202 11.343 1613 118.578 339.522 447.942
2277 0 146.279 11.0474 1616 120.303 339.878 440.887
2278 0 154.388 13.1746 2034 115.182 339.877 437.965
2279 1 91.2862 9.91388 905 112.393 339.499 468.53
2280 0 92.247 10.8079 997 107.923 339.67 470.875
2281 0 94.1481 10.6109 999 110.972 338.829 465.772
2282 0 97.0923 10.7012 1039 107.789 337.386 469.798
2283 0 100.157 11.7316 1175 112.482 337.186 465.657
2284 0 102.158 11.2081 1145 112.501 336.824 464.497
2285 0 104.171 11.3851 1186 111.137 336.947 466.585
2286 0 109.121 11.556 1261 111.027 336.692 460.166
2287 0 108.156 10.8917 1178 113.608 336.911 458.032
2288 0 111.094 10.4956 1166 113.145 336.575 454.242
2289 0 113.264 10.63 1204 104.499 337.037 456.342
2290 1 39.0687 3.94177 154 98.3182 338.695 495.026
2291 0 38.1002 2.15222 82 94.1341 340.5 504.073
2292 1 124.311 10.0635 1251 107.75 338.276 449.563
2293 0 130.143 11.495 1496 106.432 338.305 450.751
2294 0 134.253 10.1748 1366 108.572 338.152 445.771
2295 0 139.35 10.1112 1409 109.622 338.386 443.674
2296 0 143.246 11.4488 1640 106.151 338.729 445.977
2297 0 149.19 10.376 1548 110.824 338.841 432.096
2298 0 155.159 11.0338 1712 108.146 338.202 439.667
2299 0 158.282 9.77367 1547 112.833 337.257 429.236
2300 1 94.2818 10.0762 950 95.3842 338.259 471.488
2301 0 96.2262 9.12433 878 98.082 338.198 468.73
2302 0 100.13 8.66874 868 99.2673 337.508 471.079
2303 0 104.2 10.2303 1066 98.1426 337.364 468.809
2304 0 106.171 8.69354 923 101.269 336.84 467.347
2305 1 12.009 3.66392 44 80.9091 339.045 518.795
2306 0 18.0156 7.16044 129 79.4574 337.791 515.504
2307 1 114.191 9.72933 1111 102.407 337.393 461.199
2308 0 120.135 10.3134 1239 100.855 337.457 460.91
2309 0 121.212 8.75327 1061 105.501 337.277 455.618
2310 0 123.326 9.22759 1138 104.539 337.091 456.421
2311 0 127.168 8.04445 1023 106.774 337.279 453.443
2312 0 134.248 10.6147 1425 100.788 337.486 455.785
2313 0 137.41 11.5203 1583 100.679 337.74 448.994
2314 0 138.406 10.5848 1465 103.42 337.242 446.333
2315 0 143.383 9.12239 1308 107.093 337.709 441.707
2316 0 149.693 11.8776 1778 102.515 337.581 444.861
2317 0 155.532 10.4738 1629 105.611 337.709 443.513
2318 0 159.788 11.1898 1788 104.21 338.03 446.847
2319 0 162.39 9.9144 1610 110.728 337.955 435.135
2320 0 167.676 10.9557 1837 109.727 338.155 430.319
2321 1 98.2137 10.1106 993 106.077 338.328 466.155
2322 0 102.187 10.0992 1032 106.938 338.427 462.823
2323 0 104.4 11.772 1229 98.3108 338.535 467.483
2324 0 108.476 10.9701 1190 100.666 338.411 464.939
2325 0 109.334 11.2682 1232 102.788 338.554 461.13
2326 0 112.449 11.1607 1255 103.222 339.047 458.983
2327 0 114.46 11.1654 1278 103.52 338.448 456.059
2328 0 119.387 10.9978 1313 104.038 338.198 456.599
2329 0 122.438 11.4507 1402 104.077 337.93 455.106
2330 0 123.556 10.7563 1329 107.383 337.954 450.123
2331 0 120.138 10.954 1316 110.088 339.176 450.663
2332 0 122.164 10.3795 1268 111.629 339.101 450.695
2333 0 128.155 10.3078 1321 110.036 339.083 447.952
2334 0 133.261 10.1305 1350 109.81 338.661 442.832
2335 0 138.365 10.9782 1519 108.169 338.092 443.858
2336 0 144.244 11.8411 1708 106.506 338.493 441.411
2337 0 151.287 12.0764 1827 105.79 338.163 440.025
2338 0 150.226 10.3577 1556 112.598 338.125 430.763
2339 0 160.327 11.4828 1841 109.203 337.79 431.134
2340 0 166.334 12.4509 2071 107.257 338.057 430.928
2341 0 172.33 11.8783 2047 109.62 338.044 424.504
2342 0 178.437 12.1444 2167 109.839 338.054 420.397
2343 1 108.184 10.1031 1093 106.658 338.042 460.213
2344 0 110.278 10.664 1176 109.387 338.585 453.589
2345 0 114.225 10.8733 1242 111.008 338.036 448.636
2346 0 118.183 11.8461 1400 108.757 338.774 450.778
2347 0 120.24 11.4188 1373 111.07 338.456 446.391
2348 0 123.268 11.6251 1433 110.927 338.83 445.391
2349 0 126.289 11.149 1408 113.022 338.39 444.923
2350 0 128.219 11.262 1444 114.701 339.103 436.747
2351 0 134.235 12.8059 1719 110.46 338.923 442.23
2352 0 134.277 11.0741 1487 116.943 338.586 435.249
2353 0 138.223 11.1125 1536 117.243 339.456 432.85
2354 0 138.218 11.1201 1537 160.798 341.455 432.712
2355 0 146.368 11.7102 1714 117.803 339.486 428.219
2356 0 153.418 12.9972 1994 113.69 339.581 429.378
2357 0 159.446 12.2612 1955 115.535 339.218 425.622
2358 0 162.509 11.7962 1917 112.106 340.15 421.204
2359 1 92.2906 10.0227 925 107.721 340.56 453.858
2360 0 88.2396 9.78019 863 113.158 340.498 446.993
2361 0 96.1992 12.1103 1165 109.245 340.512 450.249
2362 0 100.213 12.3636 1239 111.682 340.777 449.112
2363 0 101.15 10.1731 1029 117.84 340.337 443.941
2364 0 102.229 12.6285 1291 112.175 339.899 444.586
2365 0 108.19 11.6832 1264 114.237 339.959 440.339
2366 0 111.188 11.7998 1312 112.594 340.384 440.694
2367 0 114.248 11.8252 1351 110.09 339.888 443.353
2368 0 115.115 11.2323 1293 111.906 340.348 439.74
2369 0 118.376 12.6631 1499 107.859 340.172 441.111
2370 0 121.208 11.7979 1430 111.944 340.23 433.588
2371 0 126.237 12.6191 1593 108.777 339.918 433.947
2372 0 128.304 12.5327 1608 108.983 341.001 429.216
2373 0 130.193 12.1358 1580 110.665 340.607 426.441
2374 0 132.282 12.5489 1660 110.036 341.26 424.694
2375 0 140.341 12.1418 1704 109.404 341.299 422.566
2376 0 146.319 12.8965 1887 107.847 340.636 420.329
2377 0 146.456 12.6659 1855 109.339 340.64 416.502
2378 0 154.356 12.4129 1916 109.2 340.937 414.447
2379 0 155.263 12.8234 1991 108.937 341.057 409.093
2380 0 164.539 12.38 2037 109.309 340.761 406.45
2381 1 100.429 12.3968 1245 104.002 340.716 445.282
2382 0 102.367 11.3709 1164 107.55 341.351 439.842
2383 0 106.289 10.876 1156 107.55 341.26 443.354
2384 0 105.267 12.3876 1304 104.788 340.46 440.86
2385 0 110.243 12.5269 1381 104.655 340.374 438.15
2386 0 114.261 12.9003 1474 103.746 341.333 438.366
2387 0 111.341 12.5291 1395 107.285 341.46 431.56
2388 0 116.209 11.6686 1356 108.327 341.032 434.538
2389 0 119.249 13.216 1576 105.509 341.159 431.603
2390 1 128.417 12.1869 1565 106.936 341.15 426.817
2391 0 130.269 11.5991 1511 108.862 340.777 425.739
2392 0 133.287 13.9548 1860 104.033 340.82 426.361
2393 0 143.347 13.1151 1880 105.499 340.848 424.075
2394 0 148.336 12.0133 1782 107.63 341.437 421.372
2395 1 85.3934 10.1413 866 104.415 341.391 451.864
2396 0 91.2328 12.0023 1095 101.808 341.309 446.284
2397 0 91.3043 12.2667 1120 101.646 341.767 451.588
2398 0 92.2482 11.946 1102 104.569 341.835 449.733
2399 0 98.2457 12.8453 1262 103.262 341.587 450.449
2400 0 100.277 12.1165 1215 106.174 341.298 447.869
2401 0 104.317 12.2224 1275 106.882 341.687 448.321
2402 0 104.397 11.37 1187 110.758 341.459 443.238
2403 0 109.251 11.8077 1290 110.017 341.202 445.441
2404 0 113.22 13.3633 1513 105.79 341.588 445.501
2405 0 111.202 12.5717 1398 109.973 341.172 438.861
2406 0 115.3 10.4423 1204 114.836 341.298 438.874
2407 0 122.198 12.9298 1580 109.432 341.719 438.913
2408 0 124.28 11.8603 1474 112.82 341.65 435.185
2409 0 127.385 11.6889 1489 114.636 342.541 433.681
2410 0 128.237 12.3599 1585 114.662 342.516 431.092
2411 0 129.332 11.6985 1513 118.43 341.717 425.46
2412 0 137.287 11.2684 1547 118.72 341.485 426.555
2413 0 139.286 10.1446 1413 122.427 341.851 423.347
2414 0 139.222 11.9091 1658 119.69 342.496 417.809
2415 1 82.2063 8.68547 714 114.832 342.929 453.343
2416 0 87.1859 10.7127 934 113.123 343.654 450.786
2417 0 88.0698 10.7869 950 115.22 342.077 448.488
2418 0 92.1618 9.76544 900 109.468 342.184 447.342
2419 0 97.2846 11.6565 1134 99.94 341.974 448.801
2420 0 98.1382 9.31339 914 107.165 341.907 441.804
2421 0 103.487 11.2671 1166 102.771 341.978 445.877
2422 0 107.246 11.9072 1277 101.934 342.245 443.264
2423 0 103.202 11.6083 1198 105.851 342.381 435.69
2424 0 112.243 10.9228 1226 106.593 342.389 436.612
2425 0 115.432 12.5702 1451 102.751 341.924 435.616
2426 0 121.225 11.3755 1379 105.191 341.637 436.825
2427 0 117.335 11.872 1393 106.787 342.726 434.677
2428 0 125.283 11.8851 1489 107.676 342.39 432.858
2429 0 128.323 12.1101 1554 107.479 342.425 433.382
2430 0 127.25 11.4263 1454 112.059 342.758 431.525
2431 0 131.22 11.3626 1491 121.129 343.541 433.296
2432 0 141.213 12.6688 1789 115.13 343.078 433.761
2433 0 143.178 12.5159 1792 115.914 342.356 429.532
2434 0 149.318 13.4076 2002 112.586 341.298 429.713
2435 0 154.278 11.6802 1802 116.423 340.861 424.926
2436 0 160.219 13.9309 2232 109.154 341.738 427.099
2437 0 161.225 12.4918 2014 115.972 341.407 416.427
2438 0 163.2 12.4878 2038 118.113 341.475 415.705
2439 0 170.425 12.6977 2164 115.456 343.087 416.55
2440 0 170.162 12.9524 2204 119.598 342.322 407.305
2441 0 175.372 13.6111 2387 116.956 342.488 405.293
2442 0 178.374 13.3035 2373 118.074 342.249 401.071
2443 0 175.174 12.6674 2219 121.949 341.855 392.667
2444 1 108.217 10.6452 1152 112.231 341.862 439.493
2445 0 118.131 12.1644 1437 111.246 341.364 438.64
2446 0 120.279 11.4816 1381 114.025 342.549 437.458
2447 0 122.226 10.7097 1309 116.691 342.353 436.315
2448 0 121.183 11.429 1385 117.97 341.311 428.872
2449 0 124.271 12.1428 1509 115.203 341.179 429.329
2450 0 129.226 11.6076 1500 117.331 342.051 426.201
2451 0 139.328 12.7899 1782 114.889 341.48 421.68
2452 0 140.247 12.5422 1759 116.652 341.443 418.5
2453 1 88.1963 9.77366 862 113.914 341.883 454.639
2454 0 93.2109 9.46241 882 116.393 340.498 453.346
2455 0 99.5018 10.4621 1041 111.028 341.113 454.426
2456 0 102.603 10.8087 1109 113.003 341.729 458.127
2457 0 107.49 11.6197 1249 110.546 342.104 454.614
2458 0 109.441 11.1202 1217 114.058 342.083 448.316
2459 1 23.1654 4.05778 94 94.7979 344.426 499.117
2460 0 23.2091 6.24755 145 93.2 345.303 495.924
2461 0 21.0593 6.55292 138 91.3261 344.855 499.384
2462 0 20.076 4.93125 99 95.7475 344.697 497.212
2463 0 20.0636 6.03081 121 93.5289 345.455 497.653
2464 0 22.1527 6.36492 141 94.2482 345.22 496.326
2465 0 19.044 5.46104 104 93.2885 345.173 499.462
2466 0 21.0081 2.52284 53 93.2453 344.755 494.623
2467 0 17.0138 6.3478 108 84.9815 345.139 494.556
2468 0 15.0036 1.66627 25 89 343.96 495.4
2469 0 12.005 2.91546 35 85.6 342.571 502.114
2470 0 13.0028 3.99915 52 92.7692 340.981 503.327
2471 0 17.0021 4.52886 77 94.3247 340.727 501.675
2472 0 22.0077 6.40685 141 92.2057 339.681 498.83
2473 0 22.012 4.49755 99 92.8687 340.869 498.434
2474 0 19.0067 1.94669 37 94.9459 340.676 502.027
2475 0 22.0107 5.45189 120 88.0583 340.35 501.317
2476 0 21.0048 3.52301 74 91.473 340.811 501.838
2477 0 18.0043 5.60976 101 91.6436 340.713 499.752
2478 0 15.0043 7.66445 115 88.9304 340.93 501.087
2479 0 18.0033 6.55435 118 91.161 340.712 500.229
2480 0 20.004 6.59869 132 91.3409 341.318 498.848
2481 0 17.0278 6.75366 115 88.7391 340.835 500.165
2482 0 18.0411 5.09947 92 90.4674 340.12 499.413
2483 0 19.0042 4.26222 81 93.1975 340.296 496.568
2484 0 21.0043 4.57048 96 93.6354 340.792 499.094
2485 0 28.0442 7.09593 199 91.3568 345.673 496.563
2486 0 27.0272 3.14498 85 93.8706 345.153 499.506
2487 0 28.031 5.52958 155 91.1935 345.297 498.626
2488 0 23.0033 1.91277 44 94.8182 345.136 498.477
2489 0 22.0089 1.95375 43 91.814 344.93 491.744
2490 0 16.0219 6.74078 108 77.5093 344.167 491.843
2491 0 18.0487 3.71218 67 80.9701 343.582 490.701
2492 1 156.315 11.6495 1821 116.184 342.298 412.127
2493 0 164.228 12.3182 2023 115.353 342.453 411.512
2494 0 167.387 12.3904 2074 116.551 342.419 406.158
2495 0 172.244 12.0353 2073 118.651 342.707 401.842
2496 1 24.1459 2.02933 49 81.2041 344.327 494
2497 0 22.0397 2.67699 59 85.3729 344.322 488.949
2498 0 24.0452 3.99249 96 83.8958 344.24 489.125
2499 0 27.1182 4.60946 125 83.448 344.24 487.816
2500 0 29.0453 2.65103 77 85.2208 344.442 490.234
2501 0 32.2271 4.28211 138 83.1522 343.833 492.37
2502 0 29.1085 2.37044 69 85.1739 343.87 494.203
2503 0 23.0599 6.80834 157 80.2611 343.854 496.344
2504 0 28.0746 5.77035 162 81.3519 344.253 495.037
2505 0 28.0348 3.35297 94 87.4681 343.872 489.606
2506 0 30.0454 4.42663 133 85.7895 343.586 493.015
2507 0 28.1473 4.68962 132 84.5985 343.136 493.136
2508 0 32.0225 4.65299 149 86.2685 343.886 488.121
2509 0 28.0411 4.95702 139 84.9712 343.928 487.964
2510 0 21.0329 3.0904 65 86.2769 342.908 492.785
2511 0 22.1304 4.92535 109 82.7523 341.752 491.606
2512 1 204.507 10.6598 2180 121.537 342.312 386.693
2513 0 208.531 11.4755 2393 119.891 342.295 384.804
2514 0 216.579 11.6355 2520 119.646 342.532 381.335
2515 0 223.628 11.6354 2602 119.98 343.101 380.771
2516 0 231.466 11.492 2660 120.603 342.782 378.576
2517 0 237.562 11.1971 2660 121.345 342.692 375.404
2518 0 244.632 11.9486 2923 120.795 342.542 367.409
2519 1 182.643 6.6359 1212 121.643 342.841 403.999
2520 0 184.274 9.32849 1719 116.995 342.965 404.906
2521 0 190.514 10.5294 2006 116.043 343.233 402.985
2522 0 194.491 11.0597 2151 116.754 342.399 399.676
2523 0 199.633 11.0452 2205 119.491 343.698 392.68
2524 0 201.432 11.1949 2255 120.69 343.437 388.433
2525 0 208.657 10.673 2227 121.368 343.854 388.899
2526 0 215.612 10.7276 2313 121.506 343.839 389.745
2527 0 225.608 12.4508 2809 116.797 343.429 390.106
2528 0 231.571 11.5516 2675 119.865 343.172 387.592
2529 1 176.516 10.1747 1796 111.814 343.991 419.673
2530 0 179.437 9.92547 1781 115.751 343.988 406.915
2531 0 182.616 10.4919 1916 116.199 343.661 402.974
2532 0 187.615 9.70073 1820 118.652 344.14 400.519
2533 0 193.647 10.7257 2077 115.469 343.614 401.113
2534 0 200.852 11.0679 2223 116.148 342.986 397.502
2535 0 203.81 10.7159 2184 117.859 343.497 392.794
2536 0 209.897 11.3818 2389 117.093 344.041 392.989
2537 0 216.736 10.9349 2370 118.946 343.546 388.71
2538 0 221.855 11.8546 2630 118.006 342.665 383.725
2539 0 229.035 11.9676 2741 119.032 343.158 378.219
2540 0 232.984 11.5673 2695 120.805 343.023 376.027
2541 0 237.879 12.7376 3030 119.289 343.161 369.751
2542 0 243.835 12.6561 3086 118.818 343.001 374.002
2543 0 245.821 12.2854 3020 122.469 343.545 361.203
2544 0 254.573 11.9337 3038 122.644 343.104 363.246
2545 0 260.689 12.2099 3183 122.715 343.175 359.542
2546 0 267.538 12.0282 3218 122.389 342.808 354.88
2547 1 295.501 20.626 6095 96.2149 342.271 321.664
2548 0 300.698 20.0367 6025 98.8075 342.978 327.539
2549 0 303.703 20.9448 6361 100.023 343.529 325.408
2550 0 296.611 14.1667 4202 121.365 343.996 336.54
2551 0 299.714 9.83269 2947 130.359 343.236 349.44
2552 0 302.781 7.87698 2385 126.198 343.439 376.007
2553 0 299.641 8.45346 2533 127.133 343.337 370.181
2554 0 300.605 7.98723 2401 131.257 343.827 361.786
2555 1 31.0675 6.85605 213 81.6714 345.423 490.714
2556 0 31.0081 7.51417 233 81.8541 344.841 487.433
2557 0 32.036 6.92971 222 84.545 345.216 489.18
2558 0 33.011 5.96771 197 87.8274 343.827 485.437
2559 0 34.0477 7.51886 256 84.4219 342.883 489.797
2560 0 41.1081 6.66535 274 85.6569 343.409 486.529
2561 0 37.0556 6.44977 239 86.2092 344.803 486.389
2562 0 36.2132 5.52286 200 88.28 344.79 489.425
2563 0 40.3953 5.44617 220 90.5227 344.336 486.005
2564 0 364.119 14.9155 5431 118.89 343.712 300.993
2565 0 374.355 14.2031 5317 121.497 343.158 289.744
2566 0 388.491 15.5756 6051 117.42 343.766 280.582
2567 0 397.408 15.5885 6195 116.646 343.936 284.399
2568 0 409.127 16.3959 6708 114.271 343.086 270.039
2569 0 375.301 14.8068 5557 116.476 343.886 262.177
2570 0 372.524 15.4165 5743 113.954 344.167 270.723
2571 0 374.501 16.2029 6068 112.796 343.175 275.218
2572 0 367.473 14.6541 5385 115.787 343.136 278.485
2573 0 381.512 16.1541 6163 111.693 343.071 287.723
2574 0 393.745 17.4174 6858 109.511 342.853 273.934
2575 0 405.638 17.136 6951 110.682 342.265 268.318
2576 0 419.932 16.5241 6939 110.216 341.951 256.899
2577 1 158.593 9.31316 1477 97.6689 342.841 413.206
2578 0 154.476 11.7818 1820 94.4989 342.702 404.309
2579 0 168.659 16.6431 2807 82.4457 343.261 410.763
2580 0 171.826 14.6718 2521 87.6359 342.819 406.138
2581 0 174.713 15.9805 2792 85.5315 342.795 407.597
2582 0 179.818 13.6805 2460 91.7772 342.312 399.135
2583 0 185.723 15.1839 2820 90.0011 342.944 401.239
2584 0 191.729 15.5584 2983 87.9152 342.623 393.468
2585 0 196.594 13.7593 2705 92.5974 342.323 390.57
2586 1 139.742 11.0489 1544 93.5382 341.541 429.703
2587 0 140.312 9.7568 1369 97.7451 342.026 424.102
2588 0 142.511 10.1536 1447 97.6317 341.877 423.4
2589 0 147.394 11.3844 1678 96.7592 341.764 415.996
2590 0 152.623 11.2434 1716 97.6661 342.385 413.673
2591 0 156.635 11.0001 1723 98.5897 342.225 414.734
2592 0 157.645 10.4095 1641 101.275 342.102 410.496
2593 0 167.647 12.3355 2068 97.7447 342.896 408.31
2594 0 170.599 10.2638 1751 103.918 341.83 400.413
2595 0 178.62 11.4153 2039 101.301 342.393 402.786
2596 0 180.538 11.4879 2074 102.617 342.073 395.086
2597 0 188.475 11.9167 2246 101.741 342.942 399.422
2598 0 191.548 12.2528 2347 101.983 343.036 401.909
2599 0 196.536 11.8961 2338 103.997 342.379 391.778
2600 0 201.532 12.1668 2452 103.958 342.642 394.629
2601 1 138.307 8.22082 1137 106.083 342.922 424.123
2602 0 138.371 8.88917 1230 108.943 344.511 417.706
2603 0 143.739 10.2755 1477 106.583 344.101 418.313
2604 0 141.482 9.95181 1408 110.634 344.212 418.077
2605 0 148.522 10.9748 1630 107.407 344.166 424.651
2606 0 151.594 10.4028 1577 109.206 344.223 421.21
2607 0 157.472 11.5703 1822 106.649 343.827 418.97
2608 0 162.635 11.99 1950 107.406 343.765 413.29
2609 0 163.704 10.8977 1784 111.027 344.326 414.29
2610 0 168.758 10.5061 1773 113.713 344.526 405.114
2611 0 172.801 10.8912 1882 111.35 343.22 411.294
2612 0 173.645 11.3911 1978 110.883 343.479 410.078
2613 0 180.658 11.4083 2061 111.009 343.825 404.463
2614 0 182.662 10.5605 1929 114.284 343.691 397.922
2615 0 190.537 12.0607 2298 111.189 343.692 390.034
2616 0 193.777 12.5711 2436 108.661 343.564 393.833
2617 0 198.447 12.2199 2425 107.923 343.76 394.342
2618 0 206.727 11.4741 2372 110.102 343.583 387.282
2619 1 32.2759 7.80767 252 79.2302 343.964 482.409
2620 0 33.318 8.04371 268 79.7201 343.646 483.444
2621 0 38.0831 7.58867 289 85.6263 343.644 488.228
2622 0 39.1455 8.9921 352 89.983 346.011 487.92
2623 0 43.0753 9.98252 430 87.693 345.57 490.023
2624 0 42.1284 10.2306 431 90.123 345.527 487.566
2625 0 46.3438 10.0769 467 90.561 345.051 488.959
2626 0 48.2367 10.2826 496 90.3891 344.236 488.296
2627 0 47.3495 10.3697 491 92.609 344.635 488.548
2628 0 47.2199 9.19104 434 96.1498 344.733 490.101
2629 0 46.0698 8.70419 401 98.818 344.052 489.948
2630 0 51.1291 10.1508 519 92.6243 344.152 491.075
2631 0 48.0641 9.71618 467 95.5418 344.452 491.942
2632 0 48.0546 10.1343 487 96.2936 344.922 490.199
2633 0 49.0549 9.68304 475 98.5916 344.175 489.531
2634 0 50.0878 11.3601 569 94.8963 344.311 489.283
2635 0 52.1789 10.1765 531 97.7363 344.175 487.655
2636 0 49.2011 9.91847 488 100.768 344.275 488.918
2637 0 48.0465 9.82382 472 101.032 344.184 490.994
2638 0 49.0287 11.0343 541 99.0259 343.765 490.512
2639 0 50.1091 10.4372 523 100.237 344.47 489.317
2640 0 54.1072 11.2185 607 96.9539 343.783 487.694
2641 0 50.0846 9.84334 493 102.897 343.594 490.081
2642 0 48.0799 10.0042 481 104.146 344.333 490.366
2643 0 53.1285 9.90053 526 102.264 344.251 489.92
2644 0 54.1631 10.6161 575 100.05 344.03 490.207
2645 0 61.1561 9.00973 551 102.191 344.501 485.773
2646 0 62.2282 9.83477 612 100.426 343.91 487.005
2647 0 58.119 10.4269 606 100.602 343.632 490.734
2648 0 68.1151 9.3665 638 100.255 344.832 488.149
2649 0 66.2482 8.43796 559 104.447 344.111 490.311
2650 1 53.1057 11.0723 588 102.429 343.959 490.787
2651 0 54.1765 11.0195 597 103.107 343.725 490.129
2652 0 58.2329 9.10138 530 106.734 344.277 489.457
2653 0 67.1934 10.8046 726 99.2231 343.416 485.957
2654 0 65.2808 9.3902 613 103.522 343.09 489.457
2655 0 66.3297 9.67892 642 102.813 342.618 486.581
2656 1 49.0982 12.0575 592 104.691 342.985 488.809
2657 0 50.1117 11.9733 600 104.207 344.08 491.215
2658 0 49.0699 12.9407 635 101.337 345.235 489.915
2659 0 47.0717 10.8133 509 108.658 343.931 491.652
2660 0 49.0801 10.7579 528 107.328 343.237 492.038
2661 0 49.0342 11.0127 540 106.691 343.943 491.091
2662 0 50.106 11.2162 562 106.637 343.897 489.057
2663 0 51.1007 10.8609 555 106.272 344.236 492.16
2664 0 49.1337 11.3161 556 106.356 343.669 490.701
2665 0 48.1086 12.2223 588 104.731 343.498 491.847
2666 0 50.057 12.3659 619 102.719 343.522 492.141
2667 0 48.0168 11.9542 574 105.181 344.455 490.713
2668 0 50.0727 12.3021 616 103.646 343.945 491.893
2669 0 49.0644 11.434 561 106.036 343.522 492.576
2670 0 47.0677 10.7505 506 109.949 344.095 491.818
2671 0 46.0484 11.097 511 109.448 343.642 491.787
2672 0 48.0899 11.7696 566 106.977 343.546 490.864
2673 0 46.104 11.0836 511 109.722 343.159 491.579
2674 0 47.0902 10.6604 502 109.751 343.353 490.663
2675 0 46.0909 11.0868 511 110.611 343.744 489.924
2676 0 47.0781 11.0242 519 108.805 343.089 489.873
2677 0 47.1007 9.51154 448 113.321 343.531 491.049
2678 0 48.0467 10.5731 508 111.006 343.104 490.179
2679 0 47.1765 9.72943 459 114.952 343.351 489.468
2680 0 46.0958 9.54535 440 114.873 343.002 489.632
2681 0 47.0238 10.5691 497 110.918 343.936 488.429
2682 0 50.0501 15.4445 773 94.63 343.872 485.468
2683 0 45.0563 11.1194 501 109.098 344.13 487.246
2684 0 44.0214 10.1996 449 113.437 344.218 488.958
2685 0 44.0706 10.5286 464 113.414 344.041 488.901
2686 0 38.0644 8.56444 326 111.574 343.255 494.39
2687 0 38.0627 8.14446 310 112.99 342.158 493.171
