time division length width area intensity CMx CMy
0 0 76.2019 12.9787 989 125.784 57.7978 464.976
1 0 77.1876 14.2899 1103 121.626 57.3046 465.932
2 0 79.069 14.6707 1160 116.492 58.0914 463.705
3 0 81.2488 13.1202 1066 120.709 57.2711 461.416
4 0 88.26 15.443 1363 111.292 58.077 458.973
5 0 85.2077 13.25 1129 121.227 57.9247 460.129
6 0 89.3209 14.4871 1294 118.582 58.5657 459.933
7 0 90.3362 13.9147 1257 122.401 58.6484 456.683
8 0 98.4196 16.6837 1642 111.771 59.0719 453.832
9 0 95.29 13.8629 1321 122.942 57.8706 455.983
10 0 99.4546 13.4835 1341 123.178 57.3505 454.409
11 0 104.303 14.5058 1513 116.67 57.5076 452.59
12 0 103.283 11.9477 1234 121.954 59.5827 449.16
13 0 109.411 12.8689 1408 115.479 59.1982 443.286
14 0 114.252 13.1813 1506 117.046 59.3971 449.705
15 0 114.395 11.2767 1290 118.253 58.293 447.314
16 0 116.194 11.9627 1390 117.158 58.5309 445.21
17 0 121.177 11.8917 1441 117.708 58.3449 443.641
18 0 125.151 11.1066 1390 117.643 58.359 444.409
19 0 128.201 10.5382 1351 119.628 58.4552 440.577
20 0 140.194 12.012 1684 113.498 58.3367 435.391
21 0 141.534 13.1064 1855 113.853 58.6943 433.374
22 1 76.1392 8.18238 623 110.286 58.9663 468.655
23 0 81.1649 10.5957 860 106.184 58.4535 464.412
24 0 82.1876 10.6829 878 106.999 59.7722 463.878
25 0 87.1506 12.1284 1057 100.957 59.1476 450.182
26 0 90.179 10.9449 987 103.347 59.5532 456.147
27 0 92.1362 9.95266 917 106.415 59.7459 461.596
28 0 92.1479 10.5808 975 106.542 58.3108 459.917
29 0 96.1007 11.2278 1079 107.5 58.7859 456.357
30 0 105.072 13.6192 1431 98.0587 58.8777 444.936
31 0 107.167 11.4681 1229 102.91 58.9414 449.611
32 0 109.141 12.5984 1375 109.313 59.0596 446.7
33 0 107.217 10.2129 1095 113.902 59.5068 454.588
34 0 110.157 10.2218 1126 113.879 60.0062 454.419
35 0 121.371 15.4237 1872 102.249 58.6645 438.417
36 0 118.232 11.9934 1418 111.054 58.6199 445.724
37 0 121.29 11.221 1361 115.069 58.482 439.227
38 0 124.199 9.76658 1213 117.412 58.7007 443.244
39 0 129.149 13.8909 1794 109.431 59.0864 437.745
40 0 134.239 12.3735 1661 112.84 58.3558 433.491
41 1 73.1177 11.6114 849 107.376 58.4405 467.047
42 0 76.0985 11.1697 850 110.362 58.7588 464.514
43 0 78.1414 11.0313 862 112.439 59.8051 465.068
44 0 80.0878 12.274 983 110.976 59.4547 461.69
45 0 81.1709 11.2725 915 113.096 58.7148 462.115
46 0 91.1904 14.8371 1353 101.103 58.7347 454.555
47 0 89.1236 13.644 1216 108.164 58.7344 456.204
48 0 92.1664 12.3906 1142 112.238 60.0858 458.395
49 0 92.1686 11.837 1091 115.645 59.3034 455.028
50 0 99.1044 13.9752 1385 109.862 59.265 450.322
51 1 52.1489 11.2754 588 111.544 59.5034 476.151
52 0 54.0549 10.7483 581 113.434 58.9053 475.642
53 0 55.1108 9.96175 549 114.659 59.3115 476.251
54 0 57.1052 12.6608 723 112.633 59.0097 473.306
55 0 56.1126 12.0472 676 126.643 60.2426 471.608
56 0 63.1404 13.0661 825 117.499 59.943 472.143
57 0 62.1597 12.7092 790 121.001 60.3278 471.157
58 0 62.1969 12.38 770 123.414 60.8532 469.743
59 0 65.1315 13.7414 895 119.579 60.181 469.128
60 0 67.1677 12.104 813 122.284 60.0713 469.124
61 0 69.1818 13.3417 923 120.925 59.6306 466.399
62 0 70.2101 12.8756 904 123.719 60.1073 465.269
63 0 70.2323 12.5299 880 124.081 60.3 464.247
64 0 75.1218 13.8042 1037 119.46 60.8505 463.529
65 0 76.21 13.5284 1031 119.816 59.84 464.318
66 0 79.0643 12.9009 1020 121.892 60.0657 462.95
67 0 79.2247 12.6602 1003 123.814 59.5733 463.479
68 0 88.142 14.851 1309 115.342 58.6287 455.745
69 0 85.0788 13.5286 1151 120.061 59.2954 457.924
70 0 88.1158 13.312 1173 119.732 59.3802 459.509
71 0 90.2208 13.5778 1225 119.847 59.3886 456.773
72 0 89.0952 12.3351 1099 123.625 59.3958 456.338
73 0 98.1457 14.02 1376 116.236 58.564 450.164
74 0 97.1577 13.4112 1303 120.419 58.7928 451.219
75 0 100.127 13.0834 1310 120.161 58.7038 449.062
76 0 103.075 13.0585 1346 119.903 58.8626 449.375
77 0 110.123 15.8005 1740 108.571 58.6195 447.314
78 0 109.19 14.2962 1561 114.755 58.9327 447.675
79 0 112.214 12.6366 1418 119.516 59.1791 444.812
80 0 115.14 13.2361 1524 118.163 59.2461 444.748
81 0 120.163 13.1155 1576 121.475 59.0933 440.315
82 0 124.131 13.1635 1634 121.297 59.5092 439.894
83 0 132.274 15.4149 2039 111.906 59.3124 431.562
84 1 72.1487 11.9198 860 109.59 59.7384 466.856
85 0 76.117 13.0588 994 111.048 59.4698 465.16
86 0 75.1007 11.438 859 117.537 59.5157 463.633
87 0 79.1031 12.7302 1007 111.879 58.571 462.167
88 0 81.0626 11.633 943 112.204 58.8494 463.785
89 0 82.0861 10.7814 885 101.824 59.061 464.559
90 0 85.0856 11.7646 1001 101.439 59.4755 460.728
91 0 86.0526 11.7254 1009 102.026 59.7086 459.929
92 0 90.0515 11.3491 1022 102.452 59.5362 458.619
93 0 92.1059 11.8342 1090 101.612 59.4394 458.664
94 0 97.1006 11.0401 1072 101.714 59.8927 458.153
95 0 103.12 12.9364 1334 100.681 58.0382 453.557
96 0 106.171 13.3653 1419 102.32 59.0211 451.488
97 0 106.094 10.0948 1071 112.095 58.7852 444.818
98 0 113.103 14.2259 1609 104.254 58.6066 445.213
99 1 59.1296 10.9928 650 95.8508 59.0554 471.183
100 0 61.1757 11.6223 711 91.5654 58.8031 473.225
101 0 62.0377 12.4118 770 91.3987 58.2104 472.868
102 0 63.1215 11.0422 697 94.8149 58.7288 471.436
103 0 65.1423 12.0966 788 91.9023 58.2843 474.176
104 0 67.1432 10.6638 716 95.5894 59.0279 471.013
105 0 69.2587 10.8001 748 94.865 58.1925 472.099
106 0 74.0748 11.8259 876 93.0639 58.6655 470.449
107 0 77.1554 12.7405 983 92.6022 58.9359 465.094
108 0 78.211 11.2516 880 95.5511 58.1693 467.09
109 0 83.1614 8.82622 734 98.9387 58.2847 469.766
110 0 83.1211 11.9585 994 96.0916 58.4668 462.616
111 0 91.1018 15.1808 1383 87.7057 58.9024 459.651
112 0 89.154 10.9025 972 97.213 58.7809 462.678
113 0 90.1501 10.8375 977 98.6755 58.6827 464.183
114 1 53.1118 11.0145 585 98.5282 58.3487 480.474
115 0 53.1189 12.1614 646 97.6068 57.082 476.831
116 0 56.1235 12.7041 713 100.299 58.1907 477.149
117 0 56.1097 11.2102 629 104.909 58.5962 475.526
118 0 57.1057 11.6276 664 102.971 58.2093 477.605
119 0 60.0943 11.6983 703 102.846 58.2319 473.781
120 0 64.2499 12.1712 782 101.905 58.5601 472.832
121 0 65.1243 12.2995 801 101.06 58.4444 473.122
122 0 65.0733 12.4168 808 101.059 58.8032 472.953
123 0 66.187 12.3136 815 102.331 59.2074 471.248
124 0 69.079 12.4929 863 101.117 57.934 468.154
125 0 71.1503 11.4827 817 102.823 58.6352 467.738
126 0 74.2375 12.0424 894 101.054 58.7002 467.173
127 0 77.2119 11.7339 906 102.316 58.011 464.03
128 0 79.1451 12.5592 994 100.703 58.9598 464.408
129 0 83.1938 12.9697 1079 98.9602 57.7664 465.001
130 0 85.1664 12.3523 1052 101.491 58.3954 461.46
131 0 87.3227 12.9749 1133 101.133 58.7096 459.738
132 0 88.2585 12.6333 1115 100.366 58.3848 462.561
133 0 93.1483 12.3352 1149 102.598 57.973 456.284
134 1 54.0118 10.6458 575 99.8209 59.0835 476.118
135 0 54.0445 12.3602 668 93.8219 58.9252 478.388
136 0 54.0438 11.3612 614 95.9023 59.0489 475.098
137 0 57.1051 12.3982 708 92.565 57.5381 472.038
138 0 59.112 11.9603 707 94.2306 57.9406 467.01
139 0 59.0671 13.2392 782 93.0627 57.5844 471.682
140 0 62.1259 12.7805 794 91.272 59.0579 472.548
141 0 62.0685 12.1962 757 94.8666 58.9234 472.349
142 0 63.2317 12.8258 811 90.0592 57.9938 470.457
143 0 65.1772 11.9674 780 91.059 58.0718 471.368
144 0 68.1791 12.8192 874 89.7231 59.4508 469.919
145 0 70.1845 12.4244 872 89.5849 58.5826 469.214
146 0 70.2334 12.672 890 83.8067 58.6236 460.434
147 0 73.2025 11.5706 847 86.6116 58.6423 460.308
148 0 75.239 12.5334 943 89.9809 58.2577 465.863
149 0 76.0651 11.5559 879 91.636 58.4016 468.323
150 0 79.0717 14.0126 1108 89.556 58.5361 462.535
151 0 82.1482 13.2931 1092 91.3214 58.4579 463.032
152 0 90.1428 15.4311 1391 85.9763 59.0927 454.531
153 0 87.2446 13.594 1186 94.3929 59.4174 448.569
154 0 92.1077 13.1368 1210 95.2694 58.8529 455.486
155 1 49.101 11.7717 578 97.1557 58.8166 476.817
156 0 51.0574 11.9865 612 97.6291 58.5196 476.807
157 0 54.1546 12.9444 701 93.6904 59.0128 477.117
158 0 54.0469 12.1931 659 94.692 58.4385 476.326
159 0 54.1283 13.1909 714 94.7311 59.0896 475.798
160 0 57.0776 12.4042 708 95.6667 58.2472 476.578
161 0 59.0602 12.9867 767 94.9635 58.6793 473.927
162 0 59.1115 12.5356 741 98.7233 58.3536 469.664
163 0 65.0319 13.3781 870 94.2172 57.7782 473.415
164 0 63.087 13.9807 882 96.5714 57.5669 471.222
165 0 66.0442 13.8089 912 108.718 56.6118 470.806
166 0 68.1094 13.4343 915 110.802 57.0612 468.671
167 0 69.0719 13.2616 916 111.276 57.0895 469.05
168 0 74.0709 12.677 939 111.921 56.7732 465.767
169 0 74.0815 13.0802 969 111.39 57.9185 466.554
170 0 77.068 13.1572 1014 111.567 57.1637 463.531
171 0 79.0722 13.1778 1042 109.668 57.9539 463.172
172 0 82.0513 13.1259 1077 108.661 57.5014 463.435
173 0 86.079 13.5108 1163 108.25 57.5976 459.603
174 0 86.1268 12.319 1061 110.965 58.2337 459.703
175 0 88.1142 13.0853 1153 109.102 58.399 458.457
176 1 48.1543 11.0478 532 100.919 57.7199 480.825
177 0 50.0657 10.3264 517 103.484 58.118 479.391
178 0 49.0369 10.849 532 102.968 57.4906 478.455
179 0 52.051 10.7779 561 102.586 58.1836 477.528
180 0 51.0425 10.07 514 105.545 58.1829 475.502
181 0 54.0733 11.5029 622 102.056 57.9148 476.82
182 0 56.0607 11.4697 643 101.157 57.8958 476.131
183 0 59.0492 12.2948 726 99.6143 57.5 471.948
184 0 60.0887 10.7841 648 103.198 58.0972 471.543
185 0 63.0792 11.6996 738 98.4485 57.9878 474.084
186 0 65.09 10.8619 707 100.73 57.7737 473.178
187 0 69.0841 11.6235 803 98.386 57.9464 469.254
188 0 74.0869 11.8509 878 96.2005 58.008 465.633
189 0 73.0794 10.7417 785 100.011 58.4815 468.141
190 0 76.1427 11.5047 876 98.9498 57.968 462.785
191 0 81.181 11.5421 937 96.7599 58.3565 465.745
192 0 81.2244 11.856 963 98.0582 57.8577 462.934
193 0 81.0855 9.75513 791 101.71 58.1707 465.55
194 0 87.0968 12.3081 1072 98.583 57.1791 460.292
195 0 94.0593 12.1944 1147 101.311 58.082 459.68
196 0 91.3082 12.3538 1128 102.246 57.2491 460.369
197 0 90.1036 10.943 986 105.947 56.9554 460.834
198 0 95.1267 12.3625 1176 102.892 57.5221 458.038
199 1 52.1682 11.4438 597 108.913 56.4238 472.933
200 0 56.0663 11.0405 619 108.877 57.1276 473.643
201 0 56.1067 12.298 690 107.822 56.6667 472.081
202 0 59.1173 11.621 687 107.688 56.9214 471.677
203 0 60.0342 12.3263 740 106.326 56.7811 470.988
204 0 62.0979 10.9504 680 108.615 57.7353 471.985
205 0 64.0891 12.2174 783 107.33 57.0549 468.642
206 0 65.1435 11.9122 776 107.657 56.9549 467.92
207 0 66.124 12.3102 814 107.869 57.6572 469.6
208 0 71.2393 12.6194 899 106.969 58.0134 466.942
209 0 72.0669 12.6549 912 108.098 58.7478 464.077
210 0 74.1728 12.6192 936 105.903 57.9017 467.115
211 0 80.076 12.7629 1022 106.203 58.771 463.78
212 0 80.1322 12.4045 994 107.881 58.2616 462.923
213 1 155.192 10.0134 1554 107.79 57.4601 436.653
214 1 41.1678 9.15764 377 107.379 58.687 480.207
215 0 45.0956 11.0876 500 102.69 58.85 477.32
216 0 47.0963 12.1241 571 93.8161 59.8406 480.709
217 0 45.0611 10.0974 455 99.4593 59.7077 481.138
218 0 48.1696 11.7709 567 96.9577 59.5362 478.06
219 0 51.0945 11.0971 567 92.1605 58.9083 474.45
220 0 53.3777 11.709 625 90.1744 58.7968 469.664
221 0 54.0903 11.7766 637 92.854 58.4898 473.878
222 0 55.2084 13.1321 725 95.589 58.8152 475.217
223 0 58.1679 12.5155 728 91.2981 57.9643 472.353
224 0 58.0912 11.7918 685 93.946 58.9358 473.775
225 0 59.1275 11.6866 691 99.1187 58.7583 472.954
226 0 62.1306 11.9265 741 98.4588 58.7233 472.718
227 0 62.1204 11.6548 724 100.198 58.4627 471.715
228 0 68.1207 12.0228 819 98.2747 58.6044 470.94
229 0 68.0789 12.559 855 98.269 58.062 468.598
230 0 74.1935 14.1118 1047 89.4613 58.4957 462.586
231 0 73.1842 12.7896 936 94.4936 58.515 464.09
232 0 74.1265 11.8716 880 98.9466 58.8693 466.883
233 0 79.0931 12.4031 981 110.197 57.949 463.392
234 0 82.2164 11.786 969 110.75 58.6409 462.468
235 1 94.1146 10.1684 957 111.299 58.8882 462.29
236 0 95.1176 9.26222 881 108.465 58.5074 465.001
237 1 46.1626 10.4197 481 98.0146 59.422 480.339
238 0 46.153 9.66351 446 100.056 58.4933 480.877
239 0 49.0623 11.6383 571 97.6567 58.2609 479.028
240 0 48.1206 10.1827 490 101.451 58.3469 480.296
241 0 49.2844 10.8756 536 101.039 58.7631 480.916
242 0 58.2044 12.8169 746 93.0147 58.4853 474.233
243 0 62.0855 14.2868 887 87.9324 58.1398 471.088
244 0 62.1423 13.7427 854 90.6522 58.3372 473.114
245 0 59.171 12.354 731 97.9658 58.7141 473.167
246 0 60.1424 11.5725 696 98.704 58.0833 473.862
247 0 59.2142 11.5344 683 100.37 57.4173 473.186
248 0 62.0152 11.2392 697 101.039 57.8178 471.529
249 0 64.1109 11.7921 756 99.627 57.9365 471.372
250 0 66.2259 12.5631 832 98.7716 58.1214 469.812
251 0 67.0378 13.0374 874 98.8215 57.9611 468.44
252 0 70.1468 12.1032 849 99.8504 58.0247 469.701
253 0 75.2142 13.8671 1043 95.2589 58.3423 464.783
254 0 78.1732 13.3038 1040 97.3971 57.5221 464.382
255 0 75.1702 12.066 907 102.923 57.4587 467.093
256 0 78.1483 11.7981 922 104.223 58.1388 464.513
257 0 81.0967 13.3791 1085 101.063 58.3687 463.084
258 0 82.0725 11.8919 976 103.811 57.7459 463.696
259 0 85.2171 11.4531 976 107.073 57.4334 460.994
260 0 90.1059 12.6629 1141 103.48 58.3786 456.112
261 0 94.2529 11.5646 1090 111.716 58.2945 457.388
262 1 47.1084 11.1657 526 102.057 58.9924 480.498
263 0 49.0883 10.5728 519 102.748 57.8478 479.761
264 0 50.0921 11.9979 601 99.8086 58.3062 478.508
265 0 52.0578 12.1596 633 99.267 58.8942 476.757
266 0 59.0946 14.0791 832 89.5601 57.744 471.774
267 0 57.1098 11.7493 671 97.9031 58.7958 475.094
268 0 57.0707 10.6009 605 100.547 58.1769 476.117
269 0 59.0978 11.9801 708 99.4167 58.3757 471.449
270 0 61.1958 10.7034 655 102.365 58.6611 473.521
271 0 60.1251 12.3742 744 99.9866 58.5954 471.887
272 0 61.0425 9.17394 560 103.777 57.5804 473.914
273 0 63.0424 10.3264 651 104.072 58.7312 471.518
274 0 67.035 11.6357 780 100.885 58.6397 468.899
275 0 73.0858 13.1626 962 96.553 58.4075 465.507
276 0 74.0676 11.8 874 100.483 58.6602 466.746
277 0 75.1234 12.2864 923 99.0141 59.0683 465.178
278 0 75.0454 9.84738 739 103.59 58.4317 464.08
279 0 78.135 11.6081 907 100.147 58.6968 464.982
280 0 87.0762 13.9878 1218 95.0394 57.8727 457.657
281 1 46.0544 11.4213 526 104.481 58.0856 477.791
282 0 47.0181 11.5488 543 104.794 58.5028 477.877
283 0 44.0438 10.989 484 103.915 59.4835 473.242
284 0 50.0781 11.4221 572 103.823 59.2622 477.257
285 0 47.0361 10.6089 499 101.086 59.507 478.11
286 0 50.1503 10.5483 529 102.352 59.8469 474.293
287 0 53.0699 11.1739 593 99.0422 59.1366 476.314
288 0 54.2078 12.1938 661 98.3752 59.2799 475.183
289 0 55.1334 12.4063 684 98.4883 59.1404 472.006
290 0 58.2474 11.9662 697 99.7059 59.2224 472.463
291 0 58.1861 10.5352 613 102.054 59.1468 474.16
292 0 61.165 10.7741 659 101.085 58.261 471.725
293 0 65.1114 12.0563 785 98.707 58.8701 470.936
294 0 66.0479 12.0973 799 98.9374 58.8736 468.672
295 0 67.2222 11.6479 783 100.476 58.1903 469.06
296 0 69.0583 12.294 849 100.026 57.7008 467.077
297 0 71.055 11.8922 845 101.234 58.4923 468.662
298 0 71.1088 11.0254 784 103.335 57.7959 467.105
299 0 75.1374 11.1928 841 101.396 58.2782 467.226
300 0 79.2287 12.0537 955 101.032 59.1812 462.299
301 0 79.101 11.0239 872 103.939 58.4415 459.12
302 0 84.1048 11.2122 943 102.756 58.5917 459.269
303 0 87.1639 11.2776 983 102.712 58.7569 459.245
304 0 91.1658 11.3968 1039 101.282 58.4629 457.611
305 0 94.1401 12.0565 1135 99.7921 58.304 458.088
306 1 53.1029 11.6378 618 100.383 58.6715 474.817
307 0 54.0934 12.5893 681 106.12 59.2291 473.957
308 0 54.1015 11.0348 597 97.6951 59.2228 478.387
309 0 54.1192 10.3106 558 100.81 59.1685 475.731
310 0 57.0286 10.6438 607 99.2323 58.3114 475.313
311 0 59.1274 11.5344 682 98.2229 58.3343 472.698
312 0 61.1117 10.7344 656 100.111 58.7896 472.758
313 0 63.0915 11.6339 734 98.5708 59.3651 471.922
314 0 64.077 12.4069 795 97.8314 59.405 471.268
315 0 66.1413 10.1449 671 102.201 59.3636 469.601
316 0 69.1004 10.4775 724 100.507 59.5401 470.37
317 0 72.0529 10.7976 778 100.71 59.6285 466.062
318 0 75.1178 11.6217 873 99.0206 59.1168 466.887
319 0 79.0929 11.1641 883 99.9309 58.9762 465.485
320 0 78.1972 10.1666 795 103.132 58.8931 464.62
321 0 81.0799 11.5318 935 99.9936 58.7198 465.591
322 0 84.1615 11.668 982 101.521 58.8116 462.028
323 0 88.2143 10.7579 949 103.027 58.0032 460.02
324 0 93.1288 11.468 1068 98.9176 58.8867 460.474
325 1 55.0725 11.7663 648 96.75 58.1034 478.523
326 0 55.1792 10.9099 602 111.711 58.0183 464.284
327 0 56.2717 10.9469 616 113.635 58.9984 469.885
328 0 55.0327 10.9208 601 99.3461 58.9085 477.469
329 0 57.038 10.5193 600 101.327 60.135 474.617
330 0 60.1112 10.7135 644 100.183 59.8121 476.057
331 0 59.1634 11.1724 661 101.104 58.9713 475.03
332 0 63.0416 10.7707 679 102.234 58.6554 473.275
333 0 62.1879 9.76075 607 103.264 58.6376 474.682
334 0 66.1357 12.0661 798 99.9586 58.6065 471.284
335 0 67.2488 10.2604 690 102.229 58.8986 472.867
336 0 73.2728 11.7779 863 98.825 58.4484 463.783
337 0 74.1429 11.5048 853 99.2696 59.1208 467.306
338 0 76.1638 11.344 864 98.9456 59.2859 468.45
339 0 78.1831 11.5498 903 99.7298 59.3976 466.028
340 0 81.2073 11.2305 912 100.257 59.136 466.407
341 0 84.1977 12.1143 1020 97.999 59.4667 465.531
342 0 91.1207 9.96481 908 101.434 59.4659 465.93
343 0 89.1261 10.5805 943 102.24 59.7476 461.388
344 0 91.1319 12.0375 1097 100.541 59.2279 460.538
345 0 94.1966 10.8603 1023 102.549 58.6139 461.018
346 1 109.137 16.0899 1756 88.9835 59.0165 449.596
347 1 54.2489 11.5025 624 104.12 59.2452 477.718
348 0 57.0879 13.0325 744 101.22 59.7796 474.864
349 0 55.1268 12.045 664 103.94 59.0738 476.172
350 0 60.0338 13.2092 793 99.2446 59.8941 474.593
351 0 59.1017 12.3685 731 103.646 60.0561 473.828
352 0 59.1142 11.1648 660 105.738 59.1076 474.411
353 0 60.0518 10.4743 629 108.374 57.9046 475.396
354 0 64.1018 11.5909 743 105.151 58.9125 471.016
355 0 67.0827 12.1343 814 103.278 58.6855 473.3
356 0 67.1279 11.7835 791 105.445 58.0657 472.273
357 0 69.1062 11.3738 786 106.505 58.201 469.102
358 0 76.1279 13.5299 1030 98.6233 58.1398 466.448
359 0 75.2173 12.6832 954 101.809 57.5786 465.87
360 0 79.1164 11.9192 943 101.558 57.5716 466.557
361 0 81.1714 11.9993 974 101.837 57.4846 464.579
362 0 82.2827 11.5577 951 102.43 58.1525 463.558
363 0 85.0654 12.1554 1034 100.933 58.0116 460.54
364 0 90.1938 12.1849 1099 99.1601 57.8681 462.687
365 0 94.2406 12.224 1152 97.3168 57.8246 462.61
366 0 96.275 12.1942 1174 98.7862 58.0997 458.948
367 0 97.1737 11.2788 1096 102.526 56.7801 448.907
368 0 102.125 11.9853 1224 101.345 57.9886 451.35
369 1 58.2134 11.3719 662 103.415 57.3807 473.808
370 0 62.2178 12.183 758 101.253 58.4446 474.947
371 0 63.0903 12.7436 804 101.764 58.5124 471.415
372 0 64.2792 13.8614 891 99.954 57.8013 473.176
373 0 67.0612 13.7636 923 100.505 57.5861 468.95
374 0 68.1793 12.1591 829 103.345 58.807 469.969
375 0 72.0644 12.7941 922 100.885 58.7397 470.488
376 0 74.111 13.1694 976 100.312 57.8955 467.256
377 0 80.1324 13.9893 1121 96.8412 58.3069 462.705
378 0 81.0736 12.9142 1047 101.025 58.936 460.665
379 0 79.2634 12.4269 985 104.315 58.6406 459.621
380 0 81.2101 13.2373 1075 102.11 58.7814 461.226
381 0 86.1562 13.9862 1205 99.4631 57.4141 461.265
382 0 87.2282 13.3099 1161 102.031 58.5935 459.458
383 0 93.198 14.5604 1357 97.9167 58.9072 452.994
384 0 95.1779 13.522 1287 100.3 57.8135 456.385
385 0 98.1336 14.8471 1457 97.6479 57.4482 454.535
386 0 99.1748 13.4107 1330 102.128 57.2353 451.386
387 1 112.374 18.0025 2023 87.4073 57.9511 442.694
388 0 109.242 14.7562 1612 97.3263 57.5428 441.545
389 0 109.197 14.5608 1590 99.8371 57.6673 440.693
390 0 112.147 12.769 1432 104.251 56.9658 444.372
391 0 119.297 13.5963 1622 99.7719 56.7744 440.409
392 1 63.1033 12.7727 806 108.009 56.768 466.556
393 0 65.0983 12.3198 802 108.855 57.0823 463.976
394 0 68.1032 13.4502 916 104.794 56.8886 464.282
395 0 70.2238 12.3747 869 106.632 57.4499 464.83
396 0 72.2889 13.3492 965 103.299 56.4663 464.939
397 0 75.1164 13.326 1001 103.332 57.7982 460.48
398 0 76.3473 12.7575 974 105.649 57.7392 456.614
399 0 80.2365 15.2674 1225 100.019 58.2457 454.49
400 0 80.2298 12.4143 996 107.531 56.6064 454.352
401 0 84.175 14.0897 1186 103.562 57.0051 454.445
402 0 87.251 13.4096 1170 104.921 57.8778 450.366
403 0 91.3074 13.7995 1260 104.031 57.473 453.547
404 0 98.1793 16.8467 1654 93.9655 58.0103 442.099
405 0 99.1725 13.6126 1350 103.392 57.5067 443.672
406 0 99.1577 13.9777 1386 104.538 57.7027 447.242
407 0 104.443 14.7161 1537 102.116 58.015 445.449
408 0 107.199 15.0095 1609 101.397 57.7253 444.351
409 0 108.339 13.0055 1409 106.898 57.3002 441.138
410 0 115.254 13.8997 1602 103.236 57.1673 439.381
411 0 118.329 13.4202 1588 104.438 56.9207 437.459
412 0 117.246 12.7083 1490 107.662 57.4174 435.189
413 1 66.0897 11.0456 730 112.499 57.4836 464.288
414 0 71.1376 12.6375 899 110.115 57.2314 462.949
415 0 75.2148 12.8964 970 108.576 57.665 464.692
416 0 76.1157 12.9277 984 108.716 57.935 463.954
417 0 78.0787 13.1534 1027 108.952 58.4177 460.837
418 0 77.1228 12.3439 952 110.93 57.8718 457.046
419 0 78.163 11.2585 880 115.717 57.0068 457.685
420 0 80.2248 10.3958 834 118.508 57.1427 457.028
421 0 84.1614 12.4404 1047 114.56 56.5033 456.418
422 0 91.1197 14.662 1336 107.284 56.8144 448.804
423 0 91.1841 12.8092 1168 112.872 56.018 451.252
424 0 91.1583 14.1183 1287 112.78 56.5462 447.025
425 0 97.2212 13.2893 1292 114.007 57.0147 446.237
426 0 98.2433 12.5403 1232 117.601 56.6136 445.338
427 0 107.179 14.4431 1548 111.056 56.9942 441.773
428 0 109.155 14.0077 1529 111.549 56.1949 444.409
429 1 61.1459 8.47155 518 117.79 56.4131 462.554
430 0 63.0566 10.7998 681 107.884 57.3333 464.903
431 0 67.0837 11.6869 784 116.089 56.9987 468.325
432 0 72.187 13.0217 940 113.944 56.4106 466.698
433 0 71.1284 12.5548 893 116.025 56.2553 466.908
434 0 73.0672 12.3859 905 112.853 57.9978 468.854
435 0 73.0958 12.6957 928 113.148 57.6875 468.7
436 0 80.0279 14.8948 1192 108.18 58.2081 462.523
437 0 82.2101 14.5846 1199 109.807 57.5404 461.381
438 0 82.1193 13.3586 1097 113.904 56.9891 463.554
439 0 83.1509 13.241 1101 115.274 57.6957 462.426
440 0 86.1023 12.88 1109 115.815 56.8485 460.486
441 0 89.2643 12.8607 1148 113.605 57.1341 455.753
442 0 91.2528 12.9202 1179 114.965 56.6624 457.427
443 0 91.1061 11.7446 1070 118.44 57.2766 455.612
444 0 98.2713 14.9891 1473 106.478 56.8425 449.21
445 0 97.1411 12.6311 1227 114.775 56.1589 447.192
446 0 103.12 13.3922 1381 110.322 56.4634 444.713
447 0 108.428 14.2214 1542 109.538 56.9423 446.114
448 0 111.294 13.7564 1531 111.296 56.6284 443.236
449 0 112.292 11.7996 1325 115.66 56.9532 441.469
450 0 116.111 12.2038 1417 113.502 56.1341 442.438
451 0 119.277 11.8128 1409 113.048 56.2711 439.461
452 1 70.3095 12.2601 862 110.593 58.2135 469.995
453 0 71.3061 10.9668 782 110.853 57.1534 467.486
454 0 75.0892 10.6274 798 98.8759 57.2907 468.842
455 0 77.1132 11.8916 917 96.9913 57.0851 468.492
456 0 78.1235 12.3522 965 96.0549 56.9627 463.839
457 0 79.1665 9.57475 758 99.6702 57.219 465.657
458 0 84.0676 11.5383 970 96.1423 57.4876 465.629
459 0 88.0836 11.6026 1022 95.816 58.044 463.597
460 0 93.0822 13.9876 1302 90.2773 57.6705 459.766
461 0 92.1412 10.4731 965 96.7534 57.8332 459.085
462 0 95.136 12.109 1152 94.796 57.6832 456.625
463 0 106.165 13.8558 1471 88.1992 56.8668 447.985
464 0 105.148 14.1135 1484 90.1213 57.3854 450.22
465 0 106.168 12.5932 1337 94.6455 57.5064 450.642
466 0 107.132 11.8172 1266 101.829 57.7938 449.343
467 0 111.118 11.4833 1276 101.346 57.4859 449.509
468 0 118.125 12.5799 1486 99.3775 57.4098 446.282
469 0 121.2 11.5016 1394 101.437 56.8092 442.646
470 0 127.163 12.716 1617 98.1967 56.9301 444.985
471 0 132.272 12.4667 1649 97.9879 56.6119 442.308
472 1 76.1252 12.2824 935 89.8471 56.9861 469.017
473 0 81.1175 13.2524 1075 87.6707 57.7572 466.591
474 0 81.0957 11.8379 960 92.0417 57.3417 466.185
475 0 85.1541 12.7651 1087 90.7691 57.1868 463.466
476 0 89.1974 12.2089 1089 105.681 56.809 461.791
477 0 98.4021 11.9916 1180 104.38 56.3263 460.797
478 0 97.1801 11.3604 1104 105.736 56.0217 462.14
479 0 98.1778 11.4384 1123 108.321 56.3669 458.113
480 0 99.2787 12.4901 1240 104.081 56.9032 456.581
481 0 99.1523 11.5681 1147 106.76 55.959 457.52
482 0 101.167 11.0609 1119 107.189 56.5487 456.695
483 1 112.269 14.2159 1596 97.7437 57.0927 447.47
484 0 114.354 11.9979 1372 97.285 56.9176 449.389
485 0 119.322 12.0598 1439 104.42 55.7206 450.186
486 0 123.233 13.511 1665 101.078 56.394 443.468
487 0 126.303 12.2325 1545 109.948 55.7094 443.797
488 0 127.207 12.1377 1544 106.513 55.2053 443.223
489 0 133.238 12.2562 1633 106.391 55.7238 442.547
490 0 134.205 12.7715 1714 106.221 56.0362 438.813
491 0 140.263 12.2912 1724 108.351 56.0858 439.017
492 0 145.243 11.374 1652 110.421 56.5006 439.457
493 1 82.1157 15.259 1253 98.7574 56.506 465.333
494 0 83.1326 12.5462 1043 108.926 56.0192 465.648
495 0 85.1936 12.9235 1101 108.542 56.8338 464.867
496 0 87.269 13.3152 1162 108.916 56.9286 463.935
497 0 90.1539 12.5896 1135 111.129 57.1489 462.639
498 0 93.134 12.7773 1190 110.328 56.4916 461.013
499 0 95.1909 13.079 1245 110.684 56.3084 455.928
500 0 100.11 13.9747 1399 108.255 56.5225 457.81
501 0 101.146 12.833 1298 111.762 56.2982 456.918
502 0 105.359 13.6106 1434 111.333 55.9526 447.485
503 0 108.235 14.0805 1524 110.259 55.7238 451.374
504 0 111.154 13.3959 1489 112.241 56.4305 451.547
505 0 115.198 14.627 1685 108.89 56.2659 448.539
506 0 113.257 13.0588 1479 109.224 56.478 450.471
507 1 65.0629 11.3736 740 105.711 56.6473 477.35
508 0 64.148 11.4579 735 102.257 57.1483 469.712
509 0 68.1076 12.8473 875 101.006 56.4194 476.25
510 0 69.0663 12.1767 841 105.014 56.843 473.107
511 0 75.1582 14.037 1055 95.5981 56.746 461.843
512 0 73.1894 11.9689 876 104.019 56.121 463.108
513 0 77.1139 12.7863 986 105.788 56.4625 468.907
514 0 79.203 12.2975 974 107.501 56.6899 469.756
515 0 80.1897 11.5726 928 109.77 57.0496 469.05
516 0 84.0554 12.5632 1056 107.392 56.5521 466.528
517 0 84.056 11.766 989 110.63 57.4388 463.983
518 0 91.1415 14.2087 1295 103.213 56.6726 453.942
519 0 92.0918 12.7264 1172 116.009 57.3925 461.532
520 0 95.1435 12.1606 1157 116.35 56.8073 459.701
521 0 98.1118 12.5877 1235 114.418 57.1717 458.856
522 0 99.229 11.1762 1109 113.959 56.697 454.348
523 0 103.074 12.1369 1251 115.437 56.8585 456.907
524 0 106.141 11.9086 1264 112.756 56.837 452.26
525 0 109.102 11.2188 1224 115.289 57.2345 451.158
526 0 113.116 12.5977 1425 112.956 56.906 448.02
527 0 117.197 11.2034 1313 115.538 57.7677 447.558
528 1 67.0704 12.062 809 104.44 56.8109 473.009
529 0 70.1415 12.1184 850 104.947 57.0106 472.76
530 0 72.0605 12.2952 886 101.977 56.3679 474.446
531 0 73.0795 12.6164 922 102.148 56.9512 470.848
532 0 78.1803 13.6096 1064 95.6288 56.1363 466.842
533 0 74.1603 11.1111 824 103.552 56.4199 468.444
534 0 78.0964 11.7931 921 102.585 56.5223 469.344
535 0 82.2046 12.6392 1039 102.482 56.4158 467.204
536 0 81.1658 10.2506 832 107.514 56.4231 469.275
537 0 84.0705 11.4071 959 107.213 56.5308 463.812
538 0 88.1072 12.1103 1067 106.102 55.7882 463.088
539 0 94.0939 12.7532 1200 116.291 55.5567 458.582
540 0 95.2405 13.5447 1290 105.996 55.738 460.799
541 0 95.2309 10.7738 1026 110.124 55.5838 460.133
542 0 104.212 14.2402 1484 106.833 56.0229 452.551
543 0 107.173 13.5482 1452 112.257 55.9545 455.358
544 1 57.1888 8.91782 510 113.08 56.7569 477.859
545 0 61.1631 12.7528 780 108.338 57.6718 475.335
546 0 64.1088 12.4788 800 111.074 57.195 475.429
547 0 62.0516 12.2962 763 106.931 56.9332 476.541
548 0 65.0788 12.2006 794 107.392 57.4068 475.943
549 0 67.1162 12.6348 848 106.755 57.5389 474.948
550 0 69.0918 12.4327 859 106.312 56.3655 474.014
551 0 68.0529 11.9466 813 108.234 56.6581 473.423
552 0 76.0895 13.2738 1010 103.611 57.4545 468.662
553 0 77.187 13.0074 1004 105.349 57.6245 470.234
554 0 78.0443 12.0701 942 108.806 57.2399 468.001
555 0 81.0724 11.4712 930 109.139 57.628 465.297
556 0 81.1406 12.4229 1008 109.267 57.5496 465.483
557 0 80.0391 11.7568 941 114.706 57.6822 466.97
558 0 83.0868 11.7949 980 105.254 57.2908 465.848
559 0 83.0388 12.151 1009 109.04 57.0575 465.12
560 0 82.079 11.1113 912 113.885 56.7357 464.958
561 0 83.0793 10.8691 903 116.509 57.2204 463.673
562 0 85.0733 12.0484 1025 115.659 56.0693 464.663
563 0 85.1006 11.1868 952 119.118 56.3687 463.362
564 0 90.0928 15.0178 1353 107.925 54.6304 459.613
565 0 91.1192 14.8926 1357 75.664 56.0906 460.603
566 1 49.1518 11.3526 558 110.317 55.9677 482.557
567 0 52.0504 10.5667 550 108.867 56.3945 484.184
568 0 53.0253 10.9382 580 107.957 55.6897 480.148
569 0 54.0686 12.854 695 102.268 56.0115 479.016
570 0 56.0863 11.9459 670 105.355 56.0687 475.766
571 0 58.1715 11.999 698 105.014 55.808 475.655
572 0 59.0248 13.2148 780 98.3231 55.9551 477.235
573 0 61.1064 11.6191 710 102.385 56.0803 476.506
574 0 60.1282 10.6938 643 106.431 56.5257 478.064
575 0 62.0732 11.2931 701 104.98 56.0785 477.264
576 0 62.127 10.8648 675 103.473 56.3511 480.493
577 0 65.1297 11.623 757 104.268 56.6024 475.717
578 0 67.1568 11.7784 791 106.81 56.0392 474.169
579 0 70.0632 12.2318 857 106.321 56.0572 473.449
580 0 74.0912 13.1325 973 103.44 55.8921 467.51
581 0 75.0524 13.0975 983 106.818 55.8057 468.573
582 0 73.0713 11.5093 841 112.891 56.4233 471.379
583 0 74.2528 10.7875 801 113.933 56.2871 468.223
584 0 77.0543 10.2785 792 110.597 56.0215 471.753
585 0 78.1391 10.4301 815 112.902 55.611 469.375
586 1 44.0279 11.8334 521 108.015 55.3589 484.739
587 0 45.0561 11.5856 522 108.841 56.136 485.916
588 0 43.0472 10.8253 466 113.968 55.3262 483.006
589 0 47.0389 12.1601 572 108.759 55.9598 484.042
590 0 49.1143 13.7842 677 106.213 56.3796 482.736
591 0 49.0756 11.9815 588 111.524 56.1718 484.107
592 0 50.0586 12.2257 612 110.087 55.3497 483.966
593 0 57.0704 14.2456 813 99.0467 56.0308 477.736
594 0 55.1334 13.3494 736 105.935 55.2188 479.781
595 0 54.169 11.8887 644 112.873 56.0994 479.992
596 0 53.0577 13.1932 700 110.293 56.3986 481.09
597 0 57.0867 12.192 696 111.95 56.0647 478.99
598 0 58.0555 13.2976 772 109.613 55.8497 478.543
599 0 59.042 12.2963 726 113.522 54.8554 478.642
600 0 62.0235 12.3985 769 128.051 54.8075 476.943
601 0 63.1385 12.3538 780 126.028 54.4885 476.222
602 0 66.0921 13.4661 890 123.603 54.9348 474.979
603 0 67.1132 12.6652 850 125.513 55.5376 476.06
604 0 69.1171 13.6725 945 123.469 55.5545 473.505
605 0 72.1227 13.6157 982 121.913 55.1731 472.603
606 0 74.1857 12.5226 929 127.113 56.2282 471.941
607 0 75.1334 12.9769 975 128.518 55.4954 469.278
608 0 79.1325 13.7996 1092 124.861 55.4148 470.908
609 0 81.1906 13.5237 1098 127.032 54.8015 468.322
610 0 84.1604 12.7614 1074 129.791 55.4125 467.933
611 0 85.2398 14.1366 1205 126.755 54.3602 463.459
612 0 88.0918 13.2021 1163 127.461 55.0034 463.842
613 1 50.0333 11.7322 587 124.053 55.3322 484.056
614 0 51.069 12.6887 648 116.094 55.9552 483.398
615 0 56.0745 13.0362 731 113.32 55.673 481.431
616 0 57.0497 13.0763 746 112.618 55.681 479.41
617 0 57.0296 12.8179 731 114.725 55.9439 478.405
618 0 60.0234 14.2111 853 110.254 55.2849 478.705
619 0 60.0148 13.1301 788 113.642 55.75 478.717
620 0 64.0841 13.4823 864 111.479 54.6898 476.25
621 0 64.1031 11.8403 759 117.191 55.7325 476.165
622 0 68.055 13.8271 941 110.881 55.8757 475.83
623 0 71.1014 14.1629 1007 111.118 54.8044 474.18
624 0 71.1243 13.8068 982 113.287 55.6039 474.202
625 0 75.1479 14.3717 1080 110.697 54.9954 470.99
626 0 78.0697 13.4879 1053 112.561 55.6838 470.077
627 0 82.0925 14.0208 1151 116.816 54.9731 469.003
628 0 85.1879 12.7835 1089 119.53 55.1616 467.01
629 0 88.18 13.0642 1152 118.26 54.362 465.715
630 0 91.1684 13.8096 1259 115.535 54.8546 465.469
631 0 98.1405 17.1285 1681 103.389 55.6752 457.842
632 0 96.1004 13.8501 1331 112.005 54.8197 461.879
633 0 100.139 12.8621 1288 115.641 55.1398 457.282
634 1 58.1585 12.0705 702 102.507 55.953 481.916
635 0 59.1326 13.4105 793 99.6242 54.9496 478.197
636 0 64.086 14.4025 923 95.2015 54.8191 477.14
637 0 62.1423 11.5219 716 98.6215 55.2081 473.677
638 0 68.0858 12.7486 868 98.3376 55.7823 475.695
639 0 68.0396 11.5668 787 101.328 55.3545 473.41
640 0 71.0736 12.6629 900 99.7867 55.6789 472.481
641 0 75.0656 12.6689 951 109.449 55.8212 472.265
642 0 77.2139 12.3294 952 109.709 55.8529 470.057
643 0 82.1216 12.6641 1040 107.938 55.0913 468.034
644 0 89.0874 16.8486 1501 93.8967 55.6096 461.414
645 0 88.1925 15.228 1343 99.0968 55.6225 463.831
646 0 90.0656 12.5242 1128 106.321 55.5151 463.049
647 0 93.1895 12.1473 1132 106.014 55.4417 463.877
648 1 50.0736 12.901 646 97.969 54.952 482.331
649 0 53.0812 12.1889 647 98.3354 55.5317 484.032
650 0 55.1046 12.2857 677 100.947 55.2998 480.585
651 0 57.2369 14.571 834 94.7914 55.4077 479.022
652 0 59.1068 12.8581 760 97.4566 55.3487 480.292
653 0 59.0661 12.1389 717 93.8773 56.1492 472.702
654 0 61.121 13.187 806 97.9392 54.8226 477.649
655 0 64.1191 12.9447 830 96.8904 55.647 476.486
656 0 66.0617 12.8516 849 94.7303 55.4346 474.115
657 0 65.0871 13.2131 860 100.367 55.814 475.883
658 0 67.128 11.2919 758 104.861 55.6003 476.352
659 0 69.0612 12.7423 880 101.407 55.7443 475.781
660 0 73.0906 13.2165 966 100.784 55.6201 474.335
661 0 80.0807 14.4479 1157 97.5177 55.5739 466.907
662 0 79.0764 13.7715 1089 101.705 55.1745 467.068
663 0 80.0854 12.5366 1004 106.533 55.8954 469.794
664 0 82.1578 12.3421 1014 107.491 55.6006 469.439
665 0 85.1399 12.133 1033 108.377 56.0697 469.281
666 0 84.1535 11.788 992 110.439 55.5887 469.73
667 0 90.066 12.9128 1163 112.385 55.184 464.261
668 0 93.1769 13.8232 1288 109.023 56.6343 460.814
669 0 98.1399 12.7267 1249 111.296 55.6958 462.104
670 0 103.099 14.0448 1448 110.844 56.1174 459.778
671 1 56.1494 12.8229 720 120.392 56.6181 476.825
672 0 58.0786 13.9811 812 117.606 55.7254 479.19
673 0 55.0373 11.9919 660 112.568 56.103 479.477
674 0 59.1402 12.6141 746 110.056 56.4115 479.525
675 0 61.0543 12.5953 769 112.724 56.3394 475.48
676 0 65.1264 12.2992 801 112.189 55.9076 476.34
677 0 64.0339 11.5876 742 112.911 56.9528 477.302
678 0 70.037 13.3644 936 120.087 55.765 472.198
679 0 73.1071 13.3366 975 120.443 56.0246 469.395
680 0 74.0407 13.4926 999 113.916 56.4755 469.659
681 0 76.0748 11.8436 901 115.715 56.3652 469.201
682 0 80.165 14.046 1126 108.373 55.6092 469.571
683 0 80.0835 12.8616 1030 113.13 56.1272 465.975
684 0 85.0617 13.743 1169 115.877 55.8238 463.111
685 0 88.0621 13.8879 1223 116.486 55.9984 462.099
686 0 90.0991 12.1089 1091 119.348 55.8763 462.071
687 0 97.0835 16.6352 1615 110.394 56.6502 456.033
688 0 102.138 17.584 1796 109.832 56.2433 454.61
689 0 100.12 14.213 1423 122.227 55.9726 456.402
690 0 102.073 14.2937 1459 123.19 56.1439 454.393
691 0 106.2 13.9737 1484 123.292 55.8309 451.635
692 0 112.14 14.5086 1627 121.071 55.9373 453.392
693 0 115.157 14.5801 1679 123.831 56.4342 451.13
694 1 61.0343 12.2226 746 125.273 56.7936 475.601
695 0 62.0894 12.7558 792 128.311 57.0606 474.984
696 0 64.0154 12.0284 770 127.031 57.1104 474.323
697 0 67.0873 13.3408 895 124.373 57.1944 471.758
698 0 74.0406 16.3694 1212 117.303 56.896 469.21
699 0 70.0442 12.849 900 133.101 57.0244 471.024
700 0 73.032 13.6516 997 132.161 57.668 469.257
701 0 75.0369 12.927 970 135.414 57.5062 468.167
702 0 77.0597 13.1716 1015 135.532 57.4621 466.363
703 0 81.0678 12.8288 1040 136.892 56.8481 463.994
704 0 86.1658 14.6114 1259 130.261 57.2605 459.619
705 0 88.0931 13.5084 1190 135.952 56.8933 459.224
706 0 92.0838 14.78 1361 131.567 56.5724 459.998
707 0 92.0504 13.8728 1277 136.246 57.1237 460.052
708 0 101.221 16.4392 1664 126.627 56.4339 450.785
709 0 99.2308 14.2194 1411 137.803 56.0305 451.838
710 0 104.151 14.2102 1480 138.294 56.7203 450.582
711 0 107.204 13.992 1500 139.536 56.6273 449.617
712 0 109.137 13.5793 1482 141.877 57.2072 449.519
713 0 115.189 14.3416 1652 138.513 56.6907 445.708
714 1 64.0604 11.4735 735 138.072 57.732 471.875
715 0 67.0588 13.2123 886 137.693 57.1591 469.945
716 0 66.0638 10.3839 686 133.472 56.4796 472.921
717 0 70.0422 11.1933 784 130.417 56.6033 471.4
718 0 72.0962 12.0672 870 130.938 57.2563 467.732
719 0 76.0686 12.2784 934 128.651 56.9518 468.681
720 0 78.127 11.6605 911 130.349 56.4962 465.16
721 0 81.1025 12.0711 979 128.84 56.9275 465.936
722 0 83.0903 11.2408 934 132.418 57.3587 463.472
723 0 87.0621 11.9455 1040 129.781 57.0702 461.913
724 0 91.1074 12.392 1129 131.469 57.3109 460.244
725 0 91.0545 11.7073 1066 133.18 57.015 459.278
726 0 95.123 12.6363 1202 129.838 56.4409 457.713
727 0 103.092 13.842 1427 130.294 56.6223 453.945
728 0 105.162 13.3984 1409 132.578 55.7268 452.131
729 0 108.26 14.0218 1518 138.117 55.722 448.23
730 0 112.122 12.9235 1449 139.568 56.6246 448.812
731 0 116.099 13.4885 1566 137.858 57.0115 448.146
732 1 69.0535 12.6424 873 129.576 57.4593 472.688
733 0 71.0692 12.2275 869 133.349 57.7227 472.461
734 0 70.2562 12.5256 880 134.55 57.9136 470.49
735 0 71.0827 12.2393 870 120.163 56.7161 469.677
736 0 75.0678 12.4288 933 118.467 57.5016 468.638
737 0 77.0928 12.3488 952 119.152 55.9422 468.608
738 0 80.09 11.5245 923 121.187 57.0022 467.943
739 0 84.0785 12.191 1025 118.483 56.838 467.352
740 0 85.1386 12.5443 1068 118.749 56.4148 465.737
741 0 87.1047 12.5022 1089 118.624 56.3792 461.868
742 0 96.1896 14.0556 1352 113.226 55.8425 458.878
743 0 94.0979 13.7623 1295 116.293 56.6525 459.688
744 0 97.1581 12.2584 1191 119.947 55.8724 460.433
745 0 99.103 12.704 1259 121.753 55.9372 459.16
746 0 102.123 12.7297 1300 121.781 55.4292 458.292
747 0 111.257 15.217 1693 114.519 55.4755 452.013
748 0 111.198 13.2196 1470 122.888 55.8354 450.084
749 0 113.225 13.1596 1490 120.756 55.9101 451.699
750 0 118.216 13.636 1612 120.257 55.5329 448.036
751 0 122.214 13.1982 1613 122.488 55.5108 450.593
752 0 125.213 13.3532 1672 127.111 55.0969 445.584
753 0 128.195 13.7135 1758 130.298 55.5802 442.348
754 0 135.206 14.1118 1908 128.954 55.597 440.132
755 1 84.151 11.5744 974 128.573 56.0452 464.973
756 0 88.1408 13.8982 1225 121.086 55.649 462.379
757 0 89.1101 12.3218 1098 130.641 56.6648 462.689
758 0 92.2557 11.9234 1100 131.31 56.4673 460.078
759 0 96.171 11.9683 1151 130.857 56.3223 458.908
760 0 98.1712 11.7652 1155 130.162 55.8952 458.726
761 0 103.179 14.0823 1453 123.893 55.9381 453.617
762 0 104.344 12.2479 1278 127.25 55.4945 454.839
763 0 108.124 12.3747 1338 126.548 55.7257 453.297
764 0 112.2 12.3797 1389 125.761 55.3297 450.547
765 0 117.215 15.0066 1759 117.562 55.1421 449.763
766 0 120.286 12.5783 1513 123.277 54.8368 450.331
767 0 124.269 13.3742 1662 122.458 55.7503 446.297
768 0 126.262 13.4165 1694 122.397 55.3636 446.158
769 0 130.219 12.9935 1692 124.145 55.5154 443.228
770 0 132.304 11.8591 1569 127.794 55.13 439.331
771 0 140.288 12.3389 1731 123.447 55.1826 439.018
772 0 145.41 12.6607 1841 122.718 54.6361 433.955
773 0 149.345 12.2133 1824 123.438 55.1639 431.628
774 1 84.2069 12.2555 1032 116.649 56.1056 465.675
775 0 87.1104 13.018 1134 115.489 56.2663 461.678
776 0 89.1221 11.4899 1024 112.905 55.46 466.808
777 0 90.1278 11.4504 1032 115.177 55.2558 465.163
778 0 94.1972 11.1468 1050 118.858 55.119 459.41
779 0 98.269 12.7914 1257 114.125 55.2665 458.04
780 0 101.177 12.7696 1292 113.817 55.0704 459.192
781 0 104.131 12.4363 1295 116.019 55.6602 456.511
782 0 109.37 13.4406 1470 115.833 54.6973 452.529
783 0 114.305 12.8166 1465 117.263 55.3761 450.897
784 0 114.282 11.6729 1334 115.019 55.452 451.413
785 0 119.152 12.1274 1445 113.347 55.1176 449.001
786 0 127.353 12.909 1644 155.045 54.9799 445.05
787 0 127.43 12.085 1540 113.538 54.7532 445.747
788 0 130.326 12.4303 1620 114.128 54.6543 444.849
789 0 138.368 12.2788 1699 110.972 55.3178 436.468
790 1 79.2995 11.7907 935 108.214 56.461 466.996
791 0 82.2642 13.4931 1110 102.585 56.6946 466.08
792 0 86.2119 14.1048 1216 101.592 56.7549 464.743
793 0 89.135 12.1613 1084 105.487 57.3911 465.58
794 0 94.3821 15.6492 1477 99.0257 56.0427 459.968
795 0 97.3714 15.7028 1529 100.238 55.9189 454.65
796 0 96.209 11.7453 1130 111.683 55.0991 459.186
797 0 97.2434 12.0522 1172 113.32 54.8626 460.471
798 0 102.241 14.368 1469 109.903 54.9272 451.677
799 0 102.173 12.9682 1325 114.858 54.6709 453.118
800 0 107.169 14.6871 1574 110.582 54.1423 446.514
801 0 107.176 12.904 1383 117.117 53.9754 450.381
802 0 113.291 13.1784 1493 117.927 55.2318 442.508
803 0 114.259 13.3994 1531 118.307 53.7923 439.962
804 0 118.29 13.9149 1646 121.223 54.6434 437.32
805 0 123.382 12.6761 1564 123.797 54.3159 441.254
806 0 124.248 12.7406 1583 122.935 54.127 441.189
807 1 136.219 13.1259 1788 121.109 55.3501 437.978
808 0 141.345 15.4374 2182 114.171 54.2434 429.179
809 0 142.103 12.0969 1719 124.286 54.5544 431.425
810 1 81.1597 11.6314 944 122.617 54.7288 463.153
811 0 84.1786 12.6279 1063 121.067 55.3039 461.724
812 0 88.0774 13.4881 1188 119.735 54.7652 459.335
813 0 92.1657 14.3003 1318 118.17 55.2678 459.96
814 0 93.211 13.3675 1246 117.372 55.7175 459.639
815 0 102.13 11.0447 1128 122.181 55.4291 459.81
816 0 98.1491 12.8987 1266 118.759 56.0869 454.129
817 0 103.084 12.3879 1277 120.33 55.7432 454.424
818 0 103.134 13.3515 1377 118.364 55.825 452.024
819 0 107.147 12.6555 1356 120.847 55.5774 449.486
820 0 115.17 13.5799 1564 117.384 55.1682 446.821
821 1 63.0824 11.5088 726 117.602 54.8223 474.136
822 0 65.0511 12.8361 835 114.756 55.0395 472.151
823 0 65.1889 11.7812 768 120.18 55.8281 470.626
824 0 67.1363 12.1097 813 114.753 55.0664 471.06
825 0 70.054 12.9043 904 110.991 54.9668 469.112
826 0 72.2478 12.817 926 113.081 54.3251 459.759
827 0 77.3526 13.3027 1029 107.861 54.1604 466.852
828 0 79.298 12.3458 979 110.861 54.6037 466.177
829 0 79.1309 12.1192 959 112.465 54.8425 464.879
830 0 83.334 12.1079 1009 112.017 53.8821 464.946
831 0 87.2142 12.498 1090 112.128 54.8248 460.016
832 0 87.0995 12.5374 1092 112.484 54.2454 457.639
833 0 93.113 12.1465 1131 111.578 54.4492 458.271
834 0 95.1394 13.0861 1245 111.404 55.1253 454.896
835 0 100.44 13.8291 1389 110.386 55.1785 447.576
836 0 104.303 14.362 1498 111.405 55.1582 441.643
837 0 106.336 12.7614 1357 115.646 53.9897 444.258
838 0 108.392 12.1412 1316 113.893 54.6079 446.062
839 1 61.2387 11.398 698 111.255 53.9513 465.878
840 0 65.0941 12.2438 797 111.424 54.2773 468.218
841 0 68.0838 13.4687 917 108.241 55.0905 466.908
842 0 68.0643 12.591 857 111.632 55.4072 466.074
843 0 70.13 11.3504 796 115.324 55.1043 465.296
844 0 75.209 13.15 989 112.766 56.3185 459.923
845 0 78.2263 12.7451 997 110.622 54.8957 463.596
846 0 79.1059 12.4643 986 108.137 55.783 465.238
847 0 82.0682 13.44 1103 106.098 56.117 463.124
848 0 85.1524 12.9298 1101 108.531 54.7847 462.667
849 0 84.1587 12.5121 1053 109.589 55.5992 462.916
850 0 89.3425 12.2898 1098 105.405 55.7969 453.262
851 0 93.0948 11.687 1088 106.416 55.8796 457.709
852 0 98.143 12.9199 1268 106.331 55.8068 458.019
853 0 101.074 12.476 1261 107.967 55.9873 456.572
854 0 106.453 13.5553 1443 105.683 55.885 453.012
855 0 108.361 13.0767 1417 108.176 55.4989 450.155
856 0 112.302 11.5225 1294 112.642 55.5703 449.072
857 0 115.265 13.8203 1593 108.416 54.1218 445.405
858 0 118.252 13.2091 1562 111.835 54.523 445.045
859 0 124.179 14.1167 1753 109.63 54.9412 445.134
860 1 66.0584 11.2022 740 104.669 54.6122 475.909
861 0 65.0666 11.4805 747 107.614 55.1419 473.743
862 0 69.0386 11.2835 779 107.059 55.0488 473.561
863 0 74.233 12.0162 892 105.378 55.7377 464.149
864 0 75.1845 13.0346 980 104.192 56.0306 465.233
865 0 76.122 12.099 921 107.548 56.0586 468.454
866 0 78.0579 11.7092 914 108.221 55.779 467.941
867 0 83.1934 12.2967 1023 106.471 54.9941 466.554
868 0 84.1333 11.5888 975 108.822 54.9631 464.169
869 0 87.0732 12.5297 1091 108.17 55.9212 461.469
870 0 91.2181 12.7606 1164 110.088 55.3668 456.129
871 0 94.1538 12.7026 1196 107.838 55.25 460.398
872 0 95.0977 12.0928 1150 110.241 54.4939 457.392
873 0 101.166 11.832 1197 110.705 54.9825 455.839
874 0 104.243 12.6052 1314 112.325 55.1347 453.85
875 0 107.132 13.2733 1422 112.734 54.7518 446.585
876 0 111.154 13.5037 1501 116.244 55.6089 449.433
877 0 116.075 15.085 1751 112.334 54.771 446.002
878 0 119.192 12.8364 1530 117.202 54.9614 443.494
879 0 125.13 13.3302 1668 113.527 55.4017 443.097
880 0 129.106 12.6485 1633 115.413 55.4342 439.066
881 0 133.15 12.4897 1663 118.185 55.6188 440.94
882 0 137.27 12.9088 1772 116.514 55.1123 438.861
883 1 80.3169 12.0523 968 112.268 54.9711 464.269
884 0 82.1703 12.4376 1022 110.911 54.7896 464.115
885 0 81.1047 12.1201 983 112.002 55.1933 462.496
886 0 88.1252 11.2794 994 110.566 54.5563 462.336
887 0 89.1375 11.3757 1014 109.663 54.4073 461.249
888 0 96.2123 12.8882 1240 105.785 55.6839 455.378
889 0 97.1329 11.4894 1116 110.151 54.7545 454.328
890 0 103.26 12.0666 1246 107.736 55.4005 454.311
891 0 107.294 14.7631 1584 100.549 54.8403 447.826
892 0 108.21 13.8804 1502 104.399 56.0193 444.32
893 0 113.257 13.4562 1524 104.579 55.3445 446.831
894 0 115.242 12.5302 1444 106.413 55.3186 445.501
895 0 119.252 12.6036 1503 106.8 54.1963 440.146
896 0 125.302 11.9871 1502 106.926 54.8569 438.969
897 0 128.313 13.6697 1754 103.449 54.3147 436.993
898 0 132.232 12.3344 1631 105.664 55.2974 435.446
899 0 137.214 12.7684 1752 105.295 55.3801 432.922
900 0 147.329 16.0253 2361 95.4358 55.8759 421.302
901 0 149.292 13.8185 2063 102.214 55.7833 422.806
902 0 155.217 12.7499 1979 103.916 55.952 427.34
903 0 159.262 12.4135 1977 105.972 55.6884 423.415
904 0 165.357 12.9114 2135 105.014 55.4197 421.18
905 0 174.313 16.6712 2906 96.1115 54.8052 409.371
906 1 98.1943 12.6993 1247 102.335 55.9471 449.577
907 0 102.147 12.3352 1260 104.317 54.8103 452.598
908 0 105.153 11.5831 1218 107.525 55.5657 449.627
909 0 107.33 11.9072 1278 106.415 55.4147 439.574
910 0 109.462 12.7715 1398 105.69 54.965 441.654
911 0 112.37 12.3966 1393 106.894 55.3453 438.683
912 0 117.528 13.7244 1613 102.381 56.1965 435.111
913 0 118.322 12.2462 1449 106.634 55.1684 434.361
914 0 122.324 12.8674 1574 105.517 55.4441 435.872
915 0 128.289 13.0409 1673 103.143 55.3556 439.423
916 0 131.316 12.0396 1581 106.338 54.2555 429.786
917 0 137.183 13.0264 1787 103.565 53.6094 432.732
918 0 142.201 11.8775 1689 106.265 54.5607 426.914
919 0 150.325 14.309 2151 99.6815 54.3826 421.238
920 0 152.441 13.5397 2064 102.841 54.8842 421.901
921 0 158.195 11.0876 1754 108.306 54.5952 420.766
922 0 163.181 13.0469 2129 105.153 54.7835 417.523
923 0 170.111 14.1554 2408 104.495 54.6001 413.909
924 0 173.116 13.2628 2296 106.335 55.4682 412.902
925 0 178.34 13.3004 2372 108.363 54.9469 402.868
926 0 183.168 12.7042 2327 110.278 54.7129 402.168
927 0 190.432 14.8504 2828 105.587 54.6103 393.639
928 0 190.39 12.4534 2371 111.587 55.3336 397.755
929 1 272.406 10.3265 2813 115.299 54.7586 374.968
930 0 273.269 10.2244 2794 114.064 55.054 378.688
931 0 274.338 9.79813 2688 116.712 55.3836 374.24
932 0 275.528 10.7865 2972 116.573 55.0737 367.612
933 0 272.687 8.41259 2294 118.302 55.2934 383.412
934 0 345.533 16.476 5693 105.53 54.9336 327.609
935 0 345.457 8.93309 3086 119.802 55.1319 364.415
936 1 328.665 11.7719 3869 116.29 54.2856 336.804
937 0 322.624 13.7467 4435 114.761 54.989 328.577
938 0 335.418 13.3594 4481 115.763 55.3604 332.122
939 1 233.548 20.2785 4736 94.4054 55.6223 378.767
940 0 235.364 16.9822 3997 103.957 55.5639 375.012
941 0 239.536 13.3383 3195 114.338 55.9199 380.964
942 0 246.51 12.9528 3193 118.047 56 376.254
943 0 256.56 14.2189 3648 117.48 55.898 368.873
944 0 263.658 14.0978 3717 118.769 55.9144 365.851
945 0 271.57 13.8381 3758 120.596 54.5098 357.817
946 0 281.547 13.7952 3884 117.989 54.6334 361.021
947 0 286.594 13.7756 3948 120.067 54.2219 345.588
948 0 319.749 22.0266 7043 96.5911 54.7995 328.697
949 0 319.514 22.1399 7074 98.2236 54.3609 319.439
950 0 325.796 18.8707 6148 105.736 55.1574 315.872
951 0 329.536 15.1668 4998 117.563 55.0426 328.07
952 0 338.599 14.3474 4858 119.894 55.0268 319.314
953 0 352.448 16.7798 5914 112.263 54.6931 307.214
954 0 367.68 16.9577 6235 111.332 54.3325 306.485
955 0 377.623 14.9779 5656 117.052 54.2942 294.513
956 0 373.68 8.94882 3344 126.552 54.3687 318.693
957 0 376.788 8.53532 3216 122.378 54.246 344.854
958 0 375.787 8.49152 3191 123.825 54.2532 346.25
959 0 372.954 10.2292 3815 120.368 54.4655 331.773
960 0 376.056 10.8016 4062 123.138 54.8863 319.384
963 0 266.382 12.6961 3382 109.151 54.6342 359.232
964 0 274.421 15.7677 4327 101.01 54.3732 353.356
965 0 282.51 17.1427 4843 97.655 54.9651 357.891
966 0 288.547 16.396 4731 99.8032 54.0805 353.94
967 0 296.711 16.3897 4863 99.5536 55.0327 347.465
968 0 306.771 15.3111 4697 102.472 54.2172 344.979
969 0 315.775 15.0424 4750 103.244 54.6364 338.532
970 0 306.361 5.7318 1756 110.369 54.1384 379.311
971 1 136.162 11.5303 1570 97.9968 54.2197 433.445
972 0 132.083 12.7722 1687 101.113 54.249 433.304
973 0 135.223 12.8824 1742 100.062 54.097 436.889
974 0 134.225 11.1306 1494 100.274 54.338 443.002
975 0 137.445 11.983 1647 99.714 55.0231 442.413
976 0 140.501 13.1245 1844 98.2028 55.1795 438.584
977 0 145.787 13.5128 1970 96.7863 55.1396 437.015
978 0 150.553 12.8526 1935 98.4227 55.4698 430.806
979 0 154.494 13.4569 2079 97.2665 55.2617 429.206
980 0 157.789 13.1695 2078 98.5188 55.1915 430.838
981 0 52.1298 12.9101 673 91.7623 56.792 481.074
982 0 50.019 15.854 793 89.2472 56.9735 480.514
983 0 46.0488 12.4216 572 103.498 57.6608 482.052
984 0 49.0193 14.0761 690 94.6304 57.0609 480.965
985 0 49.0423 13.8452 679 95.8571 56.947 481.842
986 0 49.112 14.5789 716 93.1997 57.2612 483.344
987 0 48.0888 13.4127 645 99.0248 56.355 483.761
988 0 48.1088 13.0122 626 99.754 57.0288 481.594
989 0 47.0453 12.7749 601 101.517 57.7654 482.294
990 0 48.1459 12.8775 620 100.4 56.9645 483.46
991 0 48.0281 13.159 632 100.424 57.7769 481.476
992 0 47.0822 12.3614 582 102.902 57.5034 483.38
993 0 46.0694 12.7199 586 103.126 58.0444 483.297
994 0 49.0983 14.5015 712 96.5056 57.9087 482.576
995 0 49.0371 12.7862 627 100.686 57.6396 482.992
996 0 49.2467 11.8993 586 105.109 57.9147 483.154
997 0 49.0969 13.565 666 101.489 57.7613 480.877
998 0 49.0332 13.4195 658 101.657 57.9544 481.006
999 0 46.1378 11.379 525 107.398 58.3657 483.33
1000 0 48.0443 12.6342 607 103.84 58.3624 482.586
1001 1 175.242 13.0049 2279 96.6788 55.8609 424.321
1002 0 178.398 13.5764 2422 95.1585 55.1887 419.975
1003 0 179.411 11.6826 2096 98.2362 55.3282 424.49
1004 1 51.0313 12.9136 659 100.605 57.5918 481.141
1005 0 48.0521 12.5905 605 104.142 57.7107 482.651
1006 0 47.0763 10.621 500 108.394 57.074 484.03
1007 0 50.0815 15.0155 752 95.5572 58.0585 480.44
1008 0 48.0381 13.635 655 99.9817 57.7878 483.861
1009 0 46.0389 11.3817 524 106.819 57.6221 483.307
1010 0 51.0339 12.7758 652 100.094 58.4432 483.485
1011 0 48.0411 12.2187 587 103.663 57.3782 482.094
1012 0 47.0645 11.2824 531 106.036 56.774 482.925
1013 0 48.059 13.2962 639 100.928 56.5243 482.557
1014 0 48.0639 12.6498 608 101.618 57.3372 482.067
1015 0 47.0174 11.6553 548 105.305 56.6971 482.65
1016 0 51.0456 14.3009 730 95.9384 57.7534 479.448
1017 0 49.0228 12.9736 636 99.9811 57.7406 482.198
1018 0 53.2087 11.3891 606 101.728 58.1931 483.107
1019 0 53.0456 10.6512 565 103.627 57.8 482.6
1020 0 51.0686 13.4133 685 98.162 58.889 479.527
1021 0 50.0784 12.141 608 100.995 58.0773 482.054
1022 0 56.0713 16.5682 929 86.3402 58.0947 475.762
1023 0 52.046 13.1038 682 98.4076 56.9194 480.471
1024 0 51.0816 13.6253 696 97.7457 57.8764 479.542
1025 0 47.1122 10.9738 517 105.942 57.4062 482.234
1026 0 48.0133 11.8509 569 104.404 57.819 481.097
1027 0 49.0425 11.4391 561 104.569 57.4545 481.148
1028 0 48.0359 11.533 554 104.345 57.9603 482.381
1029 0 46.0589 11.5938 534 104.781 57.5094 481.519
1030 0 50.1138 12.9505 649 99.4438 58.0647 481.683
1031 0 48.0747 11.0037 529 105.325 57.5255 481.739
1032 0 51.1121 12.6389 646 99.9489 57.5619 480.749
1033 0 50.0616 12.4646 624 100.162 58.1587 479.968
1034 0 51.0777 12.9215 660 99.1303 56.9742 479.605
1035 0 50.041 12.15 608 100.809 57.2845 481.668
1036 0 48.0687 12.5654 604 101.472 58.447 478.202
1037 0 48.1705 12.352 595 101.437 57.4756 480.055
1038 0 49.058 11.8431 581 102.439 57.7504 480.857
1039 0 50.0594 11.2067 561 103.004 57.3815 478.92
1040 0 48.0902 12.5389 603 101.124 58.0448 479.706
1041 0 56.0807 10.2352 574 103.272 58.5226 478.214
1042 0 57.0391 14.1307 806 88.7022 58.4429 475.671
1043 0 55.0339 14.7727 813 89.797 57.8413 476.816
1044 0 49.1098 12.1768 598 100.44 57.9281 477.906
1045 0 50.091 12.3176 617 99.188 58.0357 476.896
1046 0 51.0302 12.5612 641 98.5257 57.7722 478.917
1047 0 49.0263 11.4632 562 101.947 56.8808 480.016
1048 0 48.0445 11.7807 566 101.666 57.5583 479.541
1049 0 48.1251 11.0753 533 102.009 57.6848 480.758
1050 0 48.0649 11.11 534 101.139 57.5786 481.552
1051 0 50.0482 11.2292 562 100.002 58.2562 480.183
1052 0 50.0717 12.1626 609 98.2414 57.6486 479.816
1053 0 50.1081 12.1737 610 97.641 58.1672 479.957
1054 1 174.644 12.6314 2206 97.1646 56.1423 425.744
1055 0 176.418 12.7368 2247 101.342 56.5545 415.413
1056 0 179.528 12.2822 2205 101.485 56.8363 414.411
1057 0 184.681 11.7933 2178 101.848 56.5606 413.334
1058 1 49.0632 12.0253 590 98.6203 57.7136 480.025
1059 0 52.1014 13.9536 727 92.4842 58.37 478.048
1060 0 55.1329 14.4016 794 88.3879 58.1297 477.601
1061 0 52.0498 11.9693 623 96.801 58.2424 478.379
1062 0 49.0763 12.3481 606 96.0974 57.2805 480.541
1063 0 50.0736 11.6029 581 99.4475 58.0688 477.585
1064 0 49.078 11.3697 558 99.2814 57.7025 478.66
1065 0 50.0607 10.707 536 100.101 57.5541 481.091
1066 0 50.1121 11.4942 576 98.658 57.1372 479.806
1067 0 50.0729 10.4048 521 100.134 57.19 480.85
1068 0 49.0973 9.73577 478 101.385 57.6736 482.201
1069 0 55.0853 15.1402 834 87.2038 57.7626 477.88
1070 0 51.1243 12.5576 642 95.4673 58.1277 478.171
1071 0 48.0666 9.67409 465 99.4753 57.7462 482.815
1072 0 50.1028 11.177 560 97.4804 57.4196 480.466
1073 0 50.0935 11.9577 599 95.4257 58.1035 480.217
1074 0 55.0398 13.2813 731 89.9412 57.8427 475.358
1075 0 50.0941 12.0374 603 96.0962 58.2902 477.695
1076 0 56.0455 11.8118 662 94.9335 56.4834 476.39
1077 0 54.0302 14.1958 767 89.811 57.4641 476.458
1078 0 55.0902 15.4111 849 86.3227 58.2085 475.11
1079 0 53.062 13.324 707 94.3932 57.3776 476.806
1080 0 51.0696 11.5333 589 99.8506 58.2411 478.937
1081 0 49.0244 11.5045 564 100.867 58.1791 479.058
1082 0 49.0332 10.9314 536 103.806 58.4757 477.882
1083 0 48.1064 11.2459 541 101.747 58.4251 479.599
1084 1 152.503 11.9276 1819 105.656 57.6295 429.928
1085 0 157.434 13.0086 2048 104.441 57.2983 428.16
1086 0 159.388 12.3723 1972 106.585 57.4097 423.395
1087 0 163.428 12.8742 2104 104.395 57.2053 421.763
1088 0 167.236 13.0056 2175 103.916 57.0028 421.397
1089 1 48.0264 10.3068 495 102.032 58.6545 481.204
1090 0 47.0648 10.2624 483 104.046 58.0621 478.88
1091 0 53.1104 13.2554 704 93.6832 59.5511 476.125
1092 1 177.348 11.7565 2085 106.038 57.4484 417.653
1093 0 178.641 12.0577 2154 106.093 56.2071 419.532
1094 1 144.353 8.216 1186 109.439 58.1492 444.08
1095 0 144.158 11.4596 1652 104.8 58.066 429.073
1096 0 141.234 14.5149 2050 100.72 57.4668 427.261
1097 0 143.256 12.9698 1858 103.611 57.9279 433.326
1098 0 143.537 13.5714 1948 104.166 57.4435 427.534
1099 0 147.347 14.4013 2122 103.661 57.2653 427.196
1100 0 148.386 13.1549 1952 107.408 57.105 426.111
1101 1 47.069 11.2176 528 100.466 58.0284 478.744
1102 0 47.0323 10.716 504 101.45 57.5496 478.194
1103 0 50.0498 12.4876 625 95.16 59.2576 477.594
1104 0 52.0816 13.0372 679 92.6274 58.3446 474.265
1105 0 48.042 10.1786 489 101.591 59.1493 476.816
1106 1 164.355 11.2866 1855 105.119 56.9493 419.285
1107 0 167.509 12.5307 2099 102.047 57.3807 416.279
1108 0 175.431 13.1846 2313 100.048 56.9671 417.17
1109 0 177.445 12.5109 2220 100.424 57.3153 416.115
1110 0 186.195 14.1626 2637 105.889 57.7353 406.038
1111 0 187.367 13.2307 2479 100.325 57.4086 411.044
1112 1 127.335 12.9736 1652 99.0666 58.1858 440.311
1113 0 132.26 12.4149 1642 97.2454 57.8429 436.323
1114 0 132.408 11.9555 1583 99.573 58.2811 435.956
1115 0 136.293 12.5392 1709 99.4681 57.4014 436.192
1116 0 141.249 11.462 1619 103.982 57.8814 429.71
1117 0 140.255 12.6698 1777 102.886 57.7788 425.736
1118 0 144.244 13.2276 1908 101.329 57.5938 428.523
1119 0 144.308 11.9467 1724 99.7755 57.743 431.477
1120 0 148.365 12.7253 1888 98.357 57.706 427.815
1121 0 150.241 11.4749 1724 101.91 57.3678 426.447
1122 0 155.273 12.6036 1957 100.991 58.024 423.107
1123 0 163.243 14.6346 2389 98.6287 57.8535 413.951
1124 0 165.292 14.1507 2339 99.9568 57.295 416.582
1125 0 164.251 13.1384 2158 103.044 56.7563 417.19
1126 0 164.352 12.6315 2076 100.714 56.8512 421.06
1127 0 166.416 11.2789 1877 104.46 57.2722 417.722
1128 0 173.486 11.8915 2063 102.991 56.557 412.981
1129 0 179.169 12.4352 2228 104.99 57.1239 406.527
1130 1 125.4 11.9139 1494 99.7851 56.7262 441.636
1131 0 126.224 12.1372 1532 99.6841 57.5326 437.108
1132 0 132.256 12.1053 1601 96.9244 58.3154 437.538
1133 0 134.321 13.0285 1750 95.5206 57.36 433.941
1134 0 137.13 11.9959 1645 96.9812 58.0468 436.477
1135 0 137.294 12.3895 1701 98.8419 56.9894 430.678
1136 0 139.386 12.2896 1713 100.324 57.7396 432.249
1137 0 146.281 12.852 1880 97.7495 57.2835 428.54
1138 0 148.194 11.5996 1719 100.987 56.9465 426.846
1139 0 150.37 12.8749 1936 98.9241 56.7376 429.009
1140 0 152.196 11.8269 1800 100.134 57.2128 428.507
1141 0 156.266 13.0354 2037 98.1826 56.3314 427.63
1142 0 159.383 11.4692 1828 101.444 57.4809 425.553
1143 1 49.0946 10.5103 516 93.6802 56.9864 478.461
1144 0 48.0463 10.7396 516 94.4535 57.2907 478.742
1145 0 50.1373 11.9472 599 91.6077 57.8464 477.357
1146 0 47.0262 8.63349 406 99.0419 57.8424 479.899
1147 0 48.0496 9.55262 459 96.5381 57.7407 479.741
1148 0 46.0084 11.2153 516 95.1337 58.0213 477.357
1149 0 49.0272 11.7894 578 92.3132 58.4637 477.536
1150 0 47.0218 9.93156 467 96.0578 57.7837 478.257
1151 0 46.0417 8.68777 400 98.0925 57.725 478.028
1152 0 49.0673 11.7186 575 91.64 58.7965 476.517
1153 0 51.0489 11.6359 594 91.6549 58.0438 477.204
1154 0 49.1163 10.3224 507 93.7771 59.4675 477.771
1155 0 49.0721 10.3114 506 93.1206 57.6028 478.047
1156 0 49.0891 9.53369 468 93.8654 58.1709 478.596
1157 0 50.0518 11.2284 562 89.9822 58.516 479.399
1158 0 49.1464 11.6387 572 90.9336 58.3969 477.49
1159 0 46.0615 11.7018 539 90.8145 58.3043 479.471
1160 0 47.0652 11.8347 557 91.1957 58.3501 478.995
1161 0 51.08 7.98747 408 94.625 58.7941 481.848
1162 0 50.1144 7.8221 392 96.3367 58.9337 480.765
1163 0 49.1064 11.078 544 90.4357 59.3511 475.112
1164 0 48.1591 11.9188 574 89.1272 58.5714 476.843
1165 0 47.0399 9.8002 461 92.1388 57.5596 478.631
1166 0 47.0306 9.71709 457 93.0394 58.0481 480.816
1167 0 47.0432 9.84202 463 93.7171 58.5248 479.004
1168 0 49.0342 12.216 599 88.5175 57.8514 478.032
1169 0 48.1326 10.575 509 91.2475 59.0314 478.862
1170 0 51.0449 10.481 535 89.785 59.0692 479.574
1171 0 50.0524 10.6688 534 89.2154 58.0955 478.914
1172 0 58.0577 14.7956 859 76.3015 58.4854 470.815
1173 0 54.1238 12.6931 687 83.7627 58.738 473.108
1174 0 51.0733 12.4135 634 86.4322 59.112 477.177
1175 0 51.0637 11.7109 598 87.311 59.8562 477.806
1176 0 50.0169 11.5761 579 88.3938 59.3696 477.235
1177 0 49.0419 11.0926 544 88.5496 59.4871 479.658
1178 0 48.0329 10.7218 515 90.0116 59.1961 479.942
1179 0 45.1292 9.12934 412 93.2306 59.2403 481.121
1180 0 48.0355 10.8462 521 90.4626 58.8887 477.848
1181 0 50.0538 11.7274 587 88.0307 59.5281 476.92
1182 0 49.0731 11.595 569 88.0123 59.174 477.058
1183 0 50.0434 11.3501 568 87.7077 59.5194 478.852
1184 0 49.1441 10.5811 520 88.2962 58.8885 481.823
1185 0 49.0791 11.0026 540 89.4037 59.0056 479.081
1186 0 50.0593 9.28898 465 91.9849 58.7591 478.925
1187 0 48.0576 11.2989 543 88.2339 58.7403 480.243
1188 0 47.0395 9.92782 467 90.7216 59.1991 480.096
1189 0 53.0349 11.2756 598 86.1589 58.1405 478.94
1190 0 58.034 15.5254 901 75.2175 58.9001 473.574
1191 0 55.0251 13.5211 744 80.5228 59.3091 476.257
1192 0 52.076 12.501 651 84.8541 59.2734 476.267
1193 0 49.0229 10.6073 520 89.3712 58.5269 478.917
1194 0 50.0439 11.9695 599 86.2805 58.1269 477.002
1195 0 48.0827 11.2099 539 88.5937 58.0315 478.477
1196 0 49.0558 11.5379 566 88.0636 57.7968 476.846
1197 0 50.0482 9.89048 495 89.9717 57.3899 479.117
1198 0 50.0552 11.3874 570 87.5912 57.6684 477.612
1199 0 49.1278 10.1979 501 89.4252 58.6148 478.545
1200 0 52.0821 10.5603 550 87.2073 58.2564 478.853
1201 0 51.0368 11.7954 602 84.588 58.6894 478.448
