time division length width area intensity CMx CMy
0 0 33.0279 11.3238 374 133.749 505.735 483.144
1 0 34.0364 10.6651 363 134.072 506.083 482.733
2 0 38.0748 12.7381 485 126.699 505.194 480.179
3 0 38.1391 11.7465 448 134.556 505.609 479.585
4 0 39.0597 11.9817 468 133.058 505.581 480.692
5 0 41.0747 12.319 506 133.265 506.02 480.808
6 0 39.0899 11.384 445 138.969 505.443 479.739
7 0 42.0855 12.0469 507 134.775 505.44 479.777
8 0 42.1283 12.2008 514 134.333 504.87 480.154
9 0 42.0432 11.9877 504 135.115 505.131 479.631
10 0 44.0264 12.0382 530 135.223 505.43 478.189
11 0 46.0325 12.1219 558 130.373 505.616 479.789
12 0 47.0774 11.1306 524 136.462 505.326 476.939
13 0 48.0859 12.7688 614 132.493 505.857 478.671
14 0 50.0919 13.5152 677 129.716 505.229 478.112
15 0 50.0781 12.5204 627 134.041 504.582 478.582
16 0 52.1863 11.8805 620 135.731 504.931 478.603
17 0 54.1821 12.3103 667 133.759 504.48 478.807
18 0 55.2077 13.0779 722 134.179 503.658 478.194
19 0 56.0827 14.2468 799 131.514 504.571 475.967
20 0 55.0952 12.6508 697 136.816 503.752 477.522
21 0 58.1306 12.5751 731 135.687 503.126 477.338
22 0 58.0869 13.1871 766 135.431 502.743 477.03
23 0 60.075 13.3333 801 134.492 502.904 476.663
24 0 62.1025 11.8836 738 138.942 503.779 476.012
25 0 67.0861 12.8939 865 133.012 503.202 474.568
26 0 68.135 12.9155 880 133.784 502.528 473.562
27 0 69.1287 12.4695 862 135.37 501.371 472.739
28 0 72.137 12.4485 898 134.736 502.504 473.37
29 0 73.0881 11.6572 852 137.104 502.603 470.977
30 0 77.0969 12.8021 987 130.216 502.856 469.981
31 0 81.0998 11.8373 960 136.228 502.694 469.214
32 0 83.1824 12.3824 1030 133.493 502.272 465.817
33 1 42.12 12.0608 508 133.114 501.9 486.197
34 0 43.0637 13.1433 566 133.481 501.823 484.716
35 0 44.0663 13.0031 573 133.091 501.927 485.894
36 0 47.1057 13.2043 622 127.357 502.916 485.878
37 0 48.0231 12.4523 598 130.152 502.758 485.296
38 0 49.1019 12.7286 625 130.142 502.654 484.901
39 0 50.058 12.7852 640 131.033 502.075 483.27
40 0 54.0974 14.0857 762 125.478 502.135 482.341
41 0 55.1232 13.8236 762 126.462 501.72 481.534
42 0 58.1144 15.349 892 122.115 501.129 481.073
43 0 59.1817 13.9739 827 128.158 501.782 480.7
44 0 59.1058 13.1967 780 130.726 501.729 481.072
45 0 62.1528 13.9173 865 128.468 501.432 480.286
46 0 64.139 13.767 883 129.34 501.108 478.443
47 0 66.1604 13.437 889 131.618 500.961 477.061
48 0 69.0787 13.101 905 131.449 501.246 475.844
49 0 70.0812 13.7697 965 130.758 500.93 474.251
50 0 74.3177 13.8998 1033 128.926 501.212 475.47
51 0 76.0802 13.328 1014 131.386 501.153 472.616
52 0 79.1833 13.7276 1087 129.689 501.982 471.99
53 0 82.1567 13.9976 1150 129.464 502.337 469.285
54 0 85.1455 13.565 1155 129.217 501.414 468.631
55 0 87.216 12.6353 1102 131.201 500.743 468.368
56 1 46.0742 11.3295 522 132.992 500.151 487.99
57 0 49.0846 12.3664 607 130.55 500.417 485.697
58 0 52.0585 13.6385 710 127.025 500.78 486.776
59 0 52.0364 13.0678 680 131.537 500.334 485.666
60 0 51.0762 13.3135 680 127.672 500.222 486.659
61 0 54.0716 14.1294 764 124.168 500.656 486.254
62 0 55.133 12.878 710 128.47 500.876 486.503
63 0 56.0805 13.4271 753 128.206 501.036 484.166
64 0 58.1376 12.6596 736 130.045 500.111 484.814
65 0 60.0831 13.5978 817 127.355 499.956 483.718
66 0 62.1526 14.3679 893 125.326 500.125 482.264
67 0 65.0993 13.3796 871 127.834 500.225 481.194
68 0 65.1003 12.3655 805 131.096 499.578 480.452
69 0 67.1399 13.0772 878 127.92 499.994 477.686
70 0 70.2681 13.2777 933 126.967 500.079 477.931
71 0 72.1682 12.9697 936 129.085 500.113 476.667
72 0 75.1589 12.8262 964 128.906 500.31 474.541
73 0 76.2045 12.9782 989 128.758 499.808 474.583
74 0 80.1536 13.0874 1049 128.176 499.782 472.645
75 0 82.2284 13.7301 1129 126.978 499.96 471.433
76 0 85.1758 13.2902 1132 127.638 499.889 470.337
77 0 88.1381 12.6846 1118 129.909 500.245 468.798
78 0 90.1433 12.935 1166 129.192 499.918 470.425
79 1 47.0423 11.0326 519 133.16 500.019 488.784
80 0 49.0755 12.7762 627 131.016 500.416 487.026
81 0 50.0679 12.503 626 132.022 500.72 488.016
82 0 50.0994 11.9961 601 125.363 500.611 489.627
83 0 51.0576 12.2215 624 126.03 500.837 487.492
84 0 51.0772 12.4909 638 127.694 500.462 486.34
85 0 52.026 11.5519 601 128.656 500.514 487.789
86 0 55.0758 12.6734 698 127.049 500.672 484.957
87 0 58.0635 12.4691 724 126.695 500.685 484.378
88 0 61.0379 12.1564 742 126.09 501.032 484.018
89 0 63.1684 13.4561 850 122.708 500.792 482.706
90 0 64.1557 12.08 775 126.774 500.902 482.747
91 0 66.0659 12.9719 857 125.054 500.935 481.254
92 0 69.0567 13.612 940 122.76 500.24 479.639
93 0 70.1706 12.5551 881 125.832 500.032 480.462
94 0 72.0202 10.8997 785 129.306 499.91 478.997
95 0 76.0337 13.0074 989 122.667 499.9 477.017
96 0 78.0578 13.2978 1038 122.645 499.436 474.663
97 0 80.0859 13.036 1044 124.094 499.566 473.004
98 0 85.1363 13.8014 1175 120.095 500.004 472.187
99 0 85.1078 12.5135 1065 124.764 500.669 469.927
100 0 90.0809 12.733 1147 122.159 500.819 471.108
101 0 91.1908 13.2908 1212 122.44 500.2 465.257
102 0 95.1066 12.6174 1200 123.012 500.532 464.84
103 0 99.0799 13.4134 1329 120.961 500.056 461.381
104 0 103.201 12.8099 1322 121.649 500.234 462.527
105 1 52.0514 11.2773 587 118.233 500.349 488.363
106 0 52.0813 10.6564 555 122.348 499.96 485.236
107 0 57.1235 11.2038 640 118.158 499.662 485.558
108 0 58.0459 11.7666 683 116.146 500.089 486.609
109 0 59.0408 11.3481 670 118.293 499.975 484.576
110 0 60.0625 10.3392 621 120.908 500.111 484.444
111 0 62.0277 10.9467 679 119.856 499.985 482.865
112 0 64.0999 11.8565 760 117.963 499.801 481.245
113 0 68.0785 11.5749 788 119.176 500.022 478.391
114 0 71.0779 13.028 926 114.948 500.162 477.373
115 0 72.0968 12.7467 919 117.148 499.272 475.621
116 0 74.0929 12.1469 900 118.156 500.314 475.118
117 0 76.07 11.8444 901 119.139 500.028 475.826
118 0 78.0793 10.6815 834 122.843 500.754 473.849
119 0 80.0612 11.6661 934 121.32 501.007 471.157
120 0 84.1044 12.9006 1085 117.857 500.179 468.841
121 0 88.0759 12.3757 1090 119.141 499.755 469.9
122 0 90.0991 11.9979 1081 120.043 499.535 467.74
123 0 92.0508 12.2324 1126 121.161 499.8 465.663
124 0 95.1271 12.7829 1216 119.303 499.78 462.389
125 0 99.1775 11.9483 1185 120.712 500.027 463.127
126 1 52.08 10.7143 558 122.129 500.014 485.382
127 0 55.118 12.2464 675 120.295 499.255 487.172
128 0 53.0266 10.5607 560 119.63 499.921 484.773
129 0 57.0525 11.4982 656 115.659 499.892 485.123
130 0 59.155 10.9881 650 114.7 500.385 484.64
131 0 61.1349 11.0248 674 114.447 499.825 484.257
132 0 63.1253 11.3584 717 114.409 499.503 480.873
133 0 65.0884 10.6471 693 114.732 499.241 480.444
134 0 68.2415 11.5033 785 113.257 499.543 478.217
135 0 69.1489 10.7015 740 114.645 499.496 478.738
136 0 71.1482 11.6377 828 113.487 499.394 476.877
137 0 74.1257 11.5075 853 112.848 498.623 476.381
138 0 77.1601 12.1565 938 111.345 499.188 476.415
139 0 79.1674 10.901 863 115.67 499.555 473.708
140 0 84.0812 12.7734 1074 111.705 499.028 471.684
141 0 84.1528 12.3109 1036 114.614 498.666 470.544
142 0 87.1263 12.2236 1065 117.144 498.128 466.032
143 0 90.1031 12.1195 1092 118.014 498.788 467.729
144 0 92.1171 11.9196 1098 120.555 498.889 463.171
145 1 46.0821 11.5446 532 115.064 498.906 488.06
146 0 48.0284 11.0351 530 113.709 499.368 488.645
147 0 48.0587 12.2558 589 112.672 499.745 487.856
148 0 49.0298 10.4834 514 113.735 499.002 488.206
149 0 48.0396 11.5321 554 113.787 499.152 487.274
150 0 51.0349 11.9526 610 113.418 498.564 487.526
151 0 52.0309 12.4349 647 112.085 498.895 486.411
152 0 54.0602 12.2456 662 112.52 499.432 487.137
153 0 56.0157 12.0502 675 113.93 499.843 485.313
154 0 56.1419 11.1681 627 117.108 500.14 484.537
155 0 59.0883 12.5913 744 113.964 499.926 483.957
156 0 60.0954 12.5134 752 115.145 499.612 482.501
157 0 63.1318 11.7373 741 116.646 499.414 481.48
158 0 65.0524 12.2056 794 116.082 499.44 479.893
159 0 68.0794 13.2492 902 113.531 499.388 479.169
160 0 68.0715 12.1049 824 118.023 499.416 477.674
161 0 71.0582 13.299 945 114.063 499.692 476.823
162 0 74.1352 12.3423 915 116.188 499.913 476.728
163 0 77.0837 12.5318 966 115.975 499.77 474.387
164 0 77.1064 12.2947 948 116.725 499.942 472.812
165 0 82.1757 13.0209 1070 113.623 500.065 471.938
166 0 84.0742 12.7506 1072 114.995 499.944 469.168
167 0 88.1324 12.5039 1102 114.534 499.97 469.902
168 0 89.0762 12.1918 1086 115.937 499.69 464.832
169 0 93.1649 11.324 1055 116.806 499.982 464.823
170 0 96.0697 12.2932 1181 114.881 499.912 464.382
171 0 98.2568 11.9992 1179 118.246 499.163 464.129
172 0 96.1588 10.6594 1025 120.275 499.785 464.269
173 0 100.078 11.451 1146 117.013 499.421 465.586
174 1 51.1246 12.6162 645 112.163 499.457 483.713
175 0 53.0328 11.3326 601 114.88 499.637 483.79
176 0 54.0255 12.0314 650 113.932 499.395 483.437
177 0 56.0546 12.0062 673 114.279 499.275 482.262
178 0 56.0185 10.318 578 119.945 499.31 481.711
179 0 60.037 12.8587 772 112.972 498.832 481.601
180 0 64.0321 13.259 849 111.863 498.3 480.196
181 0 64.0735 12.6417 810 114.719 499.254 477.798
182 0 67.0875 13.6091 913 112.789 498.954 477.78
183 0 68.0256 11.7456 799 118.747 499.413 476.705
184 0 70.0227 12.953 907 116.94 499.419 477.325
185 0 74.1002 12.3077 912 117.467 499.422 474.938
186 0 76.1622 13.7207 1045 114.959 499.487 473.369
187 0 78.136 13.3613 1044 116.954 499.21 474.676
188 0 80.129 13.2287 1060 118.397 498.608 472.675
189 0 81.1523 12.5936 1022 120.948 499.016 470.328
190 0 87.2387 13.572 1184 116.691 498.786 468.976
191 0 88.2237 12.4343 1097 120.985 498.681 466.682
192 1 49.1202 10.627 522 123.82 498.653 486.626
193 0 53.0638 13.6063 722 116.123 498.917 485.679
194 0 53.0568 14.2866 758 115.798 498.364 485.28
195 0 51.0382 12.4809 637 122.212 498.341 485.51
196 0 54.0488 13.0623 706 119.45 498.746 484.761
197 0 55.0631 12.7853 704 120.483 499.357 485.115
198 0 57.1243 13.4619 769 118.978 499.134 484.559
199 0 59.1899 13.6003 805 120.091 499.063 482.821
200 0 60.132 12.589 757 123.382 498.878 481.871
201 0 63.1638 13.9954 884 120.526 499.452 479.8
202 0 66.1289 12.8537 850 122.722 499.353 481.159
203 0 69.1482 13.5072 934 122.076 499.233 478.701
204 0 69.1414 12.9734 897 125.614 499.186 476.672
205 0 71.1976 12.4723 888 127.159 499.238 477.785
206 0 75.2366 13.8363 1041 123.355 499.198 477.355
207 0 76.1831 12.89 982 126.744 499.153 476.18
208 0 80.2106 13.4895 1082 124.637 498.996 474.116
209 0 82.2196 13.2572 1090 125.138 499.027 472.626
210 0 83.2286 12.7841 1064 128.656 499.3 472.08
211 0 85.2094 13.5901 1158 128.16 499.243 469.197
212 0 89.2609 14.34 1280 125.896 499.611 469.007
213 0 92.2519 14.6013 1347 124.702 499.102 468.414
214 0 95.3353 14.0452 1339 127.254 499.357 466.119
215 0 98.3465 14.3167 1408 126.332 499.746 464.494
216 0 101.304 14.7378 1493 125.585 499.025 462.667
217 0 103.219 13.5053 1394 130.163 498.956 459.468
218 0 107.185 14.8062 1587 125.31 498.989 459.756
219 0 111.137 14.4326 1604 126.072 499.275 457.552
220 0 116.198 13.8556 1610 126.42 499.363 457.132
221 0 119.228 13.8223 1648 126.859 498.899 454.905
222 0 121.15 13.4296 1627 128.978 499.531 453.412
223 0 126.259 13.6228 1720 129.409 498.726 450.149
224 0 131.263 13.0806 1717 130.246 499.119 448.569
225 0 139.203 13.8287 1925 127.833 499.295 446.45
226 1 80.0945 11.7986 945 130.691 498.874 472.978
227 0 84.1013 12.1282 1020 129.573 499.351 471.145
228 0 84.1095 11.5564 972 123.013 499.332 472.002
229 0 88.1668 12.2155 1077 121.354 499.591 470.648
230 0 92.2017 11.9954 1106 121.939 499.77 469.868
231 0 92.1017 11.5199 1061 125.297 500.036 466.841
232 0 97.159 12.9581 1259 121.11 500.056 463.411
233 0 100.149 13.0306 1305 119.356 500.182 461.899
234 0 102.192 11.498 1175 120.72 500.201 458.814
235 0 107.141 11.9842 1284 118.762 500.315 459.452
236 1 57.035 9.50294 542 121.161 500.603 483.751
237 0 60.0347 12.676 761 117.788 499.9 482.239
238 0 60.0537 11.4064 685 120.488 499.936 481.009
239 0 63.0706 11.0828 699 119.369 500.02 482.233
240 0 62.0944 10.6129 659 118.501 500.281 482.803
241 0 66.0753 11.0026 727 116.135 500.05 481.362
242 0 67.0436 11.4851 770 115.542 499.926 479.565
243 0 70.027 11.3813 797 116.578 499.969 478.465
244 0 71.067 10.9615 779 119.131 499.892 475.918
245 0 74.0984 12.281 910 116.89 500.054 474.441
246 0 76.0347 13.0072 989 116.149 499.635 472.973
247 0 79.11 11.8063 934 119.41 499.556 473.434
248 0 81.1407 12.1271 984 120.832 499.515 469.198
249 0 85.1112 11.0679 942 123.395 499.739 469.145
250 0 89.1497 13.0455 1163 118.929 499.934 467.724
251 0 93.1486 12.5069 1165 119.894 499.712 466.25
252 0 96.1746 13.2155 1271 118.548 499.776 462.537
253 0 100.223 12.9711 1300 118.708 500.155 463.535
254 1 50.0344 10.3729 519 119.807 500.53 487.557
255 0 53.0419 12.1602 645 117.033 500.712 485.704
256 0 56.1014 11.497 645 116.679 501 484.781
257 0 57.0644 12.3895 707 115.977 500.512 483.375
258 0 59.0611 11.2426 664 124.58 500.322 483.985
259 0 59.0552 11.1083 656 126.203 500.566 482.229
260 0 62.104 11.5452 717 123.664 500.457 482.032
261 0 65.1217 11.3019 736 123.349 500.837 479.933
262 0 66.0591 11.5503 763 122.976 500.343 479.857
263 0 66.0524 11.7634 777 122.514 500.568 478.669
264 0 70.0767 13.0286 913 118.309 499.805 477.09
265 0 72.0406 11.3408 817 122.308 500.229 477.395
266 0 74.0934 11.8094 875 121.299 500.271 474.063
267 0 76.1347 11.4008 868 122.052 500.194 474.643
268 0 79.0703 11.3823 900 121.154 500.1 472.353
269 0 83.0873 13.0224 1082 116.008 500.145 472.173
270 0 85.0741 12.6596 1077 116.708 500.376 470.284
271 0 86.1226 13.0512 1124 115.564 500.538 471.101
272 0 88.1026 12.9735 1143 115.696 499.766 468.156
273 0 92.1767 13.0836 1206 114.535 500.25 467.217
274 0 96.1986 13.7424 1322 113.163 499.857 462.823
275 0 96.0867 12.3222 1184 115.304 499.832 463.347
276 0 101.102 12.5616 1270 112.529 500.172 463.994
277 0 100.088 11.6698 1168 117.242 500.314 460.062
278 0 107.205 12.4901 1339 113.246 500.046 458.241
279 1 54.0922 9.96447 539 110.432 500.488 485.254
280 0 57.1151 11.4506 654 106.489 499.965 484.65
281 0 60.0806 12.4 745 103.715 500.648 481.314
282 0 64.0648 12.0347 771 103.466 500.774 481.711
283 0 63.1568 12.2869 776 104.143 500.682 478.668
284 0 68.0817 13.0578 889 102.217 500.588 478.046
285 0 68.2049 11.7294 800 105.984 500.16 475.256
286 0 72.0662 12.6273 910 104.233 500.793 475.975
287 0 75.061 11.7504 882 106.723 500.526 474.924
288 0 80.0874 14.0222 1123 100.5 499.765 474.687
289 0 80.1166 12.3071 986 105.88 499.909 471.039
290 0 83.0872 12.0957 1005 107.443 500.091 469.064
291 0 86.0999 13.2056 1137 106.303 500.193 468.045
292 0 89.3344 11.8208 1056 109.501 500.275 467.798
293 0 94.1411 12.6194 1188 107.903 500.584 466.496
294 0 96.101 12.2787 1180 108.627 500.408 463.892
295 0 97.1376 13.5375 1315 109.132 500.946 461.637
296 0 101.169 12.0195 1216 116.159 500.004 463.382
297 0 105.092 12.4653 1310 115.401 500.34 460.684
298 0 108.266 12.8757 1394 114.281 500.349 458.834
299 0 111.216 10.7358 1194 119.169 500.069 456.128
300 0 117.174 11.9481 1400 116.02 499.873 453.755
301 1 62.1436 11.8274 735 110.931 500.469 482.351
302 0 62.0283 12.4782 774 113.149 500.101 480.01
303 0 65.0581 12.2813 799 112.594 499.929 482.452
304 0 67.1401 12.7643 857 112.985 500.043 479.322
305 0 67.1071 11.2805 757 117.824 500.169 477.992
306 0 73.1333 12.4294 909 113.252 500.45 477.391
307 0 75.1459 12.5888 946 113.407 500.341 475.907
308 0 76.1027 13.1927 1004 114.034 500.032 472.982
309 0 80.1521 12.6759 1016 115.642 500.211 470.949
310 0 83.0782 11.7359 975 115.593 499.992 471.842
311 0 87.1532 13.3673 1165 110.758 499.27 470.479
312 0 90.091 13.553 1221 109.527 499.572 467.758
313 1 47.0328 12.5232 589 109.784 499.667 489.435
314 0 48.0421 11.927 573 110.736 499.531 487.962
315 0 50.077 11.4024 571 114.667 499.447 487.375
316 0 53.2722 12.4455 663 110.923 499.071 486.754
317 0 54.0867 11.2412 608 113.794 499.368 486.319
318 0 51.1073 11.4269 584 116.3 499.55 483.985
319 0 56.1261 11.688 656 112.152 499.623 484.29
320 0 55.1119 11.9756 660 114.176 499.244 482.141
321 0 59.1085 12.0964 715 111.972 499.431 484.717
322 0 60.096 12.5299 753 111.814 499.138 482.61
323 0 63.1316 12.4027 783 110.659 499.259 481.923
324 0 64.1517 11.4105 732 113.443 498.906 480.331
325 0 68.1275 12.3445 841 111.293 499.253 478.026
326 0 70.1021 12.5246 878 109.969 499.607 478.399
327 0 73.0995 13.3517 976 108.339 500.443 475.22
328 0 74.0905 11.8909 881 112.087 500.547 473.662
329 0 78.1066 12.9439 1011 109.891 500.081 470.839
330 1 43.0455 11.0581 476 108.821 500.05 489.046
331 0 43.1949 10.4411 451 111.69 498.918 489.244
332 0 44.1017 11.0427 487 109.386 499.667 488.419
333 0 47.1157 10.782 508 108.091 499.882 488.148
334 0 47.0949 11.1477 525 109.067 499.8 488.175
335 0 47.0386 12.1815 573 102.921 501.581 488.904
336 0 46.0236 10.0818 464 108.571 500.616 489.067
337 0 49.0852 11.6736 573 105.333 500.841 487.806
338 0 53.0929 12.7512 677 108.236 500.669 484.708
339 0 53.06 12.1937 647 110.442 500.184 484.575
340 0 58.0618 12.2973 714 109.542 500.518 484.046
341 0 57.0288 12.4323 709 110.444 500.557 483.942
342 0 57.0692 11.5649 660 113.567 500.579 482.517
343 0 62.1163 12.3156 765 110.161 500.795 480.817
344 0 61.043 10.7138 654 115.43 500.992 480.433
345 0 64.0704 12.5799 806 110.908 501.489 480.201
346 0 65.0692 11.8182 769 112.782 501.856 476.832
347 0 71.1029 14.036 998 107.14 501.626 475.621
348 0 71.0518 12.3994 881 111.695 500.825 476.898
349 1 37.0271 11.019 408 106.721 501.167 494.392
350 0 37.0443 10.6359 394 111.091 501.081 493.368
351 0 38.0241 10.2829 391 112.256 500.913 493.662
352 0 40.1042 11.0961 445 111.128 500.888 493.16
353 0 37.0308 10.2347 379 111.253 501.984 494.478
354 0 39.0189 11.7891 460 108.913 501.824 494.322
355 0 41.0202 12.0185 493 108.377 502.039 493.061
356 0 43.0628 11.3323 488 110.67 502.158 492.439
357 0 42.0656 11.0542 465 112.284 502.062 493.28
358 0 45.0343 12.3461 556 109.083 501.98 491.218
359 0 45.1256 11.5677 522 112.234 502.103 492.084
360 0 46.0604 11.4198 526 115.12 501.43 490.966
361 0 50.0227 11.8946 595 112.128 502.106 490.931
362 0 50.0314 12.5121 626 112.859 501.577 489.561
363 0 53.0233 12.1456 644 113.057 501.745 489.884
364 0 54.0602 13.4295 726 112.304 501.753 486.592
365 0 56.1928 13.1867 741 113.314 501.596 485.484
366 0 57.1203 12.605 720 115.59 501.708 486.271
367 0 57.0261 11.9594 682 117.601 501.55 487.804
368 0 59.0828 12.4232 734 117.129 501.195 485.725
369 0 64.0736 12.5949 807 115.118 501.582 483.32
370 0 63.087 12.2529 773 117.77 501.202 483.358
371 0 67.0403 13.3203 893 114.761 500.685 481.288
372 0 67.0571 12.7652 856 117.229 500.959 479.468
373 0 70.0913 12.5836 882 114.795 500.561 479.525
374 0 71.0657 12.6362 898 114.729 500.635 477.597
375 0 75.0402 12.9131 969 113.008 500.367 475.985
376 0 77.0977 12.4128 957 115.448 500.341 475.394
377 0 81.1344 13.5577 1100 113.565 500.597 472.694
378 0 83.2074 12.9195 1075 115.877 500.668 473.161
379 0 86.1094 13.0299 1122 117.512 500.33 469.559
380 1 47.0229 11.824 556 114.89 500.007 492.354
381 0 46.106 11.1265 513 118.382 499.583 491.267
382 0 48.0584 12.464 599 115.518 499.753 489.613
383 0 51.06 13.4743 688 112.109 499.448 488.318
384 0 51.0704 13.3541 682 111.657 500.673 488.397
385 0 51.0512 12.7323 650 113.657 500.745 487.902
386 0 56.077 14.0164 786 108.392 499.911 486.546
387 0 58.0631 12.6414 734 111.193 500.195 486.409
388 0 59.0835 13.1847 779 110.652 500.3 485.326
389 0 59.0452 12.6683 748 113.389 500.031 483.281
390 0 62.0754 12.7909 794 112.466 500.278 483.603
391 0 62.0748 13.4032 832 112.076 500.323 483.32
392 0 64.1337 12.8482 824 113.894 500.492 482.086
393 0 69.1147 12.718 879 112.419 500.596 481.596
394 0 71.1652 12.7028 904 112.831 500.493 480.675
395 0 75.1128 14.0589 1056 108.704 500.586 478.743
396 0 74.17 13.7926 1023 111.756 500.717 477.035
397 0 78.1247 14.7457 1152 109.333 500.368 475.622
398 0 80.0847 12.8364 1028 114.707 501.256 473.727
399 0 83.0521 13.5698 1127 112.398 500.776 472.522
400 0 86.0871 13.0333 1122 113.425 500.61 472.546
401 0 89.05 12.9815 1156 113.676 500.771 471.075
402 0 92.0895 13.3566 1230 113.021 501.267 469.246
403 0 93.1516 12.1093 1128 117.012 500.542 464.026
404 0 97.0696 11.3733 1104 117.129 500.907 467.197
405 1 49.054 12.048 591 112.442 499.785 487.873
406 0 51.1275 12.4199 635 110.934 500.756 486.913
407 0 52.0129 13.3044 692 111.253 500.126 487.673
408 0 54.02 12.1066 654 114.291 499.838 486.7
409 0 57.0469 13.4977 770 110.226 499.729 484.51
410 0 57.0375 12.8161 731 113.806 499.363 482.363
411 0 59.0695 11.9351 705 115.807 499.698 482.452
412 0 61.0334 12.3867 756 114.782 499.503 482.798
413 0 64.0277 13.5879 870 111.29 499.722 481.366
414 0 65.0101 12.9826 844 113.793 499.179 479.064
415 0 67.0798 12.5075 839 114.877 499.509 478.398
416 0 70.0677 13.9008 974 111.634 499.329 476.482
417 0 74.1368 13.0435 967 112.604 499.702 478.118
418 0 78.0451 13.9663 1090 110.528 499.62 476.06
419 0 79.0463 13.4731 1065 112.465 499.606 472.711
420 0 83.0707 14.3974 1196 110.365 499.481 471.949
421 0 82.062 11.406 936 118.716 499.668 468.448
422 0 89.1022 13.5238 1205 112.617 500.16 469.594
423 0 92.1249 12.8304 1182 114.541 500.658 468.764
424 1 46.0869 11.3481 523 113.704 500.029 490.824
425 0 47.1111 10.592 499 116.064 500.627 488.89
426 0 50.0786 12.6002 631 112.453 500.29 488.561
427 0 51.0266 12.856 656 113.578 500.078 487.093
428 0 54.0602 12.6526 684 113.044 499.689 488.589
429 0 56.0944 10.9458 614 117.865 500.518 487.018
430 0 56.0722 10.647 597 119.382 500.075 485.814
431 0 58.0204 13.0471 757 116.17 500.188 482.31
432 0 61.2224 12.6588 775 114.716 500.582 481.841
433 0 64.0603 13.2531 849 112.976 500.796 482.828
434 0 64.0774 13.4681 863 113.939 499.71 481.533
435 0 65.0807 12.3539 804 118.368 500.077 480.562
436 0 67.0538 12.5422 841 117.589 500.545 480.508
437 0 71.0274 11.7842 837 119.564 500.564 478.509
438 0 74.0422 11.9797 887 118.722 500.039 477.092
439 0 76.0655 12.4629 948 116.738 500.112 477.623
440 0 78.0745 12.8339 1002 116.105 500.48 477.089
441 0 83.1145 12.7896 1063 115.933 500.58 474.478
442 0 86.0697 13.5936 1170 113.318 500.252 474.826
443 0 87.0685 12.5419 1092 118.407 500.042 471.269
444 0 91.042 14.0375 1278 115.214 500.347 469.911
445 0 93.176 13.6838 1275 117.479 500.253 465.068
446 0 96.0739 12.4488 1196 121.049 500.533 465.168
447 1 50.0241 11.1746 559 117.953 500.306 489.147
448 0 49.0366 10.9306 536 118.944 500.422 488.994
449 0 54.1191 12.3431 668 114.102 500.753 487.963
450 0 58.1494 15.0818 877 75.0673 500.787 487.902
451 0 57.0455 12.1833 695 108.124 500.94 486.65
452 0 57.0616 13.0385 744 107.636 501.249 484.227
453 0 58.0275 14.0968 818 106.606 500.389 485.511
454 0 60.0622 12.0542 724 110.807 501.198 482.084
455 0 62.0835 12.9664 805 108.421 501.344 482.004
456 0 62.0888 12.3372 766 111.35 501.847 482.937
457 0 67.1503 13.2092 887 117.641 501.933 480.856
458 0 68.1173 11.6857 796 121.126 501.693 480.671
459 0 71.1495 12.4808 888 118.365 501.572 480.307
460 0 72.113 14.0197 1011 116.068 501.997 477.828
461 0 75.0901 13.4905 1013 117.924 501.925 475.543
462 0 76.0944 13.8906 1057 116.918 501.708 475.585
463 0 78.1495 14.5106 1134 115.289 501.518 474.28
464 0 79.072 13.2664 1049 118.886 501.641 475.393
465 0 81.1324 13.2006 1071 120.248 501.68 472.793
466 0 83.1404 12.5571 1044 122.256 502.49 472.859
467 0 86.1333 12.7361 1097 121.333 502.067 470.192
468 0 90.2207 13.8106 1246 117.323 501.872 470.498
469 0 93.1698 14.4145 1343 116.73 502.326 468.144
470 0 95.098 14.259 1356 117.119 501.976 467.387
471 0 97.0916 13.3585 1297 118.061 501.875 464.008
472 0 99.0895 12.1607 1205 118.359 501.784 464.23
473 0 102.163 12.3822 1265 118.428 501.598 462.303
474 0 107.111 13.9388 1493 115.222 501.766 459.042
475 0 109.172 12.668 1383 118.359 501.528 456.362
476 0 114.296 13.7888 1576 113.964 501.962 454.527
477 0 116.156 12.8017 1487 114.079 501.378 456.026
478 0 120.179 12.7975 1538 113.343 501.151 451.967
479 0 124.144 12.8318 1593 113.168 501.236 449.546
480 0 130.116 13.5955 1769 110.629 501.366 447.594
481 1 70.1101 11.268 790 108.844 501.938 477.133
482 0 72.1078 12.5923 908 105.851 502.213 475.794
483 0 75.1201 11.4084 857 107.273 500.842 475.852
484 0 79.1377 12.9395 1024 103.375 500.4 474.315
485 0 81.0598 12.1145 982 105.168 500.711 472.623
486 0 82.1272 11.3604 933 107.013 501.047 470.491
487 0 84.0621 12.241 1029 104.786 500.973 470.035
488 0 86.0735 11.9781 1031 111.839 501.906 467.56
489 0 90.0897 12.754 1149 107.583 500.781 466.09
490 0 93.0839 12.4082 1155 104.902 500.855 464.571
491 0 93.1333 12.0902 1126 106.982 500.71 462.795
492 0 97.1748 13.3471 1297 103.485 501.244 461.29
493 0 96.0998 12.5182 1203 105.697 500.943 461.667
494 0 99.1313 15.1314 1500 100.37 501.369 462.784
495 0 98.1988 13.1366 1290 104.834 500.536 458.644
496 0 102.152 15.5748 1591 102.225 500.906 460.704
497 0 100.098 16.2941 1631 101.58 500.75 458.256
498 0 102.076 15.8901 1622 102.375 501.549 458.224
499 0 102.072 14.3232 1462 107.111 501.173 459.601
500 0 105.107 15.0133 1578 107.165 502.029 458.561
501 0 105.114 16.5059 1735 106.656 502.298 455.963
502 0 105.183 15.3067 1610 110.843 502.298 458.516
503 0 108.147 16.3667 1770 107.5 502.305 455.621
504 0 108.247 16.8965 1829 106.87 502.067 452.927
505 1 190.41 11.3177 2155 107.424 501.606 428.043
506 0 188.713 10.1053 1907 108.565 502.169 438.393
507 0 187.262 9.87919 1850 108.572 501.645 448.828
508 0 185.21 9.00059 1667 111.893 501.551 455.786
509 0 178.448 14.2171 2537 97.5857 501.729 445.939
510 0 171.11 10.1397 1735 110.795 502.374 455.78
511 0 172.151 10.5721 1820 108.671 502.083 454.242
512 0 170.092 11.2704 1917 106.284 502.181 451.457
513 0 182.564 13.5898 2481 94.1254 502.075 437.089
514 1 171.548 12.7719 2191 101.891 501.756 445.654
515 0 175.539 10.67 1873 108.725 501.807 449.213
516 0 173.641 11.7023 2032 106.02 501.277 448.119
517 0 181.934 17.7592 3231 86.013 501.242 426.798
518 0 179.429 11.3582 2038 107.237 501.429 447.482
519 0 179.949 15.2544 2745 94.7869 501.156 439.886
520 0 181.683 13.8428 2515 99.2179 500.73 442.287
521 0 188.599 14.5706 2748 95.6146 501.162 436.934
522 0 180.572 16.913 3054 91.0652 501.031 432.562
523 0 186.862 15.482 2893 94.2589 500.44 442.263
524 0 192.737 17.2982 3334 87.7103 500.421 429.784
525 0 184.745 17.3374 3203 87.8448 500.805 421.846
526 1 295.252 10.1642 3001 114.386 500.961 384.796
527 0 293.23 6.31245 1851 116.572 500.609 431.222
528 1 192.241 12.6404 2430 101.087 500.961 442.098
529 0 187.843 16.0773 3020 91.5321 500.929 432.708
530 0 190.471 15.5719 2966 92.8715 500.964 432.385
531 0 184.508 15.3597 2834 95.4319 500.447 439.346
532 0 196.536 16.1548 3175 93.5931 499.904 434.638
533 0 192.979 13.017 2512 100.368 500.283 439.564
534 0 197.836 16.8827 3340 88.4365 500.802 425.196
535 0 193.498 15.9691 3090 91.5845 499.993 426.564
536 0 192.88 22.3196 4305 80.3508 500.081 420.054
537 0 190.287 17.7363 3375 90.8222 500.076 435.076
538 0 179.606 21.1296 3795 85.4348 500.459 421.227
539 0 183.635 25.0387 4598 78.6018 499.995 411.742
540 0 184.884 19.9044 3680 88.9043 500.35 427.676
541 0 195.019 17.106 3336 93.2782 500.684 430.795
542 0 190.553 20.1886 3847 88.5402 500.616 426.396
543 0 194.081 18.3892 3569 91.8518 500.779 426.969
544 0 194.741 17.3204 3373 95.6656 500.312 432.03
545 0 188.314 19.1117 3599 93.3743 500.604 427.856
546 0 189.256 26.9898 5108 80.1948 500.059 412.927
547 0 186.586 24.1926 4514 86.539 500.273 421.135
548 0 180.374 24.7486 4464 87.5128 501.074 421.334
549 0 188.633 23.2197 4380 89.4299 500.886 422.374
550 0 196.961 23.2533 4580 88.4382 501.057 419.131
551 0 194.626 22.3659 4353 91.4657 501.026 418.369
552 0 184.148 18.3059 3371 104.89 501.498 430.072
553 0 192.607 21.832 4205 94.6112 501.06 414.684
554 0 197.76 21.2328 4199 97.2432 501.254 417.361
555 0 199.504 25.7539 5138 89.9905 500.238 417.131
556 0 204.435 24.1838 4944 92.6653 500.773 408.995
557 0 201.019 23.2067 4665 96.3884 500.718 408.904
558 1 207.563 23.8145 4943 95.2126 500.518 408.819
559 0 207.38 19.1726 3976 108.04 500.582 421.212
560 0 206.955 25.5418 5286 95.35 499.728 409.406
561 0 216.731 20.5647 4457 104.32 500.215 407.452
562 0 220.196 21.926 4828 103.079 500.556 409.021
563 1 81.0489 14.7935 1199 123.031 500.716 475.063
564 0 81.0268 13.9707 1132 128.589 500.76 472.879
565 0 83.0715 13.7111 1139 129.614 501.193 472.29
566 0 84.0298 14.3045 1202 129.538 500.96 471.973
567 0 87.0376 14.7522 1284 129.73 500.774 469.385
568 0 90.125 14.9903 1351 128.725 501.107 470.326
569 0 90.1631 14.9174 1345 131.155 501.262 468.024
570 0 92.0746 13.8149 1272 133.724 500.864 468.333
571 0 96.1162 15.1067 1452 129.574 501.291 465.642
572 0 96.1399 14.2917 1374 132.118 500.703 463.668
573 0 97.1187 14.9405 1451 131.513 500.762 459.325
574 0 101.162 14.6596 1483 132.192 500.387 461.244
575 0 103.084 14.1244 1456 134.773 500.495 461.159
576 0 108.14 15.0268 1625 132.804 500.756 460.278
577 0 110.145 13.9543 1537 135.208 500.726 460.568
578 0 113.129 14.1167 1597 135.423 500.775 458.028
579 0 115.198 14.9569 1723 134.486 500.906 455.32
580 1 53.1529 11.5516 614 128.394 501.472 486.322
581 0 54.1258 11.695 633 128.957 501.351 485.717
582 0 59.07 12.883 761 123.769 501.176 484.396
583 0 59.0971 13.5878 803 123.666 501.608 483.33
584 0 60.0691 11.2703 677 129.759 501.264 483.217
585 0 61.0735 13.1481 803 126.461 501.207 482.083
586 0 65.0247 12.626 821 125.564 500.829 480.783
587 0 64.1225 12.3046 789 127.219 500.952 479.74
588 0 67.0724 12.5536 842 126.211 501.349 480.451
589 0 69.1721 12.7508 882 126.62 501.128 477.802
590 0 70.0695 11.2888 791 129.632 501.37 479.326
591 0 71.0534 11.1465 792 131.987 501.057 476.475
592 1 36.0208 9.16136 330 122.421 502.206 495.258
593 0 39.0094 11.4588 447 117.832 501.971 493.485
594 0 41.0287 10.7973 443 118.42 502.133 492.887
595 0 41.0481 10.7435 441 116.542 501.868 492.358
596 0 42.0258 10.9932 462 115.468 502.251 492.097
597 0 44.0729 12.0936 533 112.966 502.443 490.576
598 0 44.062 11.0526 487 116.93 501.982 490.271
599 0 46.1179 10.6033 489 117.845 501.935 489.759
600 0 46.0136 10.5838 487 118.386 501.739 487.466
601 0 48.0461 10.5107 505 118.25 501.422 490.123
602 0 50.0475 11.569 579 116.325 501.565 488.877
603 0 52.0443 11.4134 594 115.939 501.323 488.335
604 0 53.0355 11.2 594 117.8 501.507 485.933
605 0 55.0605 11.4238 629 116.13 501.458 486.213
606 0 56.2063 11.0842 623 118.56 501.366 484.613
607 0 56.089 9.93064 557 120.822 501.63 486.259
608 0 61.0777 9.51247 581 120.497 501.757 485.243
609 0 61.067 10.6113 648 119.494 501.926 484.215
610 0 63.1173 11.2172 708 119.095 502.001 483.349
611 0 65.1537 10.2066 665 121.054 500.875 480.872
612 0 67.0696 10.3027 691 120.509 501.384 478.483
613 0 73.0558 11.9087 870 116.32 500.864 475.328
614 0 73.1776 11.6156 850 117.631 500.954 476.849
615 0 76.2219 10.2858 784 120.652 500.763 476.034
616 1 39.2188 10.5052 412 114.617 501 494.738
617 0 41.2994 11.1382 460 114.504 500.952 493.407
618 0 41.2029 10.1206 417 118.772 500.669 492.549
619 0 40.0627 9.28545 372 119.097 501.763 495.508
620 0 42.2196 8.95318 378 120.304 502.045 493.04
621 0 45.0899 10.845 489 115 501.589 490.284
622 0 47.1354 10.1198 477 115.809 501.53 490.14
623 0 47.0906 9.59851 452 117.015 501.345 490.431
624 0 49.0765 11.2681 553 113.58 501.089 488.635
625 0 49.0985 9.22636 453 118.157 500.839 488.702
626 0 53.1731 11.1899 595 112.696 500.847 488.21
627 0 52.0885 9.90622 516 116.942 500.731 487.539
628 0 56.1732 10.0582 565 115.685 501.014 486.067
629 0 59.1644 9.837 582 114.833 500.77 486.136
630 0 58.1698 10.4693 609 114.803 500.524 484.01
631 0 60.1617 10.372 624 115.104 500.532 483.872
632 0 62.0421 10.7991 670 114.878 500.284 479.988
633 0 67.0828 10.7777 723 112.751 500.943 481.923
634 0 69.0882 11.6807 807 111.741 500.493 480.074
635 0 71.1395 11.133 792 112.96 500.468 479.705
636 0 72.1664 10.4065 751 117.433 499.843 477.486
637 0 76.1176 9.95828 758 121.577 500.85 474.776
638 0 82.1271 10.7151 880 117.523 500.809 475.843
639 1 41.0907 10.5133 432 112.938 500.384 492.928
640 0 43.088 11.3489 489 110.168 499.883 493.016
641 0 44.0682 11.641 513 112.021 500.694 490.587
642 0 45.0448 10.5895 477 112.757 501.392 492.124
643 0 47.1146 12.2892 579 108.85 501.299 491.13
644 0 48.0484 11.197 538 112.972 500.654 488.918
645 0 50.0436 10.4709 524 114.504 500.718 489.021
646 0 53.0688 12.9643 688 107.455 500.32 489.523
647 0 54.0616 11.0245 596 112.916 500.775 489.43
648 0 55.0989 13.7208 756 106.959 500.68 486.954
649 0 56.0839 11.9107 668 112.657 500.757 486.322
650 0 57.1776 12.6448 723 111.739 500.436 484.351
651 0 59.0886 12.2359 723 112.73 500.119 483.971
652 0 60.054 12.0891 726 113.506 499.893 482.168
653 0 65.1187 12.0703 786 113.392 499.346 482.917
654 0 67.1667 13.0124 874 110.934 499.543 481.703
655 0 68.1082 13.6547 930 111.03 500.135 479.522
656 0 70.0795 12.0577 845 116.764 500.32 479.022
657 0 70.1549 11.7454 824 118.765 499.494 476.192
658 0 75.426 12.5288 945 116.072 499.177 476.323
659 0 76.1375 11.7419 894 119.266 499.149 473.302
660 1 40.0709 10.5313 422 114.405 499.782 494.083
661 0 39.0515 10.8831 425 114.873 500.151 493.184
662 0 42.085 12.0708 508 113.356 500.484 491.967
663 0 44.1463 11.5072 508 117.945 500.224 491.27
664 0 45.0545 12.0521 543 115.805 500.532 490.247
665 0 47.1985 12.9877 613 111.896 500.966 489.721
666 0 46.2045 11.2543 520 117.887 500.377 489.985
667 0 47.0524 12.9855 611 115.198 500.931 488.18
668 0 49.0801 11.4914 564 119.051 500.73 487.402
669 0 52.1348 11.7964 615 117.935 500.566 485.328
670 0 54.0934 13.791 746 113.542 500.777 485.678
671 0 54.0827 12.2035 660 118.615 500.747 486.458
672 0 57.0826 13.5943 776 115.582 500.433 484.307
673 0 60.0487 13.9054 835 114.205 500.685 483.017
674 0 61.0569 13.8395 845 115.393 500.821 482.147
675 0 62.1048 13.3162 827 118.381 500.988 481.771
676 0 64.0463 12.7252 815 119.942 501.773 480.906
677 0 66.1437 14.3475 949 115.926 501.288 477.954
678 0 70.0931 14.1811 994 115.026 501.13 477.745
679 0 72.0819 13.6373 983 113.399 499.927 475.319
680 0 72.0687 12.4742 899 118.593 499.932 474.364
681 0 76.1579 13.8528 1055 116.785 499.814 475.169
682 0 78.1279 13.9643 1091 118.888 499.572 473.435
683 0 82.1165 15.2588 1253 114.95 499.512 469.44
684 0 83.1049 13.2603 1102 123.168 499.344 467.107
685 0 86.1291 12.5161 1078 124.046 499.742 469.548
686 0 87.1214 13.4984 1176 124.839 499.759 467.466
687 0 91.1046 12.3704 1127 128.671 499.862 466.066
688 1 49.0213 10.8116 530 125.804 499.481 485.025
689 0 52.0236 12.5712 654 123.128 498.8 485.012
690 0 54.1075 14.0276 759 120.353 499.98 485.412
691 0 55.1834 12.1232 669 126.172 500.419 485.25
692 0 57.0631 13.7742 786 120.964 501.004 485.284
693 0 60.1123 13.5247 813 121.138 500.686 483.732
694 0 61.082 13.3427 815 122.41 500.382 483.788
695 0 64.0526 13.5826 870 121.647 500.882 482.34
696 0 67.0724 14.3725 964 119.751 500.677 480.434
697 0 69.1168 14.3525 992 119.178 500.737 480.981
698 0 70.0971 13.5526 950 123.246 500.685 479.098
699 0 75.1306 14.8674 1117 119.126 500.695 476.574
700 0 76.0583 14.4757 1101 120.955 500.949 475.859
701 0 78.0582 13.2081 1031 125.477 500.438 474.171
702 0 81.1243 12.9924 1054 126.097 500.729 471.866
703 0 84.2037 12.8735 1084 126.954 500.814 471.102
704 0 88.1325 13.8768 1223 123.56 500.792 470.416
705 0 89.1395 13.664 1218 126.367 500.371 466.25
706 0 95.1086 13.942 1326 122.641 501.472 467.554
707 0 99.1614 14.2797 1416 121.827 501.05 465.311
708 0 101.104 14.3813 1454 123.113 501.254 462.124
709 0 106.122 13.852 1470 122.667 500.837 460.694
710 1 51.0827 12.5287 640 127.259 501.43 485.103
711 0 53.0387 12.1421 644 127.495 501.62 483.623
712 0 56.0663 14.2153 797 119.833 501.222 485.105
713 0 57.101 13.3973 765 123.322 500.641 484.718
714 0 59.0676 13.1036 774 124.111 501.213 484.163
715 0 62.1211 12.9103 802 124.071 500.868 481.475
716 0 64.1158 13.538 868 122.698 500.787 481.103
717 0 67.1232 14.4808 972 118.832 500.88 480
718 0 67.1748 13.0704 878 124.952 501.165 479.613
719 0 71.0667 13.1426 934 123.217 501.547 477.899
720 0 71.0763 12.564 893 126.489 501.763 475.374
721 0 75.0987 13.8618 1041 122.513 501.585 475.466
722 0 77.0468 12.8623 991 125.609 501.476 473.397
723 0 81.0694 13.618 1104 122.273 501.314 471.299
724 0 84.0925 15.0073 1262 117.874 500.903 470.175
725 0 86.1003 13.7979 1188 121.481 501.258 470.055
726 0 87.1132 12.3862 1079 125.022 501.519 468.006
727 0 92.1703 13.2038 1217 121.391 501.426 467.145
728 0 96.0729 13.6875 1315 118.923 501.281 465.035
729 1 48.0157 11.8295 568 119.905 501.577 488.849
730 0 48.0446 10.9482 526 116.445 500.65 490.745
731 0 50.0411 12.4098 621 114.414 500.357 489.834
732 0 52.1217 12.49 651 112.879 500.396 488.834
733 0 53.0585 11.4779 609 114.926 500.2 487.897
734 0 55.0578 12.5323 690 111.783 500.625 486.723
735 0 57.1183 14.0235 801 108.315 500.032 486.046
736 0 59.1075 12.6549 748 110.203 500.567 484.985
737 0 60.113 12.5098 752 110.186 499.957 485.654
738 0 61.0453 12.3679 755 110.51 500.31 484.992
739 0 64.112 12.9929 833 108.999 500.133 483.163
740 0 64.0897 12.5293 803 111.146 500.563 483.529
741 0 67.092 11.447 768 114.129 500.452 482.605
742 0 68.062 12.0478 820 113.338 499.829 480.99
743 0 71.0988 12.5319 891 111.586 499.464 479.212
744 0 73.2555 12.7772 936 112.065 499.143 478.593
745 0 76.0786 12.9077 982 112.713 499.28 476.667
746 0 79.1185 13.9664 1105 111.099 499.711 473.5
747 0 79.1131 12.5137 990 116.224 499.602 473.763
748 0 83.065 13.0741 1086 114.911 499.578 472.354
749 0 86.0754 13.5463 1166 113.915 499.883 471.904
750 0 89.0627 13.0133 1159 114.716 500.238 470.529
751 0 91.057 12.3549 1125 117.404 500.56 468.018
752 1 47.0289 10.7381 505 116.402 500.101 492.24
753 0 48.0677 11.2342 540 117.063 499.952 491.615
754 0 51.1908 11.7013 599 115.9 498.943 486.591
755 0 52.1343 12.0075 626 116.762 499.109 484.847
756 0 54.1167 11.9372 646 114.667 498.752 487.477
757 0 53.0422 10.765 571 118.837 498.786 487.294
758 0 55.1031 12.7761 704 114.864 499.098 485.695
759 0 57.0978 12.68 724 113.761 499.123 485.704
760 0 58.1038 12.3228 716 115.392 498.858 484.468
761 0 62.0872 12.9817 806 112.614 499.118 484.373
762 0 63.0476 12.5461 791 114.965 498.815 483.449
763 0 66.1449 13.7728 911 110.715 498.905 480.207
764 0 69.125 13.2947 919 111.135 498.786 480.794
765 0 69.1982 12.5581 869 114.765 499.557 478.597
766 0 71.0676 12.7625 907 115.176 499.251 477.627
767 0 74.1181 13.0063 964 114.796 499.029 477.312
768 0 76.1041 12.3646 941 116.871 499.847 475.12
769 0 79.0472 12.5368 991 116.404 499.38 474.639
770 0 79.1535 12.3684 979 120.518 500.505 473.926
771 0 84.0992 12.949 1089 124.833 499.829 472.625
772 1 40.0304 9.4678 379 121.596 497.731 494.026
773 0 42.0562 10.4622 440 120.23 498.814 492.025
774 0 44.1108 11.3351 500 114.468 498.714 492.524
775 0 46.035 11.1871 515 117.464 498.678 490.621
776 0 47.1358 10.9895 518 117.098 498.098 488.859
777 0 49.0444 10.99 539 116.445 498.477 488.288
778 0 50.0892 11.4995 576 114.608 498.825 488.554
779 0 52.0511 12.5069 651 112.51 499.418 486.786
780 0 53.1059 11.7124 622 114.185 499.95 485.346
781 0 54.1545 11.3379 614 114.22 499.77 486.533
782 0 57.0709 11.8975 679 112.63 500.062 484.725
783 0 58.1126 12.3037 715 110.848 499.762 484.73
784 0 59.1085 11.9103 704 112.202 499.797 484.185
785 0 62.1248 12.4266 772 110.881 499.041 481.411
786 0 65.0919 12.8895 839 108.747 499.738 482.822
787 0 67.1021 12.9057 866 108.812 499.44 480.991
788 0 68.1074 12.6124 859 108.957 498.916 479.354
789 0 70.0676 11.546 809 111.534 499.122 478.197
790 0 72.1815 11.4157 824 111.37 499.619 477.826
791 0 75.2368 11.6565 877 110.772 499.893 476.278
792 0 78.1372 11.6974 914 107.945 500.077 476.224
793 0 78.1828 10.3859 812 103.989 500.496 477.048
794 1 38.0399 9.88436 376 105.473 500.441 494.707
795 0 42.0482 10.6782 449 102.434 500.327 493.033
796 0 45.0593 11.2962 509 107.332 500.143 492.051
797 0 45.0458 12.2986 554 105.522 499.076 489.125
798 0 47.0956 11.9544 563 105.739 498.813 491.49
799 0 47.0095 12.2741 577 105.605 499.222 490.842
800 0 48.0187 11.1207 534 109.079 498.944 488.17
801 0 50.0246 11.1145 556 107.885 498.876 489.227
802 0 53.1276 11.8394 629 106.911 500.865 488.075
803 0 53.396 11.9672 639 107.332 500.296 487.502
804 0 55.2299 11.3525 627 108.222 499.957 488.083
805 0 56.1686 10.3083 579 110.831 500.29 487.623
806 0 59.3861 12.7976 760 107.191 500.258 485.037
807 0 61.4331 11.1829 687 111.955 499.771 481.789
808 0 63.2735 11.3476 718 108.29 499.905 482.416
809 0 66.1832 10.0328 664 108.602 500.175 481.989
810 0 67.1517 11.1687 750 106.963 499.772 481.001
811 0 70.2303 11.7471 825 106.908 498.825 477.018
812 0 72.3251 11.4207 826 107.036 499.185 477.931
813 1 37.1992 10.9949 409 107.252 499.518 493.345
814 0 39.2761 9.90423 389 109.943 499.041 493.512
815 0 39.382 9.75064 384 112.315 499.62 493.031
816 0 43.1897 10.5349 455 108.62 498.927 493.993
817 0 42.1761 10.8592 458 110.323 499.059 492.969
818 0 45.2759 10.3145 467 111.358 499.315 493.465
819 0 45.2741 11.1322 504 111.472 499.302 491.94
820 0 48.2209 12.5464 605 114.745 500.228 490.129
821 0 49.2546 13.5825 669 112.976 501.296 489.106
822 0 50.1882 12.5727 631 116.407 501.358 489.493
823 0 52.1631 14.1863 740 111.645 501.281 488.086
824 0 54.1846 13.7493 745 112.958 501.352 486.774
825 0 55.1473 13.1466 725 115.473 500.206 484.35
826 0 57.1872 13.1498 752 115.949 500.621 484.122
827 0 59.1172 12.7712 755 116.697 500.799 484.103
828 0 61.1016 13.4366 821 113.571 500.65 484.174
829 0 63.1338 13.0358 823 114.964 500.463 481.396
830 0 64.0563 12.8949 826 113.481 501.098 477.953
831 0 64.1084 12.0889 775 117.96 501.019 476.95
832 0 66.1355 13.0187 861 114.22 500.712 474.993
833 0 70.1078 12.495 876 115.471 499.902 474.611
834 0 71.1475 12.5795 895 116.298 500.097 474.016
835 0 70.1005 11.3694 797 122.129 499.738 470.721
836 0 76.1163 12.6911 966 114.664 499.859 473.518
837 0 80.2137 12.529 1005 114.932 499.671 470.955
838 0 80.0908 11.874 951 117.142 499.117 470.76
839 0 84.1173 13.2315 1113 114.596 499.011 467.527
840 0 90.1381 14.4445 1302 109.38 499.561 467.69
841 0 93.1231 13.7667 1282 112.02 499.303 465.038
842 0 95.1609 12.6207 1201 114.333 499.396 463.802
843 1 50.1082 10.5172 527 105.85 499.226 483.994
844 0 55.1278 10.9019 601 107.488 499.288 482.86
845 0 57.2373 12.5792 720 108.357 499.876 483.4
846 0 57.1389 11.9533 683 107.679 499.4 482.394
847 0 59.0908 11.8123 698 107.652 498.92 482.701
848 0 61.068 12.5598 767 106.692 499.102 483.524
849 0 61.0775 12.8034 782 106.896 499.98 483.533
850 0 65.1752 13.0878 853 105.181 498.973 482.426
851 0 67.085 12.5214 840 106.475 500.396 482.63
852 0 71.0875 12.14 863 113.587 499.494 479.917
853 0 72.1211 11.7857 850 116.352 499.4 479
854 0 76.2029 11.745 895 115.588 499.476 478.218
855 0 77.0744 12.2739 946 108.556 499.384 475.457
856 0 81.1308 12.7449 1034 114.407 498.721 474.963
857 0 83.1523 11.8217 983 116.496 498.573 474.264
858 0 87.2484 11.9315 1041 116.577 498.755 471.664
859 1 42.0769 11.1225 468 112.861 499.934 491.712
860 0 42.1745 10.2195 431 113.852 500.118 492.211
861 0 45.1294 11.4338 516 108.502 499.971 491.118
862 0 47.1607 12.1712 574 104.39 499.249 492.124
863 0 48.1078 11.9108 573 106.386 498.928 491.538
864 0 50.1363 13.1242 658 103.888 498.412 490.851
865 0 51.0545 11.1254 568 109.673 498.819 490.662
866 0 51.1244 11.5992 593 109.536 499.12 489.297
867 0 54.1601 12.1676 659 106.37 499.094 488.832
868 0 55.0445 12.39 682 106.138 499.767 487.44
869 0 57.1787 13.0293 745 104.599 498.962 486.658
870 0 60.1009 12.113 728 106.066 499.269 485.728
871 0 60.066 12.3531 742 107.412 499.135 484.658
872 0 63.0428 13.007 820 105.84 499.065 481.861
873 0 64.1502 10.8184 694 110.885 499.408 483.948
874 0 66.1404 11.778 779 111.134 499.015 480.366
875 0 68.1308 11.111 757 113.066 498.486 480.76
876 0 71.1249 11.3744 809 112.46 499.651 478.23
877 0 73.1163 11.0782 810 114.123 499.558 477.228
878 0 75.1099 10.6377 799 115.975 498.856 475.889
879 0 80.0703 11.8521 949 112.784 498.619 473.804
880 0 80.1325 10.7073 858 115.66 498.805 475.917
881 1 44.1759 11.1599 493 113.635 499.014 491.56
882 0 44.103 10.7929 476 115.964 499.887 490.357
883 0 47.0573 10.7528 506 120.597 498.648 489.937
884 0 45.1433 9.34801 422 116.953 499.382 491.225
885 0 46.0415 9.9041 456 116.011 499.728 490.671
886 0 49.096 9.96009 489 115.71 500.02 489.634
887 0 47.0677 8.32843 392 121.018 500.242 487.648
888 0 51.0694 11.0242 563 112.687 500.531 487.474
889 0 54.1108 10.0719 545 112.8 500.861 486.98
890 0 57.0642 11.5484 659 110.064 500.698 486.178
891 0 57.027 11.819 674 109.88 497.987 482.138
892 0 61.0962 12.3576 755 107.715 497.87 481.98
893 0 61.0425 11.4674 700 110.934 497.749 481.254
894 0 63.0817 10.748 678 112.686 497.878 480.277
895 0 67.1285 11.1726 750 110.293 498.112 479.551
896 0 71.1937 11.9954 854 106.568 498.331 478.869
897 0 72.1529 12.4596 899 104.884 498.435 475.724
898 0 74.0875 11.8239 876 105.339 498.001 477.205
899 0 78.1132 11.2785 881 106.303 498.409 474.203
900 0 80.1151 11.5084 922 106.623 498.403 472.359
901 0 82.1359 10.8235 889 108.268 498.259 470.916
902 0 88.1137 12.9946 1145 102.982 497.987 467.546
903 1 42.0755 10.8377 456 105.368 497.169 488.895
904 0 44.0693 10.665 470 105.364 497.789 485.866
905 0 45.1169 10.0627 454 108.163 496.811 488.551
906 0 48.1751 11.2714 543 103.576 497.67 486.864
907 0 48.0921 10.4175 501 105.928 497.772 487.373
908 0 50.1091 11.3353 568 103.773 498.093 482.798
909 0 50.0642 10.9859 550 105.327 498.047 485.633
910 0 51.0402 11.7946 602 105.449 498.671 487.477
911 0 54.0512 12.2106 660 103.986 498.288 486.871
912 0 57.0141 13.6107 776 99.7835 498.334 485.95
913 0 58.1077 13.4578 782 100.24 498.335 485.684
914 0 58.0442 11.8703 689 103.372 498.11 484.676
915 0 62.1163 11.9292 741 102.521 498.215 482.906
916 0 62.0532 11.6674 724 103.642 497.866 482.358
917 0 66.0966 12.3456 816 101.484 497.892 480.304
918 0 66.1623 12.5449 830 101.145 498.154 480.914
919 0 69.1347 13.235 915 99.5585 498.224 478.08
920 0 71.1593 13.5049 961 98.7107 498.271 478.32
921 0 71.1224 12.1621 865 103.089 498.576 477.364
922 0 75.0665 12.2958 923 101.704 498.646 477.046
923 0 76.0843 12.7227 968 100.793 498.918 475.481
924 0 78.0967 11.8827 928 103.959 498.636 474.736
925 0 79.2275 11.1704 885 106.896 498.55 475.792
926 0 82.1433 11.7356 964 105.887 498.711 473.683
927 0 86.2869 12.47 1076 104.64 498.074 472.436
928 0 88.1592 12.5001 1102 102.574 498.545 470.172
929 0 90.0649 11.1697 1006 109.617 498.317 469.325
930 0 93.0914 12.0956 1126 107.074 498.45 469.975
931 0 97.1309 13.3016 1292 104.232 498.49 468.891
932 0 97.1677 11.3103 1099 110.11 498.439 464.151
933 1 51.0428 12.323 629 104.733 498.151 487.808
934 0 53.0364 12.7271 675 103.207 498.687 484.713
935 0 52.1345 11.1634 582 98.0928 500.026 483.725
936 0 55.1271 10.4849 578 99.7612 500.213 483.471
937 0 57.1125 13.5522 774 92.9858 500.189 480.395
938 0 60.1171 11.9933 721 95.5437 500.741 481.964
939 0 59.1563 12.1204 717 95.6695 500.06 476.742
940 0 64.2159 11.7105 752 95.484 499.918 476.758
941 0 65.14 11.1145 724 97.8122 500.155 476.434
942 0 64.184 11.4203 733 98.7995 500.065 475.063
943 0 66.2643 10.9712 727 100.539 499.845 473.107
944 0 69.2076 11.4727 794 99.7909 499.962 472.674
945 0 72.1833 11.6093 838 101.047 500.588 470.007
946 0 76.1676 11.1333 848 102.325 499.849 470.436
947 0 76.102 11.2086 853 104.114 499.661 469.394
948 0 76.2223 9.51165 725 109.483 500.219 466.981
949 0 82.1818 12.01 987 104.006 500.821 468.145
950 0 82.2002 12.0194 988 106.377 500.045 466.439
951 0 86.157 12.454 1073 108.114 500.291 464.625
952 0 91.1291 12.5317 1142 107.646 499.866 463.329
953 0 92.2917 11.0411 1019 110.277 500.205 462.455
954 0 96.2474 12.0211 1157 109.506 500.194 460.69
955 0 98.2127 11.5464 1134 112.043 499.859 457.212
956 0 102.217 11.7985 1206 111.799 499.915 458.032
957 0 105.239 12.2768 1292 112.528 499.724 455.998
958 1 54.0215 10.3477 559 103.927 500.648 484.442
959 0 56.0835 10.4844 588 103.546 499.417 480.372
960 0 57.1295 11.2726 644 109.957 500.157 483.54
961 0 62.195 11.7855 733 97.0559 499.57 479.356
962 0 64.0303 11.8225 757 106.721 499.684 482.779
963 0 67.1961 13.602 914 102.433 500.675 480.243
964 0 69.0588 11.816 816 105.852 500.075 480.479
965 0 69.1093 11.7784 814 109.274 499.409 478.828
966 0 73.1798 12.3941 907 106.47 498.674 476.043
967 0 75.0963 11.3454 852 108.304 498.052 477.31
968 0 77.0308 11.8654 914 108.307 498.316 475.061
969 0 79.0701 12.3561 977 107.569 498.604 473.73
970 0 81.0544 11.7329 951 110.474 498.804 472.192
971 0 84.0274 12.1151 1018 111.75 498.212 472.072
972 0 87.0828 13.2632 1155 109.186 498.265 467.719
973 0 91.1684 12.9321 1179 107.243 500.106 471.225
974 0 93.237 12.4629 1162 109.049 499.658 465.794
975 0 96.2922 12.7736 1230 108.084 499.735 464.104
976 1 52.1388 11.8913 620 108.031 500.119 483.471
977 0 51.0854 10.7076 547 103.261 499.282 478.954
978 0 53.051 11.2345 596 106.621 498.354 485.733
979 0 57.1039 12.6786 724 102.543 498.282 483.738
980 0 57.1953 10.7177 613 107.731 498.403 483.228
981 0 59.1358 11.1269 658 105.681 498.185 481.304
982 0 64.1206 12.648 811 99.6979 500.404 480.29
983 0 66.099 12.4056 820 101.728 500.09 479.199
984 0 65.0372 10.9937 715 105.077 500.164 477.113
985 0 68.1647 11.4575 781 103.264 499.905 476.971
986 0 69.1291 11.2254 776 103.943 500.43 474.073
987 0 72.1141 9.37403 676 107.765 499.982 475.052
988 0 77.1761 11.7005 903 103.166 500.172 474.004
989 0 78.1479 11.9901 937 103.429 500.365 470.453
990 0 81.1374 12.3371 1001 102.771 500.088 469.14
991 0 85.0583 11.2511 957 105.69 500.132 470.401
992 0 88.2119 11.6311 1026 105.404 500.828 467.279
993 1 42.0472 10.2742 432 106.965 500.602 490.312
994 0 45.0214 10.5727 476 105.216 500.256 490.884
995 0 45.1108 11.1725 504 109.337 500.155 489.573
996 0 48.16 11.088 534 108.684 499.678 488.579
997 0 50.074 10.9039 546 109.678 498.41 485.137
998 0 51.0655 11.8279 604 108.55 498.652 484.677
999 0 52.0265 10.2448 533 112.854 498.336 485.289
1000 0 53.0369 10.8415 575 111.327 498.43 485.772
1001 0 54.033 10.8267 585 112.651 498.239 482.492
1002 0 57.1283 11.798 674 108.728 498.141 482.455
1003 0 59.0326 12.0442 711 106.691 497.744 483.307
1004 0 61.0509 11.5314 704 108.634 498.449 482.658
1005 0 64.0522 11.6311 745 109.166 498.55 479.742
1006 0 64.1005 12.9328 829 106.973 498.292 479.066
1007 0 66.0422 11.1747 738 111.626 498.023 479.011
1008 0 68.1692 12.2343 834 109.059 497.839 478.95
1009 0 70.0474 12.1204 849 110.004 497.774 476.087
1010 0 76.0539 12.9382 984 106.613 498.417 475.873
1011 0 78.0923 12.0242 939 109.656 498.529 474.719
1012 0 80.1124 12.6822 1016 108.504 498.376 473.718
1013 0 83.078 11.7119 973 110.991 498.435 473.379
1014 0 85.1337 12.8151 1091 108.973 497.915 470.037
1015 1 41.0393 9.79549 402 108.465 497.866 492.396
1016 0 44.0663 11.1196 490 105.829 497.604 491.145
1017 0 47.0152 12.8256 603 102.849 497.26 489.821
1018 0 47.0348 10.9706 516 108.93 497.899 489.459
1019 0 49.0604 12.0056 589 106.424 497.946 488.935
1020 0 50.0458 12.2688 614 107.433 497.728 486.966
1021 0 50.1284 11.9094 597 108.772 497.789 488.444
1022 0 53.1654 11.8498 630 108.152 497.652 488.457
1023 0 55.1138 12.0478 664 107.792 497.752 487.889
1024 0 55.0358 10.4841 577 112.633 497.903 487.407
1025 0 56.0317 10.8153 606 113.49 498.525 484.579
1026 0 59.0889 12.4558 736 109.614 498.283 482.438
1027 0 59.1246 12.1438 718 110.256 498.366 483.66
1028 0 62.0762 11.8403 735 111.653 498.614 482.19
1029 0 64.0623 11.6449 746 111.373 498.681 483.33
1030 0 64.0999 11.5913 743 112.197 498.826 481.686
1031 0 68.1982 12.1851 831 111.532 498.798 479.025
1032 0 69.1293 13.1203 907 110.735 499.256 478.01
1033 0 70.0823 12.4425 872 111.049 498.906 477.326
1034 0 74.0574 13.0574 967 110.942 498.963 475.547
1035 0 76.0587 14.3836 1094 108.315 498.629 473.867
1036 0 80.1197 13.38 1072 110.141 498.16 474.955
1037 0 81.1142 12.6242 1024 113.005 498.775 475.029
1038 0 82.1516 13.5481 1113 112.538 499.563 471.332
1039 0 84.113 12.293 1034 116.638 500.583 470.465
1040 0 89.2935 12.3637 1104 114.053 499.888 469.166
1041 0 89.3023 11.1307 994 116.295 499.599 467.962
1042 1 49.0282 11.0549 542 108.352 500.775 488.587
1043 0 51.0517 12.125 619 106.932 500.725 489.249
1044 0 53.171 11.999 638 115.511 500.506 485.909
1045 0 54.155 12.3165 667 114.468 500.075 486.489
1046 0 56.2404 12.7488 717 112.54 500.922 486.132
1047 0 56.1509 11.6294 653 118.225 500.525 482.956
1048 0 57.1755 11.4909 657 118.017 500.54 485.481
1049 0 60.149 13.2504 797 113.907 500.164 482.87
1050 0 63.2483 12.6328 799 114.337 499.891 482.359
1051 0 65.126 12.4221 809 115.204 500.292 481.602
1052 0 66.1393 12.2469 810 116.937 500.132 479.206
1053 0 67.1329 12.8253 861 116.715 499.551 480.821
1054 0 70.2141 13.0885 919 116.323 500.42 477.805
1055 0 72.1436 12.3781 893 118.408 500.471 477.782
1056 0 73.3351 13.3088 976 116.649 500.343 475.259
1057 0 77.2479 14.0845 1088 113.355 500.446 475.57
1058 0 77.1656 12.7388 983 113.795 500.175 474.499
1059 0 81.1706 13.5394 1099 112.294 499.769 474.334
1060 0 83.144 13.5789 1129 114.152 499.898 472.553
1061 0 87.1265 13.4632 1173 114.123 499.668 472.444
1062 0 87.2046 12.3159 1074 118.771 500.058 470.457
1063 0 92.1726 13.887 1280 114.723 499.53 467.71
1064 0 94.1621 13.0732 1231 117.803 500.046 467.331
1065 0 95.187 13.09 1246 120.146 499.471 465.813
1066 0 101.15 13.4552 1361 118.484 499.47 465.836
1067 0 104.205 14.3756 1498 116.899 500.194 463.98
1068 0 104.124 13.6183 1418 121.394 499.826 462.993
1069 0 109.188 15.1298 1652 117.762 499.963 460.655
1070 0 112.166 14.7638 1656 119.073 499.55 461.074
1071 0 115.247 13.6837 1577 123.174 499.232 458.988
1072 0 118.112 13.7073 1619 123.237 499.471 458.34
1073 0 121.209 14.1079 1710 122.64 499.969 457.064
1074 0 125.196 13.4349 1682 124.644 499.954 452.703
1075 0 130.184 14.733 1918 121.03 500.026 449.766
1076 0 131.164 13.8224 1813 124.331 499.595 446.357
1077 0 138.281 13.5521 1874 124.1 499.17 445.145
1078 0 140.217 13.5005 1893 125.06 498.981 440.436
1079 0 144.235 14.0535 2027 123.549 498.914 438.339
1080 0 148.27 14.8446 2201 122.447 499.158 439.497
1081 0 155.21 13.6202 2114 123.438 498.784 434.771
1082 0 161.156 14.2285 2293 121.848 499.163 429.287
1083 0 165.374 13.8111 2284 123.857 499.223 423.506
1084 0 168.189 12.5038 2103 125.79 499.591 428.749
1085 0 173.35 13.8275 2397 123.03 498.58 420.281
1086 0 182.281 13.759 2508 122.583 498.47 416.355
1087 0 183.201 12.1397 2224 127.386 498.367 412.789
1088 0 193.193 12.9715 2506 123.85 498.439 416.016
1089 0 199.295 13.9893 2788 122.684 498.402 409.768
1090 0 202.269 12.429 2514 126.409 497.767 409.02
1091 0 209.331 13.2517 2774 124.461 498.317 405.613
1092 0 216.48 13.4239 2906 122.886 499.156 400.186
1093 1 61.2699 10.821 663 116.139 500.798 478.244
1094 0 62.1046 10.9815 682 116.465 500.415 476.375
1095 0 65.0313 11.6713 759 113.747 498.1 476.366
1096 0 63.0798 11.1605 704 112.432 497.433 480.297
1097 0 68.1048 11.4529 780 111.249 498.536 477.932
1098 0 72.1842 13.0222 940 106.722 497.862 479.3
1099 0 74.1384 12.2339 907 108.581 497.934 476.818
1100 0 75.1622 12.0539 906 108.339 497.83 475.498
1101 0 80.1815 12.5091 1003 103.898 498.649 474.892
1102 0 81.099 11.9977 973 106.311 498.637 472.146
1103 0 83.0998 12.0698 1003 105.483 498.73 472.612
1104 0 88.1417 11.0844 977 106.721 498.447 471.771
1105 0 88.0756 11.7513 1035 105.955 498.554 468.783
1106 0 93.1587 11.0457 1029 106.266 498.149 468.005
1107 1 53.0892 10.6048 563 105.238 497.815 487.922
1108 0 53.1575 11.6447 619 105.084 498.3 485.59
1109 0 56.1235 11.8132 663 96.6817 498.893 486.003
1110 0 57.2204 10.6256 608 100.204 498.664 485.513
1111 0 58.1061 12.6665 736 96.6957 499.049 483.87
1112 0 59.1239 10.9939 650 101.029 498.977 482.654
1113 0 62.1021 10.9175 678 101.235 498.584 483.714
1114 0 64.0793 10.2685 658 100.926 499.581 482.834
1115 0 66.0996 11.407 754 99.8687 500.638 480.05
1116 0 69.1336 10.7039 740 102.131 500.372 479.073
1117 0 70.1383 11.1779 784 102.261 499.758 475.765
1118 0 74.1705 11.7432 871 109.419 499.746 475.266
1119 0 77.1247 11.8898 917 101.598 500.277 476.248
1120 0 79.2887 11.7167 929 104.109 500.076 474.202
1121 0 81.1408 11.3876 924 110.755 499.985 470.231
1122 0 88.3923 12.6368 1117 108.984 498.889 465.245
1123 0 91.3417 13.1922 1205 107.075 499.312 461.997
1124 0 89.2696 11.8629 1059 107.339 499.088 459.102
1125 1 48.1879 11.1024 535 107.209 498.202 485.946
1126 0 49.2228 11.0721 545 108.028 497.417 485.393
1127 0 51.0304 11.9537 610 105.693 497.823 487.01
1128 0 49.0498 12.8237 629 105.631 497.604 486.715
1129 0 51.0767 12.0994 618 108.052 497.511 484.67
1130 0 50.0355 11.6717 584 110.565 497.166 486.12
1131 0 54.0214 11.3474 613 109.966 497.595 486.06
1132 0 57.1163 12.816 732 106.796 497.559 484.245
1133 0 55.0644 12.7487 702 109.627 497.786 482.135
1134 0 55.1053 11.5234 635 110.214 497.509 483.663
1135 0 57.0876 12.7348 727 107.79 497.75 484.283
1136 0 60.112 12.7595 767 107.305 498.169 482.897
1137 0 62.0529 13.5368 840 106.798 497.911 481.573
1138 0 63.1192 12.7536 805 107.41 498.332 481.519
1139 0 65.1059 13.6393 888 106.118 498.197 480.443
1140 0 67.0706 12.8223 860 109.322 498.264 480.071
1141 0 69.105 14.0221 969 106.024 498.449 479.495
1142 0 70.1238 13.2623 930 108.151 498.692 479.203
1143 0 72.0846 12.5686 906 111.705 498.757 479.797
1144 0 72.1076 10.8033 779 115.978 498.404 479.565
1145 0 75.0675 12.7618 958 112.184 498.126 473.801
1146 0 77.0748 12.17 938 113.966 498.199 474.291
1147 0 80.0698 12.1394 972 113.698 497.426 472.503
1148 0 84.0786 12.1315 1020 113.381 497.591 471.189
1149 0 87.0439 13.4989 1175 110.381 496.981 469.96
1150 1 48.0299 11.8884 571 111.592 496.837 488.806
1151 0 47.0736 11.3227 533 108.201 496.955 484.522
1152 0 48.0539 11.175 537 111.207 498.169 481.153
1153 0 49.1482 10.5599 519 103.26 498.229 482.451
1154 0 53.0666 12.5314 665 99.2857 498.585 481.602
1155 0 53.0558 11.1581 592 103.182 498.708 481.032
1156 0 54.1335 11.9889 649 101.948 498.263 481.995
1157 0 57.0858 12.8754 735 110.815 498.827 486.784
1158 0 60.1146 13.7404 826 107.906 499.079 484.4
1159 0 61.0826 13.3262 814 109.393 499.214 483.337
1160 0 63.1413 13.9845 883 109.655 498.884 480.59
1161 0 67.0903 13.6383 915 111.896 499.075 480.434
1162 0 68.0667 13.6337 928 112.885 499.145 480.205
1163 0 69.098 13.8499 957 113.664 499.375 478.516
1164 0 72.1099 14.3808 1037 112.308 499.514 478.248
1165 0 74.1495 14.2954 1060 113.2 499.599 475.725
1166 0 80.201 12.6682 1016 115.191 499.678 476.324
1167 0 79.1804 14.3975 1140 113.321 499.446 472.349
1168 0 83.1373 15.2639 1269 110.719 499.752 472.671
1169 0 83.0662 13.7481 1142 117.043 499.338 470.302
1170 0 90.0908 14.6519 1320 113.052 499.48 472.206
1171 0 88.1475 13.1711 1161 119.8 498.256 469.111
1172 0 92.2065 13.4915 1244 118.769 498.727 469.747
1173 1 46.1744 11.7164 541 121.344 499.085 489.279
1174 0 48.1647 12.2289 589 120.992 499.287 489.272
1175 0 49.2498 11.7564 579 120.991 498.079 487.653
1176 0 53.2703 12.3146 656 119.366 498.107 488.761
1177 0 50.2182 11.45 575 125.579 497.896 485.925
1178 0 54.159 12.5002 677 119.186 498.352 488.182
1179 0 56.1837 12.3345 693 119.749 497.883 484.798
1180 0 58.1228 13.3166 774 116.196 497.59 483.956
1181 0 58.1018 11.652 677 114.108 497.768 485.315
1182 0 62.0837 11.0013 683 112.848 498.016 483.452
1183 0 65.1018 11.9966 781 110.065 498.222 480.862
1184 0 68.1218 12.8593 876 107.129 498.168 480.305
1185 0 68.1862 11.4393 780 112.983 497.605 480.167
1186 0 71.0846 12.4781 887 110.55 498.01 478.168
1187 0 75.1887 11.7837 886 111.352 498.131 478.307
1188 0 77.0828 11.5849 893 111.795 498.132 474.597
1189 0 80.1651 11.5636 927 111.361 498.118 474.481
1190 1 40.0294 10.6922 428 112.97 498.065 493.241
1191 0 42.0556 10.8666 457 112.103 497.838 493.02
1192 0 43.0362 10.8281 466 115.44 497.766 488.515
1193 0 46.0491 11.8135 544 112.52 497.847 489.739
1194 0 48.0401 11.8443 569 114.337 496.914 490.054
1195 0 49.0393 12.541 615 114.589 497.548 486.912
1196 0 49.0143 12.0373 590 115.415 497.493 488.368
1197 0 53.0518 12.5538 666 112.901 497.305 487.23
1198 0 54.023 12.6057 681 113.932 497.542 485.877
1199 0 55.0592 12.0779 665 113.979 498.239 485.635
1200 0 57.0575 12.7065 725 114.276 498.131 483.968
1201 0 59.1112 11.7575 695 114.118 498.03 486.167
1202 0 60.0768 11.7516 706 117.799 498.186 482.142
1203 0 63.0698 12.4941 788 115.732 497.986 481.69
1204 0 67.0795 13.238 888 112.991 497.512 479.479
1205 0 69.0422 12.7458 880 115.412 497.183 478.516
1206 0 70.029 12.2663 859 117.9 497.591 479.666
1207 0 73.0467 11.8828 868 120.596 497.303 476.666
1208 0 76.0928 13.0367 992 118.523 497.391 477.093
1209 0 77.0589 12.3282 950 120.936 497.723 473.875
1210 0 83.2095 12.6788 1055 120.306 498.509 473.51
1211 1 45.0665 10.2515 462 120.444 497.565 491.703
1212 0 43.0709 11.6552 502 121.444 497.271 489.869
1213 0 46.0188 11.9299 549 119.556 497.444 491.158
1214 0 49.1241 12.3972 609 116.133 497.683 489.355
1215 0 47.0234 11.8452 557 113.844 498.6 490.004
1216 0 49.1199 11.3803 559 114.76 500.315 489.882
1217 0 51.0674 12.552 641 111.115 500.46 489.671
1218 0 50.0411 10.1317 507 120.724 500.568 487.598
1219 0 52.0826 11.117 579 118.111 500.259 488.073
1220 0 55.0873 13.2335 729 113.713 499.653 486.531
1221 0 59.0946 11.4224 675 118.533 499.975 486.185
1222 0 59.1008 12.0472 712 117.146 499.013 484.459
1223 0 61.0365 12.9103 788 114.98 499.1 483.739
1224 0 63.0821 12.8721 812 116.053 499.329 482.41
1225 0 65.1865 12.2265 797 118.078 499.532 480.38
1226 0 67.0425 12.9768 870 116.525 499.532 480.782
1227 0 69.1681 12.8527 889 116.908 500 481.019
1228 0 71.1346 12.0616 858 120.282 500.024 479.179
1229 0 73.0505 13.21 965 118.245 499.673 475.937
1230 0 76.2626 12.7848 975 119.291 500.116 474.952
1231 0 77.1602 12.636 975 119.011 499.739 472.212
1232 0 80.1568 13.4611 1079 116.268 499.011 472.619
1233 0 83.1276 13.1846 1096 117.4 499.022 471.496
1234 0 83.3082 12.7478 1062 119.452 498.563 468.797
1235 0 87.3143 11.7278 1024 122.383 498.308 467.631
1236 0 91.5424 13.2835 1216 118.942 498.669 462.15
1237 0 95.3812 13.2102 1260 120.256 498.475 462.91
1238 0 97.139 11.499 1117 122.967 498.58 466.661
1239 1 53.3789 11.6151 620 111.569 500.161 484.342
1240 0 53.1887 11.0738 589 113.705 499.951 484.053
1241 0 56.1847 10.5723 594 113.7 499.934 485.316
1242 0 58.1706 12.2227 711 110.904 499.716 484.373
1243 0 60.1622 12.5993 758 110.26 499.673 483.728
1244 0 60.1745 11.7492 707 111.894 499.755 482.975
1245 0 61.2428 11.7891 722 112.677 498.857 482.717
1246 0 64.2992 12.2397 787 111.065 498.989 479.078
1247 0 65.1504 11.1741 728 113.771 498.927 479.658
1248 0 69.1718 11.1462 771 113.239 499.032 477.921
1249 0 72.1582 11.3085 816 112.582 499.327 477.109
1250 0 74.1242 12.1418 900 111.898 498.962 474.926
1251 0 74.1047 10.4852 777 117.282 498.919 474.744
1252 0 77.155 12.0407 929 113.35 498.63 474.853
1253 0 81.2125 12.1779 989 113.179 498.727 472.124
1254 0 82.1354 10.8845 894 117.268 498.198 470.101
1255 0 89.1477 11.509 1026 113.726 498.238 470.625
1256 1 46.0562 9.40157 433 115.783 499.746 491.533
1257 0 48.0422 10.9487 526 111.067 499.072 491.129
1258 0 49.0212 11.0972 544 114.16 499.119 488.167
1259 0 50.0442 13.1284 657 112.849 496.866 486.444
1260 0 50.0439 11.33 567 118.616 497.217 485.072
1261 0 53.0537 12.0067 637 116.812 496.706 485.534
1262 0 53.1023 12.7678 678 115.298 496.355 483.608
1263 0 54.0748 12.2238 661 117.71 496.244 482.985
1264 0 58.0801 14.0496 816 111.456 497.516 482.755
1265 0 59.0872 13.5562 801 113.739 497.663 483.753
1266 0 60.0834 12.5159 752 117.602 497.332 482.283
1267 0 61.0855 13.211 807 115.553 497.731 483.297
1268 0 63.1194 12.9596 818 117.462 497.935 479.802
1269 0 66.0928 13.6324 901 110.365 498.365 480.484
1270 0 69.1367 12.4825 863 112.823 497.501 479.436
1271 0 71.0666 13.4944 959 111.515 497.838 477.554
1272 0 72.0772 12.2785 885 115.261 498.2 477.473
1273 0 75.0782 12.7467 957 114.589 497.448 475.441
1274 0 78.1602 13.1141 1025 115.089 497.908 474.726
1275 0 79.105 12.6035 997 116.634 498 472.268
1276 0 83.1102 13.055 1085 115.676 497.996 471.277
1277 0 86.1218 13.5622 1168 114.493 498.775 470.173
1278 0 88.1732 12.6796 1118 117.033 498.901 468.606
1279 0 92.0882 13.7477 1266 114.797 498.499 467.4
1280 1 50.0741 11.7226 587 119.327 498.218 488.342
1281 0 51.1009 10.9391 559 122.263 498.24 488.36
1282 0 54.0965 11.8677 642 123.497 499.062 486.614
1283 0 55.1125 13.0823 721 115.516 498.011 484.541
1284 0 57.0774 11.9312 681 118.383 498.512 485.433
1285 0 57.0577 11.5672 660 121.227 498.383 483.871
1286 0 59.0471 12.38 731 120.168 497.944 482.828
1287 0 62.0577 12.4884 775 120.197 498.306 482.603
1288 0 62.1113 12.8962 801 120.928 497.745 480.14
1289 0 66.1264 13.5801 898 118.218 498.135 480.404
1290 0 67.0487 12.8116 859 120.44 497.459 480.875
1291 0 69.0554 12.4538 860 122.491 497.683 478.703
1292 0 74.0624 12.7325 943 120.487 498.158 477.179
1293 0 77.0928 13.9442 1075 117.271 497.995 476.382
1294 0 79.0975 12.9208 1022 122.057 498 473.35
1295 0 81.1162 12.6732 1028 123.583 498.095 473.589
1296 0 85.1254 12.6989 1081 124.657 498.107 470.056
1297 0 87.2113 12.7277 1110 124.802 497.968 470.279
1298 0 90.1482 12.7235 1147 126.404 498.567 468.01
1299 1 46.0482 11.3794 524 132.557 497.729 488.483
1300 0 50.0615 12.7244 637 124.138 498.217 488.934
1301 0 50.0421 11.3704 569 129.638 497.359 488.376
1302 0 52.042 11.9711 623 128.236 498.043 487.393
1303 0 54.05 12.7289 688 126.16 498.558 487.039
1304 0 55.0992 12.4866 688 128.438 497.472 485.875
1305 0 57.0696 12.3884 707 128.843 497.106 485.75
1306 0 57.0714 11.8623 677 131.818 497.672 484.451
1307 0 63.0729 13.3972 845 124.211 497.202 483.014
1308 0 64.0355 12.6961 813 126.822 497.338 483.461
1309 0 65.0413 13.4069 872 126.115 497.362 481.018
1310 0 67.0917 12.1625 816 130.83 497.898 480.316
1311 0 70.0763 13.0429 914 127.191 497.954 478.932
1312 0 73.0266 13.4061 979 124.909 498.004 478.428
1313 0 73.057 13.4963 986 126.083 497.918 475.688
1314 0 76.0279 13.9554 1061 123.608 497.545 474.801
1315 0 79.0897 13.7439 1087 123.503 497.939 474.647
1316 0 80.0733 13.5126 1082 124.664 497.808 472.652
1317 0 83.031 12.7663 1060 126.168 497.647 471.609
1318 0 86.0943 12.6722 1091 126.331 497.661 467.522
1319 0 89.0376 12.9271 1151 125.393 497.639 468.93
1320 0 92.0662 13.0124 1198 124.972 497.55 466.005
1321 0 95.1453 13.4006 1275 124.915 497.918 461.653
1322 0 96.1108 12.7145 1222 127.184 498.493 457.897
1323 0 98.1481 12.2672 1204 123.278 497.631 457.678
1324 1 52.0218 10.8032 562 125.941 497.521 480.52
1325 0 51.0341 9.77778 499 129.547 498.088 480.122
1326 0 55.0238 10.2501 564 126.757 498.098 477.514
1327 0 58.037 11.8028 685 121.807 497.288 480.638
1328 0 59.107 11.1662 660 126.98 497.348 480.568
1329 0 60.0839 12.4659 749 123.506 496.992 478.243
1330 0 64.1056 12.2766 787 122.83 497.499 476.713
1331 0 67.0437 11.9176 799 122.919 496.919 476.686
1332 0 68.0921 11.69 796 122.866 497.391 476.371
1333 0 69.0217 11.2284 775 124.972 497.702 473.726
1334 0 73.0766 12.8222 937 118.888 497.624 473.834
1335 0 76.1359 12.7929 974 119.21 498.041 472.593
1336 0 78.0589 12.9389 1010 118.517 497.492 470.908
1337 0 80.1611 12.9988 1042 119.417 498.039 470.805
1338 0 85.1829 12.8664 1096 120.139 497.641 469.968
1339 0 86.1251 10.926 941 123.753 497.65 471.117
1340 0 90.1523 12.7007 1145 119.976 497.776 468.176
1341 0 95.0704 13.0114 1237 117.391 497.952 466.911
1342 0 98.1717 12.6717 1244 118.377 498.583 465.531
1343 1 54.0533 11.4517 619 114.21 497.452 486.428
1344 0 53.0404 11.8023 626 116.954 497.107 483.834
1345 0 57.2031 12.3944 709 113.018 500.117 483.333
1346 0 58.1291 11.5433 671 116.143 499.924 481.89
1347 0 60.1892 11.8294 712 114.813 499.699 479.94
1348 0 63.2438 13.2029 835 109.84 499.964 481.127
1349 0 64.2193 13.1113 842 109.354 499.473 477.376
1350 0 66.0906 11.9079 787 110.945 499.221 477.224
1351 0 69.143 12.3078 851 106.501 499.219 477.045
1352 0 71.1088 13.6551 971 104.141 500.456 477.071
1353 0 73.0965 12.2988 899 105.68 500.71 475.225
1354 0 75.1379 12.2708 922 105.381 500.427 472.33
1355 0 79.1599 13.2138 1046 102.968 500.482 470.885
1356 0 82.0759 12.5859 1033 104.58 499.859 468.042
1357 0 84.1496 12.6323 1063 104.692 500.029 466.595
1358 0 87.2391 11.7722 1027 106.475 500.412 468.779
1359 1 47.1447 10.2663 484 108.764 500.51 485.548
1360 0 48.3858 11.491 556 106.376 498.978 484.959
1361 0 48.0579 10.8827 523 99.7208 497.076 485.992
1362 0 50.0853 11.6801 585 97.347 497.051 487.911
1363 0 50.079 11.4819 575 98.64 498.179 485.365
1364 0 53.2058 13.8143 735 92.7823 498.664 483.498
1365 0 55.2059 10.8865 601 98.4077 497.953 482.632
1366 0 57.2682 11.385 652 97.5261 497.71 482.089
1367 0 58.1093 10.9105 634 99.7019 497.912 481.863
1368 0 61.1022 12.9782 793 94.5574 497.605 482.166
1369 0 61.182 11.4576 701 98.0542 497.686 480.786
1370 0 62.0997 11.401 708 100.105 497.278 479.833
1371 0 66.1192 12.0389 796 97.9774 497.608 478.342
1372 0 66.0691 12.3507 816 98.424 497.596 477.493
1373 0 67.1166 11.8153 793 99.6078 497.799 477.214
1374 0 71.1416 12.693 903 96.1705 497.816 474.848
1375 0 73.179 12.9545 948 95.3196 497.895 475.235
1376 0 73.1196 11.2829 825 99.6812 498.264 474.324
1377 0 76.1436 11.9117 907 98.6681 497.748 471.571
1378 0 78.3054 11.4168 894 100.015 498.381 472.195
1379 0 77.2118 9.62288 743 104.359 498.41 469.778
1380 0 82.263 10.4057 856 103.117 498.825 470.606
1381 0 85.2025 11.3494 967 101.019 498.524 467.462
1382 0 88.2484 10.2325 903 102.86 498.68 464.372
1383 0 92.2969 11.1055 1025 97.998 498.036 463.444
1384 1 48.0179 9.78802 470 97.0617 498.106 486.655
1385 0 51.062 11.4762 586 92.7235 498.785 486.082
1386 0 51.1277 10.6205 543 94.4033 498.82 486.936
1387 0 53.049 11.0087 584 93.8955 498.904 484.913
1388 0 53.0671 10.873 577 95.0087 498.478 484.754
1389 0 53.1115 9.67775 514 98.5642 498.286 484.745
1390 0 53.0502 8.99148 477 99.9015 498.612 484.256
1391 0 61.1466 11.039 675 93.1985 498.076 481.16
1392 0 60.1559 9.12629 549 97.3206 497.996 478.563
1393 0 64.0784 10.1438 650 95.4723 497.68 476.908
1394 0 69.1991 11.9944 830 91.7916 498.071 477.202
1395 0 69.1947 11.128 770 93.413 498.423 476.96
1396 0 74.1295 12.667 939 89.6337 497.8 474.82
1397 0 75.2849 11.9546 900 91.1789 498.218 473.006
1398 0 78.2099 12.2363 957 90.2591 498.003 470.352
1399 0 81.1865 12.2681 996 91.0231 498.51 470.44
1400 0 83.0993 11.8533 985 92.2741 498.078 470.515
1401 0 86.1987 11.5779 998 92.3968 498.258 463.649
1402 0 90.3831 11.407 1031 92.4937 498.678 461.46
1403 1 46.1232 10.1684 469 91.1578 500.119 487.023
1404 0 50.1387 11.0494 554 89.8755 500.24 483.722
1405 0 52.1734 11.0593 577 90.2686 499.955 481.856
1406 0 54.1331 11.9336 646 87.3328 499.559 483.817
1407 0 54.1085 10.8671 588 91.0323 499.556 481.852
1408 0 56.1304 11.0635 621 90.6747 499.366 482.005
1409 0 57.093 12.068 689 89.373 499.819 480.213
1410 0 58.0799 10.4683 608 92.7763 499.773 479.812
1411 0 61.1605 12.6879 776 88.817 499.238 480.17
1412 0 63.1069 10.9814 693 92.4387 499.356 476.999
1413 0 65.0925 11.1994 729 92.1797 499.96 477.781
1414 0 68.1697 11.8968 811 90.4501 499.485 474.557
1415 0 69.0844 11.6958 808 91.2686 499.006 475.725
1416 0 70.1292 12.4912 876 90.4053 498.805 471.515
1417 0 73.1314 12.4844 913 90.3636 499.057 470.256
1418 0 75.0617 13.4156 1007 90.3108 498.686 471.48
1419 0 77.1278 12.2265 943 93.0923 499.537 469.107
1420 0 81.0748 12.1986 989 92.4793 499.174 467.964
1421 0 82.1143 11.2891 927 94.4693 499.151 468.237
1422 0 86.1102 11.9382 1028 93.7947 499.248 464.911
1423 0 88.0965 11.9301 1051 94.3977 498.43 464.973
1424 0 89.0938 11.0558 985 95.4122 498.965 463.869
1425 0 93.1621 10.4764 976 95.9416 499.569 462.242
1426 1 51.1436 10.9105 558 92.6738 500.131 483.172
1427 0 54.0357 10.5671 571 93.3905 500.898 483.461
1428 0 54.2132 12.0819 655 92.5481 497.495 477.104
1429 0 58.1656 12.155 707 91.8331 497.863 475.134
1430 0 62.2256 11.7637 732 91.6803 497.865 475.954
1431 0 61.0813 11.4274 698 93.6533 498.251 474.052
1432 0 62.045 11.3627 705 95.4596 499.237 476.067
1433 0 65.2275 12.6327 824 92.1784 498.404 473.59
1434 0 67.1494 11.7052 786 94.0636 498.906 474.219
1435 0 71.1674 13.0537 929 91.831 498.48 471.476
1436 0 70.1007 10.2424 718 98.4304 497.96 474.061
1437 0 73.0727 10.9206 798 97.7093 499.195 470.972
1438 0 74.1287 12.2625 909 96.1749 499.259 470.862
1439 0 77.1546 10.7576 830 99.6 499.757 467.824
1440 0 79.0895 13.3899 1059 95.085 499.7 466.455
1441 0 80.0949 11.1493 893 99.4188 499.624 468.143
1442 0 83.2288 10.8256 901 100.916 499.622 466.674
1443 0 87.302 11.2598 983 100.67 499.253 462.109
1444 0 89.1859 10.8986 972 100.945 499.46 462.347
1445 0 94.1346 11.8766 1118 97.737 499.756 464.645
1446 0 96.1623 11.5638 1112 100.263 499.685 459.085
1447 0 101.088 11.03 1115 100.733 499.518 460.277
1448 1 53.08 10.5313 559 100.089 500.107 482.419
1449 0 55.0963 11.1986 617 101.468 499.499 480.827
1450 0 58.1553 12.8277 746 94.8753 498.139 477.509
1451 0 59.0464 11.618 686 100.71 497.506 478.832
1452 0 60.2015 11.4615 690 101.909 497.835 477.701
1453 0 61.0578 11.5464 705 102.138 497.389 477.684
1454 0 63.0341 13.5799 856 98.604 497.165 477.036
1455 0 66.1066 12.3286 815 101.045 497.73 476.915
1456 0 66.1085 12.9182 854 100.58 497.762 474.739
1457 0 69.0235 12.5754 868 101.419 497.75 471.569
1458 0 68.0662 11.9002 810 104.493 497.441 472.199
1459 0 72.0898 11.666 841 104.901 497.329 472.509
1460 0 74.2218 12.7725 948 104.112 498.211 470.155
1461 0 78.0941 12.4337 971 104.27 497.79 469.729
1462 0 80.1904 12.7197 1020 104.823 497.343 468.945
1463 0 80.1257 12.9172 1035 105.417 496.963 467.347
1464 0 86.2064 14.4653 1247 99.4106 497.517 465.366
1465 0 88.2332 13.827 1220 100.207 498.784 462.709
1466 0 89.1768 13.7031 1222 101.22 498.195 461.597
1467 0 93.1439 14.7621 1375 98.5796 498.551 462.102
1468 0 93.1942 13.4665 1255 103.682 498.39 459.559
1469 0 97.0957 14.738 1431 99.7547 498.923 461.79
1470 0 100.312 13.2287 1327 98.5938 498.573 457.548
1471 0 101.103 14.2529 1441 97.855 497.924 454.406
1472 0 104.121 13.3018 1385 101.297 497.31 453.222
1473 0 107.252 11.9158 1278 105.012 497.754 452.31
1474 0 110.217 12.7657 1407 102.635 497.756 448.496
1475 0 114.239 13.2617 1515 101.799 497.646 443.97
1476 0 120.268 13.0791 1573 101.409 498.109 442.3
1477 1 58.1489 10.3011 599 95.4374 498.796 470.374
1478 0 63.203 10.1736 643 94.1695 498.68 470.173
1479 0 66.1305 12.0217 795 90.0742 499.458 475.735
1480 0 66.0787 10.2454 677 94.9084 499.771 473.771
1481 0 69.1237 12.1955 843 91.0024 499.931 472.41
1482 0 68.123 10.8774 741 94.7895 499.186 469.278
1483 0 74.1667 12.1213 899 91.4038 498.81 471.304
1484 0 78.2154 12.4784 976 91.1773 498.365 467.966
1485 0 80.2027 12.2564 983 91.9034 498.817 467.831
1486 0 80.0999 11.623 931 94.6498 498.769 464.789
1487 0 81.2273 11.3878 925 95.9211 498.666 465.036
1488 0 86.2081 11.565 997 95.3651 498.827 463.149
1489 0 90.1808 13.0848 1180 96.0941 498.976 462.1
1490 0 92.231 11.7423 1083 99.591 498.636 458.777
1491 0 95.1571 12.369 1177 98.5794 498.335 457.742
1492 0 99.1923 11.1501 1106 102.87 498.428 458.673
1493 0 101.221 12.4283 1258 101.463 498.516 457.5
1494 0 105.169 11.762 1237 104.287 498.697 456.995
1495 0 110.122 14.4295 1589 102.412 497.434 459.15
1496 0 110.115 11.9057 1311 108.941 497.32 454.278
1497 0 115.096 12.5982 1450 107.379 497.824 453.363
1498 0 121.15 13.017 1577 106.334 497.597 451.036
1499 0 125.452 14.0452 1762 106.536 498.183 446.573
1500 0 129.481 12.9208 1673 106.803 498.305 445.368
1501 0 133.281 13.0327 1737 101.138 498.683 447.272
1502 1 70.2036 12.0791 848 99.2323 498.991 475.111
1503 0 70.1522 12.701 891 89.9012 498.441 469.629
1504 0 75.1109 11.4497 860 94.1756 498.629 473.298
1505 0 75.115 11.8618 891 95.3704 498.786 471.328
1506 0 75.1104 11.1303 836 100.531 499.718 473.333
1507 0 75.0437 11.3934 855 100.93 499.908 473.453
1508 0 76.076 11.5805 881 101.325 499.762 472.243
1509 0 79.0672 12.1289 959 101.804 499.498 472.61
1510 0 81.1455 11.7443 953 103.012 499.47 469.892
1511 0 81.1019 12.1576 986 101.877 498.839 470.745
1512 0 87.1607 11.9435 1041 101.106 498.486 469.283
1513 0 88.1331 11.755 1036 101.19 498.573 467.639
1514 0 91.1785 11.3952 1039 100.666 498.723 467.262
1515 0 94.2216 11.6322 1096 99.9635 498.366 462.212
1516 0 97.1252 11.6345 1130 100.173 499.056 461.248
1517 0 99.1391 12.0437 1194 99.8727 498.283 460.421
1518 0 101.221 11.2921 1143 101.917 498.865 459.198
1519 0 108.128 13.9464 1508 97.1479 498.81 458.092
1520 1 53.091 10.4914 557 104.878 499.165 481.061
1521 0 57.1951 10.4904 600 105.007 497.445 482.522
1522 0 59.1677 12.2702 726 101.831 497.788 481.472
1523 0 60.1772 11.8317 712 101.202 498.011 483.035
1524 0 62.2018 11.1251 692 99.435 497.163 481.866
1525 0 62.1304 10.3492 643 103.09 497.159 482.407
1526 0 68.0673 12.6052 858 98.2611 497.411 481.562
1527 0 68.1068 12.0105 818 103.564 497.18 478.21
1528 0 70.1083 12.7517 894 102.959 497.035 479.564
1529 0 71.1563 11.7628 837 108.694 497.288 478.726
1530 0 73.0945 13.2842 971 108.666 497.748 476.74
1531 0 76.1451 12.5025 952 112.014 497.054 476.523
1532 0 79.1642 11.8488 938 115.988 496.467 475.462
1533 0 81.1151 12.4145 1007 116.23 496.692 474.441
1534 0 84.0621 12.4789 1049 116.531 496.542 475.06
1535 0 86.2105 12.7827 1102 118.404 497.133 472.632
1536 0 88.1167 11.9387 1052 119.335 496.169 471.131
1537 1 49.1068 10.5892 520 119.217 496.419 490.544
1538 0 49.1068 10.5892 520 145.548 497.419 490.544
1539 0 53.1349 10.2004 542 121.987 496.891 487.028
1540 0 57.1106 13.36 763 115.468 495.89 488.46
1541 0 56.1041 11.9243 669 122.26 495.463 488.405
1542 0 59.1234 12.4824 738 121.534 496.447 486.844
1543 0 61.0502 12.4979 763 121.626 496.393 484.916
1544 0 62.1461 13.0821 813 120.873 495.241 484.834
1545 0 63.0713 12.2877 775 125.187 495.148 482.88
1546 0 65.1875 13.6376 889 121.21 495.531 482.004
1547 0 68.104 13.9199 948 120.397 495.834 482.037
1548 0 68.0931 12.9529 882 123.794 495.246 482.319
1549 0 71.1856 12.5587 894 125.724 495.215 479.17
1550 0 74.1288 12.883 955 124.42 495.531 478.995
1551 0 74.1695 13.4557 998 124.002 495.104 476.887
1552 0 79.1276 13.4087 1061 121.468 495.551 477.806
1553 0 82.2061 13.162 1082 121.908 495.627 474.677
1554 0 84.1872 13.0899 1102 122.711 495.224 473.099
1555 0 88.3748 13.5106 1194 120.863 494.778 471.121
1556 0 90.1943 13.4266 1211 121.417 495.965 471.244
1557 1 50.1247 10.9926 551 127.51 495.272 490.078
1558 0 50.3139 11.4283 575 128.24 495.497 486.826
1559 0 53.518 13.1358 703 121.31 495.334 486.394
1560 0 53.3131 11.6482 621 127.085 496.159 486.153
1561 0 55.2999 11.6456 644 128.017 496.071 484.708
1562 0 58.3401 11.5872 676 125.17 496.442 486.265
1563 0 59.3317 12.2194 725 124.543 496.219 484.577
1564 0 59.3338 11.9156 707 126.676 496.15 483.778
1565 0 61.2602 12.602 772 122.986 496.495 484.46
1566 0 62.2073 12.169 757 125.313 496.431 482.559
1567 0 65.2313 13.1992 861 120.279 496.474 480.835
1568 0 66.2703 11.5738 767 123.069 496.231 481.507
1569 0 69.2411 12.2326 847 122.615 497.053 477.891
1570 0 74.2152 11.8439 879 121.521 496.937 478.708
1571 0 75.1769 12.5038 940 119.845 497.136 477.596
1572 0 76.1841 12.391 944 120.478 496.736 478.088
1573 0 79.2563 12.9201 1024 120.117 496.29 473.927
1574 0 80.2655 12.4586 1000 122.015 496.532 475.136
1575 0 82.2865 12.2863 1011 123.432 496.776 472.631
1576 0 86.4569 14.2152 1229 118.307 496.564 470.438
1577 0 90.196 13.1159 1183 121.216 496.505 469.359
1578 0 91.1988 13.0703 1192 122.049 496.93 467.648
1579 0 96.173 13.2158 1271 121.423 496.209 467.758
1580 0 97.3071 11.6949 1138 127.344 495.938 464.674
1581 0 103.225 13.117 1354 118.728 495.513 463.314
1582 0 106.282 12.2599 1303 121.767 496.316 461.426
1583 1 54.1575 11.1896 606 125.142 495.348 483.718
1584 0 57.1786 13.6415 780 118.317 496.141 481.814
1585 0 57.1203 11.8172 675 114.101 496.327 479.363
1586 0 60.0678 10.8378 651 109.204 495.948 480.688
1587 0 63.0311 12.0099 757 106.604 495.896 479.328
1588 0 63.169 11.9046 752 107.839 496.177 479.414
1589 0 64.1663 10.5507 677 112.789 496.749 475.182
1590 0 67.2078 11.4719 771 110.362 496.447 475.968
1591 0 71.1595 11.2142 798 110.92 496.312 475.234
1592 0 73.3736 13.2882 975 110.442 496.154 471.007
1593 0 75.162 12.3999 932 108.605 496.356 471.968
1594 0 76.1662 10.7922 822 113.635 496.213 470.173
1595 0 77.141 11.4984 887 113.481 496.442 470.671
1596 0 80.1034 12.8958 1033 111.164 496.554 468.901
1597 0 84.1156 11.294 950 113.992 497.199 469.095
1598 0 88.1452 12.4794 1100 112.551 497.402 467.409
1599 0 90.1057 12.9626 1168 116.445 497.81 471.131
1600 0 95.1442 13.1695 1253 115.695 497.433 469.445
1601 0 98.1688 12.6313 1240 117.917 497.587 469.013
1602 0 102.146 13.001 1328 117.473 497.509 466.211
1603 0 106.092 13.0924 1389 118.806 497.279 461.526
1604 0 105.172 12.1325 1276 122.426 497.329 461.651
1605 1 56.0609 10.6491 597 120.025 498.265 488.695
1606 0 59.0334 11.7222 692 119.344 497.948 485.026
1607 0 59.0755 11.8662 701 119.775 497.675 483.766
1608 0 59.0268 11.4355 675 116.896 497.268 484.71
1609 0 62.0555 11.4414 710 117.472 497.468 483.842
1610 0 64.0298 11.2292 719 118.11 497.52 484.616
1611 0 67.0269 12.1295 813 117.786 498.13 482.415
1612 0 69.0758 12.508 864 116.719 497.897 479.35
1613 0 72.151 12.5016 902 114.585 497.554 480.441
1614 0 73.092 12.7647 933 114.558 497.994 476.881
1615 0 75.0992 11.8643 891 116.835 497.459 476.559
1616 0 78.1933 13.2748 1038 112.447 497.999 475.019
1617 0 82.1548 12.5495 1031 112.667 497.557 475.303
1618 0 82.0707 11.8922 976 115.467 497.266 474.155
1619 0 85.1736 12.6448 1077 113.584 497.233 471.615
1620 0 89.1024 12.3902 1104 113.978 497.189 470.488
1621 0 91.1259 13.2344 1206 112.718 496.476 467.313
1622 0 93.1146 12.2752 1143 115.143 496.014 466.05
1623 0 96.1297 12.9825 1248 113.984 496.941 465.318
1624 0 100.253 13.1268 1316 113.817 496.395 462.758
1625 0 104.086 14.1997 1478 111.133 496.731 460.468
1626 1 56.0821 11.18 627 115.15 497.33 484.517
1627 0 58.1828 11.0686 644 113.281 497.839 483.697
1628 0 58.2317 12.4846 727 100.894 497.608 482.827
1629 0 59.126 10.5876 626 109.474 496.692 477.578
1630 0 64.2691 13.4746 866 111.157 496.24 481.252
1631 0 62.2572 11.5007 716 117.592 496.25 479.637
1632 0 67.1958 12.9472 870 113.1 496.134 478.308
1633 0 70.2094 11.779 827 114.99 495.966 480.69
1634 0 72.2655 12.9107 933 114.014 496.4 478.892
1635 0 75.2788 13.9614 1051 112.492 496.556 476.052
1636 0 76.292 13.5794 1036 113.503 496.427 476.034
1637 0 79.1252 14.6477 1159 110.735 496.419 474.429
1638 0 80.2384 13.435 1078 115.224 495.789 473.031
1639 0 82.1961 13.188 1084 108.864 495.518 472.12
1640 0 85.2361 13.7383 1171 108.919 496.174 468.786
1641 0 86.0959 13.032 1122 110.805 495.643 468.386
1642 0 90.2036 13.7134 1237 107.72 495.631 470.764
1643 0 93.1163 14.0469 1308 108.118 495.81 466.217
1644 0 95.1088 13.248 1260 110.01 495.656 466.745
1645 0 99.0858 13.9879 1386 108.63 495.306 462.573
1646 0 103.077 13.1358 1354 110.414 495.496 462.462
1647 0 105.104 12.8349 1349 112.135 495.229 460.757
1648 1 55.07 11.2584 620 111.653 494.742 485.087
1649 0 56.1023 11.8712 666 110.392 494.958 483.209
1650 0 58.0704 12.6915 737 108.007 495.001 483.152
1651 0 62.113 12.928 803 106.675 494.934 483.192
1652 0 64.1558 13.4672 864 105.366 495.422 481.515
1653 0 66.1499 12.2298 809 107.532 495.612 481.334
1654 0 68.1172 14.1374 963 103.862 496.021 480.113
1655 0 68.1723 12.0137 819 110.162 495.549 479.098
1656 0 71.0977 12.9259 919 107.912 495.873 478.834
1657 0 72.1578 12.3757 893 110.525 495.747 476.38
1658 0 74.0907 13.146 974 109.087 495.226 473.56
1659 0 78.0545 12.5938 983 110.012 495.483 473.815
1660 0 82.181 13.2756 1091 107.719 495.28 473.016
1661 0 83.1139 12.1761 1012 111.682 494.716 472.814
1662 0 85.044 12.1937 1037 113.155 494.894 470.569
1663 0 88.1018 12.2358 1078 113.699 495.319 469.16
1664 0 92.1366 12.0148 1107 113.701 495.472 468.086
1665 0 94.0532 12.2484 1152 114.805 494.835 467.878
1666 0 95.201 11.9221 1135 114.563 495.193 461.801
1667 0 99.186 12.9252 1282 111.643 495.052 462.484
1668 0 102.229 12.785 1307 113.26 495.136 458.95
1669 0 106.163 13.4792 1431 111.37 495.901 455.758
1670 0 108.102 13.8203 1494 114.638 495.673 459.154
1671 0 114.067 13.9567 1592 112.523 495.5 457.723
1672 1 56.0806 10.0748 565 116.204 494.345 484.492
1673 0 60.1172 11.1782 672 115.256 494.817 483.652
1674 0 60.0777 10.4198 626 117.682 496.072 474.696
1675 0 61.1055 10.1137 618 113.066 495.435 475.427
1676 0 64.1497 10.7561 690 111.786 495.519 475.059
1677 0 64.1682 9.49068 609 115.498 495.55 473.791
1678 0 67.0537 10.0815 676 114.731 495.988 473.016
1679 0 69.1514 10.6722 738 114.543 495.531 471.364
1680 0 72.2501 10.5882 765 115.092 495.49 469.719
1681 0 71.1226 10.7842 767 116.979 494.991 466.477
1682 0 72.2439 10.4369 754 119.989 495.821 465.227
1683 0 77.1287 10.4112 803 120.158 496.301 465.077
1684 0 82.1212 10.5454 866 119.11 496.081 465.551
1685 0 83.2825 11.0707 922 118.602 496.654 463.06
1686 0 84.1954 10.9626 923 119.971 496 458.963
1687 0 90.1605 11.6681 1052 117.969 495.874 458.712
1688 0 90.104 10.3658 934 124.026 496.799 460.058
1689 0 97.1273 12.0358 1169 128.216 496.26 461.932
1690 0 98.262 12.1919 1198 128.316 496.805 460.649
1691 0 104.204 13.0033 1355 126.052 497.013 460.175
1692 0 106.236 12.1993 1296 127.984 496.917 459.716
1693 1 59.0753 10.3258 610 125.713 497.879 482.528
1694 0 57.1354 10.1338 579 123.259 496.589 472.059
1695 0 59.1968 10.5749 626 123.128 496.363 472.784
1696 0 62.1482 10.0888 627 120.317 496.434 473.872
1697 0 66.1502 10.9901 727 117.475 496.216 474.418
1698 0 67.2135 10.0426 675 120.239 496.643 471.68
1699 0 69.1495 10.7882 746 117.712 496.838 472.969
1700 0 72.2248 11.1734 807 117.884 496.511 468.333
1701 0 78.1637 11.1433 871 115.109 497.393 472.558
1702 0 78.1995 11.4323 894 117.705 496.449 467.614
1703 0 82.2181 11.7492 966 117.396 496.724 467.246
1704 0 85.2267 12.6134 1075 112.553 496.98 466.8
1705 0 89.1462 12.272 1094 112.945 496.551 467.725
1706 0 90.1686 12.0441 1086 116.283 496.332 466.207
1707 0 95.1574 12.5371 1193 114.541 496.184 463.999
1708 0 97.1123 12.1509 1180 116.555 495.662 463.27
1709 0 100.17 11.2908 1131 116.072 497.125 462.084
1710 0 104.094 12.0757 1257 115.463 495.83 461.574
1711 1 55.1008 10.4717 577 114.165 496.723 482.501
1712 0 58.0901 12.3773 719 110.677 497.061 483.478
1713 0 60.0782 11.7846 708 114.597 496.489 482.436
1714 0 61.1365 12.6766 775 111.249 496.53 480.467
1715 0 62.0306 11.1397 691 115.101 496.881 478.197
1716 0 66.0373 11.6449 769 116.202 495.476 478.927
1717 0 68.2195 11.3164 772 115.342 494.833 475.683
1718 0 70.0888 10.9575 768 116.257 494.762 476.553
1719 0 72.1225 11.8964 858 114.302 494.802 475.425
1720 0 75.1544 12.654 951 112.042 494.452 472.91
1721 0 75.0976 11.7447 882 115.342 494.18 470.706
1722 0 79.0739 11.6853 924 114.827 494.423 471.355
1723 0 83.15 11.6055 965 115.538 494.512 468.693
1724 0 88.1245 13.6852 1206 109.1 494.376 468.642
1725 0 90.1064 12.3188 1110 113.825 494.682 466.788
1726 0 93.1367 13.2279 1232 111.584 494.982 465.144
1727 0 96.237 13.1862 1269 112.373 494.845 465.121
1728 0 98.1037 11.9975 1177 116.871 495.039 461.772
1729 0 101.191 13.262 1342 112.898 496.829 464.906
1730 0 102.192 12.2123 1248 115.84 496.661 460.788
1731 0 106.084 12.3205 1307 116.712 496.686 459.499
1732 0 111.193 13.1483 1462 113.778 496.852 457.359
1733 0 114.142 12.7297 1453 115.048 497.579 458.569
1734 1 65.0987 11.5056 749 117.766 498.227 479.383
1735 0 68.1956 11.8483 808 113.354 497.738 478.762
1736 0 68.1242 11.6845 796 108.391 497.138 472.196
1737 0 72.1435 12.5583 906 105.52 497.338 474.526
1738 0 73.2057 11.5155 843 108.921 496.745 472.039
1739 0 78.1546 11.5924 906 106.745 496.227 474.245
1740 0 78.0853 12.0509 941 105.731 496.713 472.95
1741 0 81.1536 12.0019 974 106.41 496.586 467.734
1742 0 83.1043 11.1426 926 107.775 496.357 464.065
1743 0 83.0694 11.8214 982 107.259 495.275 460.771
1744 0 87.0897 12.4355 1083 105.228 495.567 461.649
1745 0 90.0377 12.1949 1098 105.526 495.091 460.538
1746 0 93.1261 11.114 1035 108.234 495.645 458.5
1747 0 97.1045 11.6164 1128 106.164 495.51 455.653
1748 0 98.097 10.7445 1054 108.927 495.231 453.731
1749 0 100.148 11.2933 1131 107.368 495.293 451.32
1750 0 103.174 10.8651 1121 108.758 495.945 450.689
1751 1 54.1118 10.0533 544 100.011 495.669 477.735
1752 0 58.2124 10.9942 640 107.784 495.605 477.897
1753 0 61.3419 12.1124 743 104.256 495.406 477.705
1754 0 62.1647 10.2631 638 103.875 494.809 477.381
1755 0 66.2609 11.3642 753 100.85 494.677 476.845
1756 0 66.0856 12.0904 799 99.1051 494.941 475.278
1757 0 67.2149 10.5929 712 102.865 494.173 475.653
1758 0 72.1441 11.9067 859 99.149 494.402 473.537
1759 0 74.315 12.1375 902 99.3703 494.297 470.493
1760 0 78.2544 11.731 918 98.8475 494.865 471.507
1761 0 77.1875 10.9603 846 102.97 494.953 468.135
1762 0 80.1302 10.9821 880 102.624 494.792 467.422
1763 0 83.2744 11.5642 963 101.547 494.36 467.507
1764 0 89.2574 11.6853 1043 101.288 494.695 464.991
1765 0 89.1502 11.6433 1038 102.37 495 463.244
1766 0 91.1855 12.0524 1099 102.859 495.467 459.076
1767 0 90.2549 10.3706 936 107.934 495.03 458.748
1768 0 97.4099 12.4936 1217 103.389 495.09 457.893
1769 0 100.252 12.0098 1204 104.492 494.66 458.148
1770 0 105.297 12.7544 1343 103.111 494.745 456.692
1771 0 108.158 12.7499 1379 103.583 495.589 456.271
1772 1 61.1165 11.9117 728 103.864 496.88 481.063
1773 0 61.2655 10.8217 663 106.309 496.824 480.394
1774 0 63.2808 9.92402 628 110.067 496.67 479.261
1775 0 64.1193 9.87223 633 110.224 496.91 478.681
1776 0 69.018 10.9682 757 104.696 497.41 479.373
1777 0 68.036 11.2 762 105.488 497.453 479.294
1778 0 73.0878 12.3276 901 101.931 497.661 477.397
1779 0 73.0169 12.3396 901 103.43 497.362 475.032
1780 0 77.2342 12.3391 953 105.193 496.753 470.92
1781 0 79.2654 12.2752 973 105.096 495.857 470.396
1782 0 84.2466 12.9619 1092 102.745 496.782 470.2
1783 0 82.2435 12.2684 1009 106.483 496.124 466.986
1784 0 85.254 12.2927 1048 106.591 496.39 468.215
1785 0 90.3219 11.9129 1076 108.025 497.14 465.149
1786 0 90.1717 11.6777 1053 109.489 496.028 463.727
1787 0 91.3108 11.1597 1019 110.829 495.314 462.184
1788 0 96.152 13.4163 1290 106.054 495.71 459.798
1789 0 99.28 11.7446 1166 108.256 496.274 460.719
1790 0 101.324 12.0899 1225 107.946 496.213 461.066
1791 0 104.245 12.3267 1285 108.889 496.135 454.783
1792 0 109.195 12.2533 1338 108.661 495.996 453.893
1793 0 111.22 11.6705 1298 110.057 496.324 453.764
1794 1 62.0254 10.1894 632 105.799 497.324 480.934
1795 0 63.2994 10.6478 674 108.653 495.521 474.645
1796 0 67.22 12.4963 840 104.371 495.237 473.748
1797 0 68.2267 11.4911 784 107.365 496.282 472.12
1798 0 71.2904 12.6805 904 104.065 495.825 471.877
1799 0 73.1886 12.338 903 104.782 495.944 472.207
1800 0 75.0926 11.9186 895 106.066 495.604 473.337
1801 0 75.1428 11.6179 873 107.93 496.359 471.285
1802 0 80.1965 12.5068 1003 105.366 496.249 470.121
1803 0 81.0283 12.4031 1005 106.718 497.522 471.871
1804 0 81.0956 12.0105 974 109.432 497.624 468.178
1805 0 86.0481 12.4 1067 108.719 497.461 468.778
1806 0 90.1973 11.6855 1054 109.372 497.787 466.707
1807 0 93.1203 13.3483 1243 106.752 497.533 463.921
1808 0 93.0988 12.1054 1127 110.438 496.979 460.438
1809 0 97.2058 12.3141 1197 110.264 496.882 463.256
1810 0 101.162 12.8705 1302 109.016 496.475 460.231
1811 0 104.156 13.1725 1372 108.435 496.813 459.596
1812 0 107.215 12.1345 1301 112.325 496.299 455.834
1813 0 112.159 13.5522 1520 107.753 496.815 455.949
1814 1 58.0722 10.177 591 110.01 497.242 480.047
1815 0 62.0413 13.2331 821 98.0463 496.939 480.028
1816 0 63.1579 12.0017 758 102.48 495.458 478.665
1817 0 66.0887 11.8326 782 101.558 494.946 478.316
1818 0 68.1168 13.0658 890 99.1348 495.121 477.349
1819 0 70.0407 12.35 865 100.731 495.68 473.709
1820 0 74.1001 12.2672 909 99.9241 494.62 476.333
1821 0 76.1079 12.2195 930 100.76 494.929 474.382
1822 0 77.158 12.2605 946 101.275 495.319 474.487
1823 0 80.1676 14.2826 1145 97.545 495.042 469.946
1824 0 82.1708 13.8127 1135 99.3577 494.885 469.352
1825 0 85.1455 13.7529 1171 99.263 495.429 469.314
1826 0 88.1945 13.0053 1147 100.583 495.217 468.562
1827 0 91.1306 13.0801 1192 99.1435 495.609 469.641
1828 0 93.0896 13.7287 1278 99.2081 495.72 467.185
1829 0 97.1202 14.2298 1382 98.2019 495.578 463.292
1830 0 100.145 13.0711 1309 101.393 495.783 463.558
1831 0 102.117 12.7207 1299 102.139 495.993 461.594
1832 1 55.0388 11.6827 643 103.026 495.521 486.799
1833 0 58.0829 11.518 669 102.348 495.179 485.001
1834 0 57.1203 11.2394 642 103.907 494.903 483.64
1835 0 58.1123 11.8047 686 103.657 495.103 484.356
1836 0 62.0991 12.464 774 100.481 494.614 482.045
1837 0 63.0766 12.5562 792 101.379 495.102 483.612
1838 0 66.1916 12.6602 838 100.247 494.988 480.747
1839 0 68.139 11.8875 810 102.412 494.905 478.59
1840 0 70.1504 12.0598 846 101.8 494.774 477.774
1841 0 71.0934 11.8998 846 102.915 494.275 477.009
1842 0 74.1469 12.7854 948 101.059 494.947 475.923
1843 0 76.1278 12.5447 955 103.435 494.978 473.821
1844 0 78.1957 13.8243 1081 100.722 494.325 475.406
1845 0 80.1265 14.0153 1123 102.753 495.307 470.509
1846 0 84.1645 12.1429 1022 106.859 495.675 470.88
1847 0 87.1504 12.8399 1119 106.323 495.693 467.506
1848 0 88.3346 13.4602 1189 107.313 495.694 466.291
1849 0 92.2205 12.893 1189 107.791 495.55 464.706
1850 0 95.209 13.234 1260 108.216 494.929 462.533
1851 0 98.2358 13.549 1331 108.871 494.623 458.714
1852 0 99.1661 12.948 1284 112.251 494.517 457.935
1853 0 102.154 12.1972 1246 116.544 494.221 459.937
1854 0 106.154 12.9717 1377 114.545 495.751 460.519
1855 0 111.231 13.6562 1519 112.517 496.354 457.386
1856 1 58.113 9.79126 569 112.014 497.176 483.112
1857 0 60.0536 9.90781 595 113.039 496.314 484.187
1858 0 65.1182 11.5175 750 109.173 497.473 480.34
1859 0 68.071 11.6055 790 107.886 495.206 479.786
1860 0 68.0574 11.2258 764 111.421 495.122 479.356
1861 0 72.1163 12.6185 910 107.453 495.218 478.392
1862 0 76.1922 12.5735 958 106.852 495.342 476.136
1863 0 76.1268 12.7419 970 106.186 495.272 474.592
1864 0 81.0914 12.6031 1022 105.156 495.203 475.102
1865 0 82.1146 11.35 932 108.477 495.307 468.874
1866 0 86.1642 11.5941 999 104.11 494.576 470.107
1867 0 86.1047 11.0679 953 107.614 495.538 467.304
1868 0 91.1199 11.4684 1045 107.225 494.954 464.652
1869 0 93.0876 12.1606 1132 108.188 495.19 468.723
1870 0 95.2507 11.2125 1068 110.54 495.774 465.332
1871 0 97.0892 11.7521 1141 111.479 494.918 466.94
1872 0 101.116 11.6302 1176 111.389 495.928 462.108
1873 0 105.092 12.0941 1271 110.024 495.666 461.278
1874 0 109.135 11.8019 1288 109.46 495.884 458.719
1875 1 63.1714 11.1443 704 109.402 494.602 483.669
1876 0 62.0412 10.767 668 115.626 496.593 481.795
1877 0 64.2807 10.6253 683 108.35 496.647 481.971
1878 0 66.0952 10.9842 726 107.453 497.174 481.481
1879 0 68.1028 10.0436 684 108.151 496.627 482.121
1880 0 69.1665 11.0747 766 106.905 495.828 480.852
1881 0 73.213 11.3504 831 106.826 495.661 477.886
1882 0 73.1542 10.6624 780 108.54 495.662 477.583
1883 0 75.1725 11.1078 835 107.757 495.853 475.544
1884 0 78.1483 11.4526 895 105.607 496.283 476.007
1885 0 80.2377 11.0671 888 108.544 495.284 471.336
1886 0 84.1204 10.9367 920 108.7 495.037 472.184
1887 0 87.1392 12.8759 1122 104.895 495.763 469.783
1888 0 88.0984 11.192 986 109.736 496.027 465.555
1889 0 91.1426 10.917 995 109.394 496.603 466.421
1890 0 95.2585 10.1723 969 109.754 496.38 465.598
1891 0 96.2112 9.68703 932 110.691 496.75 464.594
1892 0 102.137 11.6119 1186 105.223 496.389 463.503
1893 1 57.149 10.5689 604 102.242 494.699 482.2
1894 0 58.2058 11.3734 662 100.905 495.215 482.601
1895 0 62.3857 11.6373 726 99.0331 495.679 475.402
1896 0 62.0897 10.5009 652 101.018 496.057 475.265
1897 0 64.0962 11.4515 734 99.7262 495.662 477.787
1898 0 65.1559 11.0351 719 108.1 494.918 481.192
1899 0 66.047 11.0225 728 103.093 495.768 476.766
1900 0 70.0415 11.1363 780 102.568 495.982 476.746
1901 0 72.053 10.7143 772 102.804 495.724 476.977
1902 0 72.0457 10.2713 740 105.215 496.232 472.684
1903 0 76.0625 10.9778 835 102.661 495.854 473.289
1904 0 78.0608 11.1195 868 102.717 496.062 472.666
1905 0 80.0555 10.8175 866 103.7 496.044 472.436
1906 0 84.0913 11.9394 1004 101.796 495.782 468.214
1907 0 85.0904 12.9392 1101 100.438 495.16 464.36
1908 0 87.142 12.0837 1053 102.632 495.571 464.444
1909 0 92.1782 11.9117 1098 101.717 495.56 462.131
1910 0 94.1344 11.2286 1057 103.839 495.539 461.079
1911 0 98.0828 12.0103 1178 103.082 495.531 457.207
1912 0 98.1699 10.9911 1079 105.328 495.966 459.091
1913 1 53.0836 9.06118 481 101.744 495.096 482.669
1914 0 51.1155 8.8036 450 108.198 496.647 478.242
1915 0 54.0597 10.4144 563 105.659 496.327 478.567
1916 0 59.2516 10.5651 626 100.647 496.804 478.19
1917 0 61.1575 9.79438 599 101.716 496.608 477.384
1918 0 60.0734 9.65486 580 103.445 496.741 472.129
1919 0 63.1377 10.1682 642 102.727 496.676 471.24
1920 0 66.0841 11.0314 729 100.846 496.398 473.195
1921 0 69.0715 10.8728 751 100.079 496.309 473.356
1922 0 71.0694 9.68068 688 102.17 496.058 472.426
1923 0 72.0489 10.1875 734 101.839 495.951 469.041
1924 0 75.1456 8.92933 671 104.095 496.493 472.523
1925 0 78.1336 11.5443 902 100.187 496.783 470.366
1926 0 80.1341 10.8942 873 101.175 496.135 470.259
1927 0 85.1994 11.8311 1008 98.9286 495.499 465.556
1928 0 87.0977 12.4688 1086 98.5451 496.105 464.779
1929 0 90.2247 12.9787 1171 98.2169 496.289 464.827
1930 0 93.1159 12.028 1120 101.728 495.871 466.712
1931 0 96.1145 10.9141 1049 107.849 495.667 462.456
1932 0 100.17 11.8398 1186 108.507 495.656 458.797
1933 1 52.2819 11.5528 604 104.123 495.255 482.252
1934 0 54.2562 11.0586 600 104.975 495.915 483.687
1935 0 58.0917 11.5851 673 101.52 495.406 485.837
1936 0 59.1877 12.3674 732 100.221 495.186 480.964
1937 0 58.1905 10.9984 640 104.528 495.395 478.688
1938 0 62.1316 12.4413 773 102.066 495.154 478.084
1939 0 61.1907 12.3221 754 102.168 494.96 479.606
1940 0 64.2932 12.0075 772 103.266 495.715 478.183
1941 0 65.1684 12.015 783 104.218 495.415 476.584
1942 0 67.1514 12.1963 819 104.372 495.562 474.845
1943 0 70.1433 13.173 924 101.931 495.111 476.361
1944 0 72.1696 11.6808 843 106.437 495.52 472.738
1945 0 72.1036 13.1755 950 104.008 494.699 471.399
1946 0 73.1894 12.2422 896 108.095 495.74 471.104
1947 0 79.1217 13.1317 1039 105.031 495.774 469.185
1948 0 81.1563 13.0242 1057 105.383 495.555 466.996
1949 0 81.1993 11.2193 911 111.262 494.934 466.823
1950 0 87.127 12.8433 1119 107.773 495.311 464.421
1951 0 89.1745 11.7186 1045 111.177 495.444 463.149
1952 1 48.1193 11.1598 537 108.441 495.456 484.423
1953 0 49.0707 12.7163 624 107.096 495.466 483.389
1954 0 51.1668 11.3159 579 110.511 494.786 483.181
1955 0 53.1889 11.8446 630 108.186 495.541 483.214
1956 0 55.1521 11.4048 629 109.633 495.383 483.256
1957 0 57.0747 11.9142 680 109.357 495.987 483.51
1958 0 60.0969 12.9957 781 106.329 495.526 483.939
1959 0 60.0955 13.0459 784 108.071 495.011 481.584
1960 0 63.0827 12.7927 807 107.394 495.275 482.907
1961 0 63.1318 12.9253 816 107.778 495.576 479.391
1962 0 66.057 12.8525 849 106.972 495.333 479.054
1963 0 69.1516 13.9982 968 104.566 495.416 475.892
1964 0 71.0541 13.0183 925 106.661 495.051 477.728
1965 0 70.1051 11.6967 820 107.682 495.733 471.06
1966 0 75.0442 11.4999 863 107.126 495.944 472.127
1967 0 76.1024 12.3518 940 108.303 495.609 469.448
1968 0 76.1024 12.3518 940 140.627 494.597 469.287
1969 0 83.1391 13.5556 1127 106.213 494.913 466.678
1970 0 83.1064 13.3804 1112 107.586 495.177 466.108
1971 0 88.1676 14.5405 1282 104.878 495.283 465.353
1972 0 88.0974 12.804 1128 109.563 495.592 465.006
1973 0 91.0781 13.2414 1206 109.425 495.701 464.354
1974 0 95.1241 13.0461 1241 109.842 495.913 462.473
1975 0 98.2106 12.8907 1266 112.626 495.801 456.27
1976 0 101.193 13.1828 1334 111.59 495.624 457.188
1977 0 103.251 13.0943 1352 112.673 495.072 456.636
1978 0 107.195 14.0026 1501 111.374 495.472 453.546
1979 0 109.187 13.3075 1453 113.198 496.427 453.802
1980 0 114.143 13.5181 1543 111.781 496.28 452.787
1981 0 116.183 13.2291 1537 113.576 495.206 446.648
1982 1 66.0763 11.6078 767 110.812 495.317 473.001
1983 0 68.1264 12.1979 831 108.067 495.706 475.894
1984 0 70.116 12.8929 904 107.466 495.334 472.728
1985 0 73.1361 12.046 881 105.733 495.627 471.924
1986 0 77.175 12.7502 984 103.498 494.959 472.649
1987 0 79.1068 14.196 1123 100.408 495.134 469.949
1988 0 81.193 12.7105 1032 104.6 495.246 469.4
1989 0 85.1444 12.6374 1076 103.493 495.441 468.598
1990 0 86.1185 12.7499 1098 104.129 495.598 467.245
1991 0 90.1531 12.6895 1144 104.635 495.038 464.025
1992 0 93.0997 13.3298 1241 104.119 494.853 462.015
1993 0 95.1126 13.0897 1245 102.18 494.603 458.354
1994 0 98.1786 12.7828 1255 102.756 495.268 459.274
1995 0 101.105 12.0172 1215 104.765 495.531 455.314
1996 0 103.199 11.3373 1170 108.097 495.585 455.362
1997 0 106.143 12.3041 1306 108.682 495.321 455.554
1998 0 111.261 13.401 1491 105.121 495.419 452.215
1999 0 112.123 11.9333 1338 110.621 495.673 452.989
2000 0 117.134 13.19 1545 108.638 496.27 447.974
2001 0 124.199 13.4059 1665 108.515 495.485 444.891
2002 0 126.319 13.4975 1705 109.47 496.139 443.788
2003 1 72.1738 11.9157 860 104.28 495.801 472.515
2004 0 74.1379 11.02 817 104.273 495.142 477.709
2005 0 76.1061 11.865 903 102.039 494.684 470.73
2006 0 77.2139 11.3969 880 104.333 494.393 464.888
2007 0 82.1267 12.7364 1046 102.042 494.554 465.981
2008 0 83.1218 11.1764 929 107.034 494.994 462.861
2009 0 86.103 10.8939 938 107.559 495.067 465.855
2010 0 90.135 11.3164 1020 106.637 494.531 463.774
2011 0 94.1062 11.5614 1088 105.622 494.184 464.457
2012 0 97.2188 12.1067 1177 105.637 494.392 459.042
2013 0 99.3414 11.4152 1134 107.719 494.459 456.476
2014 0 102.239 12.3338 1261 106.486 494.324 454.272
2015 0 105.133 13.1642 1384 105.519 493.967 453.359
2016 0 110.185 12.4972 1377 106.565 494.533 456.516
2017 0 111.187 12.2317 1360 107.678 494.873 455.179
2018 0 114.323 12.5609 1436 108.518 495.115 447.521
2019 0 118.342 11.7034 1385 109.628 495.185 451.19
2020 0 126.311 13.3242 1683 106.381 495.399 443.861
2021 1 68.1351 12.4165 846 99.9279 495.592 472.593
2022 0 68.2524 11.0179 752 105.598 496.185 471.831
2023 0 72.1379 12.0464 869 101.379 496.116 474.357
2024 0 75.1602 11.1894 841 104.257 496.678 472.01
2025 0 77.1521 11.6005 895 103.53 496.983 471.72
2026 0 79.1763 11.0639 876 103.932 496.727 471.784
2027 0 81.2798 10.2239 831 106.669 496.325 466.366
2028 0 82.1636 10.8807 894 106.628 496.266 464.695
2029 0 86.1437 10.1342 873 107.273 496.756 466.015
2030 0 90.2746 10.9887 992 105.795 496.76 461.86
2031 0 91.2613 11.5931 1058 103.895 496.892 465.043
2032 0 96.2223 12.0762 1162 103.998 496.704 459.877
2033 0 98.2929 11.6692 1147 105.821 496.529 459.305
2034 0 100.198 11.8266 1185 106.04 496.564 457.743
2035 0 102.253 12.4397 1272 105.461 496.756 455.923
2036 0 106.276 12.4676 1325 105.574 496.483 452.712
2037 0 111.324 11.6327 1295 106.766 495.934 452.219
2038 0 114.294 11.9604 1367 106.339 496.283 450.802
2039 0 119.254 11.0017 1312 108.735 496.123 448.538
2040 0 123.312 10.0964 1245 110.998 496.513 447.11
2041 0 128.31 10.7318 1377 109.412 496.645 446.194
2042 1 69.2427 11.2214 777 103.318 496.954 472.918
2043 0 72.2877 12.7408 921 103.382 495.882 473.27
2044 0 73.1067 13.1589 962 100.663 496.96 472.126
2045 0 74.0874 11.311 838 105.152 496.912 472.141
2046 0 76.1632 11.8036 899 104.568 496.996 472.627
2047 0 78.0956 10.8713 849 107.558 496.587 470.925
2048 0 80.1638 11.5763 928 108.011 496.355 465.871
2049 0 84.1011 12.3185 1036 106.573 496.788 468.339
2050 0 85.1563 10.8624 925 110.822 496.816 465.995
2051 0 88.1317 12.4359 1096 109.578 496.443 464.212
2052 0 92.0653 12.7518 1174 108.861 496.069 465.748
2053 0 91.1291 12.9267 1178 111.589 496.563 462.132
2054 0 96.1375 13.127 1262 111.216 496.748 461.433
2055 0 99.096 13.5626 1344 110.519 496.315 459.693
2056 0 100.207 11.7756 1180 115.43 496.621 456.552
2057 0 103.084 12.3879 1277 115.036 496.048 458.352
2058 0 109.212 13.1854 1440 113.175 496.539 456.222
2059 0 111.217 13.0017 1446 117.454 496.1 451.628
2060 0 115.192 13.1607 1516 117.616 495.73 452.117
2061 0 116.249 11.9829 1393 123.321 496.172 449.818
2062 1 62.1754 11.2746 701 112.056 497.556 481.869
2063 0 64.1437 11.6613 748 112.384 496.822 478.988
2064 0 66.0959 11.8767 785 111.372 496.546 476.953
2065 0 69.1972 10.7663 745 112.805 497.407 475.835
2066 0 68.1045 11.0272 751 114.652 496.712 471.668
2067 0 72.0913 11.1387 803 114.044 496.976 473.514
2068 0 72.1032 12.0938 872 113.545 496.951 470.139
2069 0 75.0975 12.6502 950 112.368 496.489 470.527
2070 0 78.1108 13.5193 1056 109.687 496.33 468.922
2071 0 81.09 12.3936 1005 112.742 496.236 467.196
2072 0 84.0601 12.8123 1077 110.78 496.245 470.073
2073 0 88.1411 13.3649 1178 108.756 494.802 470.498
2074 0 90.1576 13.3544 1204 109.829 493.923 468.081
2075 0 94.11 13.8668 1305 109.421 495.009 467.448
2076 0 93.0789 13.1072 1220 113.039 495.501 462.09
2077 0 96.1237 13.0873 1258 114.117 495.029 462.761
2078 0 99.0872 12.4032 1229 113.79 495.176 458.277
2079 0 101.274 12.3033 1246 115.454 495.874 456.311
2080 0 104.116 12.6013 1312 114.961 495.396 457.005
2081 0 106.134 12.2769 1303 115.692 495.219 455.308
2082 0 111.139 12.7587 1418 115.029 494.922 455.699
2083 0 112.199 12.2194 1371 120.049 494.748 451.896
2084 0 117.142 11.5671 1355 120.752 494.603 450.092
2085 0 120.283 12.2462 1473 119.026 495.09 448.212
2086 0 124.168 12.0401 1495 119.443 494.794 447.052
2087 0 128.377 12.5646 1613 119.756 495.069 445.338
2088 0 131.279 12.5686 1650 122.292 494.908 440.849
2089 0 135.313 12.6078 1706 123.037 495.256 440.721
2090 0 140.295 12.4238 1743 125.306 494.827 438.994
2091 0 145.343 12.4258 1806 123.251 495.266 436.019
2092 0 149.32 11.9074 1778 124.314 494.859 429.488
2093 1 87.1454 11.039 962 114.352 494.956 463.517
2094 0 90.0921 11.7768 1061 125.835 495.587 467.297
2095 0 94.1657 13.0515 1229 123.143 495.864 464.715
2096 0 94.1971 11.3485 1069 128.456 496.286 462.787
2097 0 97.3666 12.7765 1244 124.67 496.376 463.507
2098 0 99.2068 12.2975 1220 129.11 495.71 457.559
2099 0 103.17 12.6005 1300 128.951 495.118 453.95
2100 0 107.229 11.9837 1285 128.3 495.275 454.309
2101 0 109.128 12.0042 1310 121.171 496.027 452.624
2102 0 112.131 11.8522 1329 123.033 496.168 451.785
2103 0 114.205 12.031 1374 123.869 496.25 452.197
2104 0 118.199 11.5399 1364 125.588 496.612 451.899
2105 0 123.232 12.1397 1496 124.843 496.152 451.23
2106 0 125.19 12.0137 1504 127.719 495.317 445.974
2107 0 130.265 12.8584 1675 125.65 494.783 446.223
2108 0 136.235 12.4123 1691 125.597 495.092 446.525
2109 0 140.268 11.7775 1652 130.349 495.091 441.641
2110 1 76.1874 10.8286 825 125.756 494.796 472.142
2111 0 81.1321 12.2639 995 122.733 494.169 471.609
2112 0 83.1024 11.8649 986 123.845 493.806 472.683
2113 0 86.2095 11.8084 1018 125.886 493.826 467.918
2114 0 88.3451 12.5417 1108 125.042 493.878 467.971
2115 0 92.3046 12.4479 1149 123.491 494.273 467.982
2116 0 94.2194 12.5346 1181 124.091 494.436 464.826
2117 0 99.4094 12.9364 1286 122.123 494.67 464.157
2118 0 102.285 13.2962 1360 121.609 494.882 460.282
2119 0 104.197 13.3401 1390 121.545 494.598 462.059
2120 0 104.346 11.9889 1251 127.251 493.837 458.751
2121 0 108.515 12.4775 1354 125.89 494.92 456.231
2122 0 110.248 12.5535 1384 126.675 495.094 454.15
2123 0 114.365 12.0579 1379 127.297 494.553 453.226
2124 0 118.262 12.726 1505 124.379 494.383 451.33
2125 0 121.44 12.6071 1531 127.464 495.447 445.461
2126 0 124.417 12.0884 1504 129.389 494.362 443.114
2127 0 128.513 12.1233 1558 128.135 494.644 442.764
2128 1 69.4593 10.9561 761 121.367 494.246 477.121
2129 0 71.4125 11.2025 800 120.706 494.446 474.311
2130 0 73.1065 12.1877 891 115.407 494.2 473.915
2131 0 77.1521 12.2485 945 125.125 494.869 474.566
2132 0 79.2183 12.6486 1002 123.74 495.136 470.654
2133 0 80.1855 12.3713 992 124.759 495.374 468.355
2134 0 84.1636 11.3588 956 125.447 495.334 468.57
2135 0 84.2412 10.6955 901 127.19 495.341 466.724
2136 0 86.164 10.9791 946 117.906 495.073 466.013
2137 0 89.266 11.2025 1000 117.385 495.384 465.627
2138 0 92.1811 11.5316 1063 117.731 495.655 462.831
2139 0 95.2125 12.8029 1219 114.39 495.475 462.22
2140 0 96.249 11.4495 1102 118.667 495.22 461.896
2141 0 99.2155 10.7342 1065 120.724 495.179 459.76
2142 0 102.281 11.6151 1188 120.157 494.843 455.963
2143 0 106.268 10.8217 1150 120.577 495.024 454.925
2144 0 110.185 11.635 1282 118.514 495.316 456.136
2145 0 115.192 12.9176 1488 115.831 494.824 454.233
2146 0 118.175 12.3461 1459 117.116 495.162 453.62
2147 0 121.276 11.4944 1394 120.14 494.825 451.797
2148 1 65.1546 11.1581 727 109.275 495.792 479.142
2149 0 68.1567 12.2805 837 111.978 495.446 480.161
2150 0 69.1099 12.6899 877 107.325 495.381 477.219
2151 0 71.2604 11.886 847 108.323 495.974 474.051
2152 0 74.133 11.4254 847 108.966 497.094 474.068
2153 0 77.1553 12.0277 928 108.081 496.213 472.366
2154 0 78.0979 11.7161 915 109.401 496.259 471.355
2155 0 83.0813 12.6864 1054 106.987 495.517 470.365
2156 0 84.1461 12.7635 1074 107.495 495.941 469.893
2157 0 86.0609 12.0612 1038 110.061 495.741 467.737
2158 0 89.1326 12.487 1113 108.697 495.675 466.312
2159 0 93.0957 11.5902 1079 110.306 495.804 464.47
2160 0 92.0749 11.5884 1067 110.734 496.208 463.809
2161 0 98.1146 11.6496 1143 108.571 495.295 461.793
2162 0 100.089 12.4989 1251 108.289 495.186 460.803
2163 0 105.155 12.5815 1323 114.43 495.622 460.457
2164 0 108.165 13.3407 1443 113.343 495.916 457.069
2165 1 58.0486 9.54373 554 113.668 496.13 483.032
2166 0 63.1997 10.8703 687 106.208 495.773 480.122
2167 0 63.1576 10.8776 687 107.806 495.541 476.066
2168 0 68.1224 12.4335 847 103.143 495.22 475.633
2169 0 69.0827 11.6817 807 105.333 495.882 473.829
2170 0 71.1115 11.8827 845 104.923 495.209 473.964
2171 0 74.1266 12.3303 914 101.784 495.057 475.422
2172 0 77.0766 12.5849 970 101.716 494.759 473.468
2173 0 79.0498 11.7141 926 104.451 495.134 472.984
2174 0 81.0519 13.0287 1056 102.291 494.767 471.724
2175 0 84.0761 12.4054 1043 108.619 494.791 467.625
2176 0 87.0991 12.2734 1069 107.993 495.153 468.816
2177 0 89.2171 12.4528 1111 108.908 495.448 466.673
2178 0 93.1281 12.1338 1130 103.721 493.978 463.661
2179 0 97.1356 12.1892 1184 102.665 493.891 463.692
2180 0 96.285 11.414 1099 106.389 494.122 462.13
2181 0 104.187 12.1608 1267 103.709 494.33 458.028
2182 0 105.187 11.2847 1187 105.707 493.987 455.496
2183 0 109.145 11.1045 1212 104.428 494.181 455.461
2184 1 58.1054 9.31067 541 101.296 493.963 477.691
2185 0 56.1215 9.42598 529 104.418 494.945 474.423
2186 0 59.0716 8.97216 530 104.33 495.149 475.013
2187 0 64.2464 10.2418 658 102.161 495.445 472.535
2188 0 63.2115 10.8525 686 102.729 494.534 470.803
2189 0 62.1308 8.91667 554 110.278 494.749 467.005
2190 0 68.0611 9.30046 633 109.019 494.912 469.763
2191 0 69.158 10.917 755 106.736 494.997 468.348
2192 0 64.1345 9.80751 629 112.824 494.795 463.164
2193 0 76.1236 11.4682 873 105.558 494.596 466.874
2194 0 79.2153 11.2983 895 105.775 495.124 468.013
2195 0 81.2149 10.7493 873 108.194 494.741 467.354
2196 0 81.2221 11.0315 896 110.333 494.799 463.92
2197 0 84.1861 10.3818 874 112.633 494.838 460.699
2198 0 88.1286 11.3471 1000 109.884 494.581 460.307
2199 0 91.1909 11.5253 1051 110.437 493.936 458.324
2200 0 95.1117 10.2616 976 112.8 495.005 460.657
2201 0 99.1969 12.1879 1209 108.635 494.286 459.557
2202 0 102.155 12.5299 1280 110.103 494.198 458.743
2203 0 105.276 11.8545 1248 114.207 493.477 457.044
2204 0 108.147 12.335 1334 113.397 493.852 456.817
2205 1 61.1816 12.2422 749 115.336 493.573 483.737
2206 0 62.2416 11.7124 729 120.004 494.213 476.668
2207 0 64.2856 12.18 783 118.683 494.61 477.799
2208 0 65.1397 12.4962 814 119.396 493.543 480.563
2209 0 66.1747 12.6332 836 119.834 493.548 479.774
2210 0 68.1286 12.4177 846 120.73 493.398 478.859
2211 0 71.139 12.7075 904 120.153 493.928 477.853
2212 0 73.0897 13.2714 970 118.332 493.378 477.489
2213 0 76.1396 13.9743 1064 117.262 493.898 475.147
2214 0 77.371 13.1186 1015 120.369 493.917 473.343
2215 0 80.2356 13.0366 1046 119.952 493.088 472.474
2216 0 81.1777 13.3288 1082 119.431 493.299 471.987
2217 0 86.2245 14.0563 1212 116.345 493.248 470.889
2218 0 90.3422 14.6 1319 114.621 493.556 467.724
2219 0 88.1466 12.4452 1097 122.179 493.025 468.209
2220 0 91.279 11.8647 1083 119.899 493.513 468.582
2221 0 92.1685 12.6616 1167 120.056 493.319 465.101
2222 0 94.2097 11.4532 1079 122.133 493.799 465.555
2223 0 98.2053 12.8404 1261 118.779 493.672 464.323
2224 0 99.1617 12.3636 1226 121.426 493.665 458.797
2225 0 104.254 12.6902 1323 118.797 493.89 461.406
2226 0 106.279 12.2226 1299 121.145 494.235 456.933
2227 0 112.166 13.2126 1482 114.207 494.289 457.283
2228 0 111.501 12.7443 1421 116.782 494.311 444.663
2229 0 114.334 10.723 1226 121.341 494.557 443.236
2230 0 121.574 11.9598 1454 115.569 494.151 443.703
2231 1 68.3363 9.84835 673 110.664 495.071 469.899
2232 0 71.1721 10.2568 730 108.474 495.568 473.344
2233 0 72.167 11.5704 835 109.614 496.005 472.356
2234 0 73.1764 11.3151 828 103.961 494.972 470.704
2235 0 77.1794 11.6611 900 103.293 494.901 468.072
2236 0 77.1099 11.6846 901 105.404 494.494 465.169
2237 0 82.1695 11.2451 924 105.512 494.404 465.894
2238 0 84.1747 12.4978 1052 102.866 494.555 465.145
2239 0 86.2827 12.5981 1087 103.718 494.611 463.83
2240 0 86.0927 11.1392 959 108.489 494.578 461.391
2241 0 90.1533 11.3362 1022 108.584 494.05 462.009
2242 0 93.1919 11.7607 1096 108.05 494.89 461.39
2243 0 95.1454 10.9727 1044 110.333 495.438 458.643
2244 0 101.175 12.4241 1257 106.403 494.944 454.74
2245 0 102.114 10.4687 1069 110.154 494.479 457.292
2246 0 106.132 11.3727 1207 108.2 494.325 456.065
2247 0 111.202 12.5717 1398 106.182 494.965 453.116
2248 0 114.262 13.9241 1591 102.693 495.177 446.893
2249 0 116.281 12.3408 1435 108.05 494.44 449.842
2250 0 120.134 12.3196 1480 108.155 493.865 445.841
2251 0 124.217 11.5362 1433 108.679 494.618 443.421
2252 0 130.284 11.9585 1558 107.714 493.977 442.433
2253 0 132.15 11.7594 1554 109.813 494.63 440.299
2254 1 76.0696 10.8322 824 109.727 494.402 468.961
2255 0 78.158 12.4875 976 110.279 494.343 466.642
2256 0 82.155 11.1131 913 112.751 494.778 469.242
2257 0 82.1757 11.4754 943 114.491 494.52 467.01
2258 0 85.1605 11.6603 993 112.95 494.12 468.709
2259 0 88.1176 12.506 1102 113.358 494.309 464.316
2260 0 93.1441 14.0213 1306 109.245 494.07 464.328
2261 0 95.3131 11.6563 1111 115.448 494.202 464.824
2262 0 99.1922 12.6018 1250 112.936 494.121 462.33
2263 0 101.093 12.0978 1223 113.747 493.763 465.442
2264 0 102.146 12.0024 1226 116.897 493.165 460.442
2265 0 108.159 13.8592 1499 111.905 493.013 461.742
2266 0 112.174 12.8729 1444 107.524 492.481 460.444
2267 0 114.089 12.7532 1455 110.283 491.939 456.299
2268 0 117.186 12.3394 1446 112.772 491.926 458.769
2269 0 122.225 12.7061 1553 113.432 491.074 457.995
2270 0 123.133 11.6378 1433 116.381 491.084 455.662
2271 1 68.1368 9.84783 671 110.694 491.505 480.109
2272 0 68.1333 10.9051 743 107.651 491.53 479.665
2273 0 74.1252 11.2782 836 104.255 492.062 483.755
2274 0 77.1301 10.385 801 106.208 491.663 483.076
2275 0 80.0977 11.2363 900 104.658 491.743 482.008
2276 0 81.2206 11.795 958 105.486 491.407 477.224
2277 0 86.0788 11.3152 974 105.956 491.628 476.165
2278 0 89.1362 12.0265 1072 104.751 491.213 474.801
2279 0 92.2687 13.2223 1220 103.731 490.667 474.688
2280 0 96.0854 12.6242 1213 105.275 490.773 470.865
2281 0 100.191 12.4162 1244 108.493 490.08 469.055
2282 0 102.248 11.922 1219 110.368 490.135 467.444
2283 0 104.303 11.8597 1237 111.889 489.766 465.207
2284 0 109.192 12.7391 1391 109.889 489.41 464.551
2285 0 112.178 13.6302 1529 109.118 489.762 462.823
2286 0 116.24 13.1022 1523 110.041 489.426 462.563
2287 0 119.175 11.9572 1425 113.745 488.592 463.345
2288 0 123.189 11.5026 1417 114.989 488.701 464.664
2289 0 127.208 11.9332 1518 109.54 487.968 461.257
2290 0 132.402 12.4998 1655 110.75 488.279 458.276
2291 0 137.267 10.8912 1495 112.904 488.972 458.863
2292 0 143.336 11.4347 1639 113.653 488.722 453.047
2293 1 79.2029 11.6284 921 104.123 489.037 487.598
2294 0 81.0869 11.6912 948 104.719 488.672 485.639
2295 0 84.1344 10.6377 895 107.464 489.069 485.027
2296 0 86.11 11.3924 981 105.726 489.133 483.288
2297 0 90.1734 12.6756 1143 104.101 489.613 481.192
2298 0 94.1583 13.3499 1257 102.571 489.395 479.36
2299 0 96.2435 12.6866 1221 105.517 488.577 475.509
2300 0 99.2182 11.7317 1164 108.149 488.721 476.17
2301 0 102.22 11.8763 1214 107.865 488.129 472.535
2302 0 105.158 11.4589 1205 108.973 487.525 473.39
2303 0 108.333 11.0031 1192 110.717 487.642 470.206
2304 0 113.141 12.3298 1395 108.499 487.141 467.049
2305 0 117.236 11.8223 1386 109.46 487.93 464.683
2306 0 118.202 11.5395 1364 111.034 488.249 465.262
2307 0 123.287 12.913 1592 107.604 487.919 460.566
2308 0 129.263 12.4165 1605 108.944 487.518 458.912
2309 0 134.292 12.5473 1685 107.837 487.592 458.066
2310 1 72.1254 10.3847 749 108.015 487.389 489.533
2311 0 75.1323 10.8875 818 106.315 487.682 486.758
2312 0 79.0438 11.0572 874 105.878 487.294 486.027
2313 0 78.0741 11.5019 898 107.989 487.702 485.916
2314 0 84.1118 11.9008 1001 106.755 489.326 485.243
2315 0 86.0753 13.0351 1122 106.365 489.851 480.582
2316 0 90.1636 13.7528 1240 103.632 489.872 484.151
2317 0 92.1152 13.0597 1203 106.264 489.616 480.057
2318 0 96.1377 11.8164 1136 108.115 489.962 473.962
2319 0 97.1831 12.2861 1194 107.144 489.951 476.714
2320 0 99.0923 11.8173 1171 108.762 489.967 473.599
2321 0 102.091 12.7338 1300 106.058 490.032 471.572
2322 0 106.086 11.7735 1249 106.637 490.363 469.91
2323 0 106.237 11.2107 1191 98.9983 489.249 461.861
2324 0 111.233 12.1457 1351 96.7935 489.14 459.057
2325 0 115.365 11.5026 1327 98.416 489.372 458.056
2326 0 116.289 11.7896 1371 99.2473 490.088 457.939
2327 0 123.232 12.9755 1599 97.945 489.61 455.29
2328 0 126.1 13.2751 1674 99.0621 489.606 455.406
2329 0 128.12 12.8629 1648 101.228 489.479 451.905
2330 0 130.115 11.2439 1463 105.606 489.703 447.1
2331 0 129.106 11.0839 1431 105.458 489.804 440.639
2332 0 143.136 11.9327 1708 104.363 489.8 446.05
2333 0 149.277 11.9777 1788 102.116 490.031 440.56
2334 1 77.0912 10.4033 802 103.68 490.403 471.857
2335 0 79.0499 12.1695 962 100.077 489.875 472.259
2336 0 83.126 11.3563 944 101.591 490.347 470.769
2337 0 85.097 11.0697 942 103.298 489.909 467.788
2338 0 90.1232 11.8394 1067 101.211 490.058 468.902
2339 0 94.0841 13.1053 1233 98.7145 489.366 467.195
2340 0 94.0923 11.7544 1106 102.275 489.962 464.438
2341 0 99.0497 12.105 1199 102.402 490.357 461.04
2342 0 100.08 12.1003 1211 103.56 490.498 457.257
2343 0 106.137 11.3721 1207 103.844 490.505 458.562
2344 0 110.143 11.4306 1259 104.466 490.71 456.365
2345 0 112.218 10.9519 1229 105.841 490.579 454.659
2346 0 115.133 12.0904 1392 103.639 491.103 454.106
2347 0 117.054 12.1738 1425 103.822 490.422 450.509
2348 0 119.156 10.6583 1270 107.134 490.155 449.81
2349 0 126.226 12.8183 1618 101.967 489.506 447.604
2350 0 129.206 12.2595 1584 103.622 489.973 444.08
2351 0 133.408 12.3006 1641 99.4595 490.035 446.279
2352 0 139.395 11.8512 1652 100.079 489.683 438.08
2353 0 144.517 12.3376 1783 101.542 490.506 434.818
2354 1 77.2042 10.4528 807 99.4845 490.867 469.419
2355 0 84.2527 9.98187 841 101.015 490.35 463.545
2356 0 85.1436 11.6274 990 100.459 490.442 460.638
2357 0 86.1434 10.9585 944 101.792 490.294 461.915
2358 0 90.2915 12.4043 1120 99.6348 491.262 462.074
2359 0 92.1724 11.2941 1041 103.118 491.475 461.488
2360 0 88.274 10.9772 969 106.549 491.552 456.066
2361 0 98.3144 12.2566 1205 103.092 491.934 458.055
2362 0 98.288 12.5244 1231 105.45 492.045 449.755
2363 0 100.281 12.3952 1243 106.839 491.573 448.927
2364 0 104.235 12.6062 1314 107.819 491.056 443.136
2365 0 105.17 12.7223 1338 108.483 490.836 441.741
2366 0 109.196 12.8668 1405 107.45 491.473 443.136
2367 0 115.311 12.1325 1399 108.443 491.345 443.28
2368 0 117.187 14.1313 1656 105.216 491.611 439.101
2369 0 121.478 13.5333 1644 106.294 491.519 437.49
2370 0 124.24 12.9668 1611 109.8 491.858 437.759
2371 0 128.258 12.9661 1663 105.112 491.662 438.143
2372 0 132.453 12.7064 1683 105.215 492.583 436.321
2373 0 140.245 13.5549 1901 102.696 492.322 434.2
2374 1 70.0997 10.856 761 102.618 493.436 467.535
2375 0 74.1479 13.0415 967 97.4519 493.455 465.018
2376 0 78.2507 11.4887 899 96.416 492.076 464.921
2377 0 80.1354 9.34668 749 100.786 491.923 464.752
2378 0 84.4973 10.5802 894 99.0034 492.255 462.152
2379 0 83.1818 11.2044 932 98.5547 492.453 460.809
2380 0 85.2301 11.1815 953 100.17 492.118 458.355
2381 0 89.102 11.5598 1030 99.535 491.738 458.344
2382 0 92.1284 10.4419 962 101.291 492.605 453.044
2383 0 92.2027 9.94547 917 102.106 492.399 455.744
2384 0 99.19 12.9146 1281 98.3005 492.169 453.671
2385 0 99.3741 10.2039 1014 103.875 491.655 450.75
2386 0 103.335 9.94818 1028 105.176 492.563 447.732
2387 0 105.266 11.6751 1229 102.893 492.87 448.948
2388 1 115.458 11.7792 1360 104.99 492.376 451.525
2389 0 121.281 12.1783 1477 102.439 492.363 450.376
2390 0 118.344 9.86951 1168 108.859 492.409 444.616
2391 0 124.121 10.2803 1276 107.444 492.201 441.948
2392 0 132.222 11.4505 1514 104.898 492.116 443.18
2393 1 73.1519 10.4167 762 103.612 492.193 472.983
2394 0 76.2259 11.2823 860 101.919 492.999 471.885
2395 0 78.2058 10.5107 822 104.578 493.033 468.905
2396 0 82.3807 12.6243 1040 99.424 493.505 467.685
2397 0 81.2368 11.2141 911 102.087 493.177 470.186
2398 0 79.0496 12.7262 1006 96.841 492.898 460.804
2399 0 83.1092 10.3719 862 101.726 492.509 460.969
2400 0 84.0883 11.9279 1003 99.328 492.2 457.35
2401 0 88.1114 12.121 1068 98.6976 492.647 458.597
2402 0 90.0421 11.7278 1056 101.297 492.482 455.859
2403 0 93.0624 12.7334 1185 99.4641 492.159 452.138
2404 0 101.101 12.3738 1251 98.5508 492.414 456.256
2405 0 101.133 11.915 1205 100.621 492.056 453.354
2406 0 100.187 11.4486 1147 103.23 492.432 446.293
2407 0 104.127 11.6492 1213 102.745 492.639 448.586
2408 0 107.15 14.0831 1509 97.7058 492.867 442.906
2409 0 111.168 11.4421 1272 103.491 493.855 445.206
2410 0 117.136 12.4129 1454 101.705 493.999 441.598
2411 0 120.204 11.8632 1426 102.965 493.376 440.1
2412 0 129.245 13.1766 1703 99.6101 493.179 440.762
2413 0 129.133 12.0496 1556 104.294 493.548 434.732
2414 0 140.29 12.6096 1769 101.802 494.226 436.947
2415 1 77.15 10.4213 804 104.422 493.725 465.541
2416 0 75.1105 10.8773 817 105.223 494.643 463.375
2417 0 84.131 11.5653 973 102.569 492.767 463.474
2418 0 80.1128 11.6586 934 103.681 493.387 458.656
2419 0 86.1247 12.7025 1094 101.087 494.272 461.093
2420 0 89.1156 11.4121 1017 105.717 493.854 456.758
2421 0 93.0603 13.6148 1267 100.847 493.783 456.767
2422 0 92.0884 11.8582 1092 106.682 493.89 456.139
2423 0 97.2866 12.9925 1264 103.566 493.915 456.056
2424 0 99.2246 11.8015 1171 107.838 493.854 452.813
2425 0 102.19 12.3789 1265 106.901 493.496 451.611
2426 0 103.154 12.68 1308 106.969 493.192 449.888
2427 0 106.258 12.3191 1309 108.019 494.102 447.294
2428 0 111.31 13.0267 1450 105.314 493.881 447.583
2429 0 113.204 12.0225 1361 108.717 493.927 442.56
2430 0 117.345 12.3226 1446 108.474 494.075 440.632
2431 0 121.512 11.3652 1381 110.882 494.667 439.392
2432 0 119.325 10.2996 1229 115.559 494.285 433.469
2433 0 127.453 12.1927 1554 110.364 493.907 437.194
2434 0 129.242 11.4514 1480 113.786 493.823 429.154
2435 0 138.198 12.294 1699 110.375 493.25 431.873
2436 0 140.298 12.7372 1787 111.067 494.251 427.176
2437 0 144.262 12.7615 1841 110.494 493.656 426.816
2438 0 150.286 12.2233 1837 112.496 493.699 422.721
2439 0 155.245 13.0503 2026 111.821 493.931 416.292
2440 0 164.212 13.8967 2282 110.907 493.305 417.991
2441 0 174.316 13.1314 2289 114.349 493.727 418.979
2442 1 102.143 10.779 1101 114.708 493.55 455.094
2443 0 108.35 11.2875 1223 109.589 493.447 457.734
2444 0 107.161 11.366 1218 109.492 493.733 452.973
2445 0 112.213 11.5762 1299 105.317 492.182 455.124
2446 0 115.178 11.53 1328 105.463 494.99 453.828
2447 0 119.156 11.3633 1354 106.936 494.336 453.201
2448 0 124.196 12.5769 1562 109.544 493.984 452.63
2449 0 127.144 11.4044 1450 111.846 493.848 452.979
2450 0 129.112 11.703 1511 113.96 494.811 450.074
2451 0 131.181 10.6265 1394 114.969 493.829 447.262
2452 0 136.257 10.7517 1465 114.478 493.647 441.509
2453 0 140.164 11.3153 1586 113.238 494.017 441.136
2454 0 145.171 11.3521 1648 113.803 493.24 437.5
2455 0 151.237 11.2671 1704 114.11 493.623 435.812
2456 0 154.236 12.3447 1904 114.002 494.015 432.606
2457 0 158.211 11.7122 1853 114.682 494.233 432.09
2458 0 163.291 11.752 1919 115.903 494.283 428.944
2459 0 166.239 11.0384 1835 119.054 493.809 422.214
2460 0 174.124 12.3992 2159 114.542 493.718 421.698
2461 0 180.257 11.3338 2043 116.627 493.429 420.441
2462 0 187.249 11.4393 2142 117.974 493.486 413.398
2463 0 192.263 11.5259 2216 118.087 493.628 410.162
2464 0 198.291 12.7187 2522 116.443 492.942 409.803
2465 1 156.272 10.9296 1708 115.046 492.873 435.405
2466 0 159.328 10.2054 1626 113.705 492.704 433.563
2467 0 161.158 8.61266 1388 116.385 493.73 424.205
2468 0 164.16 9.03388 1483 118.431 492.991 418.92
2469 0 173.277 9.77049 1693 116.581 493.709 420.004
2470 0 178.341 10.693 1907 114.234 493.634 417.952
2471 0 182.291 9.88529 1802 116.992 493.452 415.286
2472 0 190.306 10.5777 2013 112.766 493.162 413.104
2473 0 197.338 10.8139 2134 112.668 493.652 409.39
2474 0 205.332 9.9692 2047 113.895 493.465 406.019
2475 0 211.276 9.3811 1982 116.538 493.128 395.872
2476 1 159.278 9.83812 1567 104.47 493.632 430.184
2477 0 164.237 9.85164 1618 105.244 493.389 422.584
2478 0 168.209 9.16125 1541 106.805 493.467 420.75
2479 0 175.199 9.7432 1707 106.626 493.146 420.67
2480 0 181.273 10.6911 1938 103.531 493.306 419.653
2481 0 187.253 10.387 1945 105.126 493.207 413.458
2482 0 193.362 10.876 2103 105.538 493.19 411.854
2483 0 199.566 11.6453 2324 105.374 493.347 401.703
2484 0 203.279 10.2126 2076 107.956 493.376 405.601
2485 0 209.482 11.285 2364 107.264 493.794 399.599
2486 0 212.547 10.8494 2306 108.646 493.657 397.67
2487 0 219.473 10.9945 2413 108.953 493.408 394.164
2488 0 224.68 11.986 2693 108.443 493.321 393.118
2489 0 231.654 11.1459 2582 111.725 492.792 386.789
2490 0 238.335 11.8447 2823 111.311 493.064 383.156
2491 0 247.567 12.3764 3064 110.073 492.73 388.05
2492 0 253.684 11.6168 2947 112.862 493.467 377.329
2493 0 264.677 12.6003 3335 112.226 493.615 374.7
2494 0 259.534 12.4377 3228 113.78 493.945 357.63
2495 0 267.518 11.6029 3104 116.355 494.169 355.347
2496 0 275.334 12.0181 3309 115.339 493.604 355.038
2497 1 337.743 10.7152 3619 119.272 493.501 345.857
2498 0 343.851 8.76543 3014 119.917 493.511 367.301
2499 1 311.636 11.7156 3651 118.131 493.525 339.204
2500 0 322.513 13.708 4421 113.79 494.016 343.555
2501 0 332.539 14.0134 4660 113.14 493.688 342.175
2502 1 69.0785 10.1768 703 101.29 493.952 477.832
2503 0 71.1316 10.5298 749 102.665 492.531 472.963
2504 0 73.155 10.8127 791 102.595 492.554 471.876
2505 0 77.0648 11.3022 871 102.506 492.333 471.189
2506 0 78.0602 11.6705 911 102.506 492.187 470.787
2507 0 80.059 11.579 927 102.855 492.813 470.225
2508 0 84.0967 13.5915 1143 98.5118 493.02 467.325
2509 0 84.1157 10.9849 924 106.472 492.859 466.222
2510 0 87.177 11.0006 959 106.645 493.1 466.174
2511 0 86.1205 11.0078 948 105.999 492.558 465.049
2512 0 93.1046 11.2669 1049 104.791 492.674 463.982
2513 0 97.0991 12.1422 1179 101.184 493.009 460.227
2514 0 100.153 14.2082 1423 94.293 493.525 455.05
2515 0 104.163 14.2374 1483 95.8914 493.982 454.359
2516 1 58.1933 11.4962 669 98.0493 492.928 479.19
2517 0 57.1492 9.44895 540 102.056 496.028 480.446
2518 0 60.2683 10.7187 646 100.577 495.693 477.718
2519 0 63.0649 11.2107 707 99.7426 496.207 477.984
2520 0 65.0772 11.2482 732 99.1858 495.843 476.71
2521 0 65.0793 10.1722 662 102.64 496.171 473.853
2522 0 68.0592 10.6819 727 102.212 495.146 471.823
2523 0 70.1076 13.2796 931 96.493 496.528 474.995
2524 0 69.0371 11.6025 801 101.976 496.185 473.94
2525 0 72.0747 12.9865 936 99.172 496.72 472.649
2526 0 75.1669 13.3569 1004 98.9771 496.811 472.31
2527 0 73.0557 11.9087 870 106.051 495.79 471.775
2528 0 80.1022 14.8311 1188 95.5715 496.065 467.895
2529 0 84.1002 15.4934 1303 93.8358 496.53 465.456
2530 0 80.1895 12.0465 966 104.911 496.265 469.982
2531 0 83.0971 12.0461 1001 105.663 496.489 466.337
2532 0 85.0759 13.0472 1110 105.061 496.864 466.033
2533 0 88.1562 12.3531 1089 107.037 496.812 464.901
2534 0 89.1079 11.4917 1024 109.505 495.937 463.847
2535 0 93.1193 13.1337 1223 105.836 496.208 463.349
2536 0 96.2273 12.855 1237 107.136 496.542 460.346
2537 0 99.1663 12.7967 1269 106.555 496.164 461.411
2538 0 102.129 12.0632 1232 108.403 495.351 459.684
2539 0 105.158 12.2482 1288 107.901 495.826 456.614
2540 0 108.121 12.5322 1355 108.246 495.666 454.084
2541 0 111.148 11.7771 1309 109.587 495.896 452.199
2542 0 117.296 13.5129 1585 104.45 495.338 447.05
2543 0 121.189 14.5558 1764 101.981 495.923 447.155
2544 0 125.117 13.4195 1679 106.492 495.239 446.752
2545 1 70.2001 11.8946 835 101.978 496.296 468.823
2546 0 73.2668 12.6251 925 99.9805 496.546 468.699
2547 0 76.1538 12.094 921 101.571 496.477 467.828
2548 0 77.128 12.9525 999 100.774 496.651 465.906
2549 0 79.0828 12.5312 991 102.089 497.051 466.312
2550 0 82.1838 12.4112 1020 103.08 497.394 463.412
2551 0 83.0636 13.1345 1091 100.879 496.305 467.148
2552 0 83.1422 11.8592 986 105.787 496.265 463.867
2553 0 87.1365 12.8534 1120 103.372 496.188 463.539
2554 0 90.2411 12.7547 1151 102.421 496.564 461.689
2555 0 90.2721 12.3183 1112 102.3 496.708 459.574
2556 0 93.1745 11.3658 1059 104.36 496.289 460.025
2557 0 97.1033 12.0799 1173 102.713 496.789 460.177
2558 0 100.148 11.493 1151 103.813 496.082 459.29
2559 0 102.177 12.6252 1290 103.609 495.94 453.855
2560 0 105.201 11.2451 1183 106.389 495.983 456.351
2561 0 109.135 12.315 1344 105.327 496.638 451.903
2562 0 113.232 11.9312 1351 107.644 496.508 449.811
2563 1 65.0803 9.60352 625 111.243 496.149 473.8
2564 0 66.1654 11.2143 742 108.85 496.652 473.33
2565 0 70.2398 12.4431 874 99.7597 495.515 471.682
2566 0 72.2389 11.725 847 99.6718 496.902 470.043
2567 0 74.1431 11.9768 888 98.4865 497.001 469.72
2568 0 73.0929 11.5333 843 100.841 496.087 469.871
2569 0 74.1077 11.2674 835 100.201 496.44 467.614
2570 0 81.1757 10.9516 889 99 497.011 467.598
2571 0 82.0716 12.8546 1055 95.6616 496.048 466.23
2572 0 85.1131 11.7726 1002 97.6607 496.251 464.442
2573 0 85.1424 11.4044 971 99.6818 496.034 461.587
2574 0 90.0978 12.3532 1113 97.0234 495.971 460.369
2575 0 94.1839 11.8704 1118 97.1592 495.564 461.437
2576 0 96.2061 11.0908 1067 97.9897 495.372 454.668
2577 0 101.154 11.5072 1164 97.4399 496.144 453.203
2578 0 104.297 12.3398 1287 96.1795 495.803 455.038
2579 0 106.165 11.6705 1239 98.5165 496.104 450.982
2580 0 108.383 12.1514 1317 99.1222 495.817 449.857
2581 0 110.297 12.0311 1327 100.575 495.75 448.126
2582 0 116.16 11.5444 1341 101.676 495.276 447.426
2583 0 120.248 12.1499 1461 102.088 495.711 445.205
2584 0 119.176 11.5879 1381 105.16 495.272 441.182
2585 0 123.154 11.2948 1391 105.224 495.134 443.206
2586 0 130.242 10.3576 1349 107.899 494.754 438.931
2587 0 137.151 11.7243 1608 104.627 495.488 441.55
2588 1 81.145 10.4751 850 107.247 495.336 466.332
2589 0 84.2077 11.911 1003 104.759 494.777 464.615
2590 0 85.1595 11.7427 1000 98.749 493.74 462.844
2591 0 88.201 11.9386 1053 98.8528 494.068 462.585
2592 0 90.2135 11.3398 1023 100.551 494.166 460.202
2593 0 93.1422 11.4663 1068 100.706 494.568 459.061
2594 0 95.143 12.56 1195 100.186 493.858 456.42
2595 0 98.2205 11.576 1137 103.35 494.181 455.216
2596 0 102.264 12.2331 1251 101.295 493.838 455.338
2597 0 105.155 12.201 1283 101.28 494.528 454.938
2598 0 109.15 12.8905 1407 100.032 494.51 454.335
2599 0 113.359 12.9059 1463 99.5072 493.826 453.426
2600 0 118.144 12.7641 1508 100.194 493.847 449.836
2601 0 121.242 12.9658 1572 101.286 494.369 445.358
2602 1 70.1238 9.05542 635 105.767 494.016 474.973
2603 0 72.1089 11.1637 805 102.978 494.02 472.876
2604 0 75.1373 11.3659 854 103.29 493.885 469.895
2605 0 77.0674 12.275 946 101.297 494.336 470.612
2606 0 74.2665 10.7182 796 106.569 494.443 463.954
2607 0 78.1831 11.1917 875 105.675 493.961 462.904
2608 0 81.2044 11.5511 938 104.466 493.928 462.977
2609 0 84.2954 12.0173 1013 103.6 494.249 461.322
2610 0 85.1401 11.7454 1000 104.636 494.671 459.665
2611 0 88.2197 11.9248 1052 98.2129 494.219 462.216
2612 0 91.186 11.9755 1092 98.6886 494.536 463.252
2613 0 94.2302 11.9813 1129 95.6767 494.926 461.104
2614 0 96.1762 11.4477 1101 98.0754 494.704 456.673
2615 0 99.1282 11.3691 1127 98.5297 494.778 460.03
2616 0 102.153 12.8141 1309 97.6272 494.59 457.75
2617 0 102.092 11.4308 1167 101.133 495.374 455.086
2618 0 107.151 11.5818 1241 101.729 495.113 455.027
2619 0 112.11 12.8891 1445 98.5869 494.985 454.233
2620 0 115.159 12.7476 1468 98.6219 494.52 450.001
2621 0 118.192 12.2174 1444 100.245 495.08 448.07
2622 0 122.212 12.9448 1582 99.1024 494.863 446.64
2623 0 122.221 12.9683 1585 100.871 494.016 443.965
2624 0 126.243 13.2126 1668 100.124 494.178 444.18
2625 0 127.218 11.4999 1463 105.011 494.124 439.633
2626 0 133.478 12.2942 1641 104.378 493.001 436.513
2627 0 136.238 12.3167 1678 105.315 493.306 435.351
2628 0 142.199 12.4474 1770 106.763 493.149 432.858
2629 0 146.261 12.3683 1809 107.312 492.369 429.256
2630 1 85.2328 10.9582 934 102.446 492.591 464.426
2631 0 88.2244 11.108 980 101.881 492.706 462.571
2632 0 90.1968 11.0869 1000 102.091 493.125 462.722
2633 0 95.1244 11.0382 1050 101.856 492.286 465.037
2634 0 96.216 10.8714 1046 102.641 492.722 457.669
2635 0 100.13 11.6748 1169 103.168 492.24 462.108
2636 0 102.111 12.5647 1283 102.423 492.656 460.058
2637 0 106.093 11.6973 1241 104.554 492.538 458.123
2638 0 110.097 12.5888 1386 102.819 492.185 454.788
2639 0 112.214 11.888 1334 105.14 492.927 451.638
2640 0 116.239 12.113 1408 105.205 492.266 450.58
2641 0 117.133 11.9864 1404 107.222 492.296 449.33
2642 0 120.27 11.0335 1327 109.047 492.635 446.5
2643 0 126.203 11.64 1469 106.995 492.556 446.832
2644 1 73.0407 8.76223 640 108.831 492.331 473.83
2645 0 76.0809 10.9489 833 103.534 492.091 472.939
2646 0 81.0452 11.9933 972 102.331 491.899 472.152
2647 0 84.0986 12.5091 1052 102.531 491.613 468.651
2648 0 84.1236 11.3286 953 107.378 492.614 466.274
2649 0 87.1086 12.3294 1074 104.739 492.33 471.23
2650 0 89.1014 12.3118 1097 106.264 492.308 467.919
2651 0 93.1235 12.972 1208 105.026 492.003 467.726
2652 0 94.1486 12.3422 1162 107.683 492.287 463.123
2653 0 99.108 13.1271 1301 106.848 492.198 463.7
2654 0 102.094 14.0068 1430 103.808 491.497 463.716
2655 0 103.054 12.6633 1305 108.307 491.334 463.527
2656 0 106.1 12.2998 1305 110.325 491.664 456.635
2657 0 110.084 12.4905 1375 109.254 492.204 458.591
2658 0 114.057 13.9842 1595 105.941 492.876 458.861
2659 0 117.108 12.4756 1461 110.787 491.792 455.05
2660 0 120.113 12.7629 1533 109.168 491.384 454.089
2661 0 125.145 12.7852 1600 108.484 491.931 451.764
2662 0 128.177 11.9132 1527 111.012 492.242 452.833
2663 0 132.273 12.6783 1677 111.307 492.636 446.961
2664 0 137.153 12.9491 1776 111.595 492.231 443.151
2665 0 143.179 12.9069 1848 109.824 492.065 443.036
2666 1 80.0668 10.3039 825 110.034 491.942 470.901
2667 0 85.1351 12.1102 1031 102.314 492.412 471.117
2668 0 77.0916 9.91029 764 100.12 494.194 461.401
2669 0 86.127 9.82271 846 99.5851 493.982 459.079
2670 0 88.1468 11.5943 1022 94.729 492.998 460.351
2671 0 90.1182 11.4072 1028 96.3016 492.705 459.951
2672 0 94.1606 11.8096 1112 96.5486 492.603 457.358
2673 0 96.1042 11.7789 1132 97.2509 492.198 457.798
2674 0 95.138 10.921 1039 101.279 492.313 452.864
2675 0 101.098 11.9092 1204 98.6802 492.764 453.487
2676 0 100.047 12.1243 1213 99.6439 492.04 454.437
2677 0 102.115 11.6829 1193 102.189 492.624 449.07
2678 0 110.182 12.0891 1332 99.8401 492.447 450.399
2679 0 112.11 11.4887 1288 104.431 492.743 448.932
2680 0 108.115 9.83212 1063 111.642 492.338 447.547
2681 0 119.19 13.1386 1566 112.577 493.612 452.233
2682 0 115.183 10.835 1248 119.707 493.042 446.717
2683 0 115.303 10.815 1247 117.527 493.546 452.886
2684 0 110.077 9.87487 1087 118.743 493.848 445.753
2685 1 77.0433 11.1236 857 107.156 493.77 465.905
2686 0 77.1217 9.34886 721 110.827 493.644 466.29
2687 0 79.0458 11.0948 877 104.058 492.995 463.322
2688 0 78.0695 10.1704 794 108.394 492.958 460.83
2689 0 86.0705 10.8748 936 105.538 492.902 462.66
2690 0 86.0738 11.5482 994 104.885 493.282 459.742
2691 0 86.0958 10.3722 893 109.395 493.108 457.393
2692 0 91.1614 10.8818 992 106.557 493.398 459.352
2693 0 96.2177 10.1852 980 107.926 493.364 456.534
2694 0 96.2832 11.2896 1087 107.512 492.834 454.829
2695 0 102.276 11.7526 1202 105.869 492.894 454.706
2696 0 102.229 13.0687 1336 104.907 492.902 450.779
2697 0 106.274 12.3737 1315 106.448 492.5 450.214
2698 0 109.276 11.8233 1292 108.23 492.574 448.937
2699 0 109.259 11.2759 1232 109.692 493.322 444.962
2700 0 110.266 11.3907 1256 111.283 492.342 442.008
2701 0 117.256 11.6839 1370 110.039 492.679 440.968
2702 0 118.149 12.7382 1505 116.327 492.385 439.093
2703 1 62.0474 7.39757 459 118.366 492.272 466.614
2704 0 66.0445 10.1598 671 110.848 492.086 463.912
2705 0 65.0419 9.83981 640 113.797 492.583 462.736
2706 0 68.1081 9.38214 639 113.939 492.801 464.975
2707 0 71.0274 10.4889 745 110.478 492.523 463.113
2708 0 79.1129 11.2245 888 104.25 492.614 467.994
2709 0 76.08 9.68717 737 112.08 491.965 460.744
2710 0 74.1216 9.21459 683 114.019 491.698 457.417
2711 0 83.0708 10.6776 887 109.543 492.344 456.87
2712 0 85.0772 10.7902 918 111.643 492.019 455.005
2713 0 85.0634 11.1446 948 112.161 492.431 454.818
2714 0 94.0704 11.5552 1087 108.904 492.249 452.947
2715 0 99.1412 12.921 1281 104.798 492.504 455.939
2716 0 101.358 11.2275 1138 110.944 491.935 452.391
2717 0 103.295 13.3502 1379 105.733 492.724 450.141
2718 0 106.117 11.8171 1254 110.154 492.604 449.675
2719 0 104.16 10.8391 1129 114.103 492.804 443.436
2720 0 111.252 13.2852 1478 107.258 492.996 445.028
2721 0 116.094 12.2142 1418 109.327 493.15 447.48
2722 0 118.233 12.0525 1425 109.621 493.698 446.823
2723 0 121.205 12.8047 1552 108.016 493.246 443.376
2724 0 123.309 11.9699 1476 108.88 493.583 436.728
2725 1 70.139 9.22454 647 104.321 493.349 461.836
2726 0 74.1749 8.76308 650 103.322 493.318 462.797
2727 0 77.0953 9.6504 744 98.8481 494.602 468.89
2728 0 81.0314 10.1072 819 97.3797 493.662 470.136
2729 0 84.2126 10.3191 869 96.8113 493.016 469.368
2730 0 84.0889 9.59699 807 99.1797 493.271 466.945
2731 0 90.1214 10.852 978 96.1994 494.049 466.986
2732 0 92.099 10.0978 930 98.0763 494.066 460.058
2733 0 93.0891 9.12029 849 99.8528 493.721 461.915
2734 0 97.0601 9.75684 947 99.849 493.801 460.834
2735 0 101.078 11.2586 1138 98.145 493.911 458.785
2736 0 104.19 11.1143 1158 98.3782 494.126 451.816
2737 0 106.207 11.3929 1210 98.7107 494.007 450.813
2738 0 109.079 10.497 1145 102.602 494.049 454.528
2739 0 110.151 9.73207 1072 103.649 494.079 446.211
2740 0 115.103 11.8241 1361 102.176 494.955 450.883
2741 0 118.206 11.2684 1332 104.516 494.89 446.959
2742 0 122.173 11.7293 1433 105.687 493.973 445.671
2743 0 125.367 12.3557 1549 105.54 494.281 438.987
2744 0 130.271 12.3435 1608 104.576 494.162 444.728
2745 0 133.297 13.0611 1741 104.86 494.021 438.047
2746 0 137.3 12.7822 1755 105.353 494.614 436.313
2747 0 141.226 11.9383 1686 109.226 495.013 433.186
2748 0 145.258 11.2834 1639 110.606 495.268 431.896
2749 0 149.259 12.4079 1852 109.349 494.129 426.112
2750 1 90.2517 9.89455 893 101.903 494.387 457.641
2751 0 94.1307 11.9621 1126 98.5098 494.746 460.234
2752 0 96.371 11.4972 1108 100.732 494.691 458.449
2753 0 99.237 12.2132 1212 99.8251 493.566 456.574
2754 0 99.359 12.0673 1199 101.475 493.329 455.812
2755 0 105.466 12.4401 1312 101.18 494.16 453.615
2756 0 106.348 11.3683 1209 104.12 493.944 453.058
2757 0 109.366 10.5334 1152 106.33 494.519 452.632
2758 0 112.453 12.6719 1425 103.029 494.302 450.263
2759 0 114.329 11.8518 1355 106.128 494.525 445.816
2760 0 120.629 12.9156 1558 104.258 493.851 446.771
2761 0 123.557 12.8523 1588 104.978 493.986 445.477
2762 0 126.374 12.3918 1566 106.139 494.905 444.796
2763 0 129.427 13.3357 1726 104.594 494.773 444.247
2764 0 130.475 12.7458 1663 107.275 494.281 439.895
2765 0 137.381 12.3453 1696 107.933 494.017 437.398
2766 0 142.349 12.1181 1725 108.915 493.97 435.538
2767 0 145.419 12.3505 1796 109.696 494.098 430.444
2768 0 151.4 11.572 1752 110.686 494.114 432.788
2769 1 88.3152 11.4023 1007 101.282 494.176 465.089
2770 0 90.1685 12.3879 1117 101.386 495.737 460.377
2771 0 93.3393 12.1707 1136 100.385 495.177 462.342
2772 0 97.2626 13.006 1265 99.5028 495.051 461.316
2773 0 98.3188 11.2186 1103 104.121 494.751 457.537
2774 0 102.317 12.2463 1253 101.273 494.63 459.511
2775 0 106.321 11.7287 1247 102.704 494.632 460.094
2776 0 108.321 12.7399 1380 103.148 494.592 453.071
2777 0 111.357 11.773 1311 106.187 493.545 452.754
2778 0 114.368 11.6467 1332 106.516 493.471 449.06
2779 0 118.276 11.786 1394 106.649 493.602 448.528
2780 0 122.171 12.5152 1529 105.422 493.515 448.174
2781 0 124.36 12.2709 1526 105.442 493.302 448.733
2782 0 129.208 12.6772 1638 103.751 494.127 445.656
2783 0 134.244 12.4475 1671 104.275 495.134 445.738
2784 0 139.266 12.9177 1799 105.839 494.767 441.177
2785 0 143.224 12.1767 1744 108.385 494.79 434.558
2786 0 149.268 12.9565 1934 106.289 494.5 437.648
2787 1 88.1874 11.6343 1026 101.706 495.432 467.415
2788 0 92.2622 11.89 1097 101.498 495.545 463.299
2789 0 94.1849 10.9253 1029 103.435 495.783 465.811
2790 0 96.0906 14.1533 1360 98.5324 495.539 462.01
2791 0 98.1096 12.1904 1196 102.84 495.533 462.228
2792 0 103.15 12.6806 1308 102.369 495.324 459.913
2793 0 105.178 12.6548 1331 103.418 495.518 456.148
2794 0 108.107 12.3858 1339 104.674 494.828 457.566
2795 0 109.095 12.7228 1388 105.921 494.909 453.177
2796 0 112.137 12.9573 1453 105.833 494.576 453.752
2797 0 115.145 12.0804 1391 107.792 495.173 453.108
2798 0 119.198 13.8174 1647 104.083 495.113 453.288
2799 0 121.192 12.443 1508 108.223 495.34 449.734
2800 0 125.129 12.8108 1603 107.89 494.624 446.906
2801 0 130.238 13.0837 1704 108.227 494.116 445.481
2802 0 132.216 11.7006 1547 110.63 494.79 445.999
2803 0 138.512 12.5693 1741 108.444 494.952 443.109
2804 0 144.389 12.5218 1808 109.092 494.502 437.781
2805 1 80.2014 12.3689 992 105.433 495.001 467.304
2806 0 79.2969 11.2363 891 109.229 493.727 466.888
2807 0 84.1556 12.3937 1043 105.99 493.184 466.008
2808 0 82.1224 11.6046 953 110.872 493.227 458.878
2809 0 87.1981 12.6035 1099 108.687 493.172 456.734
2810 0 90.1104 13.7387 1238 106.023 493.072 456.345
2811 0 92.1839 13.3103 1227 107.804 493.256 457.439
2812 0 91.1372 11.5759 1055 112.12 493.41 458.707
2813 0 95.1646 12.5572 1195 105.706 493.685 462.853
2814 0 98.2303 13.5192 1328 104.691 493.154 458.751
2815 0 99.109 12.6326 1252 106.767 493.599 455.464
2816 0 100.125 11.2559 1127 110.708 493.536 450.725
2817 0 105.14 11.2897 1187 109.941 493.131 451.424
2818 0 112.068 13.5186 1515 104.91 492.945 448.914
2819 0 114.2 12.3905 1415 107.048 493.616 450.351
2820 0 113.19 11.4145 1292 143.002 494.621 448.126
2821 0 118.145 12.2222 1444 109.274 493.186 443.381
2822 0 119.101 11.1418 1327 112.702 492.873 439.113
2823 0 128.205 13.0728 1676 107.422 492.928 435.26
2824 0 129.254 12.4716 1612 109.958 492.409 435.92
2825 0 131.232 11.2168 1472 112.969 493.039 432.49
2826 0 142.158 13.3021 1891 107.358 493.206 433.15
2827 1 81.0903 11.4687 930 109.528 492.742 462.855
2828 0 78.0692 11.6435 909 112.033 492.76 458.322
2829 0 84.2534 12.2013 1028 110.075 492.733 462.051
2830 0 89.0556 13.5758 1209 105.382 492.787 461.356
2831 0 90.0717 14.4663 1303 104.702 492.641 460.035
2832 0 93.121 13.3804 1246 108.535 492.465 456.447
2833 0 95.1078 12.9432 1231 110.538 492.45 457.531
2834 0 96.2138 13.7195 1320 110.332 492.718 454.098
2835 0 100.127 13.7026 1372 110.35 492.387 455.342
2836 0 104.192 13.4463 1401 111.894 492.622 451.906
2837 0 106.107 12.9209 1371 113.984 492.691 451.578
2838 0 110.327 13.9676 1541 111.335 492.149 449.31
2839 0 112.108 14.0936 1580 112.487 492.613 445.059
2840 0 116.255 13.436 1562 113.926 492.086 446.545
2841 0 121.27 14.0678 1706 112.571 492.283 444.563
2842 0 125.114 14.9544 1871 110.865 492.347 441.792
2843 0 127.186 14.2233 1809 114.208 492.677 440.067
2844 0 132.174 13.5276 1788 115.967 493.39 437.96
2845 0 136.136 14.0301 1910 114.23 493.719 435.664
2846 1 78.0481 11.416 891 108.494 493.329 465.585
2847 0 81.0912 13.1087 1063 106.94 493.397 461.035
2848 0 88.1666 14.4045 1270 107.991 493.692 462.861
2849 0 91.1842 14.0375 1280 107.884 493.635 466.557
2850 0 88.056 12.9917 1144 110.234 494.179 457.504
2851 0 91.1828 11.5482 1053 115.29 493.57 457.276
2852 0 94.1211 12.2608 1154 114.285 493.504 455.9
2853 0 96.1679 13.0709 1257 112.811 493.642 455.916
2854 0 98.1452 11.1569 1095 117.262 494.142 455.702
2855 0 101.179 11.791 1193 117.012 494.24 453.231
2856 0 104.204 13.8478 1443 113.104 493.997 449.14
2857 0 105.21 11.8144 1243 119.866 493.916 446.551
2858 0 112.208 14.3483 1610 112.196 493.543 446.194
2859 0 113.17 12.5828 1424 117.383 492.913 446.485
2860 0 119.191 13.0127 1551 115.116 493.435 446.014
2861 0 123.368 12.9855 1602 115.306 492.147 443.189
2862 0 124.353 13.711 1705 114.387 492.556 440.602
2863 0 127.195 12.2096 1553 118.828 492.761 434.562
2864 0 134.251 13.08 1756 116.222 493.027 434.928
2865 0 136.427 13.2818 1812 115.658 492.732 430.616
2866 0 143.278 13.7286 1967 113.96 492.558 433.678
2867 0 146.258 14.2898 2090 114.047 493.141 427.671
2868 0 151.293 13.53 2047 116.579 493.154 426.457
2869 0 156.289 14.5883 2280 114.391 492.432 426.518
2870 0 159.293 13.3339 2124 118.778 493.007 419.763
2871 0 166.287 14.9381 2484 114.922 493.012 421.054
2872 0 167.287 14.0716 2354 118.502 493.115 417.43
2873 0 175.364 14.1306 2478 118.986 493.283 413.08
2874 0 176.351 13.8758 2447 121.754 492.648 411.576
2875 0 182.123 14.6549 2669 120.248 492.846 410.191
2876 0 190.326 14.5698 2773 122.356 492.996 405.934
2877 0 193.334 14.0896 2724 124.359 493.12 403.882
2878 0 197.283 13.8481 2732 127.176 492.789 395.303
2879 0 206.414 13.9331 2876 127.178 492.682 400.543
2880 0 218.249 13.9245 3039 127.346 492.59 395.153
2881 0 225.255 14.6412 3298 127.564 492.161 389.859
2882 0 231.638 13.7672 3189 131.179 492.824 387.616
2883 0 239.413 15.0284 3598 128.222 493.02 384.745
2884 0 248.266 15.0363 3733 129.365 492.985 377.337
2885 1 187.252 10.5526 1976 133.195 493.172 412.735
2886 0 196.313 13.1728 2586 129.224 493.953 405.707
2887 0 201.241 13.8342 2784 129.45 493.462 399.859
2888 0 210.283 13.382 2814 131.529 493.4 395.263
2889 0 218.297 13.9123 3037 130.814 493.384 391.975
2890 0 224.348 13.2205 2966 134.218 493.013 391.376
2891 0 232.39 13.8431 3217 133.457 492.798 387.782
2892 0 239.236 14.1032 3374 133.392 493.568 383.215
2893 0 245.24 13.8721 3402 135.843 492.946 374.978
2894 0 253.389 14.7599 3740 132.637 493.44 379.999
2895 0 262.429 15.9853 4195 130.173 493.117 368.36
2896 0 269.492 14.0449 3785 137.097 493.168 361.34
2897 0 279.401 14.3987 4023 136.508 493.53 362.164
2898 0 287.374 15.1684 4359 134.727 493.139 355.115
2899 1 54.148 8.93847 484 110.337 492.504 474.279
2900 0 58.3764 9.93552 580 109.802 492.8 478.686
2901 0 65.2754 11.2906 737 104.613 492.202 480.478
2902 0 65.3042 7.96273 520 110.712 491.308 477.619
2903 0 67.1763 11.5368 775 103.332 491.819 476.018
2904 0 68.1414 8.98132 612 108.302 491.855 475.265
2905 1 149.46 9.29344 1389 110.22 492.475 437.932
2906 0 154.362 9.95061 1536 107.794 491.878 431.031
2907 0 158.566 9.66789 1533 108.155 492.432 431.171
2908 1 77.2441 10.9394 845 107.085 491.592 469.153
2909 0 79.1278 10.2619 812 107.2 493.046 469.172
2910 0 82.1568 8.9098 732 110.716 494.18 464.846
2911 0 83.1282 10.165 845 108.025 494.877 465.076
2912 0 85.1638 10.9084 929 107.329 494.394 466.043
2913 0 89.2389 10.5223 939 107.906 494.394 464.095
2914 0 90.2698 8.7737 792 112.15 494.343 461.294
2915 0 94.2558 7.57513 714 113.618 492.98 458.604
2916 0 96.3783 8.77791 846 111.749 494.026 456.274
2917 0 98.2113 10.7014 1051 109.636 493.353 449.108
2918 1 121.425 7.08255 860 115.421 493.923 451.381
2919 1 110.334 12.1359 1339 106.624 493.602 440.883
2920 0 112.382 12.8668 1446 105.704 493.305 438.232
2921 0 115.283 13.7748 1588 97.2204 493.462 434.414
2922 1 66.0765 11.5624 764 99.661 494.088 459.77
2923 0 68.2826 13.6052 929 97.3326 493.273 461.209
2924 0 69.1182 13.0935 905 97.9779 495.064 459.251
2925 0 70.1425 11.1772 784 103.601 495.103 459.787
2926 0 73.2183 12.7427 933 100.63 494.968 459.997
2927 0 74.1313 12.6667 939 103.318 494.892 456.792
2928 0 76.0715 12.2648 933 105.234 494.412 458.658
2929 0 78.0946 12.5105 977 106.436 494.185 460.238
2930 0 79.1726 13.1485 1041 105.611 494.505 467.114
2931 0 82.0954 12.1322 996 107.818 494.552 471.886
2932 0 83.1389 13.5677 1128 105.911 494.379 468.263
2933 0 84.1181 12.2566 1031 110.005 494.245 469.011
2934 0 86.105 13.0306 1122 108.984 494.301 467.521
2935 0 87.0874 12.0683 1051 112.205 494.723 467.729
2936 0 91.1453 12.7489 1162 111.825 494.137 465.166
2937 0 93.1342 14.0872 1312 109.061 494.378 463.918
2938 0 95.2102 13.9376 1327 108.995 494.19 465.949
2939 0 96.1117 13.6716 1314 112.04 494.282 462.937
2940 0 100.165 13.6374 1366 111.646 494.039 462.415
2941 0 103.22 13.7086 1415 113.003 493.967 461.079
2942 0 105.133 15.5422 1634 109.971 493.152 460.153
2943 0 109.145 13.6882 1494 115.954 493.727 458.461
2944 0 110.167 14.1512 1559 116.252 493.555 457.18
2945 0 111.316 13.5021 1503 122.468 492.977 455.198
2946 0 113.241 13.1489 1489 127.214 493.387 450.428
2947 0 121.225 14.2628 1729 121.929 493.469 452.167
2948 0 121.27 13.0206 1579 126.835 493.094 448.591
2949 0 126.317 13.4741 1702 125.382 493.479 447.275
2950 0 129.291 14.8502 1920 121.812 493.622 445.114
2951 0 132.412 15.4367 2044 118.192 492.649 441.357
2952 0 135.454 14.3443 1943 120.958 491.648 437.775
2953 0 138.501 14.5558 2016 120.579 492.632 433.78
2954 0 142.566 13.8954 1981 121.58 492.549 433.134
2955 0 149.27 14.5508 2172 118.244 492.993 432.76
2956 0 153.593 15.0137 2306 117.451 492.612 428.722
2957 0 154.117 13.5222 2084 123.38 493.184 426.281
2958 0 160.269 13.3213 2135 123.648 492.471 429.058
2959 0 164.264 14.3793 2362 121.515 492.638 426.339
2960 0 169.228 14.7139 2490 120.6 492.656 419.998
2961 0 172.247 13.8464 2385 124.85 492.336 420.703
2962 0 177.205 13.1881 2337 125.872 492.492 418.783
2963 0 183.381 13.7692 2525 124.503 491.98 420.063
2964 0 185.284 12.354 2289 129.39 492.166 413.797
2965 0 192.208 14.2346 2736 123.608 492.254 407.658
2966 0 198.175 13.4628 2668 125.404 491.956 405.649
2967 0 207.196 14.1316 2928 121.984 491.846 410.362
2968 0 212.278 13.2704 2817 124.972 492.389 404.179
2969 0 221.272 13.8472 3064 123.728 492.377 398.772
2970 0 231.431 14.4104 3335 122.891 492.372 392.959
2971 1 164.151 10.5391 1730 123.154 493.223 426.737
2972 0 169.319 10.9557 1855 122.863 493.249 421.128
2973 0 176.142 11.5532 2035 120.504 493.022 420.856
2974 0 183.246 11.7056 2145 120.493 492.299 413.876
2975 0 190.26 13.3712 2544 116.155 492.283 411.656
2976 1 64.0675 11.8313 758 99.3364 493.821 479.248
2977 0 62.0654 9.21608 572 108.315 494.133 478.365
2978 0 65.0926 9.66316 629 106.973 495.154 477.784
2979 0 69.1553 12.725 880 94.8659 493.028 479.105
2980 0 68.0558 10.0653 685 102.187 492.724 476.606
2981 0 72.0747 12.4315 896 96.3281 492.879 477.453
2982 0 71.0941 10.8026 768 101.253 492.622 476.372
2983 0 74.1276 11.143 826 101.015 492.827 474.92
2984 0 77.1107 11.1528 860 99.7535 493.788 474.702
2985 0 78.0893 11.7686 919 100.149 492.464 472.85
2986 0 79.1271 11.0455 874 102.924 492.767 471.108
2987 0 83.102 13.1405 1092 98.1749 492.457 470.076
2988 0 85.0911 11.4583 975 102.519 491.955 468.425
2989 0 88.0891 12.8733 1134 100.438 491.184 468.67
2990 0 91.2032 11.5676 1055 104.081 492.36 466.93
2991 0 91.1722 11.0999 1012 106.251 492.141 465.066
2992 0 94.2166 11.845 1116 104.974 492.496 464.584
2993 0 98.0875 12.5908 1235 103.845 493.089 465.875
2994 0 100.223 14.0188 1405 102.4 493.325 461.923
2995 0 105.306 12.8673 1355 104.686 492.427 463.271
2996 0 105.198 12.4907 1314 108.229 492.361 458.964
2997 0 107.243 10.658 1143 112.383 492.848 459.004
2998 0 112.24 12.2862 1379 109.194 492.985 455.649
2999 0 114.398 11.8621 1357 110.895 492.375 454.311
3000 0 119.303 12.8413 1532 108.419 492.335 451.451
3001 0 122.179 12.4981 1527 109.263 492.285 449.086
3002 0 126.113 15.724 1983 94.528 492.264 438.003
3003 1 53.1884 8.5921 457 100.775 493.718 476.481
3004 0 55.0995 9.80044 540 100.524 493.465 475.52
3005 0 60.1156 11.7607 707 90.9392 493.475 480.528
3006 0 63.169 12.3162 778 91.5154 493.347 479.995
3007 0 62.1491 10.0243 623 97.199 493.6 479.165
3008 0 63.1485 8.83632 558 102.242 492.81 477.392
3009 0 66.1838 9.94201 658 98.6413 493.246 472.24
3010 0 69.1262 11.7756 814 94.3673 493.706 468.052
3011 0 70.1313 9.72462 682 98.6657 492.604 477.449
3012 0 74.1905 10.4326 774 97.2222 492.722 469.933
3013 0 77.2871 12.0331 930 94.7086 492.402 470.112
3014 0 79.2754 10.7978 856 98.5187 492.61 469.868
3015 0 83.3699 11.8988 992 97.9698 492.915 468.458
3016 0 84.1839 11.4392 963 101.184 493.492 467.863
3017 0 86.3732 11.6008 1002 102.528 493.087 466.25
3018 0 87.4445 12.5337 1096 102.04 493.13 464.765
3019 0 90.4826 12.3118 1114 102.821 493.747 463.493
3020 0 91.2564 11.4403 1044 105.57 492.83 462.15
3021 0 93.324 11.594 1082 105.377 493.03 464.098
3022 0 97.4172 12.5132 1219 104.272 492.883 461.006
3023 0 97.4144 11.4973 1120 108.27 492.964 457.628
3024 0 101.285 12.6376 1280 105.548 493.095 456.007
3025 0 102.435 11.373 1165 108.134 492.597 456.186
3026 0 104.39 12.2617 1280 106.859 492.462 455.801
3027 0 110.39 12.1569 1342 107.119 492.933 451.98
3028 0 112.394 12.5096 1406 106.737 493.351 451.509
3029 0 116.543 12.4847 1455 108.167 493.011 448.283
3030 0 119.332 12.6035 1504 108.48 492.521 445.626
3031 0 122.397 11.716 1434 111.023 492.532 444.162
3032 1 72.1505 8.77333 633 108.077 492.722 468.581
3033 0 76.1539 10.7283 817 104.159 492.412 471.92
3034 0 78.2367 11.5291 902 103.023 492.639 472.925
3035 0 80.3969 11.9408 960 103.37 492.725 470.819
3036 0 82.3626 11.8257 974 104.36 493.366 467.029
3037 0 83.3817 13.2163 1102 103.584 493.697 464.793
3038 0 86.4577 12.6767 1096 104.283 492.955 464.584
3039 0 89.2795 10.9768 980 108.118 493.102 460.801
3040 0 91.3335 11.2773 1030 108.199 493.53 460.36
3041 0 95.3576 13.7168 1308 103.509 494.033 461.774
3042 0 96.3879 12.7713 1231 107.067 493.474 458.738
3043 0 98.3704 12.3614 1216 107.85 493.94 460.569
3044 0 99.2308 11.3171 1123 111.473 494.142 455.409
3045 0 104.305 13.2592 1383 107.788 494.061 455.628
3046 0 106.198 12.1942 1295 104.364 493.822 454.73
3047 0 109.379 12.9549 1417 106.145 493.172 454.717
3048 0 108.269 14.076 1524 108.85 493.634 454.22
3049 0 109.217 12.7819 1396 101.322 493.518 452.812
3050 0 111.258 13.1047 1458 107.396 494.438 449.986
3051 0 112.251 13.9865 1570 112.073 494.403 451.43
3052 0 109.241 12.8523 1404 116.694 493.605 447.759
3053 0 113.203 13.7187 1553 114.381 493.173 447.691
3054 0 114.293 13.1679 1505 116.08 493.488 448.344
3055 0 118.266 14.3405 1696 111.968 493.545 446.635
3056 0 121.265 13.8869 1684 111.629 493.977 445.812
3057 0 125.328 12.7026 1592 114.213 494.08 441.672
3058 0 129.228 12.327 1593 113.712 493.499 439.067
3059 0 133.227 12.8802 1716 110.984 494.048 440.782
3060 0 138.445 12.7054 1759 110.699 493.782 436.483
3061 0 142.169 13.076 1859 110.471 493.419 436.087
3062 0 145.306 12.2844 1785 112.727 493.299 432.977
3063 0 150.159 13.7787 2069 109.889 493.333 431.494
3064 1 89.1398 10.7808 961 106.228 493.612 467.351
3065 0 90.0835 11.1008 1000 106.684 493.545 465.44
3066 0 94.1941 12.3787 1166 106.695 493.248 460.585
3067 0 97.3137 11.3036 1100 109.875 492.927 460.776
3068 0 102.432 12.2228 1252 109.038 493.109 463.305
3069 0 102.261 10.4439 1068 116.442 492.512 460.068
3070 0 104.375 12.9437 1351 112.955 493.242 457.826
3071 0 106.255 12.4794 1326 115.827 493.033 458.927
3072 0 109.292 12.9103 1411 119.664 492.983 453.774
3073 0 114.297 12.7825 1461 121.233 492.617 452.778
3074 0 115.357 12.5783 1451 123.435 492.305 452.331
3075 0 118.364 12.5798 1489 126.114 492.414 448.502
3076 0 121.223 12.9761 1573 125.952 492.224 448.502
3077 0 125.395 13.4774 1690 124.552 493.117 447.16
3078 0 126.326 11.4862 1451 131.779 492.711 446.386
3079 0 132.28 14.1291 1869 125.555 492.189 444.556
3080 0 136.348 12.4314 1695 131.805 492.498 441.096
3081 0 139.274 13.1396 1830 130.41 492.778 441.908
3082 0 145.159 13.1097 1903 131.388 492.451 436.785
3083 0 147.26 12.6036 1856 134.436 492.914 437.488
3084 1 83.1621 10.726 892 127.379 494.157 468.907
3085 0 86.1213 11.4838 989 126.133 493.705 469.174
3086 0 89.1654 12.7179 1134 125.088 493.062 464.448
3087 0 93.1328 12.4875 1163 124.887 492.664 464.561
3088 0 94.1154 12.1978 1148 126.064 492.348 463.665
3089 0 96.1001 11.873 1141 127.466 492.862 460.635
3090 0 100.089 11.9893 1200 126.234 492.949 460.658
3091 0 100.075 11.2815 1129 128.556 493.254 460.008
3092 0 105.087 11.657 1225 126.918 493.691 457.958
3093 0 108.087 12.2771 1327 127.331 494.445 456.58
3094 0 110.193 11.0534 1218 131.296 493.566 455.524
3095 0 116.196 12.0314 1398 128.629 493.517 451.112
3096 0 120.144 12.0355 1446 128.403 494.082 449.902
3097 0 124.125 11.9718 1486 129.443 493.667 446.051
3098 0 127.098 12.6202 1604 129.171 494.161 441.046
3099 0 130.185 12.6589 1648 132.077 494.084 441.286
3100 0 135.118 12.2559 1656 133.536 493.885 438.465
3101 0 139.138 12.1462 1690 133.515 494.134 437.668
3102 0 142.178 12.7095 1807 133.358 493.68 430.104
3103 0 150.212 11.2241 1686 136.077 493.031 431.33
3104 0 156.188 12.4785 1949 132.547 493.128 429.482
3105 0 159.105 13.0605 2078 130.964 493.547 428.258
3106 0 166.212 12.9774 2157 131.051 493.849 427.007
3107 0 172.167 12.5692 2164 131.711 494.159 427.168
3108 0 175.309 12.9828 2276 132.931 494.041 420.559
3109 0 179.214 13.1128 2350 132.923 494.526 418.769
3110 0 186.145 12.0551 2244 136.131 494.392 413.683
3111 0 190.207 13.5484 2577 131.887 494.606 408.914
3112 0 195.338 13.3563 2609 132.982 493.659 404.96
3113 0 204.278 13.4767 2753 132.19 493.767 401.142
3114 0 207.35 12.7128 2636 135.28 494.183 397.221
3115 1 48.0163 10.2465 492 112.988 494.191 476.74
3116 0 46.072 9.61539 443 116.02 495.077 475.623
3117 0 52.1844 9.2748 484 109.911 493.06 485.048
3118 0 53.088 9.43717 501 109.627 493.798 484.972
3119 0 57.0846 9.91511 566 107.788 494.401 479.991
3120 0 57.1658 8.81646 504 116.466 495.036 481.45
3121 0 58.0209 8.66929 503 116.235 495.453 480.014
3122 0 63.1161 9.7281 614 111.55 494.78 480.147
3123 0 64.0722 10.7691 690 112.807 495.704 477.372
3124 0 69.0699 12.0602 833 109.2 495.634 477.315
3125 0 69.128 10.8205 748 112.345 495.424 477.344
3126 0 73.1184 11.707 856 109.743 495.486 477.369
3127 0 73.1467 11.0326 807 113.735 495.496 473.8
3128 0 76.1415 11.8858 905 111.233 495.695 473.807
3129 0 76.1265 11.5203 877 113.899 495.54 470.994
3130 0 79.1951 11.6169 920 113.376 495.691 472.133
3131 0 82.1528 13.5723 1115 108.852 495.378 469.068
3132 0 84.0517 12.8254 1078 110.804 495.602 468.412
3133 0 86.1705 13.1832 1136 109.814 494.617 467.192
3134 0 89.2009 12.0066 1071 104.513 493.993 469.384
3135 0 89.179 11.8526 1057 105.17 493.934 468.107
3136 0 93.1641 12.5263 1167 102.87 494.067 464.671
3137 0 94.2878 12.6103 1189 102.578 492.873 462.262
3138 0 97.2091 11.4496 1113 105.882 494.274 464.859
3139 0 98.1567 11.6141 1140 106.766 493.7 461.656
3140 0 100.279 10.2713 1030 109.479 494.079 461.711
3141 0 104.229 12.1079 1262 106.853 493.262 460.284
3142 0 109.225 12.8542 1404 107.166 493.455 456.558
3143 0 111.223 11.7511 1307 110.643 493.474 452.296
3144 0 113.255 11.6463 1319 111.464 493.684 451.049
3145 0 120.327 12.9315 1556 107.695 494.01 449.932
3146 0 125.207 12.9226 1618 107.449 493.504 449.188
3147 0 126.324 12.6737 1601 108.693 493.713 445.345
3148 1 73.0979 12.0386 880 100.573 493.064 478.31
3149 0 74.1309 9.3888 696 105.264 495.029 468.03
3150 0 79.2563 12.6551 1003 96.9521 494.989 448.918
3151 0 81.1553 11.8908 965 98.2518 494.74 446.496
3152 0 84.087 12.8082 1077 96.4466 495.429 449.511
3153 0 86.0953 12.068 1039 99.1001 494.723 450.906
3154 0 86.1992 11.5198 993 100.88 494.622 450.198
3155 0 89.2442 12.5162 1117 100.155 494.596 452.546
3156 0 92.2159 12.0261 1109 100.976 494.161 456.622
3157 0 94.1616 12.7972 1205 100.583 494.221 453.069
3158 0 98.3486 12.7404 1253 99.5914 494.227 453.936
3159 0 99.2066 12.8217 1272 101.829 494.249 453.21
3160 0 102.326 12.6947 1299 103.035 493.65 449.954
3161 0 107.204 14.2439 1527 99.7904 493.75 451.279
3162 0 106.163 12.7162 1350 105.373 493.192 453.764
3163 0 108.138 13.0666 1413 106.125 493.241 450.635
3164 0 109.204 12.0142 1312 109.977 493.114 448.754
3165 0 118.287 12.4612 1474 107.709 493.822 450.904
3166 0 121.215 11.7889 1429 108.781 494.098 449.514
3167 0 126.325 12.2462 1547 107.785 493.706 446.334
3168 1 73.2889 10.2608 752 106.68 493.898 469.46
3169 0 76.1217 11.8232 900 106.462 493.673 479.067
3170 0 78.0998 13.2907 1038 103.48 493.379 475.727
3171 0 83.1405 12.3165 1024 101.548 493.182 471.835
3172 0 85.2272 12.2144 1041 101.831 492.527 471.93
3173 0 87.2119 12.4295 1084 102.268 492.955 471.611
3174 0 90.0953 13.1638 1186 101.509 492.93 469.669
3175 0 93.2156 12.7554 1189 102.927 493.313 469.206
3176 0 95.2051 12.2578 1167 105.308 493.312 469.438
3177 0 98.2485 12.8857 1266 108.167 492.412 463.002
3178 0 101.16 12.762 1291 108.229 492.539 463.668
3179 0 107.201 12.8543 1378 106.527 492.839 464.045
3180 0 106.347 12.3463 1313 110.2 491.903 457.922
3181 0 111.233 11.858 1319 110.182 491.964 461.844
3182 0 113.282 12.1908 1381 110.848 491.713 457.12
3183 0 116.238 12.7497 1482 109.663 492.148 454.996
3184 0 122.294 12.7234 1556 109.078 491.833 454.867
3185 0 124.582 13.0275 1623 108.803 492.099 450.385
3186 0 128.535 12.3235 1584 108.762 492.202 453.534
3187 0 134.312 13.4091 1801 107.105 491.943 446.867
3188 0 135.298 13.6661 1849 107.028 491.723 445.905
3189 0 141.27 12.5079 1767 107.861 493.063 444.547
3190 1 78.185 12.4576 974 109.005 492.628 471.905
3191 0 82.2769 11.2668 927 112.064 492.916 470.101
3192 0 88.051 12.9357 1139 109.523 493.543 457.872
3193 0 86.2412 12.5346 1081 111.897 493.181 458.862
3194 0 91.3247 13.5998 1242 108.46 493.093 458.116
3195 0 92.2077 12.9057 1190 111.974 493.195 456.26
3196 0 97.4592 13.657 1331 110.044 493.155 454.609
3197 0 98.506 13.4408 1324 111.445 492.631 451.409
3198 0 101.277 13.8037 1398 110.565 492.75 452.629
3199 0 103.437 13.8346 1431 110.778 492.377 452.728
3200 0 105.471 12.7049 1340 114.245 492.504 452.607
3201 0 108.289 13.4824 1460 113.164 492.403 454.023
3202 0 113.497 13.7185 1557 112.72 491.741 454.882
3203 0 116.273 12.9609 1507 114.337 491.433 454.058
3204 0 121.231 14.0476 1703 112.247 491.823 439.883
3205 0 120.416 14.2256 1713 113.342 491.581 440.135
3206 0 126.332 13.4962 1705 113.121 492.249 447.05
3207 0 132.219 13.9315 1842 112.383 492.196 445.103
3208 0 135.499 13.5278 1833 113.492 492.355 445.463
3209 0 144.312 15.8892 2293 106.567 491.87 440.924
3210 1 79.2504 12.2271 969 109.386 492.469 474.324
3211 0 82.2539 13.5799 1117 106.439 492.454 473.872
3212 0 85.3909 14.6386 1250 105.474 493.321 470.165
3213 0 87.1266 15.1963 1324 105.099 492.668 468.441
3214 0 89.1267 15.1021 1346 105.693 492.807 467.277
3215 0 93.1835 13.4144 1250 109.173 492.572 467.159
3216 0 97.1861 14.7449 1433 105.204 492.637 468.16
3217 0 99.1242 14.154 1403 107.108 492.423 467.45
3218 0 100.149 13.8694 1389 111.263 492.432 462
3219 0 103.19 14.8948 1537 107.862 491.99 464.905
3220 0 107.091 14.0254 1502 111.066 492.19 461.517
3221 0 108.137 14.1117 1526 112.997 492.09 458.822
3222 0 110.139 13.5192 1489 116.113 492.142 456.159
3223 0 115.155 14.3459 1652 114.257 491.844 455.685
3224 0 119.175 13.971 1665 114.975 491.96 451.753
3225 0 122.191 14.862 1816 114.041 491.639 448.971
3226 0 128.516 14.8152 1904 112.055 492.593 450.404
3227 0 131.141 14.9991 1967 113.136 492.145 445.308
3228 0 135.224 14.5684 1970 114.122 492.382 443.235
3229 0 141.473 14.3914 2036 114.83 492.846 443.64
3230 0 146.438 15.5287 2274 112.71 492.468 440.334
3231 1 79.1824 11.5556 915 115.077 492.213 470.672
3232 0 82.2112 13.0639 1074 113.825 492.395 469.25
3233 0 86.1755 13.751 1185 112.785 492.62 466.876
3234 0 89.3029 14.0981 1259 114.844 491.736 464.523
3235 0 92.3037 14.1598 1307 115.262 492.652 463.645
3236 0 95.1905 13.7724 1311 116.931 493.008 460.523
3237 0 99.3317 15.2419 1514 113.849 492.866 458.544
3238 0 101.345 15.1463 1535 115.537 493.55 457.12
3239 0 105.411 15.3019 1613 115.75 493.268 453.872
3240 0 107.333 14.3106 1536 118.398 492.84 454.474
3241 0 112.337 14.6168 1642 118.429 493.13 452.086
3242 0 115.433 14.19 1638 120.222 492.765 449.67
3243 0 118.346 15.6153 1848 118.879 492.193 446.871
3244 0 124.52 15.1703 1889 121.006 492.71 444.857
3245 0 127.346 15.3598 1956 122.194 492.59 441.708
3246 0 130.334 14.0178 1827 126.166 492.207 440.397
3247 0 133.47 14.2129 1897 125.246 492.715 441.149
3248 0 136.468 13.9227 1900 127.403 492.784 434.855
3249 0 145.406 14.8412 2158 123.168 492.549 434.47
3250 0 150.567 14.4786 2180 124.167 491.651 433.244
3251 1 84.5014 12.3193 1041 119.915 492.281 464.757
3252 0 87.5082 13.6559 1195 117.095 492.692 464.665
3253 0 90.3616 12.2729 1109 126.757 493.021 461.351
3254 0 93.3986 14.4756 1352 122.28 492.677 458.994
3255 0 95.4687 13.7218 1310 125.415 492.745 457.502
3256 0 99.5095 13.5163 1345 125.057 492.651 457.697
3257 0 102.704 14.644 1504 122.171 492.443 455.106
3258 0 106.544 13.722 1462 124.75 493.146 452.126
3259 0 108.494 15.0608 1634 123.173 493.076 449.507
3260 0 111.5 14.1166 1574 126.722 492.802 447.218
3261 0 115.412 14.3919 1661 124.709 492.849 449.405
3262 0 118.372 14.3278 1696 126.295 493.247 445.459
3263 0 123.582 14.9213 1844 124.73 492.986 444.509
3264 0 126.406 14.3505 1814 126.367 493.091 442.055
3265 0 128.527 14.4873 1862 125.903 492.76 442.072
3266 0 134.484 14.4478 1943 126.428 492.589 436.333
3267 0 138.44 14.5406 2013 126.577 492.469 436.582
3268 0 143.357 13.0025 1864 129.318 492.263 436.994
3269 0 144.46 14.0108 2024 128.995 492.834 430.026
3270 0 149.39 14.017 2094 129.194 492.697 427.863
3271 0 155.529 14.4924 2254 127.595 492.243 427.393
3272 0 162.617 15.4535 2513 124.876 492.793 423.368
3273 0 166.636 15.8009 2633 124.393 492.48 423.249
3274 0 169.607 14.0855 2389 129.877 492.475 422.776
3275 0 175.509 14.9849 2630 127.39 492.685 420.776
3276 0 176.392 14.3091 2524 130.566 492.387 414.928
3277 0 186.418 15.2507 2843 126.781 492.51 414.577
3278 0 189.323 14.7103 2785 128.515 492.287 410.411
3279 0 196.647 13.837 2721 130.221 492.91 407.408
3280 0 205.418 14.9014 3061 126.955 492.571 404.926
3281 0 210.643 14.1045 2971 128.474 492.819 402.003
3282 1 220.529 14.116 3113 128.408 492.703 397.988
3283 1 159.588 12.6764 2023 131.295 492.802 425.345
3284 0 163.345 14.1173 2306 128.371 492.477 420.829
3285 0 169.502 14.4305 2446 129.096 492.565 418.141
3286 0 175.487 13.4255 2356 131.921 492.413 417.522
3287 0 181.419 13.9346 2528 132.026 492.283 412.811
3288 0 189.575 14.1264 2678 131.749 491.54 410.04
3289 0 193.413 14.4302 2791 132.29 492.668 404.912
3290 0 199.455 13.5469 2702 136.398 492.338 399.759
3291 0 207.353 13.5373 2807 134.975 492.515 399.067
3292 0 217.462 14.3152 3113 131.419 492.345 400.277
3293 0 223.572 13.9732 3124 132.108 492.416 394.069
3294 0 232.512 13.9133 3235 131.329 492.341 392.184
3295 0 241.477 14.2664 3445 130.488 492.451 386.961
3296 1 179.648 14.161 2544 131.246 492.653 415.103
3297 0 184.48 14.3755 2652 131.454 492.773 411.6
3298 0 193.602 14.0494 2720 132.267 492.703 411.768
3299 0 200.515 13.8792 2783 132.407 492.719 407.369
3300 0 205.634 14.093 2898 133.898 493.142 401.455
3301 0 214.543 13.6895 2937 136.511 492.786 400.612
3302 0 223.501 15.1946 3396 131.769 492.903 396.556
3303 0 231.575 14.2243 3294 133.082 492.36 395.472
3304 1 176.441 14.6281 2581 133.852 493.632 419.057
3305 0 183.564 14.2239 2611 134.637 493.237 417.93
3306 0 188.405 14.92 2811 133.769 492.754 412.47
3307 0 195.577 14.3677 2810 134.029 492.972 415.423
3308 0 203.607 15.2254 3100 133.112 493.038 406.385
3309 0 208.524 15.8351 3302 132.313 493.072 402.755
3310 0 215.49 13.3834 2884 138.3 492.943 406.854
3311 0 221.682 13.7269 3043 139.186 492.76 400.392
3312 0 227.443 13.9772 3179 139.628 493.157 399.228
3313 0 235.666 15.1656 3574 136.839 492.663 395.28
3314 0 240.557 13.6475 3283 143.026 493.458 392.613
3315 0 247.749 14.3048 3544 141.609 493.001 389.306
3316 0 255.612 14.9993 3834 141.448 492.878 381.198
3317 0 264.586 15.5715 4120 140.773 493.501 377.979
3318 0 264.661 11.8529 3137 151.184 493.982 390.35
3319 0 265.772 11.412 3033 149.833 494.043 391.289
3320 0 259.675 10.6364 2762 147.112 493.76 405.091
3321 0 261.778 9.82895 2573 144.087 493.923 417.812
3322 0 261.871 10.5701 2768 145.548 494.038 411.172
3323 0 260.753 11.927 3110 144.96 493.6 398.887
3324 0 257.756 13.5942 3504 145.758 493.499 385.94
3325 0 270.748 15.0176 4066 142.006 493.219 380.337
3326 1 277.772 14.3571 3988 147.644 492.949 371.565
3327 0 290.572 15.7895 4588 142.823 492.834 371.663
3328 0 299.624 16.6642 4993 140.448 492.663 366.097
3329 0 309.464 17.5464 5430 139.875 492.57 358.837
3330 0 317.568 17.0609 5418 142.158 492.763 352.474
3331 0 327.644 16.759 5491 142.543 492.158 348.286
3332 1 77.2505 13.5663 1048 161.273 492.955 465.255
3333 0 83.2406 15.1489 1261 156.617 492.975 464.087
3334 0 83.2889 14.984 1248 159.288 492.738 464.145
3335 0 86.2255 16.9439 1461 152.689 492.99 462.652
3336 0 91.2876 17.1546 1566 150.347 493.163 459.852
3337 0 93.1388 17.3397 1615 149.94 493.917 457.101
3338 0 97.4012 17.5768 1712 147.913 493.224 455.305
3339 0 97.3343 16.9416 1649 151.839 493.152 453.861
3340 0 103.248 18.286 1888 144.779 492.756 451.299
3341 0 106.219 16.7391 1778 150.328 492.287 450.646
3342 0 115.195 22.3187 2571 127.928 492.249 442.754
3343 0 115.406 18.8378 2174 142.39 492.782 443.868
3344 0 117.225 16.5749 1943 151.732 492.768 442.225
3345 1 157.533 22.3635 3523 111.546 492.066 429.432
3346 0 155.546 20.4377 3179 121.094 492.742 432.038
3347 1 61.1958 10.2131 625 158.453 493.2 471.421
3348 0 62.1847 10.8387 674 155.979 492.809 471.599
3349 0 64.3685 11.0458 711 156.143 492.183 471.357
3350 0 64.1354 10.9924 705 160.315 492.935 467.125
3351 0 67.236 12.2256 822 155.623 492.38 468.237
3352 0 69.175 13.7767 953 148.957 492.204 470.069
3353 0 72.1903 13.686 988 149.979 492.91 467.474
3354 0 70.1076 12.7946 897 158.369 493.382 463.35
3355 0 75.2758 13.7362 1034 153.868 492.908 464.228
3356 0 79.2818 12.9538 1027 156.714 493.118 464.148
3357 0 81.1844 13.9805 1135 153.614 493.006 462.269
3358 0 79.2137 13.4699 1067 160.355 493.349 460.475
3359 0 84.2166 13.3347 1123 161.015 492.98 459.408
3360 0 86.1565 13.6728 1178 160.903 493.296 460.272
3361 0 87.281 13.8633 1210 162.155 493.568 458.843
3362 0 90.254 13.5063 1219 164.81 493.336 456.743
3363 0 92.2946 13.8578 1279 164.647 493.625 456.157
3364 0 96.2511 14.9089 1435 160.378 493.195 455.541
3365 0 95.2148 13.7164 1306 168.1 493.583 454.144
3366 0 102.158 13.9 1420 165.617 492.639 452.25
3367 0 102.16 13.4201 1371 169.98 492.384 448.631
3368 0 105.113 14.2894 1502 166.162 492.646 449.413
3369 0 105.117 14.2793 1501 168.233 492.979 446.184
3370 0 108.274 14.6942 1591 167.483 492.304 442.066
3371 0 114.309 14.557 1664 165.43 492.557 443.708
3372 0 119.343 14.119 1685 166.903 491.953 441.897
3373 0 116.135 14.3367 1665 170.071 492.726 438.094
3374 1 127.447 14.4844 1846 165.262 492.525 438.748
3375 0 130.356 14.9898 1954 164.407 492.865 436.345
3376 0 132.357 14.3626 1901 167.634 492.703 434.681
3377 0 131.256 15.7783 2071 166.967 492.559 428.148
3378 0 131.224 14.9821 1966 171.873 492.933 424.721
3379 0 141.3 14.0836 1990 171.273 492.136 428.97
3380 0 142.23 14.5539 2070 172.636 493.17 424.002
3381 0 146.278 15.327 2242 171.284 493.088 419.929
3382 0 146.147 15.5049 2266 173.438 493.379 417.841
3383 0 145.172 15.8019 2294 174.853 493.017 413.759
3384 0 155.286 15.4425 2398 174.744 492.484 412.306
3385 0 158.366 15.6031 2471 175.388 492.919 409.579
3386 0 162.351 15.8237 2569 174.851 492.495 406.643
3387 0 165.222 14.762 2439 179.403 492.025 404.964
3388 0 172.218 15.672 2699 175.865 491.546 402.202
3389 0 177.095 15.1952 2691 178.049 491.88 399.7
3390 0 185.183 16.0003 2963 175.738 492.243 396.244
3391 1 207.38 15.5077 3216 172.997 492.15 401.027
3392 0 213.494 15.7475 3362 172.836 492.557 399.419
3393 0 218.43 14.9476 3265 177.769 492.074 395.371
3394 0 225.381 13.9852 3152 183.412 492.187 385.496
3395 0 237.722 16.1743 3845 174.395 492.275 383.529
3396 0 241.498 14.8407 3584 180.32 492.371 384.857
3397 1 189.499 13.4829 2555 183.926 492.104 406.37
3398 0 201.644 15.329 3091 176.689 492.627 403.646
3399 0 208.422 14.0532 2929 182.046 492.885 399.627
3400 0 210.511 14.0277 2953 184.125 492.392 397.023
3401 0 221.536 14.9366 3309 180.506 492.129 391.855
3402 0 228.582 15.478 3538 177.941 492.651 389.255
3403 0 232.395 14.6776 3411 181.961 492.446 388.807
3404 0 238.494 14.9605 3568 182.534 492.286 378.348
3405 0 239.357 11.1257 2663 192.025 493.25 386.469
3406 0 241.342 11.2579 2717 191.778 493.294 385.887
3407 0 241.591 10.5964 2560 186.257 493.666 395.022
3408 1 19.2081 6.0391 116 107.948 491.466 498.474
3409 0 19.0402 4.77937 91 108.308 491.681 500.978
3410 0 20.1759 4.95642 100 109.59 492.14 499.9
3411 0 21.0487 4.03826 85 114.294 491.412 496.047
3412 0 25.0619 5.26696 132 111.947 491.583 495.78
3413 0 22.0043 3.77198 83 113.349 492.458 497.627
3414 0 27.1776 5.07771 138 109.667 492.08 497.457
3415 0 25.1601 3.57709 90 118.667 491.722 492.678
3416 0 27.0852 3.54437 96 112.375 492.427 499.208
3417 0 24.1495 3.47833 84 108.679 491.44 496.167
3418 0 24.1196 6.42631 155 109.135 492.206 498.29
3419 0 18.0627 4.81656 87 113.057 492.207 496.966
3420 0 18.097 3.5365 64 110.234 491.406 498.188
3421 0 18.0377 2.71653 49 112.98 492.082 498.959
3422 0 17.0651 3.75033 64 113.719 491.766 497.422
3423 0 18.0848 5.03184 91 112.451 491.868 496.967
3424 0 19.087 5.39635 103 110.515 491.903 498.34
3425 1 97.2997 13.9055 1353 153.625 492.9 432.248
