time division length width area intensity CMx CMy
0 0 30.0869 11.4003 343 143.603 279.131 486.324
1 0 29.0473 12.2214 355 141.203 279.623 485.313
2 0 32.1177 11.5201 370 137.343 278.786 486.586
3 0 33.127 12.2257 405 135.254 278.294 485.583
4 0 34.0652 12.7403 434 133.85 278.823 484.751
5 0 33.0515 12.889 426 134.993 278.906 484.981
6 0 34.0796 12.5295 427 134.74 278.621 485.314
7 0 36.067 12.8927 465 131.335 278.34 484.189
8 0 35.147 11.7791 414 136.155 277.932 484.263
9 0 36.1235 13.786 498 129.249 278.213 482.976
10 0 38.0538 13.3232 507 128.479 278.75 483.757
11 0 38.0306 13.3051 506 128.204 279.01 482.99
12 0 37.0079 12.2136 452 133.907 278.752 482.398
13 0 39.0555 13.212 516 129.068 278.634 480.787
14 0 40.0554 13.6561 547 127.472 278.177 482.08
15 0 43.1409 14.0933 608 124.209 277.605 481.194
16 0 44.0382 13.2612 584 126.402 277.955 481.058
17 0 45.0816 13.6863 617 125.016 277.434 480.233
18 0 46.0957 13.4937 622 124.826 277.117 480.92
19 0 46.0584 12.8315 591 128.785 277.609 480.662
20 0 47.0702 12.0034 565 131.476 276.883 480.251
21 0 49.0783 13.8758 681 124.463 276.286 479.972
22 0 51.0201 14.0337 716 123.588 275.821 479.63
23 0 52.0718 14.7489 768 122.284 276.307 478.422
24 0 53.0988 13.5408 719 126.967 277.168 479.253
25 0 55.0746 14.6347 806 121.463 276.897 477.017
26 0 57.1205 14.9859 856 119.612 276.069 477.797
27 0 57.0235 13.7838 786 123.419 275.481 476.774
28 0 61.0467 14.7264 899 120.648 276.398 476.374
29 0 61.1184 13.6293 833 124.647 276.331 476.709
30 0 64.0739 13.5312 867 124.219 276.236 474.083
31 0 66.1305 14.6528 969 121.489 276.152 473.313
32 0 66.1279 13.9881 925 124.594 275.792 472.57
33 0 69.1652 14.1834 981 122.885 275.397 471.973
34 0 71.2314 13.6036 969 124.478 275.309 470.716
35 0 72.1403 14.0282 1012 124.421 275.24 470.964
36 0 77.3349 15.6204 1208 118.302 276.148 468.791
37 0 79.2665 14.5206 1151 122.061 276.049 467.375
38 0 81.3117 14.3645 1168 122.058 275.888 464.547
39 0 85.178 14.6165 1245 121.218 275.61 464.491
40 0 88.2362 14.8012 1306 119.915 275.165 462.907
41 1 44.0975 12.2229 539 121.56 275.536 484.868
42 0 47.1161 12.2676 578 122.609 274.503 484.125
43 0 49.0527 13.5569 665 127.141 275.198 485.495
44 0 50.0687 13.6013 681 126.185 275.341 485.759
45 0 52.0237 14.1666 737 123.688 275.411 484.896
46 0 53.1272 14.23 756 124.167 274.721 483.604
47 0 54.2116 13.9085 754 125.906 274.462 481.683
48 0 57.0567 14.4944 827 122.941 275.152 482.677
49 0 58.0299 13.493 783 125.47 274.737 482.754
50 0 60.1668 14.144 851 125.946 274.853 481.016
51 0 62.0152 13.1581 816 128.294 274.751 479.403
52 0 64.2124 14.234 914 125.569 275.728 478.504
53 0 67.0491 13.9152 933 126.389 275.924 477.318
54 0 68.0509 14.1806 965 127.191 275.228 474.806
55 0 71.0695 14.2396 1012 126.519 274.418 474.743
56 0 73.1052 14.7595 1079 124.731 273.9 474.884
57 0 75.0765 12.2808 922 131.243 274.193 473.64
58 0 80.0621 13.9891 1120 125.155 274.51 472.25
59 0 81.0814 15.0589 1221 123.133 274.164 470.367
60 0 82.0754 13.1099 1076 128.388 273.83 469.75
61 0 86.0607 13.5951 1170 126.929 274.009 467.176
62 0 89.0711 13.7867 1228 125.407 274.262 465.103
63 0 88.1327 13.4456 1185 126.883 274.186 463.769
64 0 95.0848 14.2399 1354 123.462 273.236 461.89
65 0 98.0601 13.8385 1357 123.831 273.193 459.051
66 0 102.181 12.8301 1311 124.407 273.186 460.641
67 0 107.099 14.6033 1564 118.788 273.309 457.024
68 1 55.1348 11.4084 629 116.968 272.86 480.836
69 0 58.1333 13.1938 767 111.269 273.211 478.417
70 0 61.0578 12.3326 753 115.904 273.442 479.351
71 0 64.0552 12.5361 803 114.118 273.379 478.818
72 0 66.1117 13.689 905 117.703 273.692 480.018
73 0 70.0515 14.5464 1019 115.621 273.388 478.444
74 0 70.0918 13.4252 941 119.504 273.224 477.531
75 0 75.1232 13.7241 1031 117.008 273.469 477.726
76 0 78.1079 13.4686 1052 117.644 273.332 476.052
77 0 81.0744 13.5555 1099 117.95 273.757 473.468
78 0 83.1029 12.6349 1050 118.806 273.439 473.53
79 0 85.0779 13.1644 1120 117.707 273.888 471.651
80 0 86.0761 12.942 1114 120.25 274.179 468.763
81 0 90.0689 13.5008 1216 118.707 274.067 467.873
82 0 94.1619 14.5494 1370 115.196 273.418 466.616
83 0 96.0993 14.1624 1361 116.586 273.542 464.261
84 0 100.057 14.2919 1430 116.731 273.367 461.737
85 0 104.093 13.8818 1445 116.1 273.458 462.963
86 0 109.128 14.2218 1552 115.469 273.773 460.039
87 1 51.085 11.0013 562 119.377 274.361 486.345
88 0 55.19 13.1908 728 114.025 274.49 484.085
89 0 57.2118 12.6722 725 111.048 274.251 484.046
90 0 58.1 12.6678 736 111.724 274.238 485.648
91 0 58.0699 12.6399 734 114.268 274.095 484.5
92 0 61.0955 12.6523 773 114.274 273.314 483.254
93 0 64.0803 13.2178 847 113.501 273.033 480.767
94 0 66.0813 12.5906 832 115.999 272.76 481.047
95 0 69.0863 13.968 965 112.299 272.895 479.388
96 0 71.1894 12.6845 903 115.906 272.312 478.14
97 0 74.2167 13.7435 1020 113.131 272.586 479.039
98 0 77.0569 14.0026 1079 117.118 272.713 474.642
99 0 79.0999 12.4147 982 120.186 273.366 473.795
100 0 81.1473 12.0275 976 119.365 273.616 474.548
101 0 84.2206 13.7971 1162 116.256 272.758 470.514
102 0 88.0758 14.181 1249 114.817 272.936 468.681
103 0 87.0342 13.6613 1189 114.489 272.685 470.272
104 0 92.0337 13.2995 1224 115.893 272.842 467.401
105 1 47.0243 11.1219 523 119.486 272.855 489.136
106 0 49.0777 12.2866 603 116.837 272.794 489.066
107 0 49.0287 12.4213 609 119.473 272.846 486.81
108 0 53.0205 14.3529 761 109.866 273.099 487.61
109 0 54.0269 12.1421 656 115.073 272.877 487.462
110 0 56.0467 12.0435 675 115.283 272.936 486.231
111 0 54.0716 11.8177 639 119.438 272.897 484.443
112 0 59.0684 11.5459 682 117.946 272.622 483.806
113 0 60.0638 11.571 695 118.776 273.043 484.081
114 0 63.0275 11.8996 750 117.019 273.087 483.347
115 0 67.0501 13.1096 879 114.014 272.324 479.892
116 0 68.0697 13.4568 916 113.561 273.222 479.497
117 0 71.0635 13.4246 954 113.635 272.857 478.749
118 0 72.1212 13.3387 962 113.907 273.476 479.432
119 0 75.0244 13.9288 1045 115.068 273.797 475.862
120 0 78.0574 13.5413 1057 115.852 272.969 474.711
121 0 78.1701 12.4984 977 120.49 272.634 473.367
122 0 82.0506 12.1632 998 120.119 272.361 471.166
123 0 85.068 12.6722 1078 118.229 272.688 472.396
124 1 45.0375 11.9012 536 119.446 272.868 490.274
125 0 45.0326 12.2134 550 121.935 273.396 488.58
126 0 47.0138 11.8476 557 123.309 273.145 488.677
127 0 49.0189 12.6686 621 116.994 273.055 488.944
128 0 49.0276 13.3802 656 117.48 273.162 487.796
129 0 49.0477 12.2942 603 121.899 273.146 486.566
130 0 50.0567 11.467 574 123.141 273.678 487.826
131 0 53.0135 12.6572 671 119.955 273.155 486.21
132 0 54.0866 13.3674 723 118.621 272.905 484.497
133 0 57.0629 12.7929 730 118.54 272.793 485.266
134 0 58.0626 12.9515 752 119.088 273.134 483.928
135 0 60.0829 12.5993 757 120.42 273.063 481.317
136 0 62.0785 11.9848 744 121.013 272.956 483.634
137 0 64.0745 11.1745 716 123.735 272.232 482.485
138 0 67.0624 14.3001 959 117.592 272.593 478.464
139 0 70.0797 14.6833 1029 116.719 272.969 477.957
140 0 72.0659 14.4174 1039 119.178 272.363 476.577
141 0 74.0939 14.0632 1042 121.185 272.113 475.966
142 0 75.0927 12.4912 938 127.497 271.996 474.013
143 0 78.1058 13.661 1067 124.058 272.802 473.284
144 1 41.0197 11.5798 475 123.966 273.221 491.779
145 0 41.0211 11.1406 457 125.492 272.98 491.411
146 0 44.0395 11.694 515 124.276 273.439 489.724
147 0 43.032 12.9903 559 114.614 272.054 491.286
148 0 44.0757 11.3895 502 119.835 271.914 490.952
149 0 47.0716 12.3429 581 115.253 272.003 490.661
150 0 46.0103 12.7363 586 117.486 271.539 489.067
151 0 48.0849 12.3947 596 116.805 271.705 488.869
152 0 50.118 12.8497 644 115.508 272.095 489.427
153 0 53.092 12.0169 638 117.13 272.571 488.342
154 0 53.0523 12.4782 662 116.435 272.924 487.769
155 0 55.0234 12.5219 689 116.553 272.65 485.909
156 0 56.0472 12.2932 689 116.694 272.284 485.47
157 0 58.0701 12.3127 715 117.745 272.2 483.46
158 0 60.0855 13.4475 808 115.624 272.196 483.063
159 0 63.0336 12.5013 788 117.817 272.133 481.208
160 0 64.0525 12.599 807 118.558 272.038 481.825
161 0 67.0207 12.2649 822 118.044 272.359 480.665
162 0 70.0562 13.2465 928 116.482 272.585 478.816
163 0 71.1256 12.1194 862 120.161 272.625 478.262
164 0 72.0548 12.2407 882 120.728 272.851 476.175
165 0 75.0459 12.1392 911 121.396 272.885 474.392
166 0 79.1407 12.1303 960 119.723 272.82 473.414
167 1 40.0073 11.273 451 120.164 273.758 492.625
168 0 42.0659 12.2665 516 116.442 273.254 491.444
169 0 43.0352 11.967 515 117.46 273.604 491.456
170 0 44.0105 12.0199 529 116.896 273.333 491.023
171 0 45.021 12.1943 549 117.718 273.208 489.938
172 0 45.0289 12.1922 549 118.184 273.036 489.576
173 0 48.011 11.8931 571 117.781 272.904 489.053
174 0 49.0746 11.4927 564 118.466 273.213 489.796
175 0 48.0627 11.2977 543 119.619 273.239 489.444
176 0 49.0105 11.8954 583 120.482 272.804 487.358
177 0 53.0426 12.7822 678 117.313 272.658 485.639
178 0 55.0672 12.4938 688 118.019 272.706 485.282
179 0 55.0654 11.8586 653 120.521 272.141 484.265
180 0 58.027 12.0461 699 118.71 271.667 484.671
181 0 59.0982 12.8769 761 116.311 272.426 483.372
182 0 60.067 11.7036 703 119.963 272.129 482.76
183 0 61.1337 11.0087 673 122.336 272.508 482.01
184 0 65.0854 12.7678 831 118.296 272.621 481.136
185 0 67.0975 12.7277 854 117.165 272.944 479.447
186 0 67.1368 11.7819 791 120.944 273.011 478.556
187 0 69.0845 11.1313 769 124.008 272.732 477.776
188 0 73.0402 14.0197 1024 117.93 272.174 474.961
189 0 74.103 11.1467 826 124.866 272.662 474.834
190 0 76.0636 12.3055 936 121.313 272.303 475.782
191 0 78.063 11.9007 929 123.561 272.378 474.251
192 0 82.0992 11.9246 979 123.946 272.408 472.078
193 1 43.0365 11.8039 508 123.917 272.998 491.047
194 0 46.0246 12.4281 572 124.194 272.983 489.692
195 0 47.0775 11.8528 558 130.522 272.919 487.771
196 0 46.0153 11.5831 533 124.45 272.72 489.788
197 0 49.0203 11.587 568 124.398 273.31 488.548
198 0 48.0937 11.7687 566 126.097 273.023 486.952
199 0 50.0465 11.9889 600 125.053 272.933 488.505
200 0 52.0248 12.3595 643 124.047 272.832 486.614
201 0 52.0143 11.593 603 127.144 273.375 485.811
202 0 56.0278 12.1547 681 124.345 273.166 485.341
203 0 58.0588 11.54 670 125.04 273.104 484.699
204 0 58.0978 12.8749 748 123.047 272.992 483.671
205 0 61.0574 12.3818 756 123.042 272.951 481.882
206 0 63.1013 11.3785 718 125.501 272.909 480.951
207 0 66.0228 12.6623 836 121.245 272.694 479.641
208 0 70.062 12.546 879 120.501 272.447 477.594
209 0 71.073 12.6912 902 120.688 272.298 476.115
210 0 72.0665 12.0722 870 123.237 272.667 475.997
211 0 77.032 13.0855 1008 120.084 272.653 473.074
212 0 79.0506 11.8785 939 123.645 272.935 472.961
213 0 83.0333 12.4288 1032 122.347 272.519 471.484
214 0 85.1236 12.2645 1044 122.802 272.919 471.313
215 0 89.0932 13.0986 1167 121.476 273.521 468.422
216 1 47.0428 11.734 552 127.737 272.844 488.257
217 0 50.0619 12.924 647 122.691 272.76 487.558
218 0 52.0244 12.6671 659 123.719 272.797 486.416
219 0 54.1067 13.2701 718 122.423 273.217 484.675
220 0 52.0292 11.0515 575 123.056 272.661 486.696
221 0 53.067 12.1356 644 120.952 272.3 485.48
222 0 57.0282 12.1343 692 119.464 272.714 484.438
223 0 58.0463 13.4376 780 116.476 272.018 482.714
224 0 61.0582 12.398 757 119.597 272.173 481.822
225 0 63.0359 12.5325 790 119.397 272.444 481.857
226 0 63.0835 10.9537 691 124.21 272.082 482.065
227 0 65.0929 13.2426 862 119.321 272.618 480.913
228 0 69.0469 13.0926 904 120.596 272.408 478.34
229 0 70.1398 12.8458 901 122.57 272.506 476.971
230 0 74.0702 12.7852 947 120.888 272.857 476.731
231 0 75.0721 13.5337 1016 120.151 273.22 474.769
232 0 76.0729 13.0796 995 121.711 273.093 474.488
233 0 79.1076 11.9331 944 124.002 272.961 475.115
234 0 83.0737 13.9154 1156 119.664 272.851 472.03
235 0 83.0399 12.488 1037 125.069 273.038 471.415
236 0 86.0675 13.4081 1154 122.205 272.907 471.705
237 0 89.17 12.8519 1146 124.444 272.324 470.072
238 0 92.1288 14.382 1325 121.113 272.785 467.18
239 0 95.1388 12.9495 1232 125.314 273.674 465.336
240 0 97.1818 12.6258 1227 125.811 273.443 467.545
241 0 101.06 13.1309 1327 124.6 273.123 463.572
242 0 104.081 12.913 1344 123.293 273.085 462.963
243 0 107.077 12.5143 1340 124.533 273.128 462.157
244 0 110.084 13.5623 1493 122.018 273.106 457.335
245 0 115.126 12.5602 1446 124.514 273.243 455.443
246 1 61.0306 12.7805 780 120.836 273.115 483.253
247 0 62.0307 13.6223 845 120.943 273.044 479.459
248 0 65.0729 11.7868 767 121.299 273.063 480.116
249 0 64.0968 12.5435 804 121.432 273.164 479.392
250 0 67.0613 11.9443 801 122.275 273.206 479.821
251 0 70.0443 12.6634 887 121.449 272.901 477.118
252 0 70.0434 11.5643 810 124.286 273.131 477.268
253 0 75.1165 11.7418 882 122.254 273.472 475.154
254 0 77.1244 11.9936 925 120.868 272.968 475.503
255 0 79.0851 12.1641 962 121.088 272.861 474.315
256 0 83.0381 12.2956 1021 119.622 273.071 471.591
257 0 86.0385 12.6339 1087 118.741 272.58 469.59
258 0 86.1822 12.1139 1044 120.113 272.392 468.304
259 0 90.0707 11.6131 1046 121.466 272.475 468.404
260 0 94.1843 13.0276 1227 118.641 272.261 464.143
261 0 97.1153 12.099 1175 119.111 272.692 464.249
262 0 100.095 11.9786 1199 121.527 272.316 462.928
263 1 54.0458 10.9907 594 121.194 272.481 485.801
264 0 56.0307 11.458 642 121.564 271.449 482.903
265 0 61.1886 11.9957 734 118.614 271.572 483.159
266 0 60.0632 12.6367 759 119.7 271.667 480.845
267 0 63.0652 12.3047 776 118.836 271.615 481.844
268 0 65.1015 11.9966 781 119.407 272.819 479.91
269 0 68.072 12.1636 828 119.921 273.093 478.296
270 0 69.0735 12.8848 890 119.838 273.319 475.504
271 0 73.0683 10.9076 797 123.449 273.526 474.881
272 0 73.0484 11.554 844 121.579 272.793 476.333
273 0 76.0591 12.3851 942 120.058 273.193 475.354
274 0 80.0659 11.4406 916 123.095 272.963 471.253
275 0 81.0543 12.7816 1036 119.487 272.761 471.477
276 0 83.1124 11.9477 993 122.059 272.864 470.206
277 0 87.1863 12.2152 1065 121.692 272.854 467.913
278 0 90.0728 12.5343 1129 121.846 272.644 463.292
279 1 50.0216 10.3555 518 120.77 272.129 486.052
280 0 51.0539 11.6544 595 116.261 271.679 484.595
281 0 52.0425 11.3369 590 112.449 272.483 485.149
282 0 54.0255 12.1794 658 109.365 273.38 484.726
283 0 54.0319 11.7153 633 111.681 273.158 485.48
284 0 56.0197 10.6391 596 114.649 272.971 485.718
285 0 58.0264 11.9773 695 110.796 272.616 483.514
286 0 60.012 11.781 707 111.57 273.119 482.754
287 0 60.0404 10.5762 635 115.066 272.676 480.583
288 0 61.053 11.5965 708 112.184 271.866 482.016
289 0 65.0469 12.2681 798 109.397 271.984 481.865
290 0 64.0697 10.551 676 114.845 272.028 480.595
291 0 67.0802 12.567 843 110.173 272.24 479.41
292 0 70.1322 12.0202 843 111.059 272.24 478.348
293 0 71.1197 11.9376 849 111.052 272.418 475.577
294 0 72.0547 12.1158 873 109.625 272.096 477.456
295 0 75.1414 13.7341 1032 107.088 272.823 473.452
296 0 75.1813 11.8247 889 111.969 272.064 473.478
297 0 77.0932 11.8558 914 111.467 272.347 475.228
298 0 80.2406 11.4157 916 112.235 272.371 472.664
299 0 83.1811 12.7914 1064 109.835 272.175 468.867
300 0 84.1376 11.7902 992 109.899 271.931 471.826
301 0 90.196 12.9496 1168 107.802 272.051 466.456
302 0 90.1411 10.6611 961 112.944 271.663 467.193
303 0 94.2902 12.5252 1181 107.693 271.757 466.381
304 0 97.1688 11.938 1160 108.166 271.714 465.651
305 0 101.126 11.8961 1203 108.333 271.647 461.726
306 1 56.0801 12.1968 684 106.544 271.795 481.924
307 0 58.1784 10.1412 590 109.278 271.798 481.744
308 0 59.0638 10.8865 643 107.437 271.594 482.681
309 0 62.0695 12.5504 779 104.162 272.047 480.858
310 0 65.1351 11.4378 745 108.158 271.732 478.946
311 0 66.0658 11.7913 779 107.666 271.114 480.119
312 0 69.0822 11.9712 827 107.34 271.498 477.227
313 0 70.1041 11.1263 780 109.442 271.4 475.687
314 0 73.0842 12.3009 899 106.844 271.509 474.197
315 0 76.1481 11.2413 856 108.137 272.047 476.258
316 0 78.0795 11.8341 924 107.117 271.694 474.188
317 0 78.1329 11.0709 865 109.098 272.092 469.179
318 0 81.085 11.4818 931 107.718 272.269 470.752
319 0 81.0855 9.74281 790 110.875 272.476 470.713
320 0 86.2627 11.4534 988 107.585 271.996 466.72
321 0 88.1694 11.7955 1040 106.7 272.219 467.382
322 0 90.2155 10.9516 988 109.316 272.02 466.404
323 0 93.1701 11.42 1064 106.74 272.42 463.899
324 0 95.185 11.8926 1132 106.08 272.31 464.251
325 0 97.2226 11.9622 1163 105.516 272.737 461.003
326 0 98.1667 11.7046 1149 104.413 272.899 461.985
327 0 104.203 11.1897 1166 105.175 273.01 456.84
328 1 56.0638 10.4702 587 99.7956 273.431 481.814
329 0 59.1864 10.3571 613 99.1272 272.618 483.047
330 0 59.086 9.76543 577 99.9341 272.477 484.345
331 0 60.0811 10.6523 640 100.672 272.006 482.283
332 0 61.1052 9.49183 580 103.207 272.853 479.209
333 0 65.0321 9.82592 639 102.592 273.067 479.649
334 0 67.0308 9.95065 667 102.696 273.163 478.177
335 0 70.0967 10.9278 766 100.953 273.557 476.871
336 0 72.114 11.7314 846 100.723 272.564 475.923
337 0 74.1636 11.3937 845 101.72 272.964 475.049
338 0 74.109 10.2956 763 105.28 272.799 474.971
339 0 79.1073 11.6045 918 102.858 272.363 471.279
340 0 81.1056 11.109 901 104.649 272.609 470.966
341 0 86.109 12.0197 1035 103.197 272.748 470.967
342 0 86.1497 11.8631 1022 104.312 272.761 469.487
343 0 89.1802 11.1684 996 106.608 273.091 467.846
344 0 91.1107 11.6781 1064 106.445 273.348 464.01
345 0 94.1929 11.073 1043 108.659 273.897 463.947
346 0 97.0926 10.7732 1046 108.583 274.367 464.887
347 0 103.104 12.337 1272 105.46 274.134 464.6
348 0 103.172 12.765 1317 107.276 273.172 458.3
349 0 107.175 13.3333 1429 106.589 273.598 458.708
350 0 111.068 13.1271 1458 108.51 273.411 456.785
351 0 114.107 13.1017 1495 110.065 273.84 455.015
352 0 118.154 13.1777 1557 109.98 274.493 453.309
353 0 120.171 12.7069 1527 111.686 274.274 451.652
354 0 125.146 13.2565 1659 109.746 274.235 448.174
355 0 128.146 12.6652 1623 109.799 274.264 448.662
356 0 133.156 12.9397 1723 109.82 274.405 447.544
357 1 70.1988 12.4076 871 102.767 274.838 479.615
358 0 70.075 11.8302 829 105.156 274.601 477.191
359 0 75.1011 11.9306 896 104.742 274.846 477.558
360 0 75.1192 11.941 897 107.336 274.445 476.727
361 0 77.0953 12.5429 967 106.057 275.012 475.72
362 0 79.1059 12.4137 982 107.447 274.445 474.784
363 0 82.0922 12.1814 1000 108.809 274.769 473.203
364 0 87.094 12.986 1131 107.058 274.538 471.943
365 0 90.1732 13.1192 1183 107.845 274.456 471.347
366 0 90.222 12.968 1170 113.656 274.683 467.955
367 0 94.1232 14.0242 1320 114.678 274.677 466.492
368 0 97.0947 12.5651 1220 119.112 274.224 467.097
369 0 99.1048 12.5524 1244 121.147 274.756 464.655
370 0 99.1024 12.4518 1234 122.981 274.645 464.367
371 0 103.122 12.878 1328 121.436 274.002 461.136
372 0 108.265 11.4995 1245 121.922 274.205 464.165
373 0 111.208 11.3391 1261 125.204 273.898 459.742
374 1 60.11 11.3292 681 116.74 274.402 485.04
375 0 62.1488 11.7138 728 116.144 273.96 483.569
376 0 64.2027 13.1614 845 112.088 273.946 483.346
377 0 66.1156 13.1588 870 112.795 274.247 484.034
378 0 66.0534 12.2779 811 116.822 274.621 481.761
379 0 69.1147 12.8482 888 115.215 274.182 480.351
380 0 70.1662 11.8291 830 117.1 273.952 482.383
381 0 73.0983 11.9565 874 118.222 273.656 480.435
382 0 76.1813 12.549 956 117.919 274.071 478.022
383 0 76.088 12.1438 924 120.78 273.799 476.626
384 0 79.085 12.4676 986 120.782 274.46 477.171
385 0 81.2236 11.0928 901 125.141 274.582 475.6
386 0 84.0596 12.3722 1040 122.798 273.773 472.155
387 0 88.152 13.7603 1213 118.329 274.232 471.822
388 0 89.1847 12.1994 1088 123.027 274.332 472.614
389 0 91.1544 12.3965 1130 123.987 274.082 470.264
390 0 93.16 12.5912 1173 125.476 274.372 467.965
391 0 98.1542 12.5007 1227 124.729 274.309 467.877
392 0 101.112 12.9658 1311 122.506 274.534 466.013
393 0 105.161 13.0467 1372 119.722 274.246 464.267
394 1 56.094 12.7286 714 116.964 274.612 486.725
395 0 57.0412 12.4121 708 116.263 274.699 486.936
396 0 58.0609 11.798 685 118.644 274.676 486.704
397 0 58.0657 12.0381 699 119.245 274.308 486.741
398 0 61.0779 12.9179 789 116.574 274.92 484.992
399 0 63.1327 11.8797 750 118.048 274.42 485.424
400 0 63.1367 11.3246 715 120.957 274.288 483.29
401 0 66.1355 11.2345 743 121.155 274.428 481.616
402 0 67.0471 11.4248 766 119.928 274.899 482.093
403 0 71.0312 12.8254 911 116.451 274.64 479.779
404 0 71.084 11.5216 819 119.861 275.095 480.19
405 0 74.0741 11.7855 873 119.814 274.151 477.379
406 0 76.0864 11.6841 889 119.331 274.308 477.616
407 0 80.0534 12.5416 1004 118.786 274.559 474.17
408 0 80.1463 11.6911 937 121.123 274.519 474.107
409 0 83.1946 12.9455 1077 118.2 274.317 471.673
410 0 86.1863 12.4962 1077 118.562 274.051 472.027
411 0 88.1244 12.698 1119 120.154 274.212 466.409
412 0 90.1641 11.8894 1072 121.936 274.241 467.011
413 0 93.0716 12.0123 1118 121.918 274.259 465.407
414 0 98.0805 12.8058 1256 118.211 273.748 466.409
415 1 51.0938 9.74678 498 118.598 274.841 488.301
416 0 56.0666 12.8419 720 109.757 274.392 485.892
417 0 56.0828 11.8396 664 111.851 274.321 487.678
418 0 58.0776 12.6727 736 112.292 274.438 484.477
419 0 58.118 10.6507 619 116.021 274.535 485.96
420 0 61.0608 11.4476 699 115.253 274.268 483.084
421 0 64.0914 11.702 750 113.859 274.5 482.116
422 0 63.0447 10.8336 683 117.584 274.859 481.52
423 0 68.0446 11.7129 797 113.696 275.338 480.801
424 0 70.1018 13.1238 920 111.495 274.665 480.282
425 0 71.0963 11.829 841 115.309 274.973 476.782
426 0 75.1137 11.5558 868 116.026 274.8 475.921
427 0 77.0917 10.7534 829 117.963 274.875 475.767
428 0 80.0984 11.748 941 115.917 274.129 473.346
429 0 84.106 12.4129 1044 114.55 274.929 472.54
430 1 44.0322 11.0601 487 116.199 275.308 491.32
431 0 47.0897 11.0215 519 115.543 275.466 490.705
432 0 50.0227 11.8146 591 108.667 275.79 489.846
433 0 48.103 9.64596 464 114.241 275.735 490.752
434 0 50.0739 11.483 575 110.123 274.617 489.289
435 0 49.122 10.7488 528 113.28 275.218 488.926
436 0 54.0884 11.851 641 109.02 275.404 488.176
437 0 52.0377 10.6077 552 111.737 275.402 487.013
438 0 56.0584 10.7031 600 110.463 275.032 486.37
439 0 57.084 11.7021 668 108.301 274.672 485.686
440 0 59.1046 11.8265 699 108.003 275.122 484.944
441 0 60.0934 11.349 682 109.298 275.026 482.921
442 0 64.0675 12.2371 784 106.675 274.957 482.958
443 0 65.1758 11.9369 778 107.131 274.73 482.438
444 0 67.2159 12.1846 819 107.94 274.905 479.982
445 0 69.1749 12.0853 836 107.376 274.85 480.183
446 0 72.1098 11.9817 864 108.339 274.964 477.284
447 0 75.0783 13.133 986 105.549 274.661 477.623
448 0 76.161 11.4757 874 110.415 274.748 477.033
449 0 79.1314 11.6389 921 110.887 274.776 474.195
450 0 83.2821 13.7965 1149 76.054 274.686 478.275
451 1 42.0487 10.5116 442 109.717 275.367 494.197
452 0 44.0771 11.0488 487 111.216 275.593 491.846
453 0 45.073 11.2041 505 118.426 274.681 491.667
454 0 46.0743 11.4598 528 117.814 275.409 489.42
455 0 44.0425 10.172 448 113.004 275.384 492.366
456 0 46.0322 12.274 565 109.292 275.924 490.028
457 0 47.0518 10.9879 517 112.424 275.857 490.692
458 0 48.0989 10.8111 520 113.281 275.715 490.596
459 0 50.0288 12.073 604 110.786 275.523 489.803
460 0 51.0662 11.9844 612 112.763 275.735 488.273
461 0 51.0228 11.3087 577 113.745 275.672 488.574
462 0 52.0578 11.4296 595 114.655 275.333 486.629
463 0 56.0773 12.1618 682 112.383 274.971 486.063
464 0 57.0617 10.9881 627 115.665 275.075 485.392
465 0 60.1232 12.9734 780 111.954 275.117 484.454
466 0 62.0454 11.83 734 116.123 275.831 484.213
467 0 64.1118 12.8993 827 114.175 275.516 483.285
468 0 65.0729 13.0162 847 114.939 275.181 483.746
469 0 66.0683 12.8655 850 117.511 275.659 482.965
470 0 69.1212 13.2521 916 117.931 275.217 481.228
471 0 71.2137 13.1716 938 125.989 274.959 478.628
472 0 74.0885 13.8888 1029 124.8 274.607 477.549
473 0 76.1389 13.2521 1009 127.85 274.151 476.397
474 0 79.1785 13.4759 1067 127.252 274.359 477.016
475 0 81.1591 12.4817 1013 130.249 274.125 476.377
476 0 83.0978 13.5022 1122 126.906 274.553 474.413
477 0 85.0409 13.3465 1135 128.505 274.23 473.351
478 0 89.0724 14.0111 1248 125.997 273.938 470.4
479 0 91.1797 12.6234 1151 129.054 274.202 471.557
480 1 45.0776 11.2029 505 124.145 274.396 491.444
481 0 46.0209 11.6469 536 121.728 274.593 492.653
482 0 48.0844 12.3117 592 121.13 275.061 491.995
483 0 50.0527 13.6057 681 116.952 273.692 490.448
484 0 51.1235 12.6361 646 120.793 273.633 489.793
485 0 52.1056 12.5898 656 120.898 274.165 489.268
486 0 54.0895 12.8676 696 120.606 274.306 487.864
487 0 54.0583 12.283 664 121.762 274.764 487.797
488 0 56.0417 12.455 698 122.178 274.867 485.812
489 0 60.1316 13.2875 799 119.904 273.742 485.438
490 0 63.206 12.6412 799 127.693 273.951 483.757
491 0 64.2177 13.1584 845 125.109 273.636 483.272
492 0 65.24 12.2778 801 127.4 274.598 482.96
493 0 67.2227 12.8677 865 126.513 273.948 480.064
494 0 70.1648 13.5396 950 123.824 274.322 479
495 0 73.1748 12.0123 879 128.023 273.933 478.134
496 0 74.1529 12.8788 955 126.359 274.327 477.296
497 0 75.1913 10.839 815 131.207 274.072 477.004
498 0 78.1257 11.7119 915 128.783 274.518 474.226
499 0 83.1483 12.3875 1030 124.481 274.107 474.563
500 0 83.1017 11.7928 980 131.219 274.914 471.051
501 0 87.1077 11.9278 1039 133.367 275.149 470.058
502 1 44.0712 10.0519 443 129.357 275.664 492.237
503 0 47.0313 12.6937 597 122.534 275.377 489.422
504 0 48.0353 11.7206 563 125.215 275.371 489.535
505 0 48.027 11.1604 536 126.28 274.968 488.97
506 0 50.0516 11.1884 560 127.062 275.441 489.189
507 0 53.0351 11.9544 634 123.128 275.118 487.897
508 0 55.0316 11.7932 649 123.169 274.955 486.673
509 0 55.0273 13.5024 743 122.238 275.102 483.751
510 0 58.0317 11.4937 667 123.715 275.559 483.756
511 0 60.0214 11.4459 687 122.876 275.226 485.039
512 0 62.0488 11.0558 686 124.016 275.085 483.343
513 0 63.0545 11.4663 723 122.351 274.811 484.13
514 0 66.0512 12.1875 805 122.574 274.648 482.322
515 0 67.0355 11.3074 758 126.42 274.792 479.53
516 0 68.0381 11.5671 787 125.76 274.356 477.792
517 0 72.0517 11.9914 864 124.181 274.381 476.98
518 0 74.0683 11.0034 815 126.64 274.566 476.045
519 0 76.0993 11.1565 849 125.664 274.258 475.238
520 0 78.0558 10.5822 826 127.312 273.9 475.936
521 0 81.0667 11.435 927 124.769 274.379 474.732
522 0 84.0495 11.3624 955 125.484 274.03 473.304
523 0 88.0823 11.6482 1026 124.56 273.604 470.201
524 1 48.033 10.1597 488 126.859 274.348 490.002
525 0 47.0313 10.4611 492 127.587 275.018 488.325
526 0 49.0461 11.2955 554 125.262 274.895 488.787
527 0 50.0445 10.8104 541 123.595 274.087 488.231
528 0 51.0435 11.1865 571 123.121 274.207 486.63
529 0 53.0438 11.2172 595 123.412 274.061 486.805
530 0 54.0766 11.6686 631 122.842 274.022 485.506
531 0 57.0596 11.2339 641 123.25 273.468 484.891
532 0 57.0299 11.8008 673 126.837 272.944 482.777
533 0 61.0247 12.1262 740 121.115 273.334 483.319
534 0 60.0375 11.9092 715 122.93 273.778 483.038
535 0 63.0807 12.0005 757 123.192 272.97 480.518
536 0 66.0738 11.6385 769 123.752 273.217 480.303
537 0 67.1378 11.2306 754 126.13 273.107 479.031
538 0 71.1095 12.755 907 122.566 273.566 479.068
539 0 73.078 12.3977 906 125.3 273.488 477.082
540 0 74.109 11.4561 849 127.883 273.289 477.978
541 0 80.1197 12.9931 1041 122.598 273.537 475.857
542 0 80.0447 12.2307 979 127.171 273.516 473.902
543 0 83.0793 12.3737 1028 125.823 273.619 472.657
544 0 86.0758 12.1753 1048 126.004 273.093 471.437
545 0 90.094 13.1973 1189 123.214 273.249 469.946
546 0 90.094 13.1862 1188 142.923 272.246 469.896
547 1 49.0613 12.0054 589 124.138 273.447 491.039
548 0 51.0823 12.6854 648 125.517 274.174 489.593
549 0 51.0508 12.2819 627 122.799 273.161 489.853
550 0 53.0806 11.5485 613 124.031 273.918 489.607
551 0 54.0496 12.1185 655 121.191 273.25 490.461
552 0 55.061 10.9515 603 125.922 274.148 487.546
553 0 57.1998 12.4126 710 121.876 273.492 485.687
554 0 60.1741 12.9624 780 120.972 273.794 483.963
555 0 62.1043 12.9782 806 119.431 273.849 485.016
556 0 63.1095 12.5655 793 123.127 273.728 482.323
557 0 65.104 12.7028 827 122.693 273.921 481.331
558 0 68.0909 13.1295 894 120.532 273.19 480.96
559 0 70.2122 12.1916 856 123.063 273.591 478.966
560 0 72.0902 11.7214 845 124.31 272.852 478.735
561 0 77.119 13.1096 1011 119.553 273.555 477.846
562 0 78.0447 11.455 894 125.878 273.858 475.472
563 0 82.0861 12.8889 1058 120.213 273.664 475.845
564 1 43.0312 11.3406 488 121.527 273.662 492.922
565 0 44.0219 10.5402 464 122.349 274.2 493.474
566 0 46.033 11.4918 529 121.669 274.002 491.427
567 0 49.0114 12.7725 626 116.704 273.752 490.77
568 0 51.0245 13.8953 709 113.979 274.014 489.621
569 0 51.0443 12.0875 617 119.258 273.984 490.018
570 0 53.1501 12.2107 649 118.53 273.524 488.755
571 0 53.036 11.8976 631 119.938 273.887 489.39
572 0 53.0803 11.379 604 122.644 273.407 488.435
573 0 56.0198 12.9597 726 118.85 273.533 486.565
574 0 59.0505 11.8035 697 120.545 273.089 488.132
575 0 60.0611 11.455 688 121.526 272.939 485.462
576 0 64.07 12.4551 798 118.297 273.31 484.08
577 0 64.0637 12.3471 791 119.611 273.343 482.729
578 0 68.097 11.8361 806 119.591 273.383 482.113
579 0 71.1842 11.8847 846 119.742 273.647 481.526
580 0 73.1042 11.5588 845 121.405 273.502 479.592
581 0 75.0956 12.2111 917 119.695 273.556 479.554
582 1 39.0923 10.6159 415 127.547 273.386 493.928
583 0 42.0304 11.5155 484 124.246 274.114 493.459
584 0 43.0557 12.2864 529 121.284 273.817 493.098
585 0 45.0535 13.0733 589 119.978 273.829 492.126
586 0 44.0635 11.3473 500 126.746 273.614 492.476
587 0 48.0943 13.3488 642 119.615 273.854 492.115
588 0 49.0657 13.2272 649 121.008 274.043 491.459
589 0 50.0617 14.1226 707 120.174 273.884 490.058
590 0 52.0621 13.311 693 121.423 273.717 490.815
591 0 53.0794 12.9052 685 124.826 273.38 488.749
592 0 55.146 13.7453 758 121.832 273.773 489.466
593 0 55.1136 13.7171 756 124.75 273.44 487.733
594 0 56.1049 13.6174 764 124.907 273.284 486.208
595 0 57.1246 13.1817 753 127.41 273.207 486.291
596 0 60.0964 13.7446 826 125.278 273.669 485.494
597 0 62.1746 14.1859 882 124.677 273.908 483.76
598 0 64.1428 14.2183 912 124.776 273.41 483.525
599 0 66.1095 13.1297 868 129.191 273.273 482.326
600 0 67.1251 13.6313 915 125.968 273.25 483.284
601 0 69.0654 14.1171 975 126.47 272.948 479.506
602 0 72.1428 14.5683 1051 123.128 273.205 480.72
603 0 74.1071 13.1701 976 127.372 272.934 478.754
604 0 77.0818 12.5192 965 127.192 273.118 478.817
605 0 79.0834 13.353 1056 124.376 273.027 478.128
606 0 83.1438 13.7352 1142 122.965 273.088 476.525
607 1 43.105 11.53 497 126.575 273.392 494.302
608 0 45.0379 12.1231 546 126.216 273.381 492.59
609 0 47.0445 12.5838 592 124.118 273.579 493
610 0 47.0517 11.3705 535 130.882 273.654 492.148
611 0 47.1291 12.8371 605 122.109 273.06 492.6
612 0 48.0291 12.1593 584 124.51 273.565 491.832
613 0 50.0449 12.4888 625 123.312 273.126 491.426
614 0 54.1328 13.2083 715 119.976 273.148 490.544
615 0 54.0673 12.17 658 124.274 272.96 488.462
616 0 57.0967 13.9413 796 117.879 272.915 488.58
617 0 58.1169 14.9354 868 115.878 273.039 488.285
618 0 59.1312 12.7175 752 124.27 272.678 486.07
619 0 62.1498 14.9639 930 118.049 273.396 483.995
620 0 64.1439 13.3918 859 122.575 273.881 483.627
621 0 66.2467 13.8724 919 120.655 273.645 483.272
622 0 69.1998 13.1792 912 122.97 273.6 481.372
623 0 71.1039 14.2327 1012 120.349 273.133 479.768
624 0 73.1712 13.6119 996 122.183 273.071 479.518
625 0 75.2882 14.8762 1120 119.984 272.762 476.568
626 0 79.1915 13.7894 1092 122.247 272.728 477.521
627 0 80.1641 13.0482 1046 125.885 272.706 476.782
628 0 82.193 14.2713 1173 123.207 273.084 474.322
629 0 85.2057 14.3887 1226 124.438 272.834 471.877
630 0 89.1466 14.3472 1279 122.474 272.597 471.41
631 1 46.0468 11.3146 521 131.336 272.543 492.173
632 0 48.1136 12.5121 602 126.88 272.533 491.982
633 0 50.0376 13.6897 685 124.904 273.276 490.686
634 0 50.0634 12.6639 634 126.994 272.792 491.591
635 0 51.056 13.4558 687 123.13 272.965 490.981
636 0 51.012 12.1932 622 129.357 272.481 490.376
637 0 53.0366 13.6887 726 124.671 273.799 489.753
638 0 54.0236 12.7722 690 128.791 273.765 487.413
639 0 56.0151 12.4966 700 129.23 273.241 487.406
640 0 58.0355 12.7681 741 129.526 272.638 485.475
641 0 59.0419 12.1439 717 131.311 273.529 486.668
642 0 62.1777 13.5901 845 127.805 273.707 484.484
643 0 64.1394 13.5798 871 128.404 273.86 482.241
644 0 66.1132 13.4769 891 127.955 273.196 482.343
645 0 67.0237 13.1595 882 129.892 273.456 479.48
646 0 71.0551 13.4543 956 127.705 273.366 480.546
647 0 74.0752 14.1883 1051 125.615 273.531 478.91
648 0 77.0936 13.8144 1065 126.054 273.69 477.779
649 0 77.0903 13.6593 1053 127.725 273.662 477.018
650 0 81.152 12.5444 1018 129.091 273.567 475.69
651 0 82.0507 12.0901 992 130.626 273.49 474.926
652 0 87.0551 13.4053 1167 126.547 273.111 472.816
653 0 88.0506 13.2537 1167 127.964 272.532 470.063
654 0 92.0956 13.7357 1265 125.394 272.836 470.442
655 0 95.2867 13.2652 1264 126.428 273.479 468.814
656 1 50.0987 12.655 634 128.153 273.598 489.358
657 0 50.0263 13.233 662 127.87 273.144 489.671
658 0 52.0157 13.3037 692 125.514 272.868 489.821
659 0 52.0246 12.8209 667 127.651 272.987 489.883
660 0 56.0384 13.0803 733 125.116 273.16 489.909
661 0 56.0433 13.5431 759 125.403 273.577 489.177
662 0 59.0578 13.0042 768 127.257 273.547 487.684
663 0 60.0599 12.9371 777 129.61 273.359 485.378
664 0 62.051 12.9571 804 129.362 272.999 485.974
665 0 64.0387 13.6011 871 127.639 273.388 483.411
666 0 66.0552 13.7612 909 126.646 272.84 484.638
667 0 68.0199 12.9227 879 131.922 273.338 481.064
668 0 72.0591 13.0171 938 131.021 273.064 481.141
669 0 74.0759 14.2826 1058 128.401 273.011 480.529
670 0 77.0968 14.0473 1083 130.675 273.163 477.769
671 0 79.1315 13.4965 1068 133.506 273.205 477.59
672 0 82.0679 13.9031 1141 133.242 273.004 475.954
673 0 83.0351 13.3076 1105 135.462 273.386 474.34
674 0 87.137 13.1173 1143 135.864 273.142 474.406
675 1 48.1569 11.8986 573 133.066 273.52 492.714
676 0 47.0468 11.5629 544 135.103 273.746 492.838
677 0 49.0708 13.022 639 129.623 272.953 491.869
678 0 50.0233 12.974 649 129.881 272.923 492.442
679 0 50.036 11.0121 551 129.147 273.113 491.808
680 0 52.1 13.0902 682 123.672 273.088 489.861
681 0 53.0746 13.4151 712 122.869 273.343 488.77
682 0 56.0649 12.5212 702 123.343 273.248 488.756
683 0 58.0728 13.1215 762 122.171 272.74 487.462
684 0 58.0232 12.3571 717 124.635 272.466 485.756
685 0 62.05 13.0057 807 120.332 272.73 486.067
686 0 62.0742 12.5495 779 123.35 272.612 485.27
687 0 66.0666 12.3512 816 122.591 272.835 484.939
688 0 68.0671 13.4279 914 121.487 273.086 481.598
689 0 69.1342 11.6874 808 126.338 272.402 482.027
690 0 71.0827 13.843 984 123.302 272.831 478.612
691 0 75.0897 13.0244 978 125.14 272.601 478.74
692 0 77.112 13.02 1004 126.076 272.669 478.304
693 0 79.1565 12.709 1006 128.716 272.172 475.518
694 0 82.1034 14.7862 1214 123.6 271.995 474.535
695 0 85.1424 14.188 1208 125.713 272.637 472.227
696 1 42.1143 10.614 447 129.946 272.87 494.277
697 0 44.0544 11.3042 498 122.48 273.046 491.536
698 0 46.0295 10.7974 497 130.046 272.702 491.948
699 0 45.0681 11.9153 537 121.199 273.233 492.888
700 0 45.0746 12.8676 580 119.643 273.467 492.267
701 0 45.0571 11.319 510 132.251 274.439 493.886
702 0 47.0723 12.3215 580 121.662 273.321 490.998
703 0 51.0597 12.4168 634 119.618 273.394 490.421
704 0 51.0968 12.1534 621 121.915 273.419 488.884
705 0 53.0759 12.435 660 121.014 273.074 488.956
706 0 57.0759 13.9814 798 115.247 274.049 487.865
707 0 56.0358 12.3136 690 122.197 273.635 486.754
708 0 59.0626 11.801 697 122.778 273.941 485.94
709 0 61.067 13.5589 828 117.192 273.592 485.579
710 0 63.0475 12.5144 789 121.635 273.961 483.687
711 0 66.1007 12.6625 837 120.424 273.877 483.542
712 0 67.1027 12.4734 837 121.651 274.084 482.952
713 0 70.0309 13.0371 913 120.977 273.409 480.807
714 0 73.0676 14.0965 1030 118.242 273.46 478.9
715 0 75.1145 13.6192 1023 120.073 273.087 477.875
716 0 78.1053 13.8915 1085 120.444 273.238 476.653
717 0 81.1258 13.251 1075 121.017 273.503 476.204
718 0 83.0394 13.2708 1102 121.72 273.638 476.217
719 0 86.0906 13.9969 1205 120.21 273.877 472.537
720 0 89.0445 13.2293 1178 123.306 273.922 472.076
721 1 46.0203 12.451 573 123.457 273.712 492.736
722 0 47.0164 12.5488 590 124.078 273.742 491.158
723 0 48.044 12.7591 613 123.763 273.99 491.654
724 0 46.0716 12.1116 558 122.285 272.81 491.389
725 0 48.0481 12.0712 580 121.933 273.15 491.816
726 0 51.0408 12.108 618 120.796 273.152 490.471
727 0 49.0414 11.1131 545 124.497 273.011 491.38
728 0 54.0542 13.3385 721 117.969 272.94 489.564
729 0 53.0497 12.1396 644 123.404 272.797 490.016
730 0 55.1002 12.4501 686 123.539 272.784 486.933
731 0 58.0619 11.8666 689 123.926 272.149 488.435
732 0 60.0543 11.9225 716 124.38 272.126 487.528
733 0 63.0759 12.6039 795 123.346 271.889 486.39
734 0 66.1683 13.1936 873 122.196 272.448 484.766
735 0 66.1326 12.2935 813 125.274 271.929 485.579
736 0 68.1015 12.9219 880 124.267 272.548 484.17
737 0 72.1685 12.8449 927 124.177 271.93 482.148
738 0 73.158 12.3431 903 127.878 272.011 479.481
739 0 77.1277 11.5393 890 129.487 272.042 480.307
740 0 78.1386 12.1963 953 128.61 272.44 478.193
741 1 43.1041 11.9942 517 128.708 272.277 495.06
742 0 43.0624 12.0523 519 129.304 272.647 494.41
743 0 43.0648 12.5857 542 122.522 271.985 495.79
744 0 45.1169 12.4787 563 123.512 271.913 494.675
745 0 44.0424 12.715 560 124.055 272.014 495.877
746 0 44.0831 11.7279 517 129.414 272.398 493.778
747 0 47.1845 12.5465 592 127.034 272.382 493.111
748 0 49.1479 12.6353 621 127.874 272.182 491.398
749 0 50.1049 12.3142 617 128.733 272.613 492.671
750 0 52.1453 12.8871 672 128.423 272.504 489.329
751 0 54.1209 12.9894 703 127.804 272.936 489.671
752 0 56.1527 13.5167 759 127.02 272.452 488.744
753 0 58.0579 12.6942 737 129.706 272.242 488.286
754 0 59.1411 12.5124 740 130.993 272.254 488.334
755 0 61.0572 13.299 812 129.468 272.486 486.094
756 0 62.0937 12.2396 760 134.154 272.229 486.504
757 0 64.0563 11.4743 735 137.737 272.316 484.856
758 0 68.2102 13.649 931 131.163 272.537 483.797
759 0 71.1352 13.5938 967 133.259 272.617 480.658
760 0 72.1716 12.6365 912 138.304 272.286 481.026
761 0 74.1639 13.578 1007 135.5 272.617 480.186
762 0 78.1774 14.595 1141 133.449 272.387 478.099
763 1 39.111 11.9404 467 138.752 271.799 496.961
764 0 41.1113 11.7729 484 139.101 271.795 496.614
765 0 43.1747 13.7812 595 132.197 272.642 494.44
766 0 43.1538 12.0036 518 131.687 272.608 496.782
767 0 44.1704 12.4744 551 133.528 272.505 495.056
768 0 46.195 11.971 553 134.823 273.219 495.689
769 0 46.1773 13.3832 618 133.519 272.743 493.927
770 0 47.1894 12.8631 607 136.132 272.865 492.605
771 0 50.0748 13.1403 658 135.675 272.863 492.549
772 0 51.2481 12.859 659 136.769 272.088 491.264
773 0 54.1258 13.2654 718 135.531 272.429 489.572
774 0 55.0957 13.05 719 136.924 272.69 490.207
775 0 57.1751 12.9602 741 137.462 273.116 488.348
776 0 59.1503 13.5249 800 136.401 272.352 486.311
777 0 61.2401 13.8308 847 136.374 272.817 485.694
778 0 62.2591 12.7853 796 143.467 273.036 485.558
779 0 65.2991 14.5178 948 137.128 273.538 483.836
780 0 67.2336 13.0292 876 137.382 273.911 483.037
781 0 69.0488 13.3963 925 133.498 273.973 482.177
782 0 71.0891 12.8852 916 133.011 274.16 482.571
783 0 74.1289 13.3281 988 130.502 273.853 480.896
784 0 76.1134 12.8624 979 130.566 273.805 480.517
785 0 79.0516 12.5994 996 132.519 273.317 477.63
786 0 81.0961 12.0228 975 133.487 273.639 476.943
787 0 85.1498 11.9906 1021 132.529 273.836 475.397
788 1 46.0262 12.5363 577 125.125 273.166 493.74
789 0 46.0447 11.0545 509 129.825 273.232 494.299
790 0 49.0161 12.5877 617 124.206 273.896 493.097
791 0 49.0503 12.5789 617 124.25 274.12 493.353
792 0 52.1235 12.9308 674 122.816 274.309 491.381
793 0 54.1157 13.9146 753 119.587 274.093 490.084
794 0 55.1122 13.6993 755 120.499 274.132 490.303
795 0 57.0452 13.0423 744 122.565 274.231 489.565
796 0 58.0463 13.8683 805 122.698 274.255 487.241
797 0 60.0779 12.5337 753 130.714 273.382 486.918
798 0 64.0638 13.19 845 126.502 273.168 485.444
799 0 64.0865 13.5286 867 127.271 273.464 483.997
800 0 66.079 12.4699 824 129.557 273.061 484.074
801 0 70.0467 13.8622 971 125.147 272.994 483.564
802 0 71.0679 13.4941 959 127.555 273.679 481.555
803 0 74.0643 13.0022 963 128.533 273.051 479.813
804 0 76.112 13.3488 1016 128.336 272.871 478.373
805 0 80.0433 14.5671 1166 125.72 273.557 476.953
806 0 83.1337 13.6888 1138 126.86 273.511 476.099
807 0 84.2113 13.3118 1121 129.98 273.077 474.997
808 0 86.0525 13.1896 1135 129.572 273.439 474.969
809 1 47.0949 12.3793 583 127.365 273.717 493.573
810 0 48.1072 12.3058 592 128.475 273.63 493.916
811 0 48.0927 12.0393 579 131.223 272.708 491.489
812 0 51.025 12.7388 650 123.735 273.094 492.437
813 0 52.0744 12.3285 642 126.206 273.288 490.182
814 0 53.0549 13.4766 715 124.68 272.765 487.965
815 0 56.0502 14.041 787 120.681 273.381 489.149
816 0 57.1862 12.4855 714 125.524 272.639 487.993
817 0 59.0809 12.6944 750 123.36 272.912 488.259
818 0 62.1077 13.702 851 121.998 272.931 485.354
819 0 65.0101 14.0593 914 120.907 272.925 484.105
820 0 67.1876 13.827 929 121.234 273.404 483.601
821 0 70.1011 13.0668 916 122.603 273.346 482.197
822 0 70.1468 12.7305 893 125.477 273.377 481.111
823 0 74.0825 14.3894 1066 120.301 273.257 479.413
824 0 75.1988 12.9656 975 126.286 273.316 478.659
825 0 79.0625 13.2806 1050 126.289 272.467 474.635
826 0 82.2061 14.1109 1160 124.366 272.779 473.7
827 0 85.0449 12.7815 1087 128.063 272.984 473.371
828 1 42.0649 10.4125 438 126.995 272.993 494.945
829 0 44.0876 11.704 516 123.552 272.895 494.446
830 0 46.0456 12.379 570 126.502 273.704 493.554
831 0 48.0535 12.7774 614 122.995 273.71 492.077
832 0 48.1414 11.5701 557 127.551 273.655 492.903
833 0 50.0412 12.0701 604 127.048 272.998 490.667
834 0 52.0632 13.1955 687 124.24 273.166 489.894
835 0 55.0939 12.6148 695 125.013 272.983 488.407
836 0 56.228 12.4137 698 124.543 272.766 489.11
837 0 58.1436 13.759 800 122.159 272.768 487.56
838 0 61.1025 12.6345 772 124.712 272.302 487.795
839 0 63.0575 13.4798 850 123.098 272.196 486.961
840 0 63.1004 12.2503 773 128.179 272.592 483.916
841 0 65.0889 13.4585 876 126.502 272.362 482.447
842 0 68.2314 13.0878 893 126.032 272.297 481.675
843 0 70.1017 12.4105 870 129.098 271.617 479.111
844 0 74.2231 12.9879 964 126.156 271.841 479.19
845 0 77.1713 12.9711 1001 125.912 272.492 478.253
846 0 79.3389 13.2974 1055 124.988 272.974 476.277
847 0 83.1431 13.0498 1085 125.684 272.504 473.996
848 0 85.1605 13.3278 1135 126.463 272.344 472.459
849 0 87.1758 12.687 1106 128.725 272.78 471.068
850 0 89.2737 13.8115 1233 126.496 271.211 468.182
851 0 92.21 13.5885 1253 126.966 272.517 468.509
852 0 97.201 14.0533 1366 125.367 272.27 467.084
853 1 49.1349 12.1095 595 124.676 272.556 489.923
854 0 51.1318 13.1034 670 121.6 273.06 490.679
855 0 52.119 12.2796 640 124.255 272.462 489.697
856 0 55.1195 14.3688 792 118.9 272.448 488.664
857 0 57.1698 11.7894 674 124.108 272.304 489.11
858 0 59.122 13.007 769 121.783 272.315 487.48
859 0 61.0801 12.9993 794 122.332 272.414 486.084
860 0 61.1021 12.6182 771 125.211 272.272 484.062
861 0 64.0943 12.3256 790 126.018 272.073 484.716
862 0 66.0648 13.517 893 125.213 272.866 481.572
863 0 68.2147 12.9004 880 126.386 272.817 480.724
864 0 70.2337 11.9173 837 129.93 272.282 480.671
865 0 71.1684 12.4775 888 128.8 272.858 479.639
866 0 75.1226 13.0853 983 127.588 272.829 478.569
867 0 78.2355 13.6766 1070 127.345 272.723 476.302
868 0 80.22 13.4131 1076 129.86 273.238 473.758
869 1 41.1088 11.725 482 126.811 272.753 495.624
870 0 43.152 11.7955 509 127.888 272.933 492.886
871 0 43.1695 12.3004 531 127.753 272.755 491.776
872 0 44.1641 12.2724 542 129.801 272.657 491.478
873 0 48.0622 13.0456 627 120.955 272.885 492.48
874 0 50.1038 12.9331 648 122.235 272.489 490.648
875 0 51.1108 12.4631 637 124.436 271.986 490.86
876 0 52.1762 11.5187 601 127.418 272.985 489.932
877 0 54.1648 12.5912 682 123.764 272.9 488.107
878 0 56.0824 12.2855 689 125.637 272.319 486.536
879 0 56.0687 12.0923 678 126.953 272.025 485.686
880 0 59.2036 13.3438 790 123.285 272.228 483.986
881 0 60.0833 12.699 763 125.544 272.075 483.384
882 0 62.062 13.4865 837 124.233 273.092 482.355
883 0 65.132 13.2347 862 123.706 272.593 481.415
884 0 66.1998 12.9759 859 126.516 272.187 480.052
885 0 68.2569 13.2001 901 127.859 272.232 479.189
886 0 70.3117 13.6962 963 129.768 272.609 478.427
887 0 72.3317 13.4657 974 131.502 272.861 475.733
888 0 75.532 13.0673 987 132.975 272.315 473.169
889 0 77.4018 13.6173 1054 130.88 272.164 472.229
890 0 81.2892 13.9994 1138 131.266 272.243 471.964
891 0 83.281 15.3696 1280 126.287 271.897 470.923
892 0 84.3272 13.4832 1137 133.172 271.865 467.48
893 0 88.3414 14.8628 1313 129.035 271.411 466.7
894 0 88.4178 13.1761 1165 136.022 271.933 463.839
895 0 93.4672 13.7053 1281 132.55 272.05 462.749
896 0 97.4192 14.0424 1368 130.181 272.198 461.466
897 0 100.255 14.5529 1459 129.559 272.024 460.468
898 0 104.413 14.7299 1538 126.928 271.555 457.693
899 0 106.566 13.3157 1419 129.419 271.773 456.776
900 1 54.3002 10.663 579 125.157 271.739 484.551
901 0 58.2061 12.5245 729 119.51 271.353 483.064
902 0 60.1511 12.6349 760 119.813 271.22 480.716
903 0 62.1414 13.2762 825 118.822 271.242 482.044
904 0 62.187 12.7679 794 122.646 271.805 479.501
905 0 68.1515 12.5749 857 121.664 271.116 480.62
906 0 69.1145 12.4286 859 123.033 271.566 477.49
907 0 70.1781 12.8815 904 121.721 271.634 475.833
908 0 74.2962 12.5309 931 122.221 271.632 474.145
909 0 76.4454 12.885 985 121.02 271.807 473.522
910 0 80.2182 12.6031 1011 120.753 271.949 472.853
911 0 83.3332 12.672 1056 121.054 271.877 469.759
912 0 84.216 12.7885 1077 121.303 271.855 468.921
913 0 88.1969 13.0163 1148 120.57 271.882 467.662
914 0 91.4354 13.8568 1267 117.222 271.534 467.725
915 0 94.427 13.2271 1249 118.737 271.68 465.227
916 0 96.483 13.1422 1268 119.756 271.349 462.981
917 0 100.362 13.3218 1337 119.316 271.308 461.41
918 1 50.1611 11.9814 601 114.058 270.84 486.035
919 0 52.1774 12.7258 664 113.563 271.026 484.423
920 0 53.1244 12.5554 667 115.322 271.12 484.169
921 0 55.0848 12.4717 687 115.744 271.332 484.723
922 0 58.0626 11.9526 694 117.255 271.524 481.752
923 0 59.0468 12.5832 743 115.759 271.795 484.312
924 0 62.0757 12.9036 801 115.93 271.739 481.507
925 0 64.1188 13.1942 846 116.1 271.946 480.97
926 0 67.0546 13.407 899 116.977 271.994 479.94
927 0 69.0804 12.8401 887 118.886 271.22 479.431
928 0 72.149 13.1949 952 118.565 271.349 477.502
929 0 71.1889 12.8953 918 123.545 271.031 475.08
930 0 75.1011 12.7961 961 122.446 271.351 473.823
931 0 80.1514 13.8238 1108 119.005 271.179 473.418
932 0 79.1605 12.7841 1012 124.54 271.241 471.254
933 0 80.2307 12.7258 1021 127.604 271.122 468.593
934 0 86.219 14.0224 1209 123.328 271.34 468.343
935 0 87.1809 13.2598 1156 127.053 270.843 467.79
936 0 90.2867 13.0916 1182 128.761 271.151 466.069
937 0 93.1172 13.1662 1226 129.15 271.153 463.093
938 0 97.2068 13.6204 1324 128.374 271.624 461.561
939 0 99.2159 12.5383 1244 132.765 271.502 460.055
940 0 102.266 13.2497 1355 131.127 271.597 457.3
941 0 109.345 14.4223 1577 127.033 271.632 457.308
942 0 110.223 13.9899 1542 129.121 271.604 455.389
943 0 116.194 14.5619 1692 127.002 271.611 454.582
944 0 120.174 13.4471 1616 129.234 271.832 455.755
945 0 122.284 13.4277 1642 132.392 272.723 450.764
946 1 69.2775 11.8798 823 123.844 272.663 479.689
947 0 69.0242 11.3728 785 124.896 272.51 479.773
948 0 72.0534 11.1306 802 127.128 272.791 477.438
949 0 74.0512 11.5326 854 125.965 273.333 477.857
950 0 76.1059 12.5746 957 126.063 272.6 475.325
951 0 78.2252 11.3902 891 129.364 272.841 473.955
952 0 81.1237 11.1558 905 129.555 272.615 471.917
953 0 82.1241 12.335 1013 128.167 272.885 470.68
954 0 86.093 12.9511 1115 126.208 272.968 469.21
955 0 86.07 10.8052 930 132.524 272.965 469.823
956 0 93.0966 11.5042 1071 130.528 273.471 467.374
957 0 95.2216 12.3921 1180 130.156 273.35 463.819
958 0 97.1993 10.8951 1059 134.499 273.403 464.765
959 0 99.1524 10.3981 1031 136.272 273.69 462.96
960 0 103.135 11.7128 1208 134.388 273.354 461.19
961 0 106.159 11.8219 1255 134.72 272.932 457.849
962 1 60.1102 10.1813 612 127.546 274.007 483.322
963 0 60.0676 10.8544 652 126.897 273.21 482.876
964 0 61.128 10.388 635 122.304 272.939 479.546
965 0 64.0949 11.2177 719 128.214 270.604 477.483
966 0 63.247 9.66054 611 124.704 272.193 481.44
967 0 65.1466 10.8371 706 121.829 271.643 481.776
968 0 68.0776 10.5174 716 121.486 271.767 481.858
969 0 72.1235 11.3278 817 119.195 272.058 480.098
970 0 73.1933 10.0692 737 122.758 272.408 480.383
971 0 76.0789 11.3303 862 121.899 271.95 476.133
972 0 77.1564 11.1332 859 123.028 271.906 475.752
973 0 80.1121 11.2343 900 123.497 272.014 473.748
974 0 82.0814 11.2571 924 124.225 272.141 473.023
975 0 85.0884 11.6702 993 125.209 272.268 468.368
976 0 86.0913 11.36 978 126.12 272.234 468.046
977 0 89.1229 10.6594 950 128.096 272.949 465.913
978 0 94.173 11.5532 1088 125.195 272.644 466.998
979 0 97.1058 10.504 1020 125.815 272.374 468.977
980 0 98.2224 10.3032 1012 129.637 271.518 464.848
981 1 56.1503 10.5253 591 123.758 271.447 484.712
982 0 57.1782 10.3711 593 124.514 271.953 485.034
983 0 57.1545 11.4252 653 124.098 271.985 483.031
984 0 56.1893 10.2867 578 121.298 272.67 483.401
985 0 60.1644 10.704 644 118.873 272.616 483.818
986 0 58.1368 10.2861 598 120.982 273.109 483.615
987 0 62.2435 10.6357 662 121.074 273.036 480.069
988 0 64.1686 11.6412 747 117.786 273.162 482.19
989 0 67.1562 8.71103 585 123.344 273.754 482.313
990 0 69.1901 9.97253 690 122.174 273.412 478.923
991 0 70.1976 10.3707 728 122.463 273.736 477.545
992 0 71.21 10.139 722 122.111 274.27 479.422
993 1 144.418 9.81869 1418 130.793 273.97 446.631
994 0 144.362 11.4851 1658 127.326 273.897 443.144
995 0 147.821 11.7372 1735 126.929 273.765 441.296
996 0 150.692 10.5911 1596 130.84 273.277 442.97
997 0 156.514 10.8489 1698 132.068 273.437 437.537
998 0 157.739 11.2654 1777 130.95 273.514 435.884
999 0 164.63 10.8729 1790 132.1 272.823 435.157
1000 0 169.596 10.6842 1812 132.679 273.15 429.953
1001 0 175.571 11.1921 1965 130.726 272.842 427.293
1002 1 187.644 8.87319 1665 133.404 272.597 429.411
1003 0 187.485 10.8115 2027 131.52 272.214 417.605
1004 0 190.576 11.6908 2228 128.331 272.06 417.139
1005 0 193.66 11.799 2285 128.768 272.555 413.989
1006 0 201.41 11.4592 2308 128.836 272.357 412.446
1007 1 112.252 8.9442 1004 123.13 272.607 453.027
1008 0 113.214 9.15078 1036 122.255 272.46 459.338
1009 1 61.0461 9.6812 591 108.951 273.203 486.501
1010 0 61.1083 10.3259 631 107.7 273.604 485.884
1011 0 63.1197 10.6464 672 107.912 273.658 485.975
1012 0 62.1641 10.1023 628 111.807 273.436 483.58
1013 0 67.1699 11.2104 753 105.705 272.679 482.208
1014 0 68.1651 11.3988 777 108.313 272.573 480.268
1015 0 71.0949 12.2794 873 106.081 272.656 480.133
1016 0 71.1067 12.2773 873 109.397 272.667 479.027
1017 0 75.0909 11.1998 841 113.25 272.159 477.979
1018 0 76.1065 11.7073 891 111.434 272.736 477.865
1019 0 79.1124 10.365 820 113.023 271.716 475.857
1020 0 82.1413 12.0402 989 111.25 271.222 474.135
1021 0 84.1624 11.561 973 114.062 272.073 474.67
1022 0 85.1612 11.3902 970 115.073 271.73 473.188
1023 0 89.1221 12.7241 1134 112.103 271.455 469.16
1024 1 46.0209 11.6034 534 116.953 271.742 491.713
1025 0 48.0479 11.7591 565 117.458 271.704 488.283
1026 0 50.0284 10.9738 549 120.326 271.43 491.135
1027 0 51.0535 11.9482 610 120.885 271.254 488.044
1028 0 53.048 12.894 684 117.206 271.664 486.42
1029 0 55.0621 12.4768 687 118.473 272.386 487.116
1030 0 58.0439 13.9722 811 112.979 272.557 485.157
1031 0 58.0708 12.4503 723 118.3 272.621 484.192
1032 0 62.031 13.1225 814 114.977 272.899 485.267
1033 0 63.074 13.6506 861 113.988 272.886 482.711
1034 0 63.064 13.3991 845 115.17 272.921 482.146
1035 0 67.0895 13.4447 902 115.588 272.631 480.511
1036 0 68.0872 13.2477 902 116.356 272.324 482.143
1037 0 71.0794 13.9 988 115.2 272.724 478.483
1038 0 73.0262 13.2555 968 118.409 272.318 478.289
1039 0 74.1193 13.3703 991 119.555 272.872 477.589
1040 0 76.0827 13.3276 1014 119.76 272.324 476.716
1041 0 78.2841 14.0514 1100 119.683 272.187 473.778
1042 0 81.0541 12.9913 1053 122.119 272.797 474.472
1043 0 85.0717 14.9403 1271 117.282 272.913 471.435
1044 0 89.0768 14.8411 1322 117.737 272.789 470.742
1045 0 90.239 14.6278 1320 119.173 272.234 469.472
1046 0 92.0529 13.3836 1232 124.45 273.035 468.162
1047 0 97.0764 13.5872 1319 121.362 272.493 466.375
1048 1 48.0358 11.4914 552 126.554 271.692 490.645
1049 0 50.0292 12.3128 616 122.602 271.125 489.495
1050 0 52.0145 13.2271 688 119.688 271.714 487.747
1051 0 52.0522 12.0648 628 120.936 272.4 488.919
1052 0 53.0561 12.1004 642 121.04 272.332 488.477
1053 0 55.0327 12.9559 713 119.229 272.529 487.234
1054 0 58.0312 12.476 724 119.151 272.512 486.767
1055 0 60.0564 12.4883 750 118.828 272.583 484.571
1056 0 62.0662 13.3728 830 115.441 272.506 484.671
1057 0 63.0717 12.3352 778 117.266 272.591 484.771
1058 0 63.0376 12.3577 779 119.105 272.264 481.327
1059 0 66.0694 11.5485 763 120.262 271.992 482.95
1060 0 69.0606 11.7288 810 116.57 271.347 478.457
1061 0 72.0852 13.054 941 114.184 271.116 477.4
1062 0 75.0988 12.9829 975 115.336 272.531 477.721
1063 0 76.1168 13.1508 1001 116.409 271.96 477.105
1064 0 80.1013 12.1346 972 116.78 272.437 478.171
1065 0 82.1185 12.3115 1011 118.802 271.803 474.24
1066 0 86.1032 12.0785 1040 118.565 271.608 471.686
1067 0 87.1097 12.6966 1106 116.343 272.71 473.193
1068 0 90.1303 12.138 1094 118.919 272.367 469.972
1069 0 93.1286 11.9512 1113 118.087 272.447 470.897
1070 0 98.1739 11.8056 1159 117.795 272.295 467.39
1071 1 51.1673 11.0617 566 115.106 271.975 488.058
1072 0 54.09 11.9985 649 112.248 271.39 487.325
1073 0 53.0563 11.9496 634 114.076 271.413 486.013
1074 0 55.0848 11.8181 651 111.894 271.733 485.206
1075 0 57.1335 12.5321 716 109.946 271.959 483.758
1076 0 58.0315 12.6483 734 109.933 271.948 483.087
1077 0 62.0514 13.3599 829 106.946 272.922 482.935
1078 0 62.0221 11.9796 743 111.017 273.266 482.68
1079 0 65.0893 12.214 795 111.528 273.119 479.735
1080 0 68.067 13.046 888 110.907 273.3 480.051
1081 0 71.074 13.5211 961 107.074 272.952 479.289
1082 0 72.1107 11.7042 844 112.159 273.252 479.025
1083 0 75.1495 12.5217 941 111.359 273.298 477.283
1084 0 78.0838 13.6904 1069 108.491 273.534 475.438
1085 0 80.071 12.8136 1026 111.587 272.731 474.194
1086 0 84.1851 13.506 1137 109.802 272.699 471.987
1087 0 85.1716 12.739 1085 112.495 272.414 472.201
1088 1 46.0614 11.0287 508 114.496 272.766 492.207
1089 0 50.117 12.0318 603 112.524 272.862 489.614
1090 0 49.0752 11.676 573 115.538 272.068 488.372
1091 0 50.0563 13.3849 670 106.961 272.742 487.942
1092 0 52.1684 12.2488 639 110.246 273.355 488.095
1093 0 53.1034 12.6922 674 109.991 273.082 485.758
1094 0 54.113 12.5663 680 111.725 272.635 486.497
1095 0 57.099 13.2927 759 108.682 271.916 484.256
1096 0 60.1095 12.8931 775 107.952 271.741 484.788
1097 0 61.2422 12.9486 793 107.99 272.67 484.813
1098 0 63.0581 13.5272 853 106.47 272.278 481.877
1099 0 64.2231 11.8493 761 111.48 272.009 481.105
1100 0 68.2017 13.5481 924 106.838 271.018 478.234
1101 0 67.1464 12.4504 836 109.874 273.016 480.707
1102 0 71.1404 13.888 988 105.495 272.837 477.639
1103 0 74.2088 13.0712 970 107.425 273.025 479.557
1104 0 73.2613 12.5168 917 110.529 272.684 475.579
1105 0 78.2307 12.8083 1002 107.752 272.558 475.185
1106 0 83.1794 13.6572 1136 104.382 272.097 475.035
1107 0 85.1459 12.7781 1088 107.567 272.104 472.474
1108 0 87.2558 11.919 1040 109.332 272.353 472.247
1109 1 47.103 9.82953 463 110.749 272.801 491.894
1110 0 48.1105 11.7438 565 107.531 272.503 491.037
1111 0 52.0894 12.6513 659 102.349 272.539 489.829
1112 0 55.0812 12.1639 670 102.051 272.027 486.997
1113 0 52.0363 11.9916 624 106.503 271.455 486.546
1114 0 56.0774 12.6432 709 104.814 273.059 487.471
1115 0 58.0605 12.177 707 106.27 272.75 486.898
1116 0 58.0618 11.9356 693 108.437 272.421 485.582
1117 0 60.0565 12.5881 756 108.21 272.04 484.021
1118 0 63.1796 11.5069 727 110.832 272.51 483.911
1119 0 64.0304 12.0255 770 111.314 272.545 482.401
1120 0 67.1101 12.4273 834 110.071 272.773 482.369
1121 0 68.0959 11.7628 801 111.583 272.402 483.361
1122 0 69.0227 12.112 836 112.882 272.089 480.602
1123 0 72.0966 12.6913 915 111.254 272.927 479.386
1124 0 73.1004 12.0793 883 115.334 272.643 476.539
1125 0 79.153 14.0614 1113 110.582 272.434 475.763
1126 0 81.1641 12.5548 1019 114.135 272.223 475.246
1127 0 83.0882 13.5158 1123 113.265 272.866 472.266
1128 0 86.1043 13.8321 1191 112.733 272.312 471.056
1129 0 91.1462 13.4619 1227 112.513 270.913 468.746
1130 1 47.0568 11.178 526 117.924 271.688 491.337
1131 0 48.0486 12.196 586 115.399 272.015 490.874
1132 0 51.0867 13.0758 668 116.734 271.37 488.407
1133 0 50.0377 12.4506 623 122.7 271.067 488.085
1134 0 53.0422 12.7823 678 119.631 270.799 487.392
1135 0 55.0435 11.4273 629 123.973 271.06 487.458
1136 0 57.0383 12.7283 726 121.488 271.35 486.198
1137 0 58.0646 12.555 729 122.309 271.333 484.325
1138 0 59.0145 13.7085 809 119.843 271.492 484.267
1139 0 62.0774 12.3717 768 122.642 271.517 483.996
1140 0 62.0489 12.7158 789 123.022 271.474 482.966
1141 0 64.0783 12.1882 781 124.088 271.554 483.079
1142 0 66.0466 12.6426 835 122.042 271.877 481.478
1143 0 70.0723 13.0865 917 120.164 271.951 480.405
1144 0 70.0688 12.7303 892 120.902 272.252 478.772
1145 0 74.1265 13.8007 1023 115.467 271.961 478.904
1146 0 75.1447 12.1632 914 118.004 272.667 478.204
1147 0 78.1721 12.3957 969 117.407 271.769 474.959
1148 0 80.141 12.1161 971 116.997 271.919 474.755
1149 0 83.1268 12.7997 1064 116.304 270.971 472.603
1150 0 86.1765 12.2075 1052 118.216 270.82 470.894
1151 0 88.3228 12.3864 1094 119.238 270.547 471.133
1152 0 92.1924 13.8515 1277 116.206 270.896 467.392
1153 0 95.22 11.9513 1138 120.023 271.12 467.158
1154 1 51.2816 12.1681 624 117.296 270.928 487.332
1155 0 52.2466 11.9434 624 116.364 271.154 487.269
1156 0 53.0856 12.9602 688 114.682 271.844 486.237
1157 0 54.0413 12.4534 673 111.716 270.59 485.193
1158 0 56.0796 12.2148 685 111.737 272.25 485.946
1159 0 58.1125 12.0112 698 111.477 272.269 487.938
1160 0 59.0927 12.5396 741 112.298 272.007 484.757
1161 0 60.1518 11.9863 721 115.23 271.945 484.641
1162 0 64.1259 11.992 769 114.244 271.798 484.54
1163 0 64.1426 11.833 759 115.104 272.087 483.344
1164 0 66.1254 12.1436 803 114.367 272.263 482.011
1165 0 67.2153 11.4855 772 115.992 272.337 481.092
1166 0 72.1267 13.0465 941 111.492 272.39 479.749
1167 0 74.1701 13.1994 979 111.454 272.21 478.027
1168 0 74.0789 12.7567 945 113.722 272.386 475.961
1169 0 77.126 12.9269 997 113.956 272.139 475.838
1170 0 81.1781 13.1809 1070 112.636 272.272 474.979
1171 0 83.2086 12.4506 1036 114.347 270.88 472.73
1172 0 85.2393 11.9077 1015 115.166 271.16 470.969
1173 0 86.1778 11.4531 987 117.707 271.217 469.414
1174 1 45.109 11.1729 504 114.052 271.151 490.675
1175 0 47.0776 10.3234 486 115.735 271.922 491.73
1176 0 46.0722 11.3735 524 117.193 272.546 490.124
1177 0 51.0547 13.1819 673 110.159 272.079 489.759
1178 0 50.0569 12.0063 601 114.369 272.424 489.903
1179 0 53.0715 13.3028 706 109.559 271.932 488.888
1180 0 54.0409 12.3055 665 112.764 271.556 487.925
1181 0 56.0931 12.5506 704 112.477 271.798 487.822
1182 0 57.1991 12.9722 742 111.674 272.066 485.632
1183 0 58.1079 11.8056 686 114.853 272.242 484.92
1184 0 60.1851 12.1791 733 112.241 272.156 484.505
1185 0 64.1332 13.2848 852 110.359 271.773 482.251
1186 0 64.2448 12.4835 802 111.622 270.675 478.228
1187 0 69.0299 13.4724 930 109.525 271.126 481.325
1188 0 70.0578 12.7752 895 111.802 271.351 479.972
1189 0 73.0192 13.3116 972 110.727 271.421 477.864
1190 0 75.0402 13.5794 1019 110.711 272.081 477.008
1191 0 76.0837 12.3942 943 114.87 272.354 475.29
1192 0 80.0927 12.3732 991 112.537 271.669 473.378
1193 0 83.1682 12.4687 1037 115.234 271.214 470.935
1194 0 86.1839 14.0746 1213 112.147 270.598 469.916
1195 1 45.0934 11.1768 504 122.635 270.78 489.952
1196 0 49.0389 12.2148 599 118.748 271.227 489.603
1197 0 48.035 11.6582 560 122.862 272.571 488.993
1198 0 50.0993 12.6349 633 120.499 271.899 487.682
1199 0 52.1324 12.545 654 115.667 272.806 487.844
1200 0 52.0948 11.2295 585 114.571 273.123 486.791
1201 0 55.0335 12.8649 708 108.381 272.651 487.869
1202 0 56.0547 11.7029 656 111.523 272.921 487.387
1203 0 58.0545 12.5399 728 109.989 272.636 485.451
1204 0 60.0884 13.6799 822 106.176 272.111 484.327
1205 0 61.1215 12.0743 738 109.95 271.985 484.373
1206 0 64.1452 12.0352 772 110.088 272.255 482.722
1207 0 65.0391 11.7775 766 111.569 271.919 482.739
1208 0 69.1022 12.5032 864 109.376 271.775 481.204
1209 0 72.1459 13.1123 946 107.56 272.17 478.981
1210 0 72.0602 12.9753 935 109.92 271.888 477.595
1211 0 74.0581 12.7468 944 110.101 272.139 477.847
1212 0 77.0491 13.1604 1014 109.601 271.55 476.752
1213 0 79.0752 11.5333 912 114.708 271.582 474.425
1214 0 80.2647 12.6457 1015 113.132 271.804 473.447
1215 0 84.1009 12.4969 1051 113.671 271.991 470.376
1216 0 87.0847 13.4467 1171 110.168 271.615 470.042
1217 0 88.1529 12.2288 1078 114.207 271.952 469.812
1218 0 93.1192 14.2935 1331 110.02 271.612 466.501
1219 1 49.0358 11.2979 554 111.455 271.931 489.774
1220 0 52.0952 12.266 639 111.074 271.166 487.574
1221 0 54.1534 12.0768 654 111.855 271.356 486.066
1222 0 55.0665 12.0218 662 111.811 271.136 487.153
1223 0 58.0683 12.0203 698 111.777 271.686 487.208
1224 0 58.0717 11.9335 693 113.039 271.899 485.644
1225 0 61.0711 12.3135 752 112.152 272.015 482.524
1226 0 63.1812 11.8073 746 112.239 272.239 482.777
1227 0 67.0678 12.7334 854 109.878 272.632 482.363
1228 0 67.1491 11.3032 759 113.393 272.717 481.432
1229 0 71.0897 12.2803 873 111.317 272.509 479.087
1230 0 74.1156 13.2361 981 108.956 272.912 476.319
1231 0 73.1647 12.2737 898 111.095 272.845 477.282
1232 0 77.124 12.8624 992 110.035 272.237 475.963
1233 0 81.1129 12.2299 992 112.327 272.404 475.155
1234 0 83.1831 12.3583 1028 112.932 272.236 473.313
1235 0 85.2089 12.5926 1073 113.327 271.844 470.76
1236 0 90.0966 13.086 1179 111.818 272.343 469.985
1237 1 48.0552 11.029 530 112.434 273.104 492.094
1238 0 47.027 10.9512 515 113.876 272.845 490.487
1239 0 52.0206 11.9952 624 112.498 272.261 489.159
1240 0 52.2022 11.5512 603 115.585 271.569 486.328
1241 0 55.0761 13.1273 723 108.376 270.671 485.365
1242 0 54.0653 12.2999 665 112.935 270.967 484.938
1243 0 56.0477 12.0612 676 114.198 271.166 482.984
1244 0 57.1816 12.3117 704 111.558 272.341 486.555
1245 0 59.1397 11.8702 702 113.785 271.422 485.275
1246 0 61.0928 12.882 787 112.089 271.44 483.723
1247 0 63.0945 13.7413 867 111.679 271.321 481.92
1248 0 66.159 13.1199 868 112.705 271.362 482.558
1249 0 66.0549 13.292 878 113.932 271.655 479.923
1250 0 68.0485 11.8592 807 117.745 271.409 478.413
1251 0 69.2479 13.1123 908 113.72 271.351 479.906
1252 0 73.2608 14.346 1051 110.371 270.853 478.288
1253 0 74.1643 11.5689 858 113.902 271.1 476.493
1254 0 78.1218 12.7877 999 112.334 270.503 473.891
1255 0 79.0962 12.7313 1007 113.632 270.56 473.189
1256 0 82.0752 13.2318 1086 114.134 271.334 469.532
1257 0 85.2019 12.8636 1096 115.085 270.864 468.07
1258 0 89.1388 13.1929 1176 114.686 271.052 467.673
1259 0 90.1042 12.4079 1118 118.832 271.195 465.385
1260 0 95.163 13.1038 1247 118.174 271.311 466.801
1261 1 51.1955 11.3682 582 117.019 271.211 487.134
1262 0 54.1375 11.951 647 116.901 270.369 485.444
1263 0 56.1484 13.8561 778 111.018 270.581 484.882
1264 0 57.2586 12.6444 724 114.644 270.916 484.014
1265 0 60.1862 13.0927 788 113.119 270.486 483.362
1266 0 59.1152 12.5179 740 116.715 270.089 482.43
1267 0 62.1436 12.793 795 115.808 270.62 481.519
1268 0 63.1185 12.7221 803 116.883 271.125 480.7
1269 0 66.1692 12.468 825 116.43 271.542 479.984
1270 0 68.0694 12.7811 870 115.808 270.737 479.748
1271 0 71.2458 12.885 918 114.93 271.173 479.483
1272 0 73.1553 12.6443 925 116.096 271.656 477.954
1273 0 74.1351 12.8549 953 116.48 270.87 474.63
1274 0 78.103 12.5731 982 116.779 271.095 474.496
1275 0 80.1555 13.0871 1049 115.15 271.266 471.168
1276 0 83.0497 12.643 1050 115.46 271.207 472.28
1277 0 86.0715 13.3029 1145 114.293 272.413 467.354
1278 0 91.0967 12.3824 1128 115.595 272.642 468.618
1279 1 47.0533 10.0737 474 117.063 272.833 490.962
1280 0 49.0775 11.5328 566 115.634 272.615 489.048
1281 0 50.0786 11.2024 561 124.462 272.633 487.971
1282 0 53.1046 12.4471 661 121.601 273.408 486.198
1283 0 54.1058 13.3997 725 119.31 272.188 484.578
1284 0 57.0947 13.5914 776 116.755 272.341 485.602
1285 0 58.0501 13.2127 767 118.963 272.522 484.189
1286 0 60.0447 12.6406 759 110.076 272.003 477.573
1287 0 60.2586 12.5127 754 109.336 271.785 478.934
1288 0 61.1962 12.3864 758 109.722 271.413 478.07
1289 0 64.249 12.0313 773 110.238 271.605 478.741
1290 0 67.2464 12.9524 871 107.615 270.966 475.91
1291 0 68.1306 12.6815 864 110.28 271.079 475.06
1292 0 72.2333 13.1657 951 109.259 271.534 474.143
1293 0 74.2237 13.85 1028 107.592 271.392 474.171
1294 0 77.1188 13.5246 1043 108.317 271.597 473.088
1295 0 79.0592 13.0662 1033 109.005 271.708 475.556
1296 0 81.1539 14.0104 1137 109.172 271.833 471.008
1297 0 83.0816 13.9622 1160 109.852 271.726 468.886
1298 0 87.1677 13.5945 1185 110.938 272.424 470.034
1299 0 88.1054 13.0298 1148 114.449 272.028 468.943
1300 0 92.1345 13.3283 1228 114.101 272.322 466.074
1301 0 98.2397 12.9886 1276 113.691 271.143 466.699
1302 0 100.298 13.5496 1359 112.513 271.907 465.139
1303 1 52.0602 10.5263 548 112.15 271.916 487.035
1304 0 55.1257 12.4987 689 107.514 271.02 485.292
1305 0 55.0512 11.898 655 109.252 271.388 485.005
1306 0 59.107 12.9257 764 104.81 272.22 482.295
1307 0 60.1184 12.6084 758 106.893 271.871 481.07
1308 0 64.077 13.4838 864 103.65 271.631 481.141
1309 0 66.0683 12.5476 829 106.203 271.528 481.484
1310 0 68.0579 11.7988 803 108.087 272.405 480.024
1311 0 70.0414 13.1494 921 106.212 272.261 478.389
1312 0 71.0963 13.32 947 106.624 272.375 475.165
1313 0 73.0992 11.9974 877 108.382 272.317 477.178
1314 0 78.1001 13.137 1026 106.124 271.842 474.883
1315 0 78.112 12.3285 963 110.019 271.869 474.309
1316 0 82.1237 13.1387 1079 107.563 271.821 475.79
1317 0 84.1035 13.198 1110 109.827 271.513 470.086
1318 0 86.0501 12.4579 1072 113.148 271.311 469.904
1319 0 90.2685 13.8365 1249 111.226 271.846 466.419
1320 0 91.2571 12.2401 1117 115.885 271.628 464.603
1321 0 94.1434 14.3292 1349 111.671 271.753 462.03
1322 0 96.3808 12.5751 1212 116.247 272.219 463.306
1323 0 98.2391 12.378 1216 117.529 271.579 457.924
1324 0 104.308 13.7094 1430 113.813 272.031 457.292
1325 0 108.29 13.6763 1481 113.863 272.563 454.1
1326 0 112.262 13.6378 1531 114.088 272.574 454.257
1327 0 115.37 13.279 1532 116.494 271.525 450.688
1328 0 119.313 13.1503 1569 116.678 271.714 447.879
1329 1 64.2187 12.0214 772 109.145 271.791 477.543
1330 0 66.2589 11.8324 784 109.925 272.083 475.659
1331 0 69.1669 12.2891 850 109.789 271.655 475.839
1332 0 72.0983 11.9282 860 109.527 272.415 475.738
1333 0 74.2524 12.3902 920 109.461 272.35 474.143
1334 0 75.1289 12.1125 910 111.077 271.951 472.845
1335 0 80.1101 12.6826 1016 110.133 271.986 474.415
1336 0 83.1312 11.9329 992 111.953 271.564 473.037
1337 0 84.2341 12.2753 1034 111.603 271.85 471.115
1338 0 89.1501 13.281 1184 110.247 271.219 467.3
1339 0 92.3881 12.1011 1118 113.012 271.758 464.928
1340 0 94.3242 13.8141 1303 110.057 271.824 460.76
1341 0 99.1898 13.0457 1294 110.712 272.291 462.477
1342 0 100.23 11.9026 1193 115.055 272.655 457.559
1343 0 104.265 12.8039 1335 112.516 272.369 456.804
1344 1 56.12 10.5666 593 104.474 273.037 484.447
1345 0 57.2116 10.6797 611 105.074 273.157 482.021
1346 0 58.054 10.2835 597 107.253 271.925 481.586
1347 0 60.1155 10.7127 644 105.39 272.669 482.769
1348 0 62.1695 10.2623 638 106.868 270.876 481.765
1349 0 65.0931 12.0443 784 104.473 270.69 478.761
1350 0 65.065 11.0659 720 107.574 270.329 479.262
1351 0 67.057 11.4828 770 106.931 270.305 478.417
1352 0 70.0771 11.9297 836 106.673 271.506 478.445
1353 0 71.1008 10.2812 731 108.867 271.788 478.948
1354 0 76.0986 13.2197 1006 102.63 271.74 475.592
1355 0 76.0694 10.8848 828 109.012 272.217 475.178
1356 0 77.0631 11.536 889 109.258 271.514 473.161
1357 0 81.1073 12.0581 978 107.914 271.862 473.097
1358 0 84.0951 11.594 975 109.611 272.205 471.314
1359 0 87.1149 12.1793 1061 108.964 272.201 468.38
1360 0 91.1456 11.9589 1090 110.07 271.629 468.318
1361 0 93.0736 11.8079 1099 111.096 271.358 468.285
1362 1 50.0484 12.0284 602 103.892 271.585 489.864
1363 0 51.0569 10.2043 521 108.213 272.516 488.476
1364 0 53.0612 10.8177 574 107.854 272.244 486.493
1365 0 53.0592 11.7416 623 105.947 271.443 484.456
1366 0 58.1349 12.4366 723 102.639 271.183 486.237
1367 0 59.1314 11.8211 699 104.813 271.468 485.445
1368 0 61.1292 12.1873 745 104.117 271.111 484.501
1369 0 61.0368 12.2385 747 104.992 271.307 484.609
1370 0 62.0824 11.8069 733 107.357 270.573 482.45
1371 0 66.0604 12.1404 802 106.317 271.284 480.203
1372 0 70.0333 13.1081 918 103.864 271.005 479.134
1373 0 71.0623 12.4679 886 106.264 270.941 479.599
1374 0 74.0731 13.1492 974 104.032 271.066 478.69
1375 0 76.1322 13.2401 1008 104.353 270.953 476.899
1376 0 76.0503 11.2294 854 110.971 271.282 475.555
1377 0 79.0684 12.9255 1022 107.01 270.739 474.111
1378 0 83.0877 13.3233 1107 106.397 271.242 472.618
1379 0 83.0775 13.2647 1102 139.333 272.247 472.582
1380 0 87.0591 12.6006 1097 111.927 271.626 467.973
1381 0 92.0808 12.9886 1196 110.813 271.379 467.114
1382 0 93.2007 11.7059 1091 111.465 271.943 467.037
1383 1 49.2308 11.9844 590 105.849 272.693 489.193
1384 0 53.1473 14.488 770 96.2416 272.797 485.664
1385 0 52.0907 12.4206 647 104.359 273.046 487.247
1386 0 53.0287 11.6918 620 106.139 272.258 487.782
1387 0 54.0244 12.8645 695 105.042 272.037 485.849
1388 0 57.053 12.3569 705 104.511 272.044 487.579
1389 0 57.0723 12.1775 695 105.999 271.835 486.387
1390 0 59.0693 12.3076 727 106.333 272.184 485.421
1391 0 60.1443 11.3394 682 108.529 271.806 485.817
1392 0 62.049 12.4418 772 105.975 271.58 483.08
1393 0 64.1248 11.8675 761 107.325 271.283 483.23
1394 0 65.0925 12.1366 790 107.916 271.354 481.606
1395 0 67.1335 11.857 796 109.011 271.876 480.49
1396 0 70.0467 12.82 898 106.806 271.122 479.933
1397 0 71.0248 12.7561 906 108.088 271.259 478.146
1398 0 75.0516 12.7779 959 106.628 271.166 477.46
1399 0 75.0914 12.5314 941 109.311 271.819 476.307
1400 0 79.0442 12.2843 971 110.231 271.447 473.174
1401 0 82.1219 13.2242 1086 109.129 270.383 469.136
1402 0 83.0772 12.0731 1003 112.911 270.683 467.182
1403 0 85.2025 11.5724 986 114.65 270.709 468.215
1404 0 90.1742 12.0877 1090 112.411 271.162 469.475
1405 0 90.1357 11.8821 1071 115.218 270.816 465.908
1406 1 51.0459 11.5974 592 109.863 270.061 486.904
1407 0 51.1052 10.9187 558 110.165 271.694 488.256
1408 0 54.0953 13.3468 722 105.515 272.244 484.526
1409 0 55.0673 11.2408 619 111.457 272.826 482.034
1410 0 55.1002 12.4682 687 107.376 272.36 480.721
1411 0 58.1373 12.6253 734 106.557 271.941 482.143
1412 0 62.0895 13.4966 838 102.789 271.912 482.211
1413 0 63.0999 12.6942 801 104.532 272.392 481.137
1414 0 64.0357 12.3993 794 107.043 271.599 480.421
1415 0 64.1125 13.4607 863 105 270.74 479.75
1416 0 69.1133 13.1234 907 104.181 270.785 479.458
1417 0 68.0287 13.0092 885 107.168 270.476 477.942
1418 0 70.0188 12.4966 875 109.118 270.432 476.254
1419 0 72.0458 12.7558 919 108.779 271.245 474.927
1420 0 75.0574 12.1507 912 110.124 270.947 473.643
1421 0 78.0896 12.6906 991 109.39 270.957 471.73
1422 0 82.0574 13.978 1147 106.103 271.226 471.367
1423 0 82.0822 12.5362 1029 111.983 270.434 469.987
1424 0 83.1134 12.6454 1051 111.424 270.739 468.48
1425 0 87.0819 12.5055 1089 112.287 271.674 467.005
1426 1 47.0478 11.754 553 113.792 272.137 487.376
1427 0 48.078 10.6494 512 113.389 272.867 484.15
1428 0 50.0596 12.2055 611 98.8003 271.596 480.601
1429 0 50.0306 10.7934 540 103.793 271.694 481.593
1430 0 52.1075 12.1096 631 101.426 271.981 480.361
1431 0 50.0328 11.1527 558 106.263 272.665 479.756
1432 0 55.0542 12.2061 672 102.432 273.037 478.418
1433 0 57.145 11.0071 629 105.116 272.035 476.744
1434 0 57.0427 12.3416 704 103.418 272.411 476.47
1435 0 60.1042 12.5282 753 102.963 271.843 474.903
1436 0 61.163 13.4722 824 100.421 271.138 476.25
1437 0 64.0856 12.1244 777 103.525 271.336 474.656
1438 0 66.1003 12.36 817 103.234 271.323 473.918
1439 0 69.1111 14.5418 1005 98.6507 271.708 471.995
1440 0 70.1515 13.1287 921 101.746 271.673 472.679
1441 0 72.091 12.6645 913 103.458 271.535 470.631
1442 0 74.0524 12.8288 950 103.715 271.5 468.634
1443 0 76.1125 13.6771 1041 101.997 271.647 469.563
1444 0 79.219 13.267 1051 103.465 271.733 465.92
1445 0 80.1111 13.1817 1056 104.366 271.943 466.926
1446 0 85.0794 13.1289 1117 104.508 272.175 464.815
1447 0 86.2008 13.5962 1172 105.063 271.84 463.277
1448 0 89.134 13.3731 1192 107.623 271.522 462.449
1449 0 92.3296 13.5384 1250 113.061 271.712 463.682
1450 0 98.211 14.7641 1450 108.728 272.03 459.837
1451 1 49.2217 10.9911 541 117.957 271.723 483.652
1452 0 51.0761 12.824 655 109.415 272.217 480.017
1453 0 51.0983 11.5268 589 112.553 271.73 477.453
1454 0 51.111 11.5631 591 102.179 271.613 479.124
1455 0 53.0404 11.1802 593 104.823 272.454 482.105
1456 0 54.1304 11.9896 649 104.345 272.136 479.812
1457 0 57.0839 12.5079 714 102.204 272.223 480.27
1458 0 58.1418 12.2631 713 103.034 271.753 479.613
1459 0 61.0672 11.8394 723 103.614 271.539 479.776
1460 0 64.1132 12.0412 772 103.872 272.313 475.662
1461 0 66.3084 13.1658 873 101.712 271.778 474.426
1462 0 69.1736 12.6349 874 103.41 271.236 476.098
1463 0 69.1604 12.2758 849 106.325 270.909 475.835
1464 0 72.1632 13.2478 956 106.249 271.258 470.449
1465 0 74.1326 13.0577 968 106.514 272.466 468.7
1466 0 76.2331 11.9371 910 107.627 271.923 469.268
1467 0 81.2173 13.4208 1090 103.04 272.141 469.204
1468 0 84.1768 14.3507 1208 102.428 272.032 465.734
1469 0 87.1513 13.3102 1160 105.01 272.624 465.255
1470 0 89.1851 13.7243 1224 108.444 272.342 466.715
1471 0 91.2579 13.5002 1232 108.9 271.547 463.396
1472 1 47.0878 12.9333 609 109.108 271.172 482.895
1473 0 50.1156 11.3937 571 109.715 271.583 483.081
1474 0 51.101 12.0546 616 108.45 271.369 482.951
1475 0 54.2386 11.7813 639 105.751 271.241 483.767
1476 0 55.2081 12.7699 705 99.834 271.444 483.467
1477 0 58.1895 11.8063 687 99.8792 271.873 484.096
1478 0 60.1209 12.5913 757 99.0132 271.579 480.917
1479 0 62.1725 12.8513 799 99.2115 271.693 479.786
1480 0 63.11 12.4386 785 101.227 271.882 477.682
1481 0 65.11 13.147 856 101.383 272.199 476.397
1482 0 66.1361 11.7183 775 104.543 271.612 475.352
1483 0 70.2176 12.974 911 103.111 271.166 474.546
1484 0 71.1698 13.3905 953 106.232 270.793 474.515
1485 0 74.1607 13.2955 986 106.241 271.225 473.537
1486 0 76.1532 12.5668 957 109.048 271.208 469.897
1487 0 78.1389 12.4138 970 110.203 271.048 470.515
1488 0 82.1988 12.8226 1054 108.383 271.18 469.144
1489 0 86.1454 12.6182 1087 109.341 271.241 466.937
1490 0 86.1415 11.7133 1009 112.037 271.419 466.822
1491 0 91.1446 12.749 1162 109.43 271.132 464.248
1492 0 95.2444 13.6281 1298 109.625 270.971 463.623
1493 0 99.2529 12.5538 1246 112.738 271.203 461.753
1494 1 47.1138 11.3979 537 110.994 272.112 487.002
1495 0 50.0771 11.023 552 112.714 271.292 487.745
1496 0 52.0795 11.4248 595 111.788 271.429 486.534
1497 0 53.1053 11.5808 615 111.782 271.652 487.759
1498 0 57.1725 11.579 662 110.353 271.036 485.544
1499 0 61.0739 12.9515 791 104.874 270.913 484.775
1500 0 59.1509 11.2762 667 110.094 271.064 482.876
1501 0 64.0495 13.1148 840 104.782 270.857 481.404
1502 0 67.1821 11.6251 781 107.886 270.373 480.143
1503 0 69.0667 12.1622 840 105.457 270.774 477.75
1504 0 71.0816 12.5349 891 102.083 270.373 478.979
1505 0 73.0592 11.9903 876 103.855 270.652 478.829
1506 0 73.2139 13.085 958 107.603 271.249 476.806
1507 0 74.2434 12.4186 922 109.124 271.346 479.191
1508 0 75.0793 12.5334 941 110.776 271.121 476.004
1509 0 74.0822 12.2702 909 113.039 270.935 475.482
1510 0 79.1028 12.9325 1023 111.411 270.988 475.431
1511 0 81.1518 12.7785 1037 111.386 270.301 472.84
1512 0 83.2422 11.8209 984 113.319 269.993 473.358
1513 0 85.1533 13.2467 1128 109.898 270.059 468.27
1514 0 89.16 13.4589 1200 107.811 270.484 470.143
1515 0 93.1773 13.6407 1271 106.357 270.238 468.147
1516 0 94.1871 12.6026 1187 109.73 270.568 466.246
1517 1 52.1043 11.0356 575 108.63 270.101 486.991
1518 0 54.0691 11.6518 630 106.181 270.849 486.921
1519 0 58.0947 12.3247 716 105.327 271.003 485.619
1520 0 58.0707 12.1748 707 104.475 271.075 485.008
1521 0 59.0904 12.8278 758 104.344 271.393 485.289
1522 0 61.0768 12.0177 734 106.713 271.202 482.523
1523 0 63.1024 13.3909 845 104.946 271.815 481.651
1524 0 64.0467 12.0537 772 108.653 270.953 483.202
1525 0 68.0968 12.1738 829 108.351 270.981 480.923
1526 0 70.0974 12.4684 874 108.367 271.133 481.55
1527 0 71.0662 12.1436 863 111.637 270.84 479.092
1528 0 73.0375 12.1855 890 112.202 270.674 478.397
1529 0 73.0552 11.9225 871 116.122 271.046 476.312
1530 0 77.115 12.3971 956 115.596 271.533 477.138
1531 0 79.0699 12.002 949 119.442 270.848 475.315
1532 0 80.081 12.3999 993 119.274 270.404 476.244
1533 0 84.0858 12.7013 1068 120.749 270.411 473.623
1534 0 87.0899 12.7914 1114 122.748 270.19 471.873
1535 1 45.0346 11.2358 506 120.528 271.022 491.443
1536 0 47.021 10.9738 516 123.471 270.145 491.211
1537 0 49.0103 11.3446 556 118.237 271.067 488.543
1538 0 50.1825 11.6973 587 119.692 271.487 488.859
1539 0 53.1161 12.1056 643 119.216 271.18 486.885
1540 0 52.089 11.7683 613 121.703 270.318 488.352
1541 0 53.0391 11.6141 616 122.685 269.981 486.414
1542 0 58.0567 12.4017 720 119.476 270.779 486.096
1543 0 58.0645 11.8317 687 121.536 270.489 486.077
1544 0 59.0434 11.9743 707 122.412 269.465 485.706
1545 0 63.0729 12.6045 795 119.859 269.346 482.335
1546 0 64.0464 12.7876 819 120.167 269.65 481.662
1547 0 67.0781 11.8966 798 121.788 269.848 482.747
1548 0 69.0918 13.388 925 118.589 269.111 479.311
1549 0 71.0634 12.2707 872 122.717 269.011 478.88
1550 0 73.0848 12.5881 920 121.942 269.178 475.777
1551 0 75.0589 13.2563 995 120.756 268.836 477.61
1552 0 76.123 12.6637 964 122.442 269.173 477.806
1553 0 79.1318 12.7762 1011 122.617 269.232 474.724
1554 0 82.1262 13.0774 1074 121.901 268.831 473.644
1555 0 83.1339 12.4257 1033 124.667 268.164 471.503
1556 0 86.1519 12.8146 1104 123.921 269.069 471.542
1557 0 87.1962 12.3629 1078 125.928 268.721 468.945
1558 0 92.1245 13.0693 1204 123.703 268.208 468.434
1559 0 96.1169 12.8697 1237 123.855 268.093 466.252
1560 0 99.1252 13.377 1326 122.898 268.765 465.372
1561 0 101.283 13.5857 1376 125.717 268.818 461.235
1562 0 105.233 12.7717 1344 126.679 268.83 458.887
1563 0 109.287 13.0025 1421 125.017 268.502 458.792
1564 1 58.1305 12.4547 724 123.789 268.541 484.271
1565 0 60.1324 11.8073 710 127.892 269.645 484.875
1566 0 61.0911 11.5729 707 118.365 269.29 480.683
1567 0 63.1069 11.9638 755 117.506 269.387 479.093
1568 0 65.1363 12.8039 834 114.954 268.594 478.928
1569 0 67.1327 11.0825 744 119.493 269.704 476.599
1570 0 71.1252 11.8242 841 116.759 269.309 477.065
1571 0 73.0881 12.7654 933 114.651 269.457 476.884
1572 0 75.0912 11.7724 884 117.31 268.964 474.429
1573 0 81.0556 12.0411 976 115.98 268.456 475.114
1574 0 82.039 12.5428 1029 116.397 268.579 473.346
1575 0 87.1585 12.9305 1127 114.394 268.625 473.113
1576 0 88.0969 12.4408 1096 117.254 268.348 471.123
1577 0 92.1101 12.7239 1172 117.893 268.422 469.635
1578 1 50.0601 11.0068 551 113.74 269.062 491.436
1579 0 52.0801 12.3848 645 110.935 269.239 488.881
1580 0 55.1026 11.6147 640 112.116 269.45 487.609
1581 0 57.078 11.4405 653 112.991 269.413 487.426
1582 0 57.1093 12.0646 689 111.99 270.274 486.746
1583 0 60.1924 12.8754 775 109.399 269.828 483.493
1584 0 63.0482 12.197 769 111.763 269.969 484.13
1585 0 65.0695 13.4318 874 108.678 269.589 481.661
1586 0 65.0595 13.3416 868 110.623 268.582 481.158
1587 0 67.0349 12.0385 807 114.766 268.434 479.188
1588 0 70.08 12.1575 852 115.069 268.371 481.149
1589 0 73.0657 14.0422 1026 110.917 269.175 479.126
1590 0 76.1161 14.8852 1133 108.756 268.855 477.592
1591 0 78.0982 13.5983 1062 113.666 268.734 476.512
1592 0 80.1597 14.1343 1133 114.772 268.352 474.346
1593 0 83.0428 12.9211 1073 115.87 268.541 475.719
1594 0 85.1063 13.0425 1110 117.415 269.079 472.382
1595 0 89.1894 12.793 1141 117.647 268.997 473.278
1596 0 88.1117 12.0756 1064 120.798 269.176 470.518
1597 0 93.0845 14.0088 1304 115.584 269.541 470.995
1598 0 97.1169 13.7978 1340 117.169 269.695 468.442
1599 1 48.0124 11.622 558 123.837 270.075 490.833
1600 0 51.105 11.8775 607 119.937 269.868 490.208
1601 0 51.0599 13.4939 689 113.269 270.385 488.985
1602 0 54.1295 12.4701 675 115.476 269.899 488.434
1603 0 55.0545 13.0235 717 113.749 269.752 488.615
1604 0 58.1104 13.0786 760 113.636 269.854 487.638
1605 0 59.0582 13.3936 791 113.544 270.286 487.551
1606 0 60.0757 13.5163 812 113.166 269.927 485.41
1607 0 60.1123 11.8112 710 117.328 269.9 486.014
1608 0 65.1792 14.4985 945 109.581 269.977 481.958
1609 0 64.1174 11.4945 737 117.905 269.833 482.761
1610 0 66.1007 12.3902 819 115.888 269.867 481.394
1611 0 71.2798 14.0012 998 110.559 270.331 481.718
1612 0 74.054 13.5442 1003 111.202 270.266 480.601
1613 0 75.1152 13.7256 1031 112.1 270.003 477.692
1614 0 77.1166 11.8133 911 117.099 270.564 477.332
1615 0 79.1211 13.9154 1101 112.682 269.983 475.461
1616 0 83.1279 14.1228 1174 111.911 270.6 471.562
1617 0 85.0763 13.9757 1189 113.51 270.188 473.029
1618 0 89.1728 13.7037 1222 114.373 269.894 470.777
1619 0 90.1502 13.0116 1173 115.506 269.901 468.609
1620 0 94.1721 12.87 1212 117.319 269.581 464.215
1621 0 98.1866 12.2114 1199 113.557 268.543 461.799
1622 0 99.1409 10.7927 1070 113.971 268.44 464.47
1623 0 102.301 11.4172 1168 110.366 269.223 457.527
1624 1 56.1139 12.3142 691 115.793 269.166 485.547
1625 0 57.1759 13.3448 763 113.684 269.463 483.106
1626 0 61.031 13.6652 834 104.619 269.442 482.561
1627 0 62.0585 13.31 826 106.265 269.644 481.889
1628 0 63.0922 14.0271 885 96.0113 269.861 481.645
1629 0 65.1274 12.6982 827 109.206 269.462 481.109
1630 0 69.1554 13.3323 922 107.72 269.059 481.131
1631 0 72.12 14.3788 1037 106.058 268.649 478.657
1632 0 74.1971 14.1111 1047 106.881 268.583 476.452
1633 0 77.2884 13.2879 1027 109.801 268.313 475.132
1634 0 78.106 13.4305 1049 110.752 268.933 477.354
1635 0 80.104 13.0206 1043 114.318 269.267 471.598
1636 0 84.1615 13.1889 1110 114.303 269.116 472.495
1637 0 87.1309 13.979 1218 113.916 269.039 468.815
1638 1 48.114 13.2602 638 112.049 268.476 490.379
1639 0 47.0563 12.4957 588 115.148 269.002 487.474
1640 0 50.245 13.1556 661 109.042 269.262 489.43
1641 0 52.1321 12.6218 658 110.419 268.995 487.462
1642 0 55.038 13.1 721 108.004 269.218 488.107
1643 0 56.1125 14.4531 811 106.313 269.316 485.256
1644 0 57.0682 12.9669 740 110.214 269.096 485.543
1645 0 59.0365 13.9914 826 108.569 268.713 484.879
1646 0 61.0729 13.1482 803 111.349 268.742 482.436
1647 0 64.122 13.9422 894 108.262 268.374 484.689
1648 0 64.106 14.0081 898 112.462 268.55 480.371
1649 0 68.1968 13.769 939 112.339 268.415 479.846
1650 0 69.1304 13.3227 921 113.435 268.441 479.466
1651 0 71.1001 13.5302 962 115.043 268.319 476.323
1652 0 76.1035 13.8101 1051 112.167 268.62 476.068
1653 0 78.0711 13.8848 1084 114.211 268.903 471.691
1654 0 82.0764 13.4265 1102 114.541 269.176 472.832
1655 0 82.1615 12.8892 1059 117.264 268.792 470.949
1656 0 85.2142 13.6597 1164 115.57 268.948 468.799
1657 0 90.3655 14.1094 1275 114.653 268.882 466.165
1658 0 93.1326 14.3881 1340 114.697 268.197 465.455
1659 0 95.0976 14.2065 1351 116.852 268.395 463.286
1660 0 98.2127 13.0431 1281 120.161 268.352 464.369
1661 1 51.1126 12.1888 623 118.236 268.063 484.872
1662 0 55.1179 13.0266 718 116.914 268.196 481.078
1663 0 58.1305 14.3126 832 114.389 268.52 479.595
1664 0 58.1815 13.2173 769 118.205 268.709 480.352
1665 0 63.1608 13.996 884 115.202 267.967 481.523
1666 0 61.143 12.6261 772 123.089 268.044 481.01
1667 0 64.0967 13.0428 836 120.848 267.833 481.079
1668 0 67.143 13.0021 873 120.53 268.005 479.677
1669 0 69.1295 12.8165 886 122.909 268.784 478.296
1670 0 73.2479 13.3383 977 121.609 268.406 476.855
1671 0 72.1554 12.2236 882 125.396 268.482 474.297
1672 0 76.1295 13.2669 1010 123.252 267.931 472.54
1673 0 78.3201 13.1256 1028 124.888 268.422 472.008
1674 0 82.1386 14.1103 1159 122.273 268.214 470.77
1675 0 85.2154 13.9646 1190 123.719 268.367 469.771
1676 0 87.3342 13.3739 1168 126.074 268.382 468.922
1677 0 89.1102 12.9951 1158 127.437 268.507 466.971
1678 0 94.2408 13.1366 1238 126.465 268.83 465.779
1679 0 96.2463 13.7252 1321 126.064 268.25 461.46
1680 0 99.2471 13.7737 1367 126.307 268.177 460.54
1681 0 104.155 14.248 1484 123.555 267.702 459.367
1682 0 107.211 13.3755 1434 126.844 268.414 456.227
1683 0 113.202 13.9661 1581 124.555 268.774 454.327
1684 1 61.0871 12.5559 767 121.065 268.167 481.682
1685 0 61.1022 11.4398 699 127.044 269.29 480.209
1686 0 65.0805 12.6766 825 121.152 268.782 482.96
1687 0 68.0948 12.8351 874 120.059 268.832 481.84
1688 0 70.0309 12.4088 869 121.968 269.442 480.728
1689 0 73.053 13.3191 973 119.495 268.871 480.625
1690 0 73.0626 12.3182 900 124.718 269.496 478.903
1691 0 77.0985 12.5165 965 124.314 269.687 475.596
1692 0 80.1545 13.1496 1054 122.909 269.356 475.778
1693 0 82.1207 12.8469 1055 124.086 269.487 473.781
1694 0 87.1145 13.4765 1174 121.399 268.564 473.291
1695 0 87.1269 10.5249 917 128.607 268.373 473.288
1696 0 91.1665 13.7551 1254 120.344 268.803 468.045
1697 0 95.3894 13.0727 1247 121.403 268.454 466.858
1698 0 98.411 12.9152 1271 122.448 269.13 464.59
1699 0 100.338 12.7867 1283 123.924 269.184 461.564
1700 0 103.217 13.4959 1393 121.918 268.984 459.7
1701 0 107.209 13.1426 1409 122.895 269.329 457.684
1702 0 111.241 12.5673 1398 123.778 268.816 458.088
1703 0 115.11 13.1613 1515 121.193 269.059 454.384
1704 1 60.1867 11.3314 682 116.022 269.962 478.399
1705 0 62.0371 11.606 720 113.732 269.681 478.619
1706 0 63.0782 12.0327 759 113.955 269.345 477.041
1707 0 66.1172 12.3417 816 112.096 268.685 478.256
1708 0 69.0593 11.5408 797 114.521 268.629 476.494
1709 0 69.0959 11.0716 765 115.847 269.544 476.559
1710 0 71.1127 11.756 836 116.594 268.379 473.907
1711 0 76.1935 12.5732 958 113.6 268.116 474.748
1712 0 77.178 12.8016 988 114.971 268.639 473.124
1713 0 80.0923 13.6343 1092 113.415 268.825 472.799
1714 0 82.2146 12.7593 1049 115.862 268.873 471.771
1715 0 83.1038 13.1041 1089 115.246 268.65 470.901
1716 0 87.1533 12.2657 1069 119.914 268.328 465.862
1717 0 89.1081 12.9955 1158 118.342 268.911 465.261
1718 0 92.249 13.4852 1244 117.777 268.978 463.749
1719 0 97.1346 13.4864 1310 116.845 268.913 465.065
1720 0 97.2041 12.983 1262 126.048 268.838 460.094
1721 0 103.354 14.1069 1458 117.395 268.591 462.615
1722 0 105.232 13.4465 1415 118.633 268.568 457.494
1723 1 59.0948 10.7454 635 122.573 268.424 482.569
1724 0 62.0549 12.5695 780 116.435 268.951 484.069
1725 0 63.0616 12.242 772 119.181 269.222 484.141
1726 0 65.1407 12.6035 821 114.631 270.076 482.777
1727 0 68.2049 11.5827 790 112.457 269.581 480.506
1728 0 70.1086 12.5662 881 110.467 269.371 476.998
1729 0 72.1497 12.4602 899 110.721 269.635 475.026
1730 0 74.1228 13.2888 985 108.293 269.204 475.196
1731 0 76.1037 13.2188 1006 109.861 269.324 472.571
1732 0 81.1549 12.852 1043 109.081 269.631 474.487
1733 0 82.1885 13.104 1077 109.472 270.303 473.141
1734 0 84.0965 12.6165 1061 112.123 270.455 470.293
1735 0 88.107 13.4382 1184 110.104 269.769 467.02
1736 0 90.1511 13.1335 1184 111.497 269.453 466.851
1737 0 93.1086 12.8989 1201 111.822 269.765 467.128
1738 0 96.1352 13.9387 1340 109.701 269.203 463.6
1739 0 98.1933 12.3328 1211 113.141 268.581 462.046
1740 0 100.157 12.3406 1236 113.022 269.062 463.046
1741 0 103.141 11.8673 1224 115.319 268.772 459.225
1742 1 56.0666 11.7004 656 109.916 268.916 482.863
1743 0 57.0853 11.1412 636 109.786 269.217 484.403
1744 0 59.1296 13.4112 793 111.358 269.728 482.158
1745 0 61.0819 12.6551 773 112.335 269.405 481.323
1746 0 63.1558 12.1762 769 106.365 269.287 478.797
1747 0 65.1378 11.7904 768 106.582 269.013 478.358
1748 0 68.1116 14.1092 961 100.622 268.748 476.522
1749 0 71.0598 12.1306 862 103.624 268.907 476.969
1750 0 73.1798 12.8451 940 102.214 269.307 473.132
1751 0 73.1157 12.0631 882 104.172 268.991 473.806
1752 0 78.0432 11.4424 893 103.409 269.466 474.525
1753 0 79.0568 11.9155 942 103.58 269.4 471.515
1754 0 83.1302 12.4503 1035 101.806 269.178 468.577
1755 0 86.1299 13.1313 1131 100.432 268.98 468.912
1756 0 88.0822 12.2159 1076 101.614 268.757 466.629
1757 0 91.0859 12.2192 1113 101.614 267.982 467.823
1758 0 96.0852 12.0622 1159 101.908 268.462 465.513
1759 0 97.1881 12.6456 1229 102.49 268.306 460.845
1760 0 100.178 11.9088 1193 103.606 269.208 462.179
1761 0 104.055 12.849 1337 101.554 268.855 460.933
1762 0 107.154 12.0574 1292 101.695 268.563 458.025
1763 1 59.1041 11.7081 692 103.263 269.029 486.906
1764 0 60.0635 13.0529 784 103.499 268.903 483.718
1765 0 63.1307 12.9256 816 98.2304 269.261 482.729
1766 0 65.1395 12.3427 804 101.869 269.659 482.81
1767 0 67.1602 11.7629 790 100.348 269.049 481.938
1768 0 70.171 12.7831 897 97.8495 269.23 481.048
1769 0 70.0831 11.7717 825 101.773 268.852 478.967
1770 0 73.1223 13.3612 977 100.049 268.62 475.688
1771 0 76.0781 11.8168 899 103.125 269.538 478.253
1772 0 81.1594 12.2598 995 102.743 269.105 475.975
1773 0 83.1663 14.2486 1185 100.089 269.213 472.481
1774 0 83.0909 12.0109 998 107.284 269.414 472.881
1775 0 86.1805 13.1004 1129 104.599 268.889 469.469
1776 0 89.0913 12.5826 1121 106.832 269.26 469.397
1777 0 96.2229 14.9133 1435 100.834 269.159 467.854
1778 0 98.3548 14.2037 1397 103.472 269.448 468.579
1779 0 99.1446 12.6179 1251 109.463 269.114 465.35
1780 0 103.227 12.8746 1329 111.324 268.764 462.995
1781 1 56.2488 13.1203 738 106.904 268.001 484.73
1782 0 58.0868 12.9289 751 108.103 268.73 483.309
1783 0 59.0782 12.4581 736 109.982 268.058 482.569
1784 0 61.115 12.7301 778 111.06 268.26 478.82
1785 0 63.2698 12.6285 799 111.533 268.902 479.716
1786 0 66.0811 12.6965 839 113.272 268.224 480.119
1787 0 66.0811 12.6662 837 146.465 267.226 480.165
1788 0 70.1537 12.3728 868 115.29 267.999 478.487
1789 0 75.3529 13.4169 1011 112.162 268.249 466.354
1790 0 76.2347 12.5271 955 114.78 268.169 472.711
1791 0 78.1611 12.4486 973 115.152 268.601 475.872
1792 0 80.2301 12.8879 1034 116.78 268.325 472.678
1793 0 83.1936 12.8616 1070 116.479 268.602 471.673
1794 0 85.2077 12.5341 1068 118.243 268.381 469.335
1795 0 88.2941 13.8401 1222 115.955 267.95 467.903
1796 0 93.2308 13.8688 1293 115.899 267.808 466.237
1797 0 95.2364 14.4588 1377 116.225 268.317 463.055
1798 0 100.209 14.5695 1460 114.473 268.13 464.123
1799 0 100.372 13.4002 1345 119.548 268.271 463.343
1800 0 103.318 13.6472 1410 119.118 267.866 461.967
1801 0 106.426 13.3238 1418 120.899 268.247 458.37
1802 0 111.162 14.5914 1622 117.456 268.074 457.489
1803 0 116.226 14.9365 1736 116.462 268.688 453.483
1804 0 117.242 13.6982 1606 119.506 268.751 454.281
1805 1 59.1118 12.9077 763 117.733 268.851 481.055
1806 0 63.1783 12.8525 812 116.15 269.03 480.858
1807 0 65.0951 14.041 914 114.501 269.05 478.385
1808 0 67.1801 12.8461 863 115.848 268.542 477.985
1809 0 71.1213 13.2872 945 113.582 269.231 480.098
1810 0 72.2046 13.5864 981 114.38 268.619 475.091
1811 0 76.1422 12.9232 984 115.061 268.859 475.856
1812 0 78.1046 14.1477 1105 113.388 269.223 473.219
1813 0 79.1265 12.0946 957 119.025 269.389 473.687
1814 0 83.1688 13.4425 1118 116.416 268.765 473.081
1815 0 87.3144 14.1901 1239 117.222 268.487 447.956
1816 0 91.1486 13.4286 1224 119.6 268.488 448.554
1817 0 93.287 13.4209 1252 120.097 268.585 450.162
1818 0 95.3298 14.3082 1364 118.964 268.683 447.965
1819 0 101.525 13.5337 1374 120.509 269.028 447.199
1820 0 103.342 14.6795 1517 118.131 268.047 445.61
1821 0 106.178 14.1648 1504 119.382 268.301 446.82
1822 1 56.1402 12.7894 718 117.109 268.747 470.454
1823 0 57.0453 11.5172 657 119.944 268.359 475.365
1824 0 57.2748 11.8377 678 119.345 268.103 480.04
1825 0 58.0819 12.2241 710 120.768 269.479 478.434
1826 0 62.0283 12.7845 793 117.509 269.425 482.59
1827 0 64.0608 12.7847 819 116.193 269.676 480.996
1828 0 68.0835 13.6009 926 113.766 269.763 479.67
1829 0 69.1075 13.1824 911 115.794 269.589 473.592
1830 0 72.1882 13.4232 969 115.841 269.591 466.314
1831 0 76.1651 11.9215 908 119.959 269.722 464.854
1832 0 78.109 12.8026 1000 118.533 269.659 467.312
1833 0 81.1022 12.7987 1038 119.365 269.218 466.224
1834 0 83.1958 13.4382 1118 118.309 268.826 465.191
1835 0 85.211 13.1321 1119 120.204 269.089 464.878
1836 0 88.0369 12.756 1123 120.274 268.413 465.61
1837 0 88.0918 12.2032 1075 123.7 268.784 463.976
1838 0 93.0746 13.5913 1265 119.325 268.888 463.669
1839 0 97.2771 14.2788 1389 117.317 268.703 464.762
1840 0 99.1711 13.2196 1311 119.728 268.537 463.85
1841 0 104.299 13.6243 1421 117.788 267.932 463.126
1842 0 103.315 11.8763 1227 123.229 268.566 460.504
1843 1 59.3163 10.9751 651 116.662 268.273 484.568
1844 0 61.2272 12.0535 738 114.599 267.692 481.672
1845 0 63.1078 12.1063 764 113.688 268.2 480.673
1846 0 65.1745 13.0879 853 111.416 268.85 479.32
1847 0 67.1286 12.6325 848 112.836 268.807 478.334
1848 0 71.1742 13.6707 973 109.734 268.651 477.294
1849 0 73.0994 14.022 1025 108.986 268.78 477.13
1850 0 75.1707 13.3696 1005 111.337 268.383 474.968
1851 0 77.2582 13.7461 1062 111.499 267.82 473.323
1852 0 77.1638 11.9357 921 118.315 267.731 472.284
1853 0 80.1702 12.8726 1032 116.418 267.719 470.448
1854 0 86.2051 14.0363 1210 113.674 268.383 469.793
1855 0 87.1668 12.7457 1111 119.16 268.64 469.003
1856 0 90.2409 12.7547 1151 119.878 268.54 468.138
1857 0 92.2734 13.0157 1201 120.226 268.457 465.457
1858 0 96.2396 12.8014 1232 122.599 268.955 463.381
1859 0 100.338 13.0758 1312 121.771 268.871 462.164
1860 0 104.295 13.7686 1436 120.369 268.297 456.001
1861 0 106.308 13.4986 1435 121.777 268.353 451.946
1862 0 109.341 12.74 1393 124.942 268.434 453.6
1863 1 60.0922 10.4839 630 117.217 268.013 485.338
1864 0 62.0908 11.7087 727 114.692 268.143 475.127
1865 0 64.1122 12.6965 814 110.6 268.577 477.735
1866 0 64.0722 11.0032 705 115.119 267.323 478.77
1867 0 68.1082 11.8928 810 113.225 268.395 477.656
1868 0 70.0945 11.0137 772 116.843 267.927 475.365
1869 0 71.1231 11.1637 794 117.379 267.884 474.096
1870 0 74.0733 11.2051 830 116.913 267.788 473.789
1871 0 76.0685 11.8577 902 115.822 267.316 474.242
1872 0 77.041 11.9287 919 114.6 268.363 473.171
1873 0 82.1429 12.3809 1017 113.581 268.041 470.457
1874 0 84.0745 11.8466 996 116.034 268.206 468.006
1875 0 87.077 12.1502 1058 115.364 268.181 466.886
1876 0 89.1664 12.3813 1104 115.741 267.954 465.365
1877 0 90.1213 12.2613 1105 116.846 268.244 464.014
1878 0 92.2366 12.2836 1133 117.892 268.65 462.109
1879 0 95.0622 12.7285 1210 115.746 268.086 462.553
1880 0 99.1565 13.514 1340 114.247 267.507 462.635
1881 0 103.062 13.1571 1356 116.464 267.143 459.069
1882 0 103.164 12.3298 1272 119.795 267.167 458.09
1883 0 108.151 13.7585 1488 115.266 267.385 458.926
1884 0 112.131 13.1364 1473 116.728 267.876 456.041
1885 0 112.239 12.7763 1434 118.338 267.289 450.342
1886 0 118.18 13.911 1644 116.581 266.749 450.31
1887 0 125.121 14.1463 1770 117.689 267.6 452.25
1888 0 129.11 13.2755 1714 120.896 267.684 449.2
1889 1 70.0858 12.6559 887 119.11 267.723 477.702
1890 0 74.0739 12.366 916 118.615 267.402 476.003
1891 0 75.1703 12.2655 922 120.092 268.149 473.231
1892 0 79.0647 12.7617 1009 118.071 267.968 474.589
1893 0 82.0904 12.2913 1009 119.714 267.573 472.077
1894 0 85.1101 13.1242 1117 117.275 267.894 468.938
1895 0 89.1201 13.5772 1210 116.312 267.764 468.167
1896 0 93.1316 13.5507 1262 115.796 267.91 467.036
1897 0 94.0763 13.2871 1250 118.398 267.575 465.51
1898 0 96.0727 12.376 1189 121.387 267.736 463.999
1899 0 100.13 13.4525 1347 118.822 268.045 461.88
1900 0 103.171 13.1432 1356 120.36 268.163 459.168
1901 0 105.105 13.0726 1374 121.29 268.155 456.487
1902 0 109.15 12.1942 1331 123.493 268.512 456.557
1903 0 114.187 13.7143 1566 118.981 268.11 453.195
1904 0 117.085 13.0674 1530 120.012 268.423 454.401
1905 0 122.208 13.297 1625 119.775 268.517 452.51
1906 0 125.079 12.0723 1510 128.546 268.298 449.279
1907 1 69.0935 11.3469 784 122.477 266.999 477.555
1908 0 71.0299 13.5577 963 115.541 267.529 477.86
1909 0 73.0467 12.5125 914 121.719 267.291 476.2
1910 0 74.0767 12.6221 935 121.993 267.424 472.548
1911 0 78.048 12.3898 967 122.109 267.311 472.605
1912 0 81.1102 11.7001 949 124.257 267.276 471.278
1913 0 82.063 12.8803 1057 121.746 266.702 471.192
1914 0 87.1107 12.6047 1098 121.449 267.721 467.454
1915 0 89.1633 13.436 1198 119.736 267.672 463.051
1916 0 91.1384 13.0571 1190 121.606 267.81 463.132
1917 0 95.0455 13.4462 1278 121.138 267.397 462.769
1918 0 95.0725 12.4116 1180 125.626 267.387 461.645
1919 0 99.0534 13.2757 1315 123.59 267.499 460.025
1920 0 102.141 13.452 1374 123.759 266.903 457.627
1921 0 104.071 13.0873 1362 125.507 266.916 451.01
1922 0 108.08 12.8053 1384 125.668 266.603 456.344
1923 0 112.182 13.5048 1515 124.954 267.027 452.681
1924 1 61.0541 11.1049 678 124.121 267.816 480.919
1925 0 63.0333 10.1375 639 124.186 270.44 481.246
1926 0 65.0995 11.2443 732 119.276 269.217 478.932
1927 0 67.1011 12.6227 847 121.911 267.531 477.248
1928 0 71.2617 11.7735 839 121.883 268.821 477.145
1929 0 73.2088 10.8867 797 124.558 268.895 471.389
1930 0 78.3024 13.0264 1020 118.701 268.563 460.541
1931 0 79.1773 12.8951 1021 121.789 268.502 461.115
1932 0 80.2675 13.3055 1068 123.722 268.451 462.769
1933 0 80.2166 12.6283 1013 127.331 268.716 464.122
1934 0 85.3304 11.8832 1014 127.42 269.305 466.828
1935 0 85.157 12.4476 1060 127.794 268.735 466.288
1936 0 90.1725 13.1747 1188 123.885 268.797 468.4
1937 0 92.2373 12.5112 1154 125.564 268.827 465.879
1938 0 94.2035 12.5048 1178 127.82 269.042 463.444
1939 0 100.207 12.7537 1278 124.39 268.665 462.714
1940 1 57.0852 11.7193 669 121.52 270.504 485.245
1941 0 57.2364 11.6185 665 112.009 268.574 481.347
1942 0 59.1679 11.3406 671 108.815 268.194 480.864
1943 0 58.254 10.6087 618 110.804 268.291 470.05
1944 0 60.2015 10.8303 652 109.344 268.894 475.906
1945 0 63.3619 10.5742 670 108.434 267.937 478.182
1946 0 62.142 9.65531 600 113.077 269.128 476.063
1947 0 66.1933 10.5751 700 110.29 268.971 474.466
1948 0 67.1747 9.82513 660 112.095 268.655 476.123
1949 0 68.0559 10.6236 723 111.791 267.923 476.207
1950 0 73.1547 11.0451 808 110.468 268.427 460.588
1951 0 72.2173 10.9115 788 112.359 268.784 458.334
1952 0 77.2096 12.4078 958 108.521 269.31 461.333
1953 0 76.1037 11.6289 885 111.121 269.184 466.506
1954 0 78.1065 11.4459 894 111.686 268.4 466.274
1955 0 79.1161 12.2605 970 111.371 269.051 464.221
1956 0 83.195 11.5993 965 113.67 269.103 459.672
1957 0 84.0893 10.584 890 117.796 269.771 460.639
1958 0 86.1583 11.8851 1024 116.344 269.163 462.127
1959 0 90.12 11.4958 1036 118.245 268.349 458.377
1960 0 94.1331 12.6098 1187 115.974 268.751 460.735
1961 0 94.2408 11.407 1075 121.334 268.839 455.343
1962 0 99.1671 13.7546 1364 117.83 268.27 455.252
1963 0 103.155 14.0855 1453 120.224 268.034 454.557
1964 1 58.134 9.11687 530 126.475 268.96 475.126
1965 0 61.1414 12.9045 789 115.692 269.15 475.157
1966 0 61.097 11.5554 706 121.176 269.785 472.191
1967 0 65.0845 12.937 842 116.39 268.914 475.493
1968 0 64.073 10.3788 665 124.486 268.495 474.131
1969 0 68.1955 11.9656 816 119.498 268.217 473.288
1970 0 69.1651 11.4798 794 119.87 268.545 473.582
1971 0 73.1131 11.6121 849 119.749 268.81 471.045
1972 0 75.1855 11.6113 873 117.632 269.306 469.648
1973 0 77.2042 11.3595 877 119.259 269.345 468.554
1974 0 82.2228 12.381 1018 117.177 269.672 468.013
1975 0 84.1402 12.4197 1045 117.848 269.735 467.362
1976 0 86.1995 12.2274 1054 118.629 269.639 467.725
1977 0 89.1468 13.7414 1225 116.238 269.11 466.829
1978 0 93.2392 13.5565 1264 116.04 269.232 453.721
1979 0 96.1483 13.24 1273 119.133 270.16 456.628
1980 0 98.2043 12.3722 1215 121.016 269.858 462.753
1981 0 100.363 11.8868 1193 122.159 269.22 462.141
1982 0 104.164 13.1716 1372 120.289 269.434 461.403
1983 0 106.218 12.0696 1282 123.061 269.863 458.268
1984 0 110.171 12.6531 1394 118.555 269.068 457.283
1985 0 112.192 12.9956 1458 119.339 269.645 454.15
1986 0 119.122 11.3413 1351 121.079 268.791 445.56
1987 1 65.0277 12.2409 796 110.111 269.131 469.72
1988 0 65.2018 11.8708 774 111.932 268.752 475.251
1989 0 66.3209 11.8364 785 112.33 268.615 478.345
1990 0 70.1814 11.9975 842 110.448 269.258 478.809
1991 0 74.2357 12.6758 941 107.829 269.572 477.292
1992 0 74.0869 12.9848 962 109.377 269.198 476.664
1993 0 75.0834 11.8668 891 112.801 268.692 474.451
1994 0 77.129 11.9929 925 111.879 269.446 472.511
1995 0 83.1241 13.0047 1081 108.586 269.689 471.049
1996 0 85.1331 13.426 1143 108.52 269.718 469.721
1997 0 87.1476 13.0698 1139 110.759 269.198 466.83
1998 0 89.1457 11.341 1011 115.004 269.218 466.937
1999 0 94.3065 13.6682 1289 112.173 269.154 448.808
2000 0 97.189 13.1393 1277 114.904 269.161 448.393
2001 0 99.1544 12.889 1278 117.838 268.323 449.656
2002 0 102.417 14.5679 1492 113.215 269.408 458.507
2003 0 105.341 13.8408 1458 117.899 268.63 457.206
2004 0 108.352 13.5115 1464 119.225 268.447 456.667
2005 0 112.19 13.6287 1529 120.266 268.224 452.897
2006 0 115.324 13.319 1536 122.633 268.296 452.674
2007 0 116.271 12.9869 1510 124.051 268.486 452.977
2008 0 123.503 13.6677 1688 120.416 268.878 451.832
2009 0 126.414 14.6345 1850 118.823 268.901 447.227
2010 0 129.247 14.2905 1847 120.236 268.37 446.978
2011 0 132.499 13.8114 1830 121.944 268.091 443.728
2012 0 138.341 13.8715 1919 122.155 268.267 442.381
2013 0 143.347 14.0638 2016 121.121 268.199 441.704
2014 0 146.414 13.735 2011 122.922 268.169 439.054
2015 0 153.391 14.1534 2171 120.251 267.673 438.202
2016 1 83.3225 12.2536 1021 118.887 268.224 471.544
2017 0 83.316 11.7144 976 122.306 268.682 471.626
2018 0 87.1962 14.0946 1229 120.876 269.009 468.113
2019 0 89.3316 13.3435 1192 123.608 269.152 465.622
2020 0 92.3137 14.2449 1315 120.693 269.617 465.605
2021 0 94.339 13.2925 1254 123.806 269.552 463.771
2022 0 98.3218 13.171 1295 123.96 269.674 462.944
2023 0 103.381 14.7222 1522 120.414 269.534 461.13
2024 0 105.195 14.0786 1481 123.656 269.75 458.111
2025 0 109.336 14.6064 1597 121.804 270.051 456.256
2026 0 113.392 14.6307 1659 120.497 269.574 453.515
2027 0 117.398 14.3785 1688 119.789 269.768 454.227
2028 0 121.307 13.9069 1687 121.343 269.386 449.608
2029 1 65.1864 12.0884 788 117.33 269.464 478.543
2030 0 67.1794 11.9233 801 117.452 269.355 479.061
2031 0 72.1704 13.191 952 114.444 269.48 478.275
2032 0 73.2025 12.0761 884 117.097 269.436 476.886
2033 0 75.1061 12.1295 911 119.274 269.076 461.76
2034 0 79.2821 12.0078 952 117.434 269.27 464.848
2035 0 82.4128 13.214 1089 114.595 269.511 465.322
2036 0 82.3183 11.5041 947 120.701 269.302 466.627
2037 0 86.3073 12.1774 1051 117.324 268.696 468.79
2038 0 89.4242 11.9543 1069 119.006 269.059 465.327
2039 0 90.3798 11.4849 1038 119.864 268.963 465.372
2040 0 95.3472 13.6134 1298 115.957 269.43 464.216
2041 0 96.2316 11.1918 1077 122.329 269.441 461.447
2042 0 101.181 12.1367 1228 118.848 269.581 463.575
2043 0 105.213 12.7171 1338 118.006 269.136 462.397
2044 0 106.223 11.3347 1204 124.987 269.039 458.618
2045 0 110.335 12.3351 1361 122.21 268.871 456.369
2046 1 63.1593 10.7823 681 117.292 269.655 479.479
2047 0 65.0907 12.4288 809 116.684 268.863 475.208
2048 0 67.1158 12.0389 808 115.895 269.118 476.934
2049 0 69.1898 12.0972 837 116.679 269.447 475.608
2050 0 70.2734 11.9391 839 117.95 269.723 473.52
2051 0 74.1758 12.0524 894 119.037 269.33 473.123
2052 0 77.1757 12.0245 928 120.266 268.816 472.119
2053 0 77.3197 11.4718 887 124.147 269.298 470.257
2054 0 82.1278 12.7728 1049 120.717 269.591 468.958
2055 0 84.3067 12.241 1032 122.623 269.23 468.707
2056 0 85.2937 11.009 939 127.902 269.657 466.54
2057 0 89.2288 13.2244 1180 122.876 269.162 466.313
2058 0 93.3137 13.042 1217 122.814 269.403 464.27
2059 0 94.1251 11.9628 1126 127.469 269.175 463.759
2060 0 97.313 13.1329 1278 124.478 268.715 461.831
2061 0 101.326 12.2969 1246 128.478 269.247 458.901
2062 0 104.161 13.3543 1391 127.037 269.659 457.156
2063 0 108.319 12.3893 1342 129.603 269.069 456.063
2064 0 110.246 12.8984 1422 128.644 268.954 454.26
2065 1 62.1281 10.6071 659 121.07 270.011 479.587
2066 0 64.2345 11.9873 770 118.842 267.735 476.048
2067 0 65.2449 11.4032 744 119.56 269.625 478.509
2068 0 68.3484 11.6023 793 119.088 269.863 476.593
2069 0 70.2764 12.4224 873 117.502 269.294 476.326
2070 0 72.2675 11.153 806 121.21 269.1 475.479
2071 0 73.163 11.3445 830 121.829 268.972 473.727
2072 0 77.2527 11.4818 887 120.853 269.12 472.026
2073 0 77.2366 11.523 890 121.081 269.431 471.485
2074 0 80.3505 10.7404 863 122.557 268.304 470.222
2075 0 84.3762 12.3258 1040 120.536 268.273 467.111
2076 0 87.3146 11.888 1038 121.71 268.844 463.367
2077 0 91.2682 12.2606 1119 120.229 268.539 462.857
2078 0 94.4006 12.0974 1142 120.912 268.262 462.537
2079 0 96.4868 12.6546 1221 121.057 268.744 457.821
2080 0 100.367 12.6337 1268 120.128 268.401 458.729
2081 1 58.2523 10.0769 587 116.847 268.002 479.201
2082 0 62.2887 11.527 718 114.581 267.734 479.429
2083 0 63.2038 11.8189 747 116.925 267.399 476.494
2084 0 62.1524 11.1983 696 120.264 266.461 466.292
2085 0 66.1498 12.7136 841 115.284 267.149 464.501
2086 0 67.1514 12.6729 851 115.054 266.906 464.848
2087 0 69.2266 11.8307 819 117.767 267.256 464.963
2088 0 69.1232 12.2245 845 117.78 267.169 464.662
2089 0 71.3128 12.4382 887 117.156 267.467 463.391
2090 0 74.1284 13.0584 968 115.833 267.096 462.194
2091 0 74.1435 13.7436 1019 113.046 267.495 462.956
2092 0 72.0885 10.5703 762 122.398 267.211 464.055
2093 0 76.0989 11.577 881 118.736 267.209 463.78
2094 0 72.0946 10.9856 792 121.158 266.91 454.044
2095 0 80.221 11.78 945 116.175 267.275 460.174
2096 0 82.2696 11.2071 922 118.406 267.728 457.524
2097 0 87.2609 11.6547 1017 115.865 267.941 455.15
2098 0 87.3098 12.0032 1048 115.801 267.546 454.281
2099 0 92.2414 11.7626 1085 115.547 267.099 452.956
2100 0 92.1439 9.47431 873 121.495 267.27 448.049
2101 1 59.2479 10.2788 609 106.823 268.512 478.061
2102 0 59.195 10.1698 602 108.591 268.635 461.781
2103 0 62.2232 11.2016 697 104.166 269.617 471.601
2104 0 63.1289 12.1339 766 102.749 270.067 473.888
2105 0 64.1621 10.8319 695 106.827 269.393 474.902
2106 0 67.2443 11.9564 804 103.693 269.388 474.088
2107 0 68.1448 11.2114 764 105.696 268.796 472.64
2108 0 72.1774 12.1783 879 102.524 268.972 474.481
2109 0 71.1544 12.1567 865 104.127 268.916 474.195
2110 0 74.1365 11.8565 879 104.615 267.958 473.436
2111 0 77.1789 10.9745 847 106.04 267.29 472.871
2112 0 80.213 12.205 979 103.57 267.917 471.567
2113 0 80.0621 10.5293 843 108.171 267.703 471.208
2114 0 84.2419 12.3098 1037 105.852 267.625 469.103
2115 0 88.2404 11.4007 1006 108.938 268.143 464.762
2116 0 90.225 12.4577 1124 107.23 268.264 468.196
2117 0 94.2599 12.8475 1211 111.732 268.215 467.192
2118 0 93.2923 10.376 968 118.936 268.395 463.286
2119 0 99.1715 11.6767 1158 114.582 268.035 463.62
2120 0 101.206 10.0785 1020 116.391 267.613 466.532
2121 0 108.234 11.5491 1250 115.416 268.314 460.43
2122 1 62.1416 10.7014 665 112.265 269.039 481.347
2123 0 65.0474 12.4986 813 105.599 268.24 479.718
2124 0 63.0474 11.5786 730 105 267.33 479.895
2125 0 66.1058 11.4967 760 104.87 268.151 479.541
2126 0 69.1256 12.8607 889 101.115 266.565 474.677
2127 0 70.1727 11.9847 841 105.536 267.088 476.429
2128 0 71.1561 11.6364 828 107.236 267.525 474.943
2129 0 75.0474 11.8992 893 105.505 267.728 475.225
2130 0 78.1029 11.7921 921 106.17 268.225 474.189
2131 0 80.126 10.9952 881 108.581 267.539 473.714
2132 0 83.2106 11.0202 917 108.716 267.555 472.783
2133 0 84.198 12.1262 1021 106.735 267.708 470.358
2134 0 89.1519 11.9571 1066 106.324 267.656 469.53
2135 0 92.1235 11.4954 1059 107.262 267.817 469.009
2136 0 94.3068 10.837 1022 109.603 267.659 467.37
2137 0 97.1369 10.4698 1017 109.851 268.153 467.889
2138 1 52.0707 10.9082 568 106.021 268.632 487.262
2139 0 56.0182 10.925 612 105.392 268.458 485.879
2140 0 57.0547 13.1628 751 102.361 267.196 483.393
2141 0 56.052 11.3109 634 108.112 267.56 483.289
2142 0 58.0438 11.6636 677 107.35 267.612 482.533
2143 0 60.057 10.0072 601 111.308 267.727 481.992
2144 0 62.1592 12.2106 759 106.412 268.221 483.354
2145 0 64.1254 11.7894 756 108.339 267.841 482.116
2146 0 66.1568 11.896 787 109.004 268.149 480.476
2147 0 66.0353 12.1753 804 110.953 267.816 478.352
2148 0 69.1835 12.185 843 110.433 268.07 477.594
2149 0 72.1908 11.7328 847 111.946 267.244 473.26
2150 0 76.1366 11.6107 884 110.704 268.169 474.993
2151 0 77.2122 11.6044 896 112.107 268.317 474.511
2152 0 79.1233 12.1835 964 111.374 268.991 472.845
2153 0 81.1251 11.6363 944 113.375 268.164 470.707
2154 0 84.3481 11.8201 997 113.418 268.193 470.748
2155 0 88.3295 11.8081 1043 113.909 267.166 468.797
2156 0 88.3477 12.3829 1094 114.976 267.792 464.54
2157 0 93.4495 12.8519 1201 114.55 267.56 463.304
2158 0 95.3235 13.0293 1242 114.613 267.73 462.035
2159 0 97.2887 11.3682 1106 119.48 267.894 462.655
2160 0 102.136 12.1211 1238 115.995 268.731 460.59
2161 0 103.172 12.1059 1249 115.301 267.612 459.945
2162 0 108.42 12.8482 1393 114.113 267.449 455.246
2163 0 111.347 12.5464 1397 116.135 267.566 450.891
2164 0 115.16 12.1743 1402 116.895 267.681 442.887
2165 1 65.2088 11.0721 722 106.535 267.741 477.346
2166 0 66.1394 10.236 677 111.216 268.152 477.545
2167 0 68.0728 12.0753 822 111.845 268.24 473.472
2168 0 66.1356 9.78292 647 118.934 268.535 470.155
2169 0 71.2336 10.5428 751 115.083 268.912 473.627
2170 0 75.0318 11.4618 860 113.71 268.178 471.519
2171 0 76.2335 11.1237 848 114.413 268.218 469.213
2172 0 79.1285 11.2223 888 115.997 267.881 468.287
2173 0 80.267 10.6644 856 118.129 268.134 466.335
2174 0 84.1684 11.4651 965 116.683 267.43 455.384
2175 0 89.1613 11.5633 1031 117.542 267.299 450.129
2176 0 91.1447 12.4418 1134 115.838 267.776 455.141
2177 0 92.365 13.1002 1210 115.545 268.239 457.447
2178 0 95.2224 11.5729 1102 120.419 267.788 454.877
2179 0 97.3324 11.5994 1129 119.818 267.974 458.049
2180 0 101.473 13.1267 1332 116.513 268.15 457.875
2181 0 104.284 11.3728 1186 120.124 268.466 459.792
2182 0 103.317 12.2052 1261 121.541 267.853 453.174
2183 0 108.246 12.7672 1382 119.829 267.99 454.891
2184 0 114.216 13.063 1492 118.599 267.699 454.048
2185 0 116.305 12.5188 1456 120.554 268.282 453.023
2186 0 119.553 12.6136 1508 122.285 267.279 447.659
2187 0 125.629 12.7836 1606 119.721 267.658 448.766
2188 0 129.695 12.2981 1595 121.816 267.354 442.083
2189 1 72.4092 10.4821 759 112.738 267.341 470.669
2190 0 74.3351 10.6679 793 111.438 267.532 473.048
2191 0 78.6537 12.5995 991 106.732 267.513 471.678
2192 0 79.3614 10.9373 868 111.408 267.529 469.811
2193 0 82.3311 11.5631 952 110.875 267.997 469.711
2194 0 86.1987 10.9514 944 112.07 268.501 469.609
2195 0 90.2494 10.3823 937 114.574 268.266 468.243
2196 0 93.4023 12.3337 1152 108.924 268.443 462.612
2197 0 95.2305 11.5089 1096 112.295 268.438 462.787
2198 0 98.2162 11.9838 1177 113.529 268.302 459.784
2199 0 102.246 11.7071 1197 114.037 267.898 462.461
2200 0 104.313 12.3283 1286 114.096 268.754 457.743
2201 0 107.352 12.1842 1308 115.644 268.2 457.601
2202 0 110.347 11.7539 1297 118.895 268.313 459.816
2203 0 114.441 12.443 1424 118.817 267.582 455.716
2204 0 116.494 12.0092 1399 121.67 267.914 454.331
2205 0 120.342 13.3287 1604 121.261 267.503 449.739
2206 0 123.386 13.3564 1648 119.421 267.513 447.839
2207 0 130.365 12.0508 1571 120.598 267.816 447.565
2208 0 131.327 12.0691 1585 120.232 268.052 446.098
2209 0 137.338 12.735 1749 118.804 267.982 443.938
2210 1 77.2109 11.0347 852 115.566 267.394 465.859
2211 0 82.1327 12.7233 1045 110.42 268.865 471.074
2212 0 82.1185 11.9096 978 113.569 268.755 468.824
2213 0 86.1827 12.1602 1048 112.389 269.178 469.638
2214 0 89.3234 13.4791 1204 109.952 269.099 464.904
2215 0 93.2102 14.1615 1320 107.633 266.442 466.461
2216 0 96.2703 13.6283 1312 109.374 266.633 466.142
2217 0 96.208 11.9741 1152 115.372 266.581 464.891
2218 0 99.2215 11.8422 1175 117.671 266.809 462.587
2219 0 101.304 12.4576 1262 116.103 266.49 459.269
2220 0 106.236 13.0276 1384 114.841 267.025 459.871
2221 0 107.277 12.4817 1339 119.802 267.001 458.932
2222 0 111.265 12.6365 1406 119.44 267.543 456.109
2223 0 113.271 11.8477 1342 120.423 267.471 453.902
2224 0 118.369 12.8918 1526 119.42 267.435 453.646
2225 0 121.277 12.7312 1544 120.738 267.674 450.216
2226 0 125.438 12.7234 1596 119.955 267.905 449.453
2227 0 128.333 12.6623 1625 119.353 268.025 446.606
2228 0 131.321 11.8489 1556 118.648 268.166 444.231
2229 0 137.173 12.1526 1667 116.256 267.473 444.764
2230 1 76.2205 11.3749 867 108.063 266.526 471.791
2231 0 79.2205 11.1335 882 103.492 268.239 469.875
2232 0 79.2194 10.6918 847 104.901 267.211 470.739
2233 0 81.099 11.3442 920 104.425 267.19 472.16
2234 0 86.2899 12.5159 1080 102.426 267.289 469.606
2235 0 87.2065 11.3065 986 105.778 267.361 466.597
2236 0 90.1982 10.5545 952 108.013 267.105 463.532
2237 0 92.206 11.0405 1018 107.932 267.066 464.761
2238 0 96.2041 11.1014 1068 107.76 267.262 463.998
2239 0 99.1826 12.0586 1196 106.478 267.271 462.462
2240 0 101.159 12.0306 1217 106.712 267.076 462.614
2241 0 102.14 11.3276 1157 110.2 266.685 458.104
2242 0 107.083 11.0756 1186 108.631 267.701 459.002
2243 0 109.131 9.85975 1076 110.237 268.911 450.735
2244 0 114.223 10.7421 1227 108.391 268.13 445.254
2245 0 118.347 12.4042 1468 104.499 267.888 445.001
2246 0 123.467 12.6755 1565 106.342 267.425 447.852
2247 0 126.137 12.7797 1612 105.998 267.419 449.596
2248 1 70.1411 10.9066 765 102.32 268.02 477.821
2249 0 71.1337 9.41888 670 109.361 267.93 468.772
2250 0 75.1742 10.5222 791 106.643 266.941 469.889
2251 0 75.2807 10.0026 753 109.296 267.744 468.104
2252 0 78.2155 10.6884 836 108.785 267.124 468.671
2253 0 82.1806 11.0975 912 107.259 267.487 471.099
2254 0 83.1391 10.4283 867 110.894 267.114 469.016
2255 0 86.1293 11.8194 1018 108.489 267.094 468.517
2256 0 86.1338 10.9016 939 112.729 267.804 465.974
2257 0 92.1347 12.4383 1146 109.576 267.333 466.271
2258 0 95.2314 12.1703 1159 111.146 267.159 466.165
2259 0 95.2057 11.2178 1068 115.055 267.16 467.166
2260 0 100.465 12.1037 1216 113.269 266.487 467.161
2261 0 100.345 12.2278 1227 115.901 266.725 463.775
2262 0 102.373 11.1943 1146 119.61 266.532 463.623
2263 0 108.586 12.9575 1407 115.253 266.176 462.736
2264 0 110.38 11.1524 1231 121.923 265.571 463.602
2265 0 115.369 12.7071 1466 119.09 265.305 463.681
2266 0 118.244 12.2543 1449 120.809 264.89 463.7
2267 0 119.215 12.2132 1456 123.448 264.562 459.148
2268 0 123.305 11.9865 1478 124.154 264.504 461.1
2269 1 70.2575 10.4188 732 117.475 263.85 490.172
2270 0 71.1072 11.0678 787 118.088 264.024 488.189
2271 0 75.1215 12.3134 925 114.135 264.246 489.612
2272 0 74.1599 10.828 803 119.482 263.898 488.059
2273 0 77.103 11.8802 916 117.571 263.838 486.914
2274 0 80.1272 12.605 1010 116.1 263.566 486.454
2275 0 82.1065 11.5947 952 119.376 263.613 485.091
2276 0 85.1098 11.2678 959 122.108 263.511 480.292
2277 0 89.1887 11.5598 1031 119.896 263.163 482.88
2278 0 91.1174 12.8735 1173 119.472 263.222 476.932
2279 0 94.1689 13.4333 1265 118.757 262.558 477.543
2280 0 96.1485 13.1567 1265 120.074 262.839 474.643
2281 0 98.0743 12.409 1217 122.374 263.296 475.727
2282 0 102.138 13.5503 1384 119.875 263.321 475.746
2283 0 103.144 12.5261 1292 125.084 262.967 473.548
2284 0 108.174 13.4967 1460 122.934 262.51 471.161
2285 0 108.139 12.7891 1383 127.255 262.721 471.32
2286 0 114.169 15.2406 1740 120.425 262.224 468.087
2287 0 116.234 14.6257 1700 122.031 262.262 466.25
2288 0 119.319 14.5157 1732 125.131 261.779 465.232
2289 0 123.19 14.4573 1781 126.101 261.624 464.528
2290 0 125.248 13.1659 1649 126.189 261.87 459.356
2291 0 128.221 12.9542 1661 120.413 262.343 457.626
2292 1 72.0483 9.85449 710 119.361 262.73 484.465
2293 0 75.0621 11.0708 831 118.332 262.801 483.486
2294 0 78.064 11.6059 906 110.492 262.411 482.808
2295 0 80.1208 10.3968 833 112.221 262.752 485.684
2296 0 83.2767 11.0715 922 110.674 262.758 483.466
2297 0 82.2145 10.1199 832 116.703 263.287 478.388
2298 0 88.1261 11.4609 1010 112.065 262.92 479.763
2299 0 91.0926 11.2962 1029 113.355 262.067 475.603
2300 0 95.082 11.916 1133 111.332 262.226 475.241
2301 0 95.0683 11.5601 1099 113.232 262.251 473.529
2302 0 99.0996 11.3018 1120 114.87 261.581 471.947
2303 0 102.328 11.6781 1195 115.11 261.419 470.368
2304 0 103.212 12.4307 1283 113.647 260.87 469.977
2305 0 107.165 11.1977 1200 116.996 261.691 466.626
2306 0 114.144 13.6669 1560 109.812 261.622 456.033
2307 0 114.124 13.6519 1558 112.404 261.517 445.397
2308 0 115.147 13.5305 1558 113.577 261.198 448.734
2309 0 120.193 12.9957 1562 115.419 261.496 451.355
2310 0 125.155 13.743 1720 114.539 261.032 450.11
2311 0 129.208 13.8614 1791 115.755 261.263 448.238
2312 0 133.209 13.0172 1734 120.022 261.358 445.706
2313 0 134.255 13.1317 1763 123.865 261.493 441.922
2314 0 143.302 12.9516 1856 121.829 261.072 442.245
2315 0 148.268 13.044 1934 118.125 261.246 439.632
2316 1 85.1314 9.06833 772 114.652 261.975 474.332
2317 0 88.1553 10.0164 883 113.852 262.162 474.289
2318 0 92.1029 10.2711 946 112.595 262.585 477.831
2319 0 93.1114 11.3198 1054 113.177 262.048 469.077
2320 0 98.1263 11.2712 1106 112.936 262.396 470.014
2321 0 100.115 12.5156 1253 111.147 262.571 466.761
2322 0 104.084 11.8942 1238 112.449 262.684 467.67
2323 0 105.16 12.21 1284 113.007 262.766 466.46
2324 0 110.087 12.2448 1348 113.389 262.583 462.61
2325 0 111.154 12.5141 1391 114.076 262.457 458.957
2326 0 116.248 12.5765 1462 113.754 263.049 450.381
2327 0 121.222 13.2072 1601 111.914 262.474 449.694
2328 0 123.287 11.4529 1412 117.399 262.103 451.428
2329 0 129.13 12.7081 1641 115.848 261.826 458.43
2330 1 71.1335 12.0478 857 112.557 261.883 483.354
2331 0 73.0518 11.0333 806 109.711 263.01 482.845
2332 0 74.0677 10.6119 786 108.074 262.368 483.244
2333 0 77.1366 10.9805 847 106.142 262.645 480.671
2334 0 77.1224 10.1268 781 110.125 262.356 469.087
2335 0 84.2216 11.7191 987 105.47 261.84 478.38
2336 0 88.1839 12.2358 1079 111.955 261.599 480.224
2337 0 91.1793 12.7112 1159 110.75 261.305 478.163
2338 0 92.1412 12.4917 1151 112.567 261.208 477.192
2339 0 95.136 13.0865 1245 111.478 260.782 472.881
2340 0 98.1088 13.536 1328 110.133 261.328 471.936
2341 0 102.124 12.9549 1323 111.178 261.685 471.705
2342 0 104.206 13.1374 1369 111.877 261.926 467.699
2343 0 108.113 12.6534 1368 112.834 261.899 465.76
2344 0 108.179 12.4146 1343 114.999 262.228 463.249
2345 0 114.156 14.1123 1611 109.818 261.915 461.894
2346 0 117.089 13.2976 1557 111.989 262.584 459.229
2347 0 121.242 13.3122 1614 110.99 262.224 455.507
2348 0 124.144 14.2174 1765 108.908 262.739 454.726
2349 0 128.128 12.9714 1662 110.847 262.171 451.272
2350 0 130.204 12.6724 1650 111.98 262.81 448.452
2351 1 75.396 13.4225 1012 106.29 263.488 477.219
2352 0 74.0923 11.5532 856 105.067 264.179 477.403
2353 0 77.0781 11.7803 908 103.695 264.982 475.608
2354 0 81.2396 11.7061 951 103.059 265.415 474.281
2355 0 85.1603 11.4842 978 105.177 264.642 465.297
2356 0 86.1324 11.61 1000 104.894 264.85 470.591
2357 0 89.1194 12.7021 1132 102.527 264.523 468.525
2358 0 93.079 12.7204 1184 102.095 265.223 469.442
2359 0 95.1687 12.6617 1205 103.345 265.518 465.962
2360 0 97.1609 12.0213 1168 105.74 265.544 463.343
2361 0 99.2221 13.0918 1299 104.778 265.54 461.968
2362 0 104.166 13.3249 1388 104.116 265.669 457.863
2363 0 104.223 12.0703 1258 108.206 265.225 458.869
2364 0 110.253 11.8092 1302 109.417 264.87 450.402
2365 0 112.302 13.0096 1461 105.806 264.715 455.877
2366 0 115.144 12.4714 1436 108.63 265.223 457.073
2367 0 117.136 11.3885 1334 111.868 265.106 451.43
2368 0 122.24 13.269 1622 110.414 265.56 452.769
2369 0 127.169 13.0692 1662 109.333 265.282 446.164
2370 1 75.1234 11.2215 843 102.065 265.593 476.049
2371 0 75.1302 11.6065 872 103.561 265.464 475.236
2372 0 77.0741 11.5214 888 108.573 266.896 474.572
2373 0 83.1409 13.2426 1101 103.738 266.446 471.603
2374 0 84.1449 12.7518 1073 105.293 267.092 471.142
2375 0 87.1648 13.0098 1134 104.128 267.161 469.861
2376 0 88.1568 13.8049 1217 103.728 266.251 468.428
2377 0 92.1494 13.0006 1198 105.374 266.081 463.76
2378 0 93.1597 11.9258 1111 107.576 266.374 466.304
2379 0 100.296 13.9288 1397 102.008 266.181 463.833
2380 0 101.118 12.876 1302 105.068 265.912 461.329
2381 0 103.233 13.0288 1345 104.938 265.343 461.318
2382 0 109.179 14.1969 1550 101.159 266.115 460.975
2383 0 111.294 14.4932 1613 101.17 265.839 456.441
2384 0 111.253 12.9165 1437 105.04 265.625 456.173
2385 0 116.345 12.3512 1437 106.086 265.125 453.285
2386 0 119.245 13.2836 1584 105.374 265.985 450.927
2387 0 123.12 13.2229 1628 100.358 266.835 447.423
2388 0 127.195 13.4439 1710 100.29 266.28 447.84
2389 0 130.219 14.8595 1935 98.2951 266.31 448.239
2390 0 134.204 14.6269 1963 99.0464 266.311 446.295
2391 0 138.236 12.9272 1787 103.739 266.132 445.071
2392 0 141.167 12.0354 1699 107.289 265.948 444.145
2393 0 148.338 12.64 1875 108.449 265.941 439.873
2394 1 84.2394 12.2033 1028 105.285 266.318 452.79
2395 0 86.1861 13.0299 1123 111.18 266.165 447.574
2396 0 90.3418 13.0726 1181 112.331 266.53 447.331
2397 0 91.2828 12.3572 1128 114.908 266.49 448.753
2398 0 95.2575 14.508 1382 110.798 266.495 452.778
2399 0 97.3097 13.5547 1319 114.544 265.993 448.98
2400 0 102.357 14.4983 1484 112.268 265.726 449.438
2401 0 105.197 14.2399 1498 111.718 265.885 448.725
2402 0 108.198 13.1148 1419 113.519 265.956 451.066
2403 0 110.283 13.6558 1506 116.411 265.462 456.625
2404 0 115.197 12.7867 1473 107.136 265.447 453.453
2405 0 116.275 12.78 1486 109.641 265.168 451.877
2406 0 123.309 12.7971 1578 109.464 265.297 450.064
2407 0 125.262 12.1106 1517 111.583 265.485 449.535
2408 1 69.1427 12.3802 856 104.673 265.896 474.451
2409 0 74.2269 12.1924 905 103.737 266.817 473.931
2410 0 73.1542 12.5488 918 104.888 266.93 470.673
2411 0 79.1035 13.0588 1033 100.108 265.984 474.389
2412 0 80.13 12.0554 966 101.877 265.85 475.538
2413 0 84.1492 13.0839 1101 100.163 266.037 470.361
2414 0 86.1724 12.1152 1044 102.562 266.678 468.98
2415 0 88.3118 12.739 1125 100.707 265.994 469.917
2416 0 91.1439 13.4951 1230 98.2268 267.564 467.09
2417 0 95.0778 12.7685 1214 100.332 267.138 467.986
2418 0 98.2217 12.9605 1273 99.6119 266.368 466.394
2419 0 102.105 12.8887 1316 99.7295 267.063 463.476
2420 0 103.119 13.0044 1341 100.482 266.769 463.373
2421 0 108.142 14.3145 1548 98.0665 266.687 460.557
2422 0 108.222 12.7886 1384 101.524 266.92 459.238
2423 0 113.193 12.7128 1439 101.632 266.752 459.331
2424 0 117.18 13.1081 1536 101.109 266.575 456.658
2425 0 120.175 12.4985 1502 102.017 266.176 455.286
2426 0 126.234 12.564 1586 103.228 265.796 451.302
2427 1 70.129 10.7088 751 103.244 267.688 479.634
2428 0 74.1384 13.3804 992 98.7369 267.149 478.009
2429 0 76.0627 12.253 932 101.582 267.521 476.671
2430 0 79.1167 12.9935 1028 100.132 267.746 474.915
2431 0 82.1255 12.9801 1066 99.6013 268.303 474.659
2432 0 84.1197 12.9577 1090 100.731 267.799 472.653
2433 0 87.1354 13.852 1207 99.169 267.318 470.667
2434 0 88.1122 13.5623 1195 100.654 267.316 470.591
2435 0 92.186 12.9846 1197 101.652 266.771 470.371
2436 0 96.2352 13.4151 1291 100.802 267.607 467.218
2437 0 97.4294 13.3533 1301 102.158 266.807 458.9
2438 0 99.3279 13.4202 1333 103.514 266.797 456.614
2439 0 103.212 13.2252 1365 103.577 267.173 461.701
2440 0 106.234 12.7266 1352 106.74 266.372 461.997
2441 0 108.167 13.322 1441 106.428 267.085 461.088
2442 0 112.181 12.8898 1446 103.248 266.746 438.832
2443 0 113.192 11.5732 1310 106.432 266.569 442.323
2444 0 117.266 12.8341 1505 104.623 267.013 447.708
2445 0 119.232 12.4631 1486 109.394 266.265 443.937
2446 0 122.209 12.1595 1486 110.084 266.781 440.867
2447 0 127.219 12.7103 1617 107.932 266.742 442.124
2448 0 131.229 13.0992 1719 107.796 265.985 440.535
2449 0 136.275 13.0545 1779 111.237 265.976 432.378
2450 0 140.332 11.9146 1672 113.829 266.975 435.755
2451 0 147.457 13.4412 1982 112.538 266.377 440.677
2452 1 80.2182 12.8524 1031 111.534 266.996 474.856
2453 0 82.2382 13.011 1070 111.854 267.461 472.518
2454 0 84.0673 11.7763 990 115.472 266.639 469.716
2455 0 89.0981 13.7264 1223 109.866 267.142 470.175
2456 0 91.0905 13.1518 1198 112.254 267.603 468.253
2457 0 94.2139 13.3738 1260 111.156 267.527 464.331
2458 0 96.1114 13.4427 1292 112.212 267.604 463.218
2459 0 100.194 14.2923 1432 110.746 267.348 462.663
2460 0 102.094 13.752 1404 112.583 267.119 460.06
2461 0 104.146 13.9707 1455 113.324 266.76 461.074
2462 0 108.143 14.4623 1564 115.416 266.824 449.084
2463 0 110.098 12.7522 1404 120.245 267.155 447.324
2464 0 115.117 13.3256 1534 119.643 266.62 446.163
2465 0 120.254 13.6793 1645 116.712 266.012 434.799
2466 0 125.128 15.0486 1883 112.229 265.4 432.254
2467 0 128.167 13.459 1725 115.584 266.103 431.017
2468 0 131.295 14.6997 1930 112.251 265.513 432.888
2469 0 136.261 15.3162 2087 111.273 265.171 436.644
2470 1 77.2603 11.869 917 120.12 266.413 465.423
2471 0 81.2193 13.7898 1120 115.328 266.459 465.004
2472 0 84.2913 13.1449 1108 116.023 266.385 461.704
2473 0 88.2685 13.5949 1200 115.673 266.904 461.618
2474 0 91.2243 14.3712 1311 113.198 266.487 459.514
2475 0 92.3227 13.0195 1202 118.879 266.082 454.613
2476 0 96.3455 14.1262 1361 114.663 266.694 459.259
2477 0 99.3365 13.3586 1327 119.075 266.388 458.632
2478 0 102.173 13.3401 1363 119.787 265.971 457.867
2479 0 105.559 12.8933 1361 121.38 265.835 456.73
2480 0 110.645 14.1082 1561 117.894 266.506 455.067
2481 0 114.565 14.9783 1716 115.848 266.449 450.463
2482 0 117.586 14.7211 1731 116.435 266.562 449.16
2483 0 120.444 14.3303 1726 117.593 266.674 448.382
2484 0 125.324 13.8441 1735 119.175 266.493 445.539
2485 0 127.264 12.5015 1591 113.761 266.754 449.084
2486 0 132.278 12.8895 1705 113.061 266.593 447.046
2487 0 137.157 12.7226 1745 114.601 266.289 441.317
2488 0 141.202 13.0735 1846 115.001 266.191 441.393
2489 0 146.356 13.1118 1919 115.516 265.718 437.222
2490 0 152.322 14.0229 2136 112.97 266.294 435.626
2491 0 158.227 13.765 2178 115.452 265.966 423.918
2492 1 86.3412 11.8368 1022 113.44 266.793 463.249
2493 0 91.2911 13.7801 1258 110.276 266.983 459.374
2494 0 93.3657 13.506 1261 111.08 266.841 459.178
2495 0 95.1179 12.7841 1216 113.285 267.178 457.845
2496 0 99.2425 13.3008 1320 112.455 266.702 454.92
2497 0 102.245 14.4066 1473 110.363 266.699 453.208
2498 0 105.308 13.7882 1452 111.949 266.813 452.66
2499 0 107.302 13.7742 1478 112.94 266.679 450.157
2500 0 111.302 13.7464 1530 112.005 267.144 450.769
2501 0 114.162 15.6794 1790 108.454 266.809 446.835
2502 0 116.321 13.6261 1585 114.695 266.955 446.137
2503 0 120.234 14.0393 1688 113.738 266.535 444.435
2504 0 123.366 13.5126 1667 115.322 266.428 442.449
2505 0 126.217 14.5543 1837 113.547 266.017 438.58
2506 0 132.107 12.8305 1695 116.441 266.02 440.286
2507 0 135.424 14.6282 1981 112.657 266.487 436.055
2508 0 138.272 12.96 1792 117.554 266.876 432.256
2509 1 75.082 11.614 872 120.649 266.33 462.678
2510 0 78.244 11.5792 906 120.74 266.113 460.891
2511 0 82.2344 13.0967 1077 116.348 266.142 460.275
2512 0 82.3191 12.4637 1026 119.767 266.282 459.229
2513 0 87.1242 13.2684 1156 117.184 266.522 459.643
2514 0 87.1434 12.4507 1085 121.131 266.669 456.93
2515 0 94.3309 14.1735 1337 115.257 267.375 454.933
2516 0 93.1612 13.9972 1304 116.692 266.936 453.695
2517 0 97.1681 14.2845 1388 116.575 266.988 451.463
2518 0 99.1015 12.9867 1287 120.646 266.786 450.223
2519 0 104.183 13.8411 1442 118.001 266.803 450.153
2520 0 107.212 14.1869 1521 118.12 266.441 449.089
2521 0 110.376 13.3724 1476 120.356 266.96 447.536
2522 0 113.163 13.1933 1493 121.388 266.206 444.643
2523 0 118.31 13.752 1627 120.02 267.568 444.685
2524 0 118.31 14.5804 1725 119.316 267.339 443.066
2525 0 122.251 12.597 1540 124.384 267.708 438.282
2526 0 129.284 13.219 1709 122.955 267.734 434.796
2527 1 73.1264 11.2818 825 120.955 266.971 462.308
2528 0 78.2291 12.2844 961 119.2 268.184 460.037
2529 0 81.2588 13.5985 1105 115.528 268.465 459.995
2530 0 85.3086 13.5977 1160 116.332 267.915 458.541
2531 0 86.1999 12.6798 1093 119.45 268.259 458.942
2532 0 91.3332 13.719 1253 116.693 268.647 454.538
2533 0 94.4463 14.5797 1377 114.245 268.42 453.309
2534 0 95.3419 12.5233 1194 121.743 267.719 450.478
2535 0 99.2057 12.459 1236 121.404 267.891 447.734
2536 0 100.275 12.9445 1298 120.482 268.206 447.683
2537 0 104.201 13.6467 1422 117.791 267.898 444.082
2538 0 107.171 12.8393 1376 119.882 267.093 439.794
2539 0 110.157 13.6987 1509 117.698 267.71 442.674
2540 0 111.224 13.6482 1518 119.649 267.607 438.658
2541 0 115.249 13.2148 1523 119.793 268.02 442.775
2542 0 118.163 13.4814 1593 119.956 267.146 443.333
2543 0 123.356 14.0893 1738 117.741 267.589 443.886
2544 0 126.43 12.5366 1585 121.394 267.278 440.3
2545 0 128.127 12.2769 1573 121.296 267.404 433.392
2546 0 137.483 13.5871 1868 116.849 267.422 431.761
2547 0 140.309 12.5652 1763 120.831 267.095 426.95
2548 0 147.366 13.0491 1923 118.177 267.551 428.006
2549 0 153.44 13.634 2092 118.804 267.865 423.807
2550 1 86.367 10.9069 942 120.867 267.998 454.097
2551 0 89.2328 11.7782 1051 113.718 267.54 454.186
2552 0 92.1555 14.0523 1295 117.721 268.706 451.358
2553 0 96.2935 12.8877 1241 120.683 268.728 452.978
2554 0 97.2746 13.796 1342 118.834 269.16 451.747
2555 0 100.301 14.0676 1411 119.485 268.976 450.244
2556 0 105.28 13.8487 1458 119.776 268.553 450.634
2557 0 105.241 12.1056 1274 125.573 269.11 449.474
2558 0 110.267 13.6034 1500 121.6 268.178 448.093
2559 0 113.319 13.1134 1486 123.742 268.26 439.209
2560 0 117.24 13.7326 1610 120.894 268.216 436.657
2561 0 121.521 13.9564 1696 119.087 268.99 438.969
2562 0 125.339 15.6616 1963 115.142 267.876 439.152
2563 0 127.325 13.4774 1716 121.583 267.416 435.706
2564 0 129.237 12.3571 1597 123.971 268.13 435.131
2565 0 136.382 11.5411 1574 122.67 267.496 436.196
2566 1 79.2198 10.6918 847 117.072 268.021 465.73
2567 0 81.102 13.2056 1071 111.812 268.28 462.865
2568 0 82.3057 12.3442 1016 113.124 267.596 454.083
2569 0 86.2412 12.3723 1067 113.704 267.434 459.566
2570 0 87.1997 12.9817 1132 113.755 268.052 456.259
2571 0 90.1868 13.7825 1243 110.71 267.247 457.846
2572 0 93.2436 13.5881 1267 111.908 267.811 455.107
2573 0 96.204 13.409 1290 112.991 267.745 451.146
2574 0 98.5685 13.4018 1321 113.719 267.687 447.534
2575 0 101.433 12.8064 1299 116.011 267.068 444.284
2576 0 103.505 12.4825 1292 115.001 266.927 442.236
2577 0 106.392 12.9051 1373 112.203 267.672 441.294
2578 0 112.391 12.4743 1402 110.267 267.466 442.686
2579 0 116.411 14.0451 1635 105.301 267.985 440.623
2580 0 118.398 12.8634 1523 109.185 267.477 440.637
2581 0 121.161 13.478 1633 109.178 267.475 435.499
2582 0 127.511 12.7832 1630 110.282 266.875 435.746
2583 1 74.4721 10.9168 813 110.824 267.145 458.23
2584 0 74.3618 11.4037 848 111.377 267.004 454.923
2585 0 77.1141 11.3209 873 110.307 266.6 462.617
2586 0 81.0965 12.3803 1004 106.963 266.552 464.079
2587 0 84.1446 12.4904 1051 107.247 267.161 458.145
2588 0 86.0676 11.6769 1005 109.787 266.411 458.758
2589 0 89.0662 12.5525 1118 109.022 266.758 456.684
2590 0 93.2016 12.8431 1197 108.464 267.495 458.825
2591 0 94.1065 12.8471 1209 109.492 267.324 455.261
2592 0 98.1907 13.5756 1333 107.143 267.285 454.911
2593 0 99.1546 12.1527 1205 112.281 267.855 453.233
2594 0 103.217 12.5077 1291 112.073 267.084 449.907
2595 0 106.163 14.035 1490 108.701 267.443 446.446
2596 0 108.193 12.3298 1334 114.717 267.184 439.321
2597 0 111.091 12.5212 1391 115.085 268.166 436.058
2598 0 114.101 12.0945 1380 117.409 268.322 437.374
2599 0 117.169 12.4436 1458 115.291 267.628 445.578
2600 0 119.229 12.2705 1463 117.716 267.395 439.283
2601 0 123.118 12.4921 1538 115.959 267.863 441.295
2602 0 120.203 12.8866 1549 118.851 268.089 432.006
2603 0 131.195 13.2855 1743 116.225 267.66 436.778
2604 0 134.213 13.1284 1762 115.978 267.827 424.852
2605 0 135.282 11.7384 1588 120.814 268.276 424.747
2606 1 80.2397 10.0449 806 116.345 268.218 452.906
2607 0 84.2075 10.4266 878 115.161 268.035 450.938
2608 0 86.1808 12.2417 1055 113.749 267.905 449.947
2609 0 94.2562 11.9037 1122 112.682 268.441 449.114
2610 0 94.1489 12.1934 1148 113.037 268.738 448.747
2611 0 97.2274 11.6325 1131 114.792 267.449 447.587
2612 0 100.285 12.2052 1224 115.443 267.708 443.406
2613 0 104.286 11.4301 1192 116.779 268.055 443.223
2614 0 106.141 12.0406 1278 114.2 267.826 443.523
2615 0 110.214 12.9566 1428 111.707 267.886 440.633
2616 0 112.308 12.9643 1456 110.812 267.739 440.02
2617 0 111.303 12.5424 1396 148.835 266.663 438.89
2618 0 118.285 13.3661 1581 111.812 268.076 433.588
2619 0 117.195 12.2445 1435 115.838 267.87 431.729
2620 0 127.272 13.9465 1775 109.382 267.321 433.812
2621 0 128.287 12.5889 1615 113.165 267.885 432.586
2622 0 133.309 13.4125 1788 111.74 267.594 428.885
2623 0 137.273 13.8629 1903 110.719 266.71 427.673
2624 0 139.137 14.1012 1962 111.435 266.982 425.46
2625 0 143.334 12.9836 1861 115.003 266.993 423.936
2626 1 83.1939 10.1931 848 111.479 265.92 454.176
2627 0 90.1136 10.3092 929 103.885 267.455 457.744
2628 0 91.1286 10.337 942 104.268 267.566 456.285
2629 0 94.1515 9.77148 920 106.408 266.587 451.775
2630 0 99.1842 11.3526 1126 102.996 267.044 453.987
2631 0 104.134 10.8225 1127 103.601 267.191 457.753
2632 0 107.222 11.5741 1241 102.727 267.555 455.634
2633 0 105.117 9.55125 1004 108.73 266.801 453.136
2634 0 113.121 11.4479 1295 104.168 267.012 454.448
2635 0 113.211 12.0571 1365 104.717 266.833 451.72
2636 0 117.237 11.4128 1338 106.214 267.042 449.291
2637 0 121.226 11.8456 1436 105.211 266.865 449.521
2638 0 124.262 12.3529 1535 104.805 266.608 448.048
2639 0 129.203 11.7799 1522 105.406 267.129 440.219
2640 0 133.269 10.5351 1404 109.256 266.39 434.523
2641 0 138.261 12.4113 1716 105.414 266.238 436.416
2642 0 141.357 11.6372 1645 107.356 266.886 438.06
2643 0 145.383 11.5006 1672 108.483 266.608 437.697
2644 0 149.38 12.1368 1813 108.955 266.29 433.105
2645 1 91.1724 10.2114 931 108.33 266.705 445.161
2646 0 95.2424 10.4155 992 110.677 266.779 449.62
2647 0 96.1417 10.4117 1001 111.091 266.12 450.977
2648 0 101.282 11.1668 1131 108.187 267.207 460.752
2649 0 103.365 11.1546 1153 109.771 266.911 456.128
2650 0 107.317 11.2657 1209 109.136 266.641 456.704
2651 0 111.396 12.2267 1362 108.094 266.117 452.866
2652 0 112.443 11.09 1247 111.789 266.006 450.051
2653 0 116.284 11.1709 1299 105.485 265.731 447.963
2654 0 118.326 10.6317 1258 108.645 265.239 448.706
2655 0 121.308 10.8484 1316 107.399 264.861 444.878
2656 0 124.55 11.1843 1393 108.692 265.168 441.904
2657 0 130.356 11.6604 1520 107.67 265.663 443.306
2658 0 130.56 10.2099 1333 112.744 266.648 437.835
2659 0 133.512 11.3098 1510 111.426 265.192 436.505
2660 0 139.535 12.5273 1748 109.334 264.915 434.359
2661 0 141.445 12.5844 1780 110.417 265.325 433.485
2662 0 146.523 12.5509 1839 112.334 265.719 429.639
2663 0 154.56 13.9687 2159 109.066 266.022 429.707
2664 0 156.514 12.1395 1900 114.689 265.598 425.472
2665 0 161.529 13.0255 2104 115.265 265.391 422.358
2666 0 166.272 12.8465 2136 113.448 265.952 423.867
2667 0 171.288 12.7738 2188 115.364 265.954 414.616
2668 0 176.363 13.631 2404 113.518 266.081 416.223
2669 0 181.302 12.8074 2322 116.152 265.78 413.115
2670 0 185.331 12.7718 2367 117.039 266.039 409.041
2671 0 192.414 13.3306 2565 115.345 266.062 407.979
2672 0 195.469 12.3549 2415 119.57 265.973 402.802
2673 0 202.454 13.0252 2637 118.057 265.626 400.197
2674 0 205.578 11.9906 2465 122.656 265.759 392.118
2675 1 21.0149 5.71022 120 89.0583 269.242 497.892
2676 0 21.0028 4.33276 91 91.9341 268.681 497.132
2677 0 27.0237 6.21677 168 87.9107 268.72 495.22
2678 0 26.0092 4.61375 120 92.0083 268.317 495.283
2679 0 22.0683 4.07825 90 90.3667 268.622 500.311
2680 0 19.0321 6.56785 125 89.36 268.28 498.744
2681 0 20.0052 1.89951 38 92.7105 268.579 501.526
2682 0 23.0029 6.47743 149 88 268.732 498.879
2683 0 23.0018 4.99962 115 86.7739 268.339 501.713
2684 0 21.0336 7.32163 154 87.6494 266.714 496.455
2685 0 25.0135 5.63696 141 89.2624 266.532 498.468
2686 0 24.0217 3.33033 80 92.15 264.025 496.188
2687 0 25.0153 6.91576 173 86.7514 264.017 498.734
2688 0 16.0653 5.85113 94 90.5957 264.947 500.532
2689 0 16.036 3.49215 56 94.5893 264.196 500.125
2690 0 11.0018 5.09006 56 89.4286 263.286 500.964
2691 0 16.0033 6.12374 98 87.5714 262.867 500.663
2692 0 16.0357 3.4922 56 91.0536 264.036 498.286
2693 0 15.0402 3.85633 58 88.6034 264.052 498.052
2694 0 0 0 0 -nan -nan -nan
2695 0 15.0121 4.19661 63 94.3016 266.508 502.492
2696 0 14.0028 6.0702 85 91 266.706 502.565
2697 0 19.0414 3.51865 67 95.3284 268.09 490.179
2698 0 14.0268 5.41819 76 91.8947 268.684 478.895
2699 0 12.0007 4.0831 49 93.6735 269.347 484.408
2700 0 17.0596 6.21352 106 89.6509 268.594 487.792
2701 0 14.002 1.42837 20 91.05 270.1 501.15
2702 0 13.0133 2.99692 39 84.1538 266.974 497.564
2703 0 10.0105 5.79391 58 82.7069 269.586 496.776
2704 0 9.00097 2.22198 20 86.55 268.3 498.35
2705 0 5 5.8 29 78.5172 269.448 494.379
2706 0 3 4 12 81.5 269 493.083
2707 1 16.003 3.49935 56 74.3393 269.661 499.75
2708 0 18.0121 4.38595 79 73.6709 269.468 498.937
2709 0 19.0023 4.84152 92 72.8913 268.88 498.478
2710 0 18.0006 3.49988 63 73.8254 268.286 498.127
2711 0 151.575 16.5265 2505 92.3401 265.445 429.109
2712 0 155.61 13.8294 2152 99.4447 264.907 423.323
2713 0 158.662 13.3176 2113 100.524 265.177 420.413
2714 1 98.4567 10.9693 1080 100.744 265.081 455.44
2715 0 99.3277 9.77572 971 105.412 265.451 452.418
2716 0 103.434 10.1514 1050 102.737 264.803 454.921
2717 0 102.491 9.89359 1014 104.315 265.653 447.036
2718 0 109.49 11.3252 1240 100.079 265.804 449.653
2719 0 110.565 12.3909 1370 98.6847 265.742 445.386
2720 0 113.487 10.662 1210 102.597 265.748 443.284
2721 0 116.576 10.9285 1274 102.21 266.081 444.9
2722 0 119.45 12.5324 1497 98.8176 265.945 443.541
2723 0 121.574 12.6014 1532 99.329 265.419 440.823
2724 0 121.579 12.7242 1547 99.8668 265.946 439.623
2725 0 124.526 13.6518 1700 98.0047 266.119 438.894
2726 0 127.45 12.0282 1533 103.265 265.927 435.792
2727 0 130.717 10.9855 1436 106.997 266.138 429.932
2728 0 134.392 12.843 1726 102.309 266.585 431.237
2729 0 136.524 12.1078 1653 105.133 265.844 430.142
2730 0 132.237 12.2053 1614 107.612 265.838 422.163
2731 1 14.0022 2.64244 37 74.3514 270.135 496.919
2732 0 13.0008 2.53831 33 74.3636 270.212 495.121
2733 0 12.0008 2.24986 27 73.4074 270.074 497.148
2734 0 12.0085 3.08116 37 75.2973 269.324 493.459
2735 1 159.496 12.8216 2045 107.054 266.519 417.439
2736 0 161.303 13.1678 2124 107.723 266.59 410.592
2737 0 158.462 13.0631 2070 110.292 266.333 407.748
2738 0 169.373 12.7293 2156 110.362 266.461 409.058
2739 0 173.445 12.5689 2180 111.512 266.7 406.666
2740 0 176.542 14.954 2640 106.375 267.219 405.888
2741 0 179.597 12.5169 2248 113.663 267.078 397.897
2742 1 14.0312 3.06461 43 78.6046 268.767 489.256
2743 0 14.0032 3.42778 48 76.5417 268.375 488.458
2744 0 17.0244 3.34813 57 75.1579 269.526 494.123
2745 0 16.0337 5.55081 89 72.0562 269.787 492.461
2746 0 21.0365 4.27829 90 76.2556 269.133 486.678
2747 0 22.0189 1.63496 36 79.4444 269.861 488.667
2748 0 19.0371 2.52139 48 77.625 269.917 488.875
2749 0 16.0261 4.43026 71 75.0282 269.366 488.831
2750 0 21.0721 4.41342 93 73.4409 270.043 490.935
2751 0 23.0385 2.56093 59 77.3559 270.627 489.407
2752 0 22.0063 5.81651 128 73.1328 271.242 494.016
2753 0 24.0358 2.20504 53 79.0377 270.17 490.151
2754 0 25.0043 6.51888 163 77.0245 270.38 495.755
2755 0 27.0113 3.7762 102 82.0882 270.274 497.755
2756 0 28.006 6.10584 171 81.1696 268.684 496.532
2757 0 35.074 7.35587 258 80.6899 268.884 491.969
2758 0 29.0419 3.37443 98 82.1633 265.673 490.184
2759 0 37.015 6.64595 246 79.8821 267.902 493.825
2760 0 29.0091 6.37731 185 79.6324 265.757 498.314
2761 0 21.025 4.09036 86 82.314 266 499.674
2762 0 24.0348 6.44897 155 79.529 267.342 500.077
2763 0 24.0044 6.12387 147 79.3401 267.959 499.531
2764 0 23.0242 6.86234 158 79.0633 266.848 500.361
2765 0 24.0063 5.70683 137 80.6131 266.496 499.474
2766 1 36.0238 7.82816 282 80.1135 266.287 493.227
2767 0 32.0218 4.3408 139 85.0719 266.547 492.259
2768 0 37.09 5.33837 198 79.6212 267.187 496.707
2769 0 39.0801 4.96417 194 82.1082 266.552 490.278
2770 0 40.0911 8.3809 336 76.7946 267.807 491.208
2771 0 40.0355 8.49246 340 76.7735 267.341 490.665
2772 0 41.031 7.31154 300 75.5433 266.643 492.373
2773 0 41.045 6.50506 267 74.191 266.745 492.06
2774 0 41.1066 7.68732 316 74.9272 268.684 488.722
2775 0 42.0334 6.8517 288 74.4062 269.052 489.562
2776 0 41.0772 7.86323 323 70.5882 268.52 488.189
2777 0 43.102 6.241 269 67.9331 268.275 484.234
2778 0 42.0831 8.98222 378 64.836 268.291 487.542
2779 0 41.1969 5.09747 210 69.2 268.533 487.238
2780 0 40.0379 5.44484 218 68.3119 268.532 483.307
2781 0 43.0699 4.45787 192 68.3177 268.266 487.724
2782 0 41.1522 5.29741 218 67.8211 268.995 482.326
2783 0 44.0844 6.44219 284 67.0986 268.743 484.25
2784 1 143.291 13.0155 1865 89.9571 266.844 428.193
2785 0 145.363 9.25961 1346 100.443 266.546 414.276
2786 0 150.428 12.6905 1909 92.0393 266.524 422.777
2787 0 153.292 12.0293 1844 93.6128 267.029 417.656
2788 0 157.279 11.4128 1795 95.7549 266.835 416.766
2789 0 157.236 10.78 1695 99.0525 266.817 408.927
2790 0 163.278 10.8404 1770 99.2768 266.887 410.676
2791 0 157.331 12.6485 1990 97.1864 266.791 411.561
2792 1 178.285 8.35742 1490 106.787 266.416 404.843
2793 0 178.268 10.0972 1800 103.957 266.742 400.561
2794 1 156.378 13.2372 2070 102.102 266.046 396.384
2795 0 157.302 12.2758 1931 106.587 266.128 389.475
2796 0 163.483 14.0076 2290 102.403 265.841 393.884
2797 1 24.0709 8.018 193 69.7202 268.264 499.974
2798 0 25.0541 8.34195 209 71.579 268.856 501.163
2799 0 23.0122 6.9963 161 75.6087 269.335 500.882
2800 0 28.0636 9.26467 260 70.0962 268.896 499.815
2801 0 27.0384 10.2077 276 70.7754 268.141 500.359
2802 0 27.0086 9.44144 255 71.6471 268.867 500.439
2803 0 28.1126 8.64382 243 74.5844 268.86 502.247
2804 0 28.0126 8.1749 229 76.2445 268.699 500.463
2805 0 27.0164 8.80946 238 76.0588 268.626 501.458
2806 0 29.0581 9.05084 263 76.1445 269.087 501.506
2807 0 30.0455 9.45232 284 75.7042 268.803 501.525
2808 0 29.057 10.2557 298 75.4463 268.963 500.346
2809 0 29.004 8.13682 236 79.6314 268.58 501.92
2810 0 28.0171 9.20868 258 78.7713 268.977 500.694
2811 0 28.1113 9.92484 279 78.5233 269.233 501.448
2812 0 28.0618 8.55254 240 81.6083 269.338 502.679
2813 0 30.1797 10.073 304 77.6974 269.312 500.908
2814 0 28.0764 9.43854 265 81.7094 268.808 501.992
2815 0 27.0664 8.23901 223 83.8834 268.96 500.543
2816 0 29.053 9.25894 269 81.4796 268.673 500.208
2817 0 29.0624 8.77422 255 82.1137 268.318 503.286
2818 0 28.1233 10.0984 284 81.5986 268.32 501.472
2819 0 29.116 9.47932 276 82.2935 268.859 501.286
2820 0 27.0262 9.73129 263 83.6388 269.16 501.414
2821 0 29.0773 9.80148 285 82.3649 268.414 501.902
2822 0 27.0239 8.696 235 86.0638 268.345 501.311
2823 0 27.0799 8.67803 235 86.5957 268.37 502.574
2824 1 63.6357 9.3501 595 82.2975 265.745 483.892
2825 0 63.4021 10.4255 661 81.3283 266.481 485.678
2826 0 64.6402 10.8292 700 80.5414 266.329 485.997
2827 0 63.5714 9.46966 602 82.9485 265.905 487.375
2828 0 64.5321 9.74709 629 81.6725 265.587 482.944
2829 0 64.7554 10.6864 692 81.5087 265.637 485.626
2830 0 65.535 9.64371 632 83.0949 265.756 486.913
2831 0 64.8344 8.11297 526 84.7909 265.268 485.675
2832 0 65.5982 10.2899 675 81.8933 265.016 482.982
2833 0 64.5323 8.7708 566 84.5724 265.237 487.343
2834 0 67.6742 11.2894 764 79.8141 265.335 483.318
2835 0 68.6904 10.2634 705 81.9206 264.899 482.824
2836 0 69.6702 9.4445 658 83.1732 265.327 483.28
2837 0 67.541 8.58738 580 84.3638 265.3 483.738
2838 0 69.5552 9.79079 681 81.3789 264.649 481.554
2839 0 69.5461 8.13848 566 84.0601 265.057 479.788
2840 0 74.5628 10.8231 807 79.1797 264.678 480.923
2841 0 73.4941 10.3274 759 80.5692 264.979 484.382
2842 0 76.7737 10.3681 796 79.9498 265.131 484.34
2843 0 76.5007 11.1894 856 78.861 265.797 484.341
2844 0 77.7024 10.5531 820 80.6793 266.074 479.133
2845 0 77.5588 9.46379 734 81.7316 266.208 482.64
2846 0 81.5654 9.17056 748 81.3543 265.878 485.688
2847 0 72.7741 9.72874 708 82.452 265.588 484.496
2848 0 70.6025 11.8268 835 80.4515 265.713 482.807
2849 0 70.5512 9.43996 666 85.6246 265.593 483.547
2850 0 70.8058 9.32127 660 86.8939 265.932 484.195
2851 1 85.6765 10.9715 940 82.3308 265 477.098
2852 0 84.4992 9.97642 843 85.4709 265.014 478.203
2853 0 86.7323 11.4606 994 81.67 265.403 477.329
2854 0 81.4314 10.0944 822 82.6934 266.667 480.35
2855 0 76.4774 10.879 832 83.3846 266.7 479.494
2856 0 79.4985 10.5537 839 83.6663 266.7 478.063
2857 0 71.7901 11.9376 857 83.3582 266.606 483.278
2858 0 74.8353 13.4429 1006 81.2256 266.224 480.844
2859 0 73.4443 11.4508 841 85.6516 265.63 480.602
2860 0 73.7431 11.7435 866 85.7922 266.08 480.733
2861 0 72.5129 11.6255 843 86.7497 265.058 482.288
2862 0 81.4663 10.4829 854 88.7658 265.631 479.315
2863 0 72.7355 10.5176 765 89.2536 265.18 479.931
2864 0 80.3752 10.5754 850 87.22 265.521 477.773
2865 0 80.6207 10.63 857 87.3477 265.505 478.753
2866 0 82.6017 10.4719 865 87.3387 265.434 481.623
