time division length width area intensity CMx CMy
0 0 29.04 11.5014 334 147.138 583.985 490.65
1 0 27.0172 11.3261 306 156.183 584.199 490.771
2 0 28.0276 10.7751 302 154.427 584.026 492.01
3 0 28.0146 11.9223 334 150.725 583.539 492.284
4 0 30.0098 10.8631 326 155.239 583.982 490.942
5 0 29.0118 11.2713 327 156.749 584.881 490.248
6 0 31.0132 10.5761 328 156.451 583.887 490.863
7 0 31.0178 10.8002 335 156.561 583.77 491.015
8 0 31.0436 11.0168 342 156.164 584.216 491.427
9 0 32.0659 11.0086 353 156.776 583.493 489.688
10 0 33.0241 11.4462 378 154.479 583.931 490.262
11 0 34.016 10.9066 371 156.698 583.79 490.736
12 0 35.0371 12.4154 435 151.913 584.048 488.743
13 0 38.0191 12.2307 465 149.617 584.241 489.527
14 0 37.0384 11.5016 426 152.547 583.113 490.167
15 0 39.0744 12.4122 485 149.025 582.994 489.67
16 0 41.0304 12.113 497 149.28 583.449 488.881
17 0 43.051 13.4492 579 143.402 583.535 488.216
18 0 43.0355 12.1063 521 148.795 582.155 488.071
19 0 44.0239 12.5159 551 147.909 582.735 487.757
20 0 44.1146 12.2182 539 150.297 582.401 486.686
21 0 47.0471 13.3908 630 144.441 582.67 485.792
22 0 47.0109 13.5713 638 143.879 581.868 486.219
23 0 49.0926 12.3237 605 146.666 581.451 485.99
24 0 50.1052 13.312 667 143.321 581.336 485.147
25 0 53.0823 13.0364 692 142.302 581.517 485.105
26 0 55.0995 13.2669 731 140.662 581.358 484.751
27 0 56.0614 12.9144 724 143.405 581.355 483.392
28 0 58.1132 12.7338 740 144.143 581.451 482.843
29 0 60.1406 13.0029 782 143.572 581.145 481.65
30 0 62.1191 13.8766 862 140.512 580.999 479.777
31 0 64.1915 12.7898 821 145.069 581.521 479.956
32 0 65.1182 12.3468 804 145.74 580.733 479.244
33 0 68.0979 13.04 888 143.452 580.418 478.765
34 0 71.1365 12.975 923 143.353 580.476 476.547
35 0 73.1877 13.3219 975 144.189 580.263 474.396
36 0 75.1178 13.0861 983 144.943 580.518 473.587
37 0 80.2202 12.6153 1012 143.684 580.387 473.296
38 0 80.1315 11.3813 912 151.363 579.964 470.802
39 0 85.338 12.4681 1064 147.391 579.771 469.099
40 0 89.2498 13.5799 1212 138.162 580.292 469.611
41 0 90.3226 13.8946 1255 140.771 580.015 468.212
42 1 50.0563 12.8855 645 136.053 580.631 489.189
43 0 51.1082 13.4029 685 136.601 580.88 486.591
44 0 53.0455 13.1962 700 137.137 580.056 485.767
45 0 56.0235 13.0124 729 137.244 580.427 484.96
46 0 57.0484 12.8312 732 137.329 580.042 484.331
47 0 59.0428 12.8551 759 136.482 579.578 483.644
48 0 60.0167 12.9131 775 138.843 580.031 482.197
49 0 62.03 12.7841 793 139.306 580.889 480.965
50 0 65.0325 12.6398 822 139.546 580.018 480.676
51 0 66.0599 11.8377 782 142.372 580.366 480.283
52 0 69.1174 12.8766 890 138.935 580.209 479.125
53 0 72.0996 13.6062 981 137.46 580.343 477.372
54 0 72.0327 12.7303 917 142.01 579.944 477.33
55 0 75.0253 13.8087 1036 139.392 579.646 474.54
56 0 79.0901 13.4277 1062 139.82 579.008 474.076
57 0 80.0713 12.6013 1009 143.598 579.144 474.32
58 0 84.0719 14.1308 1188 138.93 578.839 471.58
59 0 86.1251 13.7474 1184 141.497 579.048 469.249
60 0 89.1091 13.433 1197 141.642 579.731 468.509
61 0 94.0974 13.3266 1254 141.478 579.171 466.023
62 0 98.1121 14.1063 1384 140.173 578.878 464.355
63 0 103.191 14.1777 1463 139.45 578.796 463.714
64 0 108.085 14.7754 1597 136.319 578.343 461.131
65 0 112.184 15.0557 1689 135.384 579.009 456.413
66 0 115.073 14.0694 1619 136.086 578.886 454.053
67 1 58.1307 11.3365 659 133.48 579.065 481.099
68 0 60.133 12.3892 745 138.415 578.73 480.283
69 0 63.0732 11.9861 756 131.987 578.665 482.958
70 0 65.1185 13.4831 878 128.409 578.318 482.06
71 0 67.0313 12.979 870 132.328 579.155 480.185
72 0 69.0868 13.1863 911 131.863 579.227 480.114
73 0 72.0526 13.2542 955 132.049 578.663 477.171
74 0 72.0848 12.7905 922 134.586 578.869 475.396
75 0 77.0812 13.155 1014 131.538 579.469 475.474
76 0 81.1859 12.2558 995 134.309 579.734 474.299
77 0 84.1199 13.7066 1153 131.78 579.558 473.362
78 0 87.0847 14.6524 1276 127.827 579.381 471.975
79 0 88.0934 13.2587 1168 130.632 578.644 470.936
80 0 90.1239 13.2151 1191 130.828 578.299 466.923
81 0 94.1558 13.7326 1293 128.549 578.799 465.383
82 0 97.1096 13.2943 1291 128.201 578.743 462.24
83 0 101.122 13.4293 1358 125.668 579.434 459.675
84 0 105.157 13.0376 1371 127.101 579.77 458.201
85 1 50.0243 9.03561 452 120.619 580.524 484.655
86 0 55.0331 12.1018 666 120.869 579.796 484.82
87 0 57.1116 11.0836 633 124.046 578.276 486.06
88 0 59.1482 12.5109 740 115.107 578.564 487.342
89 0 59.0438 11.8048 697 118.535 578.317 485.154
90 0 62.1064 11.9794 744 117.102 577.651 484.977
91 0 63.0676 12.2408 772 115.69 578.303 485.852
92 0 66.1595 12.3338 816 116.551 579.282 483.32
93 0 68.0488 12.2118 831 117.996 579.166 482.296
94 0 70.11 11.753 824 119.288 578.976 481.603
95 0 72.0763 12.3064 887 118.337 579.056 478.635
96 0 74.1356 12.4636 924 117.814 578.51 476.841
97 0 76.1572 12.3954 944 118.454 579.028 476.834
98 0 81.1927 13.2032 1072 114.207 579.157 474.545
99 0 81.0566 11.5352 935 118.541 578.692 473.36
100 0 86.1267 12.6674 1091 115.704 578.566 471.21
101 0 89.1871 12.4121 1107 116.015 577.97 469.591
102 0 93.2863 13.5068 1260 113.131 578.348 468.482
103 1 48.0618 11.1315 535 112.626 579.613 490.594
104 0 49.0514 11.4574 562 112.411 579.319 490.543
105 0 50.0688 11.9436 598 111.57 577.788 489.543
106 0 50.0772 10.8433 543 113.742 577.538 489.169
107 0 54.1222 12.3424 668 109.235 577.467 488.837
108 0 55.0466 12.2623 675 110.443 577.99 486.864
109 0 57.139 12.6709 724 109.646 577.044 485.413
110 0 59.145 12.1904 721 111.316 577.44 485.997
111 0 60.2098 12.9049 777 110.189 577.358 483.174
112 0 64.1298 13.0049 834 109.397 576.844 482.572
113 0 67.1791 12.0424 809 112.137 576.85 481.964
114 0 68.1297 13.2248 901 110.513 577.555 478.686
115 0 68.1867 12.2605 836 114.793 576.874 480.227
116 0 72.1455 13.5975 981 112.109 577.6 478.088
117 0 75.1769 12.1048 910 116.364 577.031 478.158
118 0 76.3539 12.5861 961 116.944 577.546 475.095
119 0 80.2983 12.8023 1028 117.552 577.976 474.881
120 0 81.3926 12.8881 1049 118.985 577.614 471.371
121 1 43.4718 10.1675 442 112.025 577.59 492.023
122 0 43.2626 9.03783 391 111.143 577.379 487.015
123 0 46.1991 10.6712 493 105.249 577.231 485.237
124 0 47.0241 11.4409 538 109.649 578.615 492.223
125 0 48.0867 11.1465 536 113.188 576.731 491.174
126 0 50.0106 10.7177 536 113.332 577.259 491.701
127 0 50.0435 10.4109 521 115.299 577.56 491.182
128 0 53.1447 11.4593 609 112.33 577.461 490.14
129 0 53.1021 11.6756 620 113.34 577.108 488.41
130 0 57.0631 11.3383 647 112.343 577.283 488.447
131 0 57.0852 11.5266 658 113.485 577.708 486.711
132 0 59.0766 11.849 700 112.567 577.374 487.594
133 0 63.1517 12.5729 794 109.798 576.684 484.322
134 0 64.119 11.3695 729 114.433 576.7 483.601
135 0 65.1681 11.6161 757 114.481 576.02 483.548
136 0 68.1228 11.4499 780 114.89 577.035 481.563
137 0 70.2446 12.4138 872 112.069 576.736 481.311
138 0 73.1429 12.4824 913 109.978 576.911 479.882
139 0 74.066 11.1657 827 113.354 576.832 477.6
140 0 79.1288 11.2854 893 111.351 576.952 477.928
141 0 82.0904 12.0477 989 110.145 576.749 474.707
142 0 85.2148 12.9555 1104 108.99 577.463 471.508
143 0 87.1784 12.0099 1047 110.84 577.157 471.694
144 1 47.0509 10.563 497 112.692 576.553 491.644
145 0 49.042 11.3372 556 111.48 577.894 488.523
146 0 50.0664 11.4848 575 108.139 578.663 490.583
147 0 51.0472 11.9889 612 107.072 576.891 489.328
148 0 51.0768 12.0603 616 107.864 577.304 488.938
149 0 53.0996 11.5444 613 108.778 577.21 488.581
150 0 55.1766 10.8198 597 111.149 577.702 486.563
151 0 56.1534 11.7713 661 108.315 577.316 485.139
152 0 58.1757 12.3763 720 107.375 577.818 484.899
153 0 59.221 10.9083 646 111.322 577.22 484.344
154 0 61.225 11.4496 701 117.817 577.598 480.913
155 0 65.1377 11.6522 759 116.31 576.896 480.69
156 0 67.1576 11.5549 776 116.013 577.388 480.832
157 0 70.1782 11.0433 775 118.101 577.497 478.339
158 0 70.3148 11.349 798 118.754 577.878 477.813
159 0 73.1743 11.9714 876 117.023 577.201 476.785
160 0 75.1469 11.6172 873 118.4 577.746 474.216
161 0 78.1797 10.9363 855 120.104 576.777 472.047
162 0 79.2195 10.2752 814 124.402 576.955 471.563
163 0 85.175 11.764 1002 120.213 577.067 470.624
164 1 44.0689 11.6182 512 117.203 577.986 489.736
165 0 44.1012 11.3602 501 115.729 578.066 489.421
166 0 46.0539 12.138 559 113.161 577.794 490.444
167 0 45.1767 10.8684 491 118.403 577.866 491.375
168 0 47.1358 11.6896 551 116.713 577.138 489.532
169 0 50.1028 12.9733 650 113.672 577.237 488.497
170 0 51.0137 13.6238 695 111.271 578.222 488.85
171 0 53.0276 12.6349 670 115.843 578.236 487.021
172 0 54.0724 12.7607 690 114.781 578.068 486.907
173 0 56.0944 13.4416 754 113.536 578.294 485.572
174 0 57.0495 14.1807 809 113.195 577.597 485.402
175 0 57.0774 12.0363 687 120.945 577.579 483.98
176 0 59.0277 13.6546 806 116.957 577.586 483.046
177 0 62.1362 13.1324 816 117.517 578.33 482.44
178 0 63.191 13.0082 822 118.367 578.269 479.998
179 0 65.1042 12.3033 801 119.878 577.557 479.306
180 0 68.0363 13.7721 937 116.443 577.939 478.782
181 0 71.1437 13.3392 949 116.065 577.993 478.76
182 0 72.1291 13.3233 961 118.431 577.951 477.639
183 0 71.0466 12.4425 884 123.059 578.111 475.881
184 0 76.1613 13.5108 1029 118.916 578.007 474.549
185 0 80.0757 13.8619 1110 118.105 577.942 472.711
186 0 83.0982 14.4407 1200 117.499 578.576 472.654
187 0 86.0585 13.8162 1189 120.23 578.532 469.971
188 1 42.0496 11.2011 471 119.769 578.854 493.11
189 0 44.0616 11.3931 502 119.994 578.131 490.934
190 0 45.0454 12.3209 555 116.867 578.575 490.789
191 0 46.1314 12.291 567 114.988 576.66 491.208
192 0 45.008 12.7533 574 115.751 577.488 491.382
193 0 48.0723 13.3133 640 112.794 577.719 490.672
194 0 48.0872 11.7703 566 118.21 577.919 489.355
195 0 50.079 12.7199 637 115.524 578.714 488.248
196 0 52.1995 13.0078 679 114.909 578.56 487.138
197 0 52.1584 12.7688 666 115.565 578.14 486.904
198 0 53.1346 12.5342 666 117.532 579.051 486.739
199 0 53.1346 12.5718 668 145.835 580.052 486.763
200 0 57.1505 12.2309 699 118.22 578.029 484.155
201 0 61.0768 14.0479 858 114.444 577.295 482.192
202 0 63.0558 12.8616 811 117.429 578.732 482.596
203 0 62.0306 12.8646 798 119.9 577.815 480.992
204 0 65.2242 12.6793 827 119.015 578.282 481.734
205 0 66.0933 13.2237 874 119.804 577.47 478.087
206 0 68.0502 12.9022 878 121.682 578.153 479.191
207 0 71.1376 13.0592 929 121.842 578.244 477.867
208 0 73.1069 13.0494 954 121.756 577.552 476.712
209 0 77.14 14.3376 1106 125.497 577.41 475.646
210 0 78.1681 13.3686 1045 130.422 577.445 473.767
211 0 80.182 13.4818 1081 130.673 577.19 473.154
212 0 82.2381 13.3393 1097 132.55 577.328 471.688
213 0 85.1471 13.3534 1137 132.272 577.511 470.921
214 0 87.108 14.2696 1243 130.484 577.158 468.41
215 0 91.1501 15.1179 1378 127.559 577.443 466.062
216 1 46.0299 11.3405 522 129.473 577.425 488.621
217 0 47.0971 10.9986 518 127.369 577.338 489.606
218 0 49.0338 11.9917 588 123.219 577.704 488.98
219 0 51.0356 12.4227 634 121.39 577.921 489.311
220 0 51.0702 13.0213 665 121.224 577.848 486.917
221 0 52.0478 12.2964 640 124.441 577.397 487.08
222 0 51.0263 11.6215 593 126.818 577.89 485.341
223 0 53.02 11.9578 634 124.554 577.475 485.424
224 0 56.0087 11.9089 667 124.094 577.421 485.189
225 0 58.1426 12.1426 706 122.915 577.524 485.222
226 0 61.0763 11.7067 715 122.834 577.106 484.238
227 0 64.0182 11.1999 717 123.449 576.755 483.361
228 0 66.1009 11.9968 793 122.084 577.324 481.594
229 0 67.0469 12.8268 860 121.469 577.47 480.476
230 0 71.0354 12.4867 887 122.085 578.135 478.123
231 0 72.0963 12.941 933 122.195 577.979 476.48
232 0 76.0424 12.8744 979 120.359 577.983 476.938
233 0 77.1109 12.1124 934 123.752 578.259 475.262
234 0 80.1058 12.9828 1040 120.812 578.346 473.279
235 0 81.0487 12.437 1008 123.164 578.141 471.197
236 0 87.0617 13.7144 1194 118.176 578.291 470.4
237 1 42.075 10.8378 456 122.702 578.697 490.241
238 0 45.0376 11.8568 534 113.431 578.421 491.075
239 0 46.042 11.4678 528 116.703 578.797 490.443
240 0 47.0406 10.8204 509 118.729 578.78 490.55
241 0 47.0434 11.3087 532 118.947 579.045 488.925
242 0 49.0268 12.3606 606 114.944 578.616 489.081
243 0 52.0922 11.0381 575 117.21 578.416 488.595
244 0 51.0299 11.6598 595 116.276 578.311 488.378
245 0 53.075 11.757 624 116.394 578.811 486.24
246 0 55.0485 11.6624 642 115.498 578.48 486.322
247 0 57.0678 11.6528 665 115.257 578.18 485.638
248 0 59.0567 11.4466 676 115.37 578.423 485.112
249 0 61.0638 11.8073 721 116.229 578.422 482.352
250 0 65.0577 12.2353 796 113.977 578.906 481.76
251 0 65.1023 12.3652 805 115.851 578.576 478.801
252 0 69.125 12.6872 877 113.352 578.303 479.246
253 0 71.1017 12.9111 918 113.416 577.417 478.776
254 0 73.1239 12.5404 917 115.237 577.912 476.086
255 0 75.0617 12.3099 924 116.192 578.32 476.067
256 0 78.1649 13.1133 1025 113.936 578.351 475.419
257 0 80.0845 14.5721 1167 111.528 578.665 475.141
258 0 81.1297 13.2011 1071 115.315 578.751 472.967
259 0 86.1125 14.574 1255 119.319 577.896 468.818
260 0 88.1382 12.9115 1138 122.76 577.836 470.276
261 0 90.1774 13.6287 1229 120.988 577.178 469.37
262 0 94.1109 14.026 1320 120.985 577.312 465.139
263 0 95.236 12.1698 1159 125.149 578.181 464.854
264 0 101.122 13.4294 1358 123.054 577.41 462.574
265 1 51.0515 9.28474 474 119.143 578.165 489.781
266 0 51.1342 10.9907 562 117.913 578.528 486.973
267 0 53.1101 10.6948 568 113.257 578.181 486.739
268 0 55.1167 11.1763 616 112.393 578.92 486.297
269 0 60.0887 11.5496 694 110.503 578.095 485.313
270 0 61.1277 12.2858 751 110.33 577.611 483.435
271 0 63.0887 12.3794 781 110.063 578.109 482.355
272 0 65.0532 12.6051 820 108.685 578.387 483.132
273 0 69.0861 11.6232 803 111.958 578.274 481.62
274 0 70.0561 12.3615 866 112.061 578.425 479.859
275 0 71.0877 12.6885 902 112.523 577.772 478.887
276 0 74.0791 13.6881 1014 110.769 576.9 476.844
277 0 75.0776 12.8667 966 113.786 577.448 474.003
278 0 80.0698 13.0261 1043 112.352 577.735 474.263
279 0 81.1237 11.9201 967 115.356 577.182 474.12
280 0 83.128 12.0778 1004 115.85 577.434 472.863
281 0 86.1275 12.4351 1071 113.221 577.81 469.141
282 0 88.1803 11.5219 1016 118.295 578.284 469.648
283 1 47.0468 9.54368 449 117.098 577.298 489.158
284 0 49.1052 11.3837 559 112.739 577.762 490.068
285 0 50.0936 11.9776 600 110.768 577.775 490.308
286 0 51.0882 12.0576 616 110.998 577.744 489.505
287 0 54.072 12.9087 698 108.583 576.825 486.715
288 0 55.0551 11.6792 643 111.072 576.523 487.984
289 0 55.0886 11.418 629 113.221 577.436 486.141
290 0 57.0184 11.1368 635 114.046 577.213 485.022
291 0 59.0337 11.7391 693 112.179 577.346 485.358
292 0 60.0524 11.4234 686 112.78 576.851 485.392
293 0 62.2488 11.7271 730 112.159 577.625 481.868
294 0 65.0484 12.6829 825 109.602 577.189 481.76
295 0 67.0774 11.9265 800 111.68 577.616 478.989
296 0 70.0489 10.7925 756 113.241 578.044 478.115
297 0 71.0707 12.3398 877 111.129 578.794 477.741
298 0 73.1436 12.4686 912 111.6 578.485 475.168
299 0 75.0857 10.6145 797 113.809 577.944 475.652
300 0 79.1872 12.0853 957 109.439 578.292 474.391
301 0 82.0705 12.4893 1025 109.257 578.221 472.836
302 0 85.0838 11.0479 940 112.13 578.045 471.939
303 0 86.2553 10.3762 895 113.223 577.666 470.064
304 1 42.0229 9.13788 384 110.435 578.013 490.641
305 0 46.0307 10.0368 462 107.149 578.463 492.048
306 0 45.014 9.93024 447 109.517 578.624 490.154
307 0 48.0137 10.3095 495 108.341 576.776 490.077
308 0 48.0692 9.15347 440 110.43 576.614 490.6
309 0 52.0536 10.2779 535 107.193 577.357 489.819
310 0 52.1965 9.52172 497 109.068 576.433 489.147
311 0 55.0964 10.1822 561 109.21 576.355 486.763
312 0 54.1699 10.8363 587 108.69 576.956 484.959
313 0 56.0533 10.5614 592 109.213 576.904 484.831
314 0 58.1951 10.1899 593 110.754 576.921 484.088
315 0 60.1637 8.69295 523 113.862 576.38 483.553
316 0 64.2028 11.3391 728 107.343 576.294 481.896
317 0 67.115 12.0837 811 106.072 576.404 480.412
318 0 70.1523 10.8478 761 109.146 577.488 478.56
319 0 72.1 10.7628 776 109.3 577.341 477.973
320 0 73.1225 9.69605 709 110.922 577.216 473.482
321 1 39.0129 8.8176 344 107.898 576.334 495.203
322 0 39.0274 11.0948 433 103.106 577.626 493.663
323 0 41.0512 10.4504 429 105.41 579.121 492.394
324 0 41.0223 10.5552 433 104.889 578.737 492.277
325 0 43.0521 10.5918 456 104.632 579.248 491.364
326 0 44.0385 11.4672 505 102.61 578.35 492.743
327 0 44.0537 10.2375 451 105.12 578.477 491.568
328 0 46.0599 10.4429 481 103.967 578.376 492.516
329 0 49.0287 10.3001 505 104.279 579.107 487.463
330 0 49.0206 10.8934 534 104.034 578.886 489.558
331 0 51.0397 11.3637 580 102.922 578.152 488.071
332 0 52.0118 10.9398 569 104.148 578.227 489.988
333 0 53.0632 11.8161 627 104.04 579.062 486.761
334 0 55.0558 11.9697 659 102.531 579.47 486.237
335 0 55.1122 10.7417 592 105.905 579.503 484.818
336 0 58.1074 11.255 654 105.131 578.318 484.613
337 0 61.0895 12.6045 770 101.709 579.038 484.455
338 0 63.1046 12.4714 787 102.592 579.132 483.053
339 0 64.1062 12.1049 776 104.097 578.581 480.722
340 0 66.2004 12.719 842 103.01 578.121 479.558
341 0 70.1127 12.1376 851 104.291 578.851 479.244
342 0 71.1619 11.9024 847 105.567 579.035 478.202
343 0 75.1197 12.713 955 104.04 579.09 476.434
344 0 75.1351 11.4993 864 107.421 579.338 477.635
345 0 79.1176 11.9695 947 107.117 579.699 473.359
346 1 43.0393 11.5708 498 105.327 580.157 493.767
347 0 41.0734 9.8117 403 96.8883 579.702 489.189
348 0 45.0202 11.3504 511 103.2 580.02 493.63
349 0 46.0686 10.5495 486 104.035 580.848 493.619
350 0 47.0851 12.1695 573 102.421 580.471 492.344
351 0 50.1062 11.0565 554 104.143 580.217 491.969
352 0 49.0611 10.864 533 105.555 579.876 490.263
353 0 51.0318 12.9331 660 100.73 580.041 489.267
354 0 53.0483 11.7817 625 103.126 580.555 488.779
355 0 54.0229 10.9768 593 105.206 580.13 488.46
356 0 57.0571 11.7076 668 102.573 580.16 485.677
357 0 57.0758 11.2132 640 104.612 579.586 487.227
358 0 61.1576 12.4106 759 100.942 579.559 485.779
359 0 63.0694 12.3515 779 101.078 580.307 484.475
360 0 63.1623 11.605 733 104.225 579.557 483.314
361 0 65.1761 11.1544 727 104.23 579.78 481.619
362 0 68.0952 11.7629 801 102.468 579.757 480.956
363 0 69.1679 11.9853 829 103.227 579.994 480.053
364 0 72.1536 12.6536 913 102.183 579.476 479.415
365 0 74.2078 12.3572 917 102.427 579.132 478.723
366 0 76.0782 13.4993 1027 101.272 578.923 475.329
367 0 79.125 11.7915 933 104.453 579.725 475.945
368 1 40.0116 11.2717 451 104.237 580.512 495.61
369 0 41.0268 11.5534 474 104.304 580.006 494.342
370 0 44.0148 11.428 503 105.879 579.893 492.972
371 0 45.056 11.9851 540 105.011 580.409 491.996
372 0 45.0498 11.9645 539 105.223 580.492 492.566
373 0 46.0794 12.5653 579 104.288 580.052 492.04
374 0 49.0326 11.89 583 104.916 579.849 490.099
375 0 50.0315 12.1324 607 104.745 579.621 489.98
376 0 53.0139 13.0532 692 101.747 579.451 490.306
377 0 54.0208 11.9769 647 105.184 579.83 487.598
378 0 54.0495 12.9696 701 103.573 578.983 486.929
379 0 55.0446 11.6996 644 106.408 578.904 487.398
380 0 59.0337 13.0603 771 102.285 579.082 486.833
381 0 58.0644 12.1417 705 105.743 578.898 486.406
382 0 59.0266 11.9946 708 107.068 579.48 483.939
383 0 63.0518 13.3858 844 102.605 579.572 483.684
384 0 65.0934 12.8124 834 104.237 579.452 482.118
385 0 67.079 12.94 868 103.833 579.184 481.817
386 0 70.0621 13.7592 964 102.401 579.383 480.784
387 0 71.0764 12.972 922 104.804 579.634 477.969
388 0 74.1202 13.2353 981 103.785 579.866 477.471
389 0 76.0306 13.3104 1012 104.892 579.514 476.551
390 0 78.0533 13.0167 1016 105.922 579.119 475.179
391 0 80.1119 11.9957 961 109.293 578.075 475.865
392 0 85.0695 12.8953 1097 105.582 577.943 472.969
393 0 88.1707 13.6667 1205 103.359 577.928 468.399
394 0 90.163 11.3239 1021 109.263 578.239 470.808
395 0 91.1398 11.4879 1047 109.715 577.7 467.956
396 1 52.036 11.4344 595 105.151 577.249 488.025
397 0 52.0357 10.4544 544 108.252 577.741 488.665
398 0 54.037 12.806 692 106.318 577.591 487.913
399 0 54.1248 11.1963 606 104.378 578.394 482.711
400 0 54.1678 11.3352 614 104.899 578.594 481.713
401 0 55.1996 12.011 663 104.888 577.887 479.376
402 0 57.1739 11.054 632 107.5 578.562 480.571
403 0 61.1376 11.5641 707 106 578.721 479.769
404 0 63.1629 11.6683 737 105.452 579.126 478.787
405 0 64.0662 10.4423 669 100.897 579.067 479.447
406 0 66.1044 9.60602 635 101.677 579.146 481.715
407 0 69.1078 11.1565 771 100.817 579.193 479.271
408 0 70.0772 11.4303 801 101.326 579.533 477.655
409 0 75.1477 11.8167 888 101.332 579.048 476.812
410 0 76.1331 10.6918 814 104.015 579.279 475.668
411 0 80.2611 10.9393 878 104.054 579.678 474.118
412 0 82.2278 12.2221 1005 104.15 579.244 471.257
413 0 85.3125 11.874 1013 105.12 579.521 469.089
414 0 88.2439 10.4257 920 107.802 578.747 469.186
415 0 93.2005 11.2124 1045 107.431 579.138 467.244
416 1 48.0847 11.043 531 96.0942 578.682 488.968
417 0 49.1777 10.7569 529 97.9093 578.722 485.871
418 0 49.0363 11.1958 549 103.632 579.532 488.286
419 0 51.0758 11.8256 604 105.301 580.22 486.725
420 0 51.0566 11.3404 579 107.53 579.541 484.525
421 0 54.1974 12.1039 656 105.502 579.418 484.689
422 0 54.0812 11.4827 621 108.681 580.045 482.911
423 0 58.053 11.7479 682 105.971 580.554 484.503
424 0 60.0504 10.7743 647 108.941 579.903 482.312
425 0 61.0442 11.4671 700 107.871 579.356 481.006
426 0 65.0688 12.141 790 105.929 580.261 480.872
427 0 65.1106 11.9796 780 107.192 580.15 480.369
428 0 68.0576 12.2543 834 106.61 579.749 478.344
429 0 68.1135 11.2753 768 110.413 579.496 475.71
430 0 72.0723 12.099 872 107.031 578.491 476.385
431 0 74.27 12.8719 956 103.903 578.902 474.985
432 0 75.13 11.6864 878 103.45 580.183 473.533
433 0 78.1722 11.4363 894 104.154 580.302 472.019
434 0 81.0921 13.3429 1082 109.278 579.835 476.774
435 0 83.0944 12.9491 1076 111.267 579.205 475.91
436 0 86.0848 12.6852 1092 111.313 579.94 473.827
437 0 88.0598 12.4574 1097 110.917 579.842 472.214
438 0 89.0599 11.6438 1037 114.443 579.849 469.997
439 0 92.1074 12.3551 1138 113.129 579.511 466.59
440 1 51.1662 11.2965 578 106.474 580.183 490.806
441 0 52.0076 10.5177 547 104.656 578.358 491.72
442 0 55.0966 12.6142 695 100.042 580.329 488.679
443 0 58.0751 12.2256 710 99.3056 579.952 488.949
444 0 57.0916 11.175 638 103.925 579.914 486.154
445 0 59.0479 10.5338 622 103.809 580.895 488.339
446 0 64.0973 12.7151 815 98.7055 580.856 487.135
447 0 64.099 12.1999 782 101.123 580.706 485.519
448 0 68.0758 12.2511 834 100.243 581.038 483.189
449 0 69.1191 12.6304 873 100.203 580.858 481.299
450 0 73.0691 13.3298 974 98.153 580.242 481.266
451 0 74.054 12.1533 900 101.611 580.458 479.57
452 0 76.0565 12.5039 951 100.762 580.885 477.366
453 0 80.092 13.1599 1054 99.3102 580.397 477.515
454 0 82.0737 13.8656 1138 97.7575 580.267 477.387
455 0 84.1019 12.7464 1072 101.472 581.044 474.584
456 0 87.0978 13.2035 1150 101.928 580.31 473.789
457 0 92.135 12.6119 1162 98.7857 580.183 472.867
458 0 94.3977 11.9283 1126 106.147 578.813 470.051
459 1 44.0832 9.3006 410 107.544 578.505 491.232
460 0 48.2394 12.7282 614 98.6303 578.779 491.785
461 0 50.172 12.5568 630 98.6635 579.246 489.425
462 0 52.1433 11.3917 594 100.556 578.406 489.65
463 0 52.2012 12.6434 660 97.9652 579.392 490.876
464 0 52.0992 12.7065 662 99.7915 579.364 488.69
465 0 55.1965 11.5225 636 100.005 579.593 487.874
466 0 58.1628 11.7945 686 98.602 578.847 488.655
467 0 58.182 12.4265 723 97.7261 579.393 486.141
468 0 62.0707 12.7919 794 95.9081 579.136 485.749
469 0 61.1117 11.6181 710 97.8521 578.596 484.161
470 0 65.0886 12.7365 829 94.4065 578.462 483.105
471 0 67.0706 12.3005 825 95.3479 578.372 482.68
472 0 68.1136 11.8772 809 96.3795 578.932 481.906
473 0 70.0829 12.3283 864 96.5243 578.649 478.012
474 0 73.107 12.3928 906 92.9746 579.074 477.54
475 0 74.0616 10.8828 806 96.2841 579.256 476.89
476 0 76.2764 11.2879 861 94.5436 580.391 475.463
477 0 80.1948 12.6317 1013 92.0879 579.618 472.703
478 0 83.2736 11.8165 984 94.9441 579.967 472.613
479 0 85.2058 11.126 948 97.4504 580.351 472.281
480 0 87.2064 12.694 1107 94.8663 579.529 468.328
481 0 91.3349 12.1093 1106 95.6076 578.576 466.556
482 0 93.2988 12.669 1182 96.2166 579.39 465.715
483 1 46.0673 10.1156 466 97.3262 579.702 494.232
484 0 48.0755 12.1684 585 95.2325 579.884 492.453
485 0 49.219 12.3529 608 96.4671 579.411 487.929
486 0 49.1453 10.0722 495 102.018 579.152 492.802
487 0 49.1381 10.9284 537 101.356 579.667 493.445
488 0 51.1535 10.4587 535 100.391 579.953 494.29
489 0 53.2754 10.9056 581 101.093 579.033 491.883
490 0 54.2156 10.9378 593 102.152 579.076 489.757
491 0 56.2247 10.6359 598 101.691 579.174 490.241
492 0 58.0816 12.052 700 98.3671 579.511 489.204
493 0 60.1899 11.065 666 101.649 579.009 486.207
494 0 62.175 12.3361 767 98.8566 578.761 486.583
495 0 62.365 10.631 663 103.265 578.673 484.551
496 0 65.2143 11.1632 728 101.059 579.501 485.429
497 0 70.2643 12.3107 865 98.8 580.216 483.938
498 0 70.112 11.9095 835 101.604 579.851 481.788
499 0 71.3011 12.1036 863 103.067 579.509 479.393
500 0 74.3573 11.5927 862 107.241 580.115 479.085
501 0 77.2696 13.5241 1045 105.567 579.306 476.614
502 0 79.2002 12.6767 1004 110.099 578.744 474.083
503 0 82.2284 13.2558 1090 109.544 579.889 474.111
504 0 85.4878 12.3409 1055 111.538 579.157 472.234
505 0 89.32 14.476 1293 107.508 579.271 470.263
506 0 90.2572 12.8743 1162 112.83 579.696 468.454
507 0 92.2411 11.7735 1086 115.754 579.716 469.506
508 0 97.3434 11.9988 1168 115.612 579.623 468.86
509 1 50.1305 10.8118 542 112.799 580.026 491.076
510 0 52.0268 11.1673 581 108.788 579.043 490.37
511 0 52.0988 11.2862 588 108.954 579.702 487.835
512 0 55.2406 11.5676 639 106.854 579.7 485.773
513 0 56.2294 11.6843 657 107.444 579.662 486.068
514 0 58.136 11.0947 645 109.364 579.301 485.603
515 0 61.0926 12.391 757 108.62 579.1 483.007
516 0 64.2585 11.7961 758 110.854 578.842 481.402
517 0 65.0769 11.9704 779 111.594 578.617 481.845
518 0 68.168 12.5719 857 110.926 578.858 479.155
519 0 69.2349 12.2915 851 113.239 579.134 477.894
520 0 72.1632 12.3747 893 113.755 578.999 476.292
521 0 74.2383 12.177 904 115.833 578.035 475.778
522 0 76.1735 12.0908 921 116.131 578.511 475.322
523 0 81.2134 14.0248 1139 113.155 578.372 474.583
524 0 83.1215 13.6908 1138 115.061 578.985 473.286
525 0 85.1019 12.8787 1096 118.084 579.586 470.97
526 0 87.1132 12.3403 1075 119.112 578.74 471.642
527 0 93.2193 13.6345 1271 114.455 579.781 468.944
528 0 96.27 13.7841 1327 114.077 579.79 466.939
529 0 99.2622 13.4089 1331 114.571 579.93 464.979
530 1 52.1411 13.2525 691 105.865 580.036 489.382
531 0 52.1905 12.3203 643 108.196 580.453 488.537
532 0 55.285 12.535 693 107.932 579.343 488.889
533 0 57.0931 12.1381 693 105.571 579.593 487.241
534 0 59.0855 12.3719 731 104.034 579.766 487.346
535 0 60.0903 10.6173 638 107.973 579.856 484.713
536 0 62.0221 12.1086 751 105.121 579.899 483.136
537 0 65.0145 12.7356 828 102.938 579.6 480.717
538 0 68.0387 11.6404 792 104.879 579.824 482.1
539 0 68.1012 11.9234 812 106.293 579.743 480.466
540 0 71.1199 11.4736 816 107.181 579.506 478.527
541 0 75.2371 12.2546 922 105.358 579.638 476.568
542 0 79.2325 12.8987 1022 103.799 579.801 475.475
543 0 81.2301 11.5844 941 106.454 579.717 476.752
544 0 85.1672 12.8571 1095 105.301 579.714 472.514
545 0 88.1413 12.3438 1088 106.817 579.438 470.824
546 0 92.1872 13.1797 1215 104.912 579.429 471.308
547 0 97.1246 13.0966 1272 105.691 579.897 469.165
548 0 100.154 12.8403 1286 108.813 580.8 464.774
549 0 105.195 11.0081 1158 111.456 580.329 466.124
550 1 52.1244 11.5877 604 111.682 580.965 486.106
551 0 54.1193 12.4909 676 104.13 581.086 489.072
552 0 56.0277 12.3332 691 104.583 581.153 488.614
553 0 57.1133 11.9412 682 106.069 580.192 489.356
554 0 59.1072 12.4689 737 105.685 580.444 487.753
555 0 60.0507 11.4736 689 107.395 580.17 487.321
556 0 63.1477 11.3227 715 107.883 579.869 487.287
557 0 65.0695 11.7413 764 107.677 580.101 485.25
558 0 64.2508 10.7859 693 110.016 579.434 483.537
559 0 66.0967 9.4861 627 112.793 580.359 484.656
560 0 68.0988 10.94 745 108.992 579.917 482.585
561 0 75.0991 10.8523 815 109.279 580.189 479.961
562 0 76.1117 11.6276 885 107.979 579.875 477.969
563 0 79.1476 11.4217 904 108.895 579.658 476.403
564 0 82.095 11.5354 947 109.27 580.266 474.926
565 0 84.1311 11.6247 978 110.097 580.552 472.398
566 0 90.1505 13.2002 1190 106.258 579.954 472.708
567 0 93.1173 12.8655 1198 107.699 579.761 468.785
568 1 44.0249 11.0846 488 110.832 580.219 493.08
569 0 48.0122 10.7264 515 105.85 580.689 491.243
570 0 50.0517 11.6879 585 106.267 578.092 491.725
571 0 51.019 11.7211 598 107.299 578.294 491.445
572 0 53.0709 11.9086 632 107.345 578.416 489.941
573 0 55.0618 12.7675 703 105.659 578.642 488.188
574 0 55.0559 11.4974 633 109.171 578.765 487.526
575 0 58.189 12.0126 699 107.423 578.451 488.092
576 0 60.0734 12.4514 748 106.489 577.924 488.783
577 0 61.1105 12.731 778 107.278 578.751 485.51
578 0 64.07 12.58 806 107.598 578.785 482.799
579 0 66.135 12.9583 857 107.28 577.991 482.726
580 0 68.1004 11.1894 762 111.24 577.812 484.315
581 0 70.1977 13.2198 928 107.22 578.323 479.248
582 0 73.0904 13.4354 982 107.451 578.385 479.082
583 0 75.0642 13.282 997 108.765 578.293 478.12
584 0 77.0709 12.3912 955 111.416 578.735 476.296
585 0 80.1536 12.4511 998 112.001 578.678 476.561
586 0 83.0973 13.3819 1112 110.952 579.037 476.429
587 0 84.1096 12.2578 1031 115.386 578.952 474.934
588 0 88.0689 12.6492 1114 113.013 579.299 474.591
589 0 92.0869 13.2375 1219 112.467 579.179 472.322
590 0 96.1419 12.9392 1244 113.928 579.633 470.039
591 1 50.0205 10.0959 505 121.503 579.097 488.758
592 0 55.0335 12.665 697 113.102 578.749 488.337
593 0 55.1206 12.9716 715 108.053 579.471 489.036
594 0 56.0575 12.9153 724 108.367 578.986 489.159
595 0 59.0847 12.4059 733 108.965 579.413 488.229
596 0 59.1192 12.7031 751 110.133 578.85 486.912
597 0 62.0939 13.1092 814 109.295 578.845 486.41
598 0 65.0813 14.5971 950 105.987 578.336 484.812
599 0 68.0913 13.849 943 107.715 578.826 485.195
600 0 68.0324 13.6552 929 110.282 578.548 483.855
601 0 70.0659 13.4017 939 111.285 578.931 483.015
602 0 72.0549 13.9338 1004 111.187 578.784 481.377
603 0 76.0499 14.4642 1100 110.145 578.753 478.638
604 0 79.0675 14.3042 1131 110.689 578.635 479.899
605 0 80.1422 13.4012 1074 113.911 578.818 480.542
606 0 83.2234 13.2775 1105 111.327 580.014 475.986
607 0 87.0891 13.5493 1180 110.816 579.578 473.386
608 0 88.1653 13.9057 1226 112.298 580.391 474.297
609 0 91.1256 13.4869 1229 114.819 580.511 471.965
610 0 94.1939 14.0455 1323 113.81 580.235 472.345
611 0 96.1349 14.4172 1386 113.551 579.359 471.105
612 0 99.1293 14.3853 1426 114.45 579.939 467.978
613 0 101.151 13.5737 1373 116.703 579.756 466.838
614 0 106.223 14.0271 1490 114.958 579.342 466.101
615 0 107.084 14.2411 1525 115.841 579.053 463.908
616 0 108.107 13.3017 1438 119.369 578.78 462.841
617 0 112.211 14.2678 1601 118.289 578.631 460.981
618 0 117.054 14.6172 1711 117.506 578.537 459.945
619 0 120.228 13.8986 1671 119.059 579.139 454.734
620 0 125.247 13.8287 1732 119.271 579.38 452.458
621 0 128.296 14.1937 1821 122.368 579.301 452.401
622 0 134.41 13.3546 1795 125.089 579.209 449.007
623 0 138.291 13.1534 1819 124.762 579.478 447.997
624 0 144.525 14.4197 2084 121.604 578.8 446.543
625 0 148.391 13.761 2042 124.581 578.798 441.683
626 0 154.251 13.7439 2120 125.214 578.573 439.228
627 0 155.269 15.6245 2426 122.349 578.357 440.274
628 0 165.315 14.1064 2332 122.682 578.169 436.833
629 0 170.49 14.0536 2396 123.109 579.201 431.209
630 0 175.285 13.9488 2445 121.911 578.261 431.908
631 0 180.461 13.4655 2430 124.472 578.812 426.718
632 0 188.379 14.6672 2763 121.886 578.658 421.778
633 0 193.579 15.6267 3025 120.475 578.955 418.275
634 0 199.659 15.0908 3013 121.551 579.463 410.676
635 0 206.703 14.7409 3047 122.363 578.58 410.829
636 0 215.465 14.9955 3231 120.933 578.169 408.959
637 0 223.378 16.3221 3646 116.268 578.407 405.116
638 0 229.427 14.9546 3431 119.078 578.789 399.732
639 1 171.139 12.0487 2062 121.36 579.182 433.789
640 0 179.214 13.6652 2449 117.63 578.056 428.553
641 0 183.437 12.9363 2373 121.719 578.948 424.189
642 0 191.521 13.0586 2501 121.021 578.166 422.619
643 0 199.659 13.5331 2702 121.103 578.641 417.059
644 0 206.401 12.4806 2576 123.819 578.609 416.231
645 0 212.433 13.8491 2942 123.787 578.692 406.427
646 0 222.45 13.6885 3045 125.404 578.888 406.03
647 0 232.555 13.9279 3239 126.59 579.558 399.088
648 1 60.2058 11.2282 676 108.426 579.621 488.361
649 0 59.1597 9.87159 584 116.127 579.063 485.111
650 0 62.1958 11.0136 685 113.991 578.756 485.317
651 0 64.1981 11.2776 724 114.8 578.923 484.174
652 0 67.1776 11.8194 794 113.865 579.103 484.175
653 0 69.2169 10.8788 753 119.295 577.922 481.628
654 0 71.1799 11.8713 845 118.527 578.516 480.562
655 0 75.3408 13.419 1011 114.607 578.479 479.827
656 0 78.2689 12.2526 959 117.75 578.263 477.456
657 0 80.4832 12.7604 1027 118.637 578.093 471.494
658 0 81.429 12.5508 1022 120.059 577.676 471.54
659 0 84.4646 12.7627 1078 118.944 577.672 469.251
660 0 89.459 12.5085 1119 120.562 577.922 465.406
661 0 94.5346 12.7043 1201 118.03 578.33 467.413
662 0 96.4001 10.7676 1038 124.697 577.531 466.898
663 1 48.096 11.4562 551 112.644 579.214 494.408
664 0 50.0161 10.2767 514 115.975 579.551 492.451
665 0 53.0494 10.6128 563 113.233 579.789 491.883
666 0 54.085 11.6853 632 112.226 580.294 490.166
667 0 55.0836 11.7821 649 115.267 580.324 487.812
668 0 57.0279 11.5733 660 114.726 579.859 487.717
669 0 58.0735 12.1226 704 113.81 580.338 487.972
670 0 60.2225 10.5608 636 116.365 580.48 486.785
671 0 61.1527 11.7902 721 114.827 579.509 483.151
672 0 65.2481 12.1536 793 112.393 579.053 482.58
673 0 63.3856 12.1163 768 115.346 580.227 479.78
674 0 66.2677 11.363 753 115.622 578.969 480.951
675 0 69.4733 10.9107 758 116.665 578.962 478.798
676 0 71.4631 11.5164 823 115.495 578.815 478.776
677 0 72.3638 13.1005 948 111.476 579.168 478.964
678 0 75.5489 11.7672 889 114.326 579.614 477.283
679 0 77.4878 11.8083 915 113.604 579.819 475.085
680 0 77.4183 11.6897 905 114.622 579.107 474.082
681 0 79.2788 11.4154 905 115.423 578.272 472.449
682 0 83.4713 12.5313 1046 112.707 579.026 470.422
683 0 84.5511 10.7746 911 115.714 578.685 471.296
684 0 87.4013 12.5399 1096 113.12 579.285 468.86
685 0 91.3642 12.992 1187 111.745 579.317 466.524
686 0 93.4997 14.246 1332 110.604 579.031 465.034
687 0 96.294 13.0018 1252 112.698 579.28 463.973
688 0 100.363 13.9095 1396 111.686 579.165 462.22
689 0 103.534 13.6863 1417 110.69 578.308 461.239
690 0 105.536 12.8772 1359 114.394 578.256 459.734
691 1 55.3397 11.1312 616 105.432 578.843 485.862
692 0 56.3696 11.3359 639 107.382 579.149 484.834
693 0 58.4217 11.3314 662 108.597 578.775 482.739
694 0 60.0892 12.2651 737 110.164 577.965 485.946
695 0 61.0625 10.9232 667 114.391 577.301 482.604
696 0 63.413 12.3003 780 112.122 576.846 476.865
697 0 65.3159 11.4214 746 114.142 577.551 477.335
698 0 70.3423 11.4298 804 112.975 577.394 477.209
699 0 69.5248 11.1471 775 115.554 577.702 475.772
700 0 73.3268 11.0737 812 115.49 577.91 474.533
701 0 78.3617 12.0467 944 113.062 578.374 474.326
702 0 77.2802 11.3871 880 116.409 577.983 472.222
703 0 80.3194 12.1515 976 115.343 578.447 469.921
704 0 83.3198 12.542 1045 115.234 578.407 467.653
705 0 87.4162 13.7618 1203 110.706 577.592 469.111
706 0 89.3813 12.9781 1160 113.38 578.389 466.548
707 0 90.3563 12.4286 1123 116.338 578.088 462.861
708 0 95.3094 11.7092 1116 117.773 578.909 463.363
709 0 97.3242 12.258 1193 116.901 578.376 460.586
710 0 102.326 12.7533 1305 116.582 578.79 458.421
711 0 107.258 14.3393 1538 113.696 577.981 457.973
712 1 57.2126 11.4311 654 112.083 578.109 484.26
713 0 59.0745 12.7297 752 109.738 579.239 484.508
714 0 61.1347 11.5483 706 112.924 579.755 481.011
715 0 62.1801 11.4828 714 113.746 579.707 481.345
716 0 62.2638 10.7286 668 116.684 579.759 479.195
717 0 67.1541 11.8831 798 115.554 580.332 478.991
718 0 67.1537 10.7068 719 120.132 580.345 478.586
719 0 69.1566 11.915 824 117.691 579.721 479.391
720 0 74.229 12.5423 931 117.13 580.434 476.956
721 0 76.1256 11.6518 887 121.3 580.481 475.123
722 0 80.2105 12.4921 1002 119.449 580.09 475.222
723 0 83.1867 12.4419 1035 120.479 579.577 473.764
724 0 86.2051 12.0527 1039 122.866 579.394 471.8
725 1 46.0469 9.14285 421 120.204 579.58 491.584
726 0 49.0942 9.63455 473 116.036 578.569 487.964
727 0 51.2731 11.0194 565 118.303 577.958 486.446
728 0 51.1944 11.095 568 119.178 578.018 487.025
729 0 52.0616 12.466 649 108.968 579.803 488.706
730 0 55.1254 11.7187 646 110.101 579.514 489.508
731 0 54.0659 10.7831 583 114.158 579.979 490.731
732 0 54.1809 9.70823 526 119.051 580.335 489.494
733 0 56.1824 11.5695 650 114.546 579.412 488.009
734 0 56.1464 8.97653 504 121.839 579.383 488.175
735 0 57.1263 10.8881 622 119.101 578.889 486.675
736 0 60.1179 10.363 623 119.568 579.339 487.1
737 0 64.1158 10.4031 667 118.492 579.306 486.103
738 0 69.1679 11.3781 787 116.217 578.536 483.299
739 0 67.195 9.74775 655 120.22 578.998 485.202
740 0 72.1704 11.0987 801 117.192 579.312 483.762
741 0 73.1538 11.5783 847 119.128 579.335 480.596
742 0 77.2081 12.5375 968 116.553 579.061 478.804
743 0 80.3923 11.5185 926 117.214 579.371 478.828
744 1 42.0721 11.5278 485 115.652 579.658 495.313
745 0 41.1499 10.3524 426 116.779 579.256 496.333
746 0 42.125 11.0861 467 116.696 578.67 494.33
747 0 43.0545 10.3357 445 119.294 579.319 495.285
748 0 46.0632 10.8112 498 116.954 578.281 494.378
749 0 48.0805 10.316 496 116.647 578.502 494.347
750 0 50.1091 11.1357 558 115.704 578.401 491.905
751 0 51.1014 10.9195 558 116.441 578.351 489.927
752 0 53.0482 12.1211 643 111.756 579.025 490.605
753 0 56.0438 12.2404 686 111.187 579.197 489.443
754 0 53.0536 9.34904 496 120.538 578.226 488.839
755 0 58.0922 10.7243 623 115.602 578.437 488.404
756 0 60.0626 10.6722 641 116.58 578.105 487.488
757 0 64.0755 10.7685 690 116.148 578.464 485.072
758 0 63.0324 11.0895 699 116.572 578.399 483.815
759 0 67.074 13.254 889 110.603 578.461 483.01
760 0 67.0402 11.5155 772 115.558 577.995 482.149
761 0 70.1628 10.7464 754 116.492 577.39 482.772
762 0 72.1118 10.6501 768 118.405 577.318 481.228
763 0 76.09 10.8687 827 116.29 577.484 480.99
764 0 79.0608 11.624 919 116.514 578.196 476.703
765 0 81.0542 11.6835 947 115.846 577.666 475.424
766 0 84.0733 11.6208 977 115.802 578.344 473.523
767 0 90.0633 12.8576 1158 111.48 577.97 473.327
768 1 46.0071 10.6723 491 115.143 577.831 490.566
769 0 49.0562 11.2932 554 110.91 576.765 490.126
770 0 50.059 11.9059 596 108.327 577.445 491.413
771 0 50.036 10.1127 506 113.285 579.464 492.662
772 0 52.0608 11.0064 573 111.927 578.571 491.084
773 0 54.0529 10.2677 555 113.202 578.515 490.315
774 0 55.0515 10.5174 579 112.641 578.991 490.059
775 0 57.0369 12.6935 724 108.844 579.01 488.336
776 0 55.1835 9.31438 514 115.916 579.49 490.519
777 0 61.0985 10.1148 618 114.044 579.231 488.286
778 0 61.092 10.3287 631 116.106 580.333 486.578
779 0 66.0763 11.1084 734 111.467 579.435 485.426
780 0 67.1065 11.6829 784 111.74 577.938 482.569
781 0 71.0714 12.1005 860 110.028 577.808 481.912
782 0 73.0928 11.7659 860 110.692 577.178 481.664
783 0 76.1617 12.828 977 108.076 577.863 479.758
784 0 78.2242 11.0452 864 112.068 578.05 480.295
785 0 81.0696 11.4223 926 112.359 578.359 477.856
786 0 83.1603 12.0851 1005 111.515 578.59 476.548
787 0 85.166 11.1077 946 113.987 578.178 475.424
788 0 90.1952 10.9651 989 114.204 578.073 474.254
789 0 94.1797 11.8603 1117 112.449 578.235 471.168
790 0 97.2237 11.0261 1072 114.187 578.326 470.833
791 0 101.112 11.6307 1176 114.516 577.974 467.189
792 1 57.119 11.1347 636 108.95 577.316 491.654
793 0 57.1906 11.1032 635 110.017 577.887 488.82
794 0 60.0634 11.1715 671 109.402 577.478 489.049
795 0 62.053 12.5377 778 106.832 577.112 486.932
796 0 63.1544 12.509 790 105.932 577.751 487.63
797 0 64.1088 10.7318 688 110.789 577.916 487.222
798 0 68.18 13.0244 888 105.28 577.295 484.488
799 0 67.1688 11.5679 777 110.278 577.821 485.466
800 0 72.2767 11.705 846 109.173 578.028 484.043
801 0 74.2012 11.5632 858 110.199 578.214 481.434
802 0 75.2049 12.7252 957 108.842 577.865 479.946
803 0 79.1297 11.9298 944 109.643 578.036 478.924
804 0 82.1782 12.6189 1037 107.294 577.89 478.252
805 0 85.1265 13.1921 1123 107.549 578.149 475.874
806 0 87.3008 12.749 1113 108.573 577.202 474.192
807 0 93.262 12.3201 1149 109.184 577.374 472.129
808 1 49.1595 10.9643 539 108.43 577.137 494.748
809 0 51.0485 11.303 577 107.932 577.718 493.376
810 0 51.1157 9.9578 509 111.202 577.672 493.511
811 0 55.0883 12.0171 662 106.467 577.502 490.929
812 0 52.0179 10.4387 543 113.44 577.556 491.786
813 0 54.1457 10.1578 550 111.505 578.242 493.269
814 0 54.2201 9.25856 502 114.221 577.57 490.125
815 0 60.1566 11.6031 698 106.943 577.951 488.616
816 0 62.1079 10.5623 656 109.45 577.841 487.316
817 0 62.1424 10.6369 661 109.853 577.589 486.805
818 0 65.1141 12.3476 804 105.72 577.34 484.337
819 0 67.214 12.8545 864 104.421 577.793 483.892
820 0 69.0769 10.2494 708 109.691 577.992 484.16
821 0 73.1294 11.6096 849 106.339 578.249 481.885
822 0 75.0901 12.3052 924 105.006 578.468 479.731
823 0 77.1349 10.9678 846 106.879 577.637 480.483
824 0 80.1056 11.5473 925 106.77 578.52 476.732
825 0 82.1765 12.7774 1050 104.766 577.966 475.465
826 0 84.1171 10.5448 887 109.935 578.092 474.08
827 0 87.0693 11.0602 963 108.233 578.433 473.774
828 1 43.0701 9.21753 397 109.262 577.897 494.383
829 0 46.1424 11.3995 526 103.863 577.494 491.863
830 0 47.0687 12.0037 565 104.097 577.899 490.375
831 0 48.1912 11.4129 550 104.885 577.845 489.005
832 0 50.0243 11.7143 586 105.242 577.3 490.92
833 0 53.1071 11.9005 632 103.807 577.652 488.331
834 0 55.1324 12.3521 681 102.452 577.233 487.891
835 0 55.1403 11.8425 653 105.077 576.68 486.807
836 0 58.1461 11.8839 691 102.472 577.612 486.666
837 0 58.103 12.0648 701 104.755 579.213 486.271
838 0 60.1447 13.4176 807 102.038 579.857 486.994
839 0 61.1929 12.4361 761 104.393 579.171 484.365
840 0 63.1444 12.2418 773 104.223 579.242 484.853
841 0 66.0832 12.802 846 102.599 579.468 482.184
842 0 67.0949 12.147 815 105.081 579.571 481.236
843 0 69.0607 11.7143 809 106.063 578.949 480.37
844 0 73.2539 12.4498 912 102.913 579.132 481.772
845 0 75.0963 13.1698 989 102.598 578.972 479.43
846 0 75.1261 12.8318 964 104.227 579.523 477.201
847 0 80.0595 13.2152 1058 111.121 580.265 476.971
848 0 83.11 13.9574 1160 110.219 579.434 475.062
849 0 84.0697 12.9179 1086 113.729 580.184 473.675
850 0 86.0737 12.9656 1116 113.743 578.589 472.487
851 0 89.0736 12.7086 1132 114.086 579.605 470.079
852 0 94.0769 14.7433 1387 106.261 579.38 468.125
853 0 92.08 12.0873 1113 113.235 579.486 462.642
854 0 96.0635 11.2322 1079 114.441 579.8 462.519
855 0 99.1403 11.9931 1189 113.509 577.888 457.311
856 0 106.139 13.3221 1414 107.794 577.295 460.107
857 1 56.0374 10.0112 561 102.246 579.282 483.635
858 0 58.067 9.38571 545 103.982 579.464 480.728
859 0 60.0289 10.8614 652 98.0276 577.865 482.474
860 0 58.1891 8.95357 521 102.664 578.198 482.171
861 0 64.0535 11.0845 710 99.6127 578.852 479.57
862 0 65.0641 11.5578 752 98.5053 578.517 480.008
863 0 67.0864 9.9424 667 101.906 577.793 476.991
864 0 69.0917 10.4788 724 103.03 578.133 475.776
865 0 70.1648 10.4896 736 103.2 578.372 474.885
866 0 75.035 11.5946 870 100.817 578.777 475.413
867 0 77.0232 10.75 828 102.28 578.903 472.707
868 0 79.1128 11.313 895 102.668 578.407 471.777
869 0 82.0696 10.8566 891 102.689 577.889 470.764
870 0 86.1147 10.4628 901 103.526 579.089 468.62
871 0 86.0617 10.6203 914 103.685 579.4 463.225
872 0 92.1104 10.4657 964 103.779 578.689 464.23
873 1 48.2573 9.94668 480 96.3042 578.706 487.771
874 0 50.1104 8.18194 410 100.576 579.073 488.846
875 0 50.0258 10.6945 535 96.1178 579.267 484.778
876 0 49.0846 10.9199 536 96.8526 578.744 484.92
877 0 51.0824 10.9431 559 96.9141 578.844 483.079
878 0 52.1038 10.4599 545 97.378 577.881 482.092
879 0 55.0777 10.7484 592 97.0321 578.328 481.191
880 0 56.1085 10.5153 590 97.8983 578.768 478.339
881 0 56.0626 9.09698 510 100.982 577.88 478.778
882 0 60.0435 11.0586 664 97.3976 577.869 477.709
883 0 62.1782 10.3252 642 98.5483 578.036 480.187
884 0 63.0498 11.6257 733 97.0477 578.314 476.246
885 0 67.1011 9.85081 661 99.7504 578.623 476.576
886 0 69.1371 11.4844 794 98.4169 578.442 475.329
887 0 74.1027 12.2263 906 96.3201 578.5 474.557
888 0 74.1393 11.411 846 98.9775 578.844 474.105
889 0 78.0844 12.5505 980 97.1633 578.461 471.24
890 0 80.1943 12.3824 993 97.7865 578.456 472.178
891 0 82.1061 10.4621 859 102.171 577.942 469.278
892 0 88.2915 13.5574 1197 96.8145 578.029 465.314
893 0 89.3984 11.3984 1019 102.937 578.334 464.208
894 0 91.1707 12.164 1109 103.366 577.888 465.099
895 1 49.3245 10.7857 532 99.5282 577.56 485.297
896 0 49.2095 8.63654 425 104.562 577.701 483.944
897 0 52.2087 12.699 663 94.9457 578.526 484.259
898 0 55.1526 9.6097 530 100.158 578.775 481.794
899 0 55.1417 11.3707 627 97.2424 578.568 483.767
900 0 57.258 11.5268 660 97.5879 578.355 483.797
901 0 60.2466 11.204 675 97.7067 578.701 483.304
902 0 61.1274 12.3513 755 97.743 579.354 480.18
903 0 62.2294 10.9595 682 101.617 578.421 479.729
904 0 67.1122 12.0842 811 99.1369 578.245 478.337
905 0 67.1809 11.4765 771 100.362 578.372 479.342
906 0 70.2314 11.4479 804 100.701 578.541 478.146
907 0 75.2938 13.7461 1035 104.827 578.077 477.761
908 0 75.1828 12.6625 952 107.078 579.025 476.251
909 0 80.1499 14.2483 1142 103.555 579.069 474.898
910 0 83.1513 14.0828 1171 104.915 579.102 475.553
911 0 86.233 12.1995 1052 109.947 579.005 473.621
912 0 88.1551 13.6691 1205 108.12 579.285 469.589
913 0 91.1082 13.5224 1232 109.103 578.587 469.929
914 1 46.0247 9.95119 458 117.21 579.533 492.118
915 0 48.0362 10.8044 519 115.865 579.513 492.254
916 0 52.0812 12.1349 632 111.82 579.372 490.117
917 0 51.0598 11.5747 591 103.917 577.673 489.775
918 0 52.0918 11.9597 623 105.318 577.775 487.226
919 0 53.1406 11.9683 636 106.321 577.981 487.313
920 0 54.0416 12.2498 662 107.065 578.417 485.518
921 0 56.1347 11.4546 643 109.428 578.574 485.322
922 0 58.056 11.3339 658 110.416 578.169 484.666
923 0 62.1784 12.625 785 106.796 577.427 484.785
924 0 63.0992 12.4724 787 108.277 577.822 482.822
925 0 66.1472 13.1676 871 107.586 577.696 482.583
926 0 67.1262 12.4542 836 109.681 577.624 478.671
927 0 70.1644 12.5562 881 109.106 577.875 477.799
928 0 72.0775 12.0842 871 116.164 577.666 475.528
929 0 74.0673 11.9216 883 117.498 578.189 477.194
930 0 77.1465 12.068 931 119.331 578.781 474.83
931 0 80.1709 11.5503 926 119.496 578.679 474.681
932 0 83.0881 12.6252 1049 117.835 578.489 472.705
933 0 86.1304 12.7017 1094 117.882 578.761 472.908
934 0 84.0538 12.1827 1024 119.758 577.777 470.936
935 0 92.1183 13.309 1226 117.091 578.261 469.097
936 0 97.1642 14.1822 1378 115.274 577.552 466.589
937 0 99.1036 12.8855 1277 118.989 578.281 466.341
938 0 103.161 12.369 1276 120.419 577.836 466.132
939 1 55.2606 12.7758 706 117.912 578.514 486.143
940 0 60.2088 12.5231 754 117.247 578.731 486.743
941 0 60.0904 13.1635 791 113.025 576.669 488.037
942 0 63.0231 12.9 813 113.218 576.946 486.396
943 0 63.0506 12.3869 781 115.474 577.04 485.265
944 0 67.0541 13.8992 932 111.457 577.534 483.002
945 0 68.0678 12.8401 874 113.747 577.462 482.6
946 0 69.0455 11.3983 787 117.272 577.355 481.422
947 0 74.0502 13.7204 1016 110.656 577.816 479.651
948 0 77.0683 13.5075 1041 110.366 578.082 478.371
949 0 77.156 12.222 943 114.591 578.131 477.401
950 0 79.1395 13.5078 1069 111.735 578.551 476.689
951 0 85.0581 13.7083 1166 109.49 577.912 475.058
952 0 86.0642 13.5945 1170 110.408 578.327 471.222
953 0 91.0537 13.4097 1221 108.401 578.762 470.206
954 0 95.0776 13.5153 1285 106.842 579.257 467.509
955 0 97.0782 12.9277 1255 107.782 578.791 467.904
956 1 48.0558 10.0092 481 108.135 578.647 492.497
957 0 50.0207 12.155 608 106.102 579.462 489.308
958 0 52.213 12.2958 642 109.033 579.025 488.463
959 0 55.2528 12.47 689 101.701 579.192 486.524
960 0 56.0962 12.3359 692 106.882 579.292 488.074
961 0 58.0392 12.6639 735 105.431 578.52 485.789
962 0 61.0772 12.1322 741 106.874 578.709 485.444
963 0 62.0453 13.0389 809 104.197 578.66 486.135
964 0 64.0795 13.4364 861 104.43 579.641 480.619
965 0 66.0591 13.0338 861 105.15 579.093 482.764
966 0 68.1489 13.0156 887 105.407 578.223 480.988
967 0 74.1193 13.7616 1020 109.426 578.576 480.059
968 0 74.0811 13.4447 996 112.45 579.152 476.907
969 0 74.1427 10.5877 785 113.569 578.368 474.029
970 0 77.2679 12.3596 955 110.614 577.892 470.756
971 0 79.2855 12.1208 961 112.072 578.627 468.777
972 0 82.2633 11.4997 946 112.725 578.973 469.574
973 0 87.2864 12.3502 1078 111.083 579.078 468.955
974 0 88.2513 11.9885 1058 114.107 578.946 465.859
975 0 93.0624 12.4433 1158 113.692 579.369 465.725
976 0 96.3073 12.5016 1204 113.549 579.832 464.005
977 0 100.167 12.3294 1235 111.708 579.731 465.383
978 0 103.149 14.4064 1486 108.131 579.116 459.672
979 0 106.169 12.5083 1328 112.204 579.505 459.775
980 0 109.193 13.499 1474 110.321 578.836 457.484
981 1 60.2772 11.696 705 111.383 578.742 484.204
982 0 61.2043 12.4174 760 112.084 578.957 481.014
983 0 64.1646 12.6238 810 111.621 579.191 480.993
984 0 63.087 11.7615 742 108.466 578.914 476.389
985 0 65.3309 11.3116 739 109.854 578.53 473.122
986 0 67.2954 10.9071 734 111.287 578.944 471.846
987 0 73.1606 12.3154 901 107.651 579.019 471.224
988 0 74.1818 11.2696 836 111.999 580.133 471.166
989 0 77.1928 11.9571 923 110.985 579.841 467.949
990 0 79.1038 10.6316 841 114.172 578.579 471.128
991 0 84.1478 12.9534 1090 109.834 578.528 468.144
992 0 88.1479 12.4336 1096 110.711 578.723 466.941
993 0 91.0847 11.0227 1004 111.65 578.048 469.719
994 0 97.0588 13.2703 1288 107.933 578.9 466.019
995 0 98.153 11.7572 1154 112.295 579.121 461.484
996 0 100.129 12.5438 1256 110.496 578.564 461.618
997 0 100.136 12.5729 1259 137.538 576.57 461.773
998 0 106.23 12.7083 1350 110.325 578.726 459.619
999 0 109.244 11.7535 1284 114.01 578.47 458.804
1000 0 116.243 13.6352 1585 111.741 578.244 456.432
1001 0 118.219 12.8068 1514 113.708 577.89 455.072
1002 0 124.249 13.2234 1643 112.47 578.358 453.086
1003 0 130.365 13.9839 1823 110.806 578.761 451.059
1004 0 132.343 12.5053 1655 115.019 578.809 447.616
1005 1 70.1977 12.479 876 106.042 579.458 478.081
1006 0 71.2069 11.4034 812 110.046 579.192 475.868
1007 0 72.1253 11.48 828 111.489 579.366 473.331
1008 0 76.1228 12.1383 924 101.963 578.391 474.245
1009 0 77.1463 11.9254 920 103.299 577.652 473.674
1010 0 80.1541 12.2514 982 103.179 578.049 471.747
1011 0 82.1329 11.2135 921 107.195 578.494 470.869
1012 0 85.117 12.0305 1024 106.697 578.135 470.022
1013 0 88.0861 12.1926 1074 106.844 578.211 468.352
1014 0 90.0984 13.8071 1244 104.006 578.504 467.275
1015 0 94.1688 13.3378 1256 106.686 578.334 466.366
1016 0 98.1494 12.4504 1222 107.915 578.125 466.252
1017 0 97.0973 11.3185 1099 113.227 578.22 461.425
1018 0 101.152 12.0314 1217 111.161 578.065 461.895
1019 0 106.097 14.3171 1519 107.005 578.362 461.061
1020 0 110.128 13.2119 1455 111.582 577.773 457.102
1021 0 112.105 11.9977 1345 113.842 577.633 456.554
1022 0 118.233 12.34 1459 112.145 577.535 452.005
1023 0 120.166 11.2511 1352 116.305 577.966 449.28
1024 0 127.157 12.3155 1566 115.276 577.683 445.137
1025 1 68.0505 9.47826 645 105.926 579.192 480.347
1026 0 70.1774 10.388 729 103.464 578.029 471.871
1027 0 76.1464 12.2396 932 101.351 577.425 475.324
1028 0 77.0861 12.1293 935 102.282 577.03 475.237
1029 0 78.1049 10.4731 818 105.786 577.812 473.097
1030 0 84.1197 11.971 1007 102.069 577.635 473.455
1031 0 85.1941 11.5618 985 104.081 577.64 472.46
1032 0 89.1451 12.3619 1102 102.491 578.381 467.417
1033 0 91.1437 12.0579 1099 102.3 578.637 466.326
1034 0 95.1851 12.544 1194 101.973 578.174 462.363
1035 0 98.1196 11.4045 1119 104.778 578.677 464.8
1036 0 101.264 11.6132 1176 104.776 579.042 462.318
1037 0 106.093 12.2063 1295 104.392 579.289 462.11
1038 0 105.091 10.5242 1106 109.4 578.372 456.376
1039 0 111.215 10.4842 1166 111.779 578.424 459.131
1040 0 116.133 11.6332 1351 105.434 578.27 454.38
1041 0 121.124 11.7235 1420 105.694 577.774 453.092
1042 1 61.0878 9.37995 573 102.536 579.192 481.965
1043 0 64.1505 12.1589 780 98.9013 578.755 479.056
1044 0 67.1297 11.9023 799 100.168 578.62 481.334
1045 0 66.1885 11.0291 730 102.17 579.815 478.611
1046 0 70.0883 9.33109 654 105.313 577.881 481.365
1047 0 69.0518 7.77677 537 104.173 578.214 478.903
1048 0 75.0809 9.85604 740 102.285 578.299 475.926
1049 0 78.248 9.55935 748 102.271 577.52 475.307
1050 0 78.1373 10.456 817 103.099 577.999 472.701
1051 0 81.1212 8.8263 716 104.193 578.229 473.715
1052 0 84.1623 9.35098 787 104.229 578.623 472.595
1053 0 86.1317 9.55513 823 104.886 578.452 469.848
1054 0 92.0671 11.3396 1044 101.01 578.255 471.284
1055 0 92.1325 11.0276 1016 102.887 578.125 465.696
1056 0 95.2073 10.4509 995 103.63 577.251 465.391
1057 0 97.1578 10.0558 977 103.919 577.386 464.792
1058 0 101.209 10.6513 1078 102.946 578.078 459.822
1059 0 103.187 9.40039 970 105.893 577.46 461.558
1060 0 108.188 10.6204 1149 102.343 577.296 460.184
1061 1 58.0709 8.28298 481 99.3119 579.029 481.57
1062 0 61.0868 10.657 651 97.0876 579.034 478.825
1063 0 63.0905 10.3185 651 98.2765 576.917 483.955
1064 0 65.1192 12.6077 821 93.9537 577.582 481.508
1065 0 67.1789 11.715 787 95.5388 578.038 479.55
1066 0 70.1169 10.24 718 97.7061 577.791 479.403
1067 0 72.1591 10.9203 788 97.2614 578.546 479.444
1068 0 74.1769 11.0681 821 97.1973 578.503 476.95
1069 0 76.1816 10.9081 831 97.5872 577.498 476.809
1070 0 78.1503 11.1452 871 97.8278 578.179 473.937
1071 0 83.1948 11.1185 925 96.9935 578.186 473.937
1072 0 85.0924 12.0575 1026 96.4454 577.945 473.652
1073 0 87.2012 11.4104 995 97.6382 578.266 472.293
1074 0 88.0987 11.1466 982 99.4155 578.591 469.175
1075 0 89.0754 9.48634 845 103.353 578.322 467.877
1076 0 94.1243 9.67869 911 103.01 578.997 467.238
1077 0 98.1628 10.5539 1036 102.334 579.331 463.743
1078 1 53.0982 10.4523 555 96.4288 580.204 488.056
1079 0 55.1103 10.4699 577 96.7834 579.792 488.653
1080 0 54.1037 10.3505 560 97.2429 580.073 486.25
1081 0 56.0269 9.85241 552 98.7989 580.121 486.857
1082 0 59.1131 11.0297 652 97.0322 579.388 486.348
1083 0 59.1549 11.6981 692 97.2486 578.715 486.072
1084 0 61.1965 11.2588 689 98.6168 579.344 485.543
1085 0 64.3017 11.3061 727 98.868 578.037 483.323
1086 0 66.162 13.1647 871 95.5626 578.966 483.048
1087 0 67.1368 11.7521 789 99.3511 578.587 481.606
1088 0 68.223 10.7882 736 101.595 578.012 479.355
1089 0 71.0824 12.1127 861 99.7863 578.551 480.861
1090 0 75.199 12.8326 965 98.3409 578.176 478.448
1091 0 78.2401 13.0751 1023 98.4311 578.868 477.338
1092 0 79.1752 11.3293 897 102.661 578.785 475.508
1093 0 82.1983 11.0221 906 104.149 578.746 475.513
1094 0 85.0851 12.4464 1059 102.381 579.438 474.059
1095 0 87.1383 10.5005 915 105.908 578.683 474.667
1096 1 46.0831 10.633 490 102.11 578.418 492.916
1097 0 49.1209 11.6447 572 100.757 578.437 491.409
1098 0 50.0723 11.6432 583 101.678 579.062 491.48
1099 0 53.1496 11.9098 633 101.48 579.063 490.276
1100 0 52.0437 10.8947 567 104.762 578.718 489.071
1101 0 55.0851 11.8725 654 102.532 578.57 488.534
1102 0 55.0577 11.9511 658 103.391 579.389 486.734
1103 0 56.0145 12.3718 693 102.242 578.763 487.932
1104 0 59.1414 12.2757 726 103.398 579.237 485.584
1105 0 58.1276 11.0963 645 107.839 578.175 487.932
1106 0 62.1617 13.6097 846 101.116 579.704 483.526
1107 0 62.122 10.415 647 107.669 579.278 484.077
1108 0 66.0934 11.2871 746 104.686 579.674 484.501
1109 0 69.1146 12.9784 897 102.249 579.74 482.361
1110 0 70.1365 12.1763 854 105.587 578.915 480.888
1111 0 71.1014 11.9688 851 101.516 578.863 476.686
1112 0 75.2799 11.2248 845 104.286 579.135 475.882
1113 0 77.2989 12.2253 945 102.043 578.206 475.306
1114 0 79.4954 11.7617 935 104.116 578.887 474.802
1115 0 80.1683 10.9145 875 106.413 578.696 472.8
1116 0 83.3277 10.7647 897 107.13 579.538 471.803
1117 0 86.1288 11.3899 981 106.14 579.66 470.988
1118 0 88.1766 12.3616 1090 105.109 579.345 471.006
1119 0 90.1988 11.4747 1035 107.1 578.833 468.482
1120 0 94.3553 11.9124 1124 108.338 578.868 463.631
1121 0 100.214 13.6309 1366 104.808 579.381 463.654
1122 0 103.162 13.2026 1362 105.757 578.171 463.628
1123 1 53.1711 9.83617 523 105.369 579.153 485.727
1124 0 57.0998 10.4028 594 105.867 578.694 484.734
1125 0 59.4189 11.1244 661 103.171 579.241 483.029
1126 0 61.195 11.6022 710 100.785 578.903 480.515
1127 0 61.1187 12.2876 751 99.9387 578.601 481.004
1128 0 64.0742 12.111 776 101.428 578.548 478.394
1129 0 66.0605 11.3835 752 103.129 578.746 477.475
1130 0 68.1041 13.3325 908 99.8381 578.394 475.384
1131 0 71.2605 12.4894 890 101.403 579.046 474.552
1132 0 73.1618 12.2878 899 102.521 578.733 474.059
1133 0 77.1435 13.6369 1052 99.5951 578.774 473.313
1134 0 79.1199 13.1825 1043 101.124 578.805 472.251
1135 0 83.2394 13.0707 1088 100.865 578.452 470.907
1136 0 83.3201 14.1382 1178 99.7462 578.701 466.2
1137 0 88.3216 13.2018 1166 99.9417 578.399 465.846
1138 0 91.2361 12.8458 1172 101.227 578.788 465.342
1139 0 92.1282 13.4704 1241 101.15 578.546 461.061
1140 0 95.1791 13.8581 1319 101.761 579.172 461.877
1141 0 99.1932 14.0534 1394 102.709 578.478 460.659
1142 1 51.0328 10.9146 557 102.434 578.438 481.768
1143 0 51.0328 11.2281 573 131.316 579.379 482.227
1144 0 56.1017 11.8891 667 99.1019 579.115 481.523
1145 0 56.1668 9.79226 550 103.88 578.933 479.751
1146 0 60.0412 11.9918 720 100.254 578.818 478.772
1147 0 64.0663 11.8471 759 99.1528 578.235 478.597
1148 0 65.074 11.5561 752 100.203 578.453 478.289
1149 0 69.0662 12.8283 886 98.0384 577.739 475.009
1150 0 69.1379 12.8439 888 99.009 577.152 473.631
1151 0 73.0479 11.9237 871 100.542 578.059 474.35
1152 0 76.0626 13.2654 1009 98.6125 577.764 471.59
1153 0 81.2122 13.2739 1078 98.0733 577.835 471.246
1154 0 80.0748 12.5258 1003 101.262 577.793 470.022
1155 0 84.0503 13.6466 1147 99.4167 578.355 469.69
1156 0 84.08 11.6199 977 105.352 577.433 467.162
1157 0 87.1675 12.5276 1092 104.019 577.592 466.62
1158 0 92.2392 12.2399 1129 104.746 578.329 465.682
1159 0 93.2528 13.576 1266 103.915 577.826 461.931
1160 0 97.1575 12.4128 1206 107.206 577.332 463.676
1161 0 101.234 13.5527 1372 104.948 577.956 464.222
1162 0 101.198 11.6603 1180 112.133 578.26 459.39
1163 0 108.323 12.1212 1313 110.26 577.393 458.054
1164 0 112.194 11.7297 1316 110.393 576.645 455.378
1165 1 60.0925 12.098 727 101.561 576.187 483.582
1166 0 61.0791 12.2792 750 101.048 578.487 487.044
1167 0 63.1201 12.8327 810 100.654 577.305 483.14
1168 0 66.0762 12.6521 836 100.752 577.11 481.687
1169 0 65.1612 11.1569 727 104.309 575.81 481.966
1170 0 70.0992 11.7548 824 103.251 577.114 480.83
1171 0 71.1482 10.9209 777 105.351 576.775 479.501
1172 0 74.147 12.7315 944 101.639 577.432 478.096
1173 0 76.154 12.6586 964 103.19 577.135 476.416
1174 0 77.068 10.2766 792 108.003 577.36 477.184
1175 0 81.1709 13.0342 1058 102.625 577.038 474.504
1176 0 84.1092 11.6872 983 106.098 577.471 473.897
1177 0 87.1334 11.5685 1008 106.26 576.812 471.445
1178 0 89.2426 11.7881 1052 106.292 576.917 471.665
1179 0 92.1965 11.1176 1025 109.169 576.873 467.783
1180 0 95.0707 10.5816 1006 109.447 576.931 469.129
1181 0 100.199 11.9562 1198 108.623 576.942 463.043
1182 0 104.049 11.4946 1196 108.211 576.822 465.254
1183 0 107.091 12.1579 1302 109.925 576.856 459.313
1184 1 58.0469 11.1806 649 105.35 576.143 486.985
1185 0 62.1956 11.8497 737 105.607 578.529 480.938
1186 0 60.1251 10.1123 608 106.044 579.301 485.191
1187 0 62.2081 11.2686 701 103.879 579.653 484.762
1188 0 64.089 11.4372 733 104.256 579.319 483.99
1189 0 66.0872 10.9401 723 103.88 578.49 483.858
1190 0 70.1393 11.0637 776 104.791 578.577 481.591
1191 0 72.0956 10.9299 788 106.037 579.192 480.882
1192 0 72.2129 10.8568 784 108.04 579.148 479.019
1193 0 75.1996 11.3032 850 107.658 579.733 476.818
1194 0 77.1292 11.6169 896 107.327 579.171 476.749
1195 0 81.1232 11.9325 968 106.452 578.94 476.553
1196 0 83.1388 11.3064 940 104.874 579.536 471.794
1197 0 86.1015 10.7664 927 109.836 578 475.243
1198 0 87.1663 9.70559 846 110.06 579.422 468.099
1199 0 89.2654 9.65659 862 111.13 578.906 466.057
1200 0 95.1106 10.8085 1028 112.491 577.964 469.8
1201 1 49.0989 11.1611 548 104.117 578.865 492.338
1202 0 49.162 9.56024 470 111.017 578.477 487.54
1203 0 52.2572 10.6397 556 110.692 577.854 485.905
1204 0 53.11 11.335 602 101.126 577.563 486.36
1205 0 54.093 11.6651 631 101.303 577.363 485.138
1206 0 55.0704 11.0767 610 104.005 577.926 486.131
1207 0 58.0712 12.8291 745 100.333 577.787 484.787
1208 0 57.0253 11.6615 665 108.758 577.382 487.311
1209 0 59.0536 11.8706 701 107.666 577.826 484.942
1210 0 60.054 10.9901 660 108.9 577.071 484.744
1211 0 65.2451 12.3228 804 102.066 577.338 481.534
1212 0 65.0976 11.0142 717 104.874 578.377 482.833
1213 0 67.0736 11.2712 756 105.279 578.741 480.392
1214 0 71.0906 13.0256 926 101.246 578.529 478.602
1215 0 72.1112 13.0354 940 101.401 578.569 478.398
1216 0 75.1093 12.0092 902 103.274 578.887 477.181
1217 0 77.072 12.8322 989 101.695 578.997 476.471
1218 0 78.0664 11.8617 926 104.382 578.485 473.84
1219 0 79.1341 11.6511 922 105.383 578.088 474.525
1220 0 83.1579 11.7728 979 105.326 578.454 474.977
1221 0 85.2096 12.1113 1032 105.507 578.622 471.715
1222 0 89.1369 12.0152 1071 105.68 577.565 471.991
1223 0 92.2328 13.3792 1234 103.428 577.335 466.71
1224 0 94.2456 12.6584 1193 106.155 577.363 467.738
1225 0 96.1053 11.0192 1059 111.08 577.826 465.784
1226 1 56.0353 11.4928 644 104.851 578.332 486.435
1227 0 57.0798 11.3525 648 107.023 577.889 484.56
1228 0 58.0722 12.6394 734 103.955 577.82 485.428
1229 0 61.0822 11.2635 688 105.953 577.195 486.693
1230 0 63.1278 12.7044 802 102.855 577.339 484.504
1231 0 65.1258 12.0689 786 103.454 577.469 483.331
1232 0 67.0546 11.9902 804 103.248 577.648 482.736
1233 0 66.0816 11.8036 780 105.791 578.174 480.494
1234 0 68.1257 12.2421 834 105.265 577.833 479.477
1235 0 73.1116 13.2264 967 103.939 578.236 477.819
1236 0 72.0549 11.3802 820 109.23 578.609 478.665
1237 0 77.0728 12.2092 941 108.213 578.584 476.548
1238 0 79.0707 11.3443 897 111.279 577.786 474.868
1239 0 84.2424 12.3928 1044 110.005 578.22 474.451
1240 0 85.0737 11.3196 963 115.146 578.463 472.237
1241 0 89.1146 11.7153 1044 116.39 578.131 470.767
1242 0 91.2197 10.546 962 118.29 577.469 469.8
1243 0 95.2097 12.2782 1169 116.027 576.655 464.92
1244 0 100.287 10.8289 1086 120.588 577.385 460.691
1245 0 100.206 12.0452 1207 119.123 576.952 461.355
1246 0 103.318 11.1016 1147 121.051 576.848 461.234
1247 0 107.319 12.6259 1355 119.4 576.421 456.663
1248 0 112.235 12.1709 1366 120.813 576.113 452.188
1249 0 115.343 11.5482 1332 122.73 576.895 452.245
1250 0 118.314 11.4695 1357 122.208 577.119 452.542
1251 0 124.333 11.9115 1481 121.749 576.606 447.906
1252 0 130.497 12.1688 1588 122.952 576.547 447.03
1253 0 134.498 12.3348 1659 124.052 576.378 442.256
1254 1 70.2088 12.1637 854 111.011 577.255 478.283
1255 0 71.1471 11.919 848 111.732 577.798 480.025
1256 0 74.2651 13.8558 1029 108.549 577.769 476.23
1257 0 76.0874 13.1034 997 111.365 577.842 477.355
1258 0 77.0698 11.9113 918 114.576 578.04 477.938
1259 0 80.2227 12.5152 1004 116.074 577.64 470.626
1260 0 85.1741 11.8111 1006 117.17 577.977 473.49
1261 0 87.1107 11.5715 1008 118.787 577.558 471.658
1262 0 90.1872 11.2655 1016 121.738 577.575 467.831
1263 0 92.2109 11.3436 1046 121.639 577.673 467.609
1264 0 96.3422 12.2376 1179 120.295 577.053 465.504
1265 0 94.1425 10.7497 1012 124.765 578.136 463.937
1266 0 101.256 10.3006 1043 124.616 577.733 461.636
1267 0 104.093 11.1823 1164 124.668 578.259 457.285
1268 0 110.188 12.3516 1361 121.254 578.135 457.675
1269 0 113.136 11.6144 1314 123.293 578.684 457.482
1270 0 117.231 11.8996 1395 123.177 577.588 453.697
1271 1 67.1728 11.7905 792 113.274 577.848 479.691
1272 0 69.0641 10.8595 750 113.967 578.127 476.775
1273 0 69.0641 10.874 751 124.268 577.121 476.65
1274 0 73.0445 10.432 762 118.199 579.293 478.996
1275 0 77.0635 11.3543 875 115.345 579.504 476.406
1276 0 79.0574 10.8149 855 116.255 579.05 475.953
1277 0 81.0551 12.0659 978 114.924 578.909 472.008
1278 0 83.1383 10.9817 913 117.242 579.333 472.68
1279 0 87.1343 11.4421 997 116.339 579.111 471.767
1280 0 90.1789 12.076 1089 115.677 579.092 470.489
1281 0 93.232 12.0988 1128 116.512 579.717 467.475
1282 0 98.1458 11.9007 1168 117.17 579.42 465.323
1283 0 102.123 10.8497 1108 120.709 579.127 462.995
1284 0 104.123 12.1107 1261 120.094 579.323 463.187
1285 0 106.324 11.0888 1179 124.547 578.148 457.461
1286 0 110.314 11.9205 1315 122.961 578.043 456.844
1287 0 115.237 10.8211 1247 126.035 578.164 453.891
1288 0 119.228 11.1216 1326 124.41 578.285 454.057
1289 1 61.0931 9.42824 576 114.193 579.019 483.186
1290 0 63.0615 10.8783 686 110.347 579.542 480.274
1291 0 66.0813 11.0924 733 110.981 579.303 480.207
1292 0 68.2362 11.768 803 109.243 579.433 480.701
1293 0 71.1271 11.6411 828 108.6 579.825 480.027
1294 0 73.1217 12.0484 881 108.35 579.244 476.798
1295 0 76.2322 12.5669 958 107.205 578.752 476.688
1296 0 79.0809 11.8739 939 108.934 579.542 477.619
1297 0 81.0977 12.5774 1020 87.9745 579.28 473.381
1298 0 82.1661 11.7445 965 109.974 579.007 473.083
1299 0 86.1607 12.732 1097 107.265 579.04 473.006
1300 0 88.1271 12.6976 1119 107.862 579.243 471.088
1301 0 91.2658 12.2718 1120 109.495 577.988 470.704
1302 0 93.1898 12.9628 1208 108.7 578.467 467.199
1303 0 96.1268 12.9828 1248 108.821 579.236 466.103
1304 0 98.2649 11.4181 1122 112.144 578.259 463.619
1305 0 102.287 12.2596 1254 117.513 577.912 464.581
1306 0 105.27 12.1497 1279 117.628 578.34 460.077
1307 0 106.182 12.3561 1312 117.312 577.29 455.963
1308 0 108.195 12.7085 1375 116.833 577.645 456.065
1309 0 115.294 11.397 1314 120.319 577.655 454.638
1310 0 117.299 12.0206 1410 119.813 577.258 452.839
1311 0 121.225 11.3178 1372 122.745 577.869 451.593
1312 1 64.1744 11.3285 727 110.312 578.608 481.755
1313 0 63.1584 9.30993 588 113.481 578.813 480.432
1314 0 68.0939 11.352 773 109.532 577.726 478.6
1315 0 71.2196 10.5589 752 112.202 577.895 479.614
1316 0 73.2454 11.2499 824 111.005 579.058 478.93
1317 0 77.1752 11.1564 861 111.013 578.574 478.135
1318 0 76.1716 11.8679 904 132.671 578.534 476.711
1319 0 83.1686 13.3584 1111 107.376 579.158 473.192
1320 0 85.1731 12.3161 1049 110.35 578.508 473.04
1321 0 88.2225 12.3665 1091 111.964 578.601 470.59
1322 0 90.2165 11.4613 1034 114.19 578.289 468.305
1323 0 91.2337 10.6759 974 117.594 578.321 468.287
1324 0 97.2162 11.9527 1162 113.468 577.389 466.793
1325 0 99.2275 11.9423 1185 114.727 578.262 464.002
1326 0 102.214 12.3271 1260 114.533 578.513 463.412
1327 0 106.308 12.1345 1290 115.984 578.011 460.505
1328 0 110.298 12.7926 1411 113.608 578.119 462.295
1329 0 113.291 12.181 1380 115.507 577.046 458.062
1330 0 115.234 12.748 1469 114.79 576.779 456.951
1331 0 118.429 12.1338 1437 118.336 577.566 450.81
1332 0 126.296 11.9877 1514 117.275 577.361 452.054
1333 1 66.1419 11.2637 745 114.391 576.942 481.334
1334 0 65.0942 12.551 817 114.304 577.188 478.253
1335 0 68.1004 13.4214 914 110.334 576.073 481.26
1336 0 71.1201 12.7812 909 113.211 576.287 480.065
1337 0 74.183 12.267 910 115.09 576.754 478.02
1338 0 75.2136 12.2052 918 116.07 577.252 477.12
1339 0 79.2099 12.4353 985 114.938 577.14 475.657
1340 0 85.2398 12.0484 1027 114.654 577.208 475.016
1341 0 83.2061 12.3789 1030 116.375 577.064 471.157
1342 0 87.4215 12.8916 1127 115.376 577.079 471.527
1343 0 87.2283 12.473 1088 117.751 577.36 470.704
1344 0 93.2496 13.4049 1250 114.042 577.372 469.291
1345 0 94.1782 13.294 1252 114.518 577.228 466.452
1346 0 99.1943 12.41 1231 115.92 577.273 467.353
1347 0 101.213 13.6742 1384 114.138 577.028 462.816
1348 0 103.248 11.9614 1235 118.424 577.049 462.285
1349 0 107.245 13.4645 1444 115.078 577.307 458.659
1350 0 111.247 13.0431 1451 117.269 577.19 460.09
1351 0 115.243 14.1614 1632 116.216 577.603 456.289
1352 1 61.198 10.0494 615 109.15 578.304 483.499
1353 0 65.2124 12.4516 812 105.149 578.969 480.621
1354 0 66.1356 11.2194 742 100.074 579.589 479.388
1355 0 68.0856 12.5577 855 97.7813 578.725 477.18
1356 0 69.1001 11.9537 826 99.7869 579.035 477.631
1357 0 72.1165 10.483 756 102.024 579.033 477.347
1358 0 74.0732 11.2861 836 101.024 579.087 477.752
1359 0 76.0703 12.1335 923 100.534 578.653 473.33
1360 0 81.1813 12.1703 988 100.311 579.387 472.995
1361 0 82.1608 12.6459 1039 99.1935 578.348 470.679
1362 0 85.2561 12.1399 1035 100.598 577.893 469.101
1363 0 86.1637 12.2209 1053 101.696 577.962 468.465
1364 0 91.3184 12.5166 1143 99.3176 577.301 465.274
1365 0 93.2063 11.1044 1035 102.848 578.484 468.028
1366 0 97.2855 12.3451 1201 101.313 577.737 465.561
1367 0 98.3206 11.5744 1138 103.689 577.63 462.894
1368 0 103.227 13.0295 1345 101.02 577.529 460.429
1369 0 104.12 11.3715 1184 104.88 577.716 461.922
1370 0 107.247 10.9747 1177 106.061 577.833 459.833
1371 1 57.1279 10.2752 587 102.394 578.083 483.513
1372 0 60.093 12.1978 733 97.7544 578.113 484.135
1373 0 60.0878 10.8841 654 100.911 577.983 482.732
1374 0 64.0917 11.6708 748 98.7005 576.944 484.706
1375 0 65.1436 10.7915 703 101.844 577.679 482.125
1376 0 67.0568 12.3776 830 99.4084 577.286 479.987
1377 0 69.0753 11.1762 772 103.18 577.272 480.297
1378 0 71.0561 11.7231 833 103.691 577.28 480.114
1379 0 74.1131 11.9952 889 103.548 577.902 479.574
1380 0 76.0569 12.5695 956 103.172 577.953 478.356
1381 0 79.1709 12.593 997 103.259 578.006 474.607
1382 0 81.0932 12.0972 981 105.422 578.021 473.826
1383 0 85.0429 13.3697 1137 103.008 577.926 475.183
1384 0 86.0635 12.6883 1092 104.971 576.98 473.696
1385 0 91.2514 13.9943 1277 102.237 577.378 472.052
1386 0 95.1257 13.582 1292 103.053 578.754 471.288
1387 0 95.1945 12.3431 1175 107.089 579.097 469.292
1388 1 50.0831 11.8203 592 108.171 579.264 491.012
1389 0 52.1427 11.8713 619 108.948 578.472 489.709
1390 0 53.153 11.5704 615 106.376 579.795 489.38
1391 0 57.0481 12.358 705 106.704 579.238 488.987
1392 0 60.0291 12.1774 731 106.306 578.439 488.077
1393 0 60.0653 12.7195 764 105.686 578.675 488.096
1394 0 62.0945 13.3023 826 105.252 578.381 486.209
1395 0 63.0779 12.1754 768 107.214 578.492 485.401
1396 0 66.0768 12.3644 817 106.217 578.515 484.535
1397 0 66.0594 11.1263 735 108.849 578.717 483.886
1398 0 69.0587 11.9608 826 107.39 578.942 482.384
1399 0 74.0539 12.761 945 105.286 578.485 480.903
1400 0 74.1053 12.0909 896 107.054 578.696 481.499
1401 0 77.2202 12.432 960 107.666 578.317 477.894
1402 0 79.3684 11.2513 893 110.583 579.133 478.394
1403 0 84.1952 12.6611 1066 107.849 579.066 476.239
1404 0 87.3746 12.7039 1110 111.641 578.995 473.683
1405 0 88.2968 13.0242 1150 113.059 578.321 469.037
1406 0 93.3022 13.6546 1274 111.283 578.638 470.561
1407 1 47.186 11.6772 551 111.174 578.677 492.154
1408 0 50.1516 12.881 646 108.429 578.302 491.303
1409 0 50.0375 13.35 668 109.272 578.141 490.058
1410 0 53.1325 14.6426 778 105.429 578.256 489.753
1411 0 55.181 12.5043 690 111.093 578.62 489.688
1412 0 56.1281 13.1663 739 110.471 577.878 488.884
1413 0 57.0461 12.7791 729 112.373 577.601 489.73
1414 0 61.2445 14.0911 863 109.302 578.587 487.382
1415 0 61.1252 13.6605 835 113.077 578.261 484.408
1416 0 63.1968 12.2316 773 116.027 577.902 484.85
1417 0 65.4388 12.6225 826 115.488 578.778 484.318
1418 0 66.3206 12.4547 826 117.565 577.92 482.682
1419 0 70.0932 13.1824 924 116.66 577.075 479.951
1420 0 70.0898 13.2402 928 143.196 576.096 479.927
1421 0 76.2843 14.0789 1074 113.887 577.236 478.105
1422 0 77.1684 13.2956 1026 116.739 577.643 475.929
1423 0 80.2301 12.9378 1038 116.543 577.612 475.478
1424 0 85.3129 13.0813 1116 114.819 577.469 474.116
1425 1 45.206 12.9186 584 115.098 577.452 486.38
1426 0 45.1458 12.7587 576 122.457 579.042 488.576
1427 0 49.0391 14.8861 730 117.727 579.081 489.042
1428 0 48.1856 13.6348 657 124.924 578.592 486.619
1429 0 49.1368 13.3098 654 126.676 578.989 487.281
1430 0 52.0925 14.3399 747 121.843 578.297 486.552
1431 0 53.3127 13.6178 726 124.66 577.837 484.755
1432 0 54.1771 13.4559 729 125.224 577.852 483.827
1433 0 56.0891 13.8708 778 122.51 577.889 483.559
1434 0 57.0892 13.2599 757 125.022 577.705 483.259
1435 0 58.1292 11.9905 697 126.768 577.697 483.32
1436 0 62.0563 14.0517 872 121.32 578.009 480.383
1437 0 62.113 13.8618 861 121.899 577.39 480.829
1438 0 65.18 13.6085 887 123.857 576.768 478.463
1439 0 66.0714 13.6973 905 124.206 577.369 477.702
1440 0 70.1563 14.2396 999 122.102 577.479 475.956
1441 0 72.1331 14.0573 1014 122.519 577.315 474.768
1442 0 72.1252 13.1715 950 126.393 577.493 472.111
1443 0 76.0958 14.7051 1119 122.769 577.786 469.992
1444 0 78.0788 14.5366 1135 124.117 577.616 467.673
1445 0 81.1199 14.1642 1149 125.029 577.629 469.517
1446 0 85.2103 14.2823 1217 124.541 578.183 468.193
1447 0 86.2578 14.9088 1286 125.396 577.66 466.639
1448 0 89.2705 13.7783 1230 128.553 577.999 464.82
1449 0 93.3312 14.4539 1349 127.212 578.52 462.863
1450 0 94.2716 14.2567 1344 129.162 578.607 463.443
1451 0 98.1478 13.6733 1342 130.63 577.948 461.778
1452 0 101.158 13.82 1398 130.9 578.23 461.207
1453 0 107.253 13.566 1455 130.734 578.263 458.381
1454 1 60.0463 13.2065 793 131.786 577.438 480.715
1455 0 63.0947 13.7571 868 126.974 577.579 478.447
1456 0 64.0842 13.7475 881 125.572 577.624 480.963
1457 0 67.1356 14.076 945 124.83 577.678 477.469
1458 0 69.0766 14.0713 972 125.543 578.398 477.684
1459 0 72.1376 15.8586 1144 120.108 577.898 476.552
1460 0 73.0712 15.218 1112 123.06 577.558 476.268
1461 0 76.1066 14.5585 1108 125.072 577.764 474.8
1462 0 79.0966 15.5632 1231 121.526 578.069 472.734
1463 0 82.1476 16.0321 1317 120.702 578.126 471.052
1464 0 85.0856 15.8546 1349 120.748 578.005 469.2
1465 0 88.1122 15.4803 1364 122.279 577.655 469.111
1466 0 91.3261 15.702 1434 122.668 577.326 467.439
1467 0 93.1654 15.7569 1468 122.949 577.837 467.616
1468 0 96.1798 15.3047 1472 124.98 577.678 466.412
1469 0 99.2265 15.4797 1536 124.393 577.876 464.603
1470 0 104.133 15.1537 1578 124.723 577.819 465.046
1471 0 107.158 15.6591 1678 123.541 578.116 462.589
1472 0 110.28 14.0189 1546 128.854 577.297 459.778
1473 0 115.248 14.6119 1684 127.09 577.112 459.031
1474 1 62.1067 15.3446 953 129.796 577.641 481.276
1475 0 64.0624 14.8293 950 129.562 577.056 482.756
1476 0 66.1274 16.075 1063 127.332 577.491 479.107
1477 0 70.0894 16.2364 1138 124.947 577.482 478.963
1478 0 70.097 14.7795 1036 129.24 577.398 477.009
1479 0 75.0873 16.341 1227 122.687 577.813 476.721
1480 0 77.0372 15.6677 1207 124.761 577.637 475.625
1481 0 81.0751 16.2565 1318 122.08 577.329 475.299
1482 0 83.2033 15.8287 1317 124.162 577.131 473.335
1483 0 85.1014 15.3229 1304 125.472 577.567 472.682
1484 0 89.0453 15.8908 1415 123.036 577.471 471.177
1485 0 93.0913 15.5224 1445 124.018 577.132 470.626
1486 0 94.0841 15.348 1444 125.632 577.604 468.701
1487 0 100.182 15.7614 1579 123.494 577.853 466.391
1488 0 100.182 15.8212 1585 157.28 578.855 466.396
1489 0 108.273 15.9874 1731 126.838 577.99 461.191
1490 1 53.1191 13.5921 722 137.406 578.187 487.276
1491 0 58.0552 16.1054 935 129.736 578.233 484.864
1492 0 59.1928 16.7757 993 130.76 576.803 483.601
1493 0 61.216 15.9109 974 133.856 577.126 482.925
1494 0 60.1493 16.2928 980 136.395 577.34 483.623
1495 0 64.1813 15.9392 1023 136.771 576.629 482.661
1496 0 66.1702 16.0646 1063 136.018 576.323 483.022
1497 0 68.067 16.3809 1115 136.891 577.265 480.039
1498 0 72.1962 16.7045 1206 134.677 577.114 479.619
1499 0 73.141 16.0375 1173 137.382 577.21 478.794
1500 0 78.1315 16.4594 1286 135.061 576.772 476.691
1501 0 81.2492 16.7263 1359 132.801 576.455 477.18
1502 0 83.4291 16.1934 1351 134.583 576.296 475.641
1503 0 87.127 16.4358 1432 127.807 577.206 474.236
1504 0 86.1931 15.9177 1372 129.184 577.331 472.358
1505 0 90.1488 16.4062 1479 128.4 577.623 472.734
1506 0 90.3163 15.8111 1428 136.533 576.749 472.89
1507 0 91.2462 16.8884 1541 135.119 577.603 470.635
1508 1 45.1372 15.9735 721 140.685 577.607 490.761
1509 0 46.2084 15.1055 698 145.663 577.093 491.59
1510 0 45.1111 14.5862 658 150.64 576.837 491.172
1511 0 48.0667 15.3537 738 144.463 576.817 490.542
1512 0 50.1165 15.6835 786 141.67 576.913 489.48
1513 0 53.2978 16.511 880 136.433 576.824 488.907
1514 0 54.2406 16.0949 873 136.538 576.916 487.946
1515 0 56.3587 16.1466 910 135.92 576.708 487.082
1516 0 58.1973 16.5815 965 133.739 576.394 486.585
1517 0 58.1818 16.0703 935 136.616 576.152 486.797
1518 0 61.1664 16.7249 1023 134.963 575.996 484.971
1519 0 61.3015 15.7582 966 141.769 576.714 483.432
1520 0 65.2083 16.0102 1044 141.503 576.749 482.736
1521 0 67.2663 16.4124 1104 141.572 576.217 483.567
1522 0 69.1825 15.8855 1099 144.824 576.653 483.296
1523 0 69.2371 16.3929 1135 146.929 576.41 481.671
1524 0 71.3537 16.201 1156 149.088 576.52 482.12
1525 0 73.0804 16.8034 1228 151.246 576.993 479.776
1526 0 76.3662 15.7399 1202 155.166 577.403 480.404
1527 0 78.2261 15.8387 1239 157.839 577.391 478.753
1528 0 80.2182 16.9164 1357 155.988 576.084 477.126
1529 0 83.3501 15.8128 1318 161.388 576 475.659
1530 0 85.256 16.902 1441 159.361 577.041 474.43
1531 0 87.2187 15.5815 1359 165.486 577.033 473.213
1532 0 91.3229 15.9653 1458 164.669 576.684 470.534
1533 1 41.2052 13.5177 557 168.826 575.912 495.594
1534 0 44.3122 14.1947 629 167.273 576.52 494.723
1535 0 46.1794 15.9378 736 168.451 576.883 492.56
1536 0 47.1918 15.6171 737 171.243 575.795 491.878
1537 0 49.4368 15.5754 770 170.614 575.095 491.417
1538 0 51.2131 15.621 800 171.41 575.86 490.735
1539 0 53.3635 15.6849 837 170.487 575.711 490.785
1540 0 56.2423 15.7177 884 169.603 575.618 490.02
1541 0 57.2498 15.9826 915 170.913 575.473 489.12
1542 0 59.2482 16.2536 963 169.07 575.691 488.805
1543 0 61.1768 15.9047 973 170.353 575.776 487.955
1544 0 64.2035 15.4665 993 171.325 575.179 487.32
1545 0 65.2994 15.8041 1032 171.073 575.356 485.835
1546 0 66.0701 16.2101 1071 170.865 575.445 484.221
1547 0 71.3846 16.0119 1143 168.613 575.889 483.698
1548 0 73.1492 15.858 1160 167.122 575.452 484.077
1549 0 77.1144 16.5987 1280 163.465 575.321 481.616
1550 0 77.1089 15.5105 1196 168.457 575.356 479.693
1551 1 37.1136 11.5861 430 169.107 574.493 499.649
1552 0 39.0327 13.5784 530 163.711 574.475 498.077
1553 0 43.1502 15.6662 676 152.568 575.143 497.275
1554 0 42.1682 14.1576 597 159.995 574.429 496.183
1555 0 41.0964 14.5998 600 158.405 573.572 497.008
1556 0 47.0798 15.3569 723 150.983 574.133 495.808
1557 0 46.1013 14.7501 680 155.01 573.965 495.847
1558 0 48.1117 14.695 707 154.441 573.976 494.495
1559 0 47.0908 14.1004 664 157.545 574.703 493.681
1560 0 52.1388 15.0943 787 151.139 574.455 492.637
1561 0 54.1082 15.2472 825 149.198 575.185 492.396
1562 0 54.0664 14.9261 807 151.865 575.126 491.413
1563 0 56.0482 15.1834 851 149.482 575.09 490.826
1564 0 59.0503 14.6655 866 149.718 575.021 490.93
1565 0 58.0246 14.5628 845 152.331 575.173 489.279
1566 0 62.0434 14.8606 922 150.709 575.48 488.082
1567 0 63.0197 15.2016 958 148.599 575.415 488.049
1568 0 64.0402 13.9912 896 150.762 575.383 484.987
1569 0 68.1266 15.5152 1057 144.725 575.169 483.939
1570 0 69.143 15.2438 1054 145.431 574.919 482.711
1571 0 76.1364 15.6299 1190 140.777 575.599 482.673
1572 0 77.2397 16.2481 1255 140.68 575.093 479.735
1573 0 81.1885 15.5071 1259 142.303 574.765 478.297
1574 0 84.1046 16.0277 1348 141.56 574.526 475.792
1575 0 87.1897 16.0455 1399 142.387 575.234 476.582
1576 0 88.1667 15.845 1397 145.625 575.384 472.125
1577 1 44.0418 11.262 496 155.567 574.714 495.25
1578 0 45.0877 12.9303 583 148.497 575.036 496.108
1579 0 45.1044 13.4355 606 148.409 574.274 495.624
1580 0 46.0144 14.5389 669 149 574.572 493.257
1581 0 47.0823 13.1897 621 153.665 574.911 493.208
1582 0 46.0405 13.184 607 157.339 575.068 492.822
1583 0 50.0192 14.1546 708 150.887 575.062 492.836
1584 0 49.0238 14.2176 697 154.436 574.3 491.396
1585 0 52.0661 14.6736 764 152.572 574.62 490.253
1586 0 52.0553 14.5038 755 155.727 574.613 489.868
1587 0 55.2281 14.5035 801 153.843 574.82 489.808
1588 0 55.0468 14.8237 816 155.103 574.219 489.021
1589 0 58.0917 14.8902 865 154.299 575.023 487.56
1590 0 57.0786 14.4362 824 159.795 574.777 485.442
1591 0 61.1002 14.8117 905 156.783 574.536 485.116
1592 0 61.0545 13.6927 836 162.299 574.202 484.323
1593 0 62.0932 14.0112 870 163.462 574.754 482.589
1594 0 64.1034 15.0382 964 161.479 575.354 480.787
1595 0 66.0724 13.803 912 163.901 574.161 482.272
1596 0 67.0903 14.7413 989 163.335 573.796 479.489
1597 0 70.1168 13.8911 974 166.045 574.318 478.894
1598 0 71.0456 14.0755 1000 168.941 574.911 477.22
1599 0 70.1488 13.7992 968 141.298 574.946 479.759
1600 0 67.1851 12.726 855 145.933 574.929 476.966
1601 0 70.1252 13.319 934 142.285 574.753 477.828
1602 0 70.1536 14.9102 1046 137.841 574.953 479.542
1603 0 67.0691 13.5979 912 144.596 575.163 478.14
1604 0 66.0834 12.9987 859 147.296 575.007 478.788
1605 0 65.087 13.3974 872 146.445 574.597 480.177
1606 0 67.088 12.5805 844 145.273 575.219 479.393
1607 0 70.0927 14.3239 1004 139.199 575.423 479.483
1608 0 68.0451 13.0502 888 144.816 575.615 479.664
1609 0 68.0637 14.4717 985 141.255 575.547 478.664
1610 0 67.1414 12.1832 818 146.929 575.511 478.177
1611 0 66.0705 13.1223 867 143.135 575.391 478.928
1612 0 65.1006 12.6881 826 138.616 574.766 478.651
1613 0 62.1075 14.0402 872 130.44 575.139 479.193
1614 0 60.101 11.8966 715 131.761 575.246 478.579
1615 0 52.0411 14.8152 771 130.512 575.778 426.157
1616 0 53.0443 14.8932 790 158.886 575.308 425.92
1617 0 55.0775 14.8518 818 158.326 575.756 425.991
1618 0 58.0186 14.7884 858 157.41 575.232 425.268
1619 0 59.067 14.8476 877 157.506 574.477 424.922
1620 0 61.0796 14.4566 883 158.43 575.486 424.203
1621 0 62.0527 15.1323 939 157.295 575.137 423.489
1622 0 65.0237 14.687 955 158.346 575.676 422.113
1623 0 67.0296 15.1127 1013 156.697 575.303 422.461
1624 0 70.0581 14.8591 1041 156.59 575.22 420.844
1625 0 73.0919 15.8294 1157 152.615 575.098 418.938
1626 0 74.0394 14.7759 1094 157.742 575.016 420.159
1627 0 78.1106 15.9773 1248 151.772 575.526 418.381
1628 0 80.1085 14.9672 1199 155.692 575.353 416.937
1629 0 83.1364 15.661 1302 152.916 575.436 416.636
1630 0 86.0792 16.9263 1457 147.485 574.986 416.086
1631 0 88.2111 14.8507 1310 154.931 575.31 414.385
1632 0 92.1377 15.2489 1405 152.153 575.124 413.212
1633 0 94.1987 14.3526 1352 155.996 575.018 410.712
1634 0 98.1636 15.4742 1519 152.079 575.615 408.986
1635 1 49.0988 12.5665 617 149.057 575.647 434.254
1636 0 52.0647 13.5985 708 145.602 575.544 432.747
1637 0 56.215 13.5551 762 148.619 575.203 431.777
1638 0 57.0715 14.9812 855 136.862 574.52 428.994
1639 0 59.1354 13.4099 793 140.313 574.295 429.148
1640 0 60.0312 13.9094 835 140.643 575.22 428.42
1641 0 65.1034 13.2251 861 139.904 574.784 427.861
1642 0 65.1457 14.4138 939 137.712 575.312 426.136
1643 0 69.0861 13.9825 966 138.273 575.233 423.499
1644 0 71.1185 14.2438 1013 137.752 574.736 423.399
1645 0 74.0949 14.6029 1082 136.358 574.155 420.321
1646 0 77.2436 14.2666 1102 136.617 575.005 420.214
1647 0 79.2217 14.7687 1170 141.554 574.939 418.701
1648 0 84.1551 14.9248 1256 139.915 575.13 417.727
1649 0 88.1474 14.0333 1237 142.116 575.116 415.83
1650 0 88.3424 14.3193 1265 141.637 575.941 414.636
1651 1 45.1297 12.8297 579 135.589 574.399 436.957
1652 0 47.1019 15.0949 711 128.401 575.293 436.792
1653 0 46.1119 13.0552 602 135.492 574.606 436.193
1654 0 48.0765 13.6033 654 134.235 574.433 433.976
1655 0 52.1002 13.5124 704 131.56 574.916 434.446
1656 0 53.1961 12.4445 662 133.671 575.391 432.397
1657 0 57.0843 13.0684 746 131.783 574.983 430.424
1658 0 58.1266 14.1415 822 128.624 574.027 429.161
1659 0 58.0507 12.8853 748 134.079 573.948 428.932
1660 0 62.0903 13.8186 858 129.008 574.597 427.913
1661 0 64.0614 13.6275 873 130.667 574.472 427.088
1662 0 67.2189 13.523 909 129.514 575.204 426.032
1663 0 69.2186 13.8258 957 130.17 575.076 425.393
1664 0 72.289 13.4599 973 131.073 574.372 423.378
1665 0 74.1307 14.2721 1058 131.302 574.474 422.913
1666 0 76.2903 14.0254 1070 133.11 574.262 421.16
1667 0 78.1298 14.0535 1098 133.449 574.653 419.973
1668 0 80.1293 13.4408 1077 136.565 574.816 419.833
1669 0 84.174 13.4958 1136 136.744 574.888 417.458
1670 0 88.2791 14.0011 1236 135.061 574.889 418.218
1671 1 45.0699 12.3586 557 130.262 574.894 437.273
1672 0 47.1035 12.1859 574 133.247 574.598 437.589
1673 0 48.1006 11.4136 549 134.619 574.8 433.366
1674 0 49.0464 11.8867 583 133.851 574.731 432.578
1675 0 51.0882 12.0576 616 133.484 574.916 433.067
1676 0 53.2375 12.1719 648 133.332 574.974 432.407
1677 0 55.2357 11.8402 654 133.514 574.677 431.407
1678 0 58.131 13.0223 757 130.943 574.287 429.511
1679 0 62.193 12.5898 783 130.9 574.764 430.547
1680 0 63.3489 12.6443 801 132.602 575.015 428.688
1681 0 65.2178 13.0946 854 133.577 574.912 426.237
1682 0 68.3911 14.2124 972 128.447 574.543 427.363
1683 0 71.3442 14.6053 1042 128.823 574.787 424.137
1684 0 73.2099 13.5774 994 132.749 574.805 422.099
1685 0 76.1661 12.2364 932 135.078 574.32 422.977
1686 0 78.2456 12.9975 1017 133.435 574.467 419.698
1687 0 83.2171 12.894 1073 133.647 574.436 418.445
1688 0 84.1468 12.8109 1078 134.947 575.346 416.269
1689 1 41.23 9.87146 407 130.855 575.324 439.499
1690 0 42.1655 10.7671 454 129.736 575.2 439.41
1691 0 45.2146 11.6113 525 126.771 575.04 439.878
1692 0 47.048 13.9007 654 131.228 576.908 436.242
1693 0 48.0908 13.7032 659 127.392 576.964 437.593
1694 0 48.1229 13.6733 658 128.688 576.146 436.707
1695 0 52.0436 14.2188 740 124.908 575.922 436.393
1696 0 51.1581 13.3117 681 129.405 576.209 435.319
1697 0 53.0484 13.6291 723 128.996 576.515 434.004
1698 0 55.1722 14.3188 790 125.699 576.134 433.396
1699 0 57.2374 13.5226 774 126.019 575.411 432.248
1700 0 60.2071 13.2709 799 118.084 574.969 428.786
1701 0 62.2215 13.0823 814 117.49 575.07 430.429
1702 0 65.2281 12.5253 817 119.226 575.493 428.001
1703 0 67.2021 13.4966 907 117.182 575.002 426.645
1704 0 68.2599 13.4193 916 114.643 574.67 426.825
1705 0 70.2335 12.8856 905 115.556 574.848 424.961
1706 0 73.1497 12.9187 945 114.448 574.895 424.816
1707 0 75.2046 12.4328 935 116.88 574.855 424.488
1708 0 76.1574 11.752 895 118.744 574.879 423.525
1709 0 81.1479 13.1981 1071 114.802 574.345 423.557
1710 0 82.2041 12.9069 1061 117.331 575.219 422.531
1711 0 83.0857 12.8903 1071 118.835 575.096 420.063
1712 0 83.0857 12.794 1063 137.583 575.114 419.928
1713 0 88.1438 12.7405 1123 125.096 575.193 417.972
1714 0 90.196 11.6081 1047 127.925 575.175 417.655
1715 0 93.0638 12.9481 1205 125.027 574.979 414.972
1716 0 97.11 12.6969 1233 126.35 574.44 412.063
1717 0 102.191 13.1812 1347 124.105 574.275 412.606
1718 1 44.0515 11.7363 517 122.584 573.623 439.224
1719 0 46.1395 12.8523 593 126.143 574.304 437.02
1720 0 48.0343 12.8242 616 129.88 573.511 434.148
1721 0 51.0993 14.0707 719 124.812 573.854 435.26
1722 0 52.1612 12.9598 676 129.593 573.494 433.436
1723 0 52.0602 13.1963 687 130.639 574.371 432.201
1724 0 55.0535 13.8411 762 128.005 574.01 432.437
1725 0 55.1502 14.2701 787 128.671 574.437 432.28
1726 0 58.1552 14.255 829 128.936 574.224 431.242
1727 0 60.2171 14.4145 868 129.554 574.517 428.908
1728 0 61.2727 14.2478 873 131.51 574.742 427.762
1729 0 64.3173 14.0242 902 131.907 574.86 427.16
1730 0 65.2106 13.5561 884 134.85 575.473 425.674
1731 0 68.2938 14.2912 976 133.509 575.243 426.068
1732 0 69.2282 14.1705 981 135.42 574.143 423.936
1733 0 72.3428 14.5972 1056 135.319 574.796 421.575
1734 0 73.2039 14.7397 1079 136.189 574.938 420.867
1735 0 77.2235 14.4904 1119 137.099 574.971 420.914
1736 0 79.3186 15.381 1220 136.4 574.793 417.976
1737 0 80.3413 14.7247 1183 140.64 574.839 418.314
1738 0 83.3546 14.4803 1207 141.648 574.614 416.632
1739 0 87.352 16.714 1460 135.298 574.256 416.489
1740 0 87.3576 15.3278 1339 142.458 573.845 414.355
1741 0 91.2964 16.1233 1472 139.776 574.538 414.389
1742 0 96.3206 15.8533 1527 139.866 574.454 412.287
1743 0 98.3337 15.4881 1523 142.531 574.816 409.649
1744 0 100.363 15.0554 1511 143.586 574.303 410.916
1745 0 103.478 15.414 1595 141.45 574.554 409.809
1746 0 106.417 16.1629 1720 139.868 573.881 407.516
1747 0 109.249 15.7804 1724 141.955 573.726 407.066
1748 0 112.305 16.9716 1906 138.143 573.794 404.61
1749 0 115.412 14.7472 1702 145.206 574.091 406.042
1750 0 120.437 14.7795 1780 144.67 574.17 404.79
1751 0 124.29 15.6811 1949 142.698 573.89 399.251
1752 0 129.33 15.2168 1968 143.696 574.217 399.335
1753 0 134.435 15.3382 2062 142.843 573.972 400.394
1754 0 138.228 15.6698 2166 143.096 573.159 395.58
1755 0 143.289 15.8631 2273 142.221 574.045 395.079
1756 0 148.255 15.5206 2301 142.706 574.701 392.316
1757 0 152.348 15.55 2369 142.904 574.024 391.262
1758 0 159.359 15.2988 2438 143.933 573.998 387.22
1759 1 84.214 15.3419 1292 147.422 573.67 422.781
1760 0 86.1203 16.175 1393 146.739 573.681 419.202
1761 0 90.3693 15.2596 1379 147.628 574.144 420.687
1762 0 92.3288 15.4773 1429 146.305 573.776 419.99
1763 0 94.4136 15.8346 1495 146.604 574.23 417.959
1764 0 100.131 15.2999 1532 145.832 573.879 417.999
1765 0 102.272 15.4196 1577 145.923 574.223 413.67
1766 0 108.201 16.3677 1771 140.955 573.547 413.697
1767 0 110.288 15.0968 1665 144.79 574.256 412.676
1768 0 113.476 15.1486 1719 145.275 574.479 408.214
1769 0 119.291 15.8016 1885 142.264 574.364 406.678
1770 0 122.253 14.5354 1777 145.992 574.047 407.014
1771 0 129.283 16.2048 2095 139.675 574.446 405.562
1772 0 133.147 15.4866 2062 141.934 574.79 401.84
1773 0 138.207 14.9269 2063 144.628 574.971 401.619
1774 0 144.226 15.857 2287 139.605 575.012 398.51
1775 0 149.368 15.5723 2326 139.678 575.088 396.359
1776 1 74.3232 14.1006 1048 144.91 573.505 430.048
1777 0 75.2126 14.1466 1064 144.614 573.832 429.392
1778 0 77.2009 14.4558 1116 144.129 573.92 427.677
1779 0 81.2791 14.7516 1199 141.911 573.575 428.52
1780 0 82.2351 14.3613 1181 144.212 573.422 427.283
1781 0 86.323 15.2682 1318 141.69 573.18 424.52
1782 0 87.1235 14.9673 1304 144.439 573.929 423.239
1783 0 91.1901 14.8152 1351 142.334 573.944 424.576
1784 0 94.3699 15.0048 1416 143.355 573.597 421.505
1785 0 96.2113 14.9671 1440 144.01 573.543 418.992
1786 0 100.28 15.347 1539 140.831 573.972 420.843
1787 0 104.329 15.2307 1589 141.344 573.466 418.344
1788 0 105.152 14.3982 1514 144.483 573.945 418.105
1789 0 109.255 15.4227 1685 139.287 574.609 416.35
1790 0 113.172 15.4455 1748 139.684 573.995 415.588
1791 0 116.171 14.8746 1728 141.722 573.92 415.549
1792 0 117.329 14.0971 1654 146.152 573.95 413.267
1793 0 121.25 14.631 1774 144.88 573.938 412.281
1794 0 128.164 15.566 1995 141.021 573.794 413.069
1795 0 131.241 14.8962 1955 143.958 573.548 412.568
1796 0 136.206 14.992 2042 143.571 574.098 413.457
1797 0 139.515 14.6865 2049 146.336 574.334 408.716
1798 0 143.232 14.5708 2087 146.55 573.862 409.459
1799 0 148.214 15.5384 2303 143.438 573.662 409.061
1800 0 152.227 16.0878 2449 142.569 574.166 405.565
1801 0 158.254 15.1213 2393 144.965 574.436 406.435
1802 0 166.27 15.12 2514 144.562 574.063 402.219
1803 0 174.292 15.8183 2757 140.636 574.683 405.132
1804 0 176.275 15.0049 2645 143.847 574.401 399.846
1805 0 185.364 15.7636 2922 140.957 574.44 396.357
1806 1 103.232 11.8374 1222 139.601 573.809 437.927
1807 0 105.189 11.8168 1243 141.481 573.869 433.784
1808 0 110.249 12.2088 1346 138.759 574.371 433.95
1809 0 115.179 12.0942 1393 138.21 574.235 430.656
1810 0 120.229 13.1333 1579 134.602 574.387 428.444
1811 0 125.17 13.5575 1697 132.925 574.521 426.53
1812 0 129.141 13.3033 1718 133.229 574.336 422.646
1813 0 132.201 12.4129 1641 134.13 574.054 423.02
1814 0 137.131 11.9083 1633 134.74 574.021 420.465
1815 0 143.124 11.9477 1710 133.581 573.628 417.512
1816 1 87.1218 9.81385 855 114.298 573.105 453.316
1817 0 88.0907 9.83078 866 116.761 573.251 447.67
1818 0 89.103 11.122 991 114.362 573.48 444.2
1819 0 94.1456 10.1863 959 109.849 574.269 444.249
1820 0 96.2779 9.6076 925 110.45 573.574 443.885
1821 0 102.17 11.0307 1127 106.948 573.385 440.799
1822 0 103.266 10.1001 1043 109.107 573.45 439.916
1823 0 109.272 10.3503 1131 108.229 573.905 436.717
1824 0 109.211 9.94404 1086 109.32 573.796 433.779
1825 0 116.329 11.0118 1281 107.152 573.966 431.937
1826 0 123.302 10.7379 1324 106.998 573.619 432.495
1827 0 125.216 11.4761 1437 110.999 573.836 426.24
1828 0 127.155 11.0416 1404 114.051 573.587 426.064
1829 0 130.186 10.0625 1310 118.973 573.682 423.161
1830 0 137.216 11.3179 1553 115.703 573.463 423.103
1831 0 142.225 12.192 1734 114.037 573.743 418.989
1832 0 142.185 9.97293 1418 120.226 573.987 414.618
1833 0 151.267 12.0912 1829 114.724 573.806 415.391
1834 1 80.0434 7.90821 633 116.463 572.872 450.875
1835 0 86.1797 9.85151 849 113.343 572.879 449.687
1836 0 84.1921 9.89403 833 115.605 574.627 445.902
1837 0 89.2961 10.1572 907 114.385 574.558 448.793
1838 0 89.3326 9.21277 823 117.011 574.435 447.22
1839 0 93.3169 9.09803 849 118.204 573.976 443.14
1840 0 97.4096 10.4918 1022 114.01 573.842 444.374
1841 0 100.353 11.5094 1155 112.82 573.402 439.761
1842 0 104.277 9.20628 960 117.532 573.197 443.705
1843 0 106.337 9.71436 1033 100.013 574.461 438.746
1844 0 110.283 9.14015 1008 115.711 573.416 432.62
1845 1 52.1311 8.97737 468 104.979 572.126 458.989
1846 0 55.0649 10.7146 590 102.503 572.359 448.569
1847 0 57.0967 11.0164 629 100.162 572.715 441.167
1848 0 57.0785 11.7908 673 97.1738 572.434 445.481
1849 0 60.098 10.9488 658 98.7173 572.366 444.843
1850 0 61.0759 10.6752 652 99.5982 572.549 443.387
1851 0 63.0771 10.4 656 102.262 572.867 438.727
1852 0 64.1149 12.0097 770 99.2948 572.618 440.049
1853 0 65.1242 11.7929 768 101.346 573.372 437.21
1854 0 67.1474 11.3779 764 102.136 572.74 438.073
1855 0 67.087 11.9099 799 102.771 573.426 437.512
1856 0 68.0928 12.1892 830 104.431 573.345 433.307
1857 0 71.1705 14.2756 1016 99.0797 572.811 433.209
1858 0 75.1177 12.5403 942 102.977 573.897 419.776
1859 0 77.2083 12.9779 1002 102.501 573.83 417.939
1860 0 76.2588 12.6936 968 104.773 573.825 418.809
1861 0 78.2772 12.3663 968 106.517 574.056 417.231
1862 0 79.2144 11.6014 919 109.16 573.635 410.59
1863 0 82.2329 13.7536 1131 104.332 574.18 410.091
1864 0 85.2081 13.1795 1123 105.31 573.728 413.76
1865 0 88.2662 12.5416 1107 105.861 574.266 415.548
1866 0 92.4142 12.7145 1175 104.98 574.267 413.559
1867 1 48.0879 11.4374 550 103.987 573.836 437.34
1868 0 52.092 10.6734 556 106.773 573.5 415.225
1869 0 54.145 12.5773 681 103.276 573.598 406.298
1870 0 54.0398 11.9727 647 107.249 576.768 401.668
1871 0 55.0254 11.3039 622 108.952 576.997 401.73
1872 0 56.0957 10.9099 612 107.556 576.645 402.096
1873 0 58.1219 12.3361 717 104.927 576.576 400.649
1874 0 59.0962 12.4374 735 104.286 576.229 405.314
1875 0 62.1267 11.1063 690 106.83 577.045 406.999
1876 0 64.1433 11.8017 757 105.07 577.008 407.067
1877 0 63.1812 11.8706 750 105.969 576.96 406.356
1878 0 66.1122 11.8284 782 106.182 577.026 406.902
1879 0 69.0663 12.7414 880 103.152 576.527 407.699
1880 0 69.1073 12.1261 838 106.137 576.784 407.603
1881 0 71.0645 13.8888 987 102.072 576.303 403.017
1882 0 74.068 13.1231 972 103.774 576.219 398.274
1883 0 76.0642 12.5289 953 105.297 575.99 401.036
1884 0 78.0593 11.4528 894 107.201 576.154 401.498
1885 0 81.0835 12.1973 989 105.306 575.876 403.686
1886 0 80.116 11.1838 896 109.372 576.318 403.367
1887 0 83.0763 11.7242 974 108.471 576.584 403.475
1888 0 87.1148 12.6729 1104 106.004 575.819 406.471
1889 0 89.0929 12.515 1115 106.315 576.309 407.693
1890 1 179.374 10.6147 1904 113.53 576.061 371.466
1891 0 183.35 12.9261 2370 107.176 575.484 362.845
1892 1 97.0823 10.7744 1046 109.14 576.253 405.339
1893 1 51.036 10.0909 515 101.058 576.819 418.738
1894 0 55.146 11.0253 608 96.0872 576.87 422.067
1895 0 56.0476 10.9014 611 94.9574 577.227 425.72
1896 0 57.04 11.3429 647 90.9954 577.422 432.005
1897 0 59.0774 12.7121 751 89.1997 576.909 430.438
1898 0 57.0484 9.85128 562 96.1388 577.311 430.826
1899 0 61.0447 10.1729 621 94.3221 576.852 436.356
1900 0 64.0821 12.2967 788 89.3668 577.324 435.485
1901 0 65.1098 11.9951 781 90.4904 577.055 426.325
1902 0 67.0676 12.6887 851 89.4512 576.806 426.126
1903 0 68.0434 11.7572 800 91.7788 576.291 425.719
1904 0 71.0894 11.5348 820 92.0793 576.641 426.684
1905 0 72.1469 12.0449 869 92.3096 576.067 425.655
1906 0 74.1367 11.4518 849 93.417 576.086 425.165
1907 0 77.1564 11.4573 884 93.7262 575.67 424.331
1908 0 78.1865 10.0657 787 96.5883 576.136 425.424
1909 0 82.1462 13.4151 1102 90.4782 575.947 422.111
1910 0 82.1515 10.931 898 95.8018 575.31 425.66
1911 0 85.3386 10.5345 899 98.0512 575.719 417.4
1912 1 48.083 9.19244 442 100.876 576.326 427.376
1913 0 49.1698 11.0637 544 98.2077 576.467 426.439
1914 0 51.104 10.8406 554 98.8177 576.433 428.673
1915 0 52.0886 12.4403 648 96.4506 576.341 421.42
1916 0 52.084 10.9247 569 100.148 577.462 423.04
1917 0 54.1289 10.863 588 99.3452 576.769 424.537
1918 0 54.0834 11.6672 631 99.2187 576.704 424.743
1919 0 57.1116 12.0116 686 97.8178 576.169 424.803
1920 0 58.1395 12.4872 726 97.197 576.822 430.51
1921 0 60.1535 12.0193 723 100.369 576.415 412.555
1922 0 61.1001 11.8658 725 101.828 576.086 408.272
1923 0 62.1036 11.0622 687 103.965 575.857 408.084
1924 0 64.0487 12.3968 794 102.118 575.976 406.588
1925 0 65.1433 11.8662 773 103.759 576.47 409.413
1926 0 69.1189 13.0355 901 100.613 575.931 409.59
1927 0 69.1115 13.0658 903 101.511 576.3 410.628
1928 0 73.1018 12.9819 949 101.358 576.16 412.766
1929 0 74.0609 11.3285 839 106.278 576.729 412.683
1930 0 76.0563 12.2935 935 104.68 576.918 414.413
1931 0 77.0612 11.7958 909 107.663 576.557 418.552
1932 0 81.1812 12.9833 1054 106.733 576.231 422.843
1933 0 82.1125 12.5316 1029 109.646 576.127 420.564
1934 0 84.1614 12.0958 1018 110.531 576.577 419.247
1935 0 88.1906 13.1533 1160 107.949 576.497 405.755
1936 1 43.0346 10.2708 442 113.83 576.464 426.059
1937 0 45.1483 10.3437 467 114.713 575.835 429.39
1938 0 46.102 10.8021 498 114.167 574.841 426.277
1939 0 47.1036 10.0205 472 115.044 574.947 426.701
1940 0 48.1609 9.84201 474 115.688 574.53 426.728
1941 0 48.0169 9.89235 475 118.406 573.402 420.276
1942 0 51.0269 11.7977 602 114.321 573.736 415.12
1943 0 52.0741 12.1366 632 113.104 573.527 401.179
1944 0 55.0186 11.178 615 113.849 573.517 401.47
1945 0 58.0663 11.3319 658 112.424 573.459 392.324
1946 0 61.0819 12.4423 760 110.751 573.533 390.942
1947 0 59.04 11.3482 670 113.922 573.793 391.775
1948 0 64.0836 13.8257 886 105.922 574.179 392.226
1949 0 66.1282 11.7348 776 109.687 573.834 395.05
1950 0 66.1273 11.8408 783 110.16 573.748 395.704
1951 0 69.1239 12.1087 837 108.83 573.836 397.492
1952 0 71.1675 11.9999 854 109.275 573.489 385.018
1953 0 73.1782 12.736 932 107.482 573.714 391.363
1954 0 76.1623 13.6157 1037 105.403 573.937 397.441
1955 0 77.1381 12.6267 974 107.974 574.074 391.017
1956 0 81.1267 12.0429 977 109.393 574.498 383.328
1957 0 82.1194 11.5807 951 111.838 574.816 380.57
1958 0 85.0921 13.1975 1123 106.861 575.17 386.05
1959 0 87.1336 12.8194 1117 108.011 575.313 387.209
1960 0 90.0905 12.8315 1156 107.747 574.606 386.725
1961 0 94.1004 12.221 1150 108.49 574.451 391.716
1962 0 97.1811 13.1713 1280 101.581 574.577 396.48
1963 0 100.305 14.1768 1422 105.436 575.392 398.802
1964 0 103.075 13.2719 1368 108.505 575.312 389.672
1965 1 51.1024 11.4672 586 106.601 575.829 412.787
1966 0 54.0388 12.1579 657 105.049 575.633 417.737
1967 0 54.0314 11.3082 611 106.342 575.478 423.37
1968 0 56.0394 10.7781 604 108.124 575.609 422.44
1969 0 57.0301 12.0813 689 104.734 576.298 421.245
1970 0 62.0659 12.8895 800 101.373 575.799 427.829
1971 0 63.0424 12.3726 780 102.836 576.369 422.336
1972 0 66.0283 12.8884 851 102.549 576.098 416.91
1973 0 68.0637 11.1072 756 105.372 575.999 419.788
1974 0 68.064 12.7968 871 103.945 575.594 418.22
1975 0 71.1667 11.8033 840 105.029 575.868 421.944
1976 0 74.1136 13.7762 1021 101.317 576.247 420.38
1977 0 75.098 13.5689 1019 100.648 575.562 423.925
1978 0 77.1604 14.3856 1110 100.538 575.747 418.691
1979 0 80.074 12.8631 1030 103.368 575.699 420.242
1980 0 84.1917 13.0535 1099 102.631 576.116 411.835
1981 0 87.2674 13.155 1148 98.1838 575.397 419.708
1982 0 89.1092 11.4803 1023 101.967 575.543 413.372
1983 0 91.3066 12.354 1128 101.065 575.548 403.077
1984 1 50.1057 10.7373 538 89.5223 574.414 408.823
1985 0 51.0948 11.9777 612 88.4232 575.092 407.565
1986 0 52.2335 10.6637 557 87.6481 575.113 411.589
1987 0 52.1837 11.0379 576 87.9635 574.684 411.967
1988 0 53.177 10.3428 550 89.2582 574.378 413.284
1989 0 56.1116 12.19 684 85.7237 574.525 413.412
1990 0 58.1195 12.1818 708 86.8234 574.722 414.976
1991 0 60.1482 11.9871 721 87.3121 575.221 415.287
1992 0 62.0481 11.9424 741 87.7045 574.663 414.735
1993 0 63.076 11.7477 741 88.9298 574.32 415.888
1994 0 66.1949 12.856 851 86.7685 574.09 415.202
1995 0 69.2274 12.6973 879 87.3982 574.505 405.217
1996 0 68.1689 11.8089 805 91.1093 574.861 405.199
1997 0 73.4168 11.6867 858 91.3065 574.6 405.592
1998 0 76.2522 11.8029 900 91.4356 574.278 403.229
1999 0 78.2485 12.8693 1007 90.4151 574.722 399.014
2000 0 81.2272 13.1852 1071 89.2456 574.963 399.43
2001 0 84.3348 12.0117 1013 91.5706 574.523 402.107
2002 0 88.2487 13.2013 1165 89.406 574.758 402.409
2003 1 43.2787 9.61212 416 89.0264 574.49 427.125
2004 0 45.2766 10.8886 493 85.9716 574.497 428.156
2005 0 44.094 10.0921 445 92.6764 575.173 423.256
2006 0 46.0917 10.9781 506 89.0711 574.646 423.96
2007 0 49.1089 9.48912 466 90.7318 574.964 425.534
2008 0 51.0935 11.43 584 87.3801 574.281 425.353
2009 0 51.1192 11.2091 573 88.801 574.834 421.157
2010 0 53.1299 9.31679 495 92.196 574.713 421.976
2011 0 53.0755 9.85389 523 92.2562 574.581 424.465
2012 0 54.1201 10.4767 567 92.4797 574.568 423.601
2013 0 59.0727 11.5112 680 89.7309 575.043 428.437
2014 0 61.1427 11.3669 695 90.6892 574.974 429.983
2015 0 59.1162 10.8938 644 94.0109 575.179 426.938
2016 0 62.1815 11.4986 715 93.0168 574.152 428.687
2017 0 63.0969 9.57258 604 97.2732 575.227 419.603
2018 0 69.137 12.5693 869 92.2647 574.945 420.969
2019 0 70.1151 11.7093 821 96.7442 574.685 419.793
2020 0 70.1397 11.9904 841 96.9489 574.705 421.794
2021 0 76.2318 11.9373 910 97.3538 574.973 421.058
2022 0 77.1657 11.728 905 100.543 574.594 411.667
2023 0 80.121 12.3314 988 101.296 574.621 410.797
2024 0 81.2052 12.61 1024 102.957 575.043 400.761
2025 0 84.1298 13.6812 1151 101.109 575.27 405.346
2026 0 87.2038 13.1187 1144 102.328 574.62 416.889
2027 0 89.1635 13.0771 1166 103.863 574.929 419.286
2028 0 92.1628 12.619 1163 106.894 574.476 413.573
2029 0 93.2538 12.7716 1191 107.97 575.142 413.435
2030 0 96.2292 13.2288 1273 107.167 574.754 421.229
2031 0 100.105 12.0374 1205 109.983 575.082 417.284
2032 1 54.0289 12.0306 650 104.395 573.831 442.934
2033 0 56.0322 11.2078 628 106.632 573.581 443.447
2034 0 56.0284 11.8868 666 106.278 573.506 441.634
2035 0 60.0734 13.2505 796 102.379 572.618 436.221
2036 0 60.1336 13.7194 825 102.144 572.664 429.133
2037 0 63.1536 13.0476 824 105.112 572.92 413.08
2038 0 64.1132 12.9459 830 105.761 573.263 415.636
2039 0 66.1346 13.0038 860 106.506 573.612 414.093
2040 0 69.0772 13.9409 963 103.758 573.649 415.344
2041 0 71.1141 14.2447 1013 104.267 574.259 419.619
2042 0 72.1328 13.0315 940 108.019 574.463 421.173
2043 0 76.06 13.8443 1053 105.716 573.787 416.495
2044 0 76.1412 12.9365 985 108.836 573.957 421.018
2045 0 80.055 12.7163 1018 108.19 573.473 417.941
2046 0 83.1451 13.1216 1091 108.412 573.808 400.329
2047 0 87.2173 13.9766 1219 104.806 573.598 405.576
2048 0 89.2563 12.8955 1151 106.888 572.731 412.336
2049 1 48.0973 11.8926 572 109.308 572.358 431.096
2050 0 49.0238 13.4017 657 107.1 572.374 426.373
2051 0 50.1529 12.4021 622 105.381 573.232 432.214
2052 0 49.1538 12.2066 600 108.023 572.857 423.48
2053 0 53.2001 12.6316 672 105.497 572.744 418.692
2054 0 54.0839 13.0908 708 105.112 573.374 416.109
2055 0 56.1306 13.4864 757 103.425 573.614 421.078
2056 0 58.0756 13.4824 783 102.732 573.872 429.056
2057 0 56.0518 12.5241 702 106.547 572.771 432.095
2058 0 60.173 12.2148 735 104.818 573.238 437.141
2059 0 60.1144 12.0437 724 107.14 573.682 427.891
2060 0 62.1731 12.61 784 105.061 573.078 427.895
2061 0 66.2014 13.3834 886 104.205 573.396 412.112
2062 0 67.1431 12.6 846 107.353 574.037 411.366
2063 0 71.1587 13.224 941 106.107 574.926 399.918
2064 0 71.2237 13.0996 933 108.618 574.892 401.457
2065 0 74.203 12.8297 952 108.87 575.276 400.535
2066 0 77.1721 12.7507 984 109.739 574.203 399.939
2067 0 79.2132 13.0534 1034 109.353 575.066 408.242
2068 0 83.4334 14.0951 1176 106.629 575.088 401.055
2069 0 85.3479 14.3764 1227 107.404 574.142 388.059
2070 0 89.3252 13.0198 1163 110.996 573.538 382.193
2071 0 90.2752 12.1407 1096 114.869 573.976 378.471
2072 1 48.115 11.7011 563 115.98 574.028 402.95
2073 0 47.0334 10.7796 507 113.495 574.974 406.412
2074 0 50.1073 12.5132 627 111.313 574.18 386.53
2075 0 49.0775 10.7585 528 108.214 573.723 386.67
2076 0 51.0754 10.3964 531 108.079 574.588 395.183
2077 0 53.1364 10.3319 549 108.27 574.811 397.137
2078 0 55.0547 11.1889 616 105.224 574.727 399.492
2079 0 57.0665 11.3377 647 106.468 574.385 397.781
2080 0 59.1829 11.6419 689 106.122 574.284 398.271
2081 0 61.0829 11.3125 691 107.245 574.528 398.669
2082 0 63.0965 11.9024 751 106.397 574.7 397.465
2083 0 64.0678 12.1122 776 106.78 574.691 395.126
2084 0 67.1588 12.0907 812 105.748 573.99 397.97
2085 0 69.0855 11.8259 817 107.273 574.223 396.785
2086 0 68.0358 12.3317 839 107.039 574.211 396.9
2087 0 73.1078 13.61 995 102.351 574.456 399.08
2088 0 74.1405 13.2721 984 103.816 574.295 399.364
2089 0 77.1705 12.0642 931 108.897 573.731 385.57
2090 0 79.1283 11.2981 894 109.442 574.02 386.078
2091 0 82.1734 11.9017 978 106.953 573.948 388.325
2092 0 85.1434 12.2969 1047 106.398 574.012 388.765
2093 0 89.1288 12.4539 1110 104.758 574.272 389.429
2094 0 92.1911 12.2138 1126 105.155 574.671 389.313
2095 1 48.14 11.1965 539 98.846 573.863 410.21
2096 0 50.1455 11.2074 562 100.678 573.413 413.114
2097 0 53.15 12.5682 668 105.021 573.222 413.674
2098 0 53.1824 13.0118 692 105.022 573.668 384.928
2099 0 57.1523 12.038 688 103.69 573.432 385.39
2100 0 57.1096 12.8525 734 103.617 573.034 384.01
2101 0 58.1141 12.7852 743 104.506 573.184 386.248
2102 0 62.129 12.3614 768 103.818 573.618 392.745
2103 0 61.0713 12.7556 779 104.214 573.823 393.576
2104 0 66.0995 13.631 901 100.286 573.073 393.91
2105 0 65.1553 12.6467 824 104.839 573.279 392.176
2106 0 68.1852 12.4074 846 104.768 573.446 392.008
2107 0 71.1354 13.2142 940 102.123 573.22 399.93
2108 0 72.093 12.8723 928 102.76 573.117 399.499
2109 0 77.1382 13.0934 1010 100.968 573.72 400.899
2110 0 77.189 11.6856 902 105.415 573.787 404.429
2111 0 79.0956 13.3383 1055 102.824 573.257 398.153
2112 0 82.108 13.1047 1076 101.925 572.842 404.861
2113 0 86.1815 12.4621 1074 104.131 573.006 392.451
2114 0 88.2435 12.3522 1090 104.868 573.29 392.506
2115 0 91.2885 12.7727 1166 103.705 573.322 392.677
2116 0 93.2486 12.7616 1190 103.73 573.013 392.666
2117 1 49.0067 10.1007 495 108.554 572.362 418.261
2118 0 53.1484 12.0982 643 102.56 572.255 422.379
2119 0 55.1201 12.8991 711 96.398 574.316 421.405
2120 0 55.0714 11.7302 646 100.695 574.598 413.639
2121 0 58.0996 12.0999 703 94.559 574.708 394.06
2122 0 60.142 12.3208 741 94.475 574.399 397.923
2123 0 61.1803 12.4386 761 94.5795 574.565 402.48
2124 0 64.0373 12.399 794 93.4584 574.492 403.448
2125 0 64.0789 11.7043 750 96.252 574.396 402.671
2126 0 65.1592 12.9222 842 94.12 573.812 405.372
2127 0 69.1186 12.2109 844 95.2844 574.424 401.614
2128 0 72.1236 13.0471 941 94.6897 574.376 401.85
2129 0 74.2172 12.1805 904 96.8606 574.179 404.438
2130 0 75.1809 13.1416 988 96.08 574.366 402.674
2131 0 77.1709 12.1419 937 98.9477 573.826 409.74
2132 0 82.1243 14.3928 1182 94.9594 573.541 413.579
2133 0 83.2268 14.7789 1230 95.6463 573.826 411.547
2134 0 86.2136 13.7913 1189 100.132 574.325 391.645
2135 0 90.0901 14.1303 1273 100.005 573.979 393.422
2136 0 94.1648 12.8604 1211 102.422 574.084 396.329
2137 1 49.0784 12.0827 593 100.887 575.101 413.914
2138 0 50.2061 11.8511 595 102.415 574.539 420.59
2139 0 51.1199 12.6174 645 101.091 574.651 421.997
2140 0 55.1024 13.484 743 97.2907 575.059 425.167
2141 0 54.0553 12.1172 655 95.6824 574.455 425.855
2142 0 55.1594 11.4758 633 97.6098 574.523 432.708
2143 0 56.1068 12.4762 700 97.5271 574.347 434.084
2144 0 60.1111 13.0758 786 96.9364 574.506 430.962
2145 0 62.0873 12.4341 772 99.3212 574.759 434.953
2146 0 63.0626 12.781 806 99.1824 573.933 434.022
2147 0 64.0888 13.0288 835 100.302 574.074 432.691
2148 0 67.2178 13.553 911 99.5565 574.3 432.396
2149 0 69.2409 12.5071 866 102.525 574.102 430.344
2150 0 72.1598 12.694 916 102.259 573.57 429.068
2151 0 74.2748 12.2922 913 104.005 573.917 427.465
2152 0 77.1339 12.5885 971 103.526 574.352 426.313
2153 0 79.1343 12.6999 1005 104.133 574.327 426.742
2154 0 84.097 13.6033 1144 101.28 573.559 426.014
2155 0 86.2018 13.712 1182 102.769 573.556 423.563
2156 0 88.2327 13.2377 1168 104.807 574.162 417.286
2157 1 45.1445 11.1863 505 103.6 574.731 434.75
2158 0 45.0613 10.3193 465 107.66 574.127 427.148
2159 0 49.121 10.749 528 108.511 573.862 419.822
2160 0 50.1056 10.9569 549 104.251 574.537 423.914
2161 0 50.0799 11.3219 567 106.981 574.688 421.806
2162 0 52.0326 10.7048 557 106.975 574.95 412.144
2163 0 55.0569 10.6254 585 109.12 574.573 405.029
2164 0 56.1411 12.9673 728 105.902 574.066 397.777
2165 0 57.1272 11.9908 685 107.974 573.854 397.737
2166 0 59.0973 12.5894 744 107.329 573.38 398.606
2167 0 61.1049 11.9467 730 108.662 573.912 396.81
2168 0 60.0371 10.6268 638 113.215 573.5 398.252
2169 0 64.1464 12.4871 801 109.046 573.765 396.976
2170 0 64.0713 11.7681 754 111.826 573.503 395.509
2171 0 66.1084 11.8442 783 113.13 573.871 395.946
2172 0 70.1614 13.4262 942 110.235 573.633 392.363
2173 0 72.1087 12.0235 867 113.11 573.719 395.945
2174 0 74.0747 12.8384 951 112.376 573.239 397.344
2175 0 77.0389 11.8771 915 114.475 573.649 398.45
2176 0 79.1155 12.2226 967 113.658 574.415 393.22
2177 0 82.1648 12.0246 988 114.817 574.217 391.166
2178 0 83.163 11.736 976 117.216 574.42 391.129
2179 0 88.1956 12.631 1114 113.644 574.147 393.979
2180 0 92.1499 12.9463 1193 112.19 574.433 394.838
2181 0 95.1234 13.0672 1243 111.726 573.813 395.495
2182 0 96.1947 13.0465 1255 113.692 573.422 396.875
2183 1 51.1447 11.8096 604 112.353 573.654 416.174
2184 0 52.1364 11.4507 597 115.91 573.66 416.714
2185 0 53.1223 11.2947 600 108.787 574.768 426.172
2186 0 56.0618 11.8084 662 104.941 574.553 435.878
2187 0 60.1297 11.6581 701 105.743 574.324 437.591
2188 0 61.175 11.982 733 104.334 573.842 438.139
2189 0 61.1231 11.0597 676 108.568 574.182 436.382
2190 0 65.2818 12.178 795 107.084 574.927 431.146
2191 0 66.1787 11.9676 792 109.259 574.83 416.83
2192 0 68.1211 12.4191 846 109.576 574.027 413.742
2193 0 71.0738 12.7051 903 110.042 573.873 411.347
2194 0 75.0893 13.0112 977 108.995 574.43 411.658
2195 0 78.1397 12.6056 985 111.411 574.071 409.254
2196 0 80.2104 12.2428 982 113.183 573.622 409.223
2197 0 83.1149 12.8497 1068 112.642 573.769 410.418
2198 0 87.1386 13.4728 1174 111.427 573.428 399.909
2199 0 90.2516 13.5288 1221 110.928 573.563 410.806
2200 0 92.1997 13.1128 1209 112.025 574.36 417.793
2201 1 47.0984 11.9749 564 115.77 573.098 448.213
2202 0 48.2543 11.8953 574 111.19 574.002 444.929
2203 0 49.1353 11.9873 589 118.34 574.455 442.866
2204 0 51.1241 12.3816 633 112.49 573.915 446.322
2205 0 54.1212 13.5991 736 108.889 573.894 445.471
2206 0 54.1207 13.4884 730 111.834 574.551 442.699
2207 0 56.224 13.4818 758 111.803 574.405 443.367
2208 0 59.1807 12.4872 739 113.411 574.352 443.018
2209 0 61.2553 13.3866 820 111.435 574.215 440.882
2210 0 62.1967 13.184 820 113.598 574.485 439.721
2211 0 65.1627 14.3794 937 111.142 574.58 439.504
2212 0 66.2661 13.2345 877 116.49 574.447 438.842
2213 0 68.2665 12.6709 865 119.188 574.376 439.028
2214 0 69.3947 13.171 914 122.013 574.161 425.233
2215 0 73.2824 13.564 994 121.064 572.746 425.653
2216 0 76.2715 13.1504 1003 122.091 572.653 425.544
2217 0 79.3552 13.2694 1053 122.027 573.172 424.716
2218 1 40.1358 11.8348 475 122.301 573.749 442.122
2219 0 41.0783 12.2449 503 121.243 572.962 441.783
2220 0 45.089 12.9522 584 119.789 573.69 440.231
2221 0 45.2409 14.036 635 123.191 573.951 433.359
2222 0 48.0968 13.0778 629 126.928 573.776 414.48
2223 0 47.149 13.3831 631 124.412 573.499 410.788
2224 0 50.0817 13.6776 685 122.683 573.39 410.899
2225 0 51.0738 14.7434 753 124.236 574.065 411.683
2226 0 51.0958 12.6625 647 132.051 574.243 408.975
2227 0 54.1124 12.5849 681 129.419 574.247 410.332
2228 0 54.0901 12.7935 692 130.163 573.818 409.695
2229 0 56.1096 14.436 810 123.795 573.402 411.267
2230 0 58.1654 14.2009 826 124.747 573.623 410.523
2231 0 59.1034 14.1955 839 126.107 574.308 408.238
2232 0 62.1718 14.5886 907 123.897 573.852 408.87
2233 0 62.2467 13.9766 870 125.801 573.441 410.841
2234 0 64.1402 13.2522 850 127.373 574.162 410.754
2235 0 67.2602 14.2878 961 124.049 574.447 409.83
2236 0 70.2161 13.8715 974 124.099 573.627 412.491
2237 0 73.2031 14.9447 1094 122.236 573.301 411.032
2238 0 74.2692 14.1647 1052 125.219 573.011 411.343
2239 0 77.2031 14.6756 1133 122.996 573.327 412.56
2240 0 83.2363 18.5256 1542 110.121 573.189 409.266
2241 0 86.3983 16.204 1400 116.518 573.25 410.52
2242 0 88.478 16.2074 1434 116.476 573.866 409.743
2243 0 90.423 15.4054 1393 119.984 573.228 413.523
2244 0 89.1558 14.6261 1304 125.004 573.452 413.959
2245 0 94.2611 14.3113 1349 125.509 573.397 419.077
2246 0 94.2538 14.3124 1349 126.87 573.719 417.734
2247 1 52.0595 11.5829 603 129.934 573.098 439.312
2248 0 50.0834 12.2595 614 127.694 573.915 436.731
2249 1 65.1099 7.97114 519 129.262 574.356 439.449
2250 0 56.0181 12.8351 719 121.921 573.765 425.561
2251 0 57.0715 12.8611 734 124.399 573.74 419.049
2252 0 59.0476 12.8032 756 126.081 573.43 416.926
2253 0 61.1073 13.5663 829 122.042 574.123 419.911
2254 0 65.0734 12.8317 835 122.606 574.257 416.838
2255 0 67.1381 13.5095 907 124.25 573.368 409.399
2256 0 68.0709 13.1481 895 125.122 574.34 412.389
2257 0 70.0514 13.7471 963 123.925 573.325 412.276
2258 0 73.1183 14.1278 1033 123.559 572.767 413.541
2259 0 74.0706 14.4187 1068 123.537 573.324 414.772
2260 0 73.0599 12.5377 916 130.341 573.784 417.314
2261 0 78.1378 14.1161 1103 125.195 573.558 418.537
2262 0 80.0632 12.8149 1026 127.681 573.827 422.056
2263 0 83.1128 13.5599 1127 126.846 573.381 422.997
2264 0 87.0931 13.4798 1174 128.257 573.234 425.221
2265 0 89.1909 14.1158 1259 127.047 572.398 426.331
2266 0 94.0723 14.5845 1372 125.368 572.458 426.671
2267 0 94.0905 13.1044 1233 131.156 571.998 424.267
2268 0 100.098 14.3259 1434 125.428 572.194 425.143
2269 0 105.092 13.0077 1367 127.94 571.786 424.41
2270 0 110.14 15.0536 1658 122.193 571.121 421.726
2271 1 58.0623 9.79982 569 118.694 571.694 446.002
2272 0 61.1106 10.6692 652 115.233 571.707 447.77
2273 0 66.1322 13.4276 888 121.833 571.294 447.628
2274 0 68.1641 13.3648 911 123.712 570.471 449.187
2275 0 71.1491 12.8603 915 125.205 569.575 447.46
2276 0 74.1148 13.5465 1004 123.999 570.379 444.947
2277 0 77.1283 13.3803 1032 124.74 570.311 442.947
2278 0 78.169 12.8696 1006 128.441 569.468 439.158
2279 0 82.1197 13.6265 1119 125.946 569.095 438.815
2280 0 83.1187 13.4506 1118 126.39 568.563 436.386
2281 0 86.0712 12.3967 1067 127.783 567.917 436.477
2282 0 88.1637 12.749 1124 128.629 568.395 433.836
2283 0 94.0985 12.4444 1171 127.721 568.775 432.731
2284 0 97.1452 12.3732 1202 127.263 567.78 428.953
2285 0 98.1067 13.2713 1302 126.792 567.423 428.505
2286 0 100.11 12.4463 1246 130.043 567.709 426.292
2287 0 105.096 12.6456 1329 128.087 568.325 423.451
2288 0 111.1 14.0774 1564 121.698 568.012 424.082
2289 0 115.206 12.8465 1480 123.659 567.495 424.447
2290 0 119.113 12.6602 1508 116.664 567.727 422.144
2291 1 66.1624 11.5171 762 111.807 567.68 451.017
2292 0 68.1375 12.6362 861 109.258 567.57 448.213
2293 0 68.0583 13.9733 951 106.676 567.075 445.877
2294 0 71.0991 12.6443 899 109.106 567.033 447.593
2295 0 73.128 12.7174 930 109.443 567.151 443.146
2296 0 76.1275 13.0964 997 108.587 567.37 442.694
2297 0 76.073 11.8307 900 112.787 567.524 442.059
2298 0 80.0958 12.9595 1038 110.13 567.108 439.966
2299 0 82.067 13.1356 1078 110.15 566.633 439.737
2300 0 85.1223 12.8638 1095 110.616 566.543 437.74
2301 0 88.2104 12.4702 1100 112.534 567.495 436.291
2302 0 90.1484 13.0563 1177 111.661 567.167 435.347
2303 0 94.2675 13.8648 1307 109.363 567.96 435.428
2304 0 95.3361 12.4717 1189 113.717 567.489 433.048
2305 0 100.301 13.6788 1372 110.593 567.864 432.528
2306 0 103.294 12.0336 1243 114.635 567.722 430.763
2307 0 106.342 13.0522 1388 112.924 567.076 427.361
2308 0 110.485 13.5312 1495 112.829 567.478 424.294
2309 0 114.384 12.0646 1380 117.372 567.487 424.344
2310 0 116.456 11.9186 1388 113.243 566.909 427.267
2311 0 117.197 11.0242 1292 116.321 567.328 421.129
2312 0 122.272 10.7138 1310 116.411 567.803 419.131
2313 0 127.297 11.5556 1471 114.74 567.111 418.999
2314 0 132.317 12.659 1675 112.791 567.397 411.635
2315 0 135.293 12.4545 1685 115.241 567.627 398.261
2316 1 74.3204 10.8853 809 105.918 567.303 434.743
2317 0 76.1795 10.6722 813 106.203 566.882 435.109
2318 0 79.2998 12.3203 977 103.502 567.09 434.566
2319 0 81.2248 11.9914 974 103.702 567.116 438.263
2320 0 85.1627 11.2843 961 105.604 567.112 439.753
2321 0 89.25 12.4594 1112 104.017 566.809 436.81
2322 1 50.13 10.772 540 104.785 566.646 457.078
2323 0 51.0856 11.2556 575 98.08 568.584 442.294
2324 0 51.1794 9.76955 500 102.17 568.712 440.22
2325 0 51.1589 9.96894 510 101.786 568.059 445.4
2326 0 56.084 10.199 572 98.028 568.701 450.579
2327 0 52.0518 8.60681 448 105.241 568.471 450.79
2328 0 58.1051 10.6015 616 99.4399 568.657 447.774
2329 0 59.137 11.4311 676 98.0695 568.865 445.274
2330 0 61.1439 11.5302 705 98.2184 568.494 444.438
2331 0 64.0524 11.4437 733 98.1937 568.629 443.689
2332 0 64.0836 12.1248 777 96.0798 569.265 444.636
2333 0 67.1236 11.2032 752 96.758 568.964 441.637
2334 0 64.1054 10.4671 671 100.446 569.224 441.155
2335 0 68.082 11.0602 753 99.1341 568.733 442.214
2336 0 70.056 8.76441 614 104.117 568.935 435.054
2337 0 73.1102 9.13689 668 103.66 568.994 432.121
2338 0 74.1005 9.33866 692 104.228 568.908 425.938
2339 0 79.235 11.1314 882 101.429 568.663 416.545
2340 0 83.1845 9.49696 790 102.535 568.732 421.962
2341 0 87.0592 10.9581 954 101.521 569.007 418.438
2342 0 87.1763 9.79624 854 103.461 568.276 420.843
2343 0 94.1675 12.2654 1155 97.9316 569.062 418.446
2344 1 51.1227 11.3453 580 99.2586 569.278 422.736
2345 0 53.1409 11.9682 636 98.6399 569.129 417.992
2346 0 54.0411 10.8066 584 101.384 569.135 416.755
2347 0 57.1235 12.2191 698 97.99 569.322 419.384
2348 0 57.0678 11.5477 659 100.428 569.094 417.137
2349 0 59.1357 12.7503 754 98.8846 569.414 419.107
2350 0 59.1411 11.5148 681 102.78 569.715 420.96
2351 0 63.1478 11.481 725 102.863 570.52 416.772
2352 0 63.1339 11.4202 721 104.542 570.232 412.605
2353 0 66.1096 12.2373 809 103.08 569.666 413.189
2354 0 68.0606 12.9444 881 102.148 571.269 411.657
2355 0 69.0897 12.7515 881 103.393 570.689 415.21
2356 0 72.0511 11.3669 819 105.935 571.084 423.619
2357 0 74.035 11.8728 879 106.097 570.646 427.85
2358 0 79.1061 13.602 1076 102.538 570.607 419.31
2359 0 80.0901 13.722 1099 103.668 571.285 419.007
2360 0 84.1475 13.1674 1108 104.233 571.397 419.188
2361 0 88.0817 14.4184 1270 102.26 570.229 416.99
2362 0 92.133 14.1535 1304 102.991 570.606 413.165
2363 0 93.0736 13.4195 1249 106.045 570.362 412.54
2364 0 97.084 13.7922 1339 105.58 571.369 407.686
2365 1 51.028 12.1306 619 106.174 571.924 431.91
2366 0 53.0957 13.3156 707 104.13 571.542 432.293
2367 0 54.1637 14.2346 771 102.953 571.445 427.725
2368 0 54.1932 13.0275 706 106.059 571.691 431.779
2369 0 55.0997 12.9946 716 107.543 571.675 431.388
2370 0 59.033 13.467 795 105.697 571.996 431.87
2371 0 61.0897 13.4065 819 105.845 572.473 431.937
2372 0 63.0544 13.7817 869 106.066 571.633 431.273
2373 0 64.0609 13.9242 892 106.156 571.661 432.946
2374 0 68.107 13.8752 945 106.661 571.569 418.728
2375 0 70.1242 14.8308 1040 105.926 571.963 412.8
2376 0 71.0555 14.2987 1016 110.197 571.32 410.692
2377 0 74.1192 14.3553 1064 110.289 571.07 409.846
2378 0 75.1686 13.942 1048 112.752 571.638 409.582
2379 0 77.256 13.7724 1064 114.529 571.631 408.586
2380 0 80.1399 13.8508 1110 115.878 571.604 405.7
2381 0 83.1489 15.2858 1271 112.452 571.478 404.513
2382 0 86.303 14.4723 1249 115.213 571.445 404.405
2383 0 89.1501 15.0196 1339 115.354 571.928 403.525
2384 0 92.1527 15.6371 1441 114.704 572.098 405.972
2385 0 95.1198 14.6447 1393 121.71 571.513 378.043
2386 1 52.0333 13.3761 696 128.822 570.901 397.869
2387 0 54.0766 13.9802 756 125.898 571.411 398.093
2388 0 55.2445 13.7208 758 126.053 571.951 394.111
2389 0 56.1121 14.5423 816 124.3 571.771 388.506
2390 0 58.1564 15.252 887 123.3 571.778 383.84
2391 0 60.086 15.095 907 123.863 572.398 383.892
2392 0 61.2293 15.2868 936 123.166 572.374 385.494
2393 0 65.2454 14.5911 952 123.556 571.588 387.064
2394 0 67.0457 14.5423 975 125.68 572.397 387.127
2395 0 69.1367 14.8546 1027 125.25 573.17 389.874
2396 0 71.1275 14.1998 1010 127.325 572.67 390.059
2397 0 76.0897 15.7051 1195 123.032 573.103 391.254
2398 0 76.1516 15.8106 1204 124.392 572.997 387.679
2399 0 79.1338 15.8213 1252 123.805 572.431 390.685
2400 0 82.2526 14.9904 1233 125.14 572.686 389.908
2401 0 84.2987 14.6859 1238 128.09 572.066 379.701
2402 0 87.179 15.2904 1333 126.231 571.671 375.326
2403 1 46.0991 13.4276 619 126.746 571.464 399.32
2404 0 47.0713 12.8316 604 130.462 571.581 397.268
2405 0 48.0897 14.5977 702 124.09 570.849 396.285
2406 0 52.1829 13.5485 707 124.761 571.7 398.116
2407 0 52.093 13.5143 704 129.206 572.433 379.349
2408 0 53.0689 14.4906 769 127.285 572.022 376.241
2409 0 54.1528 15.2162 824 125.075 571.663 380.34
2410 0 54.0956 14.4374 781 122.584 572.376 388.919
2411 0 56.0604 13.1465 737 125.765 572.339 394.749
2412 0 59.0665 15.1355 894 120.787 572.84 394.609
2413 0 60.0527 13.9378 837 124.888 572.935 397.068
2414 0 62.0789 15.5609 966 122.201 572.883 396.101
2415 0 65.066 15.4612 1006 121.944 572.625 395.088
2416 0 66.0704 14.424 953 126.232 572.279 393.835
2417 0 68.1276 15.1187 1030 124.662 572.015 394.225
2418 0 70.1092 14.7056 1031 125.923 571.851 394.499
2419 0 72.0726 14.4576 1042 127.71 571.95 392.695
2420 0 75.1549 15.0489 1131 126.125 571.847 391.91
2421 0 76.0751 14.4988 1103 128.699 571.388 390.099
2422 0 81.1526 14.2201 1154 127.457 571.983 392.468
2423 0 83.1204 14.9903 1246 126.711 572.033 389.34
2424 0 87.1778 14.8776 1297 125.505 571.533 390.561
2425 0 89.2298 15.4881 1382 124.164 571.572 388.464
2426 0 92.2236 16.5684 1528 121.316 572.085 385.807
2427 0 95.1839 14.8555 1414 124.346 571.959 385.984
2428 1 52.155 12.8272 669 125.668 572.256 405.57
2429 0 55.0758 13.9263 767 125.013 572.258 410.587
2430 0 57.0712 13.527 772 124.635 572.092 409.883
2431 0 58.0768 12.8623 747 127.229 572.023 407.867
2432 0 60.1122 14.0903 847 123.947 572.466 405.641
2433 0 63.15 13.7925 871 123.958 572.059 405.389
2434 0 65.126 15.6312 1018 118.978 572.002 404.12
2435 0 66.1765 14.2649 944 122.061 572.097 404.613
2436 0 69.1763 14.5426 1006 121.315 572.91 402.95
2437 0 73.202 15.4914 1134 117.843 572.69 403.497
2438 0 74.0916 15.0759 1117 119.954 572.717 402.535
2439 0 77.1732 14.2148 1097 121.476 572.952 404.13
2440 0 80.183 13.993 1122 122.437 572.249 403.818
2441 0 83.1778 14.3668 1195 121.049 572.659 404.477
2442 0 87.1635 14.5015 1264 120.538 573.175 402.468
2443 0 90.3124 14.627 1321 119.864 572.54 402.275
2444 0 94.3126 14.3671 1355 120.79 571.982 402.313
2445 0 96.174 12.7789 1229 123.632 571.813 404.127
2446 0 101.234 14.2739 1445 121.051 571.437 403.284
2447 1 55.0375 11.7011 644 126.528 571.168 422.784
2448 0 58.0825 13.7907 801 121.885 571.976 420.742
2449 0 62.0733 13.6452 847 121.031 572.328 415.02
2450 0 61.1127 13.516 826 123.89 572.506 409.034
2451 0 64.1233 13.6456 875 122.864 572.007 410.579
2452 0 66.1053 13.9323 921 124.126 571.944 407.767
2453 0 68.0923 14.9503 1018 120.177 571.884 395.235
2454 0 68.1594 13.6592 931 126.382 571.956 394.075
2455 0 74.1014 13.8324 1025 123.881 572.253 394.023
2456 0 76.116 15.253 1161 121.749 572.016 392.964
2457 0 79.1454 15.301 1211 120.704 572.004 394.724
2458 0 80.1628 14.7325 1181 125.282 572.721 392.272
2459 0 83.1103 14.8477 1234 126.707 572.789 392.007
2460 0 85.1565 14.9255 1271 127.391 571.846 388.724
2461 0 88.1701 14.8236 1307 127.513 572.191 387.012
2462 0 91.1417 15.5253 1415 124.914 572.408 386.381
2463 0 92.1248 13.8942 1280 130.593 572.352 386.513
2464 0 96.1095 14.0777 1353 129.608 571.78 384.973
2465 0 99.3362 14.9492 1485 125.918 572.104 386.481
2466 0 103.158 14.0561 1450 129.08 571.869 382.901
2467 0 107.132 14.9535 1602 126.592 571.724 381.546
2468 0 110.249 13.8414 1526 129.846 571.726 380.364
2469 0 114.289 14.1134 1613 127.376 572.575 380.186
2470 0 120.329 13.031 1568 131.994 572.645 374.823
2471 1 67.2369 11.8982 800 121.394 573.044 406.346
2472 0 70.0618 13.3882 938 114.01 572.799 400.62
2473 0 71.1981 12.5284 892 116.948 572.056 399.093
2474 0 74.386 13.188 981 114.399 571.464 400.939
2475 0 75.203 12.0607 907 118.971 571.966 399.448
2476 0 78.1347 12.504 977 118.108 571.771 397.611
2477 0 82.2344 13.0602 1074 116.519 572.036 398.216
2478 0 85.2555 12.2104 1041 119.038 572.258 396.965
2479 0 88.1448 13.5005 1190 115.732 572.325 400.939
2480 0 91.1173 13.0381 1188 118.221 572.712 392.912
2481 0 93.3748 13.1513 1228 118.699 571.642 391.73
2482 0 98.1557 13.937 1368 117.946 571.884 390.806
2483 0 99.2436 12.7565 1266 122.87 572.425 388.237
2484 0 104.102 13.1025 1364 120.202 572.635 392.508
2485 0 107.238 13.9223 1493 118.95 572.001 393.431
2486 0 111.191 13.6162 1514 120.305 572.583 394.391
2487 0 115.315 12.5656 1449 122.865 572.113 389.638
2488 0 118.3 13.0009 1538 123.462 571.788 384.829
2489 1 61.1865 10.3127 631 122.658 571.94 414.807
2490 0 64.1914 12.5562 806 119.055 571.713 418.337
2491 0 65.0269 10.8417 705 111.074 572.61 414.16
2492 0 68.1773 11.0447 753 110.262 572.704 408.596
2493 0 69.0883 11.6952 808 110.224 572.105 412.624
2494 0 71.1441 10.795 768 112.176 572.335 409.345
2495 0 73.1522 11.1001 812 111.743 572.281 408.86
2496 0 78.0988 11.8952 929 109.596 572.279 407.916
2497 0 81.3075 11.9177 969 108.784 572.558 417.179
2498 0 83.2195 12.473 1038 107.709 572.878 420.428
2499 0 88.2819 11.2027 989 109.26 573.289 420.771
2500 0 90.1571 10.6814 963 111.764 572.879 416.496
2501 0 92.0534 11.0262 1015 111.022 572.521 414.521
2502 0 95.2081 12.5304 1193 107.588 573.18 416.174
2503 0 100.196 11.5673 1159 110.32 572.852 413.708
2504 1 55.1107 10.5606 582 104.034 573.031 433.82
2505 0 58.1115 11.7189 681 111.269 573.062 439.213
2506 0 57.056 10.4634 597 111.528 571.417 438.318
2507 0 62.0923 12.111 752 105.82 571.735 438.412
2508 0 66.1016 13.6457 902 100.003 571.483 433.879
2509 0 64.0656 11.9565 766 107.696 571.738 435.025
2510 0 68.1794 13.1858 899 99.8977 572.957 409.307
2511 0 69.1625 11.032 763 105.945 573.64 405.583
2512 0 71.1101 11.7845 838 104.456 573.018 407.72
2513 0 72.2131 11.5215 832 106.697 572.982 407.287
2514 0 75.1654 12.08 908 105.01 573.327 410.715
2515 0 77.2576 12.3095 951 105.321 573.185 411.207
2516 0 79.1707 12.5299 992 105.236 573.266 414.279
2517 0 81.0844 12.3452 1001 107.272 572.566 412.214
2518 0 84.1954 12.1741 1025 107.728 573.282 415.33
2519 0 89.227 13.5833 1212 104.55 573.242 413.101
2520 0 88.211 12.266 1082 109.909 573.323 419.47
2521 0 92.1829 13.1261 1210 107.939 572.684 420.101
2522 0 96.1356 13.8034 1327 106.798 573.98 419.215
2523 0 98.1564 13.2034 1296 109.694 572.879 416.96
2524 0 99.1219 13.1152 1300 111.318 573.885 416.31
2525 0 104.172 13.2762 1383 111.452 573.836 406.847
2526 0 107.124 13.6197 1459 111.036 574.032 406.681
2527 0 111.19 13.0227 1448 112.709 573.241 407.248
2528 0 116.305 13.2066 1536 115.238 572.643 398.159
2529 0 118.184 13.7413 1624 116.51 572.872 381.973
2530 0 121.233 13.8988 1685 117.588 572.712 379.207
2531 0 125.179 14.2676 1786 119.265 572.373 375.891
2532 0 130.234 13.3683 1741 122.32 572.731 379.121
2533 0 134.337 13.3099 1788 122.237 572.624 379.198
2534 0 140.252 13.9677 1959 120.522 573.386 376.68
2535 1 77.1788 12.4516 961 120.999 572.817 409.873
2536 0 79.1575 13.0499 1033 121.543 572.632 410.424
2537 0 84.1499 13.4403 1131 118.464 573.142 404.89
2538 0 83.1816 12.0099 999 123.665 572.204 405.719
2539 0 88.1595 14.9275 1316 116.646 572.9 388.054
2540 0 90.1855 14.5367 1311 117.799 572.688 386.132
2541 0 95.1489 15.6807 1492 113.778 573.273 388.131
2542 0 95.1826 11.9034 1133 123.746 573.261 389.306
2543 0 99.2162 15.1185 1500 115.674 573.455 387.989
2544 0 102.299 15.6795 1604 113.175 573.238 388.485
2545 0 103.317 13.599 1405 121.167 573.577 387.934
2546 0 105.332 13.747 1448 121.693 573.83 386.677
2547 0 107.221 14.5867 1564 121.158 573.395 385.357
2548 0 109.209 12.7462 1392 127.065 573.751 382.266
2549 0 113.178 13.439 1521 125.251 572.75 385.24
2550 0 115.345 13.9495 1609 122.382 572.513 389.252
2551 0 121.423 13.7371 1668 122.984 573.496 388.797
2552 0 125.238 13.622 1706 123.202 574.053 390.829
2553 0 129.211 13.118 1695 125.448 573.204 387.441
2554 1 70.3012 14.2956 1005 125.415 573.82 395.36
2555 0 74.1478 14.8757 1103 122.85 574.19 395.771
2556 0 73.253 13.1735 965 120.895 573.851 401.094
2557 0 74.1179 12.2373 907 124.806 573.519 400.303
2558 0 78.1614 13.2674 1037 121.179 574.03 405.522
2559 0 82.2251 13.3657 1099 121.043 574.453 406.921
2560 0 85.1771 13.1256 1118 122.162 573.864 401.334
2561 0 87.2664 14.2667 1245 120.318 574.713 404.224
2562 0 90.1249 13.6699 1232 121.375 573.845 398.747
2563 0 94.1485 14.3603 1352 120.624 574.064 386.979
2564 0 96.1183 13.3481 1283 123.82 573.204 387.115
2565 0 99.084 14.2001 1407 120.69 573.102 388.727
2566 0 104.143 14.4993 1510 119.33 573.954 388.554
2567 0 107.139 14.5138 1555 119.988 574.304 387.704
2568 0 109.212 14.2567 1557 121.855 573.288 380.27
2569 0 116.25 14.3312 1666 120.872 573.182 379.488
2570 1 65.1262 12.2992 801 116.632 573.19 393.33
2571 0 66.1397 12.7155 841 115.655 573.264 394.342
2572 0 68.1141 13.404 913 114.379 573.379 393.606
2573 0 70.0467 12.8343 899 117.154 573.329 393.61
2574 0 74.0253 12.928 957 115.761 573.65 395.673
2575 0 76.0506 12.8204 975 117.246 572.904 392.829
2576 0 77.1818 13.2285 1021 114.979 573.829 392.1
2577 0 80.0743 12.9754 1039 116.117 573.047 390.288
2578 0 83.2244 11.8595 987 118.158 573.035 391.472
2579 0 85.1384 12.1214 1032 117.867 572.536 394.671
2580 0 91.1063 12.3702 1127 116.374 573.09 397.724
2581 0 94.2091 12.9605 1221 114.962 573.713 404.845
2582 0 95.1173 12.8893 1226 114.742 573.418 413.437
2583 0 98.2286 13.1632 1293 115.561 573.792 412.203
2584 1 112.226 16.7698 1882 103.033 573.818 391.77
2585 0 113.246 17.8638 2023 102.302 573.856 392.526
2586 0 113.314 16.1587 1831 109.151 572.669 392.137
2587 0 116.127 14.6736 1704 114.917 573.352 398.185
2588 0 120.156 14.1067 1695 117.852 574.133 398.383
2589 0 122.279 12.4715 1525 124.318 573.424 396.574
2590 1 68.0634 13.2376 901 117.86 574.279 428.728
2591 0 72.1318 13.8496 999 115.135 574.349 425.699
2592 0 74.0824 11.5277 854 120.451 573.54 426.033
2593 0 80.165 14.8444 1190 111.539 572.658 424.566
2594 0 78.1115 12.9302 1010 118.929 572.236 426.164
2595 1 92.123 18.1062 1668 101.346 572.591 417.45
2596 0 89.1742 17.3032 1543 108.021 573.127 417.576
2597 0 94.1153 19.4336 1829 103.333 573.694 406.83
2598 0 91.1104 13.3025 1212 124.443 572.517 406.533
2599 0 94.0746 13.0216 1225 127.705 573.167 397.27
2600 0 99.0676 14.0813 1395 124.707 573.084 401.787
2601 0 101.127 14.4768 1464 124.422 573.204 402.72
2602 0 104.249 13.9569 1455 126.079 574.181 405.342
2603 0 108.178 14.3745 1555 124.736 574.569 409.042
2604 0 111.357 13.7935 1536 126.041 573.505 405.243
2605 0 115.199 13.7154 1580 125.434 573.842 405.77
2606 0 119.223 14.368 1713 124.139 574.168 400.549
2607 0 125.218 13.3846 1676 124.959 574.907 400.862
2608 0 129.175 14.5152 1875 122.766 573.904 395.034
2609 1 74.1326 11.8167 876 115.979 574.767 418.645
2610 0 71.1426 11.6808 831 119.939 574.608 417.911
2611 0 74.2382 11.0994 824 120.698 574.41 418.722
2612 0 81.1833 12.17 988 115.796 574.117 420.189
2613 0 81.1019 11.9603 970 117.743 573.955 416.452
2614 0 85.0709 12.0135 1022 116.669 573.774 415.486
2615 0 86.2215 12.9086 1113 115.54 574.958 415.668
2616 0 88.1468 11.2766 994 120.594 574.522 413.042
2617 0 88.0783 11.7395 1034 120.081 573.931 413.651
2618 0 92.1452 12.3609 1139 113.277 574.718 412.689
2619 0 95.1482 11.9288 1135 115.155 574.767 414.144
2620 0 98.1711 12.4375 1221 114.384 574.156 411.935
2621 0 102.178 12.7719 1305 113.93 573.87 410.685
2622 0 102.161 11.4916 1174 119.458 573.518 407.887
2623 0 106.165 11.8683 1260 117.942 573.772 408.235
2624 0 112.16 13.4985 1514 112.382 573.852 405.466
2625 0 113.21 11.9071 1348 116.943 573.814 403.68
2626 0 118.201 12.8256 1516 114.367 572.953 401.441
2627 1 67.1369 9.23487 620 108.839 573.181 428.9
2628 0 68.1942 10.3235 704 106.957 573.578 426.412
2629 0 73.1788 11.0551 809 98.8158 572.624 423.698
2630 0 77.2029 11.4374 883 96.6636 572.417 424.712
2631 0 79.3625 11.857 941 96.525 572.757 422.561
2632 0 81.1878 10.7282 871 99.225 572.412 421.339
2633 0 82.1867 10.4396 858 101.5 572.508 420.777
2634 0 84.2145 11.3638 957 100.373 572.411 419.298
2635 0 85.1212 11.419 972 101.987 572.117 414.77
2636 0 92.244 12.326 1137 100.188 572.763 417.142
2637 0 91.2103 12.1258 1106 103.273 572.957 414.69
2638 0 96.2251 12.7825 1230 103.295 572.566 415.151
2639 0 100.231 12.7306 1276 104.363 571.973 413.29
2640 0 99.208 12.3377 1224 117.631 572.163 410.335
2641 0 106.18 12.0268 1277 117.187 572.253 409.661
2642 0 110.214 12.0221 1325 116.783 572.258 411.728
2643 1 63.0978 9.69923 612 112.327 571.698 432.979
2644 0 65.0468 12.0529 784 108.652 571.787 432.406
2645 0 67.2399 9.8751 664 114.021 572.131 431.092
2646 0 70.097 11.4128 800 111.189 572.626 429.451
2647 0 71.0739 11.2981 803 112.265 572.776 428.608
2648 0 75.1229 12.6193 948 109.783 572.815 421.68
2649 0 75.1253 11.381 855 114.766 572.498 413.387
2650 0 78.0943 13.0483 1019 111.429 573.132 411.752
2651 0 80.1275 11.5441 925 115.643 572.43 411.762
2652 0 82.1653 11.5256 947 117.422 571.61 411.459
2653 0 86.1725 11.9412 1029 117.153 571.926 410.074
2654 0 86.0913 12.7423 1097 118.551 571.855 409.006
2655 0 88.1119 13.4261 1183 118.592 571.877 404.158
2656 0 92.175 11.5324 1063 123.11 572.14 401.398
2657 0 96.1998 13.4824 1297 119.365 571.977 399.459
2658 0 97.1809 13.3257 1295 121.402 571.657 392.084
2659 0 100.128 12.8336 1285 123.926 571.651 398.988
2660 0 102.142 13.07 1335 122.745 571.743 405.843
2661 0 104.14 14.2981 1489 119.186 572.333 409.097
2662 0 108.22 12.5854 1362 123.854 572.153 409.209
2663 0 111.118 13.1572 1462 124.733 571.843 408.157
2664 0 115.196 12.6654 1459 125.474 572.422 402.18
2665 0 122.2 13.7398 1679 124.747 571.145 368.367
2666 0 125.218 14.0954 1765 121.12 570.929 360.969
2667 1 69.123 10.2571 709 117.158 570.817 392.402
2668 0 70.086 11.1434 781 116.394 570.073 395.202
2669 0 77.2868 11.6449 900 106.623 571.4 406.779
2670 0 79.0726 11.7234 927 107.005 571.88 407.224
2671 0 78.1436 10.9286 854 109.568 571.996 412.911
2672 0 84.0839 10.5966 891 108.129 572.015 414.508
2673 0 88.1743 12.4639 1099 105.477 571.417 413.08
2674 0 91.1712 12.833 1170 105.197 571.614 416.008
2675 0 94.2201 13.8824 1308 102.903 571.794 418.455
2676 0 94.1771 11.2448 1059 110.11 571.84 415.431
2677 0 98.248 11.9799 1177 109.164 571.776 415.551
2678 0 102.234 12.1094 1238 109.872 571.591 405.16
2679 0 105.215 12.5268 1318 109.936 571.668 397.985
2680 0 108.235 11.8538 1283 111.065 571.766 396.987
2681 0 110.085 11.1187 1224 111.868 571.292 395.65
2682 1 63.0716 10.4484 659 103.765 572.179 422.904
2683 0 64.0407 10.1498 650 103.869 571.422 430.709
2684 0 68.0577 13.5767 924 107.275 569.649 436.29
2685 0 71.0534 12.371 879 109.603 569.887 435.894
2686 0 73.0521 11.8546 866 112.154 570.09 435.145
2687 0 74.1545 11.5165 854 113.246 569.559 434.05
2688 0 76.1344 11.8737 904 112.827 569.91 431.278
2689 0 80.1075 11.6968 937 112.529 570.182 424.796
2690 0 80.1025 11.323 907 115.282 570.619 422.365
2691 0 82.1324 11.0066 904 116.656 569.785 423.206
2692 0 86.1485 11.0275 950 117.411 570.232 424.741
2693 0 91.1888 11.8326 1079 115.233 570.65 424.547
2694 0 90.0849 11.7001 1054 116.529 570.122 424.151
2695 0 93.214 11.9832 1117 117.021 569.705 420.102
2696 0 98.1205 11.5776 1136 116.093 570.434 421.393
2697 0 101.133 12.1919 1233 114.958 570.178 411.286
2698 0 103.2 13.1589 1358 114.552 570.159 408.579
2699 0 106.263 12.9773 1379 104.866 570.338 408.049
2700 0 109.238 12.4408 1359 116.188 570.029 408.751
2701 0 113.14 14.0092 1585 113.224 570.398 406.293
2702 0 117.104 13.091 1533 115.596 570.05 404.183
2703 1 141.186 15.3343 2165 102.516 570.333 399.255
2704 0 141.309 21.0531 2975 90.2171 570.772 391.809
2705 0 145.15 16.5897 2408 98.2957 570.755 392.421
2706 0 149.415 20.1185 3006 90.0908 570.951 382.485
2707 1 136.211 13.068 1780 116.471 570.869 367.932
2708 0 137.369 12.39 1702 119.068 570.788 361.284
2709 0 142.44 12.4684 1776 119.707 570.817 354.413
2710 0 149.354 13.0629 1951 117.786 570.723 351.319
2711 1 83.2449 11.5202 959 115.218 571.586 382.661
2712 0 90.2546 11.667 1053 114.008 570.934 381.012
2713 0 91.1405 12.5082 1140 113.455 571.327 377.764
2714 0 95.1283 13.7499 1308 111.729 572.981 376.633
2715 0 98.1207 13.6668 1341 112.357 572.346 376.567
2716 0 99.1075 12.5117 1240 113.882 572.04 380.319
2717 0 104.193 12.1409 1265 114.702 572.808 378.01
2718 0 104.054 11.6862 1216 118.283 573.321 374.021
2719 0 109.191 12.327 1346 116.548 571.783 373.395
2720 0 114.206 12.6701 1447 115.921 572.149 363.345
2721 0 117.411 13.5422 1590 114.472 572.41 360.713
2722 0 120.227 13.3747 1608 115.199 571.53 362.534
2723 0 124.205 13.1315 1631 116.97 572.006 356.56
2724 0 127.264 13.5545 1725 117.009 572.348 354.585
2725 1 71.1809 11.5059 819 111.95 572.919 387.424
2726 0 74.1249 11.683 866 110.913 573.307 386.012
2727 0 75.0818 11.9337 896 103.915 572.958 391.914
2728 0 80.2088 11.3454 910 105.281 572.443 394.901
2729 0 80.2136 12.1924 978 104.914 572.507 395.464
2730 0 83.1022 12.1056 1006 105.858 572.86 402.014
2731 0 85.1235 12.0296 1024 107.057 572.652 403.413
2732 0 86.1386 11.6672 1005 110.664 572.233 398.874
2733 0 89.0794 11.4505 1020 112.169 572.32 399.424
2734 0 92.2298 12.2845 1133 111.678 572.581 395.691
2735 0 97.1897 12.2132 1187 110.974 571.512 396.015
2736 0 96.1951 12.2148 1175 113.109 571.847 394.174
2737 0 100.146 12.8013 1282 112.428 571.932 395.96
2738 0 101.142 11.9832 1212 117.772 572.352 391.783
2739 0 106.06 12.2949 1304 116.568 572.295 394.438
2740 0 108.28 12.0983 1310 117.315 572.248 393.351
2741 0 112.315 13.4978 1516 115.787 572.303 383.164
2742 0 115.297 11.839 1365 121.476 572.239 376.499
2743 1 64.182 10.4547 671 111.581 572.161 403.927
2744 0 64.1039 11.2474 721 112.574 572.14 404.115
2745 0 69.2251 13.9545 966 116.021 573.04 407.883
2746 0 72.3284 13.3558 966 115.286 573.342 408.367
2747 0 71.4385 12.6822 906 118.111 572.316 405.927
2748 0 73.3879 13.3128 977 117.877 572.951 404.764
2749 0 77.3114 13.8013 1067 116.679 573.115 403.647
2750 0 79.4285 13.572 1078 116.594 572.964 403.576
2751 0 83.3185 14.8106 1234 112.493 572.596 405.473
2752 0 85.608 14.8468 1271 112.737 573.282 405.569
2753 0 87.5974 14.4297 1264 115.315 573.525 405.099
2754 0 89.3266 13.7585 1229 116.007 572.647 404.382
2755 0 92.304 14.1597 1307 115.269 572.301 403.945
2756 0 96.1761 14.0575 1352 115.16 572.413 403.011
2757 0 97.207 13.9188 1353 116.296 572.353 401.803
2758 0 102.119 14.8944 1521 111.59 572.679 398.135
2759 0 105.082 15.3213 1610 111.642 572.655 399.873
2760 0 108.283 14.8408 1607 113.889 572.674 401.2
2761 0 111.258 13.4912 1501 117.188 572.546 402.184
2762 0 115.244 14.6386 1687 114.61 573.129 397.764
2763 0 119.372 14.124 1686 116.714 572.845 395.119
2764 0 125.277 14.9029 1867 113.79 572.678 393.458
2765 1 69.1991 11.084 767 118.832 572.495 420.816
2766 0 73.4916 13.226 972 114.867 572.718 416.494
2767 0 74.591 14.0634 1049 115.703 572.534 412.612
2768 0 77.4879 14.441 1119 115.088 573.118 414.027
2769 0 79.4812 14.9218 1186 115.274 573.586 416.033
2770 0 80.4775 13.5814 1093 118.833 572.651 419.984
2771 0 83.3083 14.2123 1184 116.454 573.274 419.092
2772 0 87.4307 13.1418 1149 118.399 573.442 421.12
2773 0 89.4461 15.2159 1361 113.215 572.846 420.278
2774 0 93.1669 14.3077 1333 115.359 571.936 417.135
2775 0 95.6164 13.9202 1331 116.468 572.156 414.954
2776 0 98.3471 15.2928 1504 113.374 572.782 411.005
2777 0 101.306 14.2834 1447 115.605 572.406 412.974
2778 0 104.63 14.1068 1476 115.327 572.799 411.847
2779 0 109.44 15.2412 1668 110.61 572.142 410.281
2780 0 112.399 13.3275 1498 115.601 572.803 408.003
2781 0 114.489 14.5167 1662 112.875 572.566 407.522
2782 0 117.447 13.1464 1544 116.056 572.253 401.372
2783 0 122.332 13.2426 1620 114.134 572.598 403.256
2784 0 127.481 14.3943 1835 111.026 572.482 399.019
2785 1 72.2984 10.6365 769 103.715 572.71 427.843
2786 0 74.1838 11.0806 822 105.404 572.27 427.736
2787 0 76.2794 11.0908 846 103.974 572.52 409.331
2788 0 77.1427 10.3185 796 108.008 572.648 405.573
2789 0 81.1465 11.3622 922 104.538 572.666 406.645
2790 0 84.2435 12.0009 1011 105.301 573.119 392.286
2791 0 86.1812 12.0328 1037 106.425 572.936 391.356
2792 0 89.2745 12.0079 1072 106.74 573.069 384.137
2793 0 90.1966 11.6856 1054 108.42 572.145 385.38
2794 0 94.2731 12.6653 1194 105.464 572.33 385.204
2795 0 97.172 12.5962 1224 106.75 572.945 386.137
2796 0 102.143 13.3244 1361 104.877 572.242 388.388
2797 0 102.186 12.9959 1328 107.533 572.069 386.811
2798 0 105.143 13.4199 1411 107.217 572.595 393.626
2799 0 111.146 13.8466 1539 104.183 572.333 398.127
2800 0 114.108 14.2146 1622 102.947 572.499 398.039
2801 0 116.18 13.2983 1545 104.253 572.784 394.753
2802 0 120.21 13.1353 1579 104.022 572.775 395.815
2803 0 125.122 15.2971 1914 100.843 572.679 377.854
2804 0 128.294 13.6405 1750 106.739 572.78 375.647
2805 1 70.1342 9.2822 651 106.447 572.171 402.206
2806 0 71.0618 10.512 747 111.578 573.198 399.503
2807 0 74.1262 10.8464 804 111.155 572.869 400.476
2808 0 77.272 11.0907 857 101.733 572.814 404.7
2809 0 78.2874 12.4541 975 99.9446 572.929 407.789
2810 0 82.1745 12.7899 1051 98.6698 573.144 411.411
2811 0 82.1107 11.6185 954 102.329 572.565 413.086
2812 0 87.2411 12.666 1105 99.1593 573.412 413.462
2813 0 89.2835 12.2419 1093 101.513 572.963 404.774
2814 0 94.1576 13.18 1241 99.5173 572.212 403.98
2815 0 91.13 11.5001 1048 105.66 571.737 400.008
2816 0 98.2061 13.6142 1337 100.406 572.359 400.41
2817 0 100.19 12.4364 1246 103.409 573.263 404.709
2818 0 104.132 13.0604 1360 102.075 572.344 406.835
2819 0 105.166 13.0651 1374 102.852 572.351 407.782
2820 0 110.154 13.5628 1494 102.143 572.812 406.546
2821 0 112.12 13.539 1518 103.522 572.381 406.835
2822 0 117.182 13.4576 1577 103.454 572.404 400.205
2823 0 121.219 12.6218 1530 105.259 572.295 404.588
2824 0 125.228 12.2337 1532 106.422 571.39 396.834
2825 0 130.158 13.9599 1817 105.217 571.408 399.425
2826 1 74.1182 10.0515 745 99.9315 571.244 420.247
2827 0 78.1602 10.9135 853 97.4209 570.964 417.924
2828 0 79.079 10.6223 840 98.0702 570.887 422.454
2829 0 81.1349 9.97105 809 100.257 571.352 421.682
2830 0 84.211 11.3049 952 97.3046 571.173 421.175
2831 0 88.2912 11.3148 999 97.4545 571.039 421.689
2832 0 89.1592 11.2047 999 98.5135 571.22 414.789
2833 0 91.1362 10.9726 1000 99.618 570.822 422.348
2834 0 95.1972 11.4499 1090 98.2018 570.949 421.651
2835 0 96.2126 10.2377 985 99.6305 572.349 421.366
2836 0 102.391 12.6183 1292 95.6478 571.461 420.061
2837 0 103.355 10.9816 1135 100.056 571.611 420.244
2838 0 106.256 12.1499 1291 98.8002 571.131 418.672
2839 0 108.174 11.2134 1213 103.864 570.048 411.519
2840 0 113.253 11.1167 1259 103.906 570.316 412.492
2841 0 114.361 10.4318 1193 106.162 570.826 409.154
2842 0 121.25 11.134 1350 104.263 570.832 411.156
2843 0 124.349 12.6418 1572 103.219 570.83 404.528
2844 0 128.193 11.8337 1517 104.97 571.212 402.842
2845 0 131.376 11.3796 1495 107.325 570.111 384.533
2846 1 74.244 9.96714 740 98.2068 570.8 425.707
2847 0 76.3538 11.3681 868 96.9758 571.796 429.073
2848 0 82.1905 11.9965 986 92.5467 571.186 429.766
2849 0 83.2623 10.617 884 96.0034 570.954 429.407
2850 0 85.2252 11.8392 1009 94.8375 571.538 426.216
2851 0 87.1454 11.521 1004 96.757 571.551 423.957
2852 0 90.1989 10.244 924 99.066 571.326 424.449
2853 0 95.2922 12.8132 1221 94.8903 571.445 423.061
2854 0 96.1698 11.2509 1082 99.207 571.378 421.187
2855 0 100.302 12.8412 1288 97.8082 571.46 419.791
2856 0 102.272 12.0659 1234 100.176 571.547 418.629
2857 0 105.173 11.6475 1225 104.386 571.554 414.425
2858 0 108.367 11.5441 1251 104.083 570.932 416.046
2859 0 112.291 11.4791 1289 106.189 570.317 409.966
2860 0 117.327 11.1313 1306 106.057 570.276 410.825
2861 1 62.2271 8.64575 538 102.045 570.296 441.184
2862 0 68.2096 10.0426 685 99.7212 570.959 438.923
2863 0 70.2106 11.6507 818 102.4 571.274 435.77
2864 0 71.2858 12.1343 865 106.002 570.985 427.995
2865 0 75.2021 11.9677 900 105.906 571.034 427.982
2866 0 77.3181 12.8172 991 101.392 570.968 430.531
2867 0 78.269 12.7254 996 100.713 570.666 429.115
2868 0 82.2588 11.9866 986 103.293 571.279 428.341
2869 0 82.1589 11.8064 970 104.904 571.405 426.926
2870 0 86.293 14.3117 1235 99.3903 571.132 423.751
2871 0 89.3878 14.0176 1253 99.9026 571.762 420.377
2872 0 92.3294 13.2785 1226 102.065 571.127 418.79
2873 0 96.3201 13.2994 1281 102.465 571.058 410.4
2874 0 99.3116 14.53 1443 101.128 570.344 399.475
2875 0 100.215 13.5209 1355 102.975 571.615 398.643
2876 0 103.266 14.2447 1471 103.619 571.343 391.464
2877 0 107.217 12.7779 1370 106.499 571.491 393.314
2878 0 108.194 13.0876 1416 107.681 571.141 387.811
2879 0 111.175 12.6017 1401 109.464 570.916 384.659
2880 0 114.136 13.1422 1500 108.715 571.006 391.3
2881 0 117.184 12.7151 1490 108.84 570.863 383.551
2882 1 65.2043 10.3674 676 107.038 570.982 407.811
2883 0 67.1405 11.9153 800 104.435 570.969 390.876
2884 0 69.1336 11.3259 783 104.982 571.195 388.015
2885 0 70.1995 11.8092 829 102.802 570.742 390.095
2886 0 75.1702 11.4008 857 101.917 571.191 390.65
2887 0 75.1538 11.6561 876 102.579 570.675 387.342
2888 0 78.2672 11.3585 889 101.223 570.89 398.476
2889 0 78.1941 10.1798 796 104.293 571.521 400.932
2890 0 81.186 10.4452 848 104.632 571.15 400.377
2891 0 84.1722 10.8468 913 103.28 570.644 399.056
2892 0 87.1676 11.736 1023 101.19 571.3 401.179
2893 0 92.2312 12.6421 1166 99.4057 571.462 393.638
2894 0 94.3198 12.447 1174 100.687 572.157 387.12
2895 0 97.328 11.6205 1131 102.629 571.672 388.265
2896 0 100.282 12.7142 1275 101.478 570.97 381.547
2897 0 100.266 11.4895 1152 99.1432 571.288 390.382
2898 0 104.169 13.6029 1417 94.5716 571.369 401.016
2899 0 106.192 13.1272 1394 98.0158 570.778 399.163
2900 0 110.263 13.105 1445 98.3578 570.847 396.467
2901 0 114.191 14.4494 1650 96.0679 570.998 398.444
2902 0 117.255 14.5239 1703 95.1756 570.283 391.462
2903 0 121.275 13.2839 1611 97.8156 570.847 391.367
2904 0 125.243 14.5876 1827 95.5583 571.108 396.07
2905 1 71.2396 10.191 726 95.0689 570.591 429.82
2906 0 72.1954 11.2888 815 94.892 570.674 415.821
2907 0 74.1738 10.2867 763 96.0393 570.851 403.979
2908 0 79.1156 10.9207 864 95.1481 570.977 398.256
2909 0 81.1049 11.9845 972 94.9115 571.051 394.159
2910 0 83.202 10.9733 913 97.9759 571.138 391.966
2911 0 85.0889 11.7289 998 97.009 571.469 395.375
2912 0 88.0621 12.2527 1079 97.1872 571.823 386.865
2913 0 91.1074 13.4018 1221 95.5758 572.043 382.092
2914 0 94.1325 12.408 1168 98.4837 571.839 379.418
2915 0 95.1665 11.7268 1116 101.144 571.304 377.504
2916 0 97.1672 11.1972 1088 103.263 571.716 380.536
2917 0 101.101 11.6617 1179 102.542 571.827 375.477
2918 0 106.279 11.8556 1260 102.215 572.136 375.39
2919 0 108.409 11.1153 1205 104.821 572.189 376.988
2920 0 113.251 11.7968 1336 104.121 571.769 374.324
2921 0 117.165 13.0756 1532 101.873 570.992 371.661
2922 1 68.1071 10.8065 736 93.697 571.495 401.539
2923 0 68.0824 9.66476 658 98.9407 570.985 404.462
2924 0 70.1056 11.6681 818 91.4034 571.742 411.176
2925 0 72.0884 11.2778 813 92.3838 571.616 412.717
2926 0 74.1336 11.7625 872 92.7213 571.951 411.537
2927 0 76.1179 11.9946 913 92.6988 571.601 410.505
2928 0 80.0771 10.877 871 94.9024 572.258 414.524
2929 0 82.1349 10.6532 875 96.7177 571.837 412.877
2930 0 86.1076 11.8108 1017 94.0796 572.125 413.088
2931 0 89.1948 11.9065 1062 95.3315 572.341 415.04
2932 0 90.1298 11.6831 1053 96.7227 571.87 415.059
2933 0 93.1943 11.299 1053 98.3808 571.788 411.782
2934 0 96.0417 11.6512 1119 97.9437 572.289 413.672
2935 0 99.1532 10.7309 1064 100.055 571.531 413.143
2936 0 105.053 11.9083 1251 97.9792 571.914 412.847
2937 0 104.176 10.9143 1137 100.989 572.41 410.905
2938 0 107.296 10.5316 1130 102.328 571.764 407.759
2939 1 61.1526 10.482 641 92.3058 571.605 430.321
2940 0 64.2315 11.2717 724 91.5262 571.754 430.273
2941 0 65.0494 10.0385 653 101.404 572.743 425.911
2942 0 66.0809 9.95749 658 104.249 571.927 408.874
2943 0 71.049 11.5273 819 100.851 572.166 395.667
2944 0 73.1771 12.1896 892 99.4955 571.972 395.746
2945 0 76.2403 11.4244 871 102.323 571.968 393.234
2946 0 76.1223 11.9282 908 102.116 572.023 388.504
2947 0 79.046 11.5249 911 104.225 571.791 385.512
2948 0 82.2643 11.0376 908 105.446 570.73 388.268
2949 0 86.1797 11.9402 1029 104.48 570.394 386.507
2950 0 88.148 11.2198 989 107.75 570.302 383.453
2951 0 93.0408 13.177 1226 103.607 569.957 375.573
2952 0 95.1271 12.415 1181 106.17 569.82 370.108
2953 0 96.094 12.1444 1167 107.704 569.639 371.691
2954 0 99.223 11.4087 1132 111.665 569.848 373.126
2955 0 103.095 13.2597 1367 107.505 569.932 375.28
2956 0 105.162 13.2367 1392 109.639 570.11 376.345
2957 0 110.155 13.2086 1455 109.133 570.007 377.95
2958 0 113.184 12.1396 1374 112.999 570.308 378.374
2959 0 116.357 12.8483 1495 112.676 569.978 381.589
2960 0 119.294 12.8506 1533 113.693 570.834 374.352
2961 0 123.159 12.1712 1499 110.815 570.967 380.02
2962 1 70.0398 11.008 771 103.396 570.454 413.992
2963 0 72.0652 10.7125 772 104.447 570.214 419.218
2964 0 74.1476 11.0186 817 103.532 570.005 423.449
2965 0 74.1723 9.41053 698 103.311 571.148 417.436
2966 0 79.1615 12.2408 969 97.3591 570.818 415.803
2967 0 82.1191 11.325 930 99.3441 571.186 416.951
2968 0 86.1699 11.7675 1014 98.9004 571.036 414.907
2969 0 88.2434 11.4343 1009 100.715 570.843 415.603
2970 0 90.2377 10.4723 945 103.215 571.229 413.817
2971 0 93.1653 10.7336 1000 101.782 571.581 414.666
2972 0 97.1677 11.0634 1075 101.841 571.012 407.956
2973 0 99.1611 11.1334 1104 102.653 571.101 404.378
2974 0 101.44 11.8396 1201 102.644 571.236 402.48
2975 0 103.225 10.2301 1056 106.884 570.487 402.215
2976 0 106.322 11.4181 1214 106.171 571.016 394.971
2977 0 109.222 10.8678 1187 107.288 571.401 400.051
2978 0 111.211 12.5078 1391 104.17 571.498 402.818
2979 0 115.208 11.4575 1320 106.524 571.48 400.324
2980 0 118.376 11.5648 1369 105.939 572.125 405.403
2981 0 123.487 12.0579 1489 106.943 571.724 404.85
2982 1 69.1705 11.1175 769 105.627 571.756 433.196
2983 0 73.1762 11.5065 842 110.083 572.378 434.287
2984 0 75.2926 12.8698 969 109.428 572.782 431.676
2985 0 76.239 12.6838 967 114.071 571.453 428.1
2986 0 81.2999 13.3703 1087 111.522 571.211 427.342
2987 0 83.3621 13.6633 1139 111.804 570.632 428.325
2988 0 85.6486 13.3686 1145 112.144 570.343 429.39
2989 0 86.3921 12.8253 1108 113.913 570.193 426.543
2990 0 90.301 14.6731 1325 110.055 570.125 424.055
2991 0 94.3007 13.4888 1272 112.326 571.413 420.247
2992 0 96.3829 14.0793 1357 110.354 570.548 413.088
2993 0 99.391 13.3513 1327 112.789 570.497 420.491
2994 0 100.405 12.7384 1279 114.672 570.709 421.293
2995 0 105.271 13.2705 1397 113.972 570.199 404.472
2996 0 109.223 13.4496 1469 113.241 570.413 403.368
2997 0 110.414 13.2501 1463 108.509 570.776 411.699
2998 0 111.294 11.8875 1323 112.142 570.389 412.906
2999 0 116.206 13.1921 1533 108.807 570.396 411.964
3000 0 118.285 12.7657 1510 112.105 570.175 403.066
3001 0 124.319 13.3287 1657 109.753 570.623 399.226
3002 0 125.323 12.6314 1583 114.37 571.031 374.159
3003 0 128.174 13.7391 1761 114.199 571.327 370.364
3004 0 132.284 14.5898 1930 112.582 571.129 370.511
3005 0 136.337 13.8334 1886 114.729 570.994 369.804
3006 0 140.317 13.8115 1938 114.424 570.427 369.389
3007 0 147.35 15.3172 2257 109.604 570.899 369.988
3008 1 81.3723 12.8053 1042 107.369 570.226 404.526
3009 0 81.2752 12.8329 1043 110.061 570.032 402.132
3010 0 86.3793 14.1932 1226 105.492 569.909 406.454
3011 0 87.4277 12.8906 1127 108.542 570.208 406.217
3012 0 90.2928 12.7917 1155 109.445 570.674 397.623
3013 0 91.3734 12.531 1145 111.505 570.797 396.337
3014 0 96.2384 13.0094 1252 110.534 570.716 397.717
3015 0 97.2396 12.3612 1202 114.226 570.547 395.543
3016 0 101.364 12.8843 1306 112.04 570.708 400.362
3017 0 106.329 13.383 1423 112.2 570.849 396.439
3018 0 108.31 13.4983 1462 112.679 570.941 395.484
3019 0 114.418 14.1149 1615 111.817 571.327 391.65
3020 0 112.165 13.2127 1482 116.46 570.939 390.588
3021 0 120.556 14.8562 1791 113.136 570.731 378.041
3022 0 121.338 13.8622 1682 116.496 571.181 376.753
3023 0 125.464 13.5338 1698 117.813 570.677 376.74
3024 0 127.331 13.618 1734 118.334 570.464 381.345
3025 0 133.635 13.5893 1816 118.413 570.863 382.232
3026 0 137.53 13.8807 1909 117.841 571.104 382.005
3027 0 142.351 14.2956 2035 117.282 570.761 382.896
3028 0 144.462 13.9691 2018 119.831 570.779 377.283
3029 0 150.447 13.6792 2058 121.653 571.302 378.388
3030 0 157.469 14.441 2274 119.642 571.067 377.582
3031 0 163.309 14.0654 2297 120.059 570.158 373.581
3032 0 167.538 14.3788 2409 120.496 570.721 369.998
3033 0 172.44 14.5557 2510 120.057 571.058 370.209
3034 0 180.354 15.4696 2790 116.741 571.274 368.801
3035 0 185.357 14.7715 2738 119.283 571.622 363.8
3036 0 190.481 14.9411 2846 118.747 570.072 361.935
3037 0 194.542 14.1563 2754 122.618 570.509 358.095
3038 0 200.495 14.2896 2865 121.976 570.939 358.457
3039 0 207.609 13.1786 2736 122.857 570.919 361.861
3040 0 216.6 14.0304 3039 118.459 570.981 360.987
3041 1 164.681 10.906 1796 120.721 571.705 387.493
3042 0 172.326 13.3874 2307 117.43 571.214 385.628
3043 0 179.501 11.7882 2116 121.352 571.812 381.569
3044 0 184.44 12.2208 2254 120.683 571.85 375.635
3045 0 193.415 12.8532 2486 119.247 571.582 370.679
3046 0 201.821 13.2494 2674 113.51 571.402 367.568
3047 0 201.756 13.3131 2686 147.056 571.398 367.899
3048 0 207.372 13.1599 2729 121.76 571.767 363.03
3049 0 211.306 13.3692 2825 109.192 571.339 362.462
3050 0 211.446 12.6746 2680 118.586 571.898 351.446
3051 0 216.423 13.6815 2961 122.29 571.445 352.828
3052 0 223.508 14.1382 3160 120.425 570.923 354.916
3053 1 168.521 11.6781 1968 118.194 571.307 387.59
3054 0 172.535 11.5339 1990 119.963 571.421 384.062
3055 1 58.2553 10.8316 631 101.326 572.632 442.357
3056 0 60.2508 10.2737 619 103.289 573.008 438.283
3057 0 62.2464 10.6191 661 100.463 572.926 438.098
3058 0 64.3461 11.8577 763 98.5819 572.822 435.952
3059 0 69.2936 11.8481 821 95.782 572.06 434.683
3060 0 69.3406 10.9171 757 97.2708 572.193 435.506
3061 0 72.2985 10.7886 780 98.3833 572.336 433.771
3062 0 73.3542 11.1514 818 98.0721 572.243 433.576
3063 0 76.2964 10.4199 795 100.258 572.387 432.686
3064 0 78.3845 11.4691 899 98.9577 572.667 430.263
3065 0 82.3795 10.9493 902 100.184 572.326 431.861
3066 0 84.3475 11.6542 983 101.869 572.224 426.215
3067 0 87.3278 11.8633 1036 102.088 572.457 426.706
3068 0 89.3817 11.9823 1071 103.519 572.349 411.5
3069 1 49.4631 9.7042 480 104.846 572.371 439.929
3070 0 50.3382 9.55537 481 104.52 571.249 442.447
3071 0 52.2512 11.0811 579 100.77 571.057 432.938
3072 0 51.2084 10.1155 518 106.747 571.12 434.176
3073 0 53.265 11.2457 599 106.11 570.758 436.01
3074 0 56.2125 12.1325 682 104.051 570.114 437.163
3075 0 58.2184 11.3023 658 106.631 570.664 438.813
3076 0 58.1859 11.7554 684 106.876 570.718 440.75
3077 0 59.2151 11.3147 670 110.334 570.436 438.382
3078 0 65.2516 14.2832 932 101.128 570.274 437.853
3079 0 75.3579 18.8302 1419 84.3813 570.848 428.555
3080 0 78.3063 14.8136 1160 95.4112 570.712 432.028
3081 0 80.2178 13.4509 1079 100.561 570.676 430.983
3082 0 84.1254 15.3699 1293 95.5128 570.615 428.937
3083 0 84.3351 18.2368 1538 90.0163 570.865 424.752
3084 0 80.3442 14.3134 1150 105.487 570.917 428.946
3085 0 79.2704 14.9362 1184 107.329 571.496 429.634
3086 0 78.4281 14.8544 1165 111.212 571.494 429.579
3087 0 77.2768 15.8392 1224 111.583 571.668 426.837
3088 0 80.3348 15.3981 1237 113.787 571.213 427.684
3089 0 79.4135 13.7508 1092 122.143 571.185 428.054
3090 0 84.6191 16.3793 1386 113.103 571.38 425.144
3091 0 83.4772 13.345 1114 125.923 571.116 424.454
3092 0 85.243 13.5847 1158 129.256 569.936 421.255
3093 0 88.5255 13.5328 1198 130.699 570.972 425.098
3094 0 87.6861 15.1335 1327 126.414 570.628 422.094
3095 0 88.437 13.6934 1211 131.969 570.549 424.2
3096 1 139.555 12.0669 1684 118.144 571.445 415.744
3097 0 139.507 14.2287 1985 111.93 571.762 413.332
3098 0 139.748 16.222 2267 105.471 571.266 406.37
3099 0 139.768 18.3303 2562 101.21 571.489 402.958
3100 0 137.495 17.2152 2367 106.964 571.591 404.25
3101 0 132.591 18.5005 2453 107.318 571.465 402.829
3102 0 135.869 20.4388 2777 102.377 570.962 398.514
3103 0 132.494 20.0312 2654 106.996 571.095 399.885
3104 0 131.564 22.5137 2962 102.88 571.493 397.775
3105 0 132.606 19.162 2541 114.059 571.621 399.728
3106 0 132.572 18.5106 2454 118.833 571.798 400.974
3107 0 137.736 18.2596 2515 120.709 572.066 395.284
3108 1 75.3707 11.994 904 131.77 572.408 429.885
3109 0 77.104 12.3859 955 128.844 571.861 422.378
3110 0 78.2079 12.5435 981 131.732 571.74 421.571
3111 0 81.0996 12.5525 1018 131.008 571.714 404.147
3112 0 84.0839 13.772 1158 125.591 572.004 404.658
3113 0 87.0858 12.6657 1103 127.504 570.94 405.424
3114 0 90.3173 12.445 1124 127.271 572.351 408.794
3115 0 96.2607 14.3776 1384 121.493 571.851 406.055
3116 0 97.2881 13.3315 1297 125.614 571.082 403.742
3117 0 100.214 14.1198 1415 124.891 570.936 410.837
3118 0 102.476 13.0762 1340 128.326 571.54 408.001
3119 0 104.405 13.438 1403 127.277 570.602 404.403
3120 0 107.248 14.294 1533 125.428 571.072 404.387
3121 0 109.317 14.1515 1547 125.414 571.795 404.48
3122 0 111.379 13.6741 1523 126.846 571.717 402.388
3123 0 119.313 13.7202 1637 124.701 571.429 399.382
3124 0 120.494 13.594 1638 126.349 571.522 398.174
3125 0 126.296 13.112 1656 126.089 571.688 395.78
3126 0 130.329 13.0209 1697 126.309 572.36 390.668
3127 1 72.1411 10.424 752 127.54 571.899 416.895
3128 0 78.2542 11.2454 880 121.969 571.642 419.574
3129 0 79.1175 11.1227 880 123.385 571.523 417.345
3130 0 83.2255 10.9702 913 114.594 572.956 414.012
3131 0 86.2652 11.8356 1021 112.025 572.468 411.421
3132 0 89.2149 11.3434 1012 113.855 572.875 411.249
3133 0 90.3062 12.7234 1149 111.947 572.416 410.246
3134 0 92.3257 11.362 1049 116.276 572.542 408.299
3135 0 95.2423 12.0745 1150 114.819 572.531 405.107
3136 0 98.1657 12.0205 1180 115.208 572.648 404.077
3137 0 100.211 11.2762 1130 117.736 572.662 401.414
3138 0 104.254 11.2226 1170 117.899 572.307 401.409
3139 0 106.184 11.5177 1223 119.128 572.388 402.194
3140 0 113.294 12.216 1384 115.603 572.157 398.269
3141 0 114.168 11.0276 1259 120.28 572.178 398.915
3142 0 119.336 13.3321 1591 114.624 572.671 395.605
3143 0 121.16 9.92074 1202 125.827 572.396 394.499
3144 0 124.356 11.7807 1465 123.001 572.846 392.872
3145 0 130.482 11.9557 1560 124.01 572.56 388.002
3146 0 141.414 12.7286 1800 119.162 572.417 390.478
3147 1 81.1634 10.4481 848 109.162 572.327 422.902
3148 0 82.1013 10.889 894 107.638 573.233 418.501
3149 0 85.123 10.8666 925 108.248 572.429 415.449
3150 0 90.228 11.4931 1037 106.582 572.254 417.294
3151 0 91.2321 12.5614 1146 106.627 572.771 414.534
3152 0 94.1918 11.6252 1095 109.455 572.686 413.206
3153 0 91.1846 10.4733 955 115.712 572.339 409.175
3154 0 100.166 11.1914 1121 112.797 572.016 410.928
3155 0 104.256 12.0664 1258 112.564 572.035 409.249
3156 0 108.256 12.1102 1311 114.825 571.904 409.037
3157 0 108.289 11.8387 1282 120.771 571.959 403.746
3158 0 112.271 11.4188 1282 123.498 571.865 403.115
3159 0 114.231 12.2296 1397 122.983 571.718 400.162
3160 0 117.213 10.69 1253 127.595 571.868 401.094
3161 0 120.394 11.6451 1402 126.296 571.623 398.948
3162 0 124.248 12.1129 1505 125.139 571.088 398.017
3163 0 129.174 12.247 1582 124.525 571.632 396.086
3164 0 134.374 12.614 1695 126.224 571.679 374.669
3165 0 138.397 13.3456 1847 123.561 571.342 376.461
3166 0 143.268 12.2358 1753 126.452 570.907 377.44
3167 0 143.268 12.2637 1757 156.842 568.916 377.482
3168 1 85.4028 11.7561 1004 119.766 571.261 412.095
3169 0 87.1211 12.0407 1049 119.763 571.664 418.963
3170 0 91.2451 12.1431 1108 118.43 571.733 420.495
3171 0 93.2797 11.7818 1099 120.146 571.682 416.497
3172 0 96.2267 12.1588 1170 119.25 571.572 414.516
3173 0 100.213 12.7528 1278 117.122 571.455 416.277
3174 0 99.2164 12.9717 1287 118.649 571.61 413.305
3175 0 105.257 13.1772 1387 116.6 572.048 411.104
3176 0 105.239 12.5619 1322 119.97 572.192 410.594
3177 0 109.258 13.7839 1506 116.208 570.972 410.135
3178 0 111.234 12.9996 1446 118.834 570.822 410.237
3179 0 112.336 12.5338 1408 121.43 570.813 408.609
3180 0 118.263 13.3346 1577 118.162 570.577 408.759
3181 0 123.363 13.132 1620 117.581 570.648 407.63
3182 0 127.271 13.7109 1745 116.732 570.833 404.26
3183 0 131.465 12.7563 1677 119.303 570.528 400.935
3184 0 135.371 12.8757 1743 125.021 570.937 398.661
3185 1 77.1838 10.4426 806 115.254 572.001 427.696
3186 0 80.1574 10.7039 858 115.1 569.887 426.659
3187 0 84.2896 12.3384 1040 108.168 570.127 426.18
3188 0 86.2901 12.8056 1105 108.752 570.411 422.89
3189 0 89.304 12.5638 1122 110.284 570.549 422.119
3190 0 91.295 13.2866 1213 108.288 571.225 422.378
3191 0 92.3157 12.6739 1170 109.396 571.274 422.765
3192 0 95.2943 12.4142 1183 110.787 571.145 418.628
3193 0 99.3482 12.7733 1269 111.805 571.072 415.829
3194 0 98.4538 11.1829 1101 117.602 571.332 414.322
3195 0 104.331 13.8502 1445 110.484 571.056 406.667
3196 0 108.389 13.2947 1441 111.799 570.833 404.475
3197 0 109.276 13.4247 1467 111.71 570.586 407.952
3198 0 109.341 11.8071 1291 117.028 570.904 403.507
3199 0 112.403 12.4462 1399 115.243 570.538 402.842
3200 0 114.308 11.9502 1366 117.496 570.629 383.02
3201 0 118.228 13.7277 1623 112.709 570.91 350.516
3202 0 123.256 13.7843 1699 111.049 569.865 353.164
3203 0 130.319 12.5001 1629 114.071 568.751 349.894
3204 0 132.225 12.1006 1600 112.803 569.569 362.071
3205 1 76.1157 10.1425 772 110.549 569.473 386.225
3206 0 78.171 9.64552 754 107.655 569.415 394.599
3207 0 82.1376 10.7868 886 94.412 570.187 410.988
3208 0 82.281 9.6377 793 97.3455 571.057 412.132
3209 0 86.1983 11.8332 1020 92.7314 571.403 414.728
3210 0 86.2372 11.6191 1002 94.7774 570.874 410.307
3211 0 90.2208 10.696 965 96.6114 571.065 407.284
3212 0 92.2282 10.062 928 99.2037 570.548 408.136
3213 0 97.294 10.3192 1004 98.8616 570.793 401.637
3214 0 98.246 11.6646 1146 97.3106 570.677 402.736
3215 0 104.21 10.6899 1114 98.6302 570.837 401.166
3216 0 101.25 11.8716 1202 99.3428 569.74 399.839
3217 0 105.174 10.4114 1095 102.229 570.636 395.512
3218 0 110.329 10.8494 1197 102.489 570.635 400.125
3219 0 111.151 10.7601 1196 103.066 570.428 398.051
3220 0 116.269 11.2756 1311 102.551 569.919 394.207
3221 0 119.303 12.2043 1456 102.562 569.615 391.521
3222 0 124.192 12.8189 1592 106.54 569.643 370.174
3223 0 130.114 13.2653 1726 108.171 569.466 354.609
3224 0 134.245 14.1756 1903 105.363 570.264 349.413
3225 0 136.387 12.0613 1645 109.492 570.529 348.595
3226 1 78.1684 9.21088 720 102.061 570.421 379.061
3227 0 81.1752 10.9023 885 98.0113 570.818 379.263
3228 0 80.1324 8.78547 704 98.6264 570.707 391.357
3229 0 85.1352 11.6168 989 91.548 570.901 403.792
3230 0 86.2502 10.8985 940 94.1713 571.493 400.719
3231 0 88.1898 11.3732 1003 94.2921 571.037 405.791
3232 0 94.1701 11.1394 1049 95.1077 571.009 399.724
3233 0 96.309 11.3904 1097 95.361 571.435 396.902
3234 0 96.3123 11.7119 1128 95.6587 571.082 397.553
3235 0 101.183 11.3063 1144 97.2028 571.148 401.442
3236 0 102.282 11.3119 1157 97.6595 570.944 404.366
3237 0 104.193 11.4979 1198 98.8539 571.528 402.846
3238 0 108.172 11.1951 1211 102.111 571.801 403.376
3239 0 112.209 11.9153 1337 103.26 572.105 395.302
3240 0 116.221 11.8739 1380 103.781 571.607 390.34
3241 0 120.222 11.9029 1431 105.341 571.12 382.174
3242 0 119.21 10.8045 1288 109.582 571.2 381.521
3243 0 126.292 12.9937 1641 104.936 570.208 385.605
3244 0 127.353 10.6554 1357 114.422 571.265 381.813
3245 0 132.302 11.8214 1564 111.224 570.445 383.915
3246 0 135.298 12.1658 1646 110.752 571.278 385.336
3247 0 142.419 12.1051 1724 113.408 571.064 386.555
3248 0 145.394 12.4214 1806 114.365 570.828 384.093
3249 0 152.375 12.9549 1974 112.101 571.127 380.244
3250 1 85.1908 10.2359 872 110.245 571.376 414.521
3251 0 88.2671 12.2696 1083 108.509 571.935 409.577
3252 0 91.2861 12.3458 1127 109.37 571.161 405.553
3253 0 94.3074 12.7562 1203 108.936 571.223 412.146
3254 0 98.3293 13.7396 1351 107.212 571.286 404.725
3255 0 100.292 13.3709 1341 109.302 571.526 398.585
3256 0 104.388 14.4653 1510 106.416 572.062 400.219
3257 0 106.336 14.6987 1563 105.944 571.36 398.608
3258 0 110.454 13.6165 1504 108.778 571.466 398.103
3259 0 113.435 13.6378 1547 109.046 571.255 396.659
3260 0 113.395 13.8895 1575 107.538 571.886 397.78
3261 0 114.119 13.4772 1538 106.839 571.567 397.109
3262 0 115.108 13.0747 1505 109.894 571.342 392.102
3263 0 119.138 11.9693 1426 113.065 571.344 395.163
3264 0 124.241 12.7575 1585 110.679 570.86 395.269
3265 0 127.165 13.4156 1706 109.687 570.899 393.518
3266 0 130.22 13.2698 1728 110.429 570.649 392.227
3267 0 138.322 12.8107 1772 111.353 571.295 387.302
3268 1 77.0694 8.17445 630 111.829 571.297 417.11
3269 0 83.1233 10.8754 904 107.705 571.677 419.082
3270 0 85.1802 11.3759 969 111.483 572.375 408.399
3271 0 85.081 12.1061 1030 111.665 572.28 407.046
3272 0 91.1662 11.3748 1037 112.006 572.772 406.564
3273 0 91.2498 10.2685 937 116.036 572.002 389.236
3274 0 96.2437 11.3046 1088 115.226 571.745 384.688
3275 0 99.2342 12.4957 1240 113.112 571.753 383.006
3276 0 100.257 12.1189 1215 115.016 572.137 385.068
3277 0 103.194 12.7526 1316 114.204 571.502 382.165
3278 0 107.318 12.6726 1360 114.585 572.033 384.926
3279 0 107.177 12.0362 1290 117.896 572.398 387.557
3280 0 110.181 11.8169 1302 118.362 572.469 386.081
3281 0 115.194 11.8408 1364 118.032 572.174 366.368
3282 0 118.208 12.5796 1487 117.947 572.145 362.784
3283 0 116.303 11.5818 1347 121.981 571.586 358.249
3284 0 125.22 11.5956 1452 114.123 570.764 367.649
3285 0 130.252 12.3991 1615 108.995 570.729 374.923
3286 0 131.161 12.3513 1620 113.254 569.967 374.873
3287 1 76.2975 10.446 797 109.191 569.93 402.542
3288 0 78.2674 11.7673 921 108.174 570.365 400.041
3289 0 83.1533 10.8955 906 106.512 570.954 406.31
3290 0 79.1675 11.1788 885 110.327 570.715 399.571
3291 0 84.2402 11.9895 1010 108.309 570.643 406.645
3292 0 89.1966 10.9758 979 111.441 570.223 403.212
3293 0 93.1689 11.3235 1055 110.928 570.546 398.723
3294 0 96.213 11.8487 1140 110.021 570.683 403.916
3295 0 98.2407 12.052 1184 112.362 570.91 387.502
3296 0 101.171 11.3966 1153 113.703 571.246 389.438
3297 0 103.272 11.3971 1177 115.987 571.393 386.833
3298 0 107.156 11.7959 1264 115.403 571.17 386.684
3299 0 109.216 11.61 1268 116.957 571.565 384.546
3300 0 112.165 11.4207 1281 120.924 571.039 378.902
3301 0 117.229 12.8381 1505 117.025 571.873 390.03
3302 0 119.341 10.6585 1272 122.859 571.623 394.263
3303 0 125.188 12.1737 1524 120.461 571.436 379.239
3304 0 127.381 11.9484 1522 122.244 571.846 376.206
3305 0 130.298 12.4714 1625 122.277 571.395 375.926
3306 0 134.199 12.7274 1708 122.019 571.693 378.611
3307 0 139.405 11.9436 1665 122.262 571.809 378.79
3308 0 144.53 11.2641 1628 124.378 571.903 380.334
3309 0 149.281 13.2636 1980 121.425 572.624 378.015
3310 1 90.2372 11.4365 1032 111.686 572.282 413.488
3311 0 92.3235 10.2899 950 113.846 572.232 417.332
3312 0 94.2929 12.09 1140 110.761 571.821 407.94
3313 0 97.2856 12.0984 1177 106.645 570.692 410.246
3314 0 101.149 12.4569 1260 107.744 571.377 406.574
3315 0 103.217 11.6938 1207 108.908 571.884 406.457
3316 0 104.209 11.0547 1152 112.309 571.405 408.199
3317 0 109.149 10.9117 1191 112.126 571.661 414.29
3318 0 112.154 11.8676 1331 111.391 572.186 410.253
3319 0 115.184 11.894 1370 112.162 571.965 409.656
3320 0 117.198 10.4098 1220 116.634 572.26 408.802
3321 0 121.286 11.2296 1362 114.185 571.749 410.327
3322 0 126.134 11.9476 1507 114.062 571.435 405.779
3323 0 129.109 12.5088 1615 113.365 571.838 404.09
3324 0 134.112 11.9005 1596 115.303 571.155 392.614
3325 0 136.192 11.9023 1621 116.626 570.938 386.994
3326 0 141.235 12.157 1717 117.239 570.535 387.182
3327 0 146.177 12.0197 1757 117.941 570.513 383.817
3328 0 150.179 12.3786 1859 118.74 570.835 378.496
3329 1 86.1002 11.8583 1021 113.269 570.599 421.075
3330 0 89.0888 12.2238 1089 120.682 569.072 421.901
3331 0 89.2864 10.3823 927 126.973 570.489 422.069
3332 0 96.1028 12.4658 1198 121.437 569.672 420.107
3333 0 98.086 12.8663 1262 121.819 568.818 416.602
3334 0 101.095 13.1856 1333 121.356 569.622 415.332
3335 0 102.076 11.1094 1134 128.045 569.622 414.03
3336 0 107.087 12.9895 1391 123.033 569.919 415.007
3337 0 110.102 12.107 1333 126.342 570.203 411.249
3338 0 111.217 12.1114 1347 127.831 570.668 408.736
3339 0 117.168 12.7338 1492 125.622 569.803 409.176
3340 0 119.154 12.7314 1517 127.271 569.7 407.082
3341 0 124.227 13.2822 1650 124.524 569.778 407.102
3342 0 127.095 13.6355 1733 127.619 569.436 385.503
3343 0 131.192 13.4307 1762 129.087 569.369 384.399
3344 0 135.229 14.4273 1951 126.863 570.043 384.201
3345 0 136.079 13.0586 1777 132.577 569.168 375.347
3346 0 141.296 13.2488 1872 133.142 569.868 382.055
3347 0 146.153 13.479 1970 131.357 569.985 387.001
3348 0 148.152 12.6154 1869 135.822 570.421 378.701
3349 0 153.204 13.8508 2122 133.87 570.466 374.953
3350 0 158.248 13.1818 2086 136.932 569.414 366.275
3351 0 163.26 12.3913 2023 140.856 569.911 359.983
3352 1 98.0665 10.758 1055 129.133 569.53 391.679
3353 0 99.0595 10.3069 1021 125.487 569.777 389.185
3354 0 98.1363 8.2844 813 119.267 570.892 398.597
3355 0 104.178 10.2133 1064 116.758 570.687 395.544
3356 0 106.085 10.2653 1089 117.403 571.084 396.522
3357 0 111.132 10.771 1197 118.564 571.262 392.234
3358 0 112.18 11.2409 1261 117.347 571.325 397.393
3359 0 114.112 10.8753 1241 120.763 570.959 393.476
3360 0 118.124 11.0901 1310 120.096 570.991 400.237
3361 0 122.132 12.2818 1500 117.746 571.003 400.182
3362 0 123.141 12.3517 1521 120.081 571.227 397.147
3363 0 128.223 11.4488 1468 123.396 571.734 392.535
3364 0 131.143 11.4532 1502 128.082 571.653 378.838
3365 0 137.191 11.8448 1625 127.03 571.903 384.732
3366 1 78.1719 10.6944 836 120.514 572.191 410.018
3367 0 81.2119 10.6511 865 119.978 571.585 404.317
3368 0 82.1147 11.5692 950 119.168 571.722 402.257
3369 0 85.1241 10.7608 916 119.051 571.325 410.404
3370 0 88.122 12.426 1095 115.536 572.067 413.106
3371 0 90.1063 12.9625 1168 114.021 572.138 415.915
3372 0 92.1274 11.8423 1091 118.627 571.774 404.649
3373 0 95.1212 13.1832 1254 114.929 571.626 411.787
3374 0 100.107 13.5854 1360 113.109 571.798 406.961
3375 0 101.107 12.106 1224 117.242 571.66 402.893
3376 0 104.122 12.6967 1322 116.225 571.804 402.337
3377 0 106.185 14.277 1516 112.912 571.616 403.849
3378 0 108.201 12.8835 1394 117.608 571.95 401.939
3379 0 110.134 13.5652 1494 115.651 571.888 401.723
3380 0 113.158 12.9818 1469 116.94 571.95 407.547
3381 0 118.208 13.8146 1633 115.172 572.179 403.031
3382 0 119.212 12.0374 1435 121.095 571.932 400.836
3383 0 124.157 13.6038 1689 118.401 571.573 383.361
3384 1 70.0626 11.4612 803 124.729 572.073 410.085
3385 0 70.0665 10.9467 767 122.535 572.055 402.795
3386 0 73.0836 11.179 817 120.707 572.252 408.525
3387 0 74.1624 10.9355 811 123.54 572.247 412.06
3388 0 78.0322 11.5722 903 120.551 571.732 417.391
3389 0 80.0648 12.4774 999 120.477 571.152 417.284
3390 0 80.0452 11.6934 936 122.705 571.793 417.56
3391 0 84.034 12.5306 1053 122.007 571.444 413.908
3392 0 86.0555 11.7715 1013 125.344 571.773 413.825
3393 0 89.0644 11.8005 1051 123.836 571.533 416.989
3394 0 93.1698 13.3305 1242 118.393 571.961 404.213
3395 0 97.1252 12.1596 1181 122.576 571.659 395.533
3396 0 99.0794 11.728 1162 125.947 571.731 392.096
3397 0 100.175 11.5597 1158 128.198 571.805 391.927
3398 0 103.109 12.0359 1241 126.278 571.238 394.038
3399 0 105.203 11.4255 1202 129.486 571.928 392.585
3400 0 111.228 13.0992 1457 124.074 571.597 394.016
3401 0 116.37 12.7267 1481 125.901 571.244 383.731
3402 0 118.248 13.4209 1587 124.157 571.53 379.403
3403 1 65.1856 8.97438 585 123.851 572.14 407.814
3404 0 69.2293 12.0758 836 121.922 570.251 404.537
3405 0 74.1963 12.8578 954 117.741 570.627 405.602
3406 0 76.1572 12.9338 985 115.801 570.586 412.62
3407 0 76.2333 12.5536 957 117.342 570.668 412.73
3408 0 79.2229 12.408 983 117.568 570.451 415.35
3409 0 83.1842 13.0193 1083 115.828 570.223 414.36
3410 0 84.2258 12.1459 1023 118.872 570.528 416.043
3411 0 86.1849 11.9162 1027 120.519 570.731 413.511
3412 0 90.113 12.3845 1116 119.182 570.583 413.902
3413 0 94.1394 13.2569 1248 117.502 570.708 405.997
3414 0 96.127 13.5966 1307 117.389 570.696 400.557
3415 0 98.1279 13.9002 1364 118.696 571.191 396.791
3416 0 100.302 12.5322 1257 121.948 570.596 398.527
3417 0 102.101 13.3985 1368 119.999 570.24 398.652
3418 0 106.186 13.9848 1485 118.521 570.35 398.083
3419 0 107.098 13.8471 1483 119.653 570.253 397.404
3420 0 113.097 13.6696 1546 119.91 570.146 396.261
3421 0 114.092 12.5863 1436 123.343 570.705 393.712
3422 0 117.193 12.8933 1511 122.917 570.48 398.67
3423 0 122.165 13.2689 1621 122.473 570.455 387.812
3424 0 125.259 13.4122 1680 122.459 570.473 381.218
3425 0 129.248 13.2304 1710 123.597 570.241 379.16
3426 0 134.187 13.1608 1766 123.731 570.378 378.28
3427 1 76.174 10.4104 793 119.028 570.532 413.45
3428 0 79.0917 12.6183 998 112.577 569.948 416.406
3429 0 82.183 12.1071 995 114.646 570.432 416.007
3430 0 86.0935 12.9743 1117 112.594 569.911 416.56
3431 0 87.1122 12.3634 1077 114.669 570.467 413.438
3432 0 92.164 14.0402 1294 111.777 570.723 395.454
3433 0 94.1823 13.5163 1273 114.44 570.07 385.614
3434 0 99.2235 14.9561 1484 110.415 569.77 384.557
3435 0 100.116 14.8029 1482 112.092 570.561 383.841
3436 0 103.165 14.724 1519 111.768 570.649 387.138
3437 0 106.278 15.2712 1623 112.174 570.944 385.694
3438 0 107.139 14.0098 1501 117.233 570.554 382.979
3439 0 110.237 14.5777 1607 116.075 570.536 383.556
3440 0 112.195 13.6459 1531 118.945 570.756 384.049
3441 0 116.408 14.2687 1661 116.384 569.96 392.287
3442 0 119.474 13.9529 1667 117.202 570.271 394.981
3443 0 122.359 13.1008 1603 120.954 570.217 379.202
3444 0 126.316 14.0046 1769 118.66 570.305 381.759
3445 0 131.546 15.4394 2031 115.002 571.275 374.197
3446 0 135.468 14.7858 2003 116.594 571.102 373.287
3447 0 141.451 13.7645 1947 118.993 570.943 376.02
3448 1 79.3493 11.2666 894 122.612 570.69 400.576
3449 0 82.3341 13.2266 1089 114.994 570.864 405.017
3450 0 84.2666 12.8283 1081 115.129 569.994 403.513
3451 0 88.5293 13.9389 1234 111.365 569.927 402.379
3452 0 91.4542 12.5418 1147 114.403 570.797 399.084
3453 0 96.4544 13.7682 1328 110.423 571.017 396.682
3454 0 98.547 13.4555 1326 111.153 570.725 388.804
3455 0 100.406 13.4454 1350 111.241 570.331 393.853
3456 0 102.317 12.7251 1302 112.888 570.056 393.177
3457 0 106.27 12.5906 1338 112.507 569.89 393.7
3458 0 109.324 13.4554 1471 110.417 570.302 393.655
3459 0 112.334 14.4836 1627 107.366 570.036 394.854
3460 0 116.35 13.2618 1543 111.807 569.846 383.57
3461 0 117.237 13.1187 1538 115.319 570.597 366.527
3462 0 122.22 14.0893 1722 110.73 569.912 367.62
3463 0 126.277 13.9692 1764 111.592 570.017 368.376
3464 0 129.255 13.5159 1747 112.936 569.502 367.265
3465 0 136.38 13.3084 1815 111.899 569.294 373.014
3466 1 77.087 12.2978 948 109.77 568.618 403.323
3467 0 80.1397 12.5156 1003 108.926 568.835 402.251
3468 0 82.1938 13.091 1076 106.86 568.346 404.901
3469 0 83.1823 12.1781 1013 109.735 568.573 407.203
3470 0 85.1948 12.536 1068 109.477 568.172 405.338
3471 0 87.25 11.5415 1007 111.885 568.798 407.08
3472 0 92.149 13.4782 1242 107.744 569.902 401.243
3473 0 94.2532 13.3258 1256 108.642 569.355 401.122
3474 0 95.3288 12.5775 1199 111.691 569.003 398.238
3475 0 99.2722 12.3902 1230 111.753 568.763 401.793
3476 0 105.349 13.4221 1414 108.964 569.007 399.351
3477 0 104.245 13.1134 1367 111.542 569.092 397.407
3478 0 107.287 12.5551 1347 113.259 568.947 396.269
3479 0 113.37 14.6247 1658 108.517 568.835 394.434
3480 0 113.391 12.4172 1408 116.119 569.173 391.826
3481 0 115.306 12.7053 1465 115.324 569.646 394.485
3482 0 121.251 13.5669 1645 113.257 569.756 396.435
3483 0 124.158 13.8774 1723 113.186 569.077 396.89
3484 0 129.252 13.3306 1723 114.809 569.658 396.642
3485 0 132.24 13.3167 1761 117.154 570.248 394.995
3486 0 138.361 13.8045 1910 116.408 569.813 395.663
3487 0 140.278 13.7656 1931 118.201 569.61 393.303
3488 0 144.293 14.1795 2046 117.621 569.868 390.609
3489 0 148.193 13.3002 1971 121.411 569.686 386.113
3490 0 152.559 13.2145 2016 121.44 569.586 386.427
3491 1 92.2941 11.2792 1041 117.021 569.476 419.833
3492 0 95.3891 12.8526 1226 115.665 569.175 413.728
3493 0 97.3107 12.3419 1201 117.715 569.541 406.58
3494 0 101.244 12.781 1294 116.022 568.917 405.701
3495 0 103.223 13.0203 1344 115.705 569.536 403.796
3496 0 105.291 12.2233 1287 118.457 569.364 404.254
3497 0 110.326 13.1791 1454 116.999 569.384 403.127
3498 0 113.395 12.3462 1400 120.785 568.863 398.119
3499 0 118.427 13.1812 1561 118.038 568.901 404.533
3500 0 119.374 12.2975 1468 122.305 569.439 402.182
3501 0 123.461 12.5546 1550 121.501 569.276 399.708
3502 0 129.254 14.0034 1810 117.971 570.227 398.415
3503 0 131.348 13.1179 1723 121.784 570.153 396.345
3504 0 137.39 13.9166 1912 119.522 569.951 393.331
3505 0 141.337 12.5091 1768 123.672 569.593 392.204
3506 0 147.439 13.5582 1999 120.885 569.693 390.693
3507 1 81.1708 11.1493 905 121.759 570.306 422.598
3508 0 83.1886 10.7827 897 124.057 570.702 420.146
3509 0 88.25 13.3031 1174 116.862 571.566 419.292
3510 0 90.2016 12.5275 1130 120.488 571.567 416.14
3511 0 90.3333 12.2435 1106 122.137 571.702 416.908
3512 0 94.2957 12.7683 1204 120.653 572.002 413.341
3513 0 95.209 12.2467 1166 122.744 570.939 413.961
3514 0 100.382 13.7575 1381 119.176 571.432 410.345
3515 0 103.18 12.9095 1332 121.494 571.52 411.02
3516 0 106.165 13.3659 1419 123.44 572.623 410.985
3517 0 108.132 12.9564 1401 125.616 572.124 410.138
3518 0 111.131 12.9037 1434 126.661 571.595 406.623
3519 0 113.095 13.166 1489 126.396 572.15 406.242
3520 0 119.189 13.3569 1592 125.283 572.438 404.689
3521 0 120.161 13.149 1580 126.692 572.015 403.015
3522 0 123.189 14.6604 1806 123.855 572.121 397.884
3523 0 127.168 12.3301 1568 129.702 572.239 395.163
3524 0 132.13 11.7385 1551 132.602 571.781 374.097
3525 0 138.168 13.7658 1902 126.815 571.457 367.236
3526 1 78.1288 10.4443 816 124.136 572.344 400.132
3527 0 79.2019 11.7674 932 119.658 571.62 404.069
3528 0 83.0612 11.7022 972 120.539 572.776 407.551
3529 0 86.0713 13.2913 1144 116.722 573.049 410.848
3530 0 86.1245 12.122 1044 121.983 573.238 411.826
3531 0 89.0661 12.7209 1133 121.361 573.795 406.004
3532 0 93.062 12.9913 1209 121.464 573.065 408.921
3533 0 96.0574 13.2421 1272 121.76 573.322 402.439
3534 0 101.158 12.8017 1295 123.103 573.047 403.961
3535 0 101.18 12.542 1269 125.994 573.231 393.654
3536 0 106.097 12.941 1373 124.867 572.662 393.165
3537 0 110.253 14.2309 1569 121.592 572.933 388.728
3538 0 112.17 12.8911 1446 125.497 572.566 386.879
3539 0 115.138 13.8355 1593 123.94 572.052 386.107
3540 0 117.119 12.6965 1487 129.236 570.652 365.669
3541 0 120.215 12.3612 1486 129.863 570.958 369.383
3542 0 124.213 12.1163 1505 130.075 571.139 369.483
3543 0 127.185 13.5236 1720 122.844 571.462 369.62
3544 0 130.138 12.7557 1660 127.978 570.85 368.217
3545 0 137.215 13.3003 1825 124.5 570.692 364.852
3546 0 143.186 14.9247 2137 119.015 570.985 370.004
3547 1 85.2075 10.5038 895 116.615 571.761 395.166
3548 0 87.202 10.5846 923 119.47 572.172 390.307
3549 0 92.1283 13.1122 1208 120.219 571.868 391.404
3550 0 95.0965 13.3023 1265 115.436 571.564 391.934
3551 0 97.1295 12.2517 1190 117.638 571.505 399.129
3552 0 101.149 11.31 1144 118.01 571.673 408.779
3553 0 106.167 11.3501 1205 118.494 571.656 413.614
3554 0 107.079 11.2347 1203 120.007 571.834 408.214
3555 0 114.205 13.4845 1540 115.416 571.644 403.149
3556 0 112.136 10.63 1192 126.492 572.289 394.847
3557 0 115.126 10.5797 1218 128.857 573.142 392.458
3558 0 120.129 10.855 1304 127.008 572.45 393.633
3559 0 125.219 12.594 1577 122.116 571.656 400.876
3560 0 128.283 12.184 1563 124.147 571.274 400.422
3561 0 131.155 10.6592 1398 126.701 570.842 403.219
3562 0 135.131 11.2558 1521 126.956 571.042 400.155
3563 0 140.222 12.3162 1727 126.588 571.539 391.665
3564 0 144.184 13.0181 1877 128.348 571.992 376.901
3565 0 149.294 12.117 1809 130.375 571.796 382.806
3566 1 82.238 11.3086 930 120.158 571.791 421.506
3567 0 86.2637 13.7601 1187 114.511 572.304 425.281
3568 0 88.3974 10.4867 927 116.121 572.288 407.201
3569 0 89.1155 11.2887 1006 115.98 572.023 405.929
3570 0 92.154 11.4699 1057 115.869 572.184 405.194
3571 0 96.2168 11.6092 1117 116.648 572.388 403.693
3572 0 100.18 12.0184 1204 114.857 572.453 411.184
3573 0 102.256 12.6252 1291 114.397 572.338 411.289
3574 0 105.383 12.3454 1301 115.067 572.878 411.135
3575 0 109.341 12.0266 1315 115.56 572.323 412.203
3576 0 113.387 13.3702 1516 114.166 572.761 408.497
3577 0 116.386 12.7077 1479 116.21 572.383 411.448
3578 0 119.376 12.3307 1472 119.7 572.402 408.086
3579 0 121.316 12.9496 1571 126.051 571.498 385.799
3580 0 128.186 13.3946 1717 126.31 571.305 367.007
3581 0 131.292 13.5652 1781 124.902 571.513 369.545
3582 0 133.37 13.3763 1784 124.65 571.553 369.273
3583 0 139.414 13.1694 1836 125.047 571.455 369.075
3584 0 142.297 12.7691 1817 125.68 571.948 368.577
3585 1 82.1996 11.4112 938 115.851 571.673 399.776
3586 0 86.1345 11.4937 990 120.293 571.74 400.529
3587 0 90.1116 12.2959 1108 117.625 571.977 401.821
3588 0 95.3053 12.5282 1194 110.546 570.997 399.435
3589 0 95.2632 12.2713 1169 112.139 571.8 400.045
3590 0 99.1471 12.6277 1252 110.701 571.26 400.577
3591 0 99.4185 11.869 1180 113.281 571.734 399.384
3592 0 105.405 12.6559 1334 110.866 571.466 397.895
3593 0 107.318 12.8497 1379 112.865 571.84 394.015
3594 0 112.218 12.6985 1425 118.811 571.561 390.782
3595 0 115.233 13.0519 1504 119.042 571.285 387.445
3596 0 120.458 13.9468 1680 114.999 571.559 390.074
3597 0 121.378 12.1356 1473 119.462 571.594 389.088
3598 0 125.467 12.6647 1589 117.824 571.276 388.466
3599 0 130.503 12.4825 1629 117.998 571.358 386.932
3600 0 133.297 11.4556 1527 119.921 571.758 385.91
3601 0 138.226 13.2247 1828 116.476 571.311 381.148
3602 0 144.402 13.0469 1884 115.544 571.671 382.862
3603 0 147.649 12.4146 1833 117.872 571.722 378.539
3604 0 151.354 11.7208 1774 119.861 571.711 375.09
3605 0 157.442 12.7856 2013 117.578 572.286 372.95
3606 0 163.585 12.6295 2066 117.799 572.606 369.599
3607 0 167.397 13.3336 2232 117.336 572.836 364.131
3608 0 174.75 12.9442 2262 116.718 572.53 366.074
3609 0 179.648 12.5022 2246 119.03 572.625 359.006
3610 0 186.562 12.7947 2387 118.212 572.676 359.306
3611 0 192.827 13.2554 2556 117.607 571.804 355.306
3612 0 198.632 14.6502 2910 114.987 571.636 350.327
3613 0 203.732 13.4736 2745 110.838 572.306 350.481
3614 0 211.739 14.0503 2975 109.898 572.077 345.695
3615 0 215.839 13.7881 2976 110.668 571.971 337.574
3616 0 225.53 15.989 3606 104.828 572.281 333.118
3617 0 230.677 17.9558 4142 98.9529 572.882 334.414
3618 0 236.663 15.9002 3763 103.597 572.26 333.696
3619 1 187.771 13.0105 2443 107.982 573.028 363.484
3620 0 194.741 13.6797 2664 107.838 573.122 362.839
3621 0 200.773 14.2399 2859 108.722 573.163 356.283
3622 0 206.702 13.6574 2823 109.471 572.836 351.477
3623 0 213.76 13.2298 2828 110.698 572.66 350.007
3624 0 221.747 13.4568 2984 110.575 571.96 346.993
3625 0 227.694 13.2327 3013 111.203 572.472 342.568
3626 0 237.555 14.3714 3414 108.697 572.308 341.229
3627 0 245.702 18.4736 4539 99.9846 571.943 329.059
3628 1 63.1898 12.7552 806 100.367 572.019 421.664
3629 0 65.2732 13.2673 866 98.9942 572.479 419.349
3630 0 66.1892 12.9779 859 99.7893 571.488 413.318
3631 0 71.4418 13.5075 965 98.115 571.709 414.368
3632 0 70.1622 12.7704 896 104.795 571.536 409.287
3633 0 76.2163 13.0812 997 103.735 571.998 408.557
3634 0 76.2411 13.2606 1011 103.791 571.872 413.859
3635 0 77.2554 13.5136 1044 103.472 571.423 418.36
3636 0 81.2123 13.1384 1067 103.064 571.539 425.118
3637 0 85.215 13.9412 1188 100.997 571.937 424.758
3638 1 121.553 14.2736 1735 86.5066 571.836 409.062
3639 0 118.329 14.561 1723 89.9391 571.704 410.41
3640 0 119.676 18.2911 2189 81.8186 571.832 404.075
3641 0 120.388 20.085 2418 78.0765 572.103 394.563
3642 0 116.24 20.2255 2351 82.5376 571.712 403.846
3643 0 118.948 18.983 2258 86.0784 571.677 401.656
3644 0 121.912 18.2591 2226 88.3908 572.045 399.525
3645 0 126.316 25.539 3226 79.372 571.15 396.317
3646 0 124.434 19.7373 2456 88.5212 571.413 401.345
3647 0 131.265 21.6585 2843 84.9093 571.593 399.364
3648 0 131.313 19.1299 2512 91.9522 572.048 405.833
3649 0 132.322 21.1831 2803 89.6643 571.456 400.052
3650 0 134.516 22.9787 3091 87.88 571.791 398.956
3651 0 135.226 18.4728 2498 98 571.614 399.564
3652 0 135.624 16.7374 2270 104.32 571.076 397.776
3653 0 138.328 16.8802 2335 104.786 570.878 398.468
3654 0 142.485 16.1912 2307 106.215 570.941 398.868
3655 0 148.523 14.9068 2214 108.401 571.162 398.233
3656 1 84.2103 13.0507 1099 108.199 571.538 426.741
3657 0 83.2329 12.3148 1025 111.646 572.016 423.125
3658 0 88.3151 14.2218 1256 107.737 571.491 424.723
3659 0 94.2441 13.465 1269 111.573 571.606 412.183
3660 0 97.2952 15.3245 1491 108.618 571.482 410.683
3661 0 100.272 13.4733 1351 113.568 571.967 409.244
3662 0 104.166 14.7649 1538 109.876 571.318 415.731
3663 0 105.213 14.2568 1500 112.755 571.567 407.795
3664 0 109.346 14.3581 1570 111.447 570.869 413.525
3665 0 112.168 14.9061 1672 111.435 571.028 410.416
3666 0 115.272 13.8889 1601 113.467 571.333 410.963
3667 0 116.273 13.1759 1532 116.997 570.726 404.525
3668 0 123.32 14.3935 1775 112.89 570.855 405.342
3669 0 128.484 13.9628 1794 113.613 570.853 402.191
3670 0 130.411 13.7335 1791 116.42 570.889 401.089
3671 0 136.428 14.4692 1974 113.375 570.638 401.982
3672 0 138.467 14.2778 1977 117.12 571.477 395.765
3673 0 146.391 15.6703 2294 113.484 570.593 392.073
3674 0 147.703 14.0688 2078 119.734 570.699 392.4
3675 0 152.409 13.7721 2099 121.89 571.088 388.374
3676 0 157.625 14.5789 2298 120.486 570.638 385.361
3677 0 161.51 15.1694 2450 119.862 570.057 383.33
3678 0 165.569 13.97 2313 124.78 569.9 376.753
3679 1 91.4479 12.6301 1155 119.118 569.902 415.769
3680 0 92.2856 11.2585 1039 125.023 569.833 413.159
3681 0 95.3653 12.321 1175 122.21 570.021 412.865
3682 0 100.384 14.4944 1455 116.464 570.074 411.529
3683 0 104.38 13.4508 1404 118.483 569.739 414.049
3684 0 105.436 12.8703 1357 122.083 570.307 409.825
3685 0 102.37 12.0934 1238 126.501 570.044 404.826
3686 0 113.41 12.8031 1452 121.784 569.992 407.891
3687 0 117.274 13.6007 1595 120.795 569.957 404.72
3688 0 120.455 12.76 1537 123.44 570.136 403.747
3689 0 124.504 13.6783 1703 121.399 569.716 403.109
3690 0 127.437 12.6573 1613 126.08 568.993 398.055
3691 0 129.42 13.0505 1689 126.453 569.461 395.49
3692 0 132.331 12.8466 1700 128.935 569.358 391.75
3693 0 141.48 13.486 1908 126.293 569.506 391.619
3694 0 146.513 13.0501 1912 127.849 569.619 389.167
3695 0 149.512 13.845 2070 126.65 569.788 387.786
3696 0 154.389 13.4854 2082 127.812 569.793 384.213
3697 0 157.504 12.3997 1953 130.678 569.822 383.439
3698 0 159.434 12.1179 1932 134.177 569.672 375.341
3699 0 160.343 12.4359 1994 135.264 569.651 369.7
3700 0 170.562 13.2269 2256 131.174 569.743 371.819
3701 0 174.346 12.1769 2123 134.458 569.876 366.554
3702 0 186.403 14.4848 2700 126.807 569.969 366.227
3703 0 190.551 13.886 2646 129.369 569.826 363.603
3704 0 197.518 13.9583 2757 129.451 570.07 359.494
3705 0 205.531 13.7254 2821 128.967 570.295 355.281
3706 1 247.349 6.18964 1531 140.096 570.7 366.09
3707 0 252.897 19.3636 4897 105.043 570.152 328.943
3708 1 51.1575 8.63999 442 100.319 572.432 441.91
3709 0 51.2689 8.15309 418 103.833 571.648 441.062
3710 0 55.2467 10.2993 569 103.81 570.436 439.594
3711 0 57.2602 8.73207 500 109.854 571.236 439.102
3712 0 59.2473 12.0174 712 101.56 571.639 438.195
3713 0 62.1441 9.26877 576 107.696 571.877 436.99
3714 0 64.1498 12.0499 773 100.673 572.237 437.423
3715 0 65.1546 9.04004 589 107.686 572.066 435.037
3716 0 70.4192 11.2043 789 104.16 570.423 435.612
3717 0 71.6205 9.96921 714 110.619 570.371 434.328
3718 0 74.3756 9.73438 724 108.312 569.919 440.814
3719 0 74.2894 9.47645 704 111.378 569.51 436.874
3720 0 77.1925 10.6746 824 108.549 568.904 437.961
3721 0 81.42 10.28 837 108.25 569.462 441.867
3722 0 83.6669 10.0279 839 108.528 569.747 442.555
3723 0 84.6532 7.324 620 106.339 569.327 443.858
3724 0 87.7153 7.06832 620 107.344 570.169 438.824
3725 0 86.651 7.05127 611 111.445 570.296 439.89
3726 0 92.8673 8.65751 804 107.612 570.468 439.759
3727 0 92.6695 7.16525 664 111.684 570.78 436.366
3728 0 96.6005 8.9337 863 109.488 570.817 434.469
3729 0 100.78 9.05931 913 107.623 570.17 436.067
3730 0 103.594 8.76496 908 108.698 570.182 433.994
3731 0 104.692 6.79135 711 111.565 570.19 436.087
3732 0 109.768 8.81859 968 108.112 570.615 432.57
3733 0 112.576 7.47054 841 111.082 570.64 427.099
3734 0 111.407 6.83084 761 113.762 571.258 421.855
3735 0 119.859 9.06897 1087 107.356 571.614 427.329
3736 0 121.59 8.86584 1078 109.494 570.956 420.602
3737 0 123.625 7.55511 934 112.978 570.74 417.802
3738 0 126.787 8.3289 1056 112.381 570.891 413.67
3739 0 129.658 8.3836 1087 112.869 571.316 413.638
3740 0 131.58 6.99195 920 114.379 571.425 417.312
3741 0 135.661 5.95603 808 116.634 571.193 416.512
3742 0 139.536 5.83363 814 118.335 571.52 410.241
3743 0 145.646 7.45646 1086 113.103 571.757 417.221
3744 0 149.612 9.63829 1442 114.512 571.81 405.936
3745 0 154.745 9.27329 1435 115.9 571.787 404.799
3746 1 116.471 8.4227 981 107.643 572.37 436.062
3747 1 80.1789 9.19195 737 106.126 572.475 445.411
3748 0 81.3274 7.6481 622 108.879 572.304 444
3749 0 86.2877 7.24321 625 110.718 572.202 443.514
3750 0 92.406 7.97568 737 106.752 571.896 439.004
3751 0 99.2676 11.2323 1115 99.5112 571.88 431.79
3752 1 59.0958 10.4238 616 95.8279 570.372 440.19
3753 0 51.0967 11.0966 567 98.1517 570.185 435.319
3754 0 52.1973 10.0772 526 100.787 569.778 437.025
3755 0 58.1028 12.8909 749 94.2163 570.792 437.583
3756 0 61.1309 13.7737 842 92.4513 570.936 437.241
3757 0 62.235 12.742 793 95.2005 570.754 435.874
3758 0 65.238 12.9219 843 94.9075 570.223 436.832
3759 0 64.131 12.1626 780 99.1641 570.121 433.813
3760 0 67.1519 13.0748 878 97.6754 570.576 432.254
3761 0 69.0878 13.2006 912 98.2248 570.796 430.879
3762 0 68.1916 12.4355 848 101.465 570.966 431.16
3763 0 71.125 11.8243 841 103.215 571.561 429.202
3764 0 73.2517 12.6004 923 101.637 571.687 429.056
3765 0 73.1818 11.7242 858 105.294 571.493 426.33
3766 0 79.2235 13.91 1102 99.8721 571.401 426.259
3767 0 78.2249 12.4768 976 105.642 571.669 422.171
3768 0 82.2388 13.1082 1078 104.086 571.774 420.406
3769 0 84.1317 12.0763 1016 107.558 571.558 419.2
3770 0 83.2462 12.0126 1000 110.074 571.672 417.825
3771 0 89.1012 12.8955 1149 107.876 571.381 417.701
3772 1 45.0425 10.5456 475 105.114 571.478 440.421
3773 0 48.1518 11.3599 547 103.36 573.422 436.155
3774 0 50.0346 12.6313 632 103.665 571.073 438.169
3775 0 51.0705 12.7471 651 103.627 570.94 438.96
3776 0 51.0463 11.4798 586 109.234 571.534 438.097
3777 0 53.0295 11.9367 633 109.36 571.239 435.185
3778 0 54.1378 12.616 683 108.69 570.887 433.852
3779 0 55.0268 13.03 717 108.329 571.315 434.347
3780 0 59.051 14.1403 835 104.471 570.937 434.005
3781 0 59.0262 12.7401 752 108.886 570.682 434.995
3782 0 61.0686 12.3795 756 110.77 571.086 432.313
3783 0 62.0279 12.2687 761 111.476 570.815 433.796
3784 0 62.0343 12.6704 786 112.435 571.108 430.757
3785 0 64.0334 12.0094 769 114.142 571.511 429.71
3786 0 67.0371 13.2166 886 110.647 571.637 430.588
3787 0 70.0209 13.3674 936 109.956 571.284 427.685
3788 0 73.062 13.6733 999 109.382 571.215 420.007
3789 0 75.033 14.1271 1060 109.253 571.225 409.693
3790 0 74.034 13.4803 998 113.951 570.992 404.682
3791 0 78.03 13.1744 1028 114.036 570.929 400.036
3792 0 82.1194 14.1379 1161 110.329 571.728 406.878
3793 0 84.0335 12.4474 1046 113.586 571.481 408.364
3794 0 87.0607 13.3011 1158 111.234 571.386 407.478
3795 0 88.0605 13.4339 1183 110.426 571.232 416.136
3796 0 92.1332 13.2526 1221 112.492 571.757 394.722
3797 0 93.1744 12.7396 1187 114.837 571.554 389.053
3798 0 96.1234 13.233 1272 113.493 571.494 390.56
3799 0 100.163 11.9206 1194 114.992 571.233 394.013
3800 0 103.17 13.4922 1392 111.468 571.353 396.399
3801 1 57.05 10.9904 627 109.089 570.853 418.195
3802 0 58.0474 11.6973 679 109.996 571.246 418.675
3803 0 62.0522 12.3283 765 108.72 570.655 414.98
3804 0 62.0561 11.2479 698 113.513 571.126 413.077
3805 0 65.0236 12.4263 808 110.238 570.954 412.863
3806 0 67.0314 12.5911 844 109.795 570.911 414.296
3807 0 67.0848 11.9252 800 113.46 571.074 414.511
3808 0 71.1006 11.8986 846 112.895 570.9 412.212
3809 0 75.1362 12.2045 917 113.976 571.017 411.846
3810 0 79.0823 13.9222 1101 109.327 571.029 412.845
3811 0 80.0469 13.2547 1061 113.21 571.054 407.593
3812 0 83.0906 13.5154 1123 113.02 570.699 410.023
3813 0 85.1042 12.8196 1091 116.486 570.828 406.889
3814 0 87.0973 13.9614 1216 115.006 570.87 405.883
3815 0 92.1571 13.4661 1241 115.552 571.348 408.364
3816 0 95.1134 13.9938 1331 113.835 570.857 411.276
3817 0 98.1493 13.9074 1365 114.741 570.866 411.089
3818 0 101.142 13.2487 1340 115.263 570.822 413.554
3819 0 107.127 13.7034 1468 113.724 571.165 411.094
3820 0 106.186 12.6382 1342 118.026 571.375 407.631
3821 0 114.252 13.8115 1578 112.898 571.459 407.392
3822 1 59.1485 11.2936 668 110.657 571.602 419.439
3823 0 62.1592 13.5941 845 109.911 571.929 416.033
3824 0 63.0549 11.942 753 106.001 571.272 413.988
3825 0 63.0775 10.717 676 108.359 571.888 417.263
3826 0 66.0918 11.015 728 107.977 571.783 414.694
3827 0 69.1049 12.5027 864 104.204 571.007 417.468
3828 0 71.0257 12.1646 864 106.079 570.869 421.902
3829 0 71.0583 12.1872 866 106.687 571.849 421.572
3830 0 75.0671 11.3765 854 107.789 570.838 425.396
3831 0 78.0512 12.0049 937 106.513 571.529 423.879
3832 0 80.082 11.738 940 106.801 571.363 423.965
3833 0 83.0493 11.0657 919 107.361 572.089 424.33
3834 0 85.0399 13.3349 1134 105.629 571.767 422.338
3835 0 88.137 12.6054 1111 107.5 572.118 419.756
3836 0 89.0597 12.0706 1075 110.236 571.924 417.751
3837 0 93.1024 13.0501 1215 107.542 571.201 415.42
3838 0 96.1378 12.7005 1221 109.02 571.211 416.069
3839 0 98.0772 12.9898 1274 109.776 571.972 411.16
3840 0 103.177 12.9001 1331 111.648 572.029 412.965
3841 0 107.076 13.6726 1464 110.652 571.227 410.605
3842 0 108.083 13.0455 1410 114.389 571.918 407.676
3843 0 113.075 14.3444 1622 114.688 571.771 407.598
3844 1 66.0933 12.2251 808 108.309 572.682 430.371
3845 0 68.0811 11.7066 797 113.876 573.065 426.205
3846 0 71.0889 12.1679 865 110.908 572.892 430.683
3847 0 71.0649 12.0735 858 114.902 572.577 426.308
3848 0 75.0701 12.495 938 113.496 572.668 424.988
3849 0 77.0789 12.4158 957 113.414 572.766 424.621
3850 0 80.0755 12.3758 991 114.367 572.299 422.433
3851 0 82.04 12.2501 1005 115.293 572.082 421.579
3852 0 85.0784 13.1173 1116 113.312 572.168 420.992
3853 0 88.0586 12.4576 1097 114.445 572.719 420.026
3854 0 91.2823 11.8862 1085 115.551 572.1 418.526
3855 0 93.2237 12.8186 1195 115.188 571.216 415.474
3856 0 98.1675 13.589 1334 112.546 571.664 416.308
3857 0 99.2225 13.4445 1334 114.05 571.147 413.624
3858 0 102.362 13.2178 1353 114.849 571.386 411.689
3859 0 106.336 13.147 1398 117.207 571.129 410.039
3860 1 58.1032 11.3763 661 109.846 570.507 436.489
3861 0 59.0953 11.1853 661 110.62 571.309 436.085
3862 0 60.0586 10.9726 659 106.869 571.002 434.269
3863 0 63.0637 10.6876 674 107.884 570.838 433.309
3864 0 65.0518 11.6522 758 105.154 570.971 432.007
3865 0 65.0767 10.649 693 107.433 571.558 431.984
3866 0 68.0989 11.0134 750 108.1 571.087 422.991
3867 0 71.1824 10.6066 755 108.367 571.596 416.834
3868 0 73.0913 11.8071 863 106.728 571.071 418.372
3869 0 75.0919 11.2262 843 106.496 571.595 423.698
3870 0 77.1224 11.566 892 107.907 570.855 417.143
3871 0 82.1047 11.193 919 109.604 570.628 417.347
3872 0 84.1326 12.2307 1029 106.716 571.464 421.284
3873 0 87.2644 11.2532 982 109.044 571.743 419.538
3874 0 89.2856 11.3904 1017 109.923 571.34 414.746
3875 0 93.2114 11.4578 1068 110.346 571.292 415.243
3876 0 95.19 11.2827 1074 112.899 571.858 405.008
3877 0 100.124 12.6642 1268 111.106 571.593 401.083
3878 1 50.1005 11.8961 596 108.97 570.896 425.416
3879 0 53.1394 11.8744 631 111.01 571.452 427.406
3880 0 55.1694 11.4737 633 111.883 571.385 429.664
3881 0 56.0595 11.5592 648 102.032 571.878 437.943
3882 0 57.1041 11.5228 658 102.977 571.081 436.84
3883 0 59.0584 12.0051 709 102.006 571.542 435.093
3884 0 63.0478 12.2447 772 100.874 571.863 434.481
3885 0 63.1015 14.0567 887 99.2131 571.216 429.014
3886 0 64.0603 12.3633 792 103.107 571.141 433.774
3887 0 64.1018 12.3553 792 105.202 572.244 431.08
3888 0 69.047 13.5415 935 102.07 572.071 431.542
3889 0 71.0761 12.9579 921 103.714 571.352 429.254
3890 0 73.0391 12.8698 940 105.128 570.973 429.383
3891 0 74.0813 12.7428 944 106.372 571.154 425.258
3892 0 76.145 12.1347 924 108.43 571.108 425.927
3893 0 78.1426 13.2194 1033 107.126 570.719 423.916
3894 0 82.0883 13.1566 1080 107.324 570.987 424.325
3895 0 85.0981 13.5138 1150 106.803 571.685 423.238
3896 0 89.1767 13.9386 1243 106.089 571.665 422.924
3897 0 89.1132 12.7029 1132 110.588 571.538 421.15
3898 0 90.2381 13.5309 1221 110.322 571.184 419.861
3899 0 94.1901 13.2923 1252 111.081 571.256 418.96
3900 0 97.1988 13.2512 1288 111.856 571.2 411.092
3901 0 97.1988 13.2923 1292 135.515 572.214 411.283
3902 0 106.206 14.9239 1585 112.639 571.141 396.151
3903 1 55.0696 12.0756 665 115.962 570.644 420.615
3904 0 58.1487 12.898 750 114.252 571.188 421.18
3905 0 60.1049 14.1419 850 109.378 571.62 420.619
3906 0 59.0789 10.3252 610 119.643 571.384 423.849
3907 0 63.0336 12.4378 784 113.505 571.579 422.901
3908 0 62.095 12.3843 769 114.91 571.718 426.715
3909 0 64.068 12.6116 808 115.713 571.551 428.142
3910 0 69.0639 13.2631 916 112.848 571.345 433.087
3911 0 69.0493 12.0059 829 116.918 571.452 432.035
3912 0 72.0528 12.6713 913 115.57 571.89 431.637
3913 0 76.047 13.8993 1057 112.77 571.244 429.271
3914 0 79.0908 13.5035 1068 114.532 571.282 427.764
3915 0 81.1839 12.5394 1018 118.386 571.367 425.684
3916 0 83.181 14.2821 1188 115.462 571.177 414.505
3917 0 85.0878 12.775 1087 120.336 571.005 415.555
3918 0 90.1459 13.5003 1217 117.489 570.545 424.624
3919 0 91.1345 12.7723 1164 120.465 571.954 422.286
3920 0 93.1032 11.7289 1092 124 570.717 421.717
3921 0 98.2983 14.7612 1451 116.961 570.416 419.854
3922 0 101.147 16.3624 1655 113.22 570.172 417.446
3923 0 104.287 15.0547 1570 117.372 570.497 415.657
3924 0 106.231 14.412 1531 121.357 570.41 414.527
3925 1 55.1953 11.2509 621 115.576 570.454 440.662
3926 0 58.0875 11.1039 645 112.536 570.346 439.04
3927 0 63.1776 14.5463 919 113.881 570.518 440.004
3928 0 63.1113 15.1003 953 116.822 569.475 437.381
3929 0 65.2328 12.877 840 122.307 570.51 436.887
3930 0 69.3968 14.0208 973 118.308 569.986 435.776
3931 0 69.3177 13.9503 967 120.275 570.283 436.936
3932 0 71.3025 14.4034 1027 119.572 570.311 434.969
3933 0 73.2176 13.1799 965 122.906 569.21 434.377
3934 0 75.1713 13.4626 1012 122.098 569.648 433.256
3935 0 80.3739 14.6192 1175 119.559 569.357 428.99
3936 0 83.2696 14.9875 1248 117.785 569.854 430.05
3937 0 85.2614 15.1768 1294 117.434 569.926 429.658
3938 0 89.3263 14.5758 1302 119.439 569.971 425.511
3939 0 92.3989 14.5023 1340 119.289 570.429 425.574
3940 0 95.3284 15.1581 1445 116.518 570.371 424.473
3941 0 99.2995 14.0484 1395 117.553 570.44 423.404
3942 1 51.1107 10.4088 532 113.22 569.942 441.346
3943 0 53.1148 10.4114 553 111.91 570.347 440.401
3944 0 57.0804 12.1408 693 105.834 570.886 439.465
3945 0 57.181 10.9477 626 109.623 570.149 439.997
