time division length width area intensity CMx CMy
0 0 24.0188 10.4502 251 143.231 432.351 493.12
1 0 23.0148 9.90667 228 146.066 433.395 493.575
2 0 25.0254 9.83003 246 143.581 433.118 493.467
3 0 24.0032 9.04048 217 146.221 432.429 493.687
4 0 26.0108 10.8417 282 139.784 433.209 492.365
5 0 27.0447 11.1297 301 138.864 433.625 492.233
6 0 27.0161 11.4376 309 138.052 432.832 491.43
7 0 28.0121 10.9239 306 137.523 432.739 491.856
8 0 26.0151 11.4549 298 138.305 433.174 492.087
9 0 28.0708 11.3997 320 135.691 432.222 491.766
10 0 29.0136 10.4434 303 138.845 432.69 491.495
11 0 30.0244 11.2242 337 135.024 432.92 492.03
12 0 29.0123 11.7536 341 134.349 433.076 491.918
13 0 30.0335 11.6204 349 135.395 433.026 490.971
14 0 32.012 12.2766 393 131.071 431.987 491.043
15 0 34.0361 13.4563 458 127.325 432.05 490.367
16 0 34.0113 12.437 423 130.527 432.563 489.752
17 0 34.043 10.5749 360 134.319 432.778 490.953
18 0 36.0069 11.7755 424 130.788 431.222 490.462
19 0 36.0273 11.9076 429 131.193 431.818 489.904
20 0 37.0412 12.5536 465 130.404 431.267 488.557
21 0 39.1091 12.1455 475 131.145 431.526 487.735
22 0 39.043 12.7552 498 129.452 430.769 488.576
23 0 41.039 11.55 474 129.939 430.42 490.141
24 0 42.0901 13.2098 556 127.059 430.165 486.998
25 0 44.17 12.9726 573 127.15 430.398 486.627
26 0 46.0529 13.0285 600 125.14 430.313 487.058
27 0 46.035 12.5991 580 128.229 430.228 484.788
28 0 47.0343 12.9267 608 127.859 430.383 485.808
29 0 48.0546 12.3818 595 129.587 430.022 484.946
30 0 50.078 12.82 642 127.763 429.981 484.741
31 0 51.0798 12.7643 652 128.79 430.463 482.525
32 0 54.0652 12.5219 677 128.092 429.826 482.744
33 0 56.069 13.0375 731 126.056 429.57 481.944
34 0 60.0626 13.5026 811 123.656 429.757 482.728
35 0 61.0772 12.9836 793 127.668 429.47 480.311
36 0 63.0414 13.9908 882 126.091 429.439 478.679
37 0 66.1057 14.8096 979 124.092 429.276 477.38
38 0 70.0711 13.9144 975 126.233 428.887 477.554
39 0 72.0439 14.4356 1040 126.122 428.615 475.325
40 0 74.0944 14.1711 1050 127.904 429.066 474.533
41 0 76.1242 14.2924 1088 127.977 429.058 474.444
42 0 78.063 13.6428 1065 130.046 429.243 473.175
43 0 81.1758 13.6371 1107 131.628 429.434 471.06
44 0 85.0705 14.0589 1196 131.376 428.705 469.081
45 1 47.0444 12.2437 576 131.003 428.924 489.033
46 0 46.0579 12.658 583 134.431 427.852 485.012
47 0 49.0376 11.5218 565 132.34 427.494 486.037
48 0 51.0305 12.7767 652 130.055 428.305 486.09
49 0 54.0845 13.1461 711 125.044 429.435 486.048
50 0 57.0285 12.3447 704 127.25 428.403 484.859
51 0 58.0398 12.9394 751 125.447 429.095 484.178
52 0 61.0482 13.0553 797 125.529 428.369 481.661
53 0 64.026 13.8069 884 124.023 428.957 482.119
54 0 67.1332 13.8382 929 123.927 428.956 480.405
55 0 67.0281 13.4272 900 126.567 428.463 477.807
56 0 73.0803 14.4362 1055 123.074 428.048 478.595
57 0 74.0755 13.7697 1020 127.788 428.482 475.481
58 0 77.0476 13.9914 1078 127.328 427.966 474.411
59 0 80.045 14.0421 1124 127.71 428.215 474.304
60 0 82.1134 14.0294 1152 129.74 428.345 472.852
61 0 86.1276 13.7122 1181 129.882 428.323 471.837
62 0 86.0678 13.0362 1122 135.956 427.76 469.048
63 0 92.1035 15.0266 1384 128.1 427.82 467.278
64 0 95.1054 14.9098 1418 129.817 427.073 466.937
65 0 98.1826 14.3101 1405 132.678 427.576 464.243
66 0 103.112 14.6248 1508 130.832 427.69 461.629
67 0 104.121 14.5887 1519 131.142 427.955 461.882
68 0 109.127 14.5427 1587 130.818 427.59 458.072
69 0 111.105 14.0407 1560 131.876 427.567 457.745
70 0 116.09 13.9289 1617 130.668 426.378 456.584
71 0 121.099 15.0208 1819 127.107 427.293 452.782
72 0 125.119 14.6101 1828 126.853 427.254 449.515
73 1 62.0507 11.9741 743 125.668 426.155 481.413
74 0 65.1204 12.0085 782 124.014 426.673 479.382
75 0 66.0288 11.3738 751 122.84 428.166 482.185
76 0 68.0352 12.2731 835 122.09 428.463 480.255
77 0 71.039 12.4579 885 122.803 428.305 479.029
78 0 74.0389 13.1687 975 121.409 428.073 477.072
79 0 77.1347 12.9643 1000 121.772 427.561 476.964
80 0 79.0712 12.5077 989 124.838 427.455 475.786
81 0 82.1806 12.7281 1046 124.634 428.076 473.364
82 0 87.052 13.67 1190 120.906 427.979 470.672
83 0 89.0533 12.1949 1086 124.938 428.711 469.496
84 0 91.0538 12.6848 1155 123.951 429.104 468.829
85 0 96.1638 13.1754 1267 121.108 428.689 465.92
86 0 99.0768 12.9798 1286 121.96 427.724 462.662
87 0 101.135 12.1225 1226 123.582 427.901 464.312
88 0 106.166 12.4711 1324 120.896 427.761 463.774
89 0 111.238 13.4126 1492 116.985 427.306 459.346
90 0 117.259 13.1163 1538 113.875 426.322 457.875
91 1 64.0859 10.564 677 113.991 426.078 484.199
92 0 67.0447 12.0517 808 108.009 427.903 482.047
93 0 67.1217 10.5182 706 112.235 426.436 483.249
94 0 70.1031 11.7113 821 108.855 426.213 481.153
95 0 73.0827 11.8359 865 108.658 426.454 478.037
96 0 76.0482 11.6637 887 108.532 426.028 477.513
97 0 77.0603 10.667 822 111.575 426.64 476.288
98 0 79.0772 10.7237 848 111.448 426.779 474.222
99 0 86.1134 12.2281 1053 106.927 426.629 472.891
100 0 88.1287 11.869 1046 108.599 426.359 471.128
101 0 91.0911 11.5159 1049 111.178 427.039 470.11
102 0 93.1728 11.8167 1101 111.19 427.28 467.707
103 0 100.118 11.7661 1178 111.618 427.686 464.767
104 0 103.078 11.3118 1166 112.373 427.542 463.672
105 0 105.21 10.978 1155 112.577 427.816 462.039
106 1 56.1021 11.8534 665 103.997 427.438 486.28
107 0 59.1108 11.8422 700 104.826 427.511 486.814
108 0 59.0842 11.4921 679 106.505 428.281 485.303
109 0 62.0455 11.8784 737 105.206 427.235 485.43
110 0 61.075 10.0041 611 108.057 426.807 485.565
111 0 65.0346 10.9634 713 106.4 426.806 483.637
112 0 67.0975 10.8499 728 106.468 426.092 482.764
113 0 66.0174 10.0731 665 109.953 426.576 481.435
114 0 72.1446 12.2532 884 103.357 427.77 480.853
115 0 76.0666 11.1218 846 106.423 427.193 478.796
116 0 76.0808 10.8963 829 107.657 427.802 478.965
117 0 79.0757 12.0138 950 106.391 427.233 476.718
118 0 83.1265 11.669 970 107.176 427.784 476.39
119 0 86.1429 12.0265 1036 108.513 428.116 474.079
120 0 88.0474 11.9822 1055 107.937 427.779 473.155
121 1 49.0198 10.7304 526 105.534 427.363 493.595
122 0 49.0994 10.713 526 106.029 428.652 488.084
123 0 49.0905 11.7946 579 105.244 428.225 488.406
124 0 51.0554 10.9489 559 104.245 427.617 490.025
125 0 54.0482 11.5268 623 102.795 426.78 490.522
126 0 55.0895 12.7066 700 101.189 427.434 488.567
127 0 53.0249 11.1268 590 107.198 427.822 486.93
128 0 56.0577 11.3098 634 106.224 428.27 487.164
129 0 59.0429 12.3808 731 103.67 427.456 486.042
130 0 61.0426 12.3029 751 103.716 427.963 485.209
131 0 62.0329 11.9292 740 105.151 428.353 485.369
132 0 60.0999 11.4975 691 109.007 428.077 483.868
133 0 63.065 12.4316 784 106.69 427.517 482.258
134 0 66.0476 10.6136 701 110.832 427.519 481.098
135 0 67.061 12.5706 843 107.034 426.865 478.936
136 0 70.0398 12.0789 846 108.766 427.598 478.81
137 0 73.1356 12.1692 890 108.039 427.051 477.488
138 0 74.1097 12.0227 891 108.061 427.267 476.42
139 0 75.1264 10.4491 785 111.051 427.061 479.121
140 0 79.0715 11.2809 892 109.141 427.027 475.953
141 0 83.131 11.0669 920 110.524 426.658 473.262
142 0 86.2706 13.1215 1132 106.617 426.903 472.186
143 0 88.2507 11.558 1020 110.138 426.527 472.002
144 0 90.2825 10.3453 934 113.647 426.436 468.497
145 0 95.2601 12.2927 1171 108.221 426.922 469.346
146 0 98.2719 12.8318 1261 108.151 426.692 465.912
147 1 48.2242 9.72542 469 111.994 426.783 487.742
148 0 50.1883 11.3971 572 105.977 427.152 488.016
149 0 52.0508 12.6991 661 99.0862 425.911 488.505
150 0 51.0608 11.4569 585 104.699 425.043 488.145
151 0 53.0544 10.7625 571 106.508 424.606 488.04
152 0 56.0504 11.6324 652 104.722 424.994 486.891
153 0 57.1203 12.7976 731 103.146 424.555 486.932
154 0 58.1341 11.7659 684 106.56 425.152 485.206
155 0 59.101 12.3687 731 105.523 424.694 483.763
156 0 62.0582 13.8257 858 102.9 424.946 483.323
157 0 63.0201 12.8372 809 104.944 424.888 482.46
158 0 64.1077 13.0406 836 104.766 425.435 482.522
159 0 66.0713 12.8498 849 105.724 424.829 480.016
160 0 67.0592 12.5561 842 107.005 425.357 478.096
161 0 69.1857 12.0112 831 108.745 424.4 478.928
162 0 72.2182 12.1438 877 109.116 424.62 477.933
163 0 76.1941 12.8619 980 106.316 425.035 477.966
164 0 76.2207 11.9521 911 109.39 425.268 475.845
165 0 79.2195 12.2066 967 108.941 426.143 474.515
166 0 81.244 11.8901 966 111.168 426.456 471.763
167 0 85.2609 12.104 1032 110.837 426.545 471.157
168 0 87.3204 11.3948 995 112.734 426.39 471.043
169 0 90.3214 13.5184 1221 108.907 426.127 464.825
170 1 49.2442 10.0519 495 110.758 426.681 486.966
171 0 47.1003 9.32054 439 107.929 426 481.544
172 0 51.122 10.5043 537 99.5121 425.831 482.527
173 0 50.1274 10.2539 514 99.9475 426.074 484.739
174 0 53.1278 10.0889 536 100.674 426.134 481.897
175 0 55.0334 11.1023 611 98.9673 425.74 481.784
176 0 57.1173 10.8374 619 99.8772 425.792 481.402
177 0 57.022 10.0487 573 102.887 425.887 480.855
178 0 60.0256 10.7621 646 100.83 426.019 479.811
179 0 59.0364 9.63812 569 104.995 425.392 477.079
180 0 62.06 10.7477 667 103.772 425.333 477.475
181 0 63.0694 10.7025 675 104.828 425.859 474.735
182 0 68.0851 11.6178 791 103.341 425.745 475.734
183 0 69.0874 11.4058 788 104.589 425.562 475.977
184 0 72.1132 12.3694 892 102.157 426.239 475.953
185 0 74.1627 11.7175 869 104.951 426.348 474
186 0 77.0633 12.5352 966 105.414 426.768 471.109
187 0 80.0663 13.2016 1057 104.802 426.829 469.588
188 0 82.1345 12.2482 1006 107.304 426.31 469.667
189 0 85.1466 12.9189 1100 106.115 426.069 469.275
190 0 89.1342 13.1038 1168 106.424 426.264 466.576
191 0 91.1297 12.8059 1167 109.163 425.71 462.977
192 0 93.046 12.9828 1208 111.351 426.164 460.322
193 0 98.1539 14.2633 1400 109.511 426 459.618
194 0 100.229 12.1622 1219 113.272 426.194 459.597
195 1 51.053 9.32365 476 102.109 427.134 485.838
196 0 53.023 10.2597 544 101.441 426.993 484.572
197 0 54.2031 11.42 619 99.4491 426.317 482.074
198 0 56.0788 10.5209 590 102.025 427.554 484.066
199 0 56.1199 10.6201 596 101.8 426.648 480.919
200 0 58.0538 10.6797 620 102.297 426.306 481.084
201 0 61.0974 11.9318 729 99.4732 425.796 480.824
202 0 61.102 11.2108 685 101.102 427.206 480.864
203 0 62.0714 11.6479 723 101.988 426.427 477.419
204 0 64.0498 12.0375 771 101.608 426.713 476.599
205 0 67.2387 11.1989 753 101.21 426.157 477.72
206 0 69.1074 11.2868 780 101.954 426.345 477.465
207 0 73.0425 11.6644 852 101.634 426.54 474.926
208 0 74.0617 11.6119 860 101.321 425.885 472.72
209 0 77.1386 12.1729 939 103.073 425.478 469.979
210 0 77.1019 10.8039 833 106.779 425.666 466.903
211 0 82.1773 13.191 1084 102.118 425.524 465.518
212 0 86.2132 12.7011 1095 111.247 425.658 469.836
213 0 86.1662 12.5571 1082 111.499 425.671 469.452
214 0 88.1586 11.2298 990 114.793 425.232 468.029
215 0 93.1103 14.0586 1309 107.73 425.257 465.186
216 0 94.1938 12.4424 1172 110.046 424.86 464.564
217 0 100.151 13.7192 1374 105.96 424.911 462.681
218 0 102.236 13.3026 1360 107.119 425.649 460.757
219 0 105.386 13.7968 1454 106.492 426.144 458.513
220 0 107.388 13.8284 1485 106.208 426.268 458.803
221 0 111.335 14.2543 1587 106.689 426.306 454.381
222 0 116.517 14.0323 1635 105.92 426.768 456.271
223 1 64.2667 11.9813 770 107.016 426.426 477.519
224 0 64.2415 11.9393 767 107.949 426.205 471.557
225 0 68.2107 13.0478 890 105.406 425.982 475.938
226 0 70.0926 12.4835 875 106.749 425.05 478.175
227 0 71.0787 12.0289 855 108.392 424.677 477.523
228 0 76.1799 12.8905 982 105.285 425.302 476.515
229 0 75.1193 11.8212 888 109.078 425.523 475.671
230 0 78.1624 11.0923 867 110.867 426.304 473.58
231 0 82.1817 13.2755 1091 106.259 427.1 471.872
232 0 84.1682 12.5938 1060 108.387 427.06 470.497
233 0 89.1968 13.7449 1226 105.476 427.304 470.398
234 0 90.1524 12.8449 1158 103.004 427.405 470.794
235 0 94.0966 13.6881 1288 102.744 427.022 466.964
236 0 96.2505 11.8025 1136 106.984 427.38 467.362
237 0 99.1028 11.3014 1120 109.08 427.34 465.098
238 0 103.205 11.3851 1175 108.371 427.074 464.546
239 1 54.1155 11.3461 614 104.48 427.49 488.15
240 0 55.1615 12.8532 709 103.896 427.488 485.684
241 0 57.0736 13.7892 787 103.236 427.597 485.339
242 0 58.0902 13.3069 773 100.981 427.259 484.821
243 0 58.08 12.1557 706 104.557 426.98 485.37
244 0 59.1556 12.3741 732 104.5 426.837 483.919
245 0 62.175 12.4326 773 104.22 427.433 483.708
246 0 65.1209 12.2081 795 104.226 427.147 481.728
247 0 68.1042 12.7305 867 102.768 426.805 480.651
248 0 67.0525 13.2881 891 102.911 427.198 480.169
249 0 68.0408 12.3308 839 107.297 426.416 478.719
250 0 72.0882 13.206 952 105.689 427.128 476.778
251 0 72.1235 12.3122 888 109.3 427.613 473.623
252 0 75.091 13.0508 980 107.377 427.331 473.787
253 0 78.1611 11.7834 921 111.638 426.331 471.866
254 0 82.1619 13.9116 1143 106.654 426.926 471.434
255 0 85.1278 13.5913 1157 108.257 427.312 471.869
256 0 88.093 13.463 1186 109.031 427.263 468.374
257 0 90.0905 12.6206 1137 112.513 427.646 467.648
258 0 94.0835 12.9459 1218 111.539 427.709 466.314
259 1 50.028 11.2937 565 115.696 427.788 487.733
260 0 51.0206 12.0735 616 113.696 427.602 488.13
261 0 54.0471 11.5455 624 110.593 426.561 488.7
262 0 54.0362 12.5657 679 107.935 426.669 487.328
263 0 55.0764 12.3465 680 109.532 427.621 487.065
264 0 55.086 12.1991 672 112.348 426.433 484.991
265 0 59.0385 14.2619 842 105.645 426.334 485.757
266 0 59.0198 11.996 708 113.486 426.836 485.532
267 0 62.108 12.5105 777 112.449 427.066 484.093
268 0 63.1329 10.9135 689 114.395 427.817 485.896
269 0 65.0433 12.853 836 110.89 427.432 481.817
270 0 66.1057 12.8733 851 113.314 426.94 479.836
271 0 68.0912 12.6595 862 115.086 427.444 478.444
272 0 70.0947 13.2392 928 113.787 427.591 478.81
273 0 72.0922 12.7198 917 116.13 427.552 479.277
274 0 76.1346 12.7275 969 115.547 427.628 477.534
275 0 78.0953 12.7664 997 116.64 427.199 475.812
276 0 80.168 12.8979 1034 116.931 427.074 474.03
277 0 83.0842 12.3008 1022 117.162 427.417 472.773
278 0 86.0542 12.4224 1069 115.884 428.142 471.463
279 0 91.1617 12.6698 1155 115.389 427.378 470.572
280 1 49.0119 11.4054 559 118.936 427.889 489.748
281 0 53.098 12.3168 654 116.205 428.176 489.391
282 0 53.0497 12.3281 654 112.683 428.985 487.864
283 0 53.0148 12.1098 642 113.681 427.143 487.664
284 0 55.0363 13.8091 760 108.529 428.117 485.962
285 0 58.0962 12.6342 734 110.105 427.345 485.198
286 0 60.0558 12.938 777 109.097 427.614 485.246
287 0 60.0336 11.4769 689 112.344 427.091 484.293
288 0 64.1073 13.5554 869 106.763 427.071 482.983
289 0 66.0629 12.8211 847 109.339 428.005 481.325
290 0 67.1006 12.7868 858 108.524 427.71 481
291 0 71.1623 12.9563 922 106.958 427.905 480.492
292 0 72.091 12.401 894 109.087 427.261 479.188
293 0 76.1653 14.4817 1103 102.852 427.843 478.107
294 0 77.1182 12.1372 936 109.609 427.487 475.376
295 0 80.0932 12.9849 1040 107.414 427.676 474.628
296 0 84.0837 12.9514 1089 107.807 427.869 474.44
297 1 44.0406 10.3768 457 109.838 428.19 493.681
298 0 45.0237 10.3501 466 110.421 427.925 490.44
299 0 46.0482 11.3142 521 103.904 427.403 488.52
300 0 48.0496 11.9252 573 107.565 427.686 490.161
301 0 46.0239 11.3637 523 108.417 426.031 491.662
302 0 47.0312 11.7369 552 107.576 425.801 492.676
303 0 49.0444 11.1939 549 108.574 425.552 491.612
304 0 51.0425 11.0496 564 109.73 425.574 489.688
305 0 52.129 11.9127 621 108.728 425.823 488.472
306 0 53.0469 11.1976 594 110.714 426.342 488.721
307 0 55.0941 11.3624 626 110.38 425.566 486.652
308 0 56.0653 11.3439 636 111.349 425.406 486.981
309 0 59.0834 11.4414 676 109.342 426.167 486.982
310 0 59.0367 10.8915 643 111.068 425.236 487.855
311 0 62.0731 12.3242 765 108.77 425.654 484.197
312 0 64.0687 10.9882 704 110.825 425.821 484.412
313 0 65.1008 10.5682 688 112.209 425.843 484.097
314 0 67.0972 10.7456 721 111.427 425.853 481.32
315 0 69.0953 11.9545 826 110.561 425.671 479.507
316 0 73.1186 12.131 887 106.795 425.299 480.856
317 0 75.0719 13.6003 1021 101.927 425.301 478.572
318 0 76.1813 11.6958 891 106.714 426.153 475.446
319 0 79.0938 11.4295 904 107.613 425.749 476.329
320 0 83.0667 10.9912 913 108.096 425.587 473.283
321 0 86.1363 10.6924 921 108.204 425.412 473.95
322 0 87.1303 11.0065 959 109.748 425.955 470.131
323 0 93.2455 14.2956 1333 104.356 426.584 469.206
324 0 90.3062 9.2131 832 112.956 425.314 462.197
325 1 49.0771 10.4326 512 106.648 427.621 484.898
326 0 48.0126 9.62247 462 109.89 427.673 481.874
327 0 53.0836 11.529 612 104.773 427.881 483.418
328 0 53.0396 12.123 643 104.28 427.176 482.423
329 0 53.0853 11.7358 623 106.249 427.352 481.835
330 0 56.0537 11.8101 662 105.573 427.091 479.698
331 0 58.1029 12.5123 727 104.278 426.922 480.979
332 0 58.0111 13.9973 812 102.921 427.586 478.861
333 0 60.08 10.8688 653 109.493 426.923 477.023
334 0 60.1097 11.0631 665 109.971 427.218 475.902
335 0 66.0455 12.4308 821 105.049 427.428 476.452
336 0 67.1504 11.3923 765 102.949 425.911 474.58
337 0 71.0713 11.9598 850 101.206 426.826 472.812
338 0 73.0591 10.9911 803 104.085 426.807 472.254
339 0 76.1375 11.5318 878 102.077 426.388 473.657
340 0 76.1294 12.1372 924 103.464 425.788 471.673
341 0 80.1173 11.9949 961 102.817 426.6 471.904
342 0 84.1342 12.7653 1074 102.493 426.904 469.128
343 0 85.0771 12.953 1102 103.672 427.081 467.494
344 0 88.0576 12.8211 1129 104.058 426.991 470.091
345 0 90.1187 13.5488 1221 104.186 427.386 466.608
346 0 93.2485 11.6356 1085 109.44 427.718 464.576
347 0 97.2057 12.849 1249 107.171 426.574 463.106
348 0 99.1329 12.8514 1274 107.703 426.144 464.247
349 0 102.124 14.0614 1436 109.749 427.044 462.873
350 0 107.1 14.1083 1511 109.625 426.94 461.355
351 0 109.288 12.0965 1322 114.375 427.047 459.977
352 0 113.154 13.8396 1566 111.927 426.264 456.395
353 0 118.133 13.5187 1597 112.71 426.369 456.034
354 0 124.317 12.4359 1546 114.202 427.104 454.818
355 1 66.0916 11.6808 772 108.31 427.001 477.67
356 0 68.0781 10.7817 734 111.466 426.729 476.763
357 0 72.1572 11.7937 851 108.942 425.918 479.64
358 0 73.1673 12.8883 943 112.306 426.372 478.809
359 0 76.0658 12.647 962 108.164 427.063 479.941
360 0 78.0899 13.0363 1018 109.394 426.381 476.65
361 0 80.0731 12.4261 995 110.515 426.568 474.954
362 0 84.1516 13.0122 1095 108.28 426.544 475.553
363 0 84.1194 11.9473 1005 113.521 426.822 473.103
364 0 87.0901 12.9062 1124 112.304 426.435 472.198
365 0 90.0345 12.8839 1160 112.605 425.992 470.214
366 0 94.1063 13.4529 1266 111.028 425.926 469.049
367 0 97.0693 13.3925 1300 110.361 426.449 468.188
368 0 99.0564 13.0835 1296 112.842 426.87 465.301
369 0 103.272 12.8011 1322 112.341 426.62 464.212
370 0 106.202 14.5194 1542 109.739 426.051 463.138
371 0 109.312 13.3471 1459 114.1 426.731 460.348
372 0 111.147 14.1524 1573 112.766 426.781 458.912
373 0 115.106 13.935 1604 113.666 426.83 460.636
374 0 118.139 13.1456 1553 116.448 426.081 456.355
375 0 121.174 12.676 1536 118.445 426.249 454.121
376 0 127.137 13.6938 1741 115.017 425.962 453.087
377 0 130.125 13.3564 1738 115.784 427.333 451.284
378 1 69.0678 13.0596 902 105.078 425.384 482.559
379 0 70.0924 13.0257 913 107.432 425.251 479.712
380 0 74.0651 12.3675 916 110.604 424.987 479.813
381 0 72.1413 11.4775 828 115.893 425.076 477.306
382 0 78.0681 12.3482 964 112.354 425.774 478.488
383 0 79.0747 13.3418 1055 112.1 425.691 474.231
384 0 80.0608 12.2907 984 114.937 425.649 474.91
385 0 83.0967 12.6118 1048 113.631 425.383 474.992
386 0 85.0919 12.6452 1076 115.056 425.856 473.05
387 0 89.0583 12.082 1076 115.224 426.242 471.422
388 0 91.1039 12.1619 1108 115.512 426.413 469.421
389 0 94.1038 12.5181 1178 114.582 426.306 468.165
390 0 96.0858 12.8843 1238 114.347 426.489 467.393
391 0 98.0663 14.0109 1374 112.092 425.608 464.371
392 0 102.097 13.1444 1342 113.722 426.273 462.884
393 0 106.179 13.0911 1390 112.863 426.152 460.927
394 0 109.082 13.8519 1511 110.692 426.69 461.261
395 0 108.062 12.4744 1348 111.003 426.854 460.984
396 0 113.112 12.103 1369 112.394 426.364 461.702
397 1 64.0771 11.2053 718 110.666 426.779 483.338
398 0 66.107 11.9806 792 109.245 427.376 479.505
399 0 67.1276 11.5601 776 109.771 427.648 480.006
400 0 70.1366 11.6059 814 101.744 428.294 481.84
401 0 71.1895 11.0831 789 102.52 427.684 481.929
402 0 72.1333 9.56562 690 107.186 428.255 479.148
403 0 75.1612 10.5906 796 103.712 428.22 479.476
404 0 81.1262 11.932 968 99.5775 428.364 477.718
405 0 82.119 10.9719 901 102.34 427.834 475.111
406 0 85.1982 11.9369 1017 100.723 427.857 472.755
407 0 89.168 11.5624 1031 100.776 428.079 474.181
408 0 92.163 11.4688 1057 102.419 428.563 472.948
409 0 95.1746 11.1269 1059 103.215 428.164 471.233
410 0 99.1277 11.349 1125 103.577 428.63 467.122
411 1 50.0451 10.0709 504 104.442 429.155 489.363
412 0 55.1057 11.3418 625 101.989 428.392 489.592
413 0 56.0644 11.9505 670 106.364 429.078 487.146
414 0 56.0611 12.5399 703 100.129 427.35 488
415 0 55.0432 11.391 627 104.118 427.455 489.097
416 0 58.066 11.4353 664 103.867 427.048 485.851
417 0 59.0558 11.2944 667 104.852 426.937 485.253
418 0 61.1333 11.9248 729 104.742 426.675 484.731
419 0 64.1114 11.7452 753 105.552 427.359 484.248
420 0 68.3785 12.9719 887 102.183 428.008 484.559
421 0 71.2762 12.206 870 104.514 428.002 482.941
422 0 69.19 11.6346 805 108.575 428.566 482.552
423 0 73.2256 12.0859 885 107.715 429.006 482.227
424 0 76.2561 12.9563 988 107.553 428.237 479.924
425 0 79.2001 13.5606 1074 106.196 427.773 478.835
426 0 80.1232 12.7554 1022 109.642 428.727 478.485
427 0 82.2081 13.2347 1088 110.392 428.575 475.751
428 0 86.1629 13.5905 1171 107.304 428.569 476.769
429 0 87.1661 12.5852 1097 112.189 428.429 473.071
430 0 90.0575 12.7474 1148 111.994 428.702 471.946
431 1 51.0498 13.0461 666 105.884 428.962 493.048
432 0 50.1653 12.0601 605 110.656 428.405 490.764
433 0 52.1048 12.6092 657 107.901 428.161 490.186
434 0 52.0128 13.0353 678 106.706 428.127 492.114
435 0 54.0358 12.4917 675 107.88 428.296 491.145
436 0 55.1335 12.1705 671 107.276 429.139 491.709
437 0 57.0724 12.16 694 109.514 427.876 488.625
438 0 58.0613 12.6246 733 108.824 428.842 485.441
439 0 62.1355 13.8085 858 104.355 428.741 486.232
440 0 61.1244 12.0247 735 109.676 429.287 485.574
441 0 63.0593 13.0829 825 106.907 428.896 483.652
442 0 66.0601 13.851 915 104.067 428.883 483.941
443 0 68.0456 12.5357 853 107.417 428.446 483.072
444 0 71.0912 13.124 933 107.479 428.476 481.038
445 0 72.078 13.2912 958 108.104 429.24 479.856
446 0 77.1283 13.1858 1017 106.739 429.404 480.381
447 0 79.2348 13.3401 1057 107.752 429.186 478.002
448 0 81.2663 14.0895 1145 106.831 429.547 475.999
449 0 83.2499 14.4625 1204 106.659 429.138 472.345
450 0 87.2366 14.4664 1262 106.54 428.463 473.419
451 0 88.2719 14.1155 1246 108.331 428.448 471.742
452 0 93.3697 15.0263 1403 105.208 428.934 471.376
453 0 94.2788 14.5102 1368 107.746 428.758 467.951
454 0 99.122 13.67 1355 108.516 428.396 467.25
455 0 101.148 14.3156 1448 107.977 428.364 467.261
456 0 102.124 13.5424 1383 110.831 427.471 466.166
457 0 104.103 13.7652 1433 115.712 428.128 463.149
458 0 108.218 12.5672 1360 118.115 427.515 465.44
459 0 111.133 12.5976 1400 118.984 427.75 462.234
460 0 118.168 13.3708 1580 116.463 427.944 459.655
461 0 119.111 12.8703 1533 116.546 428.382 457.886
462 0 127.183 14.145 1799 113.092 427.7 455.481
463 0 130.148 12.8546 1673 118.048 428.528 454.057
464 0 133.173 14.3873 1916 116.582 428.523 447.621
465 1 72.1194 14.1155 1018 111.382 428.406 481.721
466 0 73.1098 13.2951 972 114.633 427.109 478.378
467 0 75.1304 12.9109 970 112.79 428.023 476.526
468 0 79.1108 14.0815 1114 110.346 427.697 475.452
469 0 82.0767 13.7554 1129 111.562 427.744 474.953
470 0 82.0409 12.4084 1018 117.638 427.629 474.388
471 0 85.0884 13.3391 1135 116.773 427.498 473.724
472 0 87.0927 12.1135 1055 119.581 428.027 474.287
473 0 89.1442 13.2931 1185 118.329 427.811 471.778
474 0 94.2142 13.3738 1260 119.021 427.828 468.437
475 0 98.255 14.2893 1404 116.119 428.052 468.798
476 0 98.1251 13.4726 1322 118.728 428.369 469.206
477 0 103.122 13.9931 1443 118.202 427.633 465.398
478 0 106.116 13.5889 1442 119.281 428.741 463.379
479 0 110.219 14.4258 1590 117.616 428.416 461.657
480 0 114.195 13.5995 1553 118.153 427.764 458.125
481 0 118.144 13.4328 1587 118.998 426.957 454.121
482 0 121.107 13.8059 1672 118.322 428.361 449.499
483 0 126.201 13.9856 1765 119.653 427.463 444.228
484 1 66.0922 12.301 813 115.831 428.267 473.294
485 0 69.2119 11.8043 817 116.732 428.47 473.778
486 0 69.0749 10.9157 754 111.875 428.387 477.557
487 0 71.0987 10.4925 746 112.891 428.688 477.267
488 0 78.0641 11.5546 902 109.82 428.733 476.234
489 0 80.0954 12.3603 990 110.314 427.694 472.016
490 0 80.0287 10.6337 851 115.317 427.717 470.414
491 0 87.0936 11.3097 985 113.507 427.843 469.146
492 0 90.0774 12.3227 1110 111.241 428.279 468.214
493 0 92.064 12.2089 1124 113.078 427.899 466.319
494 0 93.1167 11.7487 1094 115.494 427.659 464.217
495 0 98.1674 11.7962 1158 115.288 427.486 462.658
496 0 101.201 12.6482 1280 116.678 428.6 465.412
497 0 103.131 13.3907 1381 124.205 429.18 464.222
498 0 108.117 13.2172 1429 125.065 429.04 461.104
499 0 113.177 14.358 1625 120.812 428.688 460.513
500 0 117.106 13.7397 1609 125.585 429.334 456.894
501 0 119.137 12.2129 1455 131.109 429.291 458.175
502 1 66.0388 12.1141 800 126.179 429.289 481.665
503 0 68.1681 11.677 796 129.286 430.381 479.616
504 0 71.207 11.3332 807 130.473 429.476 477.414
505 0 75.257 12.7164 957 125.492 429.059 477.922
506 0 76.1953 12.1005 922 128.145 429.567 476.328
507 0 78.1323 12.8372 1003 124.532 429.441 478.305
508 0 81.188 13.4872 1095 124.825 429.292 473.233
509 0 83.3669 11.4074 951 129.877 429.842 473.331
510 0 85.21 12.4516 1061 127.661 428.609 470.663
511 0 87.3665 12.1214 1059 126.855 428.573 470.79
512 0 93.3914 12.7956 1195 123.987 429.042 468.339
513 0 94.3992 12.7226 1201 125 428.926 465.926
514 1 47.4318 9.3819 445 124.726 428.081 485.593
515 0 49.1233 10.1174 497 116.594 429.449 489.314
516 0 51.1583 11.3178 579 109.211 429.549 488.796
517 0 54.0731 11.355 614 108.8 429.225 487.541
518 0 54.0826 11.8707 642 110.086 429.514 487.466
519 0 55.0665 11.7313 646 109.929 429.697 486.797
520 0 57.0355 12.2555 699 108.993 429.259 484.87
521 0 59.0541 11.7858 696 110.299 428.48 486.266
522 0 60.0919 10.5505 634 112.763 429.035 485.576
523 0 63.0522 11.6253 733 111.156 428.711 483.637
524 0 64.0455 11.2264 719 112.719 429.366 483.613
525 0 67.0679 12.4352 834 109.829 429.832 481.922
526 0 67.0838 12.79 858 110.854 428.92 482.353
527 0 71.1039 11.8137 840 112.894 429.168 478.567
528 0 71.117 12.4021 882 112.579 429.266 479.119
529 0 75.0899 13.4106 1007 110.732 429.214 477.307
530 0 78.0921 12.0627 942 114.532 429.063 475.1
531 0 80.105 14.7182 1179 108.782 429.501 474.936
532 0 84.0966 13.5915 1143 110.911 428.881 476.074
533 0 85.0615 12.7555 1085 115.268 428.817 473.851
534 0 88.0573 13.5366 1192 114.351 429.121 470.965
535 0 92.0523 13.6336 1255 113.994 428.621 470.926
536 0 94.0702 13.3411 1255 115.016 428.853 471.065
537 1 52.1141 12.3383 643 113.953 428.582 489.947
538 0 51.0465 10.0497 513 116.339 429.144 491.581
539 0 53.2462 11.7943 628 112.876 428.979 486.748
540 0 54.0836 11.7226 634 118.257 429.353 489.987
541 0 56.0222 12.6914 711 115.537 429.263 488.657
542 0 60.0827 12.7158 764 113.304 429.157 487.859
543 0 58.0737 11.0721 643 118.042 429.064 488.961
544 0 59.0568 12.2255 722 116.403 429.05 485.535
545 0 62.1448 12.0525 749 115.494 428.8 486.449
546 0 63.0901 11.2379 709 114.604 428.942 484.807
547 0 65.1506 11.3737 741 113.984 429.555 483.416
548 0 69.1413 11.773 814 112.26 429.801 481.73
549 0 70.1074 11.7962 827 112.348 429.605 480.036
550 0 72.2726 11.5535 835 111.832 429.711 482.129
551 0 74.1323 11.3311 840 112.186 429.518 479.863
552 0 79.2116 11.968 948 109.737 429.61 478.547
553 0 82.2822 12.4207 1022 108.511 428.52 474.954
554 0 84.2086 11.3053 952 111.058 429.113 475.069
555 0 84.1348 12.064 1015 109.674 428.587 473.9
556 0 89.2316 11.6775 1042 111.017 428.26 474.194
557 0 93.2014 12.6071 1175 108.643 428.171 471.404
558 0 93.1247 12.3812 1153 110.533 427.964 469.655
559 0 97.1541 12.2692 1192 112.937 429.185 465.726
560 0 99.1502 11.6994 1160 113.908 428.759 466.126
561 0 103.086 12.0288 1240 113.469 429.187 466.371
562 1 52.0608 11.3713 592 112.142 429.196 487.704
563 0 57.1975 12.8852 737 108.172 428.754 486.476
564 0 59.1519 13.1357 777 109.429 429.197 486.14
565 0 62.0481 13.0866 812 116.825 429.647 484.478
566 0 64.0211 12.449 797 118.762 429.123 483.472
567 0 65.1329 12.866 838 118.455 429.062 481.712
568 0 69.1143 12.0959 836 120.017 428.732 482.199
569 0 73.0713 13.6716 999 114.789 429.021 480.463
570 0 73.106 13.0632 955 118.365 428.871 478.621
571 0 76.0236 13.0486 992 118.67 428.963 479.826
572 0 79.0701 13.0897 1035 119.165 429.218 476.361
573 0 82.0723 13.3906 1099 119.73 429.338 474.857
574 0 86.055 13.503 1162 118.768 429.21 476.184
575 0 85.0652 12.3787 1053 124.389 428.938 473.339
576 0 88.0637 12.2979 1083 125.603 428.362 473.02
577 0 91.0421 12.8842 1173 125.657 429.147 469.754
578 0 95.1581 13.4408 1279 124.439 429.294 467.457
579 0 100.081 14.6981 1471 120.339 428.37 468.035
580 0 100.075 11.9011 1191 129.533 428.298 466.503
581 1 54.0731 11.3735 615 127.626 428.855 489.454
582 0 56.0337 12.2605 687 125.782 428.847 488.553
583 0 56.0999 12.2995 690 118.8 428.348 489.686
584 0 57.0308 12.2039 696 120.513 428.361 487.488
585 0 59.021 12.5887 743 121.118 429.31 485.838
586 0 61.0259 12.8142 782 121.522 429.784 485.194
587 0 64.1241 12.7097 815 121.729 429.545 485.411
588 0 66.0268 14.1912 937 118.064 429.747 483.12
589 0 68.0303 14.714 1001 117.164 429.945 481.597
590 0 70.0332 13.5507 949 121.388 430.035 483.51
591 0 71.0849 14.0818 1001 121.027 429.691 480.318
592 0 75.1028 12.9955 976 123.164 429.307 480.501
593 0 75.1449 12.8818 968 125.946 429.21 478.889
594 0 79.2077 14.8723 1178 120.169 428.632 477.35
595 0 82.2054 14.5246 1194 121.235 429.332 476.838
596 0 85.1834 15.6603 1334 118.931 428.139 476.742
597 0 86.3059 13.1046 1131 132.144 428.385 474.112
598 0 89.2328 12.9437 1155 132.468 427.938 473.891
599 0 92.3768 13.6073 1257 130.768 428.243 472.548
600 0 95.215 13.5903 1294 129.624 427.93 472.386
601 0 97.174 13.7897 1340 130.353 428.224 468.399
602 0 102.17 13.7516 1405 119.561 428.244 469
603 1 54.0343 10.2898 556 122.487 428.959 491.867
604 0 55.0955 11.7251 646 119.636 428.653 490.339
605 0 56.029 12.8148 718 113.184 428.28 487.442
606 0 57.0743 12.7378 727 120.645 427.385 489.569
607 0 57.0871 13.0502 745 120.659 426.895 489.485
608 0 60.0804 12.7829 768 121.759 427.763 489.12
609 0 63.1111 13.6584 862 120.298 427.81 486.505
610 0 62.1207 13.6026 845 121.995 427.34 485.541
611 0 66.0811 12.7873 845 122.814 426.921 484.974
612 0 68.1284 13.5039 920 120.498 427.368 484.29
613 0 70.1541 12.7291 893 124.299 427.159 482.103
614 0 73.2324 13.9556 1022 119.589 426.922 482.699
615 0 74.1389 13.6501 1012 122.325 426.991 478.999
616 0 76.1759 13.3244 1015 123.363 426.789 478.809
617 0 78.1586 13.3063 1040 124.427 426.826 476.641
618 0 83.2213 13.386 1114 124.209 426.882 475.296
619 0 86.2219 14.973 1291 120.126 427.622 475.157
620 0 89.2482 14.3644 1282 122.051 427.853 473.966
621 0 90.1042 13.4733 1214 116.849 427.394 471.653
622 0 93.0756 11.8936 1107 126.906 427.341 467.147
623 0 97.1489 13.0727 1270 124.081 427.72 464.606
624 0 99.1718 11.7473 1165 126.875 426.983 464.84
625 0 103.168 12.3682 1276 124.353 427.012 466.337
626 0 107.305 12.2734 1317 127.736 426.525 464.065
627 1 55.0744 12.5467 691 117.777 425.922 490.052
628 0 57.0451 12.0256 686 116.888 426.155 487.8
629 0 63.2563 12.3308 780 127.612 428.853 486.397
630 0 62.1732 13.1085 815 127.056 427.786 485.696
631 0 66.3267 13.2676 880 124.528 428.524 485.268
632 0 65.138 11.3758 741 131.416 428.271 485.395
633 0 70.1763 11.8416 831 129.755 428.558 484.457
634 0 70.1758 13.4519 944 128.085 428.726 481.228
635 0 73.1538 11.9884 877 131.31 427.993 481.881
636 0 75.3686 12.8435 968 129.08 427.595 480.604
637 0 78.1643 13.1518 1028 127.959 427.722 479.994
638 0 77.2288 13.6737 1056 129.342 427.99 476.283
639 0 83.1627 13.8043 1148 127.39 428.142 475.922
640 0 84.2696 12.7092 1071 129.716 426.789 475.822
641 0 87.3299 13.7982 1205 127.466 427.271 473.666
642 0 86.4553 12.8159 1108 131.032 426.563 472.937
643 0 93.3781 13.5578 1266 128.021 427.093 471.086
644 0 95.316 12.4848 1190 130.59 427.209 471.662
645 0 97.28 12.6131 1227 131.676 427.279 466.817
646 0 102.183 13.1822 1347 128.344 427.586 467.158
647 1 55.0535 10.7169 590 129.964 428.937 489.503
648 0 59.031 12.8915 761 123.116 429.091 487.98
649 0 60.1615 13.2643 798 114.647 428.699 488.548
650 0 61.0809 12.377 756 116.843 428.362 488.934
651 0 62.0513 12.6347 784 117.398 428.733 487.816
652 0 63.0622 12.2895 775 118.974 428.719 486.286
653 0 67.0665 12.8231 860 118.343 427.84 484.973
654 0 70.099 12.9388 907 118.442 428.546 484.463
655 0 70.0591 13.3601 936 120.139 428.54 480.998
656 0 72.0481 13.5604 977 119.865 428.606 482.456
657 0 74.087 13.7946 1022 120.182 428.536 481.673
658 0 76.0934 13.7726 1048 121.406 427.92 479.287
659 0 81.0323 13.7353 1113 120.001 427.925 477.239
660 0 83.0909 14.0208 1165 121.992 428.014 477.985
661 0 87.0878 13.9859 1218 123.741 428.423 476.475
662 0 90.1256 14.9902 1351 122.843 427.398 473.866
663 0 93.1553 13.354 1244 126.867 428.029 473.14
664 1 51.0501 12.282 627 123.78 428.821 491.96
665 0 52.0169 11.5924 603 123.599 428.705 492.313
666 0 54.0929 12.4785 675 121.717 428.95 491.01
667 0 55.1111 12.6835 699 120.914 428.783 490.735
668 0 57.0224 12.6792 723 120.678 428.697 491.064
669 0 58.0856 13.635 792 118.686 429.085 490.14
670 0 59.0447 12.9224 763 121.35 429.214 489.775
671 0 61.0974 13.3066 813 121.357 428.173 488.619
672 0 62.0658 13.5179 839 120.256 427.748 486.596
673 0 64.0454 13.1313 841 122.459 428.929 486.674
674 0 66.0615 14.3805 950 118.095 427.637 484.446
675 0 67.0249 14.3827 964 119.602 427.834 483.187
676 0 70.0982 14.0232 983 117.663 427.555 484.916
677 0 73.0385 13.5545 990 118.707 427.84 482.704
678 0 77.1058 13.6306 1051 118.927 428.347 482.517
679 0 77.0594 14.0022 1079 119.305 428.355 480.131
680 0 78.0825 12.5764 982 123.838 427.96 479.98
681 0 83.1007 14.1635 1177 119.726 427.048 477.102
682 0 83.0694 13.4346 1116 121.977 427.74 476.914
683 1 44.0428 11.1256 490 127.818 427.684 496.188
684 0 45.0348 11.3468 511 116.068 428.157 494.423
685 0 45.1208 12.4111 560 118.825 428.661 494.02
686 0 48.0135 12.3299 592 117.725 428.402 495.571
687 0 51.0634 12.9643 662 115.573 428.628 492.846
688 0 50.0672 12.4233 622 119.359 428.482 492.576
689 0 53.1339 13.7389 730 114.499 427.445 491.381
690 0 51.194 11.6225 595 122.861 427.713 491.467
691 0 54.0935 12.7002 687 118.301 427.85 490.93
692 0 57.0203 13.048 744 116.409 428.366 488.335
693 0 59.0305 13.2813 784 114.661 427.83 489.531
694 0 61.0883 13.6524 834 114.56 427.028 487.902
695 0 62.0443 13.6999 850 114.525 427.605 485.102
696 0 65.1192 13.9283 907 112.38 427.345 485.514
697 0 66.0891 12.3016 813 116.497 428.096 484.371
698 0 70.0766 12.6719 888 115.077 427.893 482.507
699 0 72.1612 13.2897 959 113.692 428.072 481.752
700 0 75.05 12.8448 964 115.058 428.242 480.115
701 0 76.0916 11.9987 913 117.088 428.57 480.173
702 0 79.053 13.2822 1050 113.867 427.89 477.739
703 0 82.0529 12.9551 1063 114.242 428.306 474.153
704 0 85.162 13.8912 1183 111.068 428.246 476.64
705 0 87.0852 13.1825 1148 113.404 427.571 474.294
706 0 91.0864 13.1963 1202 113.429 428.142 473.37
707 0 93.1 13.072 1217 115.387 427.746 469.973
708 0 96.1275 12.4418 1196 117.891 428.677 470.077
709 0 101.159 13.4046 1356 114.08 428.176 468.675
710 0 103.086 13.1153 1352 115.756 428.532 465.673
711 1 51.0418 11.0302 563 118.922 428.639 492.025
712 0 52.027 11.2634 586 118.72 428.913 490.928
713 0 56.0844 14.0503 788 111.931 428.225 489.122
714 0 59.054 14.0888 832 109.78 428.379 488.802
715 0 57.055 12.5843 718 116.1 427.967 487.553
716 0 62.1155 13.7003 851 111.165 428.078 486.899
717 0 64.0852 12.4678 799 114.096 428.62 486.508
718 0 61.1336 11.7448 718 118.671 428.596 486.717
719 0 65.0917 10.7233 698 119.133 427.967 485.517
720 0 67.1678 12.8186 861 115.412 428.573 484.49
721 0 70.1742 12.982 911 115.655 428.417 481.92
722 0 73.1726 13.27 971 114.978 427.974 481.21
723 0 76.0777 13.3679 1017 114.254 427.579 479.352
724 0 78.1595 12.5513 981 116.197 427.635 480.376
725 0 79.1329 12.5485 993 117.073 427.705 478.557
726 0 81.1057 12.7365 1033 118.014 427.513 478.096
727 0 84.2049 13.479 1135 116.631 427.603 475.822
728 0 85.2319 12.2255 1042 120.569 427.846 472.428
729 0 91.2087 13.3321 1216 117.142 427.248 473.284
730 0 94.2727 12.3047 1160 119.144 427.183 470.596
731 0 97.2542 13.0072 1265 117.712 427.664 468.055
732 0 101.253 13.4514 1362 116.673 427.93 468.867
733 0 103.16 13.2609 1368 118.553 427.105 467.158
734 0 107.235 13.0928 1404 120.794 426.858 464.504
735 0 112.29 12.7082 1427 122.16 426.819 463.608
736 0 115.232 13.3644 1540 122.523 426.994 458.269
737 0 120.164 13.5315 1626 120.601 426.907 458.529
738 0 126.324 12.84 1622 122.05 426.021 455.541
739 0 127.278 12.3666 1574 124.569 426.17 452.682
740 0 135.433 13.97 1892 120.62 426.338 449.06
741 0 141.308 14.3021 2021 120.253 426.575 446.798
742 0 143.478 13.5143 1939 123.911 426.481 445.76
743 0 147.255 13.317 1961 124.825 426.897 443.586
744 0 153.314 13.5343 2075 125.279 426.602 438.893
745 1 87.0953 11.6883 1018 120.028 426.886 474.253
746 0 92.3061 12.3286 1138 118.46 426.652 474.303
747 0 93.1033 12.3626 1151 121.34 427.803 473.394
748 0 95.1498 12.927 1230 120.194 427.633 470.554
749 0 101.189 13.7169 1388 117.774 427.811 468.017
750 0 105.191 12.7483 1341 119.855 427.831 466.981
751 0 107.191 12.6877 1360 121.046 427.512 463.329
752 0 111.268 13.7956 1535 119.076 428.168 460.722
753 0 117.117 12.9785 1520 120.461 428.168 459.716
754 1 54.017 10.7374 580 116.141 427.998 490.302
755 0 55.2399 11.3505 627 117.222 426.041 487.482
756 0 56.0592 12.5403 703 106.472 426.987 482.959
757 0 57.0682 9.49742 542 112.295 427.31 483.965
758 0 59.0317 11.5531 682 109.522 427.273 483.804
759 0 62.0787 11.7915 732 109.061 427.352 481.186
760 0 64.1868 10.9057 700 110.384 427.096 481.717
761 0 65.2874 11.1813 730 111.052 426.548 479.345
762 0 67.182 10.2855 691 112.31 426.301 479.232
763 0 68.1112 10.894 742 113.721 426.496 476.639
764 0 70.135 11.0929 778 113.644 426.897 477.718
765 0 72.1017 10.5268 759 117.267 426.132 474.465
766 0 74.0577 10.9509 811 116.555 426.718 472.469
767 0 79.1114 12.3118 974 112.194 426.531 475.463
768 0 80.105 10.8732 871 118.471 426.831 469.738
769 0 85.1685 12.4224 1058 115.387 426.284 468.527
770 0 87.1336 12.1537 1059 117.479 426.752 468.548
771 0 89.0679 12.7319 1134 119.384 427.102 467.086
772 0 90.1294 11.7831 1062 122.696 426.409 463.785
773 0 95.1722 13.3442 1270 119.281 426.403 464.178
774 0 99.1595 13.8666 1375 123.606 426.281 466.74
775 0 103.162 14.0555 1450 123.108 426.428 464.441
776 0 105.228 13.6561 1437 124.239 426.683 458.426
777 0 110.328 14.5657 1607 120.926 426.509 454.336
778 0 113.301 13.7421 1557 124.258 427.435 453.2
779 1 57.1983 10.5772 605 122.772 426.745 479.876
780 0 60.1456 11.6717 702 121.083 427.057 481.212
781 0 64.1704 12.6538 812 118.397 426.93 479.619
782 0 67.3207 13.8145 930 121.625 426.295 483.676
783 0 69.1461 13.7246 949 122.509 426.825 482.653
784 0 70.2089 13.175 925 123.987 427.068 481.226
785 0 73.1523 13.3284 975 124.176 427.278 479.983
786 0 75.1471 14.1855 1066 121.25 427.818 480.947
787 0 77.2157 13.5594 1047 124.82 427.503 477.569
788 0 82.2468 14.1404 1163 122.554 427.282 477.261
789 0 83.2472 13.574 1130 124.727 427.348 477.151
790 0 87.1665 15.0975 1316 119.977 427.474 474.895
791 0 89.2043 13.9904 1248 123.867 427.119 474.222
792 0 91.1252 14.3319 1306 123.18 427.053 472.524
793 0 92.1893 12.9191 1191 127.84 427.414 470.366
794 0 97.1341 13.6306 1324 124.25 427.134 469.559
795 1 48.1406 11.9234 574 121.141 427.272 493.354
796 0 49.0514 12.0486 591 114.201 426.259 493.812
797 0 52.1194 11.9341 622 114.088 426.381 493.034
798 0 51.1309 12.0866 618 116.084 425.859 490.934
799 0 53.1305 12.8175 681 116.213 426.314 488.714
800 0 55.2086 13.6573 754 114.858 426.362 488.147
801 0 56.046 12.686 711 118.771 427.035 488.661
802 0 60.119 13.756 827 113.285 426.184 488.615
803 0 60.1478 13.7328 826 115.225 426.443 486.844
804 0 62.0736 13.1135 814 116.593 426.252 486.248
805 0 63.1054 12.6297 797 118.222 426.39 485.668
806 0 66.1315 13.201 873 116.78 425.979 483.96
807 0 66.1658 12.9976 860 118.642 426.435 483.401
808 0 69.1769 13.4727 932 115.872 426.518 483.59
809 0 70.0799 12.4429 872 119.308 426.8 481.46
810 0 72.2279 13.0974 946 117.598 427.254 481.58
811 0 74.143 13.6223 1010 117.206 426.913 479.939
812 0 77.0954 14.1513 1091 116.472 426.643 477.938
813 0 79.2062 14.8726 1178 114.19 427.528 476.144
814 0 82.2518 14.3097 1177 116.757 427.274 474.422
815 0 83.2898 13.2669 1105 119.286 427.549 471.261
816 0 86.1966 12.9123 1113 120.175 427.287 469.851
817 0 89.2731 14.1812 1266 119.817 426.742 469.543
818 0 92.1832 14.5254 1339 119.033 426.776 465.341
819 0 95.1546 14.6078 1390 118.094 427.064 463.996
820 0 97.2896 14.1125 1373 120.352 427.47 461.664
821 0 101.238 13.2954 1346 120.221 427.611 461.5
822 1 54.0413 11.6392 629 114.289 426.919 484.054
823 0 52.0308 9.66735 503 114.165 426.696 482.155
824 0 55.0911 10.8185 596 110.909 427.362 480.884
825 0 57.0355 10.923 623 110.801 426.859 479.425
826 0 59.0838 11.8645 701 102.84 427.338 480.17
827 0 61.026 11.405 696 103.713 427.579 479.662
828 0 63.0953 11.6332 734 102.651 427.681 480.866
829 0 64.1869 10.0332 644 107.904 426.932 476.562
830 0 65.1571 10.6512 694 107.732 427.483 474.055
831 0 69.0581 10.1219 699 107.918 427.292 475.076
832 0 70.1236 10.4102 730 107.532 426.955 474.653
833 0 74.1402 12.5438 930 103.52 427.418 474.703
834 0 76.1552 11.5422 879 106.35 426.976 472.784
835 0 78.126 12.3902 968 104.945 426.237 469.819
836 0 85.0967 13.1615 1120 111.871 426.522 475.609
837 0 86.2234 13.6854 1180 111.492 426.41 471.825
838 0 89.1204 13.7006 1221 112.732 426.942 470.42
839 0 93.1521 13.2579 1235 112.36 426.634 470.196
840 0 96.1431 12.9494 1245 112.435 426.562 469.581
841 1 53.0559 9.81984 521 112.524 426.852 488.399
842 0 53.0968 9.30376 494 107.968 427.611 481.579
843 0 55.0506 12.2978 677 103.516 427.877 484.487
844 0 59.0294 11.706 691 110.651 428.447 486.941
845 0 61.077 12.034 735 111.614 428.478 485.072
846 0 64.1339 13.3627 857 108.053 429.066 484.909
847 0 64.1655 12.2652 787 110.888 429.025 484.77
848 0 66.2723 12.5694 833 111.884 427.836 482.944
849 0 69.2295 12.3647 856 112.088 428.581 483.097
850 0 69.2556 12.9665 898 112.251 426.99 481.287
851 0 74.1549 12.8919 956 113.136 427.999 479.961
852 0 75.1843 12.5957 947 115.452 427.804 477.467
853 0 77.2962 12.8467 993 116.394 428.162 478.44
854 0 80.2172 12.2542 983 118.2 428.492 477.867
855 0 83.0982 13.6465 1134 116.716 427.637 474.795
856 0 86.2326 13.1737 1136 118.235 426.918 474.618
857 0 89.2617 12.9171 1153 119.973 427.774 471.377
858 1 47.031 11.9283 561 114.613 428.882 496.059
859 0 47.0418 10.7351 505 116.711 428.147 494.818
860 0 49.1935 12.6033 620 111.371 425.944 489.697
861 0 50.0999 13.034 653 111.602 428.39 491.127
862 0 50.0715 11.923 597 116.678 427.903 491.992
863 0 53.025 12.3527 655 115.409 427.18 490.383
864 0 56.0387 13.2944 745 113.513 427.741 489.893
865 0 57.0374 13.9733 797 112.745 428.211 489.952
866 0 58.0316 13.3376 774 115.722 427.939 488.636
867 0 60.0446 12.9903 780 115.968 428.076 486.744
868 0 60.0438 12.9072 775 119.015 428.009 486.997
869 0 64.0416 14.3032 916 114.197 427.811 486.742
870 0 64.0472 13.1153 840 118.53 428.692 485.924
871 0 66.0296 12.2521 809 121.043 429.423 485.266
872 0 70.0589 13.8883 973 117.266 428.633 482.281
873 0 72.0396 13.1455 947 120.826 428.129 482.099
874 0 74.1071 12.7518 945 122.811 428.73 479.985
875 0 78.0841 13.0628 1020 121.864 428.483 481.193
876 0 80.1046 13.1828 1056 122.616 427.749 479.168
877 0 83.1757 13.5857 1130 121.119 427.966 478.33
878 0 85.0954 12.5389 1067 124.425 427.074 478.153
879 0 90.2259 14.641 1321 118.41 427.467 475.324
880 1 46.0485 12.0308 554 124.31 428.496 492.227
881 0 48.0513 11.7583 565 124.23 427.91 492.602
882 0 48.0435 11.2814 542 127.958 427.941 492.718
883 0 52.0514 12.795 666 122.652 428.185 491.203
884 0 51.0523 12.5949 643 124.614 428.355 491.149
885 0 51.0295 12.6985 648 125.799 428.6 489.694
886 0 55.0226 12.9401 712 124.916 428.323 489.427
887 0 54.024 12.513 676 126.999 428.391 488.969
888 0 59.0655 15.0341 888 118.404 428.668 487.202
889 0 60.1108 13.8744 834 121.862 428.354 485.945
890 0 60.0407 13.6407 819 123.915 428.375 484.814
891 0 65.0712 14.876 968 118.665 427.9 485.031
892 0 66.0447 13.1275 867 123.524 427.957 483.807
893 0 69.0694 15.3469 1060 118.258 428.346 482.693
894 0 71.042 14.0902 1001 122.313 427.768 480.066
895 0 70.0771 13.4138 940 126.038 427.332 478.696
896 0 74.1239 13.1806 977 125.713 427.549 478.712
897 0 77.0868 13.9842 1078 123.276 427.398 476.628
898 0 81.0912 14.9955 1216 120.375 427.763 474.4
899 0 82.1197 13.6143 1118 123.616 427.646 475.824
900 1 40.0507 11.6852 468 125.607 427.615 493.716
901 0 43.1746 12.6695 547 121.06 426.647 492.044
902 0 44.2623 12.5163 554 122.13 427.514 490.834
903 0 45.2015 12.3447 558 123.461 426.799 491.315
904 0 45.2661 12.4155 562 124.557 426.589 490.459
905 0 46.1224 12.1199 559 124.853 426.728 489.925
906 0 49.1267 12.6001 619 122.782 426.879 489.27
907 0 50.2181 12.3063 618 124.215 426.667 489.066
908 0 53.2004 13.9285 741 121.061 427.2 488.039
909 0 55.2078 13.9292 769 121.443 427.23 488.765
910 0 58.1579 14.3919 837 120.254 427.213 487.17
911 0 59.1359 14.8641 879 118.223 427.202 487.104
912 0 60.0587 15.7013 943 115.558 427.916 485.906
913 0 62.1089 14.1526 879 120.262 426.947 485.435
914 0 64.0541 12.8641 824 123.294 427.583 485.482
915 0 66.0454 14.0964 931 121.582 427.977 481.937
916 0 69.0699 14.3478 991 120.431 427.226 480.938
917 0 71.045 13.9067 988 121.491 427.194 480.965
918 0 72.0582 14.3773 1036 121.85 427.014 478.879
919 0 76.1566 14.6672 1117 120.248 427.145 477.726
920 0 78.095 13.9189 1087 122.15 427.666 475.838
921 0 83.0514 15.8336 1315 115.439 427.758 474.777
922 0 84.0786 15.2001 1278 117.973 427.334 472.894
923 0 86.1294 14.7685 1272 119.993 426.748 470.578
924 0 88.1198 13.9583 1230 121.081 427.024 472.611
925 0 92.0624 14.4793 1333 119.548 426.809 469.71
926 0 95.1043 14.2475 1355 118.925 426.775 468.9
927 0 98.1533 14.1106 1385 119.799 426.71 465.193
928 0 104.194 14.2235 1482 118.632 425.987 463.291
929 0 107.171 14.1362 1515 118.75 426.677 460.102
930 1 55.0379 12.5732 692 120.569 427.767 479.744
931 0 59.1253 13.6828 809 116.426 427.344 479.415
932 0 62.3029 14.5098 904 113.424 426.925 481.201
933 0 64.2093 14.2035 912 114.638 427.189 479.164
934 0 66.1952 14.2458 943 115.478 426.228 476.375
935 0 70.1971 15.3283 1076 112.515 426.73 474.733
936 0 72.1087 13.6045 981 118.518 426.055 473.863
937 0 71.1486 12.8464 914 123.34 426.847 474.02
938 0 76.1657 14.7573 1124 116.772 426.492 473.438
939 0 78.1742 14.0328 1097 116.763 426.481 473.636
940 0 81.2512 13.7106 1114 119.732 426.841 471.953
941 0 86.1935 14.2238 1226 117.91 426.219 468.666
942 0 86.2 13.9095 1199 120.233 426.5 465.008
943 0 90.2911 14.0102 1265 119.617 426.783 463.852
944 0 93.2068 13.3896 1248 121.372 427.041 462.521
945 1 48.1373 11.6749 562 119.593 426.658 487.653
946 0 49.0455 12.6821 622 120.167 426.154 487.979
947 0 52.0952 12.8419 669 115.631 427.004 486.076
948 0 53.1199 12.6506 672 118.518 427.247 484.344
949 0 54.143 12.4855 676 119.54 427.154 484.058
950 0 57.0372 14.1662 808 115.946 427.438 482.859
951 0 56.0419 12.6869 711 121.042 426.654 481.716
952 0 60.0688 13.2182 794 119.398 427.277 481.152
953 0 62.1339 14.2112 883 117.205 427.721 479.626
954 0 64.0837 13.5604 869 120.182 427.754 476.89
955 0 65.1132 12.7317 829 122.87 426.807 477.107
956 0 69.0618 12.2065 843 124.348 426.741 476.164
957 0 71.0879 13.5888 966 122.526 427.503 474.421
958 0 71.1037 13.4874 959 124.546 426.572 474.13
959 0 72.0745 12.9727 935 119.714 426.581 473.635
960 0 75.1872 13.1804 991 120.17 427.113 472.021
961 0 80.0408 13.2433 1060 119.485 426.544 471.489
962 0 82.1012 12.8135 1052 123.508 426.774 469.421
963 0 83.0779 13.5415 1125 123.714 426.652 467.448
964 0 86.1623 13.579 1170 124.248 426.951 464.766
965 0 89.1084 12.1201 1080 125.981 427.042 465.444
966 0 92.1706 12.6721 1168 129.348 426.101 466.905
967 0 98.2727 13.371 1314 128.731 425.307 465.527
968 0 102.251 13.3494 1365 129.41 426.106 464.011
969 0 105.166 13.4168 1411 129.427 425.854 460.347
970 1 57.0456 11.9554 682 125.572 424.927 485.358
971 0 61.1295 13.1033 801 126.713 426.557 484.039
972 0 63.0472 14.0688 887 124.185 425.919 483.454
973 0 65.0862 13.7664 896 125.369 425.858 482.369
974 0 66.1022 13.0102 860 128.031 425.771 483.366
975 0 71.0913 14.1508 1006 125.103 425.969 480.573
976 0 70.1304 12.163 853 132.138 426.342 479.757
977 0 73.1802 13.3779 979 128.361 426.202 478.538
978 0 76.2092 13.6598 1041 127.881 425.693 477.541
979 0 77.0951 14.3848 1109 125.816 426.095 476.994
980 0 79.0844 13.1884 1043 131.084 425.678 473.398
981 0 83.0711 12.7602 1060 130.656 425.231 472.829
982 0 85.0845 13.8803 1181 128.151 425.803 470.941
983 0 89.1138 14.1617 1262 126.541 425.96 469.854
984 0 92.1483 13.7604 1268 126.266 425.909 468.887
985 0 95.1087 13.9735 1329 124.834 426.145 469.467
986 0 97.0994 13.1618 1278 127.009 426.568 465.985
987 0 102.163 13.8895 1419 123.347 427.958 466.743
988 0 107.226 13.9053 1491 120.647 429.097 463.945
989 0 109.11 13.8209 1508 122.436 428.56 460.562
990 1 59.1066 12.1814 720 113.907 427.671 486.615
991 0 55.2086 9.81732 542 112.092 428.489 477.474
992 0 58.0905 10.7935 627 108.812 428.627 480.166
993 0 59.0433 10.5855 625 109.331 427.878 479.789
994 0 62.0237 10.2541 636 109.226 428.813 477.596
995 0 64.1 10.8424 695 107.76 429.058 478.13
996 0 65.2115 9.70687 633 111.066 428.267 476.856
997 0 65.1995 9.69333 632 135.522 427.264 476.866
998 0 72.1225 11.5498 833 116.547 428.21 478.748
999 0 76.1729 13.8632 1056 110.445 427.353 477.648
1000 0 78.4006 12.8443 1007 113.367 426.941 474.739
1001 0 80.1138 13.3685 1071 111.416 426.615 475.566
1002 0 81.1051 12.0214 975 115.202 426.857 475.641
1003 0 85.2778 12.899 1100 113.156 427.29 471.761
1004 0 87.1884 12.8687 1122 112.959 427.125 472.363
1005 0 89.1862 12.3562 1102 115.579 427.302 467.789
1006 0 94.1865 14.0254 1321 110.272 427.072 469.316
1007 0 95.1136 11.828 1125 116.612 427.258 465.072
1008 0 98.1224 11.9035 1168 115.169 427.274 462.651
1009 0 101.157 11.6848 1182 114.356 426.49 463.423
1010 0 107.181 14.4428 1548 107.083 426.924 459.796
1011 0 111.246 13.0072 1447 103.732 427.395 459.146
1012 1 57.0591 11.269 643 101.351 426.502 487.701
1013 0 58.2378 12.5348 730 100.264 426.953 485.986
1014 0 60.1116 10.2975 619 103.407 426.636 485.486
1015 0 61.1309 11.3854 696 102.422 426.654 485.812
1016 0 62.1379 11.3618 706 102.613 426.622 484.557
1017 0 63.1303 10.8822 687 104.114 426.787 482.156
1018 0 67.1641 11.1369 748 102.408 426.817 482.386
1019 0 68.141 10.7278 731 103.953 426.995 480.399
1020 0 72.1078 11.4967 829 102.586 426.697 479.089
1021 0 76.1649 11.5801 882 101.143 426.303 478.924
1022 0 78.2192 12.0175 940 100.674 426.61 476.35
1023 0 80.1349 11.4806 920 102.177 426.973 476.061
1024 0 80.0972 10.7619 862 104.8 426.948 470.653
1025 0 85.0973 11.7748 1002 103.182 427.316 470.001
1026 0 88.1078 10.9865 968 103.84 426.889 469.614
1027 1 46.1044 8.84948 408 100.304 427.157 493.365
1028 0 45.1344 8.86242 400 101.518 427.398 489.42
1029 0 51.1897 10.6662 546 97.1374 428.456 489.3
1030 0 52.0739 12.5591 654 93.5642 428.058 486.156
1031 0 52.1604 11.9056 621 96.9726 427.881 489.246
1032 0 53.2651 10.72 571 101.503 428.336 487.326
1033 0 57.2123 11.3262 648 97.0648 428.6 486.171
1034 0 57.1682 9.42831 539 101.011 427.968 487.627
1035 0 59.1318 12.0071 710 98.2099 428.769 486.408
1036 0 61.0475 11.9251 728 97.4972 429.205 482.576
1037 0 64.097 12.5279 803 96.7148 429.442 482.614
1038 0 64.0713 10.8941 698 100.877 428.311 484.653
1039 0 66.1333 10.4184 689 101.327 427.165 480.418
1040 0 66.0452 11.371 751 98.9734 427.12 478.605
1041 0 69.0971 11.3174 782 100.173 426.701 480.243
1042 0 71.0444 11.894 845 101.937 426.57 480.484
1043 0 76.0586 11.5832 881 100.329 426.402 481.936
1044 0 79.0641 11.9903 948 100.542 426.766 479.467
1045 0 81.1086 12.736 1033 100.227 426.986 477.055
1046 0 85.1669 11.8473 1009 102.933 427.255 474.132
1047 0 86.1185 12.6105 1086 102.099 427.269 473.939
1048 0 89.154 11.4184 1018 104.458 428.234 472.529
1049 0 93.0922 12.6541 1178 101.329 427.465 471.296
1050 0 94.1096 12.783 1203 102.251 427.608 469.754
1051 1 50.1029 11.4564 574 99.6794 428.289 493.239
1052 0 51.2701 11.0786 568 101.306 428.933 489.718
1053 0 54.0572 12.3943 670 99.291 428.249 490.182
1054 0 56.0569 13.4685 755 96.4808 428.359 488.535
1055 0 58.121 12.3707 719 98.6426 428.255 487.769
1056 0 58.1618 11.0726 644 101.489 427.533 488.143
1057 0 61.1046 11.6685 713 100.22 427.63 486.781
1058 0 64.078 13.9673 895 94.7631 428.132 485.166
1059 0 65.0319 13.6856 890 96.4685 427.604 483.983
1060 0 66.1218 13.2332 875 98.2674 427.31 483.591
1061 0 69.1282 13.3809 925 97.6897 427.052 482.241
1062 0 69.074 12.5518 867 100.328 427.331 479.591
1063 0 73.1152 12.3914 906 100.487 427.237 481.603
1064 0 75.1207 13.7113 1030 98.1786 427.782 477.646
1065 0 77.1222 14.0815 1086 98.256 428.054 478.245
1066 0 78.1511 13.3331 1042 100.072 427.61 476.151
1067 0 81.103 13.489 1094 100.265 428.41 476.143
1068 0 85.3086 14.0431 1198 100.036 427.9 475.289
1069 0 86.1415 12.6536 1090 104.246 427.132 474.163
1070 0 86.0986 12.5554 1081 105.728 427.713 471.538
1071 0 89.2118 13.283 1185 104.289 427.307 470.645
1072 0 95.1334 14.4429 1374 102.352 426.626 468.963
1073 0 96.235 13.6541 1314 105.242 426.909 469.276
1074 0 98.1764 13.7609 1351 107.128 427.205 466.542
1075 0 100.16 13.3985 1342 109.171 426.885 464.909
1076 0 104.216 14.2684 1487 107.467 426.68 464.311
1077 0 106.277 14.1517 1504 108.605 427.195 461.658
1078 0 109.152 12.936 1412 112.672 427.168 461.268
1079 0 114.207 13.1866 1506 112.496 426.837 457.69
1080 0 119.134 13.2708 1581 111.418 427.032 455.009
1081 0 123.19 13.0205 1604 112.21 426.984 450.837
1082 0 127.363 13.5753 1729 112.098 426.464 449.244
1083 0 129.293 13.249 1713 114.534 426.828 450.76
1084 0 134.298 13.2838 1784 114.587 427.594 448.784
1085 0 140.269 14.0659 1973 113.265 426.329 445.181
1086 0 145.311 14.2866 2076 111.585 427.038 444.362
1087 0 148.273 14.5138 2152 113.152 426.658 439.829
1088 0 154.276 14.7787 2280 113.784 426.232 435.5
1089 0 160.548 15.2851 2454 114.245 426.768 433.701
1090 0 165.428 14.4897 2397 118.386 426.5 434.305
1091 0 173.4 15.7094 2724 114.512 427.064 430.003
1092 0 177.322 15.0686 2672 117.69 427.074 424.024
1093 0 183.312 15.3127 2807 116.603 426.818 425.712
1094 0 191.396 14.8592 2844 118.477 427.075 418.49
1095 0 195.563 14.7778 2890 118.74 426.363 414.722
1096 0 202.34 14.6239 2959 120.416 425.895 410.695
1097 0 207.601 14.9614 3106 119.887 425.933 409.713
1098 1 158.333 13.5916 2152 120.701 426.498 434.817
1099 0 161.242 12.8193 2067 124.397 426.496 434.399
1100 0 167.218 12.4389 2080 125.211 426.366 433.166
1101 0 174.23 13.1435 2290 120.797 426.298 427.6
1102 0 182.341 13.1238 2393 117.461 427.221 428.344
1103 0 187.282 12.03 2253 117.968 426.699 424.517
1104 0 197.287 12.8442 2534 116.773 427.131 418.029
1105 0 204.392 13.5524 2770 115.693 426.201 414.946
1106 0 209.387 12.8566 2692 117.926 426.832 413.416
1107 0 218.185 12.6681 2764 120.609 426.179 409.748
1108 1 159.294 11.6137 1850 115.652 426.792 440.216
1109 0 166.383 13.0121 2165 113.524 427.789 435.632
1110 0 170.267 13.0971 2230 115.563 425.94 430.411
1111 0 176.28 12.9453 2282 116.581 426.211 424.872
1112 0 182.278 13.4246 2447 116.104 426.333 424.54
1113 0 186.375 11.8417 2207 120.498 425.657 421.533
1114 0 195.293 12.7142 2483 120.93 426.156 417.443
1115 0 203.293 13.2715 2698 120.073 426.021 417.055
1116 0 209.439 12.8725 2696 120.076 426.855 415.574
1117 0 217.294 12.4393 2703 120.917 427.157 412.065
1118 1 57.0307 12.2741 700 112.529 426.071 486.724
1119 0 58.3358 12.2224 713 114.122 427.32 486.443
1120 0 59.0789 12.6102 745 116.361 425.507 485.597
1121 0 62.1021 12.415 771 116.079 426.167 486.175
1122 0 63.0509 12.6247 796 115.729 424.946 482.481
1123 0 66.0287 12.6763 837 115.027 424.926 484.378
1124 0 69.1237 14.0183 969 111.47 424.782 481.818
1125 0 69.1421 12.4092 858 117.104 425.554 480.624
1126 0 72.0912 13.7326 990 113.034 425.789 481.057
1127 0 72.0708 12.5571 905 117.131 425.472 479.201
1128 0 75.0549 12.7906 960 117.012 425.367 478.711
1129 0 78.1418 14.141 1105 113.88 425.748 475.537
1130 0 80.1044 13.3076 1066 116.495 425.455 476.033
1131 0 85.0514 13.8034 1174 113.913 426.221 475.432
1132 0 87.0626 14.0474 1223 114.001 426.117 473.676
1133 0 90.1613 13.864 1250 114.641 426.161 472.007
1134 0 95.2438 13.4812 1284 115.554 426.168 470.723
1135 0 97.0837 14.7811 1435 111.988 425.888 469.63
1136 0 98.1918 12.5163 1229 118.043 426.221 467.822
1137 1 52.0296 11.5319 600 114.207 426.197 491.63
1138 0 55.0318 12.3747 681 114.232 427.446 490.305
1139 0 56.0808 12.3928 695 116.119 425.99 487.823
1140 0 58.0472 13.3857 777 113.582 425.741 486.402
1141 0 58.1177 11.9069 692 117.694 425.668 488.377
1142 0 62.0392 13.2981 825 113.461 425.159 486.371
1143 0 62.0392 13.3142 826 135.03 424.168 486.376
1144 0 68.0414 12.9921 884 112.839 424.869 483.089
1145 0 69.0706 13.0446 901 112.974 424.854 481.574
1146 0 71.0588 13.3411 948 112.852 424.657 480.596
1147 0 73.0493 13.6209 995 112.798 424.233 479.372
1148 0 75.1758 13.7278 1032 112.92 424.483 478.343
1149 0 77.0966 12.7632 984 115.076 423.826 477.104
1150 0 81.0711 13.852 1123 112.279 423.313 475.46
1151 0 83.1055 14.0544 1168 112.715 424.197 474.114
1152 0 85.0961 13.9959 1191 113.879 424.149 472.178
1153 0 87.1159 13.5107 1177 114.881 424.532 473.186
1154 0 90.085 13.3763 1205 115.625 424.342 470.321
1155 0 94.2066 14.0967 1328 114.026 426.172 472.361
1156 0 95.1809 13.5321 1288 115.84 425.648 470.844
1157 0 99.1429 14.8674 1474 113.101 425.963 468.703
1158 1 52.0778 11.1564 581 118.239 427.504 492.494
1159 0 53.0209 11.7689 624 117.689 428.165 491.088
1160 0 56.0268 13.8862 778 114.684 427.604 487.846
1161 0 58.0233 13.8393 803 115.585 427.735 487.993
1162 0 59.0496 12.8367 758 112.573 427.875 487.479
1163 0 61.0728 13.6886 836 109.871 426.929 487.224
1164 0 63.1373 13.9062 878 108.01 426.642 486.069
1165 0 66.0556 14.73 973 106.66 426.795 485.261
1166 0 68.095 13.9217 948 109.203 427.196 486.02
1167 0 68.0668 13.6337 928 112.578 427.679 481.924
1168 0 70.0512 13.2189 926 114.079 427.473 481.305
1169 0 73.0922 14.4475 1056 111.366 426.002 479.63
1170 0 76.0792 14.4323 1098 110.945 427.282 480.287
1171 0 79.0783 13.5815 1074 113.615 426.876 477.29
1172 0 81.0646 13.9765 1133 113.803 427.498 477.229
1173 0 83.0744 14.0838 1170 115.311 427.135 476.027
1174 0 88.0591 14.4789 1275 115.05 427.533 473.754
1175 0 91.0647 15.0003 1366 113.665 426.961 472.846
1176 0 93.1889 14.0145 1306 122.338 426.819 472.853
1177 0 97.292 14.2972 1391 122.298 426.469 468.408
1178 0 100.291 13.6602 1370 124.038 426.64 469.053
1179 1 47.0889 10.5333 496 119.641 425.931 487.452
1180 0 49.138 12.1495 597 115.801 426.028 487.117
1181 0 54.1406 13.705 742 112.594 425.811 486.332
1182 0 54.0906 12.3127 666 115.589 425.803 486.185
1183 0 56.0931 12.8715 722 116.144 425.542 483.134
1184 0 56.0844 11.1617 626 112.867 425.882 483
1185 0 58.0908 12.6526 735 109.948 426.381 483.778
1186 0 61.1136 11.4704 701 112.314 426.531 482.593
1187 0 63.1465 11.9405 754 111.241 426.935 482.09
1188 0 68.1096 11.7898 803 110.209 426.599 479.97
1189 0 69.1444 12.6836 877 108.66 425.868 479.377
1190 0 68.0827 12.1617 828 112.471 425.95 477.192
1191 0 72.2407 12.0154 868 111.887 426.629 475.516
1192 0 75.1115 12.5147 940 110.843 426.716 473.623
1193 0 78.0632 11.8494 925 111.75 427.418 472.831
1194 0 81.1113 12.2671 995 111.056 427.048 471.989
1195 0 82.1548 11.9652 983 112.672 426.557 469.079
1196 0 88.1465 12.3771 1091 111.242 427.203 470.396
1197 0 90.1495 12.3683 1115 115.656 426.847 466.85
1198 1 46.032 11.6658 537 110.024 427.35 490.812
1199 0 47.0529 11.8377 557 109.05 427.115 489.451
1200 0 50.1432 12.923 648 116.106 426.332 490.309
1201 0 53.04 13.3107 706 113.37 426.686 490.605
1202 0 54.1738 13.5674 735 113.399 426.439 485.718
1203 0 53.2393 12.9979 692 114.811 426.62 488.501
1204 0 55.1 12.5953 694 116.634 426.758 488.147
1205 0 58.0368 12.9745 753 115.309 426.23 487.389
1206 0 60.04 11.9587 718 115.423 427.045 488.461
1207 0 63.1355 12.3702 781 114.899 426.743 484.711
1208 0 64.0738 12.2515 785 114.776 426.964 484.394
1209 0 67.0824 12.6114 846 114.021 426.948 481.203
1210 0 71.134 13.5941 967 110.09 426.281 481.522
1211 0 73.1225 13.8124 1010 109.199 426.084 479.834
1212 0 76.2299 13.0526 995 109.885 426.247 480.406
1213 0 79.1328 13.6732 1082 109.94 426.676 477.247
1214 0 83.122 13.402 1114 108.807 426.551 478.018
1215 0 85.198 12.8289 1093 111.048 426.45 472.911
1216 0 89.2155 13.8989 1240 107.672 426.535 472.058
1217 0 91.1611 13.2184 1205 108.914 426.821 469.889
1218 0 94.3126 13.7097 1293 107.998 426.336 467.298
1219 1 50.0756 12.541 628 111.686 426.105 489.29
1220 0 51.0523 13.4176 685 108.869 426.644 488.962
1221 0 53.0929 12.8454 682 106.512 427.65 486.358
1222 0 53.0679 11.457 608 100.064 425.934 486.349
1223 0 55.0409 11.8094 650 108.674 425.817 490.12
1224 0 60.0701 14.0003 841 103.127 425.837 485.858
1225 0 61.0393 14.0893 860 103.926 425.802 486.635
1226 0 64.061 15.0638 965 101.713 425.836 485.89
1227 0 65.0713 13.4161 873 106.424 426.058 483.75
1228 0 67.129 12.6175 847 108.462 426.416 483.355
1229 0 71.1338 14.058 1000 105.741 425.46 481.325
1230 0 75.1054 14.1934 1066 104.962 425.522 481.249
1231 0 75.1361 14.7067 1105 104.469 425.631 481.722
1232 0 78.1558 15.1364 1183 104.715 425.906 478.289
1233 0 81.2526 14.1534 1150 107.932 426.348 477.558
1234 0 82.1223 14.6489 1203 106.937 425.943 477.145
1235 0 85.1612 14.0792 1199 109.781 425.321 474.42
1236 0 89.1225 14.5193 1294 109.206 425.543 474.124
1237 0 92.0808 15.4321 1421 108.405 425.593 471.523
1238 0 94.1466 12.7355 1199 115.446 425.098 470.53
1239 1 48.0228 12.6398 607 115.932 425.236 492.119
1240 0 51.0808 12.4704 637 116.08 425.527 490.477
1241 0 53.1189 13.8369 735 108.946 425.269 486.816
1242 0 54.0437 13.23 715 111.643 425.239 487.324
1243 0 55.0954 12.7778 704 112.652 424.696 487.048
1244 0 58.1168 12.9739 754 112.062 425.455 485.822
1245 0 60.0731 13.3504 802 112.256 425.157 483.711
1246 0 61.1236 12.8919 788 109.395 426.19 484.656
1247 0 63.1552 12.4772 788 112.522 425.885 483.232
1248 0 64.235 11.4579 736 107.046 425.423 483.484
1249 0 69.2776 12.3561 856 105.863 426.109 482.234
1250 0 71.3173 12.3813 883 105.775 425.892 481.306
1251 0 74.1939 12.993 964 106.772 425.272 479.157
1252 0 76.1346 13.2922 1012 118.221 424.615 482.426
1253 0 78.0857 14.2408 1112 116.022 424.531 480.517
1254 0 80.227 13.923 1117 119.076 425.392 476.941
1255 0 84.2828 13.692 1154 118.827 425.962 476.621
1256 0 87.2907 14.3314 1251 118.375 425.894 473.287
1257 0 91.255 14.6513 1337 116.986 425.855 472.687
1258 1 48.1935 11.8481 571 122.403 426.564 491.532
1259 0 50.2055 13.4248 674 118.889 425.797 489.758
1260 0 50.0764 13.2597 664 115.366 425.72 489.134
1261 0 54.11 13.6204 737 119.801 426.038 493.217
1262 0 54.1974 14.0044 759 120.202 426.109 491.249
1263 0 56.1066 14.9537 839 117.765 425.939 489.131
1264 0 59.1391 14.7111 870 116.439 425.537 489.207
1265 0 58.1011 13.4765 783 111.926 426.273 489.866
1266 0 60.0322 12.6599 760 113.033 426.071 488.937
1267 0 63.1912 13.3879 846 112.23 426.223 487.658
1268 0 67.0944 13.3692 897 112.368 426.18 485.857
1269 0 66.1327 13.0798 865 115.283 426.783 484.525
1270 0 71.2179 14.5048 1033 110.556 425.978 483.205
1271 0 73.2678 13.7714 1009 112.745 425.816 480.733
1272 0 75.1402 14.1203 1061 112.867 425.8 479.797
1273 0 75.1402 13.5081 1015 148.597 425.819 479.216
1274 0 80.2573 14.1919 1139 115.259 426.702 475.311
1275 0 84.3108 14.0196 1182 118.02 426.822 474.176
1276 0 87.333 14.2558 1245 117.912 426.565 469.247
1277 1 46.1523 12.5021 577 119.464 426.412 488.979
1278 0 47.0597 12.516 589 119.299 426.822 490.514
1279 0 47.3225 12.5099 592 119.878 426.693 490.181
1280 0 51.1121 13.0693 668 119.457 426.5 489.958
1281 0 53.0197 12.9197 685 122.377 427.253 489.655
1282 0 53.0582 13.815 733 126.456 427.739 490.071
1283 0 57.1491 14.5584 832 122.513 427.541 489.52
1284 0 58.1018 13.8206 803 126.659 428.055 488.204
1285 0 60.0619 15.2176 914 123.603 427.133 485.543
1286 0 63.2342 14.9444 945 121.799 427.095 486.664
1287 0 63.084 14.6471 924 125.953 427.124 483.907
1288 0 67.1962 15.105 1015 122.434 427.258 482.632
1289 0 68.2584 15.1483 1034 123.66 427.312 480.935
1290 0 72.4823 15.1347 1097 121.923 427.716 481.028
1291 0 72.2084 14.8044 1069 125.157 427.366 479.459
1292 0 76.2077 16.0876 1226 121.261 427.524 479.726
1293 0 76.4503 14.7678 1129 127.002 428.112 478.396
1294 0 80.4674 15.6088 1256 123.954 427.444 477.334
1295 0 84.2578 15.5594 1311 124.323 426.979 475.295
1296 0 85.4294 15.346 1311 126.323 427.787 475.282
1297 0 91.4597 16.2039 1482 101.839 427.565 471.275
1298 0 91.369 15.9901 1461 126.212 427.242 470.995
1299 0 93.2854 14.7397 1375 130.102 427.298 470.137
1300 0 97.3543 14.9865 1459 130.35 427.485 468.377
1301 1 49.3607 15.0119 741 132.912 426.294 490.779
1302 0 51.3092 15.4553 793 134.405 426.947 489.414
1303 0 53.3129 14.9682 798 135.252 427.704 488.794
1304 0 54.3343 14.6868 798 136.332 426.991 488.006
1305 0 57.2518 15.8947 910 132.465 426.347 486.915
1306 0 59.1521 15.1305 895 134.837 426.771 485.753
1307 0 61.2925 14.4879 888 137.796 425.849 485.461
1308 0 62.2214 14.5609 906 139.284 426.379 483.162
1309 0 66.2122 16.4018 1086 132.941 427.089 482.879
1310 0 66.1981 14.6379 969 140.089 426.431 481.878
1311 0 72.2828 16.6291 1202 131.655 427.186 480.802
1312 0 73.2642 15.4236 1130 136.55 427.058 478.635
1313 0 74.2214 17.0167 1263 132.344 426.971 476.785
1314 0 77.2385 15.6787 1211 135.912 425.94 474.713
1315 0 81.1857 15.7171 1276 135.569 426.049 475.051
1316 0 82.1696 15.8088 1299 136.961 427.099 472.965
1317 0 86.0899 15.8904 1368 137.151 426.564 471.082
1318 0 89.1306 16.5712 1477 134.858 427.126 469.065
1319 0 92.0697 16.3463 1505 136.206 427.403 468.441
1320 0 97.2464 16.4016 1595 134.861 426.651 468.105
1321 0 99.1397 16.4414 1630 135.64 426.953 465.544
1322 0 103.107 16.3713 1688 135.735 426.594 464.725
1323 0 108.049 17.3717 1877 132.13 426.705 461.535
1324 0 109.056 15.4324 1683 139.1 425.756 460.222
1325 1 56.0663 13.4127 752 137.882 426.801 486.839
1326 0 59.0379 14.6855 867 136.176 427.17 484.836
1327 0 61.0268 14.977 914 135.367 426.862 483.856
1328 0 64.0167 15.1211 968 134.502 426.751 481.907
1329 0 67.0494 15.3021 1026 131.57 426.3 481.131
1330 0 65.0763 14.1987 924 136.675 426.024 480.055
1331 0 71.1365 15.5616 1107 132.231 426.615 478.222
1332 0 73.1125 15.1821 1110 133.606 426.347 477.658
1333 0 75.1121 14.7646 1109 135.703 426.337 475.093
1334 0 81.1329 14.7659 1198 132.502 426.694 474.614
1335 0 81.1518 15.1321 1228 133.573 425.932 472.819
1336 0 82.3262 15.2564 1256 135.377 425.951 469.662
1337 0 84.2488 14.1604 1193 138.351 426.503 469.541
1338 0 89.2852 15.9489 1424 131.248 426.858 467.652
1339 0 90.2893 14.7969 1336 135.879 426.555 463.323
1340 0 95.2007 14.8423 1413 133.643 426.224 462.996
1341 0 96.31 13.9653 1345 137.223 426.168 460.254
1342 0 101.379 13.484 1367 137.197 426.145 457.707
1343 0 105.128 14.8296 1559 134.117 426.637 452.267
1344 0 110.287 14.8793 1641 133.021 426.65 452.041
1345 0 113.18 15.2854 1730 131.045 426.61 449.159
1346 1 58.0401 10.8029 627 126.729 427.099 477.07
1347 0 60.0973 12.2468 736 123.073 426.463 474.542
1348 0 65.1038 12.3802 806 125.192 426.045 476.682
1349 0 67.0663 12.3013 825 124.76 426.84 476.28
1350 0 68.0909 12.7183 866 124.274 426.814 474.299
1351 0 70.0464 13.334 934 122.361 426.888 472.779
1352 0 69.1087 11.1129 768 128.204 426.398 470.898
1353 0 73.0611 11.1414 814 127.569 426.891 468.448
1354 0 75.0922 13.5833 1020 121.253 427.307 467.169
1355 0 78.1042 12.9314 1010 122.4 426.34 464.815
1356 0 79.0883 12.5556 993 123.812 426.345 462.256
1357 0 81.1712 12.7015 1031 122.588 426.392 460.282
1358 0 84.1456 12.7874 1076 122.236 426.258 458.919
1359 0 85.0778 11.0135 937 127.068 425.989 453.687
1360 0 88.1736 11.9877 1057 124.248 426.804 453.9
1361 0 90.2028 11.197 1010 125.716 425.763 449.47
1362 0 96.144 11.6492 1120 123.442 425.888 448.507
1363 0 99.2178 12.5683 1247 121.535 425.917 447.891
1364 0 101.198 13.1624 1332 118.091 425.395 449.718
1365 0 106.23 13.5085 1435 117.579 426.482 445.803
1366 0 108.304 11.3846 1233 124.758 425.987 437.253
1367 0 114.311 12.9471 1480 119.145 425.938 440.126
1368 0 116.196 11.102 1290 123.623 425.91 439.559
1369 0 121.358 10.7863 1309 126.582 426.128 433.375
1370 0 121.346 10.7791 1308 149.028 427.111 433.557
1371 0 130.173 11.9533 1556 125.172 426.164 433.565
1372 0 135.247 11.919 1612 126.12 426.642 432.817
1373 0 141.215 12.3641 1746 126.979 426.255 424.102
1374 0 145.237 11.7876 1712 129.72 425.224 420.863
1375 0 151.21 11.8378 1790 130.291 425.94 418.278
1376 0 157.338 12.0886 1902 129.557 425.683 415.903
1377 0 162.315 13.5107 2193 125.754 426.007 418.792
1378 1 101.233 9.26578 938 118.287 426.861 459.154
1379 0 104.116 10.7669 1121 115.617 426.568 459.192
1380 0 108.139 10.4218 1127 122.729 426.129 456.5
1381 0 111.141 10.0683 1119 122.587 426.496 455.369
1382 0 112.166 8.75489 982 128.022 426.41 452.124
1383 0 119.184 9.12037 1087 126.182 426.654 451.668
1384 0 125.177 10.1456 1270 121.949 425.646 448.35
1385 0 129.282 10.7207 1386 120.931 425.841 445.723
1386 1 71.1852 9.8897 704 113.254 425.74 478.977
1387 0 73.1012 9.64417 705 117.113 424.997 476.942
1388 0 72.12 8.8325 637 119.44 424.527 477.603
1389 0 77.1816 10.5595 815 115.714 424.607 475.066
1390 0 80.2517 9.7568 783 117.07 425.224 476.222
1391 0 81.1737 11.5432 937 113.775 424.41 474.204
1392 0 85.1046 10.2345 871 116.705 423.623 472.761
1393 0 88.1444 9.82479 866 117.516 423.976 471.043
1394 0 92.1031 11.6826 1076 113.816 423.756 469.641
1395 0 93.1084 11.0302 1027 116.151 424.035 466.817
1396 0 93.1244 8.60139 801 122.443 424.086 467.006
1397 0 98.1515 10.871 1067 117.701 424.44 464.828
1398 1 53.0735 8.94985 475 115.128 424.316 488.619
1399 0 55.2881 9.94789 550 113.635 425.418 486.856
1400 0 56.0653 10.0062 561 100.234 425.766 487.139
1401 0 58.0992 10.4821 609 114.833 424.545 484.545
1402 0 61.3005 10.3099 632 113.769 425.134 486.071
1403 0 62.1373 10.4768 651 113.677 425.045 484.378
1404 0 60.1249 10.7609 647 114.43 424.728 482.913
1405 0 64.2444 9.27707 596 118.923 425.874 479.869
1406 0 63.2465 8.9333 565 120.421 426.526 480.63
1407 0 65.3066 10.0296 655 117.276 426.75 480.583
1408 0 69.2306 10.66 738 116.828 426.427 477.415
1409 0 67.2402 10.4104 700 118.364 426.096 476.909
1410 0 74.3673 10.4212 775 116.514 426.408 476.399
1411 0 77.3223 9.68673 749 117.838 427.021 473.507
1412 0 77.3822 10.1832 788 117.713 426.211 472.831
1413 0 76.3846 10.3817 793 118.74 425.893 472.183
1414 0 83.3152 10.2742 856 117.863 426.911 471.977
1415 0 84.2346 10.1858 858 118.829 426.654 468.686
1416 0 86.3319 10.2396 884 118.525 426.191 468.038
1417 1 44.0695 9.41695 415 111.104 428.441 491.243
1418 0 45.0589 9.7428 439 108.519 427.378 490.588
1419 0 47.1343 10.4595 493 101.513 424.03 488.022
1420 0 47.0818 10.3862 489 102.131 423.033 488.057
1421 0 48.1149 10.1424 488 102.184 423.99 487.152
1422 0 49.1253 9.3638 460 104.867 424.528 486.235
1423 0 51.053 10.8319 553 102.08 425.02 486.398
1424 0 54.0741 11.8171 639 98.5227 424.8 486.056
1425 0 55.2117 10.3963 574 102.967 425.105 485.425
1426 0 57.0533 12.2167 697 99.0732 426.882 484.812
1427 0 57.2079 11.2921 646 102.721 426.728 484.913
1428 0 59.1926 11.4203 676 102.641 426.438 483.274
1429 0 60.1368 11.7898 709 101.976 426.896 484.46
1430 0 62.0874 12.5307 778 100.243 426.278 483.27
1431 0 64.2966 11.2292 722 103.633 425.921 483.197
1432 0 67.0937 13.1011 879 99.1581 426.167 480.147
1433 0 66.1706 11.6819 773 103.858 425.775 479.824
1434 0 69.1184 13.3828 925 100.224 425.741 478.624
1435 0 72.1574 13.5398 977 99.4821 425.831 478.456
1436 0 73.1685 12.6694 927 102.751 426.232 476.949
1437 0 73.1074 12.8304 938 104.092 425.615 475.308
1438 0 75.1396 12.9759 975 104.836 425.025 475.918
1439 0 79.1818 13.9173 1102 103.073 425.474 471.273
1440 0 81.1248 13.054 1059 105.651 425.416 471.005
1441 0 82.1304 12.0053 986 109.877 425.043 469.843
1442 0 87.2157 13.415 1170 107.082 425.241 468.235
1443 1 43.101 10.6958 461 110.18 424.527 489.499
1444 0 43.0237 11.9469 514 110.411 424.428 488.432
1445 0 47.0995 12.6965 598 107.99 424.637 489.334
1446 0 48.0696 12.6067 606 109.04 425.142 487.132
1447 0 49.0209 12.6477 620 114.926 427.1 488.958
1448 0 49.1258 12.3968 609 110.389 425.105 488.13
1449 0 52.1116 12.6651 660 109.22 425.847 488.645
1450 0 53.0315 12.8603 682 109.296 425.828 488.185
1451 0 53.1289 12.912 686 110.644 425.109 487.48
1452 0 56.0981 14.6351 821 106.435 425.514 485.08
1453 0 54.0954 12.9586 701 112.723 425.758 485.077
1454 0 56.0665 12.2176 685 113.451 424.747 486.431
1455 0 58.0788 13.9466 810 109.507 424.963 485.042
1456 0 60.1206 15.735 946 104.68 424.718 484.187
1457 0 63.0992 13.455 849 109.324 425.002 483.556
1458 0 62.0511 12.5542 779 114.205 425.65 483.687
1459 0 65.1395 15.321 998 107.638 425.337 481.645
1460 0 67.1311 14.4493 970 110.524 425.15 480.303
1461 0 68.046 14.4902 986 112.023 425.347 479.985
1462 0 69.0292 13.6754 944 113.941 425.719 477.93
1463 0 73.0487 14.99 1095 109.467 425.832 476.142
1464 0 73.1129 13.951 1020 113.701 425.796 474.654
1465 0 76.1328 14.5272 1106 112.839 425.495 475.023
1466 0 77.1251 14.5219 1120 113.064 425.292 476.804
1467 0 78.1389 13.8855 1085 113.228 426.146 476.268
1468 0 82.1934 13.1641 1082 114.053 425.994 477.687
1469 0 83.1658 14.4531 1202 112.751 426.102 475.39
1470 0 87.1085 14.2581 1242 112.403 426.144 473.025
1471 0 88.115 14.1974 1251 113.791 426.415 472.99
1472 0 91.1352 15.4057 1404 111.517 425.544 469.868
1473 0 95.2414 15.067 1435 112.488 425.277 470.687
1474 0 97.0582 14.7746 1434 113.651 425.605 470.619
1475 0 98.3151 14.7688 1452 114.6 425.048 468.794
1476 0 101.147 14.0291 1419 115.919 425.561 467.733
1477 0 103.08 14.1249 1456 116.885 425.49 464.058
1478 0 108.106 13.8475 1497 117.426 425.717 462.637
1479 0 113.237 14.3239 1622 115.784 426.118 460.054
1480 1 61.0363 11.8782 725 120.023 425.399 487.534
1481 0 64.0414 13.2258 847 125.586 424.958 484.762
1482 0 66.0342 13.5536 895 126.231 424.802 483.356
1483 0 67.0797 13.6405 915 127.008 425.254 482.254
1484 0 70.05 14.6895 1029 124.184 425.088 481.104
1485 0 72.105 13.9796 1008 126.079 424.814 480.4
1486 0 76.0483 14.5565 1107 124.333 425.353 480.356
1487 0 78.1301 14.5654 1138 125.344 426.091 478.89
1488 0 78.1301 14.5526 1137 168.429 426.1 478.921
1489 0 82.1793 12.8865 1059 130.075 426.245 477.144
1490 0 88.1987 15.193 1340 123.77 426.878 474.736
1491 0 91.1612 15.1161 1378 124.15 426.972 472.139
1492 0 91.1264 13.9477 1271 130.089 425.439 472.504
1493 1 48.0769 13.3328 641 129.047 425.594 491.339
1494 0 49.0534 12.8839 632 125.46 425.339 491.845
1495 0 52.0652 13.2334 689 120.866 424.732 490.415
1496 0 53.029 13.1249 696 121.197 424.427 489.822
1497 0 56.1402 14.25 800 117.824 425.336 489.658
1498 0 58.0432 13.6622 793 120.363 425.258 488.347
1499 0 59.1103 14.7013 869 119.208 425.551 487.536
1500 0 60.0474 13.2062 793 123.468 425.308 487.262
1501 0 62.1779 13.3488 830 123.184 425.011 486.363
1502 0 65.0439 13.8983 904 120.777 424.716 486.506
1503 0 69.0461 13.1217 906 117.077 425.942 484.291
1504 0 71.085 15.2916 1087 111.115 426.017 481.84
1505 0 68.0936 13.2465 902 120.533 426.19 482.095
1506 0 71.1359 13.8467 985 123.437 425.33 481.217
1507 0 73.0942 14.023 1025 123.037 426.458 482.049
1508 0 72.0574 13.7529 991 125.849 426.199 481.119
1509 0 75.06 14.3618 1078 125.221 425.686 481.318
1510 0 75.1465 14.4385 1085 126.664 425.424 478.821
1511 0 78.1712 13.3681 1045 127.144 425.386 479.343
1512 0 82.1884 14.2964 1175 123.62 425.626 476.62
1513 0 86.1107 14.8181 1276 120.716 425.338 475.605
1514 0 86.1602 13.9972 1206 123.301 425.454 473.788
1515 0 91.0342 14.8296 1350 118.852 425.31 474.667
1516 0 92.1077 14.4722 1333 120.727 425.076 471.17
1517 0 96.1272 14.6681 1410 119.014 424.963 470.923
1518 0 98.1838 14.4729 1421 120.951 424.718 470.519
1519 1 54.1702 12.7192 689 118.444 424.916 493.026
1520 0 57.1091 13.9032 794 118.469 425.176 489.45
1521 0 58.1411 12.848 747 124.257 424.624 488.81
1522 0 61.0608 13.6749 835 120.871 425.058 489.222
1523 0 61.1924 13.7435 841 123.09 425.054 486.977
1524 0 65.1288 14.4022 938 121.116 425.183 487.311
1525 0 64.1465 14.7319 945 123.218 425.681 484.757
1526 0 67.086 13.6541 916 126.5 425.978 486.35
1527 0 68.196 13.8571 945 126.582 426.044 484.822
1528 0 71.1401 13.9021 989 126.161 424.704 486.464
1529 0 73.1437 13.1522 962 130.382 424.757 483.561
1530 0 76.1843 13.9268 1061 128.736 425.696 483.487
1531 0 76.0553 13.3982 1019 132.726 425.736 481.878
1532 0 79.0389 14.5498 1150 130.319 425.078 479.302
1533 0 81.1424 14.0617 1141 132.349 424.578 478.527
1534 0 84.1173 13.3266 1121 135.057 425.211 478.011
1535 0 87.1647 14.9602 1304 131.577 425.534 475.143
1536 1 41.0097 11.9728 491 146.259 424.012 496.778
1537 0 43.1017 12.8069 552 140.592 425.447 494.842
1538 0 45.043 13.6092 613 133.896 425.989 495.427
1539 0 46.0765 12.935 596 135.193 425.928 495.487
1540 0 48.0616 14.0653 676 130.376 425.929 495.352
1541 0 48.0699 13.4804 648 134.795 425.545 493.182
1542 0 50.0326 14.0109 701 131.529 425.866 494.241
1543 0 52.0607 14.2718 743 131.448 425.894 490.728
1544 0 54.1358 13.1336 711 134.454 425.219 492.27
1545 0 53.08 13.3572 709 135.3 425.23 490.137
1546 0 56.0657 12.8599 721 135.368 425.305 489.893
1547 0 59.1007 14.9914 886 128.097 425.637 488.758
1548 0 60.1032 13.1108 788 133.61 425.247 488.85
1549 0 63.0852 14.1872 895 129.829 425.108 486.892
1550 0 64.1006 13.3384 855 131.205 425.072 487.433
1551 0 68.0669 13.3986 912 129.621 424.611 484.81
1552 0 69.0403 14.0208 968 127.645 424.386 483.108
1553 0 72.1048 14.576 1051 124.53 425.031 483.44
1554 0 73.1232 13.9901 1023 125.98 424.123 482.174
1555 0 76.0858 14.1025 1073 125.506 423.291 480.696
1556 0 79.1015 13.8935 1099 125.729 423.798 478.378
1557 0 83.1531 13.3609 1111 125.868 423.772 477.34
1558 0 86.0902 14.2641 1228 120.204 423.568 475.849
1559 0 88.0991 14.5518 1282 119.551 424.176 472.911
1560 0 90.1271 13.9248 1255 121.638 423.823 471.826
1561 0 93.0418 13.7143 1276 120.411 424.578 469.654
1562 1 49.0247 11.0556 542 117.843 424.386 490.207
1563 0 49.0884 12.4673 612 117.9 424.095 488.637
1564 0 50.051 11.6281 582 117.806 424.503 487.383
1565 0 53.1263 13.1197 697 113.143 424.671 486.445
1566 0 53.0301 12.276 651 116.084 424.916 486.805
1567 0 56.046 13.5424 759 112.062 424.877 483.542
1568 0 58.0891 12.3431 717 112.153 424.841 482.06
1569 0 62.0745 12.2595 761 111.516 424.463 483.754
1570 0 63.0347 13.1356 828 110.603 424.217 480.988
1571 0 64.0306 11.8069 756 114.39 425.036 480.32
1572 0 66.0333 12.2968 812 113.373 424.563 480.815
1573 0 67.1485 11.6607 783 116.023 424.139 479.722
1574 0 72.0474 13.0886 943 112.55 423.792 478.432
1575 0 73.0981 12.7363 931 114.333 424.633 476.599
1576 0 74.1526 12.0158 891 117.153 424.715 475.842
1577 0 79.0999 13.1985 1044 114.134 424.123 475.127
1578 0 82.127 14.6967 1207 110.994 424.316 472.437
1579 0 84.0603 14.0732 1183 114.323 423.698 472.537
1580 0 87.0921 13.3881 1166 117.245 423.992 469.505
1581 0 90.1137 13.9379 1256 115.621 424.291 467.873
1582 0 90.047 12.8933 1161 119.772 424.537 467.008
1583 0 95.0593 13.076 1243 118.692 424.542 465.552
1584 0 99.1386 13.6072 1349 116.582 423.703 462.479
1585 0 105.186 13.8707 1459 128.504 423.388 466.636
1586 1 56.1248 13.0067 730 128.588 423.626 488.662
1587 0 60.0936 12.4306 747 127.64 423.546 488.699
1588 0 59.0662 11.9527 706 121.204 423.863 482.18
1589 0 60.0375 12.259 736 121.803 424.685 479.879
1590 0 60.097 12.4632 749 122.991 424.477 479.028
1591 0 63.1384 11.6094 733 125.273 424.229 477.307
1592 0 67.1546 11.4363 768 124.605 423.826 476.332
1593 0 69.0898 12.7515 881 121.956 423.867 476.589
1594 0 73.0732 12.9185 944 112.96 424.821 474.828
1595 0 75.0482 13.4713 1011 112.908 423.701 472.286
1596 0 78.3763 12.861 1008 114.592 423.24 469.683
1597 0 79.0806 12.62 998 118.07 423.717 467.182
1598 0 84.2279 14.1877 1195 114.607 424.225 464.314
1599 0 86.2447 12.9747 1119 118.17 424.232 464.83
1600 0 90.1617 12.9212 1165 119.032 424.342 462.683
1601 0 94.1554 13.2228 1245 117.409 424.234 463.365
1602 1 48.0341 12.5328 602 111.032 424.472 485.56
1603 0 49.1105 11.0974 545 112.279 424.69 485.297
1604 0 49.0859 12.2438 601 112.03 424.483 484.699
1605 0 53.144 13.5105 718 113.511 424.733 489.63
1606 0 57.1955 14.0745 805 110.443 425.19 489.43
1607 0 57.15 12.9659 741 114.448 425.329 487.005
1608 0 60.1456 13.6336 820 112.632 425.557 485.779
1609 0 63.2115 12.561 794 114.424 425.355 484.509
1610 0 65.2359 12.6464 825 113.638 425.21 484.135
1611 0 68.2398 13.4819 920 111.937 425.149 482.041
1612 0 71.2206 12.8895 918 112.007 424.422 481.41
1613 0 72.1206 13.5468 977 106.995 425.439 480.545
1614 0 75.1527 13.0268 979 108.027 425.406 478.544
1615 0 80.2507 12.8597 1032 88.438 425.641 476.221
1616 0 78.1768 12.638 988 108.782 425.284 476.702
1617 0 81.1043 13.0573 1059 107.086 425.582 476.653
1618 0 84.1734 13.1989 1111 106.96 425.086 473.373
1619 0 87.0928 12.8484 1119 106.718 424.173 473.236
1620 0 91.2241 13.0338 1189 105.056 424.99 471.167
1621 0 91.2052 11.8853 1084 109.284 424.766 470.101
1622 0 94.1223 11.3576 1069 111.168 425.35 468.597
1623 0 97.1681 11.5882 1126 110.373 424.821 465.264
1624 1 53.0544 10.6118 563 106.645 424.742 486.481
1625 0 57.0989 13.2051 754 102.987 424.792 486.312
1626 0 57.0321 11.1692 637 107.859 425.005 486.838
1627 0 62.034 12.0579 748 104.205 425.336 484.682
1628 0 61.0476 10.9095 666 107.477 425.249 484.438
1629 0 66.1782 12.0735 799 103.656 424.831 483.638
1630 0 66.0612 11.9586 790 105.618 424.519 480.924
1631 0 70.242 11.8305 831 105.582 424.745 481.738
1632 0 71.1703 12.2523 872 104.952 424.642 479.564
1633 0 74.1657 12.6743 940 104.639 424.351 478.037
1634 0 76.1696 12.5509 956 105.99 424.892 478.088
1635 0 77.1206 12.0201 927 107.494 424.789 478.385
1636 0 81.2243 12.5824 1022 105.965 424.542 475.704
1637 0 85.1923 12.7124 1083 104.49 424.323 476.857
1638 0 86.1913 12.7043 1095 107.49 423.372 471.858
1639 0 89.2451 12.785 1141 106.714 423.305 470.928
1640 0 90.2268 11.4046 1029 111.482 424.007 469.97
1641 0 94.3891 11.4208 1078 111.862 423.136 465.157
1642 1 52.2033 11.6276 607 106.405 423.619 488.132
1643 0 53.0667 10.6847 567 106.774 425.055 492.608
1644 0 54.1705 12.996 704 105.597 424.447 490.115
1645 0 54.1189 12.8606 696 108.928 424.534 486.575
1646 0 54.1854 12.365 670 112.701 425.427 485.818
1647 0 55.1028 12.4676 687 111.748 425.396 486.16
1648 0 56.1792 11.9439 671 113.425 425.437 485.718
1649 0 61.1515 11.0545 676 113.775 425.703 485.004
1650 0 62.1728 12.3527 768 113.096 426.068 481.766
1651 0 65.1765 12.3204 803 112.553 424.969 482.57
1652 0 65.199 11.3038 737 115.615 425.608 481.179
1653 0 70.1109 13.7639 965 109.131 424.816 480.993
1654 0 73.2292 13.3144 975 110.504 424.851 480.437
1655 0 72.0705 12.3074 887 115.382 424.993 474.723
1656 0 78.2621 13.8509 1084 110.153 425.35 476.443
1657 0 79.3064 12.7732 1013 114.067 424.685 474.07
1658 0 84.1958 13.6705 1151 112.767 423.626 470.048
1659 0 88.2839 14.9065 1316 111.774 423.664 470.119
1660 0 91.2743 14.177 1294 112.975 424.239 469.537
1661 0 91.3942 13.8193 1263 114.999 424.1 467.556
1662 0 97.5256 13.9861 1364 114.158 424.452 464.144
1663 1 54.3855 11.3449 617 115.66 425.224 488.43
1664 0 53.2115 10.6744 568 112.683 424.18 485.59
1665 0 54.2396 11.1727 606 113.097 424.195 484.191
1666 0 56.2105 12.8802 724 118.931 424.186 486.122
1667 0 60.3346 13.8726 837 115.511 424.481 484.851
1668 0 61.1707 13.7157 839 117.026 424.909 484.522
1669 0 62.2252 13.5154 841 120.353 424.886 483.288
1670 0 65.2625 14.6792 958 117.366 424.888 482.653
1671 0 65.2115 12.8352 837 123.368 424.903 483.337
1672 0 69.2319 13.5487 938 121.344 424.61 482.832
1673 0 70.1259 14.3171 1004 121.502 424.681 480.855
1674 0 74.1999 13.1806 978 124.698 424.899 479.936
1675 0 73.1976 13.3884 980 126.119 425.412 479.817
1676 0 77.2094 14.493 1119 123.852 425.298 476.444
1677 0 79.2596 14.5219 1151 123.793 424.949 475.262
1678 0 82.2741 15.2539 1255 121.347 424.562 473.692
1679 0 85.1083 13.3477 1136 126.51 425.261 473.7
1680 0 88.1511 14.1121 1244 124.825 425.432 471.97
1681 0 92.1355 13.4584 1240 123.989 425.19 469.78
1682 0 93.1891 13.596 1267 123.242 424.917 466.817
1683 1 49.0312 10.5443 517 114.551 425.087 488.217
1684 0 50.1934 10.4595 525 113.651 424.232 484.623
1685 0 50.1156 11.0145 552 111.308 424.464 485.024
1686 0 56.0576 11.4882 644 108.228 424.183 484.328
1687 0 54.0599 11.8017 638 109.353 423.817 482.455
1688 0 56.0377 12.2239 685 109.38 424.629 480.366
1689 0 59.0428 12.076 713 108.394 424.564 480.344
1690 0 61.0643 12.4295 759 107.791 424.141 480.401
1691 0 64.0956 11.8261 758 108.301 424.372 480.098
1692 0 64.1968 12.6019 809 108.633 425.069 478.167
1693 0 67.0663 12.5697 843 108.232 425.378 475.763
1694 0 68.1383 11.55 787 111.789 424.738 476.867
1695 0 71.0713 12.2975 874 110.794 424.554 474.883
1696 0 73.0642 12.3727 904 111.57 424.878 472.737
1697 0 76.1412 12.8708 980 110.877 425.156 472.555
1698 0 79.0588 12.5476 992 111.683 424.725 472.551
1699 0 83.2855 11.8748 989 113.308 424.158 471.796
1700 0 85.2013 12.2064 1040 113.257 424.096 469.373
1701 0 87.0858 12.6312 1100 113.687 424.131 465.669
1702 0 91.1484 11.794 1075 115.27 424.64 465.97
1703 0 95.0969 12.7554 1213 113.354 424.142 465.062
1704 0 97.1822 12.1216 1178 113.424 423.991 465.576
1705 1 48.1126 11.6601 561 108.809 424.414 484.274
1706 0 53.0326 11.1064 589 105.691 424.414 484.076
1707 0 55.0304 11.3937 627 106.746 423.764 483.255
1708 0 56.0683 11.3433 636 114.374 424.706 481.082
1709 0 58.0272 11.0121 639 114.867 424.715 482.172
1710 0 61.0561 12.3329 753 112.976 425.231 478.814
1711 0 63.0152 13.0603 823 111.348 424.863 478.604
1712 0 63.0152 12.9969 819 136.212 423.863 478.546
1713 0 68.1278 11.8894 810 114.302 424.63 477.786
1714 0 69.1152 12.6745 876 114.484 424.691 474.505
1715 0 72.1399 12.6144 910 114.582 424.219 474.273
1716 0 74.1635 12.5399 930 114.724 423.578 474.215
1717 0 76.1893 12.3114 938 117.316 423.652 469.054
1718 0 77.0498 11.8365 912 119.393 423.303 470.837
1719 0 83.2657 12.9345 1077 116.58 423.4 468.227
1720 0 86.1152 12.6226 1087 116.943 423.924 467.27
1721 1 45.113 9.15478 413 110.061 424.259 489.935
1722 0 46.0584 10.0307 462 111.885 424.348 488.822
1723 0 49.0957 11.1619 548 108.186 424.777 487.438
1724 0 51.0911 11.8416 605 115.912 425.139 489.377
1725 0 54.075 12.2607 663 114.127 425.513 488.43
1726 0 55.1153 12.6825 699 113.664 425.255 487.558
1727 0 58.1132 12.751 741 113.761 425.401 485.592
1728 0 59.0902 13.1663 778 113.72 425.419 484.793
1729 0 61.0947 11.8832 726 117.012 425.694 486.785
1730 0 60.0723 12.4517 748 117.434 425.969 486.816
1731 0 61.0652 12.2328 747 119.549 425.139 485.467
1732 0 65.0473 12.4064 807 118.209 424.462 483.44
1733 0 66.0977 12.3 813 118.914 425.246 481.862
1734 0 69.1611 11.8564 820 119.948 425.262 481.433
1735 0 72.0628 12.5169 902 117.35 425.462 480.573
1736 0 74.1434 12.8535 953 116.609 425.108 479.633
1737 0 78.1924 11.9833 937 118.259 425.014 477.741
1738 0 82.118 13.1031 1076 114.696 425.025 475.688
1739 0 83.1853 13.1634 1095 116.214 424.596 473.343
1740 1 47.0436 12.4778 587 114.436 424.828 492.077
1741 0 49.0751 11.9612 587 115.973 425.552 491.366
1742 0 50.1615 11.6823 586 116.833 425.57 489.823
1743 0 51.1004 11.8982 608 114.362 425.678 490.661
1744 0 53.0644 13.8322 734 109.326 425.109 489.624
1745 0 55.1317 12.842 708 111.282 425.434 488.436
1746 0 54.0708 12.2247 661 114.07 424.965 488.862
1747 0 59.1077 13.3824 791 110.233 424.762 486.837
1748 0 60.2142 12.9039 777 111.296 424.707 486.147
1749 0 61.1235 13.2355 809 111.926 424.979 484.344
1750 0 62.0782 11.8882 738 111.238 425.154 483.388
1751 0 64.1222 12.1175 777 110.871 424.651 484.238
1752 0 67.1536 13.3128 894 109.399 424.681 482.724
1753 0 67.0409 10.9635 735 112.713 424.965 484.144
1754 0 70.1082 12.0385 844 110.216 423.978 481.669
1755 0 72.0476 12.0198 866 109.085 424.895 481.156
1756 0 75.1015 11.7974 886 108.918 425.448 480.255
1757 0 76.1783 12.4182 946 108.381 424.622 477.696
1758 0 80.0797 12.5875 1008 108.059 424.423 475.568
1759 0 83.1445 11.6664 970 109.438 424.837 475.645
1760 0 84.0982 11.439 962 110.784 424.709 475.103
1761 0 89.0567 13.0254 1160 109.101 425.215 470.775
1762 1 49.0193 12.0973 593 109.167 425.258 490.551
1763 0 47.0663 11.2395 529 112.164 423.157 490.45
1764 0 52.0378 13.0098 677 111.411 422.173 489
1765 0 54.0734 12.7604 690 112.677 422.449 488.117
1766 0 53.0338 10.597 562 120.475 421.845 484.536
1767 0 54.0693 10.8379 586 121.635 422.389 487.302
1768 0 55.2852 11.0699 612 122.415 424.706 484.348
1769 0 59.217 13.5096 800 116.261 424.674 485.256
1770 0 59.1795 11.8284 700 120.866 424.446 485.101
1771 0 63.1316 12.2759 775 119.929 424.116 484.563
1772 0 64.1914 13.2884 853 117.551 425.056 483.948
1773 0 68.2724 13.2411 904 117.5 425.14 482.984
1774 0 68.2852 12.5064 854 121.342 425.159 481.581
1775 0 69.129 12.3971 857 122.741 425.341 481.126
1776 0 73.1882 11.9282 873 122.827 424.159 479.069
1777 0 75.2418 12.8785 969 120.072 424.446 479.231
1778 0 80.1582 12.3132 987 121.208 424.3 476.398
1779 0 84.3222 13.2705 1119 118.165 423.928 475.675
1780 0 85.2643 13.7924 1176 117.953 423.745 473.269
1781 1 48.0329 12.2833 590 117.529 424.363 492.754
1782 0 49.0945 12.2621 602 120.279 425.143 490.668
1783 0 52.0651 13.099 682 115.919 424.782 489.5
1784 0 53.1292 13.1001 696 119.795 424.576 488.124
1785 0 56.0785 14.1409 793 115.711 424.541 489.499
1786 0 56.062 14.5375 815 116.29 425.139 487.881
1787 0 55.0759 12.3829 682 123.541 424.367 486.893
1788 0 58.0387 12.6123 732 121.746 425.164 486.046
1789 0 61.0708 13.3124 813 118.606 425.673 485.524
1790 0 61.0557 12.3166 752 121.882 425.035 485.286
1791 0 65.0344 12.9009 839 120.185 424.868 483.763
1792 0 67.0828 13.625 914 118.193 424.871 482.043
1793 0 68.062 12.7384 867 121.251 424.709 481.201
1794 0 71.0993 13.9242 990 117.199 424.504 481.856
1795 0 71.0344 12.5151 889 123.053 424.432 479.596
1796 0 74.0924 12.8893 955 122.303 425.004 478.387
1797 0 75.0611 12.8296 963 123.345 424.968 477.129
1798 0 79.1179 13.2461 1048 120.164 424.561 477.356
1799 0 84.0887 14.8058 1245 115.922 424.295 476.394
1800 1 40.0313 11.2662 451 121.1 425.144 494.929
1801 0 46.0313 12.4698 574 114.721 425.209 494.294
1802 0 46.0771 12.9348 596 115.235 425.166 492.364
1803 0 46.0441 11.5107 530 117.508 424.2 493.398
1804 0 49.0821 13.7117 673 114.911 425.428 490.649
1805 0 50.2463 14.8668 747 112.58 424.969 489.027
1806 0 51.1793 12.7004 650 118.437 424.706 488.248
1807 0 52.1808 13.3382 696 117.157 424.659 488.438
1808 0 54.1551 13.4059 726 117.021 425.063 488.683
1809 0 56.1606 14.1914 797 115.428 424.92 487.853
1810 0 56.1477 13.4467 755 120.234 425.417 487.339
1811 0 60.0805 13.6317 819 117.905 425.796 488.166
1812 0 61.1695 14.1901 868 117.892 424.13 484.423
1813 0 64.1494 14.6065 937 115.923 423.831 483.303
1814 0 66.1164 14.051 929 117.399 423.919 483.328
1815 0 67.0764 14.5506 976 117.315 423.438 481.997
1816 0 70.1657 14.252 1000 117.732 423.732 480.548
1817 0 73.1341 14.6307 1070 116.502 423.749 480.001
1818 0 74.123 14.1117 1046 118.743 423.942 479.95
1819 0 76.0457 13.5971 1034 120.365 424.149 476.972
1820 0 80.1161 15.4401 1237 114.926 423.628 475.276
1821 0 83.1426 14.6014 1214 116.975 423.484 473.514
1822 0 85.1979 14.3431 1222 117.872 423.499 475.139
1823 0 88.1424 14.4198 1271 118.031 424.026 471.659
1824 0 91.145 14.9213 1360 117.15 423.897 468.676
1825 0 93.2281 14.5128 1353 118.535 424.214 468.984
1826 1 53.0609 11.7601 624 122.476 424.276 489.756
1827 0 51.1069 10.8987 557 114.32 424.275 485.325
1828 0 51.0435 11.2453 574 114.263 424.03 481.997
1829 0 54.1381 12.2095 661 107.752 424.242 483.581
1830 0 54.1452 10.4349 565 112.019 423.887 482.294
1831 0 58.132 11.7319 682 108.216 424.309 480.51
1832 0 59.1028 13.2312 782 105.35 424.349 479.373
1833 0 63.1091 12.4705 787 107.311 424.341 477.907
1834 0 64.0773 12.563 805 106.857 424.262 478.517
1835 0 66.0862 11.7271 775 110.859 424.21 476.017
1836 0 68.0949 11.528 785 109.813 424.014 477.355
1837 0 70.1533 11.5889 813 111.846 424.332 474.895
1838 0 74.065 12.9751 961 107.661 424.301 474.974
1839 0 77.1205 15.1711 1170 103.425 423.693 473.678
1840 0 80.0789 13.3993 1073 108.227 423.83 470.916
1841 0 81.066 12.2246 991 113.622 423.198 468.196
1842 0 86.1537 12.4197 1070 112.669 423.176 466.999
1843 0 87.1955 12.3745 1079 93.8406 424.07 467.567
1844 0 92.1826 13.6143 1255 111.095 423.069 464.578
1845 0 94.1498 12.8731 1212 114.889 423.115 460.71
1846 0 99.1511 11.7598 1166 118.579 423.815 460.822
1847 1 49.0367 10.5431 517 113.865 423.611 484.687
1848 0 53.129 11.1991 595 113.439 423.553 485.435
1849 0 53.0888 10.8874 578 114.324 423.63 484.327
1850 0 55.1345 11.3903 628 113.169 423.838 482.013
1851 0 59.0972 11.4896 679 110.087 423.957 481.281
1852 0 59.1092 11.2842 667 109.087 423.979 479.97
1853 0 62.1275 11.6696 725 108.247 424.567 480.979
1854 0 61.0664 12.0525 736 108.94 423.965 475.985
1855 0 67.0716 10.3621 695 110.501 424.699 478.728
1856 0 65.052 11.6369 757 111.473 424.116 473.314
1857 0 70.1107 11.8527 831 109.763 423.171 474.858
1858 0 70.0878 10.9149 765 114.044 424.37 472.593
1859 0 75.099 11.2252 843 112.193 423.958 470.204
1860 0 78.1241 11.3025 883 111.862 423.911 471.053
1861 0 80.241 12.1758 977 110.267 423.977 469.917
1862 0 82.0971 12.8263 1053 109.065 423.578 469.632
1863 0 83.0533 11.5227 957 113.261 424.234 466.159
1864 0 87.2369 12.3801 1080 111.34 424.072 466.212
1865 0 92.2422 11.0795 1022 115.422 424.478 464.595
1866 0 93.1764 12.3422 1150 113.671 424.262 460.928
1867 0 96.2166 12.0873 1163 114.435 424.188 461.668
1868 0 101.184 13.352 1351 113.325 424.425 462.483
1869 0 104.324 12.2982 1283 117.751 423.937 461.362
1870 0 107.306 12.5809 1350 119.748 424.403 459.696
1871 0 110.145 11.8207 1302 120.515 424.445 459.123
1872 0 117.186 11.3494 1330 119.542 424.044 455.829
1873 1 67.1843 11.6396 782 118.948 424.674 484.348
1874 0 67.1141 11.7561 789 108.572 423.911 476.223
1875 0 69.2442 11.51 797 108.68 424.913 476.455
1876 0 71.0634 11.8345 841 110.62 425.196 476.008
1877 0 72.022 10.7328 773 113.411 425.348 474.578
1878 0 76.1175 11.4166 869 107.555 425.519 475.356
1879 0 78.1255 10.7519 840 107.224 425.063 476.012
1880 0 79.0622 10.7131 847 109.417 425.29 472.68
1881 0 84.0766 12.2983 1034 104.777 424.955 472.771
1882 0 86.0418 9.91378 853 109.415 424.843 472.871
1883 0 91.1202 11.0074 1003 107.883 424.6 468.98
1884 0 94.1001 11.5834 1090 106.722 424.918 470.43
1885 0 96.0933 11.0205 1059 109.282 424.441 466.933
1886 0 99.1071 10.4533 1036 111.038 424.941 464.249
1887 0 102.192 11.8307 1209 109.388 425.108 466.101
1888 0 106.172 12.0841 1283 109.505 424.264 464.423
1889 0 110.341 12.5067 1380 108.584 424.601 461.583
1890 0 113.165 11.4258 1293 111.318 424.811 460.868
1891 1 63.1574 13.3793 845 100.994 425.11 484.329
1892 0 65.1591 11.8633 773 106.259 425.132 481.43
1893 0 67.1208 11.2931 758 107.544 425.332 483.566
1894 0 70.107 12.0387 844 105.635 425.492 481.398
1895 0 72.172 12.3455 891 105.031 425.971 478.008
1896 0 76.156 12.9865 989 102.457 426.004 476.899
1897 0 78.1003 11.8181 923 105.433 425.618 478.446
1898 0 80.1033 13.2204 1059 102.929 425.992 474.184
1899 0 81.0526 12.3747 1003 105.093 425.504 475.858
1900 0 85.1333 11.8403 1008 106.316 426.102 469.731
1901 0 89.0672 13.0014 1158 102.806 425.962 470.512
1902 0 92.1129 13.1143 1208 101.864 425.81 469.531
1903 0 93.0918 12.5253 1166 104.352 425.342 468.069
1904 0 98.1208 12.9127 1267 101.675 425.523 469.629
1905 0 101.141 13.2587 1341 101.039 424.83 463.943
1906 0 102.117 12.3877 1265 105.648 424.932 463.335
1907 0 106.125 12.9281 1372 104.007 424.509 460.999
1908 0 109.164 12.156 1327 105.779 425.052 462.02
1909 0 110.289 12.2769 1354 105.658 425.009 457.58
1910 0 114.251 13.3741 1528 105.16 423.697 457.525
1911 0 118.25 13.0232 1540 109.403 424.158 456.932
1912 0 120.281 12.5374 1508 112.242 424.556 454.802
1913 1 64.1735 11.5157 739 105.392 425.517 483.771
1914 0 67.0869 11.1497 748 105.758 425.388 483.158
1915 0 70.1716 11.7854 827 107.605 424.359 480.096
1916 0 73.1632 11.6179 850 99.6871 424.607 476.694
1917 0 74.1867 11.8215 877 98.683 423.949 475.208
1918 0 74.2868 10.5133 781 103.055 423.936 472.948
1919 0 78.3086 11.9144 933 100.779 423.26 473.686
1920 0 82.2653 12.3868 1019 101.664 423.83 471.034
1921 0 85.097 12.3271 1049 102.662 423.509 471.388
1922 0 87.1704 11.38 992 103.835 423.18 470.718
1923 0 91.2493 12.2302 1116 102.733 423.057 468.734
1924 0 93.1412 12.7334 1186 102.227 423.223 467.996
1925 0 96.1544 12.4799 1200 103.428 423.817 466.694
1926 0 100.218 14.0394 1407 99.8614 423.372 464.087
1927 0 104.155 13.1726 1372 102.266 423.655 462.752
1928 0 106.196 12.7029 1349 104.786 423.602 459.892
1929 0 111.182 12.448 1384 105.423 424.428 459.55
1930 0 113.207 11.8455 1341 107.209 424.581 459.422
1931 0 116.25 12.086 1405 109.32 424.32 454.879
1932 1 61.0294 11.5682 706 110.765 424.969 487.193
1933 0 62.0183 11.8191 733 111.742 425.027 484.446
1934 0 64.0764 11.6267 745 105.282 424.789 484.851
1935 0 66.062 11.58 765 106.524 424.712 481.558
1936 0 69.2033 11.6324 805 106.594 424.388 481.902
1937 0 70.1236 12.207 856 107.042 425.008 481.565
1938 0 70.2308 12.3735 869 108.585 424.281 479.801
1939 0 73.1716 12.6005 922 107.754 424.497 480.495
1940 0 76.1102 12.4556 948 108.669 424.253 477.4
1941 0 78.1864 12.3423 965 110.041 424.496 477.858
1942 0 81.1311 12.6955 1030 110.324 424.711 477.046
1943 0 83.1964 13.3299 1109 108.776 424.328 476.284
1944 0 85.1625 13.1748 1122 110.053 424.353 473.583
1945 0 86.295 12.5268 1081 111.806 424.068 471.825
1946 0 92.257 13.7117 1265 108.96 424.304 471.376
1947 0 92.2078 12.4176 1145 114.292 424.31 469.068
1948 0 95.2258 12.6016 1200 113.67 424.442 468.952
1949 0 99.2841 13.4765 1338 111.293 423.978 468.572
1950 0 102.218 13.432 1373 114.369 423.728 465.408
1951 0 105.385 12.9526 1365 118.456 423.729 464.092
1952 0 107.277 12.1555 1304 121.071 423.284 460.612
1953 0 112.445 12.406 1395 120.106 423.642 464.322
1954 0 116.359 13.0544 1519 120.253 423.687 459.33
1955 0 120.405 13.5127 1627 119.237 423.773 457.873
1956 0 123.314 12.7399 1571 120.694 424.118 455.675
1957 0 128.282 14.8657 1907 113.262 424.231 452.832
1958 0 130.385 13.5752 1770 116.053 424.418 450.593
1959 0 136.204 12.5326 1707 115.869 424.677 450.446
1960 1 70.1378 12.3329 865 107.149 424.524 483.232
1961 0 73.1619 12.5612 919 106.729 424.158 481.991
1962 0 75.1665 13.4634 1012 104.315 424.417 479.871
1963 0 76.2288 12.3706 943 107.788 425.035 479.448
1964 0 77.1112 12.1772 939 108.547 424.518 476.268
1965 0 80.2506 12.7476 1023 107.013 424.473 476.382
1966 0 83.1435 13.7473 1143 105.688 424.316 473.742
1967 0 87.2713 13.0169 1136 106.562 424.091 471.93
1968 0 89.2062 13.9004 1240 104.875 424.265 471.39
1969 0 90.28 12.4945 1128 108.418 424.988 469.061
1970 0 93.2845 13.4428 1254 105.563 424.436 470
1971 0 96.4703 13.0092 1255 106.502 424.902 467.59
1972 0 97.3393 11.9479 1163 109.215 424.768 466.823
1973 0 101.115 12.7478 1289 107.693 424.519 463.188
1974 0 104.201 13.0901 1364 107.185 424.177 462.233
1975 0 110.348 13.2943 1467 106.482 424.185 458.89
1976 0 113.393 12.0995 1372 108.889 424.589 460.759
1977 0 118.39 13.0417 1544 107.852 424.17 454.763
1978 0 121.349 12.2622 1488 109.786 424.136 454.474
1979 0 127.535 13.957 1780 107.412 423.993 452.839
1980 1 146.351 10.6252 1555 112.241 424.515 454.001
1981 0 136.218 12.8837 1755 111.386 424.234 439.028
1982 0 139.394 13.573 1892 111.115 424.411 439.05
1983 0 146.302 13.1099 1918 112.267 424.548 439.769
1984 0 149.402 14.3171 2139 108.122 423.867 442.934
1985 0 153.305 12.9284 1982 112.675 424.59 438.359
1986 0 159.332 15.1131 2408 108.633 424.2 432.954
1987 0 165.334 15.2056 2514 108.733 423.381 431.097
1988 0 170.311 14.6027 2487 110.282 423.092 433.396
1989 1 264.59 13.7912 3649 111.207 423.149 392.776
1990 0 374.973 16.5799 6217 106.093 423.241 327.358
1991 0 386.97 17.1874 6651 107.966 423.767 317.459
1992 1 308.536 21.7609 6714 95.2837 423.052 348.59
1993 0 311.733 19.4718 6070 102.089 423.042 341.681
1994 1 203.469 14.066 2862 114.781 423.159 415.009
1995 0 211.342 13.9017 2938 115.89 423.569 408.167
1996 0 220.365 13.6727 3013 116.304 423.95 404.942
1997 0 225.418 12.4569 2808 119.037 423.768 403.1
1998 0 235.41 13.228 3114 118.772 423.398 394.917
1999 1 61.1736 11.8842 727 109.915 423.074 479.912
2000 0 64.209 13.0355 837 110.908 422.913 479.18
2001 0 68.1012 14.1995 967 109.053 422.474 482.12
2002 0 70.1215 13.0916 918 111.865 422.647 481.168
2003 0 72.1264 12.797 923 109.59 422.729 480.131
2004 0 76.0928 14.0881 1072 106.919 423.301 478.17
2005 0 77.0671 12.5086 964 112.021 423.253 477.888
2006 0 79.1091 13.8669 1097 110.719 423.209 473.064
2007 0 84.1103 12.983 1092 111.949 423.595 474.248
2008 0 88.1286 13.8548 1221 109.296 423.001 472.316
2009 1 51.2028 11.64 596 116.166 423.049 489.476
2010 0 53.2661 13.6485 727 113.897 423.226 486.901
2011 0 55.3365 13.192 730 110.836 424.04 485.468
2012 0 57.0755 11.1256 635 108.554 423.247 487.729
2013 0 59.0966 11.3543 671 108.581 423.846 487.905
2014 0 61.1514 12.4936 764 106.954 423.88 485.944
2015 0 62.0482 12.0874 750 109.088 423.979 484.777
2016 0 66.149 13.001 860 104.658 423.162 482.905
2017 0 69.0658 11.6411 804 108.484 424.052 482.716
2018 0 70.0398 12.8784 902 106.807 424.008 481.214
2019 0 73.2194 13.7259 1005 103.866 423.63 473.807
2020 0 75.1209 11.9541 898 108.732 424.02 478.356
2021 0 78.0527 12.2097 953 116.235 424.584 477.132
2022 0 80.1043 11.1729 895 119.675 424.072 474.278
2023 0 85.1616 12.0594 1027 117.472 424.111 474.984
2024 0 87.1026 11.5037 1002 110.737 425.067 457.139
2025 0 90.0582 12.1144 1091 109.023 425.172 450.797
2026 0 94.1857 11.9976 1130 107.965 424.583 452.104
2027 1 51.2175 11.129 570 107.442 425.461 474.521
2028 0 51.1286 10.9332 559 108.236 425.005 475.368
2029 0 53.2592 12.0167 640 105.472 424.916 472.016
2030 0 55.3517 11.9238 660 107.094 424.542 471.576
2031 0 55.2426 12.6171 697 107.093 424.735 469.261
2032 0 57.222 12.1457 695 107.455 424.596 473.298
2033 0 60.2729 13.19 795 105.318 424.511 473.677
2034 0 62.1722 12.8997 802 106.683 424.261 470.626
2035 0 63.2752 12.7064 804 108.081 423.244 469.72
2036 0 66.1337 13.6995 906 104.405 423.977 467.667
2037 0 67.3186 13.6367 918 104.745 423.988 471.398
2038 0 69.2353 13.3169 922 105.466 424.592 477.183
2039 0 71.2364 13.1955 940 107.152 424.799 476.527
2040 0 73.1508 13.3423 976 108.446 424.707 474.294
2041 0 74.4034 13.0908 974 110.394 425.201 474.989
2042 0 76.3543 13.3588 1020 111.722 425.277 472.426
2043 0 81.2822 13.8038 1122 109.98 424.548 470.484
2044 0 84.3999 14.3602 1212 108.899 424.781 470.337
2045 0 85.1784 13.8298 1178 111.49 424.246 467.514
2046 0 87.2817 14.0006 1222 111.849 424.439 468.087
2047 0 90.331 13.9266 1258 112.498 424.385 467.507
2048 0 93.3765 12.6584 1182 116.371 423.53 465.326
2049 0 96.2484 12.7379 1226 117.348 423.479 460.232
2050 0 98.2044 13.421 1318 116.335 423.366 460.245
2051 0 102.341 11.9111 1219 123.87 424.407 462.196
2052 0 107.258 12.8475 1378 121.099 423.8 457.777
2053 1 56.2489 11.4669 645 117.167 424.521 483.406
2054 0 60.181 12.3461 743 114.569 424.938 481.262
2055 0 61.4821 11.7758 724 116.688 425.018 480.612
2056 0 64.2242 12.1294 779 116.733 424.902 482.424
2057 0 66.2862 13.3059 882 113.043 423.663 483.22
2058 0 68.1837 13.4783 919 114.965 423.767 480.421
2059 0 70.2235 13.3431 937 114.01 424.362 478.587
2060 0 71.1326 13.1023 932 115.074 423.543 476.883
2061 0 72.2082 11.7023 845 120.001 423.37 475.322
2062 0 78.2544 12.3316 965 116.216 422.86 473.947
2063 0 79.1447 13.0899 1036 114.514 423.882 474.871
2064 0 80.15 12.3019 986 117.924 423.429 471.473
2065 0 87.1703 13.812 1204 112.014 423.999 471.635
2066 0 86.1905 11.4166 984 119.037 424.193 469.702
2067 0 91.1135 12.2704 1118 115.878 424.949 468.014
2068 0 94.3828 12.6294 1192 115.571 425.07 465.414
2069 0 97.0956 12.9254 1255 114.231 424.084 465.361
2070 0 100.126 12.3444 1236 115.172 423.464 463.851
2071 0 102.156 12.8725 1315 114.906 423.735 460.512
2072 0 107.116 12.3604 1324 116.429 424.126 458.69
2073 1 59.0697 10.276 607 109.407 424.381 487.255
2074 0 63.1819 11.918 753 105.441 422.485 483.017
2075 0 63.1418 12.369 781 106.442 422.122 482.373
2076 0 65.1105 12.3943 807 105.813 422.621 481.952
2077 0 67.1112 12.6358 848 105.402 422.713 479.829
2078 0 69.0944 11.0139 761 109.51 422.825 477.074
2079 0 73.0821 12.958 947 104.061 422.739 478.219
2080 0 74.1298 12.5725 932 105.503 422.651 477.086
2081 0 73.1567 10.17 744 112.145 423.552 473.954
2082 0 79.079 11.6466 921 107.091 422.418 475.092
2083 0 80.1144 12.1576 974 107.578 422.464 472.675
2084 0 81.0501 10.4503 847 109.482 422.004 469.943
2085 0 84.1368 10.7919 908 109.29 422.499 467.913
2086 0 87.0661 10.739 935 112.695 423.068 468.93
2087 0 92.1074 11.302 1041 110.992 424.373 468.682
2088 0 94.1077 11.9756 1127 110.846 424.196 466.075
2089 0 97.1625 11.2904 1097 112.854 423.326 464.144
2090 0 100.128 11.5652 1158 112.79 423.927 462.958
2091 0 102.168 12.3913 1266 111.188 423.394 461.849
2092 0 103.117 10.0178 1033 117 423.653 455.895
2093 0 107.187 10.4584 1121 116.166 423.694 452.07
2094 0 115.159 12.9473 1491 109.506 424.145 457.014
2095 0 116.327 11.4849 1336 114.037 423.714 456.049
2096 0 121.155 12.6119 1528 110.279 423.313 455.053
2097 0 126.247 12.4677 1574 110.506 423.359 453.692
2098 0 128.207 13.1584 1687 110.761 423.394 449.837
2099 0 132.313 11.8961 1574 114.52 423.36 447.383
2100 0 135.41 12.1926 1651 115.957 422.741 443.029
2101 0 139.249 11.3394 1579 122.843 422.996 439.632
2102 0 147.344 12.1349 1788 119.841 423.261 438.619
2103 0 152.374 13.224 2015 115.924 423.674 438.33
2104 1 92.1576 8.44206 778 113.577 423.44 472.584
2105 0 96.237 11.5132 1108 110.064 423.39 467.218
2106 0 98.2013 11.5986 1139 111.967 423.412 464.331
2107 0 99.1589 10.2058 1012 115.659 423.234 463.183
2108 0 100.17 9.15441 917 118.974 423.095 461.489
2109 0 108.265 11.8782 1286 113.904 423.582 460.449
2110 0 111.116 12.7074 1412 114.387 423.598 457.824
2111 0 115.184 12.8664 1482 115.703 422.439 456.022
2112 0 114.172 12.4549 1422 118.568 421.917 456.085
2113 0 119.159 11.4301 1362 122.637 422.99 453.679
2114 0 123.2 12.5406 1545 121.551 423.794 446.852
2115 0 126.234 12.1996 1540 123.79 423.488 445.04
2116 0 132.365 12.6846 1679 121.157 423.537 447.164
2117 0 135.435 13.0099 1762 123.47 423.182 440.351
2118 0 139.43 12.2069 1702 125.244 422.985 439.427
2119 0 143.582 13.6925 1966 121.988 423.13 437.118
2120 0 147.41 12.5229 1846 126.516 423.517 436.502
2121 0 153.383 13.5478 2078 123.832 423.753 435.876
2122 0 154.358 13.1771 2034 126.925 423.428 435.71
2123 0 159.294 11.8397 1886 132.847 423.394 431.646
2124 0 165.254 12.5383 2072 132.061 422.972 427.944
2125 1 94.0799 10.6824 1005 130.226 424.158 468.427
2126 0 97.0863 12.4425 1208 126.372 423.662 464.368
2127 0 99.0979 12.5432 1243 126.705 423.887 464.615
2128 0 102.043 12.3085 1256 127.015 423.724 463.646
2129 0 104.13 11.7065 1219 127.774 423.61 460.742
2130 0 108.166 12.1295 1312 126.476 423.792 459.127
2131 0 111.113 13.6977 1522 121.877 423.169 461.595
2132 0 115.144 12.5147 1441 126.324 422.536 455.83
2133 0 117.219 12.6003 1477 126.033 422.953 453.758
2134 0 122.31 12.5256 1532 127.095 423.067 452.041
2135 0 125.222 12.7374 1595 131.596 422.179 451.75
2136 0 130.193 13.3034 1732 125.692 422.499 449.064
2137 0 132.278 11.7253 1551 128.936 423.044 445.807
2138 0 137.307 11.4488 1572 128.188 422.251 444.016
2139 0 141.241 11.1936 1581 129.984 423.41 445.615
2140 1 83.0584 12.0638 1002 123.548 424.571 472.579
2141 0 84.2009 10.7956 909 128.514 423.506 467.943
2142 0 86.2833 10.9059 941 129.131 423.659 469.002
2143 0 91.2333 12.8681 1174 122.638 423.508 466.792
2144 0 92.3318 10.863 1003 128.398 423.801 466.553
2145 0 97.2587 12.7803 1243 122.387 424.096 463.315
2146 0 98.161 12.6934 1246 123.173 423.904 461.376
2147 0 101.344 12.2158 1238 123.684 424.129 459.788
2148 0 104.302 12.4351 1297 121.945 424.205 462.32
2149 0 107.563 13.0436 1403 121.646 423.989 458.856
2150 0 110.227 13.445 1482 120.039 423.248 455.574
2151 0 113.239 12.9726 1469 121.739 423.407 453.676
2152 0 116.211 12.8904 1498 121.493 423.808 453.328
2153 0 120.284 13.4266 1615 120.484 423.581 451.94
2154 0 121.475 13.9535 1695 119.525 422.813 448.426
2155 0 125.526 12.603 1582 119.035 422.698 451.936
2156 0 128.242 12.8117 1643 120.871 423.405 446.475
2157 0 129.44 10.8622 1406 125.553 423.654 442.132
2158 0 137.594 12.8639 1770 116.299 423.151 435.462
2159 0 138.32 12.0446 1666 117.881 422.825 429.54
2160 0 142.403 13.1317 1870 111.591 422.78 430.149
2161 0 151.328 12.0864 1829 114.535 423.02 423.524
2162 1 91.0806 8.97007 817 104.946 424.313 467.919
2163 0 95.1881 10.1798 969 106.262 424.846 464.048
2164 0 95.3581 10.1407 967 106.766 422.572 462.202
2165 0 101.298 10.79 1093 104.513 422.724 462.372
2166 0 104.226 11.0625 1153 104.116 423.657 460.03
2167 0 106.249 10.3812 1103 104.646 424.021 459.619
2168 0 110.153 10.7305 1182 104.9 423.508 456.736
2169 0 115.205 12.4908 1439 99.6136 423.608 456.33
2170 0 117.35 11.8535 1391 100.844 423.466 453.221
2171 0 121.148 11.0856 1343 102.59 423.937 451.567
2172 0 123.156 10.7343 1322 103.925 423.557 448.211
2173 0 128.424 10.3953 1335 104.558 423.571 446.271
2174 0 132.244 11.1234 1471 103.592 423.086 443.972
2175 0 136.269 11.6681 1590 101.741 423.321 440.091
2176 0 143.394 11.5137 1651 100.093 424.085 439.416
2177 0 147.33 11.1722 1646 101.716 423.698 435.454
2178 0 152.394 11.3456 1729 102.018 424.08 435.059
2179 0 157.313 11.3723 1789 103.655 423.643 428.613
2180 1 92.3027 9.75053 900 100.601 423.903 466.786
2181 0 93.1771 10.9147 1017 98.472 421.703 466.657
2182 0 96.2231 12.7828 1230 94.5919 423.415 461.795
2183 0 99.2238 12.366 1227 100.798 421.353 464.699
2184 0 101.26 11.2186 1136 104.581 421.286 462.213
2185 0 104.317 12.2607 1279 102.75 421.899 462.597
2186 0 107.279 11.8663 1273 104.526 421.851 459.267
2187 0 110.185 11.8709 1308 105.062 421.69 455.479
2188 0 113.301 12.0476 1365 104.053 421.126 457.223
2189 0 115.237 11.6455 1342 106.217 421.549 455.694
2190 0 119.306 11.307 1349 106.358 422.736 453.941
2191 0 124.43 12.2398 1523 104.64 422.664 451.848
2192 0 126.239 12.6031 1591 106.239 422.305 450.567
2193 0 127.327 11.5137 1466 109.287 422.286 446.894
2194 0 131.33 11.4445 1503 107.724 422.876 451.802
2195 0 134.453 13.0677 1757 105.651 422.719 447.91
2196 0 136.331 12.7411 1737 107.926 422.209 443.439
2197 0 140.35 11.564 1623 109.328 422.591 444.441
2198 0 144.335 11.7643 1698 109.308 422.426 436.94
2199 0 150.475 12.1216 1824 108.048 422.492 437.059
2200 0 154.412 10.9318 1688 109.954 423.211 438.336
2201 0 158.462 11.7757 1866 106.946 422.439 424.441
2202 1 90.3818 8.17643 739 107.444 421.832 460.71
2203 0 93.3253 10.383 969 98.7637 422.476 461.88
2204 0 94.197 8.63085 813 103.733 422.363 458
2205 0 99.3284 9.55417 949 102.694 422.774 456.712
2206 0 103.205 11.1332 1149 99.7258 423.412 458.549
2207 0 108.179 11.3053 1223 99.5863 423.118 454.806
2208 0 110.256 11.4733 1265 99.2237 423.152 455.384
2209 0 111.272 11.2966 1257 100.943 423.041 453.411
2210 0 115.262 11.2874 1301 100.873 423.191 451.38
2211 0 116.168 11.3026 1313 102.29 423.167 450.536
2212 0 121.286 11.1389 1351 102.34 423.252 450.637
2213 0 124.184 10.9515 1360 103.626 423.196 447.723
2214 0 128.291 11.7701 1510 102.764 423.165 447.084
2215 0 132.199 11.3617 1502 103.707 422.194 449.221
2216 1 76.159 10.2549 781 98.6722 423.087 477.556
2217 0 79.2476 12.6187 1000 95.068 423.489 476.413
2218 0 79.085 12.4802 987 98.7974 424.224 472.015
2219 0 82.1676 12.5719 1033 97.8848 423.288 471.516
2220 0 84.2103 11.3407 955 100.943 423.935 470.8
2221 0 89.3486 12.5799 1124 97.8434 424.188 469.685
2222 0 92.2307 12.3712 1141 97.6924 423.901 470.162
2223 0 95.2786 12.983 1237 96.9854 423.542 467.303
2224 0 97.1321 13.1573 1278 97.223 423.611 465.656
2225 0 102.291 12.7186 1301 97.7856 424.109 467.218
2226 0 102.151 13.2843 1357 98.3891 424.22 463.819
2227 0 105.158 12.7617 1342 99.6617 424.366 461.499
2228 0 108.23 12.9539 1402 99.7853 423.439 460.561
2229 0 110.223 13.6359 1503 99.3566 423.204 458.151
2230 0 117.267 13.1324 1540 100.136 423.182 456.056
2231 0 119.25 14.3396 1710 98.9947 423.544 452.007
2232 0 120.438 13.0274 1569 104.065 423.007 449.493
2233 0 117.277 10.65 1249 118.957 422.952 445.364
2234 1 127.233 12.2374 1557 112.919 423.563 452.496
2235 0 131.3 13.7166 1801 110.877 423.506 446.879
2236 0 133.393 13.8163 1843 111.516 422.588 443.602
2237 0 140.381 14.133 1984 108.07 422.117 443.664
2238 0 141.234 11.0809 1565 107.35 421.818 437.136
2239 1 85.1671 11.3307 965 98.5078 422.806 476.493
2240 0 85.2453 12.6576 1079 101.805 422.123 468.098
2241 0 86.2529 11.1648 963 95.6594 422.258 465.287
2242 0 87.2415 10.6257 927 97.2136 422.91 462.008
2243 0 90.1803 11.3994 1028 95.9922 422.272 463.329
2244 0 95.2558 12.0308 1146 95.1867 422.558 461.335
2245 0 100.108 13.0759 1309 95.2391 422.665 462.655
2246 0 102.118 12.2309 1249 97.9015 423.05 462.473
2247 0 106.217 12.1637 1292 100.576 423.258 461.06
2248 0 110.171 11.8906 1310 100.736 423.797 460.463
2249 1 58.0441 10.0785 585 99.612 425.067 485.872
2250 0 60.0729 11.486 690 96.2812 424.668 486.658
2251 0 60.0715 10.5707 635 99.211 424.715 485.376
2252 0 61.05 12.1376 741 96.7476 424.332 483.231
2253 0 63.0324 11.1689 704 98.2216 424.861 484.014
2254 0 66.0658 11.867 784 97.0089 424.761 482.823
2255 0 67.1281 12.3346 828 96.9251 424.243 480.976
2256 0 69.0968 13.9514 964 93.9564 425.028 479.213
2257 0 71.151 12.86 915 96.2 424.012 479.397
2258 0 74.1746 13.6704 1014 94.0286 423.334 479.793
2259 0 73.1735 12.6412 925 97.7232 423.817 479.946
2260 0 76.0903 12.9583 986 97.2282 424.032 479.992
2261 0 78.1045 12.0096 938 99.8401 423.796 479.633
2262 0 80.1443 11.916 955 100.178 424.087 480.753
2263 0 84.0694 13.2034 1110 97.4658 423.573 479.527
2264 0 86.0574 12.9565 1115 100.617 423.398 477.847
2265 0 89.0656 13.4957 1202 99.2729 422.698 480.039
2266 0 91.0806 11.4624 1044 104.658 422.562 478.819
2267 0 94.112 12.3576 1163 103.444 421.82 477.667
2268 0 96.2456 13.4344 1293 100.843 421.781 476.694
2269 0 98.3649 12.4638 1226 103.991 421.117 477.577
2270 1 55.1494 10.9521 604 106.404 420.424 499.614
2271 0 58.1355 14.449 840 98.4488 419.908 497.255
2272 0 59.1593 12.7622 755 103.646 420.123 497.012
2273 0 59.1501 11.2764 667 107.003 419.477 498.559
2274 0 58.1662 10.7451 625 110.458 418.73 497.072
2275 0 64.0964 11.8259 758 108 417.877 493.908
2276 0 66.1723 12.7999 847 106.184 418.71 494.785
2277 0 68.181 12.7602 870 106.915 418.701 492.056
2278 0 70.1028 12.7527 894 107.876 417.808 491.423
2279 0 72.1193 12.6596 913 108.559 417.556 489.502
2280 0 75.0848 12.6524 950 106.363 417.195 491.204
2281 0 77.1199 13.4855 1040 105.823 416.593 486.209
2282 0 79.1075 12.9318 1023 107.04 417.001 485.984
2283 0 82.156 12.598 1035 107.038 417.139 484.98
2284 0 83.1711 12.8891 1072 107.21 416.701 485.311
2285 0 84.1826 12.7223 1071 109.55 416.503 483.114
2286 0 89.1972 13.5542 1209 106.946 416.82 482.547
2287 0 91.3303 12.7668 1166 109.584 417.755 479.19
2288 0 95.293 13.789 1314 106.903 417.448 477.079
2289 0 96.3165 13.0819 1260 109.076 416.933 474.423
2290 0 100.421 14.0907 1415 106.384 417.315 472.378
2291 0 104.412 13.3605 1395 106.639 417.589 474.423
2292 0 106.11 14.2494 1512 103.964 418.05 473.449
2293 0 109.181 14.4256 1575 103.665 418.132 471.627
2294 0 113.157 13.194 1493 106.475 418.182 470.196
2295 0 115.19 13.2043 1521 106.387 418.233 470.704
2296 0 118.216 13.0693 1545 106.845 418.123 466.744
2297 1 66.1045 12.2836 812 108.134 418.257 486.832
2298 0 70.096 12.7111 891 106.159 418.644 492.944
2299 0 73.2554 13.4598 986 104.626 417.774 491.621
2300 0 74.2025 13.1667 977 105.606 417.439 488.313
2301 0 80.1192 13.6172 1091 102.796 417.644 485.456
2302 0 79.1828 12.8563 1018 105.369 417.365 485.418
2303 0 80.1146 12.2574 982 107.446 418.276 482.119
2304 0 84.2157 12.8836 1085 105.527 417.081 476.653
2305 0 85.285 12.3351 1052 107.257 417.568 474.812
2306 0 88.1409 12.5481 1106 106.844 417.491 475.476
2307 0 89.1295 12.4313 1108 108.377 416.832 474.798
2308 0 93.1418 13.517 1259 106.301 417.159 471.16
2309 0 96.1856 14.5552 1400 103.876 417.309 468.685
2310 0 99.1933 12.5412 1244 108.81 416.46 469.75
2311 0 101.173 13.6697 1383 106.281 416.989 466.917
2312 0 104.288 14.1148 1472 105.838 417.476 466.669
2313 0 105.269 13.2138 1391 108.535 416.792 463.362
2314 0 109.199 13.4799 1472 107.806 417.128 460.838
2315 0 114.218 14.0695 1607 105.899 417.291 459.381
2316 0 118.227 13.398 1584 107.444 417.3 459.119
2317 0 124.223 14.4901 1800 104.057 416.912 455.508
2318 1 66.1396 11.1431 737 105.826 417.194 483.795
2319 0 70.159 10.7328 753 99.2085 417.247 480.987
2320 0 74.1293 13.6788 1014 90.8392 416.854 483.557
2321 0 77.2091 11.0738 855 94.6304 416.198 481.677
2322 0 80.1208 11.907 954 93.6027 416.99 480.499
2323 0 82.1159 11.1063 912 95.6031 417.769 479.695
2324 0 84.1247 11.5899 975 96.0913 417.777 474.711
2325 0 85.1532 10.0994 860 98.7628 417.328 475.773
2326 0 91.1188 12.7745 1164 92.5945 417.021 474.918
2327 0 96.3914 12.8331 1237 94.8197 416.737 472.416
2328 0 97.3367 12.5544 1222 97.2938 417.005 469.986
2329 0 99.4009 11.8309 1176 99.04 417.315 468.785
2330 1 53.3642 9.70688 518 96.3571 416.979 491.983
2331 0 55.0879 10.0748 555 96.0739 417.065 493.339
2332 0 52.1877 11.0946 579 91.1468 417.931 489.915
2333 0 58.1419 11.4375 665 88.5759 417.692 489.878
2334 0 60.128 12.3237 741 87.8381 417.833 488.83
2335 0 60.1702 10.0216 603 94.4345 417.172 489.131
2336 0 60.1053 9.8161 590 94.1695 417.386 490.154
2337 0 63.2307 9.71047 614 96.0684 417.327 487.436
2338 0 65.1512 11.0666 721 95.6214 417.254 484.474
2339 0 68.1968 10.6603 727 96.4457 417.173 483.232
2340 0 71.1131 10.7294 763 97.8296 417.094 480.919
2341 0 72.2022 11.2462 812 98.2956 417.349 481.571
2342 0 74.1958 11.0384 819 100.744 417.037 477.613
2343 0 78.087 12.0378 940 99.7 417.435 476.734
2344 0 78.1835 10.5265 823 104.424 417.484 475.245
2345 0 81.2124 12.3011 999 102.097 417.764 476.236
2346 0 84.1473 11.8839 1000 104.832 417.776 470.786
2347 0 87.1834 11.1718 974 106.36 417.883 473.276
2348 0 89.2626 11.5838 1034 108.456 417.313 470.057
2349 0 93.1991 12.5323 1168 108.656 417.428 464.824
2350 0 95.1154 12.2903 1169 110.399 417.975 465.536
2351 0 98.2522 11.5621 1136 112.101 418.667 461.606
2352 0 103.306 12.7388 1316 108.469 418.487 459.605
2353 0 105.243 12.5899 1325 109.965 418.081 458.419
2354 0 109.269 12.7941 1398 109.459 419.755 456.706
2355 0 116.403 13.29 1547 111.279 420.221 458.272
2356 0 120.307 14.3383 1725 111.162 420.482 459.866
2357 1 66.1417 12.443 823 109.245 421.051 484.813
2358 0 67.0742 11.5842 777 112.004 420.878 483.322
2359 0 70.0821 11.9717 839 111.194 421.793 483.024
2360 0 72.1193 11.9108 859 111.949 421.821 478.807
2361 0 75.0598 12.7498 957 109.481 420.797 479.907
2362 0 78.1798 12.4073 970 109.521 420.984 479.021
2363 0 79.169 12.1007 958 111.442 420.574 476.61
2364 0 82.0773 11.94 980 113.542 421.419 474.938
2365 0 87.1543 12.1279 1057 111.132 421.759 473.278
2366 0 89.1844 12.4125 1107 110.609 421.447 472.752
2367 0 90.1877 12.6847 1144 107.99 421.061 470.782
2368 0 95.1554 12.5269 1192 107.539 421.028 468.204
2369 0 95.1792 11.1369 1060 110.026 421.241 469.456
2370 0 99.137 10.9848 1089 110.193 421.608 468.766
2371 0 104.16 12.5192 1304 106.078 421.857 466.49
2372 0 108.175 13.1824 1426 104.942 421.032 463.391
2373 0 110.129 12.7941 1409 106.395 421.111 460.053
2374 0 113.174 11.7872 1334 109.935 420.996 459.636
2375 1 66.0402 9.93335 656 106.181 422.383 486.523
2376 0 68.0709 11.5468 786 104.36 421.458 482.506
2377 0 71.1964 12.0933 861 103.534 421.099 480.033
2378 0 72.1539 11.1706 806 106.053 421.563 479.313
2379 0 75.232 11.4313 860 104.002 421.514 478.052
2380 0 77.1751 11.5841 894 104.179 421.419 477.631
2381 0 84.3164 13.4019 1130 98.1345 421.23 476.503
2382 0 84.1263 12.7665 1074 99.9404 421.278 477.11
2383 0 84.117 11.1987 942 104.68 421.774 475.028
2384 0 89.0999 12.1549 1083 102.126 421.969 473.364
2385 0 92.1909 13.2768 1224 99.6503 421.521 468.754
2386 0 94.2672 12.7086 1198 100.528 421.381 470.715
2387 0 97.2049 11.9747 1164 102.862 421.828 469.75
2388 0 101.238 12.1496 1230 101.973 421.368 467.085
2389 0 104.126 11.1308 1159 106.018 421.319 465.304
2390 1 58.0464 11.5253 669 101.83 421.996 487.054
2391 0 58.0743 10.1766 591 103.673 422.856 486.89
2392 0 60.087 10.2851 618 98.1262 422.299 481.84
2393 0 60.1011 11.9632 719 101.082 421.761 485.558
2394 0 65.0821 13.2294 861 97.7027 421.76 484.067
2395 0 66.1453 12.7598 844 99.0794 422.531 483.572
2396 0 66.1639 12.8469 850 99.6494 422.151 482.647
2397 0 68.0765 12.5741 856 99.6624 422.298 482.574
2398 0 71.1663 12.4778 888 100.073 422.328 482.154
2399 0 75.0771 13.8791 1042 96.7706 421.68 477.109
2400 0 73.1188 12.4318 909 101.206 422.036 476.721
2401 0 79.1218 12.2849 972 99.9198 421.588 476.541
2402 0 81.2794 13.3121 1082 98.0693 421.284 474.536
2403 0 83.2325 12.6513 1053 100.11 421.348 472.115
2404 0 84.2436 12.1908 1027 101.842 421.307 472.41
2405 0 87.2838 12.7744 1115 101.059 420.518 470.014
2406 0 90.2074 13.1807 1189 101.614 420.948 469.63
2407 0 93.18 13.1037 1221 101.87 421.706 468.387
2408 0 95.1358 11.7306 1116 104.969 421.251 468.554
2409 0 97.2189 12.261 1192 104.584 420.709 464.656
2410 0 100.284 12.1355 1217 106.108 421.064 460.48
2411 0 104.329 12.2593 1279 105.805 421.036 458.705
2412 0 107.286 13.3662 1434 103.819 421.366 459.256
2413 0 111.201 13.3901 1489 104.053 421.865 460.802
2414 0 114.422 11.7023 1339 108.764 421.771 455.748
2415 1 64.1862 10.5786 679 110.976 421.601 478.39
2416 0 67.1014 11.9372 801 109.725 421.488 477.371
2417 0 68.1788 11.8805 810 108.842 421.399 478.243
2418 0 68.0981 13.3043 906 104.741 419.975 472.02
2419 0 69.0443 12.9482 894 106.781 420.185 469.151
2420 0 72.0309 12.4669 898 108.042 420.109 468.122
2421 0 74.0376 12.5882 932 108.711 419.702 467.859
2422 0 76.0714 11.739 893 111.097 420.199 466.136
2423 0 83.1191 13.3062 1106 104.57 420.679 464.978
2424 0 87.1082 12.0081 1046 107.77 420.172 462.755
2425 0 90.259 13.0403 1177 105.322 420.131 462.933
2426 0 91.2777 11.4705 1047 109.639 420.802 462.315
2427 0 95.1207 12.9415 1231 105.899 420.845 462.012
2428 0 98.2374 12.2967 1208 107.355 420.848 462.055
2429 0 98.14 12.5535 1232 109.278 421.197 458.492
2430 0 103.096 12.8909 1329 107.755 421.338 458.078
2431 0 103.259 11.6794 1206 112.735 421.74 454.614
2432 0 110.168 13.0256 1435 108.22 421.879 456.84
2433 0 113.218 12.7541 1444 110.1 421.496 453.136
2434 0 117.256 13.8927 1629 107.943 421.539 452.069
2435 0 121.256 13.0632 1584 110.299 421.608 449.889
2436 0 123.314 12.9588 1598 106.496 422.415 448.258
2437 0 127.214 12.1056 1540 108.53 422.042 451.576
2438 0 133.294 13.1064 1747 107.204 422.167 447.3
2439 1 58.1841 11.4636 667 97.4408 422.928 488.123
2440 0 60.13 11.708 704 97.0043 422.283 486.746
2441 0 57.0577 10.2177 583 96.7993 421.919 477.719
2442 0 57.0703 9.32184 532 99.9041 422.611 478.415
2443 0 55.1207 9.66969 533 102.002 422.255 472.51
2444 0 64.1637 10.52 675 99.4059 421.64 475.166
2445 0 64.1673 11.4856 737 99.9498 421.364 472.539
2446 0 66.1725 11.6211 769 101.03 421.2 471.681
2447 0 69.1096 11.3154 782 102.561 420.907 470.744
2448 0 71.218 11.6824 832 102.95 421.149 470.276
2449 0 73.1569 13.2045 966 101.367 421.727 467.053
2450 0 77.1538 12.6889 979 111.706 422.373 475.19
2451 0 80.0924 13.6717 1095 109.826 421.824 472.564
2452 0 82.1866 12.5568 1032 116.272 421.63 471.565
2453 0 84.2793 12.8857 1086 115.863 421.779 471.229
2454 0 88.2994 13.4429 1187 115.798 421.619 467.737
2455 0 88.2077 13.0941 1155 118.54 421.919 464.966
2456 0 96.2088 14.3334 1379 113.541 421.676 466.073
2457 0 96.1891 13.1096 1261 118.472 421.669 462.54
2458 0 99.2022 13.8001 1369 117.58 422.448 462.145
2459 0 103.14 13.0793 1349 119.172 422.267 460.414
2460 0 105.082 13.104 1377 120.333 420.133 456.311
2461 0 111.07 15.1976 1688 113.424 420.396 455.782
2462 1 57.0939 10.2988 588 122.073 420.049 481.981
2463 0 60.0872 12.6816 762 117.89 420.184 479.66
2464 0 62.0395 11.6861 725 120.516 419.527 479.988
2465 0 62.2304 12.4376 774 120.707 421.58 476.884
2466 0 65.2187 12.1438 792 121.438 421.443 475.843
2467 0 68.2539 12.5268 855 120.425 421.225 475.272
2468 0 67.2956 12.8983 868 120.856 420.949 473.495
2469 0 71.2018 12.7946 911 120.169 421.9 473.947
2470 0 71.1729 12.4345 885 123.185 421.894 472.558
2471 0 68.1383 12.1664 829 126.241 422.131 468.641
2472 0 79.1206 14.9645 1184 113.064 421.996 470.351
2473 0 78.1034 13.8662 1083 117.203 422.201 470.45
2474 0 80.1318 12.6541 1014 121.299 421.387 467.632
2475 0 84.1394 13.8817 1168 118.069 421.725 465.97
2476 0 85.1096 12.2783 1045 121.846 421.463 464.449
2477 0 89.1092 12.4903 1113 121.226 421.944 462.978
2478 0 95.0898 12.8826 1225 115.371 422.092 464.762
2479 0 96.2538 12.893 1241 116.01 421.473 464.21
2480 0 97.1451 11.7865 1145 119.755 421.871 460.832
2481 0 100.176 12.498 1252 117.28 420.857 445.762
2482 0 105.203 12.1195 1275 116.798 421.071 439.956
2483 0 105.123 13.0133 1368 115.594 421.344 450.643
2484 0 107.223 12.945 1388 116.326 421.592 453.103
2485 0 111.384 13.2874 1480 115.656 421.142 449.864
2486 0 115.279 13.5497 1562 113.902 421.824 449.203
2487 0 119.292 14.0663 1678 112.672 421.508 446.3
2488 0 122.358 12.2918 1504 117.334 421.1 441.735
2489 1 68.3847 12.0202 822 111.332 420.917 471.68
2490 0 70.0562 11.2624 789 116.362 419.987 475.493
2491 0 74.0349 12.0889 895 114.942 420.834 477.882
2492 0 75.082 13.119 985 113.174 420.44 475.353
2493 0 78.0615 13.2972 1038 112.925 420.255 473.958
2494 0 78.0801 12.2823 959 115.933 420.534 474.946
2495 0 83.0416 14.1977 1179 111.457 420.302 472.45
2496 0 84.1924 12.2339 1030 117.675 420.502 471.033
2497 0 87.3045 12.1185 1058 117.455 421.187 469.475
2498 0 90.2952 12.8357 1159 116.156 421.802 465.244
2499 0 93.4441 13.0345 1218 115.987 421.998 464.362
2500 0 93.3917 12.7956 1195 117.597 421.924 460.033
2501 0 99.3157 14.1468 1405 110.326 421.538 460.316
2502 0 100.299 13.1905 1323 113.38 421.327 455.042
2503 0 102.215 12.4444 1272 114.97 421.173 456.654
2504 0 104.198 12.0827 1259 115.788 421.006 455.129
2505 0 106.19 12.5154 1329 115.143 421.268 452.701
2506 0 111.286 13.8921 1546 110.818 421.263 449.047
2507 0 117.264 14.2073 1666 108.826 421.649 445.898
2508 0 121.242 13.4112 1626 110.315 421.21 444.589
2509 0 123.229 13.6169 1678 110.391 421.51 442.691
2510 0 128.345 13.0897 1680 111.021 421.548 439.871
2511 1 72.1837 8.09047 584 112.122 422.046 466.26
2512 0 75.1656 9.93805 747 103.333 421.842 467.997
2513 0 78.1112 10.1778 795 102.564 422.112 466.553
2514 0 77.1137 9.3239 719 104.832 422.665 463.978
2515 0 83.1168 10.5635 878 101.325 422.746 464.393
2516 0 85.0883 11.0826 943 100.659 422.765 462.144
2517 0 80.1111 11.4965 921 103.504 421.922 457.948
2518 0 88.034 10.1211 891 104.735 422.935 460.065
2519 0 92.0461 10.8207 996 102.91 422.812 460.861
2520 0 92.069 11.0569 1018 103.914 423.029 457.358
2521 0 98.1176 10.4365 1024 104.529 422.312 455.375
2522 0 101.039 12.2032 1233 101.667 423.508 454.924
2523 0 105.183 10.6196 1117 104.926 422.21 454.542
2524 0 107.139 10.8084 1158 106.205 422.987 452.977
2525 0 109.133 10.9408 1194 107.693 423.125 450.227
2526 0 110.099 9.5823 1055 110.177 423.72 448
2527 0 113.269 11.2299 1272 109.785 422.822 444.309
2528 0 118.138 11.0041 1300 108.903 422.585 447.207
2529 0 124.173 10.7431 1334 108.646 422.169 446.735
2530 0 129.19 12.0443 1556 108.515 421.887 441.73
2531 0 132.139 11.1246 1470 110.741 421.555 440.374
2532 0 134.284 9.94158 1335 113.566 421.966 438.531
2533 0 140.504 10.2417 1439 115.865 421.702 433.614
2534 0 147.295 11.0119 1622 114.381 422.269 435.51
2535 0 151.357 11.5356 1746 114.401 421.88 432.015
2536 1 86.2172 10.3112 889 110.793 422.072 458.972
2537 0 91.3068 11.894 1086 107.25 422.432 460.091
2538 0 94.1991 11.9534 1126 107.381 420.172 466.941
2539 0 95.1386 11.5305 1097 109.2 420.978 464.081
2540 0 97.2788 10.9582 1066 110.73 420.695 462.492
2541 0 99.0853 11.6364 1153 110.435 421.476 461.896
2542 0 102.19 10.9796 1122 111.75 421.579 459.494
2543 0 106.123 11.0721 1175 112.817 422.138 458.836
2544 0 109.143 12.0575 1316 109.874 421.94 454.775
2545 0 111.223 12.1198 1348 110.099 422.313 454.428
2546 0 114.214 11.4347 1306 113.966 422.357 449.839
2547 0 119.27 12.0818 1441 117.63 421.969 449.767
2548 0 125.224 12.5455 1571 116.727 422.272 445.687
2549 0 129.311 12.6053 1630 115.945 421.566 447.242
2550 0 134.385 12.0623 1621 117.777 421.606 438.297
2551 1 73.3441 11.412 837 113.897 422.372 471.301
2552 0 76.4701 11.9916 917 113.014 422.797 468.98
2553 0 79.244 12.0514 955 111.36 421.14 470.278
2554 0 80.2387 12.0765 969 111.839 421.741 468.96
2555 0 84.1666 12.0713 1016 111.767 422.002 467.093
2556 0 85.2358 11.8377 1009 112.401 421.502 466.8
2557 0 89.2259 11.7903 1052 112.77 421.075 464.135
2558 0 93.1895 11.5678 1078 112.944 421.294 462.51
2559 0 98.3221 13.2727 1305 108.05 421.992 463.915
2560 0 100.397 13.626 1368 108.629 421.522 461.102
2561 0 103.232 12.8061 1322 109.989 422.329 461.856
2562 0 105.287 14.5318 1530 106.789 421.692 457.244
2563 0 109.361 12.4359 1360 111.152 421.899 455.371
2564 0 111.219 12.6238 1404 111.645 421.264 453.999
2565 0 114.433 12.9508 1482 110.725 421.202 453.796
2566 0 117.316 12.5388 1471 111.713 421.874 448.952
2567 0 121.598 13.7749 1675 108.618 422.216 451.02
2568 0 124.419 12.2168 1520 113.127 421.376 448.3
2569 0 129.562 14.1631 1835 107.593 421.328 447.014
2570 1 74.4907 12.0955 901 108.154 422.059 470.928
2571 0 76.6508 11.8981 912 109.73 422.033 470.169
2572 0 80.5181 12.5438 1010 107.446 422.767 470.83
2573 0 81.5313 13.4672 1098 108.427 422.347 466.812
2574 0 84.7967 14.5053 1230 105.807 423.167 467.769
2575 0 85.5248 13.7738 1178 109.406 422.343 463.561
2576 0 88.717 12.9626 1150 109.663 423.312 460.227
2577 0 92.4236 12.908 1193 105.953 422.827 460.392
2578 0 94.2338 12.6069 1188 101.42 423.484 463.606
2579 0 97.4256 12.8406 1251 98.1079 422.514 460.103
2580 0 100.368 13.2611 1331 97.9542 422.956 458.642
2581 0 103.417 12.9475 1339 101.226 423.382 456.388
2582 0 107.463 13.6046 1462 100.635 423.204 455.772
2583 0 110.776 12.7916 1417 103.929 423.623 454.481
2584 0 115.507 13.2287 1528 104.182 423.692 451.755
2585 0 114.73 13.4315 1541 105 423.798 451.607
2586 0 119.491 13.6998 1637 105.329 422.6 446.556
2587 0 123.413 12.8592 1587 107.732 423.277 446.394
2588 0 127.431 13.2935 1694 108.54 424.019 446.121
2589 0 130.314 12.5543 1636 112.847 422.685 442.151
2590 0 136.34 13.745 1874 111.586 422.741 440.887
2591 0 140.394 13.8182 1940 113.096 423.004 440.032
2592 1 77.4648 11.1018 860 109.465 422.272 472.241
2593 0 81.3164 11.8549 964 108.322 423.443 471.27
2594 0 83.3272 12.0009 1000 108.931 423.02 469.684
2595 0 85.186 12.6194 1075 107.788 423.555 468.44
2596 0 90.2522 13.3404 1204 106.818 424.117 468.464
2597 0 91.2873 12.8934 1177 109.148 424.4 466.407
2598 0 94.2728 12.2199 1152 110.641 423.305 463.937
2599 0 96.3194 12.3547 1190 110.388 424.014 463.84
2600 0 99.2375 12.5658 1247 111.848 423.889 459.939
2601 0 103.295 13.3597 1380 109.688 423.903 459.362
2602 0 105.461 13.0854 1380 111.642 423.864 455.225
2603 0 107.268 13.0981 1405 112.005 424.308 456.082
2604 0 112.282 13.2702 1490 111.599 423.237 452.512
2605 0 114.261 11.9988 1371 115.509 423.421 451.15
2606 0 118.256 13.9528 1650 111.612 423.805 447.382
2607 0 124.229 13.5315 1681 112.239 424.199 445.565
2608 0 128.286 13.5479 1738 112.701 423.22 444.809
2609 0 133.269 14.2494 1899 111.58 423.63 444.199
2610 0 136.237 13.3297 1816 112.778 423.334 445.29
2611 1 76.1252 12.2955 936 107.1 423.064 472.116
2612 0 80.1471 12.8139 1027 104.404 422.374 474.861
2613 0 83.2892 11.37 947 108.218 421.972 470.732
2614 0 85.1119 12.1605 1035 107.043 422.999 469.998
2615 0 90.2357 12.6114 1138 104.855 423.562 467.743
2616 0 93.2079 13.4967 1258 103.236 422.998 468.758
2617 0 95.28 12.7309 1213 105.953 422.584 466.885
2618 0 98.2881 12.4939 1228 106.456 422.947 464.099
2619 0 102.278 12.6029 1289 106.054 422.908 462.898
2620 0 106.254 13.4866 1433 104.152 422.418 459.837
2621 0 109.293 12.3063 1345 106.563 422.942 459.018
2622 0 109.316 11.8921 1300 108.129 422.425 457.226
2623 0 115.322 12.9984 1499 105.38 422.801 456.775
2624 0 119.263 13.4493 1604 104.36 422.773 455.552
2625 0 123.233 14.0627 1733 103.58 422.601 451.618
2626 0 126.391 12.6829 1603 106.44 421.497 452.113
2627 0 130.328 13.6195 1775 104.456 421.934 449.964
2628 0 135.407 11.5356 1562 108.632 421.799 445.139
2629 1 78.0886 11.1156 868 102.559 420.974 476.57
2630 0 81.254 11.9748 973 107 421.075 475.306
2631 0 85.1271 13.7911 1174 103.113 420.164 469.511
2632 0 88.1718 14.1542 1248 102.262 419.879 471.397
2633 0 89.2172 13.002 1160 106.877 420.059 467.497
2634 0 92.2492 15.0896 1392 102.789 420.088 466.154
2635 0 94.2707 13.5461 1277 106.496 419.666 467.778
2636 0 96.2333 12.0748 1162 111.633 420.568 465.871
2637 0 100.373 12.9318 1298 109.54 420.714 465.68
2638 0 104.231 13.4125 1398 109.497 420.381 462.047
2639 0 107.315 13.754 1476 108.909 420.196 462.08
2640 0 110.313 13.6974 1511 109.478 420.257 460.909
2641 0 115.375 13.7205 1583 109.902 420.425 458.085
2642 0 117.423 13.3364 1566 111.746 420.403 456.9
2643 0 120.285 13.5844 1634 110.795 420.237 454.786
2644 0 123.466 14.2145 1755 110.468 420.304 449.95
2645 0 126.277 14.0247 1771 111.098 419.612 449.917
2646 0 129.393 13.2928 1720 113.953 420.285 444.904
2647 0 132.313 12.7425 1686 115.352 420.472 442.058
2648 0 137.351 13.7749 1892 112.709 419.804 443.608
2649 0 142.323 14.3265 2039 110.569 419.676 441.368
2650 0 147.495 13.3564 1970 112.867 420.502 438.577
2651 0 157.505 13.1043 2064 112.896 420.193 435.675
2652 0 156.481 13.1964 2065 114.549 419.572 431.348
2653 0 159.411 13.6502 2176 113.57 419.825 428.001
2654 0 166.593 13.7821 2296 112.166 419.743 427.182
2655 0 172.601 13.5051 2331 112.979 419.859 423.728
2656 0 176.627 12.818 2264 114.166 420.166 421.004
2657 0 180.418 12.2992 2219 115.413 419.903 418.336
2658 0 190.625 13.9856 2666 111.28 419.846 413.096
2659 0 193.682 12.3553 2393 114.58 419.685 412.067
2660 0 199.67 14.2635 2848 110.533 419.7 407.386
2661 0 205.83 13.2439 2726 112.142 420.154 403.654
2662 0 211.907 13.3879 2837 112.918 420.129 398.332
2663 0 220.798 14.4294 3186 109.598 419.755 398.204
2664 0 226.923 13.8549 3144 111.228 420.197 393.55
2665 0 235.731 14.2705 3364 109.629 419.817 389.689
2666 0 242.812 14.7275 3576 108.875 419.99 382.554
2667 0 250.63 13.6855 3430 112.175 419.896 378.978
2668 1 200.837 12.2537 2461 109.126 419.369 409.438
2669 0 207.604 12.1144 2515 111.645 419.889 405.806
2670 0 214.84 12.7258 2734 110.714 420.027 398.548
2671 0 224.788 13.862 3116 107.748 419.908 400.307
2672 0 229.026 13.1251 3006 109.532 419.879 396.415
2673 0 236.967 12.0101 2846 112.573 419.545 393.402
2674 0 243.594 12.5742 3063 110.325 419.795 388.368
2675 0 252.545 13.2293 3341 109.472 419.94 381.846
2676 1 190.656 11.5286 2198 105.624 420.146 419.14
2677 0 192.501 11.2363 2163 107.034 419.833 415.134
2678 0 200.391 12.4606 2497 110.921 419.702 409.855
2679 0 206.594 13.4418 2777 111.048 419.755 403.372
2680 0 208.459 12.8371 2676 110.985 419.864 399.271
2681 0 217.732 13.1216 2857 107.142 419.605 404.044
2682 0 223.889 12.8367 2874 111.912 420.063 390.556
2683 0 227.759 12.6625 2884 113.312 419.852 385.955
2684 0 236.807 15.2107 3602 106.338 419.966 381.296
2685 0 242.504 14.6224 3546 107.651 420.07 380.13
2686 0 247.532 13.6023 3367 111.48 420.071 376.306
2687 1 12.0033 4.24883 51 74.8824 421.51 496.98
2688 0 9.00176 1.11089 10 79.9 422.5 496.7
2689 1 309.913 8.97672 2782 116.965 420.241 371.854
2690 0 309.919 18.8178 5832 93.9748 420.495 334.555
2691 0 397.825 20.2828 8069 82.0494 420.362 312.652
2692 1 75.4168 9.18893 693 88.5281 421.589 474.951
2693 0 77.34 9.58108 741 87.7557 421.996 474.825
2694 0 81.1492 11.2262 911 87.8299 421.521 475.173
2695 0 82.0875 10.8665 892 94.0191 421.266 476.091
2696 0 84.0662 12.2404 1029 92.7347 422.549 469.813
2697 0 89.1078 12.5242 1116 92.0842 421.631 471.878
2698 0 89.1604 11.8102 1053 95.4938 421.681 468.762
2699 0 94.1334 11.8024 1111 87.8938 421.927 466.202
2700 0 94.2199 9.93421 936 100.745 421.576 467
2701 0 98.0429 13.3513 1309 93.7746 422.277 465.342
2702 0 101.182 13.1249 1328 94.9955 421.491 464.287
2703 1 110.085 15.7605 1735 84.989 422.443 455.29
2704 0 110.139 14.8539 1636 88.5287 422.498 454.543
2705 0 112.125 18.4972 2074 81.892 422.466 455.338
2706 0 113.078 16.3515 1849 87.053 422.064 461.113
2707 0 115.206 15.0773 1737 90.4289 422.417 456.578
2708 0 119.195 15.5292 1851 89.3447 421.917 455.974
2709 0 122.117 15.6572 1912 89.999 421.404 452.422
2710 0 124.191 13.7449 1707 95.0047 421.112 451.131
2711 0 128.169 14.91 1911 87.0267 421.911 448.058
2712 1 79.0474 10.6139 839 92.8248 421.619 468.968
2713 0 78.1522 8.76495 685 93.0058 420.845 467.79
2714 0 79.0721 10.6612 843 89.1578 421.504 471.724
2715 0 83.1249 10.0692 837 92.8817 420.556 465.122
2716 0 85.1165 12.0423 1025 90.1171 420.289 467.552
2717 0 88.2159 10.2929 908 94.7841 421.064 463.915
2718 0 88.149 10.1192 892 97.0628 421.583 462.747
2719 0 92.202 13.1667 1214 92.0972 420.997 463.027
2720 0 93.1885 11.0743 1032 98.22 421.308 458.42
2721 0 97.1457 10.5923 1029 99.1351 421.634 459.207
2722 0 100.182 12.3475 1237 97.2086 420.674 457.538
2723 0 101.165 11.6246 1176 100.833 420.985 455.288
2724 0 104.202 11.2954 1177 102.552 421.544 455.474
2725 0 108.287 12.4207 1345 103.961 420.955 454.279
2726 0 111.138 11.6342 1293 105.469 421.684 451.68
2727 0 112.123 12.3971 1390 106.36 421.627 449.322
2728 0 118.148 14.3718 1698 102.42 421.629 449.412
2729 0 121.187 12.8067 1552 106.249 421.975 448.847
2730 0 125.242 13.3262 1669 104.967 422.167 445.561
2731 0 128.274 12.7539 1636 107.688 422.075 441.609
2732 0 131.267 12.3337 1619 109.524 421.857 440.397
2733 0 138.309 13.3686 1849 105.977 421.789 440.966
2734 1 12.0047 7.08053 85 80.5294 424.376 502.753
2735 0 16.0076 6.24705 100 82.62 423.67 500.06
2736 0 16.1124 5.77194 93 81.9677 423.032 500.785
2737 0 15.0226 5.05903 76 84.2105 423.197 500.842
2738 0 14.021 5.77706 81 79.5802 422.728 503.753
2739 0 15.0376 5.32 80 83.3375 423.675 502.125
2740 0 14.0261 5.41846 76 76.3553 422.5 503.921
2741 0 15.003 3.39931 51 79.549 422.353 503.314
2742 0 14.0077 6.49644 91 76.4835 421.934 501.714
2743 0 14.0021 7.71314 108 74.1944 422.37 503.593
2744 0 13.0338 5.44737 71 76.6761 422.324 504.38
2745 0 14.0219 5.13483 72 78.8333 421.486 502.667
2746 0 14.0006 4.64264 65 80.6615 421.985 503.046
2747 0 13.0009 4.92275 64 78.5625 422.797 501.375
2748 0 12.0041 5.49813 66 76.8788 422.742 503.879
2749 0 15.0045 5.79825 87 78.6207 423.506 500.115
2750 0 19.0435 6.77397 129 77.0465 423.411 500.109
2751 0 11.005 6.2699 69 78.3913 423.217 502.507
2752 0 19.005 6.89294 131 75.7023 423.634 502.214
2753 0 12.0031 2.99922 36 80.5833 422.917 501.611
2754 0 16.0177 7.86629 126 73.4762 422.968 502.079
2755 0 14.0084 5.85362 82 76.2683 421.402 500.939
2756 0 13.0013 4.23034 55 77.8 422.818 500.709
2757 0 15.0368 4.32272 65 76.3385 422.462 500.523
2758 0 9.00097 3.44407 31 78.5161 422.903 500.935
2759 0 12.0112 3.99627 48 77.2917 422.792 503.042
2760 1 103.117 12.607 1300 103.098 423.291 461.498
2761 0 107.258 11.8499 1271 103.871 422.817 461.607
2762 0 110.167 12.826 1413 101.472 423.565 460.833
2763 0 110.27 12.3968 1367 103.823 423.317 456.572
2764 0 113.249 11.956 1354 104.959 422.974 455.683
2765 0 119.238 12.2276 1458 104.794 422.853 453.848
2766 0 121.258 11.826 1434 105.521 422.639 454.581
2767 0 122.364 11.2207 1373 109.034 422.382 449.942
2768 0 127.439 12.7512 1625 104.207 422.255 452.482
2769 0 129.359 12.5465 1623 106.186 422.58 446.643
2770 0 133.266 12.1411 1618 103.736 421.849 446.926
2771 0 136.277 10.9923 1498 104.432 422.704 446.192
2772 0 142.397 12.7531 1816 101.705 423.244 446.592
2773 1 89.3415 10.7677 962 102.115 423.062 468.48
2774 0 92.277 13.3945 1236 93.4854 422.532 466.775
2775 0 95.2442 13.0192 1240 93.2347 422.675 471.401
2776 0 95.259 12.5447 1195 100.398 422.654 467.942
2777 0 99.3439 12.1397 1206 102.611 421.992 462.732
2778 0 103.316 12.2537 1266 102.244 422.46 461.051
2779 0 104.404 12.3846 1293 102.333 421.647 459.66
2780 0 111.287 11.5018 1280 103.619 422.133 457.993
2781 0 110.31 11.3317 1250 104.499 422.169 459.094
2782 0 115.392 12.8951 1488 101.889 421.688 454.942
2783 0 115.294 12.1429 1400 104.395 422.085 455.478
2784 0 119.308 12.9246 1542 103.15 421.771 450.879
2785 0 123.268 13.353 1646 102.423 421.426 450.351
2786 0 126.202 13.3279 1682 103.363 421.451 446.674
2787 0 130.266 13.2268 1723 103.062 421.408 447.39
2788 0 132.257 13.935 1843 101.698 421.561 447.843
2789 0 137.294 13.6495 1874 101.95 421.496 443.172
2790 0 141.357 12.5427 1773 103.271 421.742 440.322
2791 1 78.0452 11.1474 870 89.9494 421.445 471.756
2792 0 83.1889 11.4198 950 88.8074 421.768 470.666
2793 0 84.1264 11.3044 951 92.1567 420.708 470.923
2794 0 86.2428 10.2501 884 94.5509 421.003 469.317
2795 0 84.1551 10.3975 875 96.304 421.424 468.295
2796 0 91.1245 11.0618 1008 94.5913 420.774 469.494
2797 0 94.1238 11.4742 1080 94.6935 420.51 467.547
2798 0 95.1854 12.7646 1215 93.4634 421.118 468.63
2799 0 97.1046 11.5134 1118 96.8614 420.564 465.37
2800 0 100.103 13.546 1356 93.8083 420.799 465.139
2801 0 104.127 12.2639 1277 96.8559 421.005 462.552
2802 0 106.223 13.0857 1390 96.7108 421.263 459.795
2803 0 108.099 13.3673 1445 97.6886 421.242 457.078
2804 0 110.161 12.3093 1356 101.154 421.336 457.838
2805 0 112.152 13.339 1496 102.259 420.729 454.296
2806 0 117.23 13.7337 1610 101.56 421.297 455.113
2807 0 118.391 13.7088 1623 101.86 421.327 454.787
2808 0 122.237 13.2038 1614 103.627 421.396 450.207
2809 0 125.416 13.212 1657 104.371 421.453 449.072
2810 0 127.24 12.1424 1545 106.577 421.779 449.576
2811 0 131.318 12.4964 1641 106.076 421.306 449.012
2812 0 135.254 12.5394 1696 106.502 422.104 444.002
2813 0 138.406 12.9835 1797 105.548 421.679 444.688
2814 0 142.329 13.3143 1895 106.125 420.966 438.772
2815 0 148.33 13.2812 1970 105.837 420.402 438.006
2816 0 150.519 13.8056 2078 105.301 420.992 436.674
2817 0 157.468 14.1552 2229 104.716 421.2 432.729
2818 0 162.428 14.431 2344 104.059 420.312 432.665
2819 0 165.44 14.1864 2347 104.828 420.454 429.465
2820 0 172.396 14.2057 2449 105.414 420.937 423.721
2821 1 99.144 11.68 1158 100.374 420.26 465.113
2822 0 101.147 11.7453 1188 100.59 420.341 467.186
2823 0 104.29 12.4653 1300 100.828 420.533 463.098
2824 0 106.15 11.7853 1251 102.207 420.237 460.943
2825 0 108.198 11.3865 1232 104.025 420.227 457.545
2826 0 111.256 12.6555 1408 101.018 420.202 460.974
2827 0 116.209 11.7375 1364 103.118 420.685 456.815
2828 0 119.246 11.665 1391 104.363 420.787 452.1
2829 0 126.319 13.3313 1684 101.97 420.945 450.264
2830 0 129.298 13.4263 1736 101.498 420.873 449.545
2831 0 131.18 12.0598 1582 104.889 420.816 448.96
2832 0 134.318 12.6788 1703 104.78 420.782 444.041
2833 0 140.301 13.1503 1845 104.378 420.468 441.09
2834 0 143.273 12.4098 1778 105.877 420.696 437.485
2835 0 150.278 12.5035 1879 105.103 421.416 437.911
2836 0 154.361 13.5656 2094 104.094 420.754 431.402
2837 0 159.265 13.06 2080 107.074 420.811 428.733
2838 1 72.2497 10.962 792 94.7437 419.937 481.712
2839 0 72.2143 10.8981 787 95.305 420.036 475.436
2840 0 75.2216 12.0976 910 93.4231 419.832 476.292
2841 0 76.2278 12.1872 929 94.563 420.09 475.836
2842 0 77.1827 10.4687 808 98.9208 420.127 474.431
2843 0 81.3881 11.0458 899 98.1146 419.825 473.368
2844 0 85.2714 10.7774 919 98.2731 420.437 473.891
2845 0 86.301 12.074 1042 96.4962 419.353 472.072
2846 0 88.3555 10.9897 971 98.5829 419.518 471.395
2847 0 91.3516 11.6145 1061 99.1847 420.247 465.242
2848 0 97.3144 12.9477 1260 96.1167 420.331 468.085
2849 0 99.2218 12.5476 1245 98.6418 420.053 465.708
2850 0 105.261 12.6542 1332 97.6104 420.477 463.396
2851 0 105.247 12.0099 1264 101.362 420.386 458.574
2852 0 110.252 12.1903 1344 101.225 420.346 460.345
2853 0 112.143 11.3337 1271 103.627 420.339 459.204
2854 0 119.307 12.1954 1455 101.794 420.194 457.543
2855 0 123.141 13.6428 1680 101.821 420.095 458.212
2856 0 127.29 12.6011 1604 105.161 420.039 452.634
2857 0 130.343 13.4721 1756 104.62 420.001 453.293
2858 1 74.1892 12.3738 918 102.758 420.069 480.089
2859 0 74.1278 12.9911 963 103.052 419.383 478.706
2860 0 78.2341 13.5746 1062 101.552 419.434 477.03
2861 0 77.3582 12.4744 965 106.985 419.275 474.793
2862 0 82.3606 12.7124 1047 105.912 419.753 476.34
2863 0 81.3699 11.798 960 109.872 419.741 473.799
2864 0 84.5732 13.5859 1149 106.672 419.346 472.934
2865 0 89.596 11.7862 1056 111.544 419.427 469.073
2866 0 91.1332 12.8274 1169 105.372 419.806 471.123
2867 0 91.208 11.4354 1043 110.097 419.646 470.048
2868 0 94.3399 12.3278 1163 108.647 420.065 470.478
2869 0 98.2221 13.9887 1374 106.914 420.203 468.135
2870 0 98.2576 12.2942 1208 112.354 420.02 467.571
2871 0 103.249 13.5691 1401 107.544 420.851 465.58
2872 0 104.208 12.0529 1256 110.992 420.473 465.692
2873 0 106.371 13.0957 1393 110.954 420.312 460.527
2874 0 109.209 12.3067 1344 113.284 419.798 461.897
2875 0 114.221 12.7647 1458 112.366 420.75 460.404
2876 0 116.277 13.6313 1585 113.955 420.469 457.026
2877 0 119.331 14.3383 1711 112.981 420.586 454.903
2878 0 121.314 12.7521 1547 116.658 419.87 455.253
2879 0 127.293 12.0117 1529 117.864 419.789 453.02
2880 0 132.24 12.9688 1715 115.739 419.957 448.421
2881 0 136.375 11.483 1566 118.322 419.867 449.134
2882 0 142.451 13.6538 1945 113.117 420.366 443.862
2883 0 149.647 13.2111 1977 113.998 419.497 438.284
2884 1 86.3185 11.4344 987 108.389 420.474 470.365
2885 0 90.1389 12.1812 1098 109.293 420.245 471.845
2886 0 93.3572 12.886 1203 108.678 420.625 470.129
2887 0 97.3098 12.7839 1244 109.559 419.986 467.993
2888 0 98.3139 11.7888 1159 111.385 419.832 468.169
2889 0 100.453 12.5133 1257 111.442 420.562 465.309
2890 0 104.346 12.8611 1342 112.139 420.1 462.449
2891 0 105.434 11.2393 1185 117.762 419.683 454.225
2892 0 110.723 11.7952 1306 116.015 420.152 454.255
2893 0 114.88 13.0745 1502 113.921 420.36 452.732
2894 0 117.659 12.9867 1528 113.643 421.312 455.062
2895 0 121.547 13.106 1593 113.612 420.755 453.144
2896 0 124.545 11.9556 1489 116.8 420.256 451.572
2897 0 126.66 12.1191 1535 118.823 420.625 445.548
2898 0 132.805 13.0115 1728 116.859 420.628 442.6
2899 0 136.507 13.3107 1817 117.13 420.179 442.169
2900 0 140.452 13.0579 1834 118.009 420.218 441.07
2901 0 143.455 12.8681 1846 119.879 420.417 434.285
2902 0 151.643 14.4022 2184 113.916 419.722 433.941
2903 0 153.686 14.0026 2152 116.171 420.202 427.902
2904 0 160.702 14.3931 2313 115.315 420.441 427.257
2905 0 164.778 13.679 2254 116.99 419.919 427.61
2906 0 169.518 14.671 2487 115.372 419.935 420.067
2907 0 173.723 13.7518 2389 117.873 419.99 418.255
2908 0 180.622 14.5442 2627 116.237 419.963 416.779
2909 0 186.763 15.8971 2969 113.827 419.977 412.981
2910 0 192.872 15.0773 2908 115.744 420.11 408.193
2911 0 197.815 14.7966 2927 116.383 420.357 406.218
2912 0 204.692 14.4217 2952 117.534 420.386 406.057
2913 0 209.757 14.6741 3078 117.776 420.432 401.242
2914 1 154.507 11.7665 1818 117.388 420.699 432.021
2915 0 159.853 13.2872 2124 114.213 420.045 431.106
2916 0 164.497 13.0641 2149 116.343 420.676 425.297
2917 0 170.613 12.1444 2072 118.182 420.46 422.243
2918 0 175.542 12.1908 2140 118.778 420.649 419.383
2919 0 177.517 11.7566 2087 120.695 420.711 416.438
2920 0 184.541 12.4525 2298 119.315 420.252 415.725
2921 0 189.555 12.0651 2287 122.146 419.477 407.274
2922 0 195.365 13.2419 2587 119.577 419.807 404.152
2923 0 199.506 12.2052 2435 123.053 420.19 401.698
2924 0 204.614 13.0197 2664 122.255 420.096 395.04
2925 0 215.55 12.823 2764 121.873 420.201 392.484
2926 0 221.645 12.6825 2811 123.349 420.452 389.702
2927 0 228.524 12.7164 2906 124.062 420.142 385.592
2928 0 236.53 14.3153 3386 121.115 420.283 379.494
2929 0 246.441 13.488 3324 123.054 419.94 378.674
2930 0 254.688 13.5538 3452 122.983 420.195 375.764
2931 0 260.604 12.9929 3386 126.054 420.382 366.568
2932 0 270.64 14.4029 3898 121.971 420.064 367.695
2933 1 81.1841 11.7511 954 111.399 421.024 461.002
2934 0 84.1292 13.0276 1096 108.522 421.317 459.122
2935 0 82.0895 11.9016 977 110.899 421.397 464.719
2936 0 85.1711 10.5435 898 114.05 421.391 466.316
2937 0 89.1042 12.8726 1147 108.879 421.598 461.763
2938 0 88.1924 10.6245 937 115.502 421.081 458.21
2939 0 92.2292 12.1003 1116 110.654 420.207 456.306
2940 0 95.1602 10.8764 1035 113.955 420.683 454.735
2941 0 99.2967 13.3438 1325 108.138 420.733 453.596
2942 0 99.145 12.0329 1193 112.462 420.06 451.424
2943 0 103.219 11.6839 1206 113.104 420.381 448.104
2944 0 104.185 12.2379 1275 111.817 420.335 450.151
2945 0 110.16 11.565 1274 112.299 420.261 449.573
2946 0 107.209 11.6222 1246 114.413 420.463 443.875
2947 0 114.254 12.691 1450 110.934 420.201 441.326
2948 0 119.233 12.3456 1472 112.654 419.742 436.851
2949 0 117.179 12.4425 1458 112.992 419.56 437.136
2950 0 245.733 20.4449 5024 92.8049 419.249 365.949
2951 0 255.111 19.1956 4897 94.1697 419.73 359.64
2952 0 258.667 17.6289 4560 98.8311 419.466 359.696
2953 1 142.338 11.7818 1677 110.679 419.312 434.773
2954 0 144.329 11.0788 1599 113.707 419.518 429.388
2955 0 154.508 13.0608 2018 107.741 419.588 427.963
2956 1 91.217 11.8728 1083 106.564 419.201 457.749
2957 0 94.0956 12.0835 1137 104.625 418.661 459.326
2958 0 96.1331 12.4827 1200 105.303 419.051 455.829
2959 0 99.2573 13.2383 1314 104.554 418.619 456.097
2960 0 97.2244 10.9643 1066 113.321 419.391 451.908
2961 0 101.292 11.758 1191 111.646 419.638 450.893
2962 0 103.374 10.9602 1133 115.611 419.435 445.878
2963 0 105.338 12.2652 1292 112.286 419.385 448.629
2964 0 107.329 12.0378 1292 114.743 418.871 444.851
2965 0 109.297 11.8941 1300 116.568 419.287 439.46
2966 0 118.476 11.8251 1401 114.941 419.014 442.946
2967 0 119.409 10.7027 1278 119.548 419.268 440.288
2968 0 125.388 12.5132 1569 114.326 419.272 441.136
2969 0 129.373 13.063 1690 114.603 419.123 437.658
2970 0 128.337 10.8153 1388 122.411 419.362 432.673
2971 0 134.48 12.0613 1622 118.84 419.758 432.499
2972 0 136.391 11.841 1615 120.51 419.297 430.893
2973 0 144.305 12.2103 1762 119.603 419.561 429.527
2974 0 147.309 11.8187 1741 122.373 419.696 427.389
2975 0 151.536 14.2871 2165 116.777 418.921 423.644
2976 0 159.363 13.51 2153 118.751 419.523 421.915
2977 0 162.448 12.17 1977 124.017 419.738 416.806
2978 0 167.486 14.049 2353 120.189 419.823 415.464
2979 1 180.698 14.3997 2602 116.066 419.889 416.517
2980 1 108.27 8.49731 920 124.37 419.975 444.624
2981 0 110.134 11.8765 1308 114.518 419.298 444.99
2982 0 116.259 12.0679 1403 104.65 419.789 446.872
2983 0 115.166 11.3836 1311 110.586 419.822 445.047
2984 0 118.196 11.2609 1331 111.85 420.175 442.197
2985 0 120.255 11.0848 1333 113.207 419.469 441.901
2986 0 112.138 10.8616 1218 119.083 419.15 434.224
2987 0 129.216 13.0324 1684 109.546 418.78 438.379
2988 0 135.092 11.8438 1600 111.517 418.574 438.994
2989 0 142.248 12.0002 1707 116.981 418.129 439.206
2990 0 144.184 11.2079 1616 119.24 418.232 435.819
2991 0 148.087 11.5675 1713 120.124 419.454 429.026
2992 0 148.077 11.5007 1703 167.802 420.452 428.895
2993 1 87.176 8.94742 780 113.378 418.592 456.304
2994 0 92.1732 8.64677 797 116.476 418.552 450.705
2995 0 97.1161 9.54527 927 115.549 418.208 452.45
2996 0 98.1511 10.6672 1047 110.372 418.846 453.975
2997 0 98.1322 9.66044 948 117.251 419.098 446.574
2998 0 94.1746 11.3194 1066 114.921 418.81 448.021
2999 1 12.0055 4.41464 53 75.5094 421.264 501.358
3000 0 10.0003 1.59995 16 81.0625 421.188 501.062
3001 0 9.00209 4.22124 38 76.4737 421.289 501.342
3002 0 7 1.14286 8 83.875 421.875 501.25
3003 0 11.0161 5.44659 60 75.65 421.817 503.533
3004 0 10.0003 1.09997 11 84.2727 422.091 503.182
3005 0 12.0027 4.41568 53 77.5283 421.396 501.113
3006 0 10.001 3.29968 33 79.1818 421.333 502.061
3007 0 11.0081 7.26739 80 75.7625 422.338 500.025
3008 0 11.0006 3.99977 44 82.5455 421.318 500.955
3009 0 14.0057 5.49778 77 82.3377 419.896 501.922
3010 0 18.0245 7.37884 133 88.2481 420.165 504.804
3011 0 17.002 7.4697 127 88.2835 420.827 504.197
3012 0 17.0038 6.41031 109 87.8257 422.844 505.413
3013 0 17.0175 4.58351 78 90.9359 422.692 504.231
3014 0 17.0022 5.70516 97 90.4227 422.722 504.155
3015 0 18.0255 6.32436 114 91.1316 422.07 502.728
3016 0 18.0052 7.05352 127 89.6693 422.669 503.15
3017 0 17.0008 4.88212 83 94.0602 422.916 504.157
3018 0 16.0034 6.0612 97 93.5361 422.907 504.536
3019 0 19.0019 5.05213 96 92.3542 423.302 504.094
3020 0 20.0183 8.34236 167 87.5569 423.186 503.216
3021 0 19.0144 6.99471 133 91.1429 423 502.526
3022 0 19.0106 7.2065 137 89.8175 423.518 501.693
3023 0 18.0192 6.71506 121 92.0331 423.372 503.066
3024 0 18.0397 6.9846 126 89.3571 422.96 503.127
3025 0 19.0439 5.51356 105 89.4952 423.543 505.39
3026 0 19.0086 7.83855 149 88.0336 423.685 503.678
3027 0 18.0522 5.98263 108 91.7315 423.546 502.509
3028 0 18.0325 6.82102 123 89.7968 423.089 504.512
3029 0 18.0024 6.94353 125 92.88 419.832 503.992
3030 0 19.0621 6.87226 131 88.7328 419.779 505.809
3031 0 16.0013 3.31223 53 96.1887 419.604 504.547
3032 0 19.1348 5.01703 96 94.5625 419.469 502.115
3033 0 21.0091 8.42491 177 87.6102 420.198 504.463
3034 0 19.0838 5.60684 107 93.3832 420.318 503.86
3035 0 24.14 5.50953 133 93.6842 420.88 500.842
3036 0 16.0046 3.4365 55 96.7818 421.291 503
3037 0 19.0534 7.29528 139 89.4532 422.763 500.676
3038 0 19.0409 5.25186 100 90.65 423.13 501.65
3039 0 21.0139 4.80635 101 93.099 423.109 499.852
3040 0 19.03 7.67211 146 88.8425 423.644 501.849
3041 0 18.0585 8.25098 149 90.6577 423.732 499.262
3042 1 189.597 12.6637 2401 114.596 420.03 417.087
3043 0 191.69 10.9708 2103 120.708 420.25 406.816
3044 0 198.61 12.0135 2386 117.712 420.272 407.867
3045 0 201.454 12.4247 2503 117.718 420.055 403.092
3046 0 210.419 11.5056 2421 113.428 420.047 406.663
3047 0 210.419 11.4819 2416 154.038 420.039 406.329
3048 0 219.66 12.2917 2700 117.923 420.451 402.109
3049 0 222.691 12.3085 2741 107.315 420.013 398.893
3050 1 164.419 11.1909 1840 111.806 420.607 427.224
3051 0 166.444 12.1182 2017 116.149 420.31 429.532
3052 0 167.501 12.3462 2068 116.959 419.403 429.647
3053 0 171.549 12.9817 2227 115.421 419.566 418.678
3054 1 15.061 3.05424 46 81.587 423.652 500.261
3055 0 16.0237 6.49038 104 77.2596 424 500.01
3056 0 17.0195 5.17055 88 77.6136 423.875 500.102
3057 0 16.0208 3.86996 62 78 424.774 503.387
3058 0 17.0384 3.69753 63 80.9524 424.127 501.492
3059 0 14.0182 4.70816 66 77.9242 423.015 500.394
3060 0 16.0097 4.49726 72 77.4028 423.625 499.694
3061 0 18.0057 6.10916 110 78.9636 423.891 502.509
3062 0 17.0019 6.52868 111 82.3874 423.748 503.532
3063 1 231.559 13.5473 3137 110.883 420.625 392.963
3064 0 235.471 11.3984 2684 117.244 420.808 389.954
3065 0 241.276 12.3593 2982 114.86 420.676 390.281
3066 0 250.303 12.5608 3144 116.13 420.538 384.053
3067 1 178.291 10.9708 1956 115.22 420.805 418.255
3068 0 182.366 12.59 2296 114.094 421.106 414.812
3069 1 21.0227 8.75243 184 84.2228 424.114 500.424
3070 0 20.0061 7.19779 144 87.4861 423.535 500.903
3071 0 20.0383 6.43767 129 91.0853 423.287 500.798
3072 0 22.006 5.54393 122 91.4836 422.049 502.32
3073 0 21.0119 5.47308 115 91.8348 421.6 503.591
3074 0 22.0047 7.27117 160 86.7938 422.538 501.85
3075 0 22.0241 6.76531 149 90.5772 423.376 501
3076 1 221.563 11.9785 2654 123.596 419.82 397.455
3077 0 228.554 12.3822 2830 123.493 419.718 394.404
3078 0 233.516 11.5067 2687 128.069 419.511 387.406
3079 0 241.463 13.0662 3155 124.266 419.308 388.688
3080 0 247.56 12.3122 3048 126.376 419.223 386.564
3081 0 253.456 12.369 3135 128.13 419.585 380.151
3082 0 251.692 10.9221 2749 130.987 419.6 381.2
3083 0 245.331 8.18488 2008 130.32 419.76 399.929
3084 1 208.337 9.35022 1948 132.246 419.803 394.129
3085 0 214.386 11.4839 2462 128.253 420.597 395.745
3086 0 222.447 12.8075 2849 126.213 420.639 389.342
3087 1 20.0025 5.5993 112 98.5714 424.295 496.616
3088 0 20.0045 6.44855 129 97.2791 423.775 498.233
3089 0 20.0306 4.34335 87 98.977 423.701 498.828
3090 0 21.0027 6.76102 142 94.7183 424.099 498.063
3091 0 21.0047 5.85583 123 95.6992 423.358 498.057
3092 0 22.0582 6.89087 152 95.0526 422.414 495.803
3093 0 21.0304 6.70458 141 97.2411 423 496.78
3094 0 20.0359 6.33863 127 95.8032 422.575 496.717
3095 0 20.0195 6.39377 128 103.789 421.547 496.562
3096 0 295.658 14.6081 4319 121.32 420.027 352.47
3097 0 306.824 15.8756 4871 117.344 420.321 342.882
3098 0 315.87 15.5665 4917 118.624 419.701 337.96
3099 1 130.171 11.1776 1455 107.19 419.576 445.423
3100 0 132.177 10.5162 1390 107.406 419.613 443.968
3101 0 137.182 11.0073 1510 107.077 419.252 440.738
3102 0 141.148 10.365 1463 118.132 419.373 440.533
3103 0 145.154 11.1605 1620 116.091 419.622 436.651
3104 0 146.214 10.8129 1581 116.259 420.106 436.331
3105 0 157.26 15.4776 2434 97.1574 420.044 428.161
3106 0 158.151 14.1384 2236 102.486 420.345 424.317
3107 0 161.143 11.2385 1811 109.589 420.501 428.9
3108 0 167.17 12.8552 2149 106.925 421.027 424.222
3109 0 170.357 12.5619 2140 108.766 420.44 422.938
3110 0 175.36 10.8691 1906 112.788 420.384 421.386
3111 1 113.224 10.5808 1198 102.031 422.306 454.707
3112 0 117.248 12.1793 1428 97.7892 421.414 451.791
3113 0 118.172 10.8063 1277 103.856 419.245 453.22
3114 0 120.125 9.68989 1164 107.242 420.453 451.651
3115 0 124.189 11.4825 1426 104.248 420.042 449.611
3116 0 128.202 11.2323 1440 105.446 419.364 449.535
3117 0 130.231 11.7176 1526 104.675 419.408 447.039
3118 0 135.279 11.8495 1603 105.454 420.009 443.475
3119 0 137.429 12.0935 1662 104.683 419.052 444.208
3120 0 143.351 12.9751 1860 103.234 419.491 439.551
3121 0 145.27 13.554 1969 102.605 420.175 438.668
3122 0 150.247 12.0734 1814 106.143 420.161 437.392
3123 0 152.55 13.1826 2011 104.38 419.928 438.577
3124 0 157.403 12.9032 2031 106.955 420.032 435.13
3125 0 161.378 12.5668 2028 108.834 420.203 428.428
3126 0 166.601 13.7634 2293 112.073 420.917 425.918
3127 0 170.669 12.6151 2153 113.027 420.807 424.536
3128 0 174.861 12.1125 2118 112.251 420.882 420.769
3129 0 179.667 12.3339 2216 111.047 421.149 419.293
3130 0 185.059 11.0667 2048 114.034 421.717 412.166
3131 0 189.843 11.4042 2165 113.221 421.182 409.314
3132 0 199.119 12.8315 2555 110.085 421.699 411.709
3133 1 125.734 11.7152 1473 107.842 421.375 444.426
3134 0 129.565 11.4151 1479 103.314 421.192 441.641
3135 0 131.328 11.4751 1507 108.519 420.608 436.201
3136 0 134.47 12.1365 1632 105.896 420.779 439.074
3137 0 140.452 11.2922 1586 107.875 420.832 432.117
3138 0 146.644 11.9064 1746 104.467 420.622 434.064
3139 0 147.643 10.539 1556 109.275 420.652 427.084
3140 0 152.517 12.1167 1848 105.353 420.35 428.769
3141 0 154.265 11.9016 1836 108.277 420.342 422.474
3142 0 157.219 11.1755 1757 110.433 420.938 419.32
3143 0 164.276 11.992 1970 104.968 420.877 421.618
3144 0 168.332 11.3644 1913 108.865 421.32 410.224
3145 0 172.316 12.715 2191 106.422 421.291 412.261
3146 0 177.36 11.4682 2034 108.495 421.034 407.048
3147 0 183.692 11.8459 2176 106.7 420.148 406.017
3148 0 191.471 12.2159 2339 105.417 421.354 405.588
3149 0 193.272 12.2005 2358 107.215 420.42 399.872
3150 0 202.763 12.1916 2472 107.238 420.292 397.957
3151 0 210.595 13.2957 2800 104.153 420.898 398.743
3152 0 213.378 12.0209 2565 108.487 420.772 391.892
3153 0 218.251 11.7296 2560 110.266 420.569 385.86
3154 0 224.703 12.2206 2746 109.18 420.52 389.665
3155 0 232.511 13.2381 3078 107.1 420.5 386.497
3156 0 239.577 13.3068 3188 107.396 420.585 386.094
3157 0 245.606 13.3466 3278 107.836 420.412 377.895
3158 0 251.557 13.5596 3411 109.601 420.475 373.864
3159 1 180.46 10.0521 1814 107.573 420.158 416.293
3160 0 188.534 12.0774 2277 104.554 420.437 405.224
3161 0 192.661 11.5488 2225 105.831 420.409 406.613
3162 0 197.464 11.9921 2368 106.147 419.962 398.774
3163 0 204.591 12.6496 2588 105.041 420.476 400.954
3164 0 207.715 11.174 2321 111.217 420.837 391.037
3165 1 15.0247 5.05833 76 76.4342 421.75 496.5
3166 0 11.001 5.09042 56 76.2321 421.589 499.179
3167 0 11.001 4.90862 54 91.9815 419.556 499.13
3168 0 14.0868 3.33645 47 77.7021 422.404 499.34
3169 0 18.0035 3.77704 68 78.3529 420.162 501.353
3170 0 15.0177 2.06423 31 81.9032 420.323 500.935
3171 0 13.0175 3.45688 45 77.4667 420.556 499.978
3172 0 16.0277 5.67767 91 73.9451 420.637 500.835
3173 0 15.0175 5.12735 77 76.0909 419.688 500.013
3174 0 14.0033 5.21304 73 73.8082 419.795 503.726
3175 0 12.0054 2.0824 25 78.28 419.88 501.4
3176 0 14.004 2.57069 36 76.9444 420.083 501.778
3177 0 14.0198 6.41948 90 73.3111 419.367 501.767
3178 0 15.0011 7.5328 113 72.9558 420.947 499.239
3179 0 20.0591 7.52777 151 77.4305 421.371 499.046
3180 1 34.0313 7.46372 254 85.4803 422.323 499.591
3181 0 36.0265 8.21617 296 84.1284 422.152 498.446
3182 0 37.0476 10.0411 372 81.1882 422.191 497.75
3183 0 37.0817 9.60042 356 83.132 422.028 499.508
3184 0 38.1537 11.375 434 80.9677 422.491 498.661
3185 0 37.1583 9.63445 358 83.8603 422.71 500.098
3186 0 37.1022 9.70293 360 84.7833 422.069 498.25
3187 0 38.0342 8.6764 330 87.2485 422.1 497.982
3188 0 40.0782 8.90758 357 86.916 421.871 499
3189 0 39.1263 10.8622 425 85.5082 421.774 497.485
3190 0 39.0917 10.1556 397 86.2418 422.244 498.678
3191 0 41.0464 10.2811 422 85.7607 422.72 497.531
3192 0 40.0511 10.5365 422 87.7654 421.922 497.547
3193 0 39.0222 11.4294 446 87.0807 421.861 496.094
3194 0 36.0393 9.60064 346 92.1532 422.514 497.509
3195 0 39.0239 9.60948 375 90.8213 422.213 496.837
3196 0 39.0275 10.8641 424 89.967 421.976 497.196
3197 0 41.0415 10.1604 417 89.6523 421.921 496.158
3198 0 40.0356 10.1659 407 90.3661 422.351 496.631
3199 0 41.0893 10.9761 451 89.3126 422.067 496.441
3200 0 38.0126 8.76025 333 94.4655 421.793 499.27
3201 0 39.063 10.8799 425 91.4259 421.958 496.842
3202 0 39.0807 11.0029 430 91.1116 421.258 496.272
3203 0 37.0553 9.20245 341 95.3871 419.481 497.349
3204 0 41.0526 9.98718 410 92.461 420.351 497.005
