time division length width area intensity CMx CMy
0 0 50.1397 9.33392 468 126.25 281.415 479.513
1 1 28.0054 9.92666 278 127.5 281.899 490.245
2 0 28.0348 9.70221 272 128.812 281.893 490.21
3 0 28.0283 10.2753 288 128.67 281.524 488.764
4 0 30.0107 11.0294 331 123.492 281.961 488.665
5 0 31.0161 10.6396 330 124.224 283.142 490.036
6 0 24.0299 9.36334 225 132.578 281.324 493.289
7 0 26.023 9.06889 236 130.784 281.343 493.809
8 0 25.0306 10.587 265 129.321 281.555 493.37
9 0 27.0178 9.77134 264 129.197 280.795 492.86
10 0 27.0335 9.72869 263 129.548 281.049 493.103
11 0 27.0202 9.4744 256 129.836 281.066 493.891
12 0 28.0158 10.03 281 129.683 281.203 492.399
13 0 31.0449 11.0485 343 125.026 281.254 492.216
14 0 28.0462 9.3774 263 133.357 279.905 491.935
15 0 32.054 10.3575 332 126.196 280.123 492.877
16 0 34.0382 10.782 367 124.681 280.973 491.011
17 0 35.0455 10.5292 369 126.26 281.103 490.13
18 0 34.0178 10.7885 367 127.071 279.45 490.305
19 0 37.0216 11.3177 419 123.993 280.124 490.375
20 0 37.0646 11.2236 416 125.837 279.353 490.38
21 0 36.04 11.1265 401 128.349 279.651 489.653
22 0 38.0443 11.0135 419 126.885 278.902 490.031
23 0 40.0519 11.6599 467 123.334 278.533 489.964
24 0 42.032 12.3953 521 120.655 278.67 488.699
25 0 42.0427 11.6072 488 123.324 278.777 487.844
26 0 43.0369 11.5715 498 124.026 278.771 487.321
27 0 46.0901 12.0416 555 120.915 278.724 488.346
28 0 47.0244 12.7806 601 119.354 278.859 487.764
29 0 47.0284 12.1203 570 122.214 278.712 487.063
30 0 48.1386 11.3007 544 122.601 278.581 488.463
31 0 51.0536 12.3204 629 121.116 279.048 485.992
32 0 52.0754 12.3667 644 119.986 278.349 486.992
33 0 52.0452 10.8559 565 124.581 278.065 484.688
34 0 57.0641 11.0928 633 123.812 278.253 484.442
35 0 57.138 12.1285 693 122.289 277.958 482.423
36 0 62.1052 13.4449 835 115.822 278.126 483.316
37 0 62.1001 11.9162 740 120.816 277.961 482.588
38 0 69.0641 10.9464 756 120.138 277.507 482.571
39 0 67.1815 11.3126 760 122.53 277.517 479.037
40 0 68.2988 12.5478 857 120.16 278.076 476.197
41 0 73.184 11.9972 878 119.024 278.011 478.059
42 0 74.1838 11.458 850 120.662 278.119 477.215
43 0 78.2181 12.708 994 118.362 278.543 474.586
44 0 82.2477 12.8271 1055 117.774 277.93 472.58
45 0 84.0826 13.3083 1119 117.727 277.98 470.7
46 1 42.0473 10.9876 462 121.39 278.039 491.076
47 0 45.1106 12.3474 557 118.271 278.047 490.397
48 0 47.031 12.5874 592 120.622 277.676 489.434
49 0 48.0239 13.3892 643 126.902 278.341 486.81
50 0 51.052 12.9084 659 126.689 277.258 487.715
51 0 51.0257 13.1306 670 126.463 277.736 487.057
52 0 51.0582 11.3204 578 125.588 276.441 487.699
53 0 54.0323 13.0663 706 119.987 277.105 486.728
54 0 54.0777 12.4081 671 122.429 277.197 486.69
55 0 57.0595 12.6009 719 121.317 276.716 484.672
56 0 59.0799 13.0332 770 120.012 276.661 484.535
57 0 62.1886 13.3304 829 118.285 276.881 483.311
58 0 62.0749 13.6126 845 118.183 276.897 481.73
59 0 66.1668 13.0881 866 119.193 276.83 482.294
60 0 67.2147 13.2114 888 119.675 277.49 479.435
61 0 71.3711 13.9973 999 117.248 277.299 477.333
62 0 73.0897 13.7229 1003 119.163 276.876 477.434
63 0 74.2035 12.7757 948 121.692 277.006 476.741
64 0 78.075 13.9225 1087 116.845 276.141 475.418
65 0 80.0937 13.197 1057 119.681 276.873 475.884
66 0 84.1566 14.0452 1182 122.234 276.863 472.321
67 0 86.1381 12.3639 1065 126.27 276.977 471.277
68 0 90.0333 13.0729 1177 123.891 276.59 469.592
69 0 93.1198 14.4223 1343 118.388 276.68 468.217
70 0 96.2672 12.3926 1193 124.238 276.233 467.164
71 0 97.1484 12.6096 1225 124.967 276.927 465.833
72 0 101.262 12.7886 1295 124.737 276.974 463.28
73 0 105.124 12.8229 1348 124.996 276.036 462.371
74 0 109.388 12.8717 1408 124.356 275.579 459.823
75 1 59.126 12.2112 722 114.546 275.9 486.247
76 0 60.3396 12.3799 747 117.252 276.056 485.877
77 0 60.0454 11.0583 664 116.858 276.872 487.342
78 0 59.0498 10.3641 612 121.046 276.044 484.739
79 0 63.0727 12.1606 767 116.771 275.432 483.004
80 0 66.0899 11.2271 742 117.442 275.823 483.12
81 0 68.0464 12.8001 871 114.365 276.594 480.845
82 0 69.0611 12.1487 839 115.277 276.741 480.928
83 0 71.0673 11.8479 842 116.947 276.923 479.831
84 0 72.0837 10.4601 754 120.603 277.04 477.757
85 0 77.1235 11.3714 877 116.288 276.784 477.408
86 0 82.1799 12.57 1033 113.215 275.982 476.001
87 0 86.4498 13.1059 1133 111.517 276.447 474.95
88 0 86.1981 12.0884 1042 115.8 276.502 471.551
89 0 90.1651 11.7562 1060 115.33 276.336 469.656
90 0 94.1988 11.5394 1087 114.45 275.559 470.258
91 0 96.1637 10.8357 1042 117.157 275.56 466.934
92 1 51.052 11.361 580 108.447 275.922 489.528
93 0 53.1077 12.0322 639 107.595 275.97 488.649
94 0 52.0277 10.4752 545 112.112 276.224 489.976
95 0 55.0497 11.4442 630 115.056 275.227 487.149
96 0 57.0148 11.1024 633 114.335 274.559 489.479
97 0 56.0976 10.2143 573 117.382 275.379 488.194
98 0 59.0501 11.3971 673 114.273 275.475 486.117
99 0 61.0701 10.709 654 115.535 275.232 485.659
100 0 63.1024 10.792 681 115.626 275.073 484.201
101 0 66.059 11.8076 780 112.845 274.456 482.072
102 0 69.0603 11.2945 780 110.835 275.391 482.272
103 0 70.0729 12.8866 903 109.388 275.841 479.821
104 0 74.0591 11.7069 867 109.973 275.566 480.948
105 0 75.119 12.3005 924 110.143 276.382 477.359
106 0 80.0933 12.5104 1002 107.952 276.473 477.322
107 0 81.0371 12.5498 1017 108.03 276.124 478.153
108 0 84.1241 11.8872 1000 110.337 276.544 473.473
109 0 87.0914 11.3789 991 111.225 275.94 472.681
110 0 90.2222 11.1059 1002 111.341 276.358 471.269
111 0 94.11 12.2304 1151 109.003 276.077 470.529
112 1 51.0875 10.5701 540 108.498 275.994 489.45
113 0 52.0686 10.4093 542 107.681 276.017 486.734
114 0 52.1517 9.16556 478 98.6151 275.87 485.008
115 0 52.071 10.6201 553 106.454 275.099 489.349
116 0 53.0788 11.1155 590 106.415 276.469 486.71
117 0 54.0502 9.8797 534 108.515 275.914 487.326
118 0 56.0766 11.7161 657 105.037 275.562 486.087
119 0 58.053 11.0933 644 107.688 276.325 486.017
120 0 60.1113 11.9611 719 106.071 275.93 484.538
121 0 62.1111 11.4472 711 107.352 275.226 484.511
122 0 64.0669 12.0031 769 106.346 275.506 481.883
123 0 65.0926 11.6603 759 107.787 275.254 483.506
124 0 67.0957 11.9531 802 107.582 275.493 480.633
125 0 71.0683 11.5663 822 107.721 275.288 481.296
126 0 73.0824 11.8496 866 107.454 275.559 479.359
127 0 75.096 12.1711 914 107.553 275.772 477.632
128 0 78.0662 11.9642 934 108.206 276.352 477.214
129 0 79.0689 11.6607 922 109.996 275.341 474.088
130 0 83.1229 11.2725 937 109.97 275.25 474.062
131 0 86.0871 12.5106 1077 109.648 275.59 471.867
132 1 47.0331 10.9285 514 109.23 274.988 491.971
133 0 48.1134 11.4313 550 107.944 275.36 490.235
134 0 49.1015 10.6514 523 111.101 275.331 489.302
135 0 52.0373 12.5679 654 102.968 273.728 489.677
136 0 49.061 12.1074 594 107.022 273.918 486.838
137 0 54.0631 12.7444 689 104.791 274.774 487.213
138 0 56.2631 12.4949 703 103.424 274.134 486.937
139 0 57.1829 11.2971 646 106.638 273.926 486.02
140 0 58.1114 12.2351 711 105.048 273.83 485.474
141 0 61.1129 12.0269 735 104.941 273.663 483.771
142 0 62.0869 12.9335 803 103.694 274.166 482.699
143 0 63.1145 12.4694 787 105.435 274.149 482.905
144 0 62.1667 10.9866 683 110.763 274.003 481.37
145 0 67.0995 12.6976 852 105.357 274.689 481.162
146 0 70.0502 12.0628 845 105.456 274.525 482.606
147 0 71.1038 12.5029 889 105.79 274.224 478.982
148 0 73.152 13.096 958 105.276 274.589 476.907
149 0 77.121 13.3686 1031 104.032 274.5 477.109
150 0 79.0616 13.382 1058 105.325 274.091 475.112
151 0 82.0778 13.3166 1093 105.863 273.826 473.694
152 0 84.0818 13.1539 1106 106.051 274.363 473.106
153 0 87.0275 12.0307 1047 107.741 273.794 474.435
154 0 91.1499 13.8563 1263 105.612 274.58 470.252
155 0 93.1169 12.683 1181 108.985 273.755 468.897
156 0 93.1042 12.588 1172 111.179 274.169 465.495
157 0 100.152 13.2099 1323 109.086 274.336 465.02
158 1 50.0671 9.40737 471 111.527 274.45 489.444
159 0 52.0278 10.9749 571 108.751 273.944 487.888
160 0 53.0411 12.3866 657 108.224 274.658 485.594
161 0 56.0841 12.5169 702 106.695 274.799 486.419
162 0 58.0513 11.8171 686 105.799 274.993 483.65
163 0 59.1262 12.5494 742 104.322 274.018 485.348
164 0 61.1122 11.9452 730 105.045 274.173 483.436
165 0 63.0837 13.1413 829 102.059 274.966 482.852
166 0 64.128 12.0852 775 105.263 275.101 482.249
167 0 64.1345 12.4738 800 104.671 275.22 478.981
168 0 69.1184 12.4135 858 104.091 274.364 478.848
169 0 72.0878 12.5264 903 104.115 274.395 476.999
170 0 73.1335 12.1012 885 105.45 275.462 477.329
171 0 75.0719 11.0161 827 108.152 275.873 476.761
172 0 77.1162 13.7844 1063 103.312 275.137 473.842
173 0 80.1124 12.0955 969 106.675 275.239 472.106
174 0 84.0472 11.9576 1005 106.719 275.255 471.807
175 0 85.1128 11.5141 980 108.556 275.223 470.184
176 0 89.0516 12.2176 1088 107.834 275.324 467.117
177 0 93.1272 12.1769 1134 109.245 275.217 465.588
178 0 94.1176 12.835 1208 110.356 275.392 462.974
179 0 99.0914 11.5045 1140 113.487 274.411 460.636
180 0 104.097 12.5363 1305 111.415 274.68 461.162
181 0 107.084 13.0739 1400 109.626 274.674 458.748
182 0 111.155 12.9819 1443 110.104 274.985 456.637
183 0 115.193 13.8289 1593 107.923 274.85 452.373
184 0 118.111 14.0207 1656 107.446 274.782 450.269
185 0 122.206 13.7882 1685 108.903 274.592 449.113
186 0 124.225 12.582 1563 112.58 275.083 450.949
187 0 130.186 13.7879 1795 111.175 275.033 444.333
188 0 133.169 12.8709 1714 115.173 274.452 443.182
189 0 137.302 13.2555 1820 116.268 274.279 439.782
190 0 145.302 14.5215 2110 112.992 274.51 438.01
191 0 150.299 14.398 2164 114.219 273.998 436.292
192 0 155.433 14.4628 2248 116.863 274.511 435.578
193 0 160.321 13.5353 2170 119.261 274.537 428.241
194 0 165.473 14.8665 2460 115.974 274.686 428.401
195 0 171.425 14.992 2570 116.468 274.935 425.035
196 0 177.386 15.1252 2683 117.012 274.807 420.032
197 0 183.383 14.4125 2643 118.355 274.941 418.934
198 0 189.399 15.3222 2902 116.853 275.684 417.347
199 0 193.231 13.6262 2633 121.981 274.882 412.633
200 0 199.405 12.5072 2494 124.781 274.599 412.618
201 0 207.339 13.5382 2807 123.103 273.453 405.926
202 0 213.247 13.271 2830 123.947 274.64 400.212
203 0 223.45 13.2021 2950 123.4 274.182 400.909
204 1 168.191 12.795 2152 122.515 275.012 425.912
205 0 175.182 13.3005 2330 120.181 274.483 424.684
206 0 181.168 13.0321 2361 122.003 274.735 418.592
207 0 188.421 12.9497 2440 120.593 275.045 421.401
208 0 192.191 12.727 2446 121.34 274.428 411.919
209 0 200.469 12.7501 2556 120.117 274.154 414.476
210 0 205.295 12.3237 2530 122.413 274.153 409.861
211 0 214.31 11.95 2561 123.488 273.765 406.596
212 0 224.298 13.2547 2973 122.908 273.917 397.253
213 0 232.663 12.9501 3013 122.965 274.228 389.574
214 1 57.3216 9.96134 571 106.529 274.928 477.658
215 0 60.1178 11.6272 699 104.511 273.524 480.82
216 0 59.0421 9.77269 577 102.69 273.047 485.258
217 0 61.0347 9.94517 607 103.163 274.13 484.465
218 0 60.0771 9.68755 582 105.301 274.711 481.414
219 0 62.021 9.35167 580 106.726 274.836 480.174
220 0 67.1269 10.0258 673 103.425 274.623 481.368
221 0 67.0539 10.1411 680 104.837 274.934 479.816
222 0 71.0487 10.8799 773 102.33 275.296 475.772
223 0 74.0665 10.4636 775 103.737 274.796 474.284
224 0 77.0537 11.1221 857 101.382 275.125 473.846
225 0 78.078 10.1693 794 103.287 274.856 475.058
226 0 81.0696 9.80638 795 104.82 274.332 470.552
227 0 84.0697 10.4794 881 104.099 274.266 469.061
228 1 45.014 10.2413 461 101.913 273.614 489.351
229 0 46.0485 9.96776 459 102.052 273.887 487.861
230 0 48.0422 10.4908 504 99.4325 274.478 489.262
231 0 49.0178 11.098 544 95.8658 275.671 487.585
232 0 51.0568 10.4394 533 97.0807 275.728 485.839
233 0 50.0961 10.1804 510 98.1902 273.92 484.798
234 0 55.0516 11.2622 620 94.7968 273.931 485.839
235 0 56.042 12.3657 693 93.2583 273.788 483.73
236 0 56.0221 10.3709 581 98.1859 274.055 484.845
237 0 58.0557 11.6095 674 95.4674 274.086 484.273
238 0 61.0325 12.4196 758 92.5 274.066 483.321
239 0 61.0766 10.6424 650 98.7046 273.806 479.191
240 0 65.0556 12.5892 819 93.7558 274.062 480.597
241 0 65.0701 12.2022 794 96.1914 274.217 478.305
242 0 67.0467 12.0662 809 95.6391 273.864 479.557
243 0 68.0895 11.6318 792 97.3321 273.633 478.611
244 0 72.1158 12.6741 914 94.8567 273.713 477.126
245 0 72.1075 11.3858 821 97.9147 274.281 477.392
246 0 74.0772 13.2159 979 93.8682 274.097 475.984
247 0 75.0624 12.2964 923 96.857 273.923 474.379
248 0 77.1189 11.5147 888 97.3209 274.036 475.904
249 0 80.0807 12.9744 1039 93.3975 274.343 473.482
250 0 84.082 11.4293 961 95.282 274.851 471.466
251 1 42.0106 11.997 504 93.9563 274.284 491.444
252 0 42.0393 10.062 423 97.9267 273.882 490.428
253 0 43.0718 11.2371 484 95.8822 273.114 491.138
254 0 44.0106 12.6788 558 93.0215 273.841 491.147
255 0 46.0705 12.3506 569 91.9227 274.332 489.35
256 0 45.0352 11.3689 512 96.1289 274.232 489.715
257 0 45.0267 11.5043 518 96.8378 274.67 490.015
258 0 48.0226 12.9731 623 92.8379 274.923 488.374
259 0 49.0471 12.2535 601 94.2329 274.686 487.17
260 0 50.0989 12.116 607 94.5453 274.598 487.133
261 0 52.1304 12.4112 647 93.289 274.07 485.873
262 0 52.0853 12.7867 666 93.6291 274.135 485.782
263 0 55.1395 12.5137 690 92.8638 274.929 486.955
264 0 57.157 12.0545 689 94.2104 273.994 483.303
265 0 56.1166 11.6543 654 95.3593 273.856 484.962
266 0 57.0695 11.9679 683 95.1581 274.482 483.384
267 0 58.123 11.252 654 96.1514 274.687 484.069
268 0 61.2536 12.032 737 93.863 275.464 481.929
269 0 63.0867 12.9504 817 91.9131 274.837 480.348
270 0 62.1531 12.1796 757 97.4333 273.847 479.572
271 0 63.0866 11.397 719 97.9471 274.519 480.245
272 0 67.125 12.4842 838 95.5477 274.722 478.732
273 0 69.219 13.7535 952 93.7059 274.619 478.668
274 0 73.067 12.6049 921 95.6384 274.831 476.383
275 0 74.2225 11.8562 880 97.7875 274.534 475.764
276 0 74.1419 12.2063 905 98.568 274.54 475.729
277 0 78.0866 13.1265 1025 96.4654 275.04 473.965
278 0 79.1391 11.8273 936 99.3761 275.436 474.094
279 0 84.1341 13.0268 1096 97.7381 274.854 470.783
280 0 85.2492 12.7509 1087 99.4683 275.017 470.078
281 0 87.0932 11.9298 1039 100.478 275.435 470.376
282 1 46.0757 11.1773 515 98.3728 275.656 489.532
283 0 49.1066 11.9128 585 97.5282 274.579 488.824
284 0 48.0866 11.916 573 94.1239 275.04 488.248
285 0 50.0476 12.548 628 90.7659 274.218 490.508
286 0 52.0371 12.5679 654 92.1147 274.491 487.058
287 0 53.0432 11.255 597 93.1139 273.908 488.549
288 0 53.0665 13.0214 691 91.6961 274 486.132
289 0 56.1188 12.4557 699 92.3448 274.751 485.405
290 0 56.0603 11.6303 652 93.8865 274.368 485.571
291 0 57.0975 12.5049 714 93.0014 274.784 483.994
292 0 60.1367 12.5381 754 93.3912 274.418 481.971
293 0 62.0651 12.1485 754 94.7706 274.854 482.203
294 0 64.0299 12.6816 812 92.9557 274.507 482.473
295 0 66.1086 12.1769 805 94.0571 274.732 478.304
296 0 69.0214 13.1988 911 92.6531 274.79 476.581
297 0 72.1515 12.6955 916 93.7642 275.062 477.024
298 0 73.0533 12.3198 900 95.5067 274.763 477.529
299 0 75.0442 13.552 1017 93.4769 274.664 472.041
300 0 78.1318 12.3893 968 95.8192 275.037 473.013
301 0 80.0802 11.4385 916 98.8308 275.071 470.57
302 0 81.0428 11.9813 971 104.116 274.172 468.268
303 0 88.0257 12.0533 1061 102.227 274.072 469.334
304 0 89.0866 11.7638 1048 103.28 274.245 466.895
305 0 93.1765 11.0436 1029 104.668 274.196 463.558
306 0 98.0694 14.1736 1390 97.6518 274.889 465.278
307 0 101.262 12.2356 1239 100.538 274.257 462.459
308 0 105.174 12.4555 1310 99.3023 274.348 461.33
309 1 56.0538 11.8993 667 93.3823 274.609 486.639
310 0 56.1088 11.2638 632 97.9114 274.041 485.166
311 0 58.0322 11.6659 677 100.982 275.462 484.641
312 0 59.067 12.4774 737 100.351 275.742 482.429
313 0 61.0555 11.6451 711 103.027 275.577 481.519
314 0 63.0706 12.9062 814 101.018 275.957 480.569
315 0 65.1087 12.5636 818 103.049 275.281 480.079
316 0 66.0369 11.2816 745 105.672 274.918 480.75
317 0 67.042 11.6047 778 101.823 274.716 480.599
318 0 69.1116 11.9083 823 102.677 274.846 477.226
319 0 74.1586 12.2845 911 102.524 274.504 476.316
320 0 75.0787 12.5335 941 103.559 274.317 473.716
321 0 78.0886 12.9852 1014 101.516 274.069 476.361
322 0 81.0393 12.969 1051 103.431 275.055 473.341
323 0 84.1216 12.9931 1093 103.7 274.629 472.794
324 0 88.1456 13.6706 1205 102.558 273.812 470.254
325 1 46.0656 11.2231 517 105.174 273.623 491.859
326 0 47.0605 11.0284 519 101.435 275.815 490.514
327 0 47.154 11.261 531 101.548 274.71 489.697
328 0 47.072 12.2791 578 100.493 275.36 491.057
329 0 50.0849 13.1377 658 98.1231 275.506 491.684
330 0 51.0954 11.8015 603 102.343 275.43 489.962
331 0 54.1163 13.1753 713 99.0533 275.453 488.459
332 0 56.1031 12.4592 699 100.74 276.047 489.648
333 0 59.149 12.5108 740 99.4378 275.566 487.416
334 0 59.0438 12.1605 718 100.756 276.01 486.088
335 0 61.0365 12.6809 774 100.494 276.107 484.972
336 0 63.0748 11.6211 733 103.001 275.049 485.169
337 0 65.1051 13.0251 848 101.05 275.829 483.999
338 0 66.0522 12.4296 821 102.558 276.13 484.491
339 0 68.0886 11.8816 809 105.719 275.681 482.184
340 0 71.0584 12.0887 859 106.85 275.166 480.058
341 0 74.1701 13.496 1001 104.152 275.863 478.131
342 0 77.0943 13.1268 1012 106.247 276.142 476.834
343 0 80.1403 13.3765 1072 106.382 275.816 476.06
344 0 82.1169 13.2129 1085 107.841 276.02 474.114
345 1 44.0309 11.0604 487 109.671 276.85 495.012
346 0 45.0763 11.6691 526 110.221 276.464 493.966
347 0 48.0119 11.8512 569 108.525 276.937 493.601
348 0 48.1387 12.8794 620 108.039 276.535 492.294
349 0 49.0774 13.0814 642 108.502 275.913 490.724
350 0 52.0221 12.7446 663 108.186 275.706 492.112
351 0 53.0255 13.1823 699 107.881 275.461 489.94
352 0 55.0287 14.029 772 105.159 275.628 489.516
353 0 55.0358 12.5373 690 110.103 275.886 490.336
354 0 57.0255 13.9762 797 106.768 276.526 489.138
355 0 59.0578 13.3598 789 109.366 276.687 487.113
356 0 60.0668 13.7014 823 108.187 276.157 487.733
357 0 63.0502 12.0698 761 111.466 275.401 486.932
358 0 64.0964 13.1209 841 109.56 275.35 484.131
359 0 66.0443 13.1124 866 109.448 276.077 484.58
360 0 68.0386 12.9779 883 109.701 275.374 480.724
361 0 71.1116 12.6983 903 108.276 275.589 482.756
362 0 73.1169 13.3075 973 106.867 275.583 481.646
363 0 75.1144 12.3678 929 109.664 276.053 477.952
364 0 80.2675 13.3678 1073 106.15 275.844 479.48
365 0 83.1826 13.4523 1119 105.477 275.239 475.36
366 1 42.0973 9.95314 419 112.43 274.68 495.656
367 0 44.0719 11.2316 495 110.99 275.929 494.283
368 0 45.0262 12.1485 547 107.018 275.614 493.687
369 0 46.051 11.5958 534 108.195 275.109 493.238
370 0 48.0565 11.4657 551 108.679 275.044 492.804
371 0 48.0877 12.1029 582 107.863 275.976 492.481
372 0 51.1177 12.481 638 105.632 276.05 489.456
373 0 53.1464 12.9642 689 104.041 275.399 490.386
374 0 53.1542 13.1881 701 103.884 275.262 489.512
375 0 57.0624 13.827 789 101.361 275.312 489.06
376 0 58.1127 12.493 726 104.747 275.073 488.635
377 0 57.2178 12.4087 710 106.603 275.493 488.179
378 0 59.1185 12.5849 744 105.304 274.867 487.048
379 0 62.2151 13.5337 842 102.722 274.708 485.641
380 0 65.1397 13.0949 853 102.587 275.033 484.477
381 0 66.144 12.2006 807 104.059 274.908 482.615
382 0 66.1159 11.4193 755 105.426 275.509 483.547
383 0 69.2854 12.3691 857 103.979 275.53 483.16
384 0 70.077 11.7728 825 104.069 275.488 478.263
385 0 74.0908 12.2282 906 101.224 275.132 480.659
386 0 76.072 12.0544 917 101.195 275.253 480.003
387 0 79.0598 12.1427 960 99.7229 275.795 479.353
388 0 82.1491 12.8547 1056 99.3731 276.991 475.078
389 0 85.0959 11.3166 963 100.987 276.496 475.949
390 1 42.0444 8.37211 352 104.134 276.781 494.605
391 0 47.0874 11.2769 531 96.9605 276.91 492.633
392 0 47.0379 10.5022 494 100.787 276.836 493.073
393 0 47.0241 11.526 542 94.738 275.472 490.179
394 0 50.106 12.3538 619 95.4103 275.853 491.334
395 0 50.0463 12.8081 641 96.2387 275.192 492.749
396 0 52.0465 12.8731 670 96.8806 275.2 490.157
397 0 53.0711 12.7753 678 95.6873 275.206 492.603
398 0 54.0697 12.5579 679 98.1723 275.929 487.215
399 0 57.0693 12.8265 732 96.6011 275.146 489.031
400 0 56.1391 11.7565 660 99.7318 275.341 488.894
401 0 59.1316 10.9755 649 101.23 274.941 487.316
402 0 63.0783 11.4619 723 100.968 275.505 485.846
403 0 65.1377 13.6019 886 96.9436 275.44 484.807
404 0 66.1645 11.5621 765 101.901 275.831 481.353
405 0 69.1055 11.6489 805 102.178 275.328 481.579
406 0 72.0915 11.3744 820 102.665 275.456 480.812
407 0 75.0856 12.4658 936 100.798 275.793 480.449
408 0 78.1486 11.7597 919 103.156 276.144 478.912
409 0 80.1361 11.3931 913 102.838 276.049 478.163
410 1 43.0536 11.3115 487 102.24 276 495.353
411 0 43.083 13.6016 586 97.1314 277.756 494.324
412 0 46.0667 12.9812 598 97.5151 277.634 492.962
413 0 48.088 13.5585 652 104.319 275.684 492.209
414 0 50.0358 13.7701 689 103.871 274.938 492.491
415 0 52.0302 13.0886 681 106.791 275.107 490.082
416 0 53.0295 12.2196 648 108.701 275.25 490.225
417 0 54.0777 13.1847 713 106.975 274.913 490.255
418 0 56.1126 13.0096 730 108.126 274.777 489.296
419 0 59.0637 13.6971 809 106.536 275.498 488.284
420 0 59.0497 13.3955 791 108.247 274.808 486.67
421 0 61.1041 13.6652 835 106.913 274.916 486.812
422 0 62.0416 13.3459 828 108.13 275.577 485.179
423 0 64.173 13.9934 898 105.421 276.168 485.077
424 0 67.0704 13.0907 878 106.729 275.535 484.744
425 0 70.0694 14.0575 985 104.939 274.976 482.252
426 0 71.0736 13.4649 957 106.821 275.955 481.773
427 0 74.0927 13.3212 987 107.96 276.382 479.216
428 0 78.1079 13.4557 1051 106.464 276.066 479.507
429 1 40.0593 11.0836 444 108.631 275.568 497.491
430 0 41.0775 12.7564 524 104.666 275.863 496.935
431 0 42.0255 12.3972 521 103.875 276.121 496.372
432 0 44.0286 10.6295 468 97.344 277.075 493.549
433 0 46.0295 10.515 484 96.5785 277.717 493.802
434 0 46.1117 10.3445 477 96.2516 276.916 492.004
435 0 47.1019 12.3562 582 92.6907 276.342 492.942
436 0 49.1569 12.8975 634 92.2981 276.893 491.303
437 0 53.0925 12.8643 683 91.6457 276.81 490.755
438 0 51.0529 12.2226 624 95.0224 276.553 488.726
439 0 54.0512 12.7287 688 93.3779 276.488 489.141
440 0 53.0607 12.5705 667 95.1859 277.271 489.298
441 0 57.142 12.0577 689 95.7402 276.832 487.826
442 0 57.1701 11.9293 682 97.4076 276.61 485.887
443 0 61.1738 12.865 787 96.0839 276.287 486.778
444 0 63.0723 13.2229 834 99.1691 276.445 486.83
445 0 66.1102 14.7784 977 96.5732 277.117 485.205
446 0 68.1162 13.8146 941 99.0021 277.101 485.247
447 0 69.1943 13.6427 944 101.523 277.029 483.412
448 0 74.1173 15.2866 1133 96.0521 277.364 483.484
449 0 73.1121 13.705 1002 101.997 277.207 481.516
450 0 76.1634 13.9175 1060 102.655 276.496 480.169
451 0 78.1156 14.0561 1098 100.914 277.183 477.738
452 0 79.1864 12.7295 1008 105.741 277.923 477.661
453 0 85.0857 12.9046 1098 105.749 276.89 476.076
454 0 87.2693 12.7192 1110 108.438 276.672 472.303
455 1 42.105 10.9726 462 109.978 277.519 494.972
456 0 44.1385 11.8717 524 108.807 276.618 494.403
457 0 47.105 11.9945 565 105.993 277.096 491.658
458 0 48.0824 12.2082 587 99.7836 277.247 493.148
459 0 47.2709 11.2754 533 105.437 277.398 491.912
460 0 50.0371 11.4315 572 105.208 277.512 491.136
461 0 51.0584 12.4759 637 103.471 277.692 489.65
462 0 55.0625 12.8763 709 101.766 276.78 490.56
463 0 56.0381 11.742 658 105.052 277.915 486.935
464 0 58.1264 13.2298 769 104.337 277.43 488.616
465 0 61.0199 12.1927 744 106.216 277.54 488.03
466 0 62.0898 13.255 823 105.589 276.973 486.759
467 0 67.0557 14.0331 941 103.022 277.413 485.699
468 0 68.1439 14.6455 998 103.101 277.248 485.557
469 0 68.1618 13.1892 899 108.092 277.354 485.191
470 0 69.2108 11.3999 789 112.327 277.331 482.594
471 0 74.0635 13.6234 1009 107.322 277.102 480.734
472 0 77.0924 13.153 1014 109.095 277.683 479.098
473 0 77.1887 12.0095 927 113.035 277.238 479.644
474 0 82.1139 13.9319 1144 109.653 277.117 477.819
475 0 84.1682 12.7839 1076 114.095 277.293 476.39
476 0 87.1415 12.9904 1132 111.7 277.762 478.723
477 0 91.2729 12.9283 1180 112.803 276.873 474.925
478 1 46.0382 12.772 588 112.044 277.515 496.398
479 0 48.1447 13.1479 633 112.163 277.826 496.245
480 0 48.0519 12.8403 617 113.948 277.076 494.287
481 0 50.0649 14.1416 708 110.775 276.085 494.374
482 0 52.1442 13.1942 688 114.455 277.064 492.786
483 0 53.163 13.9571 742 113.4 276.683 493.592
484 0 54.0734 13.5926 735 114.589 277.072 490.622
485 0 56.0644 13.0742 733 115.31 277.434 492.394
486 0 59.1484 15.5879 922 109.624 277.189 490.008
487 0 60.0967 14.277 858 114.455 277.57 487.829
488 0 63.0793 13.0312 822 117.302 277.668 487.755
489 0 63.0908 14.075 888 116.796 276.735 487.623
490 0 66.0786 12.8937 852 120.915 276.808 485.77
491 0 69.1092 15.0921 1043 117.24 276.826 483.446
492 0 71.0856 13.9831 994 120.33 277.121 483.105
493 0 74.1902 13.7754 1022 120.621 276.836 480.546
494 0 77.2421 14.4999 1120 120.692 276.422 479.572
495 0 80.1307 14.8133 1187 119.841 276.511 477.6
496 0 82.2079 14.2322 1170 121.226 277.183 477.405
497 0 87.3023 14.5357 1269 124.623 277.597 474.245
498 1 42.1373 12.3169 519 127.499 277.711 495.046
499 0 45.0798 12.9326 583 125.913 277.434 494.118
500 0 46.1944 13.27 613 129.38 278.023 493.584
501 0 48.1122 13.2191 636 136.814 277.516 494.417
502 0 50.094 12.8359 643 139.059 276.624 493.857
503 0 50.179 13.3123 668 139.38 277.877 493.111
504 0 52.1134 13.9695 728 137.448 277.508 491.685
505 0 55.1413 13.1662 726 137.799 277.559 491.127
506 0 56.1834 13.8475 778 138.608 277.925 487.952
507 0 58.1756 14.6281 851 132.536 278.029 487.418
508 0 62.1661 14.0591 874 134.643 278.167 486.815
509 0 62.1866 13.5721 844 138.628 278.735 485.419
510 0 66.0963 15.0235 993 133.907 277.6 484.165
511 0 68.1934 14.1656 966 136.176 277.609 483.679
512 0 70.1456 14.2561 1000 136.777 278.135 483.252
513 0 73.1828 15.1948 1112 135.679 278.07 480.83
514 0 76.2094 14.6439 1116 138.031 277.643 479.739
515 0 79.3004 14.9684 1187 138.042 277.35 477.278
516 0 81.1838 14.695 1193 140.433 277.113 474.316
517 0 84.3749 14.6371 1235 141.004 276.934 473.654
518 0 86.3393 15.2306 1315 139.169 277.147 474.392
519 0 90.2623 15.5768 1406 138.885 277.288 471.444
520 0 93.3345 14.8177 1383 142.573 277.168 468.6
521 0 98.2442 16.0925 1581 139.963 276.378 467.953
522 1 50.144 14.0196 703 139.097 277.24 490.717
523 0 51.1518 13.7825 705 142.538 276.787 489.708
524 0 52.1707 13.015 679 146.128 277.355 488.44
525 0 55.324 14.0445 777 141.389 278.049 487.857
526 0 57.247 14.254 816 141.982 277.007 486.854
527 0 58.1241 13.2991 773 144.613 277.373 486.461
528 0 62.2421 14.7007 915 139.554 277.521 485.181
529 0 63.136 13.5739 857 143.548 277.509 484.719
530 0 68.1078 13.4052 913 142.203 277.464 483.726
531 0 69.1888 13.7595 952 142.791 277.829 482.882
532 0 72.1367 14.0428 1013 142.393 277.098 481.973
533 0 73.1903 13.0618 956 147.469 277.008 479.694
534 0 75.1694 13.6758 1028 146.237 277.226 478.465
535 0 79.2697 14.2047 1126 143.491 276.78 477.196
536 0 82.1843 14.3945 1183 143.389 276.859 475.199
537 0 85.3138 13.4562 1148 145.491 276.572 473.679
538 0 88.2802 14.0462 1240 143.412 276.853 473.256
539 0 92.1747 13.3876 1234 146.2 277.041 470.526
540 0 95.1858 14.3194 1363 143.227 276.779 468.725
541 0 98.1914 13.8301 1358 143.629 276.887 467.485
542 0 101.179 14.1828 1435 142.737 277.066 462.592
543 1 52.1918 11.0745 578 139.567 277.445 489.45
544 0 54.1974 12.639 685 135.347 277.248 489.818
545 0 57.0356 12.764 728 135.62 276.584 489.179
546 0 57.0246 12.8716 734 136.027 276.405 487.14
547 0 58.0621 12.5038 726 137.114 276.661 486.174
548 0 63.1541 12.5566 793 134.953 277.043 485.149
549 0 64.1199 12.8041 821 133.946 276.686 482.491
550 0 67.1618 12.1944 819 134.863 276.996 481.038
551 0 70.1051 12.7523 894 132.284 276.864 479.433
552 0 71.2686 12.2354 872 134.352 276.928 477.308
553 0 75.1903 13.4193 1009 130.373 275.985 473.897
554 0 78.2573 12.8295 1004 131.492 276.444 473.266
555 0 81.2797 13.0414 1060 129.332 276.125 470.915
556 0 83.2564 12.1792 1014 132.237 275.649 471.177
557 0 87.2912 12.0516 1052 131.375 275.783 470.477
558 0 91.2413 12.9547 1182 128.115 275.529 469.954
559 0 93.2752 12.2969 1147 131.86 276.446 465.796
560 0 97.1587 12.1657 1182 130.048 276.025 465.763
561 1 47.0852 11.6597 549 123.421 275.995 492.069
562 0 49.1554 12.5927 619 121.121 275.868 489.312
563 0 50.075 12.4214 622 121.947 276.058 487.539
564 0 55.1605 12.5996 695 118.06 277.931 491.242
565 0 54.2392 12.5555 681 120.22 277.863 489.803
566 0 55.1643 11.5836 639 122.757 277.355 489.025
567 0 58.168 11.931 694 122.32 277.47 487.122
568 0 60.1736 12.4639 750 120.935 277.361 486.528
569 0 64.1348 13.3157 854 118.054 277.748 486.612
570 0 66.2079 13.2764 879 118.805 277.341 484.765
571 0 67.1994 11.6519 783 123.672 277.483 484.057
572 0 71.173 13.7271 977 118.687 277.38 482.316
573 0 73.2272 12.0174 880 125.024 277.36 481.619
574 0 75.105 12.7821 960 124.897 277.342 478.505
575 0 77.0787 12.9997 1002 122.769 277.126 478.725
576 0 80.2184 12.9147 1036 122.992 276.58 477.589
577 0 84.1071 12.1393 1021 124.149 277.269 477.188
578 0 86.2381 11.8741 1024 124.467 277.198 475.696
579 0 88.4036 11.4701 1014 125.878 275.903 472.085
580 1 47.1725 11.5957 547 119.537 275.43 489.28
581 0 47.2333 11.6443 550 120.709 275.911 487.964
582 0 50.278 11.8342 595 119.57 275.897 486.607
583 0 52.1814 12.9931 678 121.302 275.426 489.751
584 0 53.177 13.0507 694 120.588 276.232 490.071
585 0 54.1523 13.0742 708 119.945 276.071 490.09
586 0 54.1097 11.6985 633 125.318 276.48 488.458
587 0 58.0761 13.4995 784 119.728 276.504 487.972
588 0 61.0496 13.1696 804 119.167 276.812 486.606
589 0 62.1389 13.5342 841 119.363 276.765 484.608
590 0 62.047 13.103 813 121.823 277.077 483.941
591 0 66.0729 13.0008 859 121.333 276.808 483.563
592 0 68.1155 12.3026 838 123.691 276.358 482.115
593 0 70.1902 12.6228 886 122.003 276.476 481.83
594 0 73.0461 13.4162 980 119.74 276.037 479.049
595 0 76.1017 14.0207 1067 116.246 276.571 477.608
596 0 79.1391 12.3327 976 113.488 276.272 474.048
597 0 80.2049 12.8047 1027 114.678 276.328 473.606
598 0 82.1833 12.7398 1047 116.472 275.784 469.951
599 1 41.1062 10.9959 452 108.073 276.423 491.748
600 0 42.067 11.2677 474 108.624 276.325 489.652
601 0 46.0244 11.885 547 109.413 277.594 496.614
602 0 46.1058 12.6882 585 110.482 277.653 495.795
603 0 48.0715 13.4591 647 107.739 277.513 493.751
604 0 47.0537 11.71 551 114.332 277.334 492.659
605 0 50.0483 12.2482 613 112.778 277.476 492.643
606 0 51.0436 12.0093 613 114.643 277.78 491.853
607 0 54.0287 12.4378 672 113.217 277.271 491.711
608 0 55.059 13.3493 735 111.854 278.068 490.827
609 0 56.0315 12.725 713 114.673 278.167 489.374
610 0 59.0595 13.6134 804 112.103 277.704 489.061
611 0 61.0785 12.3939 757 115.152 277.018 488.425
612 0 60.1249 11.9917 721 117.399 277.559 486.978
613 0 64.0825 14.2317 912 112.84 277.387 485.924
614 0 65.1735 12.9961 847 116.584 276.894 485.264
615 0 68.0898 13.8787 945 114.554 276.79 484.8
616 0 71.0653 13.8323 983 114.438 276.635 482.92
617 0 74.0666 14.73 1091 112.362 276.448 482.011
618 0 76.0886 13.4843 1026 111.521 276.343 478.677
619 0 78.1236 12.813 1001 114.734 276.918 478.496
620 0 81.1317 13.2008 1071 114.849 276.92 475.516
621 0 86.1963 13.33 1149 113.959 276.956 475.182
622 1 45.083 12.5103 564 121.704 277.135 495.603
623 0 46.4391 12.0373 559 127.302 277.215 492.419
624 0 48.0751 13.1669 633 123.749 276.147 495.084
625 0 49.1273 14.3301 704 122.405 276.241 493.48
626 0 51.074 14.0385 717 123.103 275.941 493.749
627 0 50.0421 13.6085 681 125.201 275.969 493.458
628 0 52.136 13.81 720 125.65 275.789 491.4
629 0 55.0653 13.366 736 127.072 276.696 489.834
630 0 56.0646 13.752 771 125.262 275.812 490.092
631 0 57.1288 13.1808 753 126.699 276.458 490.042
632 0 59.1642 13.5724 803 125.281 276.447 488.839
633 0 62.2004 14.3568 893 123.436 276.756 487.478
634 0 63.1533 14.7577 932 123.461 277.256 484.708
635 0 66.0352 13.5231 893 121.188 276.274 485.277
636 0 67.0399 13.6486 915 125.108 276.084 483.664
637 0 70.1129 14.277 1001 124.144 276.171 483.35
638 0 72.0774 14.5954 1052 123.47 276.565 484.272
639 0 74.1978 13.7875 1023 126.594 276.796 483.112
640 0 76.1713 14.4411 1100 125.935 275.636 481.282
641 0 76.1113 13.6773 1041 130.188 276.332 480.762
642 0 79.1922 14.2691 1130 127.848 275.512 479.802
643 0 85.1394 14.6466 1247 126.088 275.966 476.544
644 0 84.1488 14.0466 1182 131.291 275.948 473.73
645 0 88.1559 13.9866 1233 131.481 276.106 474.498
646 0 92.1474 14.7807 1362 127.841 276.347 475.539
647 0 94.0924 14.3689 1352 131.638 276.905 473.479
648 0 100.177 14.8338 1486 129.194 276.131 471.222
649 0 99.1446 14.2217 1410 134.376 275.918 466.867
650 1 49.1112 11.9728 588 131.199 275.503 493.257
651 0 51.1582 12.9989 665 128.839 275.752 492.808
652 0 52.1832 13.2035 689 128.806 276.038 490.829
653 0 54.0988 12.7175 688 134.865 275.211 490.991
654 0 59.0314 12.9592 765 133.473 276.008 490.068
655 0 60.0519 13.7548 826 132.282 275.827 488.231
656 0 63.1043 13.2954 839 134.977 275.546 486.08
657 0 65.0761 13.9222 906 133.71 275.605 484.06
658 0 67.1014 14.0384 942 133.714 275.066 484.503
659 0 69.1302 13.7711 952 134.276 275.192 483.694
660 0 73.0946 13.8177 1010 134.097 275.378 482.196
661 0 75.183 13.6733 1028 134.397 275.699 480.996
662 0 77.1854 14.5494 1123 133.833 274.82 478.69
663 0 77.2043 13.937 1076 136.928 275.54 478.212
664 0 81.1519 13.715 1113 136.223 275.399 476.651
665 0 84.2349 15.5161 1307 129.21 275.492 472.688
666 0 87.1849 13.7983 1203 135.38 275.893 472.254
667 0 88.2395 13.5087 1192 136.69 276.047 471.182
668 0 94.2027 14.214 1339 133.44 275.548 469.608
669 0 97.1521 14.4516 1404 132.72 276.084 469.151
670 1 51.1161 11.9141 609 132.22 276.332 490.954
671 0 54.0788 13.3879 724 128.818 275.565 490.71
672 0 56.0291 13.9392 781 130.616 275.547 489.589
673 0 57.1014 13.5724 775 129.825 277.205 488.305
674 0 60.1376 14.4169 867 125.596 275.172 489.729
675 0 63.0711 12.6683 799 131.521 275.209 486.767
676 0 65.1158 14.0673 916 127.096 275.967 485.345
677 0 67.1119 12.8889 865 130.097 276.209 485.132
678 0 68.2528 12.7174 868 131.949 276.873 481.947
679 0 71.4028 13.3608 954 130.092 277.08 478.621
680 0 74.2058 13.6647 1014 129.395 276.574 477.402
681 0 78.3346 13.5317 1060 128.133 275.783 477.608
682 0 79.3032 13.4295 1065 129.458 276.571 475.995
683 0 80.2901 13.3391 1071 131.422 276.017 471.547
684 0 84.16 13.1298 1105 131.889 276.652 470.814
685 0 90.3387 13.5269 1222 127.946 276.847 471.755
686 0 91.6009 13.2859 1217 131.087 276.463 468.867
687 0 96.225 13.8945 1337 127.975 276.78 467.939
688 0 97.4095 12.8324 1250 132.315 276.637 466.273
689 0 102.281 13.9028 1422 127.907 275.717 465.647
690 1 52.2197 11.8155 617 126.835 276.297 489.634
691 0 51.1051 12.9928 664 124.547 276.139 489.971
692 0 54.1328 12.8203 694 126.099 276.262 490.765
693 0 54.1568 11.8729 643 129.351 275.61 487.485
694 0 59.1282 14.0711 832 122.081 274.684 487.726
695 0 60.0706 12.4853 750 128.084 274.428 481.881
696 0 62.1801 13.6378 848 125.07 274.386 481.329
697 0 64.2488 13.0119 836 125.577 275.02 481.553
698 0 65.2713 12.5783 821 127.286 274.972 480.276
699 0 67.2977 12.779 860 127.083 275.128 478.32
700 0 69.2621 12.8064 887 126.36 275.212 478.833
701 0 72.2622 11.9565 864 128.956 275.745 477.422
702 0 75.2243 13.4531 1012 125.032 275.081 476.206
703 0 76.2761 11.7992 900 130.031 275.493 473.803
704 0 80.2716 13.1429 1055 125.723 275.409 472.151
705 0 83.2516 12.6724 1055 126.193 274.827 471.206
706 0 85.307 12.7891 1091 127.737 275.56 467.875
707 0 87.2505 12.6647 1105 129.417 275.21 466.173
708 0 92.4251 12.7887 1182 129.432 276.124 465.082
709 0 95.2661 13.3311 1270 125.957 275.754 465.298
710 0 97.2113 12.9615 1260 127.676 276.26 463.308
711 0 100.361 12.0066 1205 131.295 275.602 459.798
712 1 53.2183 10.1281 539 124.764 275.519 483.77
713 0 54.3249 10.8422 589 125.681 277.115 484.175
714 0 56.1774 10.9653 616 123.071 276.753 485.99
715 0 60.0905 11.2996 679 121.985 275.118 485.356
716 0 60.0447 12.0577 724 121.978 275.961 484.963
717 0 62.1033 10.9817 682 125.997 276.478 483.918
718 0 64.1392 12.3949 795 124.223 275.94 480.167
719 0 67.0977 12.996 872 122.303 276.103 480.487
720 0 69.2005 12.3265 853 124.941 277.621 477.219
721 0 72.1825 12.0112 867 125.122 277.752 477.475
722 0 75.1838 11.6382 875 126.39 277.494 476.727
723 0 76.2269 12.5153 954 125.312 276.966 474.379
724 0 78.2251 12.822 1003 126.7 276.938 472.906
725 0 82.1252 12.688 1042 126.815 276.896 471.917
726 0 82.1349 11.3837 935 131.481 276.714 471.518
727 0 85.2015 10.8331 923 133.233 276.806 470.077
728 0 89.1251 12.5554 1119 128.777 277.036 470.454
729 0 94.2813 12.2294 1153 130.216 276.444 465.951
730 1 51.0257 10.6613 544 122.824 276.881 490.208
731 0 53.1882 9.90821 527 122.034 276.725 488.25
732 0 56.0057 11.4631 642 120.745 277.273 488.145
733 0 51.0825 9.14208 467 119.842 274.953 489.931
734 0 53.0459 9.72742 516 118.576 274.781 488.952
735 0 58.0288 10.5982 615 115.302 274.663 489.985
736 0 59.0292 11.4011 673 115.056 275.079 487.26
737 0 61.0625 10.8086 660 115.323 274.87 488.027
738 0 64.0536 10.7722 690 116.012 274.401 486.622
739 0 65.0915 10.0935 657 119.89 274.718 483.956
740 0 68.0533 11.0795 754 116.594 274.085 482.167
741 0 70.0525 10.535 738 118.336 275.035 483.986
742 0 73.0403 11.1035 811 118.808 275.143 482.832
743 1 147.319 12.6799 1868 131.581 275.905 444.223
744 0 155.406 13.3199 2070 131.068 275.801 440.199
745 1 46.024 11.7765 542 117.266 275.312 495.194
746 0 47.0466 12.4345 585 119.345 274.644 493.226
747 0 50.073 11.623 582 120.155 275.383 494.689
748 0 44.0338 9.58355 422 120.645 276.31 496.59
749 0 51.1164 10.4467 534 116.043 276.466 495.337
750 0 48.0356 10.0134 481 119.312 276.497 494.557
751 0 49.0183 9.54745 468 118.81 276.511 495.098
752 0 52.0673 11.1202 579 115.694 276.952 493.449
753 0 54.026 10.4209 563 118.144 277.121 492.229
754 0 54.026 10.4209 563 139.679 279.133 492.149
755 0 58.0411 11.0267 640 116.095 276.594 492.005
756 0 61.0343 12.5503 766 115.21 276.543 487.205
757 0 62.0392 11.2993 701 118.69 276.837 488.154
758 0 64.0521 11.4906 736 118.893 276.754 487.231
759 0 65.0704 11.3108 736 119.12 276.798 485.992
760 0 67.0742 10.9729 736 120.793 276.312 486.333
761 0 70.0459 12.5061 876 117.976 275.72 483.108
762 0 74.0448 10.8178 801 120.846 275.542 484.041
763 0 76.1318 11.4932 875 119.168 275.589 482.407
764 1 42.0623 10.9362 460 124.376 276.13 496.765
765 0 42.0706 11.2668 474 125.099 275.004 496.35
766 0 46.1287 12.8553 593 118.15 275.764 496.167
767 0 44.1597 11.4358 505 125.867 274.824 495.566
768 0 47.0886 11.7226 552 125.592 274.971 494.524
769 0 47.0893 11.6799 550 125.335 274.358 492.907
770 0 50.0499 12.7073 636 120.876 274.766 492.569
771 0 50.0975 12.4557 624 121.989 275.312 493.051
772 0 53.0509 12.2712 651 121.641 274.496 492.413
773 0 53.0699 12.1915 647 122.705 274.359 490.836
774 0 56.0983 13.5298 759 118.744 274.801 489.596
775 0 57.1112 12.0117 686 122.668 275.251 490.197
776 0 58.1397 11.782 685 123.577 275.52 488.166
777 0 60.0151 11.5971 696 121.065 273.832 487.405
778 0 60.0376 11.8925 714 121.385 275.798 487.137
779 0 63.1368 11.6414 735 121.501 274.965 487.954
780 0 64.0532 13.3327 854 118.589 274.876 484.845
781 0 66.0517 12.354 816 121.471 274.738 484.913
782 0 68.0509 12.8139 872 121.356 274.157 484.623
783 0 70.0822 12.9562 908 121.159 274.698 483.964
784 0 70.0392 11.4793 804 125.542 275.152 483.225
785 0 73.0354 12.8157 936 122.762 275.089 480.194
786 0 76.09 13.3658 1017 119.908 275.992 481.162
787 0 77.1084 11.6978 902 124.38 275.759 480.89
788 0 79.0735 12.7729 1010 121.01 275.081 478.422
789 0 81.0496 12.6589 1026 120.674 275.074 478.634
790 0 85.1223 12.5467 1068 119.544 275.258 475.9
791 0 88.0755 13.2727 1169 118.797 274.744 475.397
792 0 90.1042 12.7075 1145 119.801 275.082 473.283
793 1 49.0306 10.3201 506 121.346 276.235 495.168
794 0 49.0317 12.0942 593 115.39 276.123 492.508
795 0 52.0891 13.3425 695 112.456 275.386 492.581
796 0 54.0639 13.3176 720 109.801 275.657 492.639
797 0 54.0448 13.1743 712 111.094 275.209 490.913
798 0 56.106 12.5833 706 113.201 274.555 489.853
799 0 57.0606 13.6697 780 110.86 275.058 490.579
800 0 59.1377 12.9359 765 113.328 275.331 489.022
801 0 60.0328 13.1428 789 113.994 275.257 487.006
802 0 63.1701 13.5824 858 111.908 275.082 488.858
803 0 65.0632 14.2323 926 109.9 275.309 485.85
804 0 65.1635 11.6016 756 118.34 275.446 485.265
805 0 65.2369 11.7112 764 119.306 275.531 484.593
806 0 70.1132 12.9648 909 116.01 275.053 483.888
807 0 69.0745 11.4224 789 120.997 275.527 483.483
808 0 75.1273 13.1244 986 115.732 275.474 480.996
809 0 76.1805 12.9561 987 117.464 275.765 480.419
810 0 79.1039 14.1965 1123 114.676 276.196 480.115
811 0 81.0647 12.9896 1053 119.845 275.928 476.14
812 0 83.0987 12.9485 1076 120.564 275.31 475.385
813 0 85.2457 12.505 1066 120.228 276.039 474.717
814 0 89.1988 12.6683 1130 121.091 275.565 472.046
815 0 93.1191 13.4988 1257 119.179 275.748 469.2
816 0 97.1628 12.9988 1263 119.803 275.486 469.276
817 0 100.18 13.1763 1320 120.584 275.095 466.42
818 0 105.17 14.1675 1490 118.594 275.005 463.765
819 0 106.156 12.378 1314 123.415 275.226 462.881
820 1 58.2196 13.1571 766 120.444 275.278 485.181
821 0 59.2305 11.7507 696 122.963 275.718 482.784
822 0 60.2706 13.3896 807 122.032 275.787 485.361
823 0 62.1712 13.5754 844 121.962 274.987 484.718
824 0 64.0753 12.5009 801 125.627 275.463 483.101
825 0 68.1482 12.6929 865 124.579 275.157 482.173
826 0 69.1048 12.3436 853 126.769 275.346 480.345
827 0 73.0867 12.3005 899 125.781 275.623 480.328
828 0 75.0436 11.9797 899 123.912 275.704 479.086
829 0 79.132 14.1283 1118 118.797 275.113 477.524
830 0 80.1803 13.1204 1052 121.703 275.583 475.145
831 0 85.1259 13.8853 1182 120.523 275.574 475.308
832 0 88.1985 12.8914 1137 122.646 275.23 474.083
833 0 92.2006 14.4576 1333 121.89 275.764 471.098
834 0 96.202 13.8875 1336 121.45 275.713 467.71
835 0 101.197 14.9905 1517 117.223 274.875 468.378
836 0 103.241 14.6744 1515 118.496 275.562 464.346
837 1 56.282 11.4957 647 116.683 276.411 486.921
838 0 56.3502 11.464 646 115.729 276.554 485.138
839 0 59.3256 12.8275 761 115.053 276.189 485.574
840 0 58.0866 10.4671 608 105.446 276.201 487.821
841 0 58.1121 10.8583 631 107.133 276.461 485.027
842 0 63.0638 12.6221 796 106.869 277.035 486.838
843 0 65.0909 13.3352 868 105.03 276.346 486.482
844 0 67.1113 11.399 765 108.152 276.567 485.531
845 0 70.1267 12.2778 861 106.091 276.632 485.216
846 0 72.1444 11.4354 825 108.366 277.207 482.608
847 0 75.13 12.2454 920 106.116 277.201 482.03
848 0 77.2177 12.9892 1003 106.435 276.16 477.681
849 0 79.0857 12.0629 954 108.029 276.93 476.631
850 0 81.1543 11.9402 969 108.416 275.52 478.399
851 0 82.1322 13.0156 1069 101.588 275.978 471.213
852 0 82.1585 9.67642 795 108.654 275.725 470.174
853 0 88.2737 12.8011 1130 103.591 276.025 468.888
854 0 91.0555 13.4314 1223 103.478 276.284 469.523
855 0 95.2466 13.5438 1290 104.46 275.5 467.197
856 0 98.0955 12.6 1236 106.373 275.272 466.814
857 0 101.176 11.989 1213 108.12 276.43 463.69
858 0 101.176 12.0581 1220 138.423 277.437 463.616
859 0 106.117 11.1198 1180 111.98 275.796 458.749
860 0 112.088 12.2583 1374 109.491 275.696 459.199
861 0 115.153 11.2719 1298 112.835 276.626 458.266
862 0 119.131 10.9963 1310 112.953 276.256 454.425
863 1 60.0476 10.9746 659 105.238 275.211 484.517
864 0 63.0272 12.3122 776 104.459 274.869 484.751
865 0 67.0849 12.268 823 106.143 276.249 484.973
866 0 68.146 12.8254 874 105.839 276.46 482.914
867 0 68.1286 11.8599 808 108.692 276.67 481.343
868 0 72.0763 12.3619 891 108.808 276.643 480.811
869 0 73.1466 13.3157 974 107.091 275.889 478.142
870 0 74.0966 11.4985 852 110.863 276.911 479.785
871 0 76.1218 11.9939 913 110.686 277.424 474.757
872 0 79.12 11.7669 931 112.301 276.821 476.84
873 0 82.0938 12.1934 1001 111.725 276.374 473.147
874 0 81.145 10.6599 865 115.931 276.82 471.213
875 0 85.0885 12.3636 1052 113.51 276.385 471.758
876 0 92.1671 12.0759 1113 111.712 276.208 469.261
877 0 94.1062 11.9652 1126 112.238 276.173 468.448
878 0 96.0765 11.9488 1148 114.893 275.034 466.396
879 0 99.203 12.8625 1276 112.362 275.731 465.961
880 0 103.183 12.8606 1327 114.479 276.026 462.249
881 0 106.135 12.8044 1359 114.297 275.49 462.422
882 0 109.133 13.3232 1454 116.6 275.34 460.367
883 1 59.0717 11.5961 685 112.364 275.601 487.339
884 0 62.3453 12.2864 766 112.667 275.289 481.441
885 0 64.2818 13.2386 851 110.45 275.626 481.63
886 0 66.1714 13.3895 886 107.394 275.384 483.491
887 0 66.1284 12.3548 817 109.649 276.419 482.098
888 0 69.1243 11.5444 798 110.825 276.897 482.647
889 0 72.1086 10.5813 763 112.511 276.507 482.642
890 0 75.1285 11.5535 868 110.762 276.562 480.012
891 0 77.1419 12.302 949 110.862 276.272 477.88
892 0 80.1364 12.9155 1035 110.044 276.186 476.638
893 0 84.1257 13.04 1097 110.719 276.575 475.655
894 0 85.1475 12.0379 1025 114.545 276.194 472.201
895 0 89.1519 12.4955 1114 114.569 275.807 470.609
896 1 48.0476 11.1348 535 111.817 276.864 493.282
897 0 49.0895 12.4059 609 108.882 276.76 491.371
898 0 51.1287 11.5004 588 112.498 276.362 490.561
899 0 52.0609 11.7363 611 113.846 274.516 491.332
900 0 55.125 12.0091 662 110.79 274.353 490.887
901 0 55.0494 12.5887 693 109.677 274.713 489.421
902 0 59.078 13.5076 798 109.006 275.779 487.211
903 0 60.0467 12.2238 734 109.774 274.86 487.005
904 0 61.1213 12.1889 745 112.549 274.589 486.365
905 0 63.1142 13.1983 833 107.918 274.905 484.928
906 0 64.1252 11.4619 735 112.51 274.85 485.212
907 0 65.1816 12.3655 806 110.645 274.687 485.519
908 0 70.0781 11.8582 831 110.98 274.925 483.603
909 0 73.043 13.581 992 107.695 274.987 482.586
910 0 73.0831 12.1779 890 113.129 275.064 480.089
911 0 76.1243 12.4665 949 112.203 275.003 480.673
912 0 79.0936 12.3777 979 114.238 275.204 478.142
913 0 84.1873 14.1827 1194 108.73 274.538 477.198
914 1 44.0421 10.9668 483 115.524 274.219 496.263
915 0 44.043 11.8294 521 116.319 274.697 494.724
916 0 45.045 12.5874 567 119.222 273.947 492.065
917 0 48.0209 12.2239 587 110.913 274.16 495.276
918 0 48.0137 12.788 614 111.971 274.422 494.493
919 0 50.0073 13.538 677 109.284 276.468 494.319
920 0 50.0213 12.4747 624 114.402 276.992 491.748
921 0 52.0291 13.8384 720 109.985 277.007 492.375
922 0 54.1081 12.8262 694 114.014 274.483 490.073
923 0 53.0968 11.9028 632 118.989 273.741 491.008
924 0 55.1856 12.3402 681 116.849 274.37 490.264
925 0 57.0843 13.7341 784 114.42 274.606 490.085
926 0 59.0673 14.001 827 113.542 273.894 487.545
927 0 60.0464 12.6735 761 117.972 274.037 486.598
928 0 62.0536 13.4722 836 113.482 273.567 488.25
929 0 64.1226 12.8348 823 115.744 274.221 485.67
930 0 65.0451 14.0057 911 114.168 275.15 484.216
931 0 68.1689 13.5252 922 114.755 274.983 483.484
932 0 69.1192 13.3971 926 115.175 274.844 482.455
933 0 72.0902 12.8866 929 116.837 275.192 482.675
934 0 74.0987 12.7803 947 118.114 274.475 481.062
935 0 75.0927 11.7721 884 121.559 274.975 481.635
936 0 78.1178 13.3388 1042 117.7 274.547 481.095
937 0 81.0465 13.9056 1127 117.168 275.172 476.618
938 0 84.0759 13.7614 1157 117.228 275.036 476.817
939 0 86.0529 13.7125 1180 119.37 275.142 473.745
940 0 91.0635 14.2538 1298 117.806 275.31 473.794
941 0 92.2794 13.2099 1219 122.072 274.474 471.273
942 0 96.112 13.3074 1279 121.437 274.924 471.724
943 0 100.118 14.0534 1407 119.497 275.216 468.796
944 1 54.0333 12.5293 677 121.901 275.263 490.253
945 0 55.1021 12.5767 693 122.737 275.704 489.423
946 0 57.3648 14.3816 825 118.041 276.188 486.632
947 0 58.0508 12.9542 752 119.706 276.574 487.431
948 0 60.0809 13.5983 817 118.886 276.694 485.589
949 0 63.1001 14.8811 939 115.995 276.548 483.587
950 0 67.0973 15.0081 1007 114.638 276.901 484.304
951 0 64.1365 12.5202 803 124.932 276.196 482.654
952 0 69.0731 14.3471 991 119.417 276.625 481.756
953 0 73.0755 14.6971 1074 117.626 276.872 482.495
954 0 73.0792 14.1901 1037 122.448 276.963 479.277
955 0 77.2066 14.0661 1086 122.506 274.904 478.367
956 0 80.1767 15.0792 1209 120.299 274.821 474.983
957 0 83.1103 15.8825 1320 118.79 275.55 473.081
958 0 85.1523 14.7618 1257 122.54 274.73 473.329
959 0 89.0787 14.6612 1306 122.168 274.852 472.38
960 0 92.1746 15.1018 1392 121.7 275.253 472.189
961 0 95.1383 15.0623 1433 122.688 274.68 468.203
962 0 97.1526 14.4412 1403 125.932 275.165 465.46
963 0 101.076 14.8008 1496 124.789 274.704 464.967
964 0 103.135 14.1077 1455 128.669 275.104 462.944
965 0 108.109 14.1894 1534 128.864 275.038 458.989
966 0 112.09 13.6408 1529 130.394 274.494 459.073
967 0 116.154 13.0172 1512 130.367 273.94 459.495
968 1 61.0372 13.3853 817 124.778 274.841 485.573
969 0 66.2316 13.0753 866 125.939 275.694 480.345
970 0 69.1961 14.1626 980 123.769 274.918 481.429
971 0 71.1642 14.5719 1037 122.604 275.11 480.353
972 0 73.1395 13.7545 1006 124.492 275.483 479.862
973 0 75.2417 13.543 1019 125.018 275.455 477.928
974 0 76.2124 13.7248 1046 122.237 275.863 476.338
975 0 79.1252 14.0537 1112 121.871 275.318 475.871
976 0 81.0691 13.285 1077 121.803 275.283 472.319
977 0 85.0783 13.3171 1133 120.24 275.281 472.224
978 0 85.0663 13.0839 1113 123.126 274.584 470.574
979 0 90.1456 14.0883 1270 120.138 275.162 468.244
980 0 91.1867 12.5896 1148 125.776 274.848 468.504
981 0 93.1606 13.3426 1243 123.593 274.609 465.986
982 0 98.1316 13.7774 1352 122.173 274.997 463.791
983 0 101.138 13.2986 1345 122.207 275.342 463.746
984 0 104.219 13.1358 1369 121.017 275.32 458.57
985 0 109.225 14.1817 1549 116.885 275.045 459.054
986 0 110.121 13.1945 1453 118.661 275.489 454.625
987 1 59.1679 10.9012 645 109.229 275.995 483.138
988 0 61.1135 11.0123 673 114.875 276.352 483.314
989 0 66.0689 13.1681 870 115.441 275.553 482.536
990 0 65.0754 12.5393 816 119.24 275.05 481.189
991 0 69.0251 12.8939 890 116.975 275.102 481.043
992 0 70.1082 12.6233 885 118.321 275.436 480.106
993 0 71.0237 12.2917 873 119.297 274.793 478.7
994 0 77.0715 13.5978 1048 114.003 275.77 476.665
995 0 75.1511 12.4682 937 114.829 275.803 476.239
996 0 77.0764 11.8324 912 115.012 275.221 475.793
997 0 77.0764 11.7805 908 147.889 275.21 475.831
998 0 84.0737 12.1322 1020 112.759 275.476 470.702
999 0 84.0737 12.1322 1020 140.476 275.476 470.64
1000 0 90.1421 12.3694 1115 110.967 275.51 472.796
1001 0 95.1413 13.3591 1271 110.378 275.095 467.958
1002 0 95.2642 12.5336 1194 114.943 275.066 466.281
1003 0 101.109 13.3024 1345 112.922 275.436 463.247
1004 0 103.152 12.7385 1314 114.507 275.755 461.314
1005 0 107.225 14.2131 1524 110.785 276.112 460.11
1006 0 109.143 12.6256 1378 113.133 276.783 459.97
1007 1 54.1532 10.2672 556 108.73 276.631 475.344
1008 0 57.1748 10.9139 624 106.423 276.479 477.146
1009 0 59.0809 11.7128 692 105.529 275.561 473.879
1010 0 60.1394 11.8392 712 105.174 275.844 475.733
1011 0 63.1238 10.6616 673 108.487 276.452 476.183
1012 0 66.1464 11.8827 786 105.695 276.13 474.791
1013 0 69.1687 11.5659 800 105.668 276.304 473.849
1014 0 72.1598 12.1259 875 104.024 276.592 473.033
1015 0 73.0866 11.4795 839 107.246 276.248 471.041
1016 0 76.1313 12.1632 926 105.701 276.173 470.121
1017 0 79.1837 12.1869 965 105 276.276 471.796
1018 0 80.1471 11.8906 953 107.166 275.918 469.593
1019 0 84.24 11.491 968 108.13 275.992 469.912
1020 0 88.1207 13.1978 1163 105.289 275.187 468.788
1021 0 90.158 13.0992 1181 105.347 274.605 467.548
1022 0 91.2603 11.3083 1032 110.951 274.969 465.171
1023 0 95.3803 12.5812 1200 108.603 275.439 463.8
1024 0 99.2284 13.4437 1334 106.695 275.127 461.03
1025 1 52.1313 11.0107 574 100.538 275.157 488.793
1026 0 53.1188 9.6576 513 104.577 274.961 486.784
1027 0 53.1632 12.076 642 100.785 275.31 483.109
1028 0 56.1094 11.3885 639 103.059 274.839 482.144
1029 0 60.1493 12.5022 752 97.8045 276.561 484.004
1030 0 61.0911 11.9657 731 98.264 276.592 485.071
1031 0 63.1098 11.3295 715 100.306 276.628 483.185
1032 0 64.2554 11.4699 737 100.213 277.052 481.984
1033 0 67.1879 12.6957 853 98.0445 277.104 480.63
1034 0 68.1886 11.5122 785 101.204 276.517 479.615
1035 0 71.179 11.8715 845 100.46 277.511 478.793
1036 0 74.2704 12.3872 920 99.2348 277.605 478.85
1037 0 77.0737 12.8448 990 99.6354 277.949 478.073
1038 0 78.1192 13.0698 1021 100.516 276.707 476.833
1039 0 81.0943 13.2808 1077 100.457 275.785 474.423
1040 0 85.123 12.711 1082 100.831 275.748 473.259
1041 0 87.2549 13.5121 1179 99.4843 275.292 472.456
1042 0 90.1319 12.3819 1116 102.15 275.395 471.872
1043 0 91.1585 12.8896 1175 100.794 275.151 472.039
1044 0 95.1287 12.7406 1212 100.924 275.507 470.371
1045 1 50.0887 11.0803 555 101.962 275.081 492.766
1046 0 52.0184 13.5529 705 97.122 275.616 489.018
1047 0 53.0369 13.0287 691 97.6411 275.563 489.515
1048 0 56.0828 11.9823 672 99.7976 275.787 486.882
1049 0 58.0499 13.5056 784 96.1492 274.929 486.617
1050 0 59.1175 12.7035 751 99.2876 275.276 486.879
1051 0 59.1181 12.2128 722 100.082 275.572 483.407
1052 0 63.2026 13.2431 837 97.4253 275.951 483.401
1053 0 65.2673 12.3645 807 98.14 276.004 483.108
1054 0 67.121 12.4253 834 99.2782 275.693 482.03
1055 0 71.1226 12.6261 898 98.755 275.533 480.521
1056 0 72.1116 12.342 890 100.166 274.934 479.84
1057 0 75.2143 12.8433 966 99.5725 275.241 477.609
1058 0 79.1887 13.5373 1072 98.4701 275.876 475.137
1059 0 81.2017 13.2263 1074 99.9758 275.253 474.831
1060 0 82.1533 12.3063 1011 102.877 275.016 472.522
1061 1 46.1349 10.6427 491 105.548 274.644 491.904
1062 0 45.188 11.7288 530 101.232 275.468 491.892
1063 0 48.0673 12.3369 593 97.688 276.358 492.113
1064 0 48.0565 11.653 560 99.8929 276.887 490.525
1065 0 50.0743 11.8424 593 99.199 276.934 489.533
1066 0 49.1001 11.5071 565 100.998 276.736 487.303
1067 0 54.0456 13.3036 719 96.0487 277.567 486.751
1068 0 55.1218 12.2819 677 99.0399 277.267 486.44
1069 0 55.1796 12.3234 680 100.334 276.254 486.197
1070 0 57.149 11.9862 685 101.739 277.012 485.702
1071 0 61.0806 12.1643 743 101.097 276.684 485.075
1072 0 63.169 12.9652 819 100.232 276.411 484.287
1073 0 65.1083 12.4715 812 102.11 276.584 482.617
1074 0 64.0961 12.6841 813 103.261 276.877 482.648
1075 0 70.087 13.0267 913 101.005 276.625 481.972
1076 0 73.067 14.4662 1057 98.1476 276.657 481.321
1077 0 72.0286 12.1202 873 104.196 277.207 480.515
1078 0 77.0741 13.8438 1067 99.985 277.207 478.278
1079 0 77.0421 12.9669 999 102.354 276.519 478.775
1080 0 82.0942 13.5454 1112 100.326 276.693 476.823
1081 0 84.0606 14.2159 1195 100.168 276.567 473.668
1082 0 88.2223 14.1234 1246 101.778 276.328 475.226
1083 1 45.0213 12.6385 569 102.937 276.33 494.975
1084 0 45.1095 11.1285 502 108.576 276.994 493.012
1085 0 47.1529 12.873 607 104.779 275.771 491.069
1086 0 48.1027 13.4504 647 101.083 276.926 491.325
1087 0 51.1199 13.5368 692 99.9104 276.643 492.435
1088 0 52.0513 13.5636 706 99.7309 276 491.513
1089 0 52.1904 13.2208 690 101.68 276.577 488.291
1090 0 55.1434 13.9454 769 99.8765 276.049 487.726
1091 0 56.1149 13.3476 749 101.493 276.75 487.168
1092 0 59.1109 12.891 762 101.534 276.766 488.654
1093 0 60.0883 13.6632 821 101.873 276.301 486.479
1094 0 60.0864 14.4126 866 101.508 276.454 484.863
1095 0 64.1379 13.5957 872 101.445 275.659 483.429
1096 0 65.121 13.9279 907 101.212 275.165 484.281
1097 0 67.1804 12.4739 838 105.03 275.278 481.425
1098 0 71.0839 13.5333 962 103.188 275.962 481.159
1099 0 72.1602 12.9711 936 106.297 275.952 479.176
1100 0 74.1203 12.8845 955 106.09 275.823 478.094
1101 0 75.1827 12.596 947 106.788 275.447 476.859
1102 0 77.1894 12.709 981 106.914 276.071 476.156
1103 0 82.1246 12.4445 1022 106.112 275.591 475.514
1104 0 83.13 12.5587 1044 106.936 276.045 472.711
1105 0 88.1688 12.6916 1119 105.822 275.882 472.733
1106 0 91.115 12.1495 1107 107.465 276.537 471.635
1107 0 97.1416 13.2178 1284 104.086 276.096 469.889
1108 1 52.0533 11.8532 617 104.162 277.154 490.72
1109 0 53.0392 11.7837 625 106.093 276.171 487.618
1110 0 55.2755 12.6276 698 106.958 274.755 487.173
1111 0 57.0362 11.8346 675 109.086 274.548 487.914
1112 0 58.0673 13.8977 807 105.542 274.88 485.88
1113 0 61.0864 12.4905 763 108.676 274.186 485.523
1114 0 62.0698 13.1304 815 108.144 274.65 483.212
1115 0 63.0418 12.2934 775 110.075 274.615 482.968
1116 0 66.0818 12.8931 852 107.763 275.43 482.036
1117 0 70.0789 13.6418 956 104.939 275.616 483.079
1118 0 72.0537 13.4622 970 105.945 275.161 480.224
1119 0 75.1124 13.3533 1003 104.873 274.921 480.236
1120 0 77.0634 13.8587 1068 105.855 275.046 477.413
1121 0 79.1408 13.5581 1073 107.5 275.65 476.708
1122 0 80.1135 12.4573 998 110.958 274.484 474.079
1123 0 83.0808 12.5661 1044 110.834 274.519 473.705
1124 0 87.101 13.4097 1168 108.676 274.418 473.89
1125 0 88.1078 12.9728 1143 110.924 275.15 472.341
1126 0 93.2051 13.7868 1285 110.171 275.482 468.088
1127 0 96.0756 12.0634 1159 115.432 275.191 467.452
1128 0 100.088 14.3274 1434 111.667 275.144 465.394
1129 0 105.092 13.4453 1413 114.004 275.524 462.934
1130 1 58.0826 12.1551 706 116.729 275.465 484.336
1131 0 59.1913 11.9781 709 113.319 277.113 483.216
1132 0 61.1246 12.3518 755 116.628 276.751 484.34
1133 0 65.1376 13.341 869 114.108 276.83 483.527
1134 0 68.1407 12.0339 820 117.079 276.627 482.31
1135 0 68.3164 13.1154 896 116.708 276.371 479.952
1136 0 71.1731 12.4907 889 118.323 276.668 478.412
1137 0 73.1366 12.8116 937 117.241 276.332 477.607
1138 0 76.339 14.0295 1071 115.521 276.487 475.793
1139 0 79.1071 13.2732 1050 118.324 276.317 474.441
1140 0 82.1731 13.0578 1073 120.414 276.559 474.229
1141 0 85.1928 13.1114 1117 120.006 275.848 472.973
1142 0 87.1613 13.9282 1214 118.509 275.261 470.838
1143 0 88.1608 13.861 1222 145.862 275.25 470.854
1144 0 94.1058 13.2723 1249 119.763 275.426 466.932
1145 0 97.1385 14.1036 1370 118.116 275.069 465.203
1146 0 100.187 13.2751 1330 120.644 274.837 465.107
1147 0 103.202 14.1761 1463 118.687 274.373 462.234
1148 0 108.181 13.7918 1492 119.169 274.397 459.224
1149 1 60.1072 10.5977 637 119.399 274.126 484.67
1150 0 62.109 12.3976 770 115.245 273.866 483.803
1151 0 63.1198 12.0406 760 116.426 274.934 482.291
1152 0 63.1465 11.212 708 117.751 275.644 478.648
1153 0 67.2361 12.4338 836 113.336 273.768 481.195
1154 0 70.2486 12.954 910 109.209 273.715 479.776
1155 0 71.1362 13.4531 957 109.233 274.327 478.18
1156 0 73.1588 12.6711 927 110.618 273.437 478.373
1157 0 78.1736 14.1608 1107 106.264 273.64 476.066
1158 0 80.1833 14.2798 1145 106.156 274.399 473.492
1159 0 81.1265 13.2756 1077 109.07 274.802 471.601
1160 0 84.1268 13.0279 1096 110.174 274.066 471.253
1161 0 86.089 12.3825 1066 113.257 274.297 470.91
1162 0 88.1526 11.9339 1052 114.775 274.713 468.876
1163 0 90.0594 13.6021 1225 110.405 273.851 464.549
1164 0 92.1176 11.735 1081 114.066 273.922 463.238
1165 0 95.2112 12.341 1175 113.276 274.119 459.609
1166 0 101.102 13.432 1358 109.782 274.404 459.159
1167 0 103.179 12.4056 1280 111.938 274.974 454.977
1168 0 107.158 13.2888 1424 108.884 274.805 456.32
1169 0 109.181 12.6213 1378 109.978 273.589 453.314
1170 0 113.177 13.9428 1578 106.878 274.762 450.429
1171 1 54.097 11.5718 626 107.062 274.08 474.748
1172 0 59.0833 11.8815 702 104.513 274.973 478.274
1173 0 57.0594 8.65764 494 101.864 275.049 475.903
1174 0 63.0218 9.52051 600 101.095 276.542 476.277
1175 0 64.0764 9.73838 624 100.938 276.059 473.402
1176 0 65.1524 10.8208 705 99.2794 275.56 474.861
1177 0 67.141 10.4854 704 99.9034 275.249 470.489
1178 0 68.1239 9.24786 630 102.648 275.105 472.225
1179 0 68.0586 10.7701 733 101.614 274.709 468.548
1180 0 72.0344 9.57876 690 102.532 274.836 469.68
1181 0 76.0626 8.70335 662 104.607 274.702 467.863
1182 0 76.0747 10.3582 788 101.099 275.113 463.803
1183 0 79.0589 9.79017 774 103.027 274.853 464.393
1184 0 81.1115 10.3684 841 104.309 274.776 458.558
1185 0 89.1604 10.6437 949 102.981 275.336 460.444
1186 0 91.232 11.4543 1045 102.191 275.566 456.595
1187 0 93.1263 10.169 947 104.66 275.962 457.159
1188 0 95.2478 10.247 976 105.113 275.53 453.737
1189 0 101.154 11.3589 1149 102.777 274.851 452.1
1190 0 104.259 10.0135 1044 105.155 274.827 450.898
1191 0 106.19 10.6602 1132 105.973 275.327 449.095
1192 0 112.248 10.5303 1182 106.698 275.349 448.96
1193 0 114.172 11.1235 1270 106.095 275.917 449.296
1194 0 122.186 12.4892 1526 103.957 275.496 446.438
1195 0 123.443 13.0668 1613 104.025 275.269 440.555
1196 0 126.28 11.1419 1407 107.35 276.031 444.206
1197 0 130.389 11.4963 1499 108.465 275.537 437.613
1198 0 139.181 11.7401 1634 108.819 276.332 440.104
1199 0 140.479 11.1262 1563 111.369 275.892 436.328
1200 0 147.379 12.6341 1862 109.487 275.801 433.801
1201 0 153.247 12.1046 1855 108.198 276.35 437.601
1202 1 86.1988 10.441 900 106.031 275.377 470.624
1203 0 90.1793 11.7322 1058 105.978 274.996 467.871
1204 0 94.1507 12.7774 1203 102.126 275.737 467.355
1205 0 95.2974 11.4064 1087 105.549 275.566 462.78
1206 0 97.3794 12.4154 1209 104.83 276.086 458.621
1207 0 99.2261 10.6424 1056 109.188 275.885 463.971
1208 0 103.2 12.9458 1336 105.23 275.43 461.244
1209 0 109.148 12.5059 1365 104.24 276.22 462.577
1210 0 111.215 11.4103 1269 107.372 275.476 460.84
1211 0 114.231 11.6869 1335 107.634 275.27 454.594
1212 0 118.362 11.8281 1400 106.46 275.515 457.425
1213 0 123.355 12.9301 1595 104.756 275.762 452.678
1214 0 126.182 11.6736 1473 107.478 275.659 452.668
1215 0 129.271 12.4157 1605 105.522 275.667 447.584
1216 0 133.218 12.1005 1612 107.382 275.766 441.44
1217 1 73.0983 11.9702 875 101.751 275.535 478.298
1218 0 72.157 10.2416 739 104.637 276.179 476.095
1219 0 76.1041 12.588 958 101.291 275.722 476.454
1220 0 79.1654 12.9855 1028 99.8414 276.097 474.756
1221 0 78.1591 11.1695 873 103.607 276.22 471.17
1222 0 84.1851 13.791 1161 98.0043 275.233 471.233
1223 0 87.1505 12.8399 1119 101.739 275.262 471.706
1224 0 90.2395 13.3644 1206 100.953 275.227 469.43
1225 0 93.1071 13.5328 1260 102.028 275.811 467.142
1226 0 97.2334 13.3596 1299 102.428 275.787 466.506
1227 0 99.233 13.9067 1380 102.67 275.575 465.395
1228 0 101.203 13.2408 1340 106.272 276.259 464.224
1229 0 104.156 13.2781 1383 107.112 275.579 462.069
1230 0 108.29 12.9282 1400 109.476 275.264 460.431
1231 0 111.399 14.3718 1601 106.562 275.37 458.367
1232 0 115.152 15.1886 1749 105.551 275.306 457.206
1233 0 115.266 13.4558 1551 112.34 276.238 453.756
1234 0 120.505 12.7298 1534 114.388 275.498 452.381
1235 0 124.212 14.3304 1780 111.309 275.058 449.178
1236 0 128.359 15.48 1987 108.483 275.421 452.194
1237 0 131.249 13.6382 1790 113.442 275.497 448.714
1238 0 136.42 14.3308 1955 112.035 274.709 444.388
1239 0 139.237 14.2348 1982 112.036 275.352 431.871
1240 0 146.329 14.2897 2091 111.294 275.659 431.228
1241 0 151.389 14.6312 2215 110.535 275.363 434.317
1242 0 153.28 14.94 2290 111.575 275.173 435.78
1243 1 86.1857 11.3012 974 111.348 274.119 468.523
1244 0 86.1489 10.3077 888 106.006 276.104 469.218
1245 0 89.0675 11.1601 994 104.195 275.235 465.232
1246 0 90.4066 9.93291 898 105.055 275.042 463.021
1247 0 96.1079 11.9553 1149 101.493 274.77 464.566
1248 0 98.1465 11.5643 1135 102.719 274.32 463.603
1249 0 101.215 12.2116 1236 102.015 275.035 462.119
1250 0 105.196 11.5214 1212 101.804 275.341 461.375
1251 0 110.12 11.8054 1300 100.893 274.753 459.27
1252 0 110.205 11.0703 1220 102.288 274.575 459.048
1253 0 114.138 12.3886 1414 100.82 274.358 454.115
1254 0 117.147 11.3021 1324 104.049 275.273 451.326
1255 0 122.408 11.2411 1376 103.188 275.473 449.924
1256 0 125.252 12.0078 1504 103.241 275.064 444.532
1257 0 130.298 11.0056 1434 109.778 275.202 437.805
1258 0 135.333 11.638 1575 108.786 275.311 435.338
1259 0 138.328 9.81003 1357 115.188 274.821 427.859
1260 0 147.266 11.8357 1743 110.032 274.861 429.446
1261 0 150.323 12.4399 1870 110.514 274.71 427.58
1262 0 153.602 10.2278 1571 117.323 274.931 419.485
1263 0 161.523 12.9641 2094 114.251 274.775 429.081
1264 0 166.379 13.0966 2179 114.774 274.202 422.012
1265 0 169.443 11.7503 1991 118.491 274.577 417.385
1266 0 175.446 11.9353 2094 119.135 274.344 412.506
1267 0 181.292 12.1461 2202 119.518 274.505 409.651
1268 0 187.504 12.6291 2368 119.435 274.407 409.244
1269 0 194.433 12.4773 2426 121.233 275.07 407.321
1270 0 199.37 13.1113 2614 120.391 274.342 403.835
1271 0 204.317 12.1772 2488 123.064 274.285 400.441
1272 0 204.353 11.9303 2438 123.023 274.075 395.385
1273 0 204.343 12.0532 2463 146.592 276.078 395.091
1274 0 213.676 11.6298 2485 125.42 274.878 383.252
1275 1 223.299 10.3986 2322 127.727 274.943 387.508
1276 1 50.0955 8.84311 443 96.5598 274.056 483.609
1277 0 51.0733 9.43742 482 100.786 273.564 482.683
1278 0 54.148 11.3024 612 104.168 275.399 486.105
1279 0 54.1462 8.77254 475 109.84 275.097 483.537
1280 0 57.0976 10.2631 586 104.29 273.758 484.582
1281 0 61.1002 11.1947 684 101.854 274.194 482.042
1282 0 64.06 11.099 711 102.627 274.006 479.809
1283 0 63.0271 9.44039 595 106.472 273.763 481.245
1284 0 66.1164 11.1016 734 102.612 274.067 477.444
1285 0 68.0424 10.7139 729 104.621 273.248 476.583
1286 0 70.0887 11.2714 790 103.67 273.365 476.265
1287 0 71.0883 10.5784 752 106.464 273.311 476.025
1288 0 74.0654 11.4223 846 104.212 273.363 476.771
1289 0 75.0814 11.6007 871 104.767 273.344 473.305
1290 0 78.0362 11.264 879 105.127 273.797 474.669
1291 0 80.0443 9.95699 797 107.272 273.679 474.656
1292 0 83.1671 10.6532 886 107.019 274.834 470.832
1293 0 84.1288 11.6845 983 104.452 274.312 468.413
1294 0 87.092 10.4946 914 106.805 273.961 465.684
1295 0 88.1449 10.7096 944 103.209 272.895 468.185
1296 1 164.393 9.78146 1608 88.4633 273.887 452.331
1297 0 163.493 10.4897 1715 75.6472 274.061 448.491
1298 0 164.777 9.50985 1567 90.2508 273.622 446.944
1299 0 153.696 14.7043 2260 79.1757 274.241 430.932
1300 0 148.34 11.0287 1636 93.3447 273.99 441.05
1301 0 148.54 14.6426 2175 84.5743 273.41 430.196
1302 0 140.142 12.4232 1741 94.2929 273.477 436.986
1303 0 141.27 15.2121 2149 88.3215 274.163 432.833
1304 1 66.0604 14.7138 972 88.394 273.104 475.795
1305 0 68.086 15.2895 1041 88.8972 272.485 476.2
1306 0 70.0644 12.3315 864 95.3484 272.884 478.343
1307 0 72.0521 15.461 1114 89.5189 272.018 477.914
1308 0 71.063 13.087 930 95.9634 272.699 476.818
1309 0 73.0549 14.4686 1057 94.2621 273.42 478.513
1310 0 74.0867 14.2131 1053 96.094 272.753 477.651
1311 0 73.0927 11.8069 863 102.439 273.603 477.236
1312 0 77.1087 12.6575 976 100.017 273.497 476.278
1313 0 79.0373 12.9559 1024 99.4824 273.762 474.314
1314 0 79.1533 13.278 1051 95.8582 273.039 475.602
1315 0 83.186 12.5983 1048 98.5649 273.229 473.625
1316 0 85.1247 13.8033 1175 95.9081 274.26 472.447
1317 0 88.2069 13.389 1181 99.7316 273.896 469.719
1318 0 91.1639 13.196 1203 98.9958 274.495 470.258
1319 0 91.1137 11.9631 1090 103.672 275.104 467.239
1320 1 52.101 10.9403 570 99.4702 276.514 488.942
1321 0 52.1677 10.6963 558 101.353 276.9 487.677
1322 0 56.1186 11.6539 654 98.5076 276.651 487.211
1323 0 58.084 12.2065 709 98.2764 276.68 488.195
1324 0 59.1076 13.45 795 96.9044 275.743 486.956
1325 0 58.0745 12.1568 706 101.242 276.518 484.286
1326 0 64.0814 13.6389 874 96.0034 276.765 485.899
1327 0 63.1912 13.3721 845 99.7432 276.529 483.111
1328 0 66.1233 13.3841 885 99.3492 276.125 483.638
1329 0 67.0994 13.4874 905 99.1083 275.654 482.59
1330 0 68.1135 12.4205 846 102.957 275.482 480.197
1331 0 69.103 12.7201 879 104.147 276.184 479.248
1332 0 71.1138 13.837 984 102.211 275.651 480.191
1333 0 73.0949 12.6548 925 100.863 274.641 481.711
1334 0 75.0447 13.2055 991 100.026 274.909 481.193
1335 0 78.2198 13.1808 1031 101.628 274.255 479.43
1336 0 79.2272 12.4074 983 105.468 274.238 477.88
1337 0 82.0915 12.949 1063 104.259 274.781 477.805
1338 0 84.232 12.4774 1051 105.354 275.189 476.892
1339 0 86.0714 13.2797 1143 105.283 274.976 472.745
1340 0 91.1985 13.1362 1198 105.739 274.674 472.778
1341 0 95.1472 13.2111 1257 107.177 274.551 470.448
1342 0 99.2469 13.673 1357 106.25 274.64 469.985
1343 0 101.205 13.3294 1349 107.601 275.026 468.82
1344 1 56.022 13.3519 748 111.124 274.513 486.826
1345 0 59.0872 12.8285 758 110.154 274.551 486.191
1346 0 62.047 14.3117 888 108.358 275.222 485.69
1347 0 61.0955 12.636 772 103.633 274.732 487.385
1348 0 64.1154 11.5417 740 105.803 274.676 485.668
1349 0 65.0367 12.27 798 104.707 274.815 484.901
1350 0 67.1375 11.4243 767 106.154 275.023 484.31
1351 0 69.036 12.3559 853 104.513 275.275 483.147
1352 0 73.1056 13.8977 1016 100.572 274.765 480.599
1353 0 77.0551 13.7175 1057 100.74 275.382 478.314
1354 0 78.0387 12.2503 956 103.506 275.57 477.29
1355 0 80.0969 12.9343 1036 102.516 274.877 475.892
1356 0 83.0548 12.269 1019 103.924 275.059 476.592
1357 0 85.212 11.3012 963 106.167 275.252 475.24
1358 0 90.1408 13.013 1173 103.801 275.412 472.918
1359 0 92.2056 12.4287 1146 106.458 275.188 470.58
1360 0 93.1395 12.5081 1165 108.204 276.101 469.229
1361 0 99.1538 12.5058 1240 109.197 274.968 466.415
1362 0 103.303 13.1361 1357 105.85 274.953 468.429
1363 1 56.1353 12.0245 675 104.773 275.939 489.447
1364 0 58.1132 11.4776 667 105.783 274.568 485.796
1365 0 60.0803 12.3668 743 103.538 275.882 485.011
1366 0 61.0642 13.3139 813 103.903 275.552 487.431
1367 0 62.107 12.0759 750 108.284 274.748 484.245
1368 0 65.0704 12.7093 827 107.047 274.677 482.497
1369 0 67.0552 12.2735 823 107.475 274.931 483.731
1370 0 69.191 13.0219 901 107.436 274.408 481.749
1371 0 71.0613 12.06 857 111.307 274.94 481.532
1372 0 74.1271 12.8158 950 110.908 275.611 479.74
1373 0 75.1134 11.9952 901 114.847 275.437 479.947
1374 0 80.1699 14.2697 1144 109.516 274.502 478.157
1375 0 82.1549 13.718 1127 112.129 275.215 476.366
1376 0 85.2406 13.0689 1114 114.013 274.884 474.97
1377 0 87.138 12.7614 1112 116.534 274.992 472.444
1378 0 89.1186 13.7008 1221 115.137 275.147 472.673
1379 0 94.1575 12.426 1170 116.336 275.504 471.624
1380 0 96.1758 12.6331 1215 116.826 275.597 468.543
1381 0 100.172 12.8978 1292 116.775 275.224 466.694
1382 0 104.069 13.6736 1423 115.777 275.125 464.001
1383 0 108.17 14.0335 1518 114.463 275.245 464.736
1384 1 53.2504 11.2863 601 115.734 274.652 488.749
1385 0 57.0648 11.671 666 114.377 275.222 487.778
1386 0 59.157 13.05 772 111.273 276.044 487.513
1387 0 60.0741 12.7176 764 114.564 276.212 485.546
1388 0 64.0519 13.5359 867 111.217 275.739 484.903
1389 0 66.1399 13.2295 875 112.906 275.599 484.059
1390 0 65.1916 13.0078 848 115.022 276.468 482.267
1391 0 69.1415 13.0746 904 113.596 275.794 481.155
1392 0 71.161 11.7902 839 116.476 274.967 481.088
1393 0 76.0911 12.7742 972 113.877 275.271 478.933
1394 0 76.135 13.2922 1012 114.324 275.037 477.294
1395 0 80.2314 13.1245 1053 113.521 275.254 477.056
1396 0 81.0535 12.831 1040 114.643 275.251 475.875
1397 0 85.0867 12.834 1092 115.715 275.462 474.035
1398 0 84.0888 12.0944 1017 118.328 275.737 471.466
1399 0 90.1268 13.0039 1172 115.119 275.217 470.828
1400 0 94.0824 13.1799 1240 115.051 275.403 466.33
1401 0 95.0734 12.443 1183 116.669 275.677 466.684
1402 0 99.0983 13.2596 1314 115.009 276.037 463.938
1403 1 54.0309 12.9371 699 113.365 275.754 487.654
1404 0 55.1705 12.8873 711 114.149 274.913 485.014
1405 0 58.0254 12.8564 746 113.444 275.295 483.808
1406 0 59.0531 13.5302 799 111.631 275.869 484.559
1407 0 62.1355 13.9373 866 109.62 275.731 484.591
1408 0 64.2127 13.4553 864 111.789 275.295 481.218
1409 0 65.2025 13.8492 903 111.411 274.576 480.012
1410 0 67.0515 13.4971 905 111.369 275.085 479.751
1411 0 70.1181 12.6929 890 113.299 275.718 477.806
1412 0 70.0659 13.6586 957 112.612 275.029 474.869
1413 0 73.121 12.7323 931 115.459 275.052 475.861
1414 0 73.1637 12.2465 896 117.612 275.971 475.015
1415 0 77.0778 13.5577 1045 114.242 275.766 473.567
1416 0 80.1201 12.8931 1033 115.348 275.299 472.505
1417 0 81.1368 11.9674 971 118.486 276.108 471.411
1418 0 85.1076 13.0658 1112 116.701 275.219 468.594
1419 0 86.1296 12.7018 1094 118.412 274.622 468.827
1420 0 86.1346 12.7127 1095 159.156 273.618 468.748
1421 0 93.0879 12.6225 1175 119.548 273.72 464.448
1422 0 96.2654 13.4316 1293 117.546 274.308 460.52
1423 0 99.1419 12.7191 1261 118.693 275.028 457.263
1424 0 102.164 13.7524 1405 114.853 274.964 454.179
1425 0 104.193 11.7475 1224 118.998 274.958 449.465
1426 1 54.2164 10.6241 576 111.71 276.851 478.207
1427 0 56.0594 11.4521 642 111.685 277.134 477.869
1428 0 57.1175 10.7848 616 106.274 276.657 476.209
1429 0 60.0894 12.1486 730 103.529 276.856 475.684
1430 0 62.1063 11.3837 707 104.941 276.321 475.222
1431 0 65.0802 12.185 793 114.265 274.545 479.501
1432 0 68.0512 12.2702 835 115.165 274.521 479.322
1433 0 69.0657 12.1913 842 116.707 274.538 477.152
1434 0 74.0381 13.3445 988 114.366 274.243 473.52
1435 0 74.1024 11.6191 861 119.847 274.016 474.071
1436 0 77.1376 12.6916 979 118.099 274.281 471.097
1437 0 82.147 13.2324 1087 115.265 273.691 470.373
1438 0 84.1423 12.4075 1044 118.939 272.957 469.626
1439 0 85.1438 12.3673 1053 120.965 273.752 466.039
1440 1 47.0668 11.1331 524 118.246 273.635 487.502
1441 0 48.1124 12.159 585 118.106 273.296 486.997
1442 0 50.0497 11.7683 589 118.954 274.177 486.969
1443 0 51.2359 11.2616 577 120.939 275.005 484.267
1444 0 54.0111 12.8492 694 117.442 273.513 484.827
1445 0 54.0651 12.7069 687 119.782 273.84 484.14
1446 0 56.0217 12.6379 708 119.982 273.986 484.162
1447 0 56.0463 12.5789 705 121.557 273.811 484.065
1448 0 57.0412 12.5699 717 122.506 274.397 481.365
1449 0 60.0453 12.8403 771 120.549 274.9 483.135
1450 0 61.0971 12.4228 759 122.24 275.04 482.872
1451 0 61.0731 10.9541 669 127.139 274.326 481.649
1452 0 64.1276 11.6175 745 124.972 274.644 481.493
1453 0 68.0446 12.9033 878 120.723 274.539 478.659
1454 0 68.0232 12.8927 877 120.788 273.61 479.462
1455 0 71.1953 12.4166 884 122.261 275.243 478.414
1456 0 73.1262 13.5519 991 119.128 275.254 476.972
1457 0 76.2145 12.0581 919 122.669 275.361 475.358
1458 0 78.2051 12.3905 969 115.92 276.163 477.72
1459 1 42.2642 12.6111 533 115.97 275.12 493.221
1460 0 42.0348 12.2756 516 112.545 276.337 490.581
1461 0 45.0476 12.8087 577 115.25 275.801 492.386
1462 0 46.0656 11.7875 543 118.28 276.133 490.877
1463 0 46.0519 12.3773 570 117.053 276.056 491.228
1464 0 48.0357 12.345 593 116.766 276.169 488.99
1465 0 50.0706 12.2826 615 116.987 275.772 488.976
1466 0 51.0469 11.989 612 118.436 275.371 488.631
1467 0 53.022 13.6358 723 113.429 275.997 487.996
1468 0 54.0422 13.1379 710 115.37 275.756 485.723
1469 0 54.0955 13.8274 748 114.114 275.652 486.789
1470 0 58.0724 13.7759 800 112.879 275.421 487.591
1471 0 57.0519 12.8655 734 116.465 275.905 486.292
1472 0 59.1097 13.4665 796 114.726 274.881 486.594
1473 0 62.2022 12.6684 788 115.336 274.584 484.987
1474 0 62.1584 11.8246 735 119.214 274.97 482.178
1475 0 64.1444 12.2848 788 118.029 274.388 482.807
1476 0 66.0685 12.3054 813 118.512 274.879 481.196
1477 0 69.0813 14.2441 984 112.275 274.74 481.996
1478 0 70.097 12.8964 904 116.382 275.1 478.855
1479 0 73.0611 13.824 1010 114.213 275.482 479.352
1480 0 75.1385 13.6149 1023 114.896 275.001 476.761
1481 0 78.1596 15.1741 1186 111.095 274.503 476.55
1482 0 80.0997 15.1561 1214 112.036 274.451 475.965
1483 0 79.0939 13.7179 1085 118.375 274.846 473.341
1484 0 86.1415 14.1279 1217 115.182 274.919 474.689
1485 0 86.0788 13.7316 1182 118.129 274.334 472.807
1486 0 87.0984 14.0186 1221 118.028 274.727 472.632
1487 0 92.1362 15.1298 1394 115.811 275.711 471.126
1488 0 94.1149 14.2485 1341 120.045 275.224 469.583
1489 0 98.0967 14.4449 1417 120.526 275.371 465.92
1490 0 98.1631 13.5387 1329 125.044 275.284 466.339
1491 0 101.077 13.5442 1369 123.825 275.076 465.663
1492 0 106.06 13.4547 1427 124.778 273.632 461.595
1493 0 111.208 13.0476 1451 125.121 274.112 460.983
1494 1 57.1107 11.4865 656 116.95 274.419 487.229
1495 0 59.073 11.9344 705 118.457 273.644 484.84
1496 0 61.0693 13.935 851 112.944 273.57 483.934
1497 0 63.2695 13.9562 883 113.088 274.251 484.499
1498 0 66.1107 13.0841 865 116.127 274.095 481.916
1499 0 68.0447 12.4624 848 117.933 274.261 479.425
1500 0 71.0494 13.3991 952 115.847 273.766 478.47
1501 0 74.1323 12.734 944 116.706 273.302 479.735
1502 0 78.0895 13.8431 1081 113.783 273.13 478.981
1503 0 81.0817 13.5172 1096 110.69 274.502 477.543
1504 0 80.051 12.8918 1032 112.775 274.386 476.926
1505 0 83.0792 13.3006 1105 113.426 274.625 476.709
1506 0 84.0939 13.3184 1120 118.794 273.947 475.61
1507 0 87.0703 13.2192 1151 118.47 274.709 475.101
1508 0 86.0899 14.2758 1229 117.9 274.688 473.063
1509 1 46.0752 12.2409 564 126.791 273.447 492.177
1510 0 45.008 12.3756 557 128.905 273.488 492.916
1511 0 48.0754 12.6676 609 125.13 273.399 491.402
1512 0 51.0273 12.7971 653 122.908 273.395 490.142
1513 0 54.0542 12.8575 695 119.445 273.285 489.742
1514 0 55.0272 13.0117 716 118.538 273.166 488.64
1515 0 57.0299 13.2387 755 116.898 273.212 487.045
1516 0 59.0232 12.7238 751 117.379 272.863 486.137
1517 0 59.0581 12.8856 761 116.921 272.753 485.915
1518 0 61.1047 12.9614 792 117.75 272.711 484.122
1519 0 65.0394 13.0383 848 116.981 273.356 483.787
1520 0 66.0759 13.1061 866 117.866 273.462 483.445
1521 0 67.0235 12.9656 869 119.814 272.945 483.375
1522 0 68.1617 13.2479 903 120.992 273.483 482.073
1523 0 69.0905 11.9843 828 127.531 273.043 482.132
1524 0 73.0896 12.2589 896 127.747 273.307 481.301
1525 0 74.0994 12.5372 929 130.124 273.719 479.487
1526 0 75.163 13.0117 978 130.053 274.065 480.299
1527 0 78.1831 12.1765 952 133.68 274.34 478.864
1528 0 79.3129 12.2427 971 135.188 272.99 478.158
1529 1 45.0536 11.675 526 133.688 272.875 495.268
1530 0 45.0837 11.9999 541 134.15 273.967 495.508
1531 0 47.1797 12.463 588 133.141 274.386 494.162
1532 0 47.0661 12.1956 574 135.063 273.155 493.866
1533 0 50.0637 13.2631 664 131.423 272.559 493.304
1534 0 50.038 13.4498 673 133.819 273.215 491.37
1535 0 51.0581 12.6718 647 136.162 273.598 492.873
1536 0 53.0554 12.6471 671 136.829 272.45 491.981
1537 0 55.0817 13.1986 727 133.536 271.959 490.757
1538 0 58.0338 12.6995 737 133.269 272.551 489.669
1539 0 59.0378 12.9239 763 131.923 272.44 490.434
1540 0 59.0781 12.1534 718 134.306 272.5 490.234
1541 0 61.0524 12.8251 783 133.467 272.314 488.538
1542 0 62.0884 12.9815 806 132.403 272.504 488.313
1543 0 64.0405 12.9449 829 133.005 272.743 485.996
1544 0 68.0536 13.5628 923 129.653 272.033 485.97
1545 0 68.0625 12.9881 884 133.055 272.152 483.83
1546 0 72.1084 13.8403 998 129.002 272.069 482.236
1547 0 72.1011 12.3715 892 132.999 272.641 482.923
1548 0 77.0629 13.6901 1055 127.657 272.395 479.213
1549 0 79.1437 13.2291 1047 129.096 272.201 477.878
1550 1 39.0241 9.66069 377 131.252 272.162 498.042
1551 0 44.0566 13.1422 579 120.506 271.914 496.154
1552 0 43.0828 11.211 483 125.793 271.658 496.166
1553 0 46.0377 12.4681 574 121.361 272.354 495.016
1554 0 48.1125 12.6786 610 119.749 271.528 493.572
1555 0 49.0764 13.2243 649 117.062 270.912 493.709
1556 0 49.0764 13.2446 650 131.96 269.902 493.689
1557 0 54.0764 13.6843 740 113.981 271.423 492.891
1558 0 52.1634 13.1318 685 118.472 271.739 491.19
1559 0 56.0699 13.5723 761 116.003 272.293 488.463
1560 0 53.2027 12.6685 674 120.396 271.84 488.073
1561 0 59.1801 13.1125 776 116.482 272.546 488.322
1562 0 59.1506 13.0514 772 117.004 272.483 488.392
1563 0 62.0388 12.9113 801 116.096 272.629 486.131
1564 0 64.0674 13.0956 839 115.355 272.36 486.794
1565 0 65.1084 12.748 830 116.945 272.564 484.547
1566 0 69.0859 14.055 971 113.483 272.756 483.75
1567 0 69.101 11.3023 781 119.429 272.63 484.207
1568 0 73.0568 12.9625 947 114.795 272.626 481.582
1569 0 75.1046 13.3414 1002 113.991 272.462 481.572
1570 0 78.2365 12.5006 978 116.283 272.219 479.51
1571 0 79.09 11.8978 941 119.041 272.978 479.016
1572 0 83.1144 12.9821 1079 116.467 272.445 477.366
1573 1 44.0793 11.5474 509 121.804 271.806 494.676
1574 0 46.0683 12.3729 570 117.693 271.602 493.84
1575 0 48.0882 12.2483 589 115.718 272.903 492.115
1576 0 50.1378 12.8047 642 114.642 272.458 491.467
1577 0 51.0756 13.6073 695 113.401 271.95 491.86
1578 0 54.2025 13.7263 744 111.743 272.353 490.621
1579 0 54.1536 12.8339 695 114.777 271.727 489.908
1580 0 57.0451 13.761 785 112.218 271.847 487.042
1581 0 60.0264 12.8277 770 112.749 272.301 485.849
1582 0 60.1346 12.7714 768 114.674 272.357 486.604
1583 0 63.0913 13.5042 852 112.479 272.256 486.086
1584 0 63.1603 12.0329 760 116.207 271.471 485.325
1585 0 67.0703 12.8671 863 113.048 271.9 482.918
1586 0 69.062 12.5105 864 113.514 271.962 483.622
1587 0 73.1416 14.3557 1050 109.765 272.136 480.334
1588 0 73.1884 13.636 998 112.572 271.615 480.233
1589 0 78.1111 13.3016 1039 111.942 272.411 480.282
1590 0 79.1788 12.857 1018 113.337 272.14 477.403
1591 0 82.1698 12.5715 1033 114.079 271.894 476.006
1592 0 86.1274 12.9459 1115 112.9 271.62 473.818
1593 1 46.0476 12.6608 583 111.566 272.341 492.985
1594 0 46.0658 12.938 596 113.581 272.861 490.582
1595 0 48.1697 13.3071 641 101.329 271.922 491.669
1596 0 49.0775 11.6143 570 104.468 271.512 492.768
1597 0 51.0701 13.2367 676 100.857 272.107 491.064
1598 0 53.0148 13.185 699 100.651 272.701 491.426
1599 0 55.0592 12.2777 676 102.324 272.82 490.395
1600 0 54.0596 12.0793 653 103.395 272.746 489.623
1601 0 58.0644 14.6389 850 97.1341 273.605 490.193
1602 0 60.2149 13.9334 839 98.6269 273.749 486.41
1603 0 62.0741 12.179 756 102.45 273.898 485.503
1604 0 64.0547 13.91 891 97.7396 273.728 485.389
1605 0 65.0809 12.2617 798 99.5025 273.271 482.312
1606 0 69.1614 12.5214 866 98.5866 273.923 483.569
1607 0 72.2823 13.8485 1001 96.7153 274.041 480.804
1608 0 72.1183 12.535 904 101.31 274.258 480.171
1609 0 75.0688 12.5618 943 100.613 274.223 479.306
1610 0 78.2407 12.7555 998 100.583 273.957 477.789
1611 0 82.0898 12.8518 1055 100.136 273.778 476.348
1612 0 84.0972 13.2466 1114 98.4192 273.085 474.633
1613 0 87.0759 13.4021 1167 97.4122 273.761 471.53
1614 0 91.1559 12.3415 1125 98.9698 273.694 469.773
1615 0 94.1268 13.1737 1240 83.4742 274.069 467.467
1616 0 93.2861 11.5237 1075 108.529 273.753 469.96
1617 1 47.0673 12.1316 571 102.023 274.403 494.257
1618 0 48.0941 12.5587 604 101.725 273.806 491.839
1619 0 49.1264 12.1523 597 102.379 273.178 491.97
1620 0 50.1448 11.3272 568 104.266 274.148 491.79
1621 0 51.0643 13.3361 681 100.722 273.602 489.529
1622 0 53.0913 12.0924 642 102.827 274.09 490.403
1623 0 56.1355 13.4852 757 100.198 273.643 488.33
1624 0 56.0582 11.827 663 103.735 273.413 486.893
1625 0 59.1011 12.7916 756 102.122 273.3 487.562
1626 0 62.0906 12.3046 764 103.055 273.209 485.639
1627 0 65.189 13.3765 872 100.203 273.653 484.484
1628 0 65.116 12.1476 791 104.235 273.485 483.009
1629 0 67.1101 13.1724 884 102.905 273.6 481.494
1630 0 69.1611 13.5192 935 102.252 273.46 481.433
1631 0 73.1394 12.8112 937 103.758 273.526 477.479
1632 0 74.1171 12.7096 942 104.947 273.436 476.429
1633 0 78.1404 13.0406 1019 103.982 273.319 475.746
1634 0 80.1236 13.5166 1083 103.508 273.921 474.613
1635 0 83.4322 12.669 1057 106.27 273.961 474.263
1636 0 87.1562 11.967 1043 108.354 273.754 475.415
1637 1 42.0978 12.1384 511 107.499 274.389 492.564
1638 0 43.0788 11.0727 477 109.715 273.405 492.809
1639 0 44.0252 11.8568 522 106.764 271.379 493.059
1640 0 47.1387 13.28 626 103.024 273.518 490.711
1641 0 49.0751 12.5726 617 105.183 273.368 491.016
1642 0 52.1053 12.6475 659 104.848 273.909 490.287
1643 0 52.0403 12.7594 664 106.185 273.8 488.956
1644 0 55.1294 13.6406 752 103.32 273.475 489.59
1645 0 55.0819 13.8339 762 104.089 272.823 487.921
1646 0 57.1803 14.0783 805 103.938 273.46 487.988
1647 0 60.0987 13.9936 841 104.231 273.511 486.721
1648 0 59.1178 13.2447 783 107.687 273.572 486.188
1649 0 62.1141 13.2498 823 108.096 273.604 485.552
1650 0 63.12 14.8923 940 105.976 274.2 483.278
1651 0 65.0446 14.2979 930 107.927 273.018 484.154
1652 0 67.09 13.7278 921 109.161 273.823 482.631
1653 0 68.1077 13.1409 895 111.867 273.14 482.836
1654 0 70.0554 13.6892 959 112.887 273.23 481.408
1655 0 73.0758 13.2739 970 113.977 273.574 480.902
1656 0 76.0667 14.816 1127 110.771 273.919 478.549
1657 0 76.0913 14.2329 1083 114.114 273.407 476.552
1658 0 80.0477 14.6538 1173 112.945 272.406 477.228
1659 0 83.1451 13.5306 1125 116.687 272.248 473.241
1660 0 85.2139 14.7159 1254 113.866 272.96 473.555
1661 0 89.3241 15.2702 1364 113.197 272.799 471.816
1662 0 92.1935 15.0553 1388 114.238 273.385 471.787
1663 0 93.166 14.9411 1392 117.752 273.353 469.474
1664 0 96.1531 14.9761 1440 119.308 272.892 467.926
1665 1 49.0689 12.085 593 124.71 273.26 492.165
1666 0 51.2057 13.5922 696 121.687 272.861 489.372
1667 0 53.122 14.2126 755 120.188 273.177 488.207
1668 0 53.1139 14.1959 754 146.878 274.166 488.186
1669 0 58.1959 14.5887 849 119.174 273.314 487.779
1670 0 57.2057 13.1455 752 126.527 273.246 486.181
1671 0 60.0933 13.945 838 122.047 273.333 486.399
1672 0 60.1232 13.1563 791 126.522 272.874 484.061
1673 0 62.155 13.0641 812 127.283 273.01 483.576
1674 0 64.0816 13.8729 889 124.852 273.145 483.604
1675 0 65.0723 13.6771 890 121.619 273.46 482.651
1676 0 68.1116 13.2723 904 122.303 273.378 482.165
1677 0 69.0541 13.4532 929 122.293 273.141 481.354
1678 0 72.0589 14.2522 1027 119.357 272.861 480.293
1679 0 76.1546 14.2473 1085 119.73 273.367 479.228
1680 0 79.0607 14.1031 1115 119.739 273.642 478.141
1681 0 80.1684 14.507 1163 119.753 273.537 476.257
1682 0 83.0667 13.5433 1125 122.853 273.223 474.272
1683 0 86.0791 12.8835 1109 122.601 272.729 474.106
1684 0 89.1587 13.4143 1196 120.691 272.741 471.977
1685 1 50.0378 12.4106 621 122.129 271.746 491.295
1686 0 51.0715 13.0797 668 120.87 272.043 490.027
1687 0 52.1109 12.1856 635 125.929 272.324 487.161
1688 0 48.0325 11.0967 533 125.221 273.06 486.156
1689 0 54.0683 11.4115 617 112.217 273.606 481.467
1690 0 54.2047 12.1576 659 110.792 273.226 481.974
1691 0 55.0753 11.3662 626 113.428 273.045 479.832
1692 0 59.0765 11.4259 675 113.099 273.721 476.778
1693 0 62.1617 13.2557 824 107.464 273.91 478.541
1694 0 64.0728 12.2673 786 110.824 273.097 477.215
1695 0 64.1358 11.1014 712 114.288 272.85 475.555
1696 0 67.0561 11.7663 789 113.008 273.089 473.024
1697 0 72.1067 13.272 957 109.428 273.49 473.193
1698 0 74.1274 12.2492 908 112.166 273.297 472.2
1699 0 77.0714 11.7813 908 113.045 272.652 469.82
1700 0 79.2924 12.0314 954 112.911 272.529 466.877
1701 0 82.0812 11.1231 913 115.211 272.676 468.6
1702 0 86.0753 11.2924 972 116.072 273.162 462.895
1703 1 44.1597 10.0544 444 108.993 273.565 486.923
1704 0 45.1508 11.2069 506 117.757 272.528 488.832
1705 0 46.2084 10.9287 505 112.45 272.533 482.735
1706 0 46.124 11.9244 550 102.511 273.387 484.198
1707 0 47.1459 9.67211 456 107.487 273.649 482.395
1708 0 51.0742 12.0805 617 102.614 273.264 482.875
1709 0 53.1451 11.1769 594 103.79 273.38 481.072
1710 0 56.1105 10.016 562 107.383 273.829 478.721
1711 0 59.1236 11.4506 677 103.654 273.35 478.643
1712 0 61.2006 10.7515 658 104.164 273.029 477.802
1713 0 63.1497 11.3856 719 104.127 273.129 475.06
1714 0 64.1218 10.5892 679 106.421 273.333 473.496
1715 0 68.1501 11.9736 816 102.349 272.784 473.615
1716 0 69.0715 11.1768 772 106.162 272.052 470.341
1717 0 70.0265 10.8673 761 107.466 271.729 474.26
1718 0 74.1077 12.5223 928 104.089 272.105 471.19
1719 0 78.1501 10.7997 844 107.476 272.252 473.353
1720 0 82.1707 12.4497 1023 103.934 272.776 470.204
1721 1 42.0314 8.58881 361 100.842 273.693 492.493
1722 0 42.0375 9.46775 398 103.319 273.093 491.302
1723 0 46.1773 10.5246 486 108.523 271.527 491.854
1724 0 46.0378 12.9459 596 102.826 271.537 493.552
1725 0 46.0737 11.0909 511 108.591 271.808 492.36
1726 0 49.1102 12.8487 631 103.166 271.518 492.487
1727 0 51.0567 11.2228 573 107.051 271.759 490.239
1728 0 51.0217 12.0929 617 106.418 271.904 489.712
1729 0 53.0593 12.4201 659 105.012 272.152 489.049
1730 0 57.0851 12.4376 710 103.838 272.515 488.31
1731 0 56.0948 12.675 711 104.387 272.515 487.717
1732 0 59.0912 12.1676 719 104.972 271.431 486.786
1733 0 60.0274 12.9941 780 103.219 272.113 485.231
1734 0 63.0969 13.2495 836 102.151 272.28 485.555
1735 0 64.0887 12.4515 798 104.724 272.388 483.028
1736 0 68.0864 14.6872 1000 98.936 271.995 481.573
1737 0 69.0672 13.8271 955 102.264 272.096 481.013
1738 0 71.0667 11.9325 848 107.723 271.947 478.784
1739 0 72.0893 12.7481 919 107.547 271.619 478.839
1740 0 74.1032 12.5636 931 108.736 271.237 478.776
1741 0 78.0674 13.5908 1061 106.872 272.084 478.926
1742 0 79.0933 12.087 956 110.878 271.879 478.263
1743 0 83.0956 13.7673 1144 109.356 272.254 474.52
1744 0 85.0574 13.532 1151 110.946 271.791 474.316
1745 0 88.2422 14.0522 1240 111.512 272.502 474.698
1746 0 90.3626 13.7225 1240 113.898 272.052 470.751
1747 0 93.1208 12.9294 1204 117.213 271.768 469.259
1748 1 52.0901 12.4016 646 116.669 271.557 489.715
1749 0 53.3377 12.7115 678 111.217 272.658 487.341
1750 0 53.3985 12.6408 675 116.419 272.735 487.049
1751 0 54.1581 12.2419 663 108.849 273.297 489.872
1752 0 55.1062 12.0495 664 110.292 273.498 487.482
1753 0 58.1251 12.4559 724 108.877 273.338 487.569
1754 0 60.1306 12.1735 732 110.072 272.667 486.839
1755 0 63.1809 13.6909 865 106.117 273.373 484.702
1756 0 64.1279 13.1456 843 107.526 274.015 483.986
1757 0 66.0923 13.1634 870 107.986 273.332 482.686
1758 0 68.2817 12.9464 884 109.393 272.986 482.727
1759 0 69.1554 12.9997 899 110.739 273.133 481.825
1760 0 71.1479 12.8043 911 112.606 273.008 480.434
1761 0 75.1994 13.0719 983 112.589 273.315 477.535
1762 0 77.0902 13.5166 1042 112.041 273.455 476.81
1763 0 80.0565 13.2407 1060 112.356 273.975 476.291
1764 0 85.0304 12.8895 1096 112.435 273.663 478.537
1765 0 87.1123 13.7294 1196 111.421 273.814 476.093
1766 0 89.1989 14.1706 1264 109.874 272.921 474.217
1767 0 91.1166 12.3578 1126 116.383 273.627 472.577
1768 1 49.0947 13.1786 647 112.841 274.21 492.92
1769 0 47.0513 11.6044 546 118.989 273.995 490.782
1770 0 49.0096 10.6918 524 110.345 272.712 487.628
1771 0 48.0567 11.32 544 109.324 273.256 489.263
1772 0 52.0291 10.398 541 110.451 273.468 487.41
1773 0 54.0336 11.3818 615 108.863 273.715 486.457
1774 0 55.0957 10.4364 575 111.36 273.659 485.141
1775 0 57.0407 12.57 717 107.384 273.791 484.271
1776 0 60.0931 12.0646 725 107.676 272.568 483.53
1777 0 61.131 12.2033 746 107.164 272.845 483.694
1778 0 63.0688 11.432 721 109.117 272.91 481.434
1779 0 64.0836 11.485 736 108.579 272.681 478.871
1780 0 70.143 13.0163 913 104.271 272.678 481.099
1781 0 71.1221 12.2325 870 107.823 272.287 478.117
1782 0 72.1188 13.5055 974 105.794 272.96 475.28
1783 0 76.1412 11.7019 891 108.385 273.038 476.441
1784 0 78.2636 13.9656 1093 103.484 272.326 468.15
1785 0 79.2869 12.8521 1019 106.721 272.114 469.376
1786 0 82.1568 12.3909 1018 109.078 272.584 463.897
1787 0 85.2295 13.7746 1174 105.204 272.065 465.243
1788 1 44.1644 10.393 459 108.619 272.473 484.157
1789 0 44.1642 11.3893 503 107.239 273.095 484.594
1790 0 47.2129 10.2303 483 116.222 271.917 484.928
1791 0 50.1332 11.1902 561 110.947 272.321 485.011
1792 0 50.213 11.3516 570 109.698 272.409 486.356
1793 0 53.1496 11.3642 604 104.758 272.661 485.487
1794 0 53.1422 11.5351 613 105.605 272.675 484.61
1795 0 55.233 11.2071 619 106.467 272.441 485.036
1796 0 56.0901 10.6792 599 107.27 272.878 484.13
1797 0 61.08 11.9188 728 104.148 273.107 483.073
1798 0 63.2283 13.0796 827 99.6699 272.534 480.799
1799 0 63.1445 11.3866 719 105.131 272.441 479.438
1800 0 62.1957 11.5442 718 106.687 272.994 478.747
1801 0 67.0348 12.9336 867 104.856 273.118 478.96
1802 0 68.1038 12.9802 884 104.325 272.743 480.333
1803 0 70.116 12.8644 902 106.336 273.453 475.478
1804 0 70.0756 11.8301 829 107.676 273.223 474.439
1805 0 71.1604 10.8487 772 111.977 273.093 469.957
1806 0 76.1798 13.1531 1002 107.404 273.104 470.206
1807 0 78.1245 13.1585 1028 108.968 272.905 467.784
1808 0 79.2213 12.0801 957 113.006 273.486 467.247
1809 0 82.1697 12.3647 1016 113.551 273.337 464.126
1810 0 86.2501 12.7072 1096 113.987 273.421 464.004
1811 0 89.1411 13.5067 1204 116.474 273.82 462.216
1812 1 49.1575 10.3952 511 113.356 273.305 482.188
1813 0 51.2236 12.2404 627 110.383 273.464 477.226
1814 0 54.1311 11.8416 641 106.777 273.195 485.206
1815 0 56.0888 11.3035 634 108.194 272.68 485.126
1816 0 58.1784 11.0007 640 108.764 273.012 483.516
1817 0 57.1097 11.8194 675 108.241 273.018 484.009
1818 0 61.053 11.9241 728 108.942 273.407 485.463
1819 0 62.1151 11.8329 735 110.478 273.656 486.116
1820 0 65.094 11.9059 775 110.003 272.988 482.561
1821 0 67.0952 12.2661 823 107.896 271.773 478.81
1822 0 72.1162 13.1039 945 104.606 272.069 480.889
1823 0 71.1094 12.094 860 108.557 272.587 480.288
1824 0 76.0315 13.3234 1013 105.164 272.476 478.391
1825 0 77.0424 13.4212 1034 105.151 272.822 477.07
1826 0 78.0871 11.2439 878 111.015 272.691 475.259
1827 0 83.1347 12.57 1045 108.043 272.434 472.238
1828 0 82.1359 10.3487 850 112.936 272.278 472.233
1829 0 87.2233 12.9896 1133 107.162 272.389 469.814
1830 0 91.231 13.0219 1188 106.97 272.094 469.739
1831 0 93.1149 13.0913 1219 107.698 272.229 468.674
1832 1 48.1056 10.3938 500 107.73 272.15 489.854
1833 0 49.2576 11.044 544 106.419 272.2 488.02
1834 0 51.2081 10.7014 548 106.797 271.894 488.015
1835 0 57.1099 10.9613 626 107.38 272.289 488.027
1836 0 56.052 11.8283 663 106.505 271.997 486.407
1837 0 59.2078 11.485 680 106.416 272.372 485.519
1838 0 61.2009 12.8593 787 103.597 272.493 483.649
1839 0 62.0897 13.2389 822 103.019 272.018 483.179
1840 0 65.0668 12.5717 818 103.95 272.116 481.961
1841 0 67.1687 12.4314 835 104.905 271.479 480.711
1842 0 69.1929 12.14 840 105.761 271.629 479.695
1843 0 72.1149 12.2721 885 88.3073 272.602 476.214
1844 0 73.2174 11.2132 821 104.068 271.527 475.347
1845 0 74.259 9.48033 704 107.445 271.697 476.327
1846 0 77.2352 12.0023 927 104.506 272.311 473.759
1847 0 79.1514 11.9265 944 105.41 272.239 473.661
1848 0 80.1252 10.9578 878 108.888 272.22 471.844
1849 0 84.0955 12.462 1048 105.359 272.177 468.366
1850 0 89.1521 11.9459 1065 106.248 272.374 470.502
1851 0 91.1254 13.443 1225 104.837 272.547 465.485
1852 0 93.1328 12.2191 1138 108.06 272.226 465.252
1853 0 97.1312 12.5706 1221 108.17 272.693 463.666
1854 0 100.077 12.2905 1230 110.054 272.118 462.634
1855 0 105.2 12.0437 1267 110.803 272.8 462.14
1856 0 108.138 13.4366 1453 109.767 272.384 460.13
1857 1 57.0522 11.1126 634 108.934 271.058 484.787
1858 0 59.294 10.1359 601 109.248 273.349 479.664
1859 0 61.1128 11.2906 690 106.267 272.287 484.193
1860 0 63.1892 12.2173 772 103.133 272.519 484.216
1861 0 65.1204 10.5497 687 106.702 272.269 481.172
1862 0 68.1865 10.9992 750 106.324 272.044 480.141
1863 0 72.0988 12.4135 895 102.334 272.666 478.517
1864 0 74.1378 11.9642 887 103.406 272.444 478.604
1865 0 76.1278 12.1112 922 103.61 272.856 476.725
1866 0 79.0912 12.0241 951 104.23 272.748 475.381
1867 0 81.1413 11.6833 948 105.594 272.448 474.797
1868 0 81.113 10.0354 814 110.716 271.936 471.397
1869 0 86.1779 11.1165 958 108.463 271.707 468.852
1870 0 88.1868 11.5097 1015 109.567 271.959 463.656
1871 0 92.2178 10.5511 973 111.482 272.089 466.051
1872 0 95.1981 11.828 1126 108.679 271.977 463.739
1873 0 98.1943 11.3652 1116 110.211 272.213 463.891
1874 0 99.184 11.3627 1127 110.484 272.661 462.097
1875 0 102.127 10.4674 1069 112.869 273.561 461.839
1876 0 105.158 11.7822 1239 110.912 273.575 459.913
1877 0 109.196 11.5756 1264 111.343 273.691 457.041
1878 0 111.171 12.0715 1342 111.489 273.688 453.604
1879 0 116.143 10.3063 1197 114.439 273.373 456.729
1880 0 122.212 12.0855 1477 110.225 273.522 456.631
1881 1 63.0974 9.42986 595 109.462 273.603 484.6
1882 0 67.069 12.0324 807 105.69 273.318 480.778
1883 0 68.1382 12.5187 853 108.928 273.295 479.819
1884 0 70.088 13.3689 937 108.044 272.967 478.298
1885 0 73.171 12.71 930 109.659 272.64 479.234
1886 0 75.239 12.6131 949 110.064 273.059 476.285
1887 0 78.2117 11.9547 935 111.481 273.386 478.419
1888 0 77.2594 12.5163 967 111.677 272.674 476.068
1889 0 81.3928 13.0601 1063 110.246 273.19 474.271
1890 0 83.1787 12.8879 1072 111.562 273.258 473.542
1891 0 87.2958 14.617 1276 102.621 272.799 472.177
1892 0 90.2577 13.1734 1189 110.682 272.99 471.017
1893 0 92.333 12.8123 1183 111.544 273.027 468.164
1894 0 97.3601 13.3114 1296 108.428 273.111 466.694
1895 0 99.2538 13.6015 1350 108.555 273.181 465.155
1896 0 101.437 12.2638 1244 112.182 273.232 464.756
1897 0 104.278 12.1981 1272 113.722 272.984 460.094
1898 1 57.1675 10.5305 602 110.9 274.757 484.962
1899 0 59.1574 11.6638 690 108.923 274.368 484.464
1900 0 59.2696 11.1693 662 110.304 274.782 484.332
1901 0 59.2206 11.2461 666 101.125 274.308 486.297
1902 0 62.1092 11.2544 699 100.217 274.087 486.391
1903 0 61.1837 9.31621 570 104.437 273.67 485.175
1904 0 64.1709 10.2071 655 102.154 273.895 484.576
1905 0 66.239 10.3111 683 101.202 273.362 483.053
1906 0 67.1932 10.3135 693 101.633 273.307 480.631
1907 0 70.1917 11.7393 824 98.8993 272.814 480.108
1908 0 72.2309 10.148 733 101.003 273.599 481.933
1909 0 75.2784 11.1719 841 98.2021 273.579 479.486
1910 0 77.1669 10.3412 798 99.6892 272.741 477.779
1911 0 79.2588 8.95799 710 101.441 273.313 480.6
1912 0 84.2369 11.4083 961 98.6243 273.051 474.148
1913 0 86.3747 10.9523 946 99.2939 273.341 475.578
1914 0 89.2154 11.702 1044 97.7193 273.522 475.145
1915 0 92.2497 10.9377 1009 102.271 273.176 470.339
1916 0 92.2388 12.2725 1132 105.487 273.54 472.007
1917 0 93.3352 11.8176 1103 107.705 272.809 469.081
1918 0 97.2515 12.8224 1247 106.747 272.748 466.811
1919 0 99.5817 11.1768 1113 109.124 272.429 468.453
1920 0 100.35 10.6129 1065 111.682 272.994 465.025
1921 0 104.23 11.1292 1160 110.429 272.906 465.388
1922 0 107.338 11.8225 1269 109.549 272.644 463.317
1923 0 110.218 12.6568 1395 107.853 272.412 462.773
1924 0 111.491 11.2116 1250 111.539 272.59 460.219
1925 1 59.0492 9.07718 536 106.244 273.578 489.591
1926 0 62.0455 10.7985 670 103.655 273 486.206
1927 0 64.1995 10.8568 697 104.879 273.162 483.511
1928 0 67.0625 11.288 757 103.243 273.147 484.712
1929 0 68.0483 10.7424 731 105.679 273.613 482.501
1930 0 70.1294 10.2667 720 106.369 273.872 484.182
1931 0 74.0603 10.6535 789 107.157 273.421 480.226
1932 0 76.1363 11.8734 904 106.934 273.306 481.24
1933 1 45.0258 11.5711 521 110.015 273.549 494.209
1934 0 44.0132 11.3602 500 112.416 272.772 494.648
1935 0 45.1099 11.1062 501 114.112 272.485 493.257
1936 0 44.0438 10.1263 446 113.991 273.83 495.428
1937 0 46.0342 11.3177 521 113.305 274.234 493.902
1938 0 47.0373 10.6086 499 115.259 273.679 493.335
1939 0 47.0172 10.6557 501 116.651 273.894 492.253
1940 0 49.1089 9.87601 485 116.794 273.433 494.986
1941 0 49.0704 11.8198 580 116.998 273.786 491.033
1942 0 51.0448 10.9708 560 120.368 274.029 490.964
1943 0 54.02 11.2736 609 119.7 273.576 490.502
1944 0 56.0545 11.6494 653 119.002 273.567 490.809
1945 0 56.0596 10.7564 603 123.833 273.441 487.778
1946 0 58.0365 11.51 668 122.506 273.572 489.066
1947 0 57.0566 10.9365 624 125.883 273.718 488.593
1948 0 60.0952 11.149 670 125.463 274.124 487.419
1949 0 62.0685 12.454 773 123.409 273.495 486.396
1950 0 66.1767 12.1795 806 123.203 273.426 486.334
1951 0 65.1474 11.6352 758 125.826 273.537 485.524
1952 0 69.2084 10.4034 720 129.657 273.006 482.483
1953 0 70.1613 11.4878 806 126.225 273.279 483.227
1954 0 79.2546 10.8385 859 125.269 273.373 483.192
1955 0 77.1951 10.739 829 129.14 273.483 479.618
1956 1 46.0312 13.2953 612 121.462 273.466 494.43
1957 0 44.0998 11.2699 497 130.922 272.813 492.952
1958 0 45.0836 11.6228 524 119.895 274.342 494.943
1959 0 45.0093 10.7978 486 123.774 274.63 494.286
1960 0 47.1405 11.2854 532 122.786 273.803 492.602
1961 0 46.0495 10.3584 477 125.579 273.627 492.593
1962 0 48.0891 9.93989 478 125.048 273.803 493.174
1963 0 50.0687 11.7638 589 123.761 274.224 488.839
1964 0 52.1383 11.7188 611 122.196 273.563 489.645
1965 0 54.099 11.9596 647 122.535 273.611 488.524
1966 0 53.1413 11.2718 599 126.447 273.464 487.457
1967 0 57.0758 11.3533 648 123.102 273.199 488.677
1968 0 58.1056 11.4963 668 125.458 273.385 486.642
1969 0 58.1502 11.006 640 126.5 274.08 486.175
1970 0 64.1817 10.3456 664 125.446 273.462 485.803
1971 0 64.1706 10.8773 698 124.066 274.011 484.311
1972 0 66.1414 11.3998 754 124.818 273.992 481.028
1973 0 70.0962 11.1418 781 123.677 273.848 481.8
1974 0 71.0899 12.7163 904 120.588 273.415 478.935
1975 0 74.1072 11.4159 846 123.102 273.493 478.948
1976 0 82.144 8.49727 698 124.378 274.001 483.229
1977 0 84.3501 10.1838 859 122.007 273.494 480.298
1978 0 82.1775 11.1344 915 123.272 273.423 474.055
1979 0 83.232 11.0655 921 125.936 273.232 471.75
1980 0 88.1617 12.9421 1141 119.734 273.788 474.309
1981 0 90.1192 12.428 1120 123.454 273.579 472.126
1982 0 94.2385 12.5745 1185 123.836 273.629 470.621
1983 0 96.2297 12.1688 1171 126.195 273.721 466.593
1984 0 101.203 12.3119 1246 123.291 273.169 466.532
1985 0 103.321 12.1079 1251 123.97 273.81 464.844
1986 1 60.1058 12.8939 775 118.088 274.062 485.194
1987 0 61.0932 12.2763 750 118.716 273.243 486.307
1988 0 62.0361 11.719 727 119.633 272.684 483.752
1989 0 65.047 11.73 763 118.325 272.717 483.444
1990 0 64.0308 10.8385 694 111.339 272.618 481.732
1991 0 66.076 9.95822 658 112.801 272.64 482.967
1992 0 68.0971 10.0885 687 112.723 271.675 483.662
1993 0 71.115 9.99789 711 113.023 271.45 481.869
1994 0 73.0798 9.387 686 113.343 271.31 482.206
1995 0 73.0956 10.3563 757 112.535 271.491 480.246
1996 0 78.1613 11.0797 866 112.258 271.926 477.4
1997 0 81.1245 11.0941 900 112.958 271.896 473.937
1998 0 86.1242 10.2062 879 112.366 271.445 477.71
1999 0 86.1284 10.2405 882 115.916 271.885 471.92
2000 0 92.0947 10.2612 945 114.149 272.098 474.486
2001 1 49.0379 10.9915 539 113.768 271.364 492.391
2002 0 51.0609 12.3774 632 117.103 271.422 491.185
2003 0 49.0167 10.6698 523 112.331 272.667 490.281
2004 0 51.0516 11.8116 603 110.74 272.706 489.594
2005 0 50.0141 10.0972 505 114.024 272.671 490.707
2006 0 54.0469 12.5077 676 107.867 272.546 490.259
2007 0 53.0314 9.40952 499 115.84 273.024 490.593
2008 0 55.0724 11.5121 634 111.604 272.588 489.525
2009 0 56.099 7.93241 445 119.512 273.148 486.762
2010 0 58.0587 10.4722 608 114.729 273.164 487.26
2011 0 59.0712 9.48008 560 115.579 273.193 487.696
2012 0 64.0479 11.8817 761 109.988 273.001 484.749
2013 1 132.532 11.4388 1516 121.41 272.512 449.408
2014 0 137.362 11.5461 1586 121.474 272.536 448.021
2015 0 140.413 10.2768 1443 123.046 272.639 450.769
2016 0 146.464 11.3748 1666 123.525 271.787 440.898
2017 0 152.438 11.034 1682 124.546 272.633 440.122
2018 0 157.312 10.6222 1671 126.761 272.55 440.503
2019 0 162.466 11.0177 1790 127.989 272.323 433.489
2020 0 167.429 10.2611 1718 128.782 272.523 433.59
2021 1 133.285 10.7064 1427 126.136 272.851 452.636
2022 1 88.2055 11.1558 984 118.924 273.153 474.034
2023 0 89.0789 11.6189 1035 119.189 273.311 468.435
2024 0 94.1252 8.23371 775 124.121 273.867 471.751
2025 0 95.0894 9.53839 907 123.126 273.938 469.477
2026 0 100.167 11.3311 1135 117.287 273.263 468.693
2027 0 100.185 11.2292 1125 118.151 273.352 467.492
2028 0 99.2587 9.32915 926 121.411 273.11 469.968
2029 0 100.188 10.0611 1008 118.063 273.233 471.216
2030 1 113.163 11.2404 1272 118.795 273.04 459.594
2031 0 116.25 11.0107 1280 117.122 273.755 462.327
2032 0 123.248 10.1259 1248 117.022 273.704 460.481
2033 0 126.322 10.5682 1335 117.772 272.765 458.434
2034 0 126.358 12.2035 1542 118.589 273.293 455.791
2035 0 129.273 11.5415 1492 121.723 272.189 451.642
2036 0 135.458 11.893 1611 119.707 272.511 451.918
2037 0 138.427 10.4604 1448 122.615 272.628 452.321
2038 0 142.391 10.0849 1436 124.014 272.887 449.593
2039 0 146.442 11.8546 1736 121.046 273.157 447.23
2040 0 146.403 9.80856 1436 127.286 273.225 445.778
2041 0 154.453 10.4433 1613 126.57 273.785 441.958
2042 0 163.322 10.8865 1778 126.337 273.909 438.192
2043 0 166.405 10.9192 1817 127.353 273.286 432.139
2044 0 173.31 12.0651 2091 125.676 273.355 430.878
2045 0 178.466 11.4812 2049 127.809 272.711 424.491
2046 0 185.352 11.4809 2128 127.773 273.034 425.267
2047 0 189.457 11.3324 2147 129.048 272.988 422.043
2048 1 57.1096 11.8719 678 111.535 273.053 489.285
2049 0 57.1102 12.9399 739 110.321 272.957 488.275
2050 0 60.151 12.4354 748 114.632 273.066 487.436
2051 0 60.0326 11.4438 687 125.541 273.886 485.814
2052 0 58.2039 10.8068 629 117.542 272.998 487.52
2053 0 61.2589 11.9656 733 115.353 272.984 485.531
2054 0 65.1073 11.5348 751 114.951 273.502 485.18
2055 0 64.2927 12.7697 821 112.099 273.629 485.091
2056 0 68.1737 11.28 769 115.443 273.874 483.915
2057 0 72.2172 11.2439 812 114.101 272.576 483.085
2058 0 73.1269 11.7604 860 112.759 273.066 483.133
2059 0 73.0836 9.37283 685 116.907 273.521 483.718
2060 0 76.1333 9.78547 745 115.915 272.914 480.905
2061 0 80.1959 11.0853 889 114.628 273.137 478.2
2062 0 82.1499 10.7121 880 114.862 273.381 478.372
2063 0 84.1817 11.3564 956 113.676 273.802 475.708
2064 0 83.1237 10.0212 833 115.736 273.63 477.241
2065 0 89.2165 10.7828 962 114.804 273.667 473.677
2066 0 91.1672 10.4094 949 114.393 272.686 473.606
2067 0 94.2236 10.9633 1033 114.588 273.182 468.963
2068 0 95.1968 11.3134 1077 115.372 273.368 466.591
2069 0 101.195 9.961 1008 117.061 272.447 466.361
2070 1 55.0427 11.1368 613 113.414 272.387 487.405
2071 0 57.0873 11.0357 630 120.344 272.998 486.117
2072 0 58.0458 10.5951 615 110.772 272.873 486.709
2073 0 61.0384 10.3705 633 109.521 273.071 487.692
2074 0 61.0302 10.6669 651 110.084 272.436 485.868
2075 0 65.1043 10.9517 713 108.079 272.149 486.079
2076 0 65.0637 10.5128 684 109.202 272.556 483.02
2077 0 67.0585 11.229 753 107.742 272.648 483.551
2078 0 70.1264 11.0087 772 108.282 272.692 481.387
2079 0 70.112 7.87312 552 114.442 272.625 480.462
2080 0 75.0515 10.9258 820 107.702 272.09 480.212
2081 0 77.0811 10.5733 815 109.189 272.636 479.53
2082 0 78.1596 10.0819 788 110.772 272.602 475.341
2083 0 81.1936 10.5304 855 109.412 272.475 477.867
2084 0 84.1242 10.7104 901 110.132 271.784 474.636
2085 0 87.2032 9.89642 863 113.125 271.91 472.155
2086 0 90.1401 10.284 927 111.406 271.879 474.284
2087 0 93.1706 10.9155 1017 111.76 272.165 473.431
2088 1 49.2069 11.8886 585 107.448 272.824 492.728
2089 0 50.2288 12.4829 627 107.955 272.498 489.207
2090 0 54.1191 12.3986 671 106.687 272.618 491.045
2091 0 55.2279 11.8056 652 108.379 272.5 489.9
2092 0 54.0896 11.6104 628 112.08 272.608 488.82
2093 0 53.1905 10.8854 579 114.672 272.822 488.831
2094 0 58.1641 11.0034 640 113.272 273.45 489.309
2095 0 58.1255 11.6816 679 113.258 273.183 488.091
2096 0 61.1374 13.0362 797 109.033 273.11 487.055
2097 0 60.0705 12.4687 749 111.697 273.036 484.911
2098 0 62.13 11.2828 701 113.689 273.041 484.839
2099 0 67.1405 13.643 916 107.594 272.85 483.787
2100 0 68.1925 12.1274 827 112.599 272.467 480.825
2101 0 69.0317 11.2122 774 114.36 272.483 483.142
2102 0 73.2642 11.5063 843 112.457 272.877 482.56
2103 0 72.123 11.7993 851 114.383 273.154 477.464
2104 0 78.1754 10.7706 842 114.455 272.536 480.03
2105 0 79.0872 11.6833 924 113.985 272.557 478.26
2106 0 83.1155 13.8241 1149 109.504 272.688 476.162
2107 0 84.118 11.5671 973 115.533 272.387 476.6
2108 0 86.2554 11.6978 1009 115.793 272.32 475.345
2109 0 88.2518 12.419 1096 116.078 272.797 470.791
2110 0 92.0806 13.2275 1218 114.84 272.708 471.399
2111 0 94.158 11.7781 1109 117.631 272.361 470.006
2112 0 97.1993 12.2532 1191 116.387 271.724 469.076
2113 0 99.244 12.1821 1209 117.706 271.854 468.544
2114 0 102.077 12.3142 1257 118.129 272.264 464.351
2115 0 106.284 12.5795 1337 117.111 272.165 460.837
2116 0 108.116 11.4322 1236 118.135 271.859 463.647
2117 0 115.319 13.1982 1522 114.829 271.681 458.477
2118 1 57.1326 10.5894 605 113.724 271.8 486.777
2119 0 61.0687 11.5935 708 111.031 271.808 485.949
2120 0 64.0739 10.2226 655 114.789 272.191 485.527
2121 0 65.1221 11.0101 717 112.227 272.185 487.202
2122 0 65.1686 11.1096 724 113.539 272.29 486.137
2123 0 68.1249 12.4918 851 110.109 272.464 485.452
2124 0 69.1326 12.9606 896 110.682 272.283 480.967
2125 0 71.0536 12.3287 876 110.508 272.097 484.862
2126 0 74.1853 11.4578 850 113.589 271.501 481.122
2127 0 76.1165 11.6663 888 113.671 272.115 480.573
2128 0 77.1365 11.9788 924 114.298 271.876 478.278
2129 0 81.1811 12.7123 1032 111.956 271.699 477.828
2130 0 83.2038 11.574 963 114.574 271.711 474.588
2131 0 86.2221 12.1431 1047 114.397 270.999 473.891
2132 0 89.2318 11.8119 1054 115.306 270.485 472.888
2133 0 93.1764 12.7715 1190 112.497 270.744 471.617
2134 0 95.3177 13.5022 1287 111.88 271.149 469.084
2135 0 98.241 12.6729 1245 115.402 270.678 468.823
2136 0 99.1708 12.302 1220 118.57 270.98 467.866
2137 0 103.198 11.57 1194 120.419 271.42 464.752
2138 0 107.309 12.8787 1382 116.438 271.3 465.199
2139 0 109.206 11.6202 1269 120.046 271.243 463.552
2140 0 115.16 13.2945 1531 114.842 271.408 463.716
2141 0 117.377 12.3448 1449 119.242 271.353 460.467
2142 0 122.412 12.0331 1473 120.645 271.212 458.393
2143 0 123.131 12.2308 1506 120.602 271.059 457.823
2144 0 130.385 12.7392 1661 119.65 271.47 454.911
2145 0 134.176 12.9383 1736 119.188 271.838 453.692
2146 0 136.306 12.8094 1746 120.955 270.997 450.796
2147 0 143.252 12.684 1817 121.303 271.121 447.969
2148 0 147.381 13.4482 1982 120.438 271.286 445.698
2149 0 151.259 12.1579 1839 123.209 271.167 446.708
2150 0 157.32 13.2278 2081 120.439 270.527 442.36
2151 0 161.186 12.6376 2037 123.309 270.92 438.658
2152 0 167.201 12.4282 2078 123.035 271.272 434.719
2153 0 173.262 12.9284 2240 122.327 271.7 435.383
2154 1 100.16 12.4101 1243 116.444 270.981 468.542
2155 0 103.091 12.2222 1260 117.895 271.137 465.307
2156 0 106.138 13.3882 1421 115.336 271.811 464.194
2157 0 112.177 12.5338 1406 115.819 272.299 464.092
2158 0 114.165 12.3593 1411 119.77 271.89 458.583
2159 0 118.122 13.1559 1554 116.445 271.589 457.968
2160 0 122.206 13.2072 1614 113.719 271.747 456.52
2161 0 125.321 11.8735 1488 116.055 271.841 455.386
2162 1 136.17 10.8027 1471 115.785 272.304 457.964
2163 0 135.26 12.5832 1702 115.749 271.982 451.131
2164 0 140.308 12.1946 1711 118.481 271.552 447.968
2165 0 143.277 12.4026 1777 118.655 271.517 446.555
2166 0 150.309 12.4211 1867 117.145 271.074 443.387
2167 0 151.308 11.6385 1761 119.957 271.443 445.14
2168 0 158.46 12.2113 1935 118.868 271.119 441.45
2169 0 162.33 12.2159 1983 118.773 271.313 438.928
2170 0 162.251 9.67636 1570 120.563 271.105 446.53
2171 0 154.277 7.48006 1154 119.3 271.842 462.445
2172 0 153.34 7.62357 1169 117.991 271.327 462.681
2173 0 154.359 9.71115 1499 116.476 271.494 455.799
2174 1 112.239 12.5535 1409 113.86 271.026 462.55
2175 1 56.041 11.2596 631 107.244 272.1 487.552
2176 0 60.0246 12.4116 745 104.774 272.752 486.349
2177 0 61.0275 10.4052 635 108.443 272.529 486.809
2178 0 65.0703 13.2165 860 103.551 272.712 484.543
2179 0 66.0697 12.1992 806 114.139 273.025 483.568
2180 0 68.0651 11.4596 780 114.553 273.254 484.101
2181 0 69.0235 11.938 824 114.944 272.684 483.106
2182 0 69.0698 11.7707 813 116.036 272.41 481.792
2183 0 72.0558 10.7278 773 117.739 272.827 480.193
2184 0 76.1535 12.4354 947 113.211 272.696 479.159
2185 0 77.0851 12.817 988 112.956 273.273 478.628
2186 0 80.0922 11.8863 952 114.529 273.082 478.659
2187 0 83.1149 12.3925 1030 114.143 272.737 475.787
2188 0 87.1008 12.7438 1110 113.103 272.032 473.495
2189 0 88.1283 12.3003 1084 115.763 272.435 471.038
2190 0 91.1785 11.7242 1069 118.355 273.251 470.565
2191 0 92.18 11.803 1088 117.891 272.964 468.506
2192 0 97.3788 12.3538 1203 116.543 272.133 468.135
2193 0 101.215 12.7748 1293 115.733 271.893 466.442
2194 1 52.1395 10.9706 572 109.629 272.913 493.857
2195 0 52.2481 10.8521 567 112.584 272.557 491.376
2196 0 54.1315 12.0447 652 110.549 271.988 489.354
2197 0 57.1586 11.7743 673 110.303 272.129 489.267
2198 0 57.0142 11.2077 639 111.444 272.377 489.678
2199 0 57.0748 10.1971 582 113.002 272.079 490.888
2200 0 59.0268 11.283 666 111.727 272.677 488.874
2201 0 61.061 10.9235 667 112.808 271.766 487.585
2202 0 62.0838 12.7247 790 108.906 271.658 487.281
2203 0 66.1142 12.0095 794 110.105 272.014 484.654
2204 0 68.1496 12.1204 826 109.15 271.961 485.161
2205 0 69.2633 12.272 850 109.564 272.018 483.053
2206 0 72.0825 11.1261 802 111.575 272.586 481.032
2207 0 76.1878 11.5504 880 109.644 272.467 482.45
2208 0 80.1615 12.1629 975 109.249 272.579 479.197
2209 0 81.1694 12.2214 992 109.94 272.278 478.297
2210 0 82.1371 11.7243 963 111.808 272.431 475.113
2211 0 84.1819 11.6652 982 113.731 272.44 475.754
2212 0 89.2523 12.291 1097 118.242 272.29 471.401
2213 0 90.2139 12.2376 1104 118.201 272.255 472.099
2214 0 95.1579 11.3601 1081 119.698 272.13 471.332
2215 1 52.0983 12.8987 672 110.946 271.391 489.769
2216 0 53.0672 11.6833 620 113.315 271.118 490.531
2217 0 53.0248 10.9571 581 117.597 271.773 488.224
2218 0 57.0605 12.5656 717 116.64 272.156 487.509
2219 0 60.0689 12.1361 729 116.838 271.307 486.18
2220 0 61.2014 12.5978 771 116.567 272.035 485.062
2221 0 61.0801 11.9188 728 119.633 272.393 484.459
2222 0 64.1663 11.8754 762 118.441 272.193 485.092
2223 0 66.0598 12.2465 809 119.618 271.756 483.011
2224 0 65.0996 11.1214 724 122.402 271.593 483.28
2225 0 71.0811 11.297 803 121.954 272.328 481.943
2226 0 76.1648 13.1032 998 119.532 272.451 479.069
2227 0 75.0825 12.746 957 121.329 272.511 479.045
2228 0 76.0655 13.094 996 121.06 271.924 478.772
2229 0 81.0874 12.9983 1054 121.061 271.534 477.044
2230 0 82.0511 14.3935 1181 119.366 271.717 474.973
2231 0 83.0448 12.3668 1027 126.158 272.207 473.393
2232 0 86.1277 13.6774 1178 124.688 271.806 471.868
2233 0 88.1429 12.7974 1128 128.147 271.475 470.663
2234 0 91.1252 12.3676 1127 129.392 272.23 468.549
2235 0 95.0745 12.811 1218 128.58 272.403 468.048
2236 0 97.0538 13.3946 1300 128.668 271.602 467.01
2237 0 101.129 13.1417 1329 129.725 271.237 466.087
2238 0 106.276 14.0483 1493 127.29 271.056 463.459
2239 0 108.27 13.7803 1492 128.958 271.391 461.014
2240 1 56.0502 11.0972 622 123.088 271.233 487.672
2241 0 60.0528 12.7055 763 119.231 271.366 485.381
2242 0 63.1105 13.3575 843 116.498 271.814 484.102
2243 0 63.0797 11.3824 718 128.997 270.744 482.67
2244 0 67.0671 12.316 826 126.052 271.023 482.138
2245 0 69.0214 13.8363 955 122.272 271.09 481.835
2246 0 69.0907 12.0566 833 126.904 271.414 481.298
2247 0 74.158 12.1362 900 124.796 271.093 481.102
2248 0 77.255 13.6431 1054 120.744 271.616 479.465
2249 0 78.2609 12.65 990 123.432 271.862 478.048
2250 0 81.0725 13.4571 1091 120.773 271.54 476.448
2251 0 81.2442 11.5331 937 125.57 271.638 476.45
2252 0 86.1945 12.669 1092 122.181 271.472 474.668
2253 0 88.1169 12.2678 1081 124.056 272.209 473.371
2254 0 90.1822 11.8427 1068 125.326 272.208 471.186
2255 0 93.1953 12.5006 1165 124.003 271.797 469.421
2256 0 95.1083 11.9443 1136 125.276 272.665 469.239
2257 0 99.3116 11.912 1183 124.212 271.618 468.133
2258 0 99.125 12.1463 1204 124.138 270.89 467.539
2259 0 106.318 11.6632 1240 123.734 271.163 467.894
2260 0 106.314 12.4348 1322 123.193 271.452 463.654
2261 0 113.083 13.2823 1502 119.412 271.238 464.911
2262 0 115.367 11.9618 1380 126.393 271.57 461.639
2263 1 62.1637 11.7593 731 118.513 271.205 490.721
2264 0 63.3116 11.0564 700 124.209 270.907 491.137
2265 0 66.1977 11.4203 756 125.069 269.918 490.548
2266 0 67.1051 12.8157 860 122.245 270.098 491.009
2267 0 70.1029 12.1964 855 124.554 269.496 490.691
2268 0 73.2225 11.827 866 125.672 269.815 490.258
2269 0 75.1056 11.1709 839 128.107 269.441 489.147
2270 0 79.1685 12.5176 991 123.714 269.067 489.835
2271 0 82.1488 12.9034 1060 123.15 269.349 487.396
2272 0 82.1526 11.4786 943 129.383 269.584 486.62
2273 0 86.1587 12.8252 1105 124.793 269.35 483.897
2274 0 88.2593 13.4603 1188 123.923 268.756 484.884
2275 0 92.134 12.471 1149 127.622 267.794 481.346
2276 0 95.2626 11.9774 1141 127.149 268.635 479.146
2277 0 98.331 13.8105 1358 123.149 268.577 478.159
2278 0 101.218 12.1718 1232 127.764 267.628 476.397
2279 0 103.34 12.4153 1283 128.581 267.33 472.979
2280 0 109.336 13.3259 1457 123.978 266.511 470.993
2281 0 114.377 13.9451 1595 121.631 265.755 470.54
2282 0 117.384 12.4463 1461 126.68 266.242 466.517
2283 0 121.242 13.3039 1613 124.434 266.776 464.786
2284 1 65.1806 11.8747 774 117.408 266.36 493.452
2285 0 67.1268 11.9624 803 121.052 265.818 491.046
2286 0 71.1243 11.965 851 118.83 265.938 490.283
2287 0 72.213 13.8064 997 115.045 266.505 490.309
2288 0 76.1519 12.2256 931 118.219 265.999 491.342
2289 0 78.0561 12.6063 984 118.142 265.496 489.31
2290 0 79.1304 12.8775 1019 118.91 266.002 488.051
2291 0 83.1718 12.7687 1062 121.143 266.13 489.837
2292 0 85.2056 12.3583 1053 124.38 265.7 486.402
2293 0 89.0615 13.0359 1161 121.068 266.439 488.25
2294 0 92.1343 13.7951 1271 120.246 266.451 485.622
2295 0 94.2528 12.1057 1141 125.672 266.564 483.407
2296 0 97.1186 12.459 1210 124.998 266.623 482.475
2297 0 99.0982 11.6551 1155 128.642 266.707 479.457
2298 0 103.277 12.8296 1325 125.634 266.423 478.981
2299 0 106.215 12.6818 1347 126.807 265.984 476.962
2300 0 108.207 12.8919 1395 126.73 265.647 475.627
2301 0 110.218 12.4662 1374 128.312 266.044 475.225
2302 0 114.158 13.2536 1513 126.399 265.625 472.767
2303 0 120.225 13.508 1624 125.025 266.294 471.039
2304 0 122.228 13.6303 1666 123.301 265.657 468.756
2305 0 127.19 12.8155 1630 125.931 266.015 466.441
2306 0 128.347 13.3778 1717 124.874 265.797 464.369
2307 0 135.232 15.1887 2054 117.868 264.695 458.763
2308 0 138.143 14.0217 1937 123.077 264.809 456.838
2309 0 141.332 13.5991 1922 125.743 264.92 453.498
2310 0 148.283 13.717 2034 125.805 264.111 448.791
2311 0 154.455 14.0623 2172 121.84 264.442 445.856
2312 1 86.1805 12.0909 1042 117.287 264.836 480.338
2313 0 88.2149 11.8461 1045 117.061 264.176 478.06
2314 0 89.1111 11.2556 1003 115.348 265.025 478.716
2315 0 93.0771 11.8934 1107 115.732 265.797 476.753
2316 0 96.0798 10.6786 1026 120.059 266.643 476.84
2317 0 99.1545 11.0131 1092 117.118 266.527 473.912
2318 0 100.179 11.8389 1186 118.332 266.47 470.887
2319 0 106.096 10.9334 1160 120.421 266.444 466.384
2320 0 107.177 11.0285 1182 121.345 266.217 459.4
2321 0 109.145 11.1869 1221 122.396 265.733 455.43
2322 0 113.237 10.3676 1174 123.167 266.486 458.382
2323 0 118.075 10.9422 1292 121.098 267.158 463.057
2324 0 122.143 10.6924 1306 122.456 267.081 457.307
2325 0 128.234 12.3602 1585 117.602 266.801 456.82
2326 0 131.245 12.2443 1607 117.787 266.421 454.64
2327 0 135.183 11.0665 1496 122.951 266.166 449.912
2328 1 77.1144 9.246 713 111.128 266.356 484.095
2329 0 79.1798 9.71208 769 109.674 266.518 481.917
2330 0 81.1533 9.15551 743 110.615 266.843 483.856
2331 0 84.1579 10.516 885 108.462 266.951 483.61
2332 0 86.125 10.0552 866 109.259 267.462 482.977
2333 0 90.2015 11.0974 1001 108.974 267.199 484.404
2334 0 91.165 11.2433 1025 110.768 267.236 477.996
2335 0 95.1398 10.6895 1017 112.658 266.778 477.378
2336 0 97.1275 11.1503 1083 112.758 266.99 477.378
2337 0 102.161 12.5782 1285 110.567 266.92 472.165
2338 0 103.17 11.767 1214 112.769 266.773 469.97
2339 0 107.202 12.3785 1327 111.977 266.878 466.729
2340 0 112.425 11.6166 1306 110.197 266.469 462.972
2341 0 112.269 10.1987 1145 116.223 266.517 462.896
2342 0 113.182 10.408 1178 117.374 266.49 462.847
2343 0 115.219 11.2482 1296 117.532 266.628 459.515
2344 0 123.114 12.8661 1584 114.279 266.763 461.427
2345 0 125.201 12.428 1556 116.258 267.181 455.214
2346 0 130.33 11.141 1452 117.808 267.141 453.798
2347 0 137.262 11.0591 1518 117.652 267.308 452.071
2348 0 142.23 12.9297 1839 112.891 266.36 451.826
2349 1 81.1476 12.3602 1003 105.158 266.781 479.786
2350 0 84.1086 11.6873 983 105.286 267.996 476.796
2351 0 86.1249 11.8433 1020 105.955 269.094 475.466
2352 0 91.0916 12.3283 1123 104.159 269.022 477.456
2353 0 94.0905 11.6058 1092 107.633 268.446 474.318
2354 0 95.0985 11.8193 1124 107.494 269.911 469.979
2355 0 96.2344 12.615 1214 106.335 269.326 470.755
2356 0 102.115 13.0441 1332 104.911 269.463 468.315
2357 0 104.089 11.4421 1191 108.762 269.01 463.675
2358 0 108.176 11.167 1208 108.772 268.996 466.142
2359 0 110.171 11.9905 1321 108.126 269.606 460.951
2360 0 111.225 11.0497 1229 110.897 269.813 458.929
2361 0 116.098 10.7237 1245 111.192 268.733 459.123
2362 1 64.0613 11.9417 765 103.434 268.898 485.161
2363 0 66.1512 11.383 753 105.882 268.529 483.12
2364 0 67.1903 11.8172 794 103.888 269.627 480.411
2365 0 67.247 10.7217 721 108.72 269.99 479.642
2366 0 70.1423 11.0917 778 108.429 269.469 477.853
2367 0 73.1712 11.6576 853 106.557 269.257 478.326
2368 0 75.0936 11.9318 896 106.145 269.328 475.568
2369 0 78.1973 13.2613 1037 102.092 269.355 477.076
2370 0 80.1357 11.1436 893 107.273 269.616 475.419
2371 0 83.1171 11.3575 944 106.783 269.899 474.328
2372 0 87.1362 12.3141 1073 105.017 269.128 472.733
2373 0 89.1149 10.8624 968 108.244 269.545 472.305
2374 0 90.1403 11.9037 1073 107.155 269.612 468.505
2375 0 95.1289 11.784 1121 106.809 269.996 467.764
2376 0 101.131 11.9153 1205 104.796 269.603 467.923
2377 0 102.132 12.151 1241 106.177 269.375 462.956
2378 1 57.0818 11.0368 630 102.637 270.281 485.929
2379 0 55.1098 9.92564 547 102.702 269.536 480.484
2380 0 58.2422 11.7097 682 105.273 269.37 482.199
2381 0 59.0681 11.2751 666 108.532 270.647 480.805
2382 0 60.0275 11.3615 682 107.336 270.654 481.132
2383 0 62.0721 11.0195 684 109.387 271.004 477.52
2384 0 64.2244 11.491 738 107.836 270.099 480.133
2385 0 66.1441 10.2957 681 108.602 270.192 480.698
2386 0 70.2523 11.0317 775 107.077 269.919 476.689
2387 0 70.1969 10.9691 770 108.701 270.456 476.542
2388 0 72.2467 10.298 744 110.991 270.219 475.007
2389 0 74.1795 10.3802 770 111.187 269.736 471.795
2390 0 76.1822 10.9999 838 109.118 269.567 469.178
2391 0 82.1796 12.497 1027 105.516 270.315 470.19
2392 0 81.1545 10.8065 877 110.734 270.178 467.575
2393 0 87.1642 12.7346 1110 105.432 269.337 467.89
2394 0 89.1219 11.8489 1056 108.045 269.6 468.695
2395 0 93.152 11.6476 1085 109.579 270.587 466.894
2396 1 49.0498 11.2743 553 103.262 270.991 488.42
2397 0 51.0637 11.1038 567 110.737 271.513 488.616
2398 0 53.1114 10.5251 559 111.63 271.689 487.202
2399 0 55.0564 12.0422 663 109.249 271.152 485.449
2400 0 57.0332 12.256 699 111.049 271.571 484.285
2401 0 56.1136 11.6906 656 113.966 271.003 484.331
2402 0 56.047 11.5082 645 114.212 270.927 483.332
2403 0 61.0463 12.0073 733 112.562 270.634 481.857
2404 0 64.0357 12.8366 822 111.762 270.601 483.291
2405 0 63.0559 11.9576 754 114.203 269.747 481.089
2406 0 65.0494 11.6373 757 114.271 270.017 481.008
2407 0 66.2065 10.6334 704 118.3 269.928 477.501
2408 0 69.111 12.111 837 115.017 269.757 477.626
2409 0 73.1035 12.4208 908 113.319 269.437 478.39
2410 0 73.2072 12.4305 910 115.113 269.942 474.49
2411 0 77.1645 12.8297 990 114.365 269.861 475.061
2412 0 79.1061 13.2986 1052 113.634 270.278 473.514
2413 0 80.1096 12.9697 1039 115.542 270.508 473.98
2414 0 85.1619 13.3275 1135 114.237 270.405 472.648
2415 0 83.1613 12.133 1009 119.893 270.969 468.94
2416 0 87.1047 13.2369 1153 117.564 270.774 468.543
2417 0 90.1098 13.0618 1177 117.106 270.539 469.055
2418 0 94.3656 13.2675 1252 117.811 270.406 465.357
2419 0 95.2258 12.5491 1195 119.618 270.371 466.922
2420 0 98.2746 13.4012 1317 118.421 270.392 462.642
2421 0 104.272 12.9948 1355 118.37 269.969 462.27
2422 0 105.321 13.9668 1471 116.594 270.496 463.456
2423 0 110.237 13.4528 1483 118.904 270.703 458.026
2424 0 114.186 14.1524 1616 116.827 270.245 458.847
2425 1 63.0492 10.6742 673 115.484 270.49 482.982
2426 0 67.1099 11.2502 755 117.174 269.96 483.972
2427 0 68.057 11.6079 790 117.099 269.953 483.144
2428 0 73.2067 13.8922 1017 107.941 270.978 478.059
2429 0 74.1777 11.9173 884 114.956 271.29 477.464
2430 0 75.198 12.4072 933 114.281 271.09 477.651
2431 0 80.1415 12.5403 1005 114.013 270.718 465.659
2432 0 82.1698 12.9488 1064 114.434 270.916 463.228
2433 0 83.1759 12.72 1058 115.888 270.647 464.133
2434 0 86.2809 13.2706 1145 114.955 270.535 463.073
2435 0 88.0858 12.9873 1144 116.078 270.599 463.375
2436 0 90.1336 12.5591 1132 117.295 271.51 464.349
2437 0 95.1604 13.9028 1323 114.208 271.007 462.089
2438 0 97.2086 13.4968 1312 114.916 271.306 468.534
2439 0 100.364 13.4809 1353 115.899 271.188 461.617
2440 0 102.386 12.951 1326 119.094 270.661 460.783
2441 0 106.311 13.357 1420 119.044 271.028 460.741
2442 0 110.384 12.7645 1409 122.828 271.506 457.154
2443 1 62.2433 12.0656 751 119.278 271.117 481.967
2444 0 65.331 12.8576 840 117.765 270.549 480.944
2445 0 66.1263 12.7332 842 115.449 270.815 478.584
2446 0 69.0845 12.5643 868 117.911 269.48 482.629
2447 0 70.0981 11.4839 805 117.59 270.404 478.483
2448 0 74.2322 11.6796 867 116.397 270.712 478.356
2449 0 75.212 11.7667 885 118.005 271.102 473.421
2450 0 77.3105 11.4603 886 118.144 271.277 475.914
2451 0 82.2862 12.8576 1058 114.777 270.618 472.471
2452 0 83.3167 12.1464 1012 116.785 270.567 471.387
2453 0 86.2312 12.6404 1090 116.154 270.581 469.296
2454 0 89.3128 12.529 1119 116.833 270.469 468.662
2455 0 93.258 13.157 1227 116.114 270.659 464.142
2456 0 93.2979 11.6401 1086 121.854 270.241 461.411
2457 0 95.3337 12.6503 1206 119.905 270.171 458.943
2458 0 99.3547 12.4805 1240 121.06 270.983 460.987
2459 0 106.273 12.9102 1372 118.008 270.718 459.49
2460 0 109.279 12.7747 1396 118.654 269.854 456.991
2461 0 110.296 12.8926 1422 119.579 269.962 455.017
2462 0 112.29 12.254 1376 125.937 269.976 449.504
2463 1 60.2039 8.75359 527 121.643 269.943 478.725
2464 0 63.1776 10.9058 689 114.718 269.723 480.128
2465 0 67.0784 11.7325 787 116.466 269.239 482.873
2466 0 68.049 12.0501 820 116.652 269.096 482.46
2467 0 71.1142 11.9807 852 112.995 268.967 480.421
2468 0 73.0458 10.6508 778 116.104 268.972 477.491
2469 0 75.0657 11.0437 829 116.195 269.672 475.053
2470 0 75.0505 11.8987 893 115.782 269.839 473.972
2471 0 80.134 11.4184 915 115.311 270.158 474.412
2472 0 81.1074 10.5786 858 116.5 269.706 474.672
2473 0 87.0592 12.9797 1130 110.576 269.865 468.802
2474 0 90.0666 12.5685 1132 110.55 269.193 467.857
2475 0 93.1227 13.2084 1230 110.089 269.965 465.536
2476 0 95.1059 12.4283 1182 112.273 270.048 467.828
2477 0 100.171 12.0294 1205 113.857 271.159 460.837
2478 0 103.057 10.5088 1083 118.717 271.127 463.639
2479 0 106.191 11.0367 1172 118.006 271.363 457.686
2480 1 58.1132 11.6325 676 104.686 272.368 482.182
2481 0 58.1514 11.642 677 109.024 271.39 483.832
2482 0 60.0464 10.6251 638 102.18 271.069 480.365
2483 0 63.1135 11.0436 697 101.083 271.062 479.496
2484 0 66.0603 11.7166 774 99.5762 271.239 479.376
2485 0 68.0607 11.3722 774 100.713 270.116 477.548
2486 0 68.1182 11.3039 770 102.305 270.765 474.891
2487 0 70.081 11.0729 776 103.649 270.406 474.254
2488 0 73.1491 11.8935 870 102.476 269.997 475.057
2489 0 73.0694 8.41666 615 110.993 270.182 471.259
2490 0 79.1006 11.3526 898 104.825 269.616 472.759
2491 0 81.2297 11.3259 920 106.624 270.447 470.728
2492 0 83.0771 13.1083 1089 103.105 270.557 468.661
2493 0 84.1309 11.2919 950 108.748 270.188 469.694
2494 0 88.1426 13.2399 1167 104.72 270.346 468.759
2495 0 88.0514 11.834 1042 110.859 269.829 464.861
2496 0 92.0667 11.1658 1028 112.94 269.662 463.986
2497 0 95.1167 11.2914 1074 113.581 270.068 462.139
2498 0 98.1261 10.4559 1026 116.423 270.293 460.732
2499 0 102.041 12.6027 1286 111.883 270.696 461.456
2500 0 107.128 12.1256 1299 114.919 271.18 459.613
2501 1 61.0804 10.5599 645 111.276 271.026 481.479
2502 0 64.0321 11.0726 709 121.867 271.76 482.124
2503 0 68.1392 12.313 839 124.634 271.9 482.041
2504 0 68.1224 13.0207 887 125.286 271.238 480.375
2505 0 71.1479 13.493 960 123.214 271.358 477.351
2506 0 73.1062 12.8307 938 125.905 271.453 475.942
2507 0 76.165 13.9434 1062 121.231 271.528 477.866
2508 0 77.1023 13.0217 1004 125.044 271.113 474.572
2509 0 80.1679 13.4343 1077 125.026 271.106 469.918
2510 0 83.2553 13.5247 1126 124.181 271.02 470.502
2511 0 84.2113 12.6943 1069 128.131 271.583 468.283
2512 0 88.34 13.799 1219 124.235 271.03 467.879
2513 0 90.2163 14.1327 1275 123.984 270.989 464.579
2514 0 93.2401 12.8807 1201 126.187 271.435 467.228
2515 0 96.2314 14.2781 1374 124.718 271.239 458.879
2516 0 97.4029 11.9093 1160 131.234 271.399 459.504
2517 0 102.31 13.459 1377 127.089 270.276 457.461
2518 0 104.323 13.6499 1424 126.28 271.411 457.043
2519 0 107.332 14.3015 1535 123.902 271.179 455.439
2520 0 110.158 14.0979 1553 120.959 271.397 448.614
2521 0 112.334 11.9733 1345 125.477 270.546 450.706
2522 0 115.289 12.846 1481 122.112 271.833 452.051
2523 1 65.1692 12.2757 800 121.069 270.995 476.635
2524 0 67.1778 11.8938 799 123.71 270.558 474.119
2525 0 69.2483 12.5924 872 122.338 271.722 473.826
2526 0 71.1429 12.51 890 122.408 271.917 474.855
2527 0 71.1728 12.0833 860 126.636 271.371 472.936
2528 0 76.2364 14.0353 1070 119.719 271.063 474.768
2529 0 74.1921 11.9285 885 127.119 271.371 474.499
2530 0 78.2545 12.1527 951 126.311 271.043 473.64
2531 0 82.4034 13.2033 1088 123.582 270.625 470.502
2532 0 84.2552 13.5303 1140 123.744 271.121 467.966
2533 0 88.2339 14.4616 1276 120.604 270.802 467.485
2534 0 90.3026 13.9088 1256 122.865 271.495 466.104
2535 0 95.2314 13.3359 1270 121.915 271.271 466.423
2536 0 97.2284 12.9078 1255 123.586 270.884 464.288
2537 0 99.1863 12.5219 1242 125.243 271.16 462.316
2538 1 55.1919 10.237 565 124.779 270.558 485.373
2539 0 57.1233 12.3943 708 119.264 271.508 483.746
2540 0 58.1573 11.9847 697 121.727 271.281 481.862
2541 0 59.0985 12.3184 728 120.949 272.38 483.272
2542 0 58.1271 10.8727 632 115.198 272.247 482.821
2543 0 60.169 11.4178 687 115.028 272.774 482.457
2544 0 61.0731 11.0032 672 113.518 272.507 483.458
2545 0 64.0649 11.0669 709 113.113 272.657 480.824
2546 0 67.0991 12.6082 846 109.058 272.635 480.251
2547 0 69.1166 12.2112 844 110.732 272.194 478.538
2548 0 71.1646 11.3821 810 111.38 272.704 479.179
2549 0 73.0781 11.4261 835 111.943 271.704 477.6
2550 0 74.1297 11.7497 871 111.178 271.511 476.794
2551 0 78.0927 12.2163 954 110.328 272.516 474.251
2552 0 80.144 12.2904 985 110.491 272.981 473.046
2553 0 83.202 12.1391 1010 110.726 272.011 471.599
2554 0 85.081 11.8005 1004 112.529 272.691 470.931
2555 0 85.2151 12.2748 1046 112.892 272.86 468.733
2556 0 91.1033 12.3596 1126 111.591 272.24 467.275
2557 0 96.103 14.0995 1355 107.863 271.812 466.685
2558 0 97.09 14.2445 1383 109.122 272.129 465.427
2559 0 102.17 13.1447 1343 111.788 272.791 462.496
2560 0 102.2 12.3189 1259 115.496 272.217 462.483
2561 0 107.126 13.1061 1404 113.72 273.016 460.497
2562 0 111.217 13.4691 1498 114.123 272.237 457.052
2563 0 112.17 12.7931 1435 116.125 272.477 454.969
2564 1 60.1105 11.0131 662 117.177 272.251 482.441
2565 0 64.1912 12.3849 795 113.775 271.922 482.055
2566 0 65.1863 11.9043 776 101.193 272.049 477.986
2567 0 66.0805 11.7886 779 101.237 272.855 477.904
2568 0 68.1259 12.5209 853 100.264 271.816 475.996
2569 0 71.1015 12.7002 903 99.8173 271.633 474.606
2570 0 73.0489 12.0741 882 100.883 271.995 472.937
2571 0 75.0889 10.9071 819 103.269 272.031 472.726
2572 0 77.0639 11.9771 923 102.263 272.035 469.088
2573 0 81.1163 12.5745 1020 100.813 271.682 468.333
2574 0 85.0989 12.1506 1034 101.526 272.143 465.99
2575 0 84.1414 11.4569 964 104.339 271.284 465.058
2576 0 87.1284 11.4544 998 103.079 272.265 463.886
2577 0 91.1322 12.4215 1132 100.761 271.554 464.099
2578 0 93.1125 11.9318 1111 102.309 271.435 463.167
2579 0 97.2122 12.8893 1253 100.548 270.955 461.911
2580 0 97.2584 12.1326 1180 103.224 271.388 460.47
2581 0 102.181 13.0161 1330 102.07 271.605 456.152
2582 0 103.079 12.1848 1256 105.229 271.351 456.392
2583 0 107.075 12.3838 1326 104.998 271.446 453.456
2584 0 111.151 12.7844 1421 104.27 271.324 453.234
2585 0 116.09 12.5075 1452 105.599 271.194 451.889
2586 1 62.0796 11.6463 723 102.028 271.16 479.051
2587 0 63.1175 10.5517 666 107.407 271.165 472.114
2588 0 66.0422 11.5229 761 106.566 271.757 473.121
2589 0 70.3557 12.1952 858 103.955 271.824 474.458
2590 0 70.1872 12.1105 850 106.131 271.172 472.684
2591 0 72.1854 12.4817 901 106.153 271.233 473.982
2592 0 76.0313 12.6395 961 105.508 270.472 473.319
2593 0 79.1407 11.9913 949 105.202 271.552 468.913
2594 0 84.1053 14.47 1217 99.0288 271.186 467.705
2595 0 87.0671 13.6446 1188 101.344 271.487 465.976
2596 0 88.1557 13.4535 1186 103.754 272.027 464.384
2597 0 89.1556 13.3026 1186 107.326 272.301 462.809
2598 0 92.1844 12.8547 1185 109.984 271.302 461.343
2599 0 96.1084 14.3484 1379 107.336 271.88 459.476
2600 0 101.14 14.3167 1448 106.903 271.929 457.669
2601 0 104.132 13.915 1449 109.115 271.872 455.028
2602 0 104.221 13.433 1400 119.836 271.941 461.519
2603 0 109.275 13.4065 1465 120.496 272.378 455.954
2604 1 61.0426 12.0572 736 120.928 271.969 480.375
2605 0 63.1515 11.8604 749 106.995 271.573 476.21
2606 0 66.0875 12.0446 796 104.981 272.353 476.381
2607 0 67.1545 11.749 789 106.347 272.599 477.101
2608 0 69.0802 12.0295 831 107.189 271.529 474.588
2609 0 70.106 11.1545 782 108.919 271.955 474.058
2610 0 73.1235 11.5284 843 108.693 271.921 472.757
2611 0 77.2117 12.7701 986 106.081 271.553 471.483
2612 0 81.0577 12.0778 979 107.224 271.662 471.905
2613 0 85.1268 13.709 1167 104.494 271.051 468.134
2614 0 88.1349 13.2411 1167 105.56 271.562 467.18
2615 0 91.1373 11.7954 1075 108.416 273.146 467.473
2616 0 93.0892 13.4924 1256 105.625 272.166 464.369
2617 0 98.194 12.7299 1250 108.021 271.55 462.16
2618 0 102.181 13.3978 1369 107.748 272.118 460.008
2619 0 103.195 12.5588 1296 112.443 272.194 456.228
2620 0 110.246 13.878 1530 110.103 271.807 457.369
2621 1 57.0586 11.8475 676 112.643 271.768 485.315
2622 0 58.0231 13.3395 774 110.901 270.987 486.296
2623 0 60.0408 14.0238 842 109.044 271.316 486.634
2624 0 63.1621 14.1541 894 104.473 270.522 486.215
2625 0 63.0909 13.3934 845 106.892 270.698 484.986
2626 0 66.1162 14.1418 935 104.526 269.873 484.99
2627 0 67.0772 11.9862 804 109.619 270.316 485.193
2628 0 70.0815 13.5414 949 105.957 270.266 483.35
2629 0 73.1682 13.0385 954 106.766 269.434 482.659
2630 0 77.2759 14.6359 1131 102.561 269.488 481.301
2631 0 78.1408 13.5525 1059 106.139 269.872 479.441
2632 0 81.0612 13.4836 1093 106.005 269.454 480.313
2633 0 83.2978 13.2657 1105 107.885 269.541 475.927
2634 0 87.2827 14.3786 1255 104.561 269.43 474.932
2635 0 92.2039 13.8606 1278 105.329 269.096 474.759
2636 0 95.1845 14.4456 1375 104.698 269.75 473.5
2637 1 55.0706 12.8925 710 112.13 269.468 490.768
2638 0 56.0937 13.8162 775 110.81 269.314 490.022
2639 0 59.0864 14.4703 855 106.074 269.311 489.95
2640 0 61.0392 13.8436 845 105.644 269.515 490.059
2641 0 61.0545 12.1694 743 110.47 269.731 488.44
2642 0 65.1493 14.5972 951 104.463 269.869 488.162
2643 0 67.0883 14.8163 994 103.286 269.606 486.264
2644 0 68.0805 13.7484 936 107.375 269.627 485.814
2645 0 71.0382 13.6124 967 107.969 268.942 484.156
2646 0 71.1031 13.164 936 109.725 269.543 482.585
2647 0 74.1237 13.5449 1004 109.569 269.709 482.653
2648 0 76.1121 14.4129 1097 106.903 269.236 483.899
2649 0 80.066 13.4139 1074 109.587 268.825 479.247
2650 0 83.2044 15.2636 1270 105.683 269.83 479.262
2651 0 87.0989 15.4192 1343 104.43 269.249 477.459
2652 0 88.071 15.056 1326 107.069 268.597 476.224
2653 0 92.1959 14.7729 1362 107.974 268.728 473.203
2654 0 95.2439 14.6991 1400 108.381 268.828 473.186
2655 1 50.0686 12.7625 639 116.607 269 494.053
2656 0 50.0891 13.3562 669 114.731 269.3 492.571
2657 0 54.1163 13.7297 743 103.236 269.322 491.065
2658 0 56.1463 13.9991 786 102.706 269.385 488.833
2659 0 58.0955 13.9253 809 102.942 269.111 488.744
2660 0 58.1375 13.1069 762 106.37 269.205 486.78
2661 0 61.1747 13.8129 845 103.407 269.834 487.585
2662 0 62.1471 13.7577 855 103.717 269.841 488.873
2663 0 65.2026 14.3859 938 103.706 269.328 485.497
2664 0 66.2114 13.9251 922 110.473 269.793 486.209
2665 0 69.1836 13.9628 966 110.867 269.443 483.111
2666 0 71.0966 14.7968 1052 109.959 270.02 482.196
2667 0 73.1971 12.7601 934 116.293 269.695 481.525
2668 0 74.0514 14.0578 1041 114.889 269.098 479.283
2669 0 77.0965 14.7348 1136 114.177 269.812 478.129
2670 0 79.1619 13.5671 1074 117.287 270.143 476.826
2671 0 79.1719 13.9949 1108 119.056 269.902 475.503
2672 0 84.3772 14.9092 1258 115.068 269.755 475.19
2673 0 87.191 14.8639 1296 115.895 269.302 473.031
2674 0 90.1982 14.7342 1329 116.644 269.375 471.319
2675 0 92.1682 14.6254 1348 116.944 269.864 471.02
2676 0 94.3521 14.1491 1335 118.751 269.67 470.56
2677 1 45.11 14.0324 633 119.975 270.156 493.294
2678 0 49.0846 13.7314 674 119.542 270.102 492.531
2679 0 50.1207 14.086 706 121.424 270.334 493.279
2680 0 51.1039 14.8717 760 121.116 270.336 490.683
2681 0 53.153 14.1855 754 122.259 269.94 491.671
2682 0 55.1203 14.4774 798 122.293 270.404 490.054
2683 0 58.1064 15.6437 909 119.098 270.253 488.821
2684 0 58.0292 14.8718 863 123.673 270.202 487.574
2685 0 60.0691 14.5166 872 124.686 270.24 488.833
2686 0 61.2935 14.4714 887 126.79 270.324 487.242
2687 0 66.0881 15.4491 1021 123.076 269.953 486.148
2688 0 69.2236 14.8793 1030 124.343 270.294 486.246
2689 0 71.1959 15.5908 1110 124.918 270.542 483.416
2690 0 72.0706 14.9021 1074 128.062 270.972 482.751
2691 0 75.137 15.4518 1161 127.978 269.963 481.404
2692 0 79.1037 16.0296 1268 125.957 270.528 480.34
2693 0 82.1467 16.3853 1346 125.261 270.961 480.952
2694 0 84.1573 16.7306 1408 126.044 270.362 478.508
2695 0 86.0843 16.5535 1425 128.183 269.573 476.15
2696 0 89.1145 16.3273 1455 128.801 270.383 476.553
2697 0 91.15 16.237 1480 129.764 270.002 474.019
2698 0 94.2042 16.1352 1520 131.068 269.755 472.693
2699 0 102.257 20.5853 2105 105.768 269.905 468.674
2700 0 103.154 16.0245 1653 130.122 269.458 471.148
2701 1 54.0592 14.1697 766 139.351 270.413 492.899
2702 0 56.0534 14.2364 798 142.098 269.841 489.589
2703 0 59.0409 14.9727 884 138.122 270.084 489.617
2704 0 62.0274 15.9768 991 134.261 270.251 489.775
2705 0 62.0383 14.7812 917 139.468 270.046 488.358
2706 0 65.0476 14.451 940 140.14 269.716 487.506
2707 0 68.0304 16.0811 1094 134.64 270.113 486.623
2708 0 69.1522 14.5042 1003 140.459 269.573 485.075
2709 0 71.2613 15.9834 1139 138.009 269.462 482.651
2710 0 75.0493 15.27 1146 137.95 269.294 483.102
2711 0 76.1116 16.1736 1231 136.698 270.042 480.34
2712 0 78.0825 16.4441 1284 136.639 269.407 479.464
2713 0 82.0888 15.4223 1266 138.445 269.612 479.232
2714 0 83.1327 15.77 1311 138.241 269.783 478.705
2715 0 85.0806 15.8673 1350 138.667 269.217 476.668
2716 0 88.053 16.2289 1429 137.46 268.975 474.902
2717 0 92.1302 16.5852 1528 135.438 269.757 472.28
2718 0 94.2045 16.305 1536 136.769 270.351 471.184
2719 0 97.1646 15.5818 1514 138.567 269.701 469.235
2720 0 101.048 15.9924 1616 136.334 270.13 466.473
2721 0 104.123 15.7122 1636 136.645 270.156 465.18
2722 0 110.124 17.9888 1981 128.722 269.337 461.492
2723 0 114.298 16.107 1841 132.67 269.677 460.771
2724 0 118.115 15.7473 1860 133.003 270.176 458.523
2725 0 124.24 16.444 2043 129.852 269.754 455.322
2726 0 127.246 16.0555 2043 130.59 270.469 452.953
2727 0 132.252 14.6085 1932 134.842 270.144 452.075
2728 0 137.211 15.6548 2148 132.359 269.934 448.291
2729 0 144.255 15.4171 2224 133.093 270.19 446.575
2730 1 72.0938 14.384 1037 137.319 270.34 476.807
2731 0 75.0461 14.3245 1075 138.078 270.002 473.239
2732 0 77.0916 13.8018 1064 138.956 269.828 472.631
2733 0 81.0514 14.4106 1168 137.276 269.655 470.152
2734 0 82.1492 14.2667 1172 138.879 270.02 469.788
2735 0 85.1391 14.0359 1195 139.473 269.029 468.792
2736 0 88.1789 14.6067 1288 138.877 269.27 465.631
2737 0 91.3556 14.1754 1295 140.249 269.447 465.878
2738 0 95.323 14.3302 1366 139.57 269.662 466.04
2739 0 100.277 14.8888 1493 137.688 269.996 463.399
2740 0 104.228 14.6121 1523 139.409 270.001 462.185
2741 0 107.381 14.4625 1553 141.68 269.977 459.95
2742 0 110.354 13.656 1507 143.134 269.973 458.019
2743 0 112.269 13.9219 1563 141.66 269.934 452.919
2744 1 61.1446 10.4343 638 127.898 270.497 480.509
2745 0 66.1866 11.7093 775 130.905 270.902 482.928
2746 0 65.1368 10.7159 698 125.33 271.352 483.122
2747 0 66.0731 10.0192 662 126.837 270.988 483.142
2748 0 70.0944 10.4288 731 127.088 271.272 481.629
2749 0 72.0349 9.16222 660 128.826 271.45 481.736
2750 0 76.0999 11.2352 855 124.317 270.464 478.67
2751 0 78.1435 10.212 798 127.762 270.789 475.716
2752 0 79.1077 9.44282 747 126.727 271.55 478.21
2753 0 84.1379 10.7443 904 125.017 271.726 475.372
2754 0 87.0912 10.4947 914 126.463 271.277 471.127
2755 0 90.0986 10.7993 973 126.964 271.249 469.119
2756 0 94.1382 9.64539 908 129.899 271.631 468.25
2757 0 97.082 9.99156 970 126.716 271.606 467.179
2758 1 53.1236 9.65673 513 114.99 271.84 489.575
2759 0 54.1312 10.1974 552 108.884 271.487 489.525
2760 0 55.1505 11.8585 654 106.164 271.165 487.742
2761 0 56.1179 8.49996 477 113.57 271.294 490.09
2762 0 56.118 9.31965 523 112.6 271.933 488.478
2763 0 59.1274 9.65711 571 112.427 271.532 485.285
2764 0 62.1432 9.52638 592 111.659 271.451 486.726
2765 0 66.1428 10.3261 683 110.432 271.379 483.966
2766 0 66.1251 8.90736 589 113.17 271.197 484.414
2767 0 65.1801 8.37678 546 114.712 271.341 485.117
2768 0 71.2545 10.3572 738 111.049 271.856 483.241
2769 0 71.1984 9.55077 680 114.521 272.137 480.057
2770 0 76.1583 10.7145 816 111.453 271.359 478.312
2771 0 78.2344 10.0595 787 112.704 271.925 477.588
2772 0 79.1349 8.66874 686 114.698 272.085 478.421
2773 0 81.2431 9.50234 772 114.889 271.215 473.855
2774 0 86.1976 9.39701 810 114.02 270.772 475.056
2775 0 87.0902 8.18692 713 115.353 270.993 476.299
2776 0 92.3362 10.0827 931 113.765 271.316 470.415
2777 0 95.2151 9.89339 942 112.488 270.931 470.601
2778 1 49.1105 9.0001 442 107.593 271.934 495.197
2779 0 50.1485 8.71412 437 108.657 271.064 494.577
2780 0 52.1853 9.50459 496 108.736 271.403 490.891
2781 0 54.2426 10.8586 589 106.992 271.022 489.107
2782 0 54.1502 8.31022 450 111.911 270.913 492.184
2783 0 56.1537 8.65482 486 111.519 270.885 488.652
2784 0 59.1594 10.2604 607 109.476 270.507 487.094
2785 0 61.2749 11.2281 688 107.711 270.208 485.24
2786 0 62.1646 11.0513 687 107.852 270.354 487.652
2787 0 67.2113 10.7571 723 109.134 270.148 485.033
2788 0 68.2928 10.3378 706 110.837 270.442 483.462
2789 0 72.2633 11.2782 815 109.415 270.147 482.978
2790 0 72.2946 10.3742 750 112.875 270.68 480.984
2791 0 77.4777 11.8744 920 109.86 270.46 479.607
2792 0 79.2636 12.5657 996 114.828 270.42 476.552
2793 0 80.2347 12.3887 994 115.873 269.489 477.513
2794 0 84.2111 12.8843 1085 114.853 269.521 475.326
2795 0 84.3375 12.1061 1021 118.638 270.006 474.12
2796 0 87.1747 12.2054 1064 119.005 269.24 473.041
2797 0 91.6101 14.5945 1337 112.771 268.9 470.145
2798 0 95.588 13.2234 1264 116.745 269.556 468.791
2799 0 97.4911 12.8832 1256 118.767 268.753 463.826
2800 1 51.3361 12.5837 646 112.345 269.573 486.67
2801 0 52.4647 10.9216 573 119.277 269.958 485.586
2802 0 54.4783 11.7661 641 118.544 270.105 483.97
2803 0 55.2032 12.6985 701 116.902 270.051 489.207
2804 0 56.1838 11.9963 674 121.009 270.42 489.822
2805 0 57.1324 13.4249 767 117.898 269.824 488.544
2806 0 61.1547 13.3105 814 117.366 270.13 486.628
2807 0 61.1334 12.53 766 121.869 270.636 485.05
2808 0 65.0728 14.2148 925 116.425 270.959 484.399
2809 0 65.0584 13.6646 889 120.042 272.008 482.273
2810 0 67.1472 13.2098 887 120.953 272.194 482.39
2811 0 70.1189 13.9192 976 119.642 271.601 480.713
2812 0 72.2775 13.296 961 120.812 271.95 479.697
2813 0 75.2523 13.0361 981 121.443 271.431 478.238
2814 0 76.32 13.011 993 121.824 270.739 478.436
2815 0 78.3378 13.5567 1062 122.144 270.044 476.187
2816 0 81.4865 13.0451 1063 122.562 270.792 476.026
2817 0 84.2379 13.4975 1137 122.65 270.858 472.617
2818 0 87.3294 12.6761 1107 124.916 270.05 472.674
2819 0 90.2414 14.2728 1288 119.916 270.13 472.845
2820 0 93.2229 14.4385 1346 119.412 270.577 471.541
2821 0 95.1928 13.6775 1302 122.587 270.065 470.257
2822 0 100.186 13.6347 1366 121.386 270.335 468.561
2823 0 102.349 14.1281 1446 120.591 270.227 466.576
2824 0 107.217 14.1303 1515 119.83 270.041 466.072
2825 0 110.319 14.5215 1602 119.439 270.054 463.999
2826 0 112.278 13.8228 1552 122.767 269.982 460.898
2827 1 57.2571 11.7889 675 119.97 270.277 489.185
2828 0 60.091 12.8638 773 118.657 270.157 487.075
2829 0 61.1265 12.7931 782 120.301 270.277 487.049
2830 0 64.074 13.5625 869 117.862 270.148 485.883
2831 0 66.0813 13.4531 889 117.974 270.286 484.656
2832 0 69.0852 14.1564 978 115.937 270.276 482.848
2833 0 71.1075 13.5569 964 118.151 269.85 482.145
2834 0 73.085 14.1206 1032 117.381 270.022 481.3
2835 0 76.1218 13.2288 1007 119.411 270.792 480.083
2836 0 79.2684 14.1292 1120 116.577 269.927 478.749
2837 0 79.1555 14.1746 1122 118.2 269.947 476.539
2838 0 84.1815 14.8014 1246 114.593 269.503 476.99
2839 0 86.3249 13.5534 1170 117.656 268.879 474.792
2840 0 88.4106 12.1705 1076 121.254 268.571 470.916
2841 0 92.3174 14.4393 1333 114.945 268.977 468.882
2842 0 95.3287 13.8573 1321 117.298 268.833 466.324
2843 0 96.355 13.0974 1262 119.675 268.675 465.303
2844 0 101.409 13.7661 1396 117.562 269.102 464.187
2845 0 104.467 13.1812 1377 117.969 268.004 465.688
2846 1 56.2718 12.4041 698 116.986 268.289 484.117
2847 0 58.1487 12.6572 736 116.292 268.982 483.764
2848 0 60.3794 12.3387 745 117.181 269.244 482.054
2849 0 63.2837 12.2148 773 116.992 268.93 480.78
2850 0 66.2115 12.6111 835 115.222 269.278 479.844
2851 0 66.2201 12.5038 828 117.116 269.301 479.153
2852 0 70.3165 13.937 980 112.636 269.264 478.195
2853 0 71.2096 13.2707 945 115.268 269.406 475.413
2854 0 76.3627 12.4013 947 116.105 269.338 474.275
2855 0 78.3557 13.745 1077 113.158 269.264 473.385
2856 0 80.336 12.5846 1011 115.753 269.388 469.703
2857 0 83.4055 12.5531 1047 117.491 268.968 468.507
2858 0 87.2276 13.3329 1163 115.581 268.831 467.58
2859 0 91.1788 13.479 1229 115.213 268.011 466.44
2860 0 92.363 13.3387 1232 115.852 267.981 467.071
2861 0 95.2432 14.6677 1397 112.969 267.822 465.193
2862 0 99.3034 14.1083 1401 113.556 268.304 460.732
2863 1 50.1553 10.7267 538 113.885 268.433 487.736
2864 0 53.1931 10.7721 573 112.949 267.735 487.155
2865 0 55.2117 12.5517 693 109.684 268.087 485.475
2866 0 58.1609 11.7949 686 114.739 267.758 486.681
2867 0 62.0445 11.3467 704 114.3 269.399 488.453
2868 0 60.0388 12.7584 766 112.615 269.89 487.721
2869 0 64.0308 12.9 826 112.439 269.896 484.349
2870 0 65.033 11.8401 770 114.623 269.799 483.19
2871 0 69.0598 13.8286 955 108.564 270.336 482.955
2872 0 70.0392 12.4644 873 112.832 269.9 482.64
2873 0 70.0874 12.3275 864 115.142 269.664 480.213
2874 0 72.2827 14.1943 1026 110.866 269.321 477.314
2875 0 77.168 14.4879 1118 108.328 270.235 477.959
2876 0 78.2111 13.8344 1082 112.949 269.321 474.791
2877 0 81.2354 13.3316 1083 112.825 269.498 474.742
2878 0 83.2565 14.6415 1219 109.023 268.852 472.518
2879 0 85.2472 14.1588 1207 110.448 268.672 472.188
2880 0 87.2277 13.2985 1160 112.914 268.736 469.532
2881 0 90.1949 13.3821 1207 112.56 268.481 467.747
2882 0 95.1587 14.8068 1409 107.938 268.982 466.563
2883 0 95.2515 13.7321 1308 111.454 268.878 465.155
2884 0 100.21 15.4575 1549 105.635 269.305 465.95
2885 0 105.283 14.1334 1488 109.103 268.798 458.46
2886 0 106.233 14.2046 1509 109.225 269.292 460.397
2887 0 105.166 11.2774 1186 115.672 268.539 464.138
2888 0 109.222 11.0326 1205 110.328 268.404 455.007
2889 1 59.0516 9.38163 554 99.0939 269.653 485.171
2890 0 60.0459 10.7584 646 99.13 267.833 482.45
2891 0 60.1698 10.6864 643 99.9176 267.417 477.089
2892 0 63.136 10.2952 650 98.0815 267.734 481.438
2893 0 65.1293 10.2719 669 99.2765 268.012 477.553
2894 0 69.0998 11.0854 766 97.6123 268.79 476.779
2895 0 71.1292 11.5283 820 97.1183 268.621 473.421
2896 0 73.0568 11.8264 864 92.691 268.525 474.306
2897 0 76.1688 10.3848 791 95.2769 268.96 472.014
2898 0 79.1295 10.9441 866 94.6155 269.033 472.838
2899 0 80.1686 10.6027 850 96.1776 268.529 472.504
2900 0 82.0652 11.7711 966 94.9783 268.711 466.79
2901 0 84.2196 10.0689 848 98.1132 268.537 467.893
2902 0 87.1783 11.1725 974 95.5185 268.074 465.794
2903 0 87.1677 9.64807 841 99.8799 268.64 454.244
2904 0 91.2714 9.71826 887 101.428 269.043 453.503
2905 0 95.2265 10.5853 1008 101.127 268.438 455.042
2906 0 102.16 10.3367 1056 102.589 268.415 453.452
2907 0 103.278 10.0312 1036 106.622 268.337 456.765
2908 0 111.369 11.188 1246 104.437 268.514 458.74
2909 0 116.31 12.3894 1441 102.786 268.795 455.164
2910 1 62.2488 11.3095 704 99.0554 268.673 481.27
2911 0 64.1343 10.9302 701 100.2 268.106 485.148
2912 0 66.2464 11.9554 792 100.64 268.381 480.254
2913 0 69.24 11.1496 772 101.925 268.405 479.99
2914 0 72.1597 12.9297 933 97.8789 268.326 480.378
2915 0 72.3951 12.2246 885 101.112 267.783 477.212
2916 0 76.1627 11.1341 848 103.754 268.295 477.501
2917 0 79.4861 11.7631 935 102.554 268.409 476.153
2918 0 80.2881 11.6082 932 104.646 268.621 474.052
2919 0 83.3863 11.1289 928 105.178 268.697 475.22
2920 0 87.4546 13.1039 1146 102.438 268.333 472.198
2921 0 88.33 12.9628 1145 104.982 267.604 468.039
2922 0 98.4249 12.5476 1235 104.746 268.332 466.968
2923 0 99.4782 13.2391 1317 102.864 268.892 468.611
2924 0 100.348 12.6261 1267 106.844 268.422 465.709
2925 0 101.282 12.1147 1227 107.885 268.61 464.12
2926 0 107.327 11.7678 1263 107.63 268.97 464.42
2927 0 110.29 11.7418 1295 109.093 268.726 462.474
2928 0 110.22 12.3844 1365 108.752 269.024 458.295
2929 1 56.0958 11.7299 658 102.134 268.471 486.067
2930 0 57.1004 12.049 688 97.2791 267.69 485.797
2931 0 57.1021 11.173 638 101.585 268.201 485.461
2932 0 62.0589 12.5848 781 96.5967 267.355 481.36
2933 0 64.1907 12.4629 800 97.5487 267.123 483.498
2934 0 64.0537 12.9423 829 97.6417 267.627 484.233
2935 0 67.0512 12.7514 855 98.5018 267.08 480.722
2936 0 69.0576 14.1476 977 96.5271 267.442 480.779
2937 0 70.0654 13.5017 946 98.5803 267.956 479.202
2938 0 72.0286 13.1059 944 105.136 267.084 479.852
2939 0 75.0351 13.0339 978 105.044 266.902 476.997
2940 0 76.0475 13.7414 1045 104.166 267.24 476.857
2941 0 79.0932 13.5536 1072 104.613 267.494 475.4
2942 0 82.096 13.9105 1142 104.131 266.804 474.839
2943 0 83.0281 12.2127 1014 108.964 267.225 472.879
2944 0 85.0322 12.1719 1035 108.923 267.31 473.955
2945 0 90.0381 13.0722 1177 107.025 267.246 469.704
2946 0 92.1849 11.9217 1099 107.974 267.5 472.547
2947 0 96.1284 13.2427 1273 106.34 267.918 468.876
2948 0 99.1241 13.0947 1298 107.824 267.102 467.228
2949 1 55.077 12.0195 662 108.514 266.601 485.956
2950 0 56.0979 11.373 638 105.74 266.71 484.608
2951 0 58.0497 11.1629 648 107.762 266.755 484.406
2952 0 59.0294 13.0782 772 104.788 266.535 483.486
2953 0 57.0937 11.3673 649 106.461 266.784 486.234
2954 0 63.024 11.456 722 103.751 266.957 486.364
2955 0 64.0859 11.8435 759 103.188 266.939 484.987
2956 0 66.0657 11.6248 768 105.21 267.206 481.641
2957 0 69.0418 11.0078 760 106.317 267.126 482.52
2958 0 68.0736 10.6943 728 107.714 267.115 483.335
2959 0 71.1371 10.529 749 109.971 266.744 479.192
2960 0 74.0918 11.8097 875 107.32 267.397 477.335
2961 0 77.0881 10.4556 806 109.278 267.555 477.295
2962 0 80.1588 12.5376 1005 105.338 267.636 475.961
2963 0 80.1645 11.6635 935 107.65 267.427 474.978
2964 0 84.1567 13.1422 1106 105.086 266.971 473.221
2965 0 83.0759 11.7363 975 109.341 267.477 472.487
2966 0 92.0911 12.5745 1158 108.104 266.996 469.073
2967 0 94.1661 13.1151 1235 108.38 267.247 466.929
2968 0 99.1843 12.2499 1215 109.771 266.961 466.464
2969 0 100.194 11.8471 1187 111.507 266.842 466.344
2970 1 54.0881 10.7602 582 113.431 266.907 487.134
2971 0 55.1247 11.3561 626 109.372 267.573 485.486
2972 0 59.0819 10.5278 622 102.532 267.497 482.973
2973 0 59.0555 11.4977 679 101.632 267.884 480.526
2974 0 60.1179 11.361 683 102.307 267.972 480.037
2975 0 60.1339 10.6429 640 104.562 267.347 481.281
2976 0 63.1186 10.4723 661 105.011 267.909 478.781
2977 0 66.0909 10.7277 709 103.162 268.361 477.542
2978 0 68.106 12.2016 831 101.123 268.324 475.751
2979 0 70.1223 11.0806 777 104.218 268.281 478.537
2980 0 72.1544 11.7803 850 103.12 268.682 478.787
2981 0 75.3016 12.3636 931 101.895 268.781 473.518
2982 0 79.1575 11.4582 907 103.131 268.616 473.09
2983 0 79.1203 11.5394 913 104.306 269.181 471.883
2984 0 82.1462 10.4326 857 104.651 269.891 468.968
2985 0 85.2956 10.7626 918 103.557 269.542 468.286
2986 0 88.2526 10.3793 916 105.359 269.14 464.311
2987 0 90.1882 11.2542 1015 104.591 268.604 463.291
2988 0 95.3118 11.9398 1138 103.141 268.638 464.302
2989 0 98.2945 11.4248 1123 105.93 268.453 462.378
2990 0 102.172 10.8836 1112 108.086 268.36 463.146
2991 1 52.036 9.76247 508 100.904 269.88 485.663
2992 0 56.0352 12.046 675 106.375 266.932 488.665
2993 0 58.168 11.7075 681 107.386 267.301 486.743
2994 0 60.0349 11.9431 717 105.251 267.397 486.103
2995 0 61.0291 11.7157 715 106.239 267.14 484.172
2996 0 62.0649 11.8747 737 105.178 267.053 484.533
2997 0 63.1011 11.4578 723 106.737 267.668 481.754
2998 0 67.0434 12.8872 864 103.616 267.26 480.463
2999 0 69.0747 13.3189 920 102.434 267.363 480.551
3000 0 70.0757 11.4305 801 107.858 268.568 481.258
3001 0 71.0304 11.1079 789 108.115 269.18 480.442
3002 0 74.2273 12.0037 891 106.994 268.783 479.485
3003 0 77.1162 12.7729 985 105.549 269.377 477.956
3004 0 81.1401 13.5322 1098 102.268 268.304 477.324
3005 0 82.2911 12.9054 1062 104.9 268.427 474.612
3006 0 85.1283 11.8175 1006 106.3 267.487 476.099
3007 0 87.1513 13.4938 1176 102.869 268.207 471.825
3008 0 90.1594 14.0307 1265 103.503 267.193 467.889
3009 0 93.2341 12.474 1163 108.238 266.916 468.684
3010 0 96.4214 13.3891 1291 106.894 267.84 466.475
3011 0 99.2217 12.0639 1197 110.267 268.023 466.404
3012 1 55.1541 10.2984 568 111.988 268.275 486.9
3013 0 57.1147 11.083 633 109.014 268.852 478.117
3014 0 57.0502 11.4636 654 98.3379 268.885 478.797
3015 0 57.0739 10.2674 586 101.973 268.735 477.483
3016 0 59.0663 10.2766 607 102.712 269.061 474.456
3017 0 60.0638 9.12363 548 104.765 269.042 475.46
3018 0 65.0322 10.8254 704 100.443 269.148 475.058
3019 0 65.0483 11.33 737 100.95 269.744 470.304
3020 0 68.1124 11.3783 775 99.6916 269.061 472.213
3021 0 70.0546 10.8059 757 100.968 269.077 471.618
3022 0 72.1704 10.5999 765 102.624 269.434 466.655
3023 0 75.0576 11.1248 835 101.799 269.024 466.926
3024 0 79.1451 11.4473 906 100.547 268.834 467.695
3025 0 81.0544 11.7699 954 100.81 269.231 463.176
3026 0 87.0487 12.6481 1101 98.8165 269.449 463.015
3027 0 85.0708 11.3435 965 101.74 268.984 464.241
3028 0 90.2803 10.9326 987 102.541 268.97 460.348
3029 0 93.1614 11.2922 1052 102.171 269.485 460.405
3030 0 95.2125 11.5951 1104 102.091 269.165 455.963
3031 0 101.19 12.2245 1237 102.276 268.201 456.719
3032 0 103.174 11.9797 1236 103.9 269.034 453.721
3033 0 106.142 11.0701 1175 105.851 269.255 450.801
3034 0 109.221 11.4355 1249 105.311 269.483 447.681
3035 1 54.0655 9.48849 513 99.9552 270.099 476.084
3036 0 60.0734 11.6857 702 105.719 268.591 484.634
3037 0 63.0992 11.6483 735 107.883 269.079 484.171
3038 0 64.0283 12.6819 812 103.645 269.457 483.393
3039 0 67.2355 13.4155 902 102.248 269.836 481.095
3040 0 68.1106 12.1273 826 106.275 269.803 480.541
3041 0 71.1146 13.3025 946 103.751 270.459 478.623
3042 0 73.2118 11.8833 870 106.822 270.106 480.509
3043 0 77.1018 13.7351 1059 103.404 270.714 476.9
3044 0 77.1282 13.1729 1016 105.369 270.887 477.774
3045 0 81.1507 13.0252 1057 105.98 270.522 474.992
3046 0 82.1292 13.0039 1068 102.161 269.765 473.369
3047 0 82.1292 13.0039 1068 136.568 269.78 473.298
3048 0 84.1866 12.6267 1063 111.716 270.111 470.832
3049 0 87.033 14.0981 1227 98.9576 269.717 470.118
3050 0 88.1506 13.4883 1189 106.239 270.347 471.135
3051 0 88.07 14.0002 1233 111.15 270.062 470.676
3052 0 88.1195 12.4377 1096 115.783 269.547 470.155
3053 0 91.0826 13.7787 1255 111.835 269.469 468.275
3054 0 93.1224 13.3588 1244 112.895 269.961 464.435
3055 0 95.064 13.6434 1297 110.74 270.518 464.268
3056 0 99.1591 12.5455 1244 111.54 270.643 463.275
3057 0 102.245 13.3209 1362 109.172 269.573 459.915
3058 0 104.168 12.595 1312 111.292 269.303 455.377
3059 1 58.0756 10.8135 628 108.871 267.686 484.314
3060 0 60.0885 11.4997 691 108.271 267.744 483.748
3061 0 63.0934 12.426 784 105.278 268.478 481.534
3062 0 63.1379 12.0213 759 104.188 268.063 481.593
3063 0 65.2401 13.0748 853 102.259 268.372 480.641
3064 0 67.0696 12.2261 820 105.729 268.635 480.307
3065 0 69.2556 12.2734 850 106.401 268.345 481.719
3066 0 71.1109 11.5875 824 109.931 268.229 479.323
3067 0 75.2242 13.7988 1038 105.151 268.843 478.043
3068 0 74.1129 12.3325 914 111.937 268.896 477.154
3069 0 78.1084 12.4827 975 112.487 268.627 475.903
3070 0 79.1657 12.4928 989 114.313 268.148 473.637
3071 0 82.1501 13.4753 1107 113.212 268.698 471.291
3072 0 85.1476 13.3768 1139 114.382 268.365 471.188
3073 1 44.108 10.4743 462 119.232 267.881 493.082
3074 0 45.0546 9.94348 448 123.257 267.496 490.614
3075 0 46.0446 11.7278 540 119.446 267.815 489.404
3076 0 48.0296 12.1384 583 116.427 267.559 491.64
3077 0 48.0585 12.2559 589 117.613 267.615 490.896
3078 0 49.0882 13.2007 648 116.157 267.409 490.767
3079 0 49.0839 12.1425 596 121.101 267.081 489.466
3080 0 52.0524 12.3337 642 119.745 267.139 489.058
3081 0 54.0636 13.5211 731 116.911 267.583 486.737
3082 0 53.063 11.7219 622 123.953 267.534 486.511
3083 0 57.0841 13.6115 777 118.017 267.579 484.51
3084 0 59.0719 13.018 769 119.555 267.785 483.848
3085 0 60.0181 13.3127 799 120.028 267.861 482.013
3086 0 61.1303 12.8905 788 121.655 268.047 482.24
3087 0 62.0507 12.4898 775 124.44 268.166 480.917
3088 0 64.1034 12.355 792 124.949 267.683 479.965
3089 0 67.1483 13.4776 905 121.023 267.785 480.281
3090 0 69.0666 13.4798 931 121.477 268.017 478.747
3091 0 71.1786 14.0913 1003 119.885 268.054 478.175
3092 0 72.0837 12.9433 933 124.329 267.375 475.428
3093 0 77.1656 12.7388 983 125.123 267.81 474.225
3094 0 78.1231 14.5028 1133 120.748 267.568 472.78
3095 0 81.1895 13.5732 1102 123.12 267.455 471.152
3096 0 84.1424 14.4041 1212 120.637 268.42 470.896
3097 0 88.071 13.8752 1222 121.416 268.509 471.213
3098 1 48.0924 11.9977 577 124.873 268.362 488.756
3099 0 47.13 11.6486 549 124.02 268.856 486.674
3100 0 50.219 13.2221 664 118.158 269.062 486.033
3101 0 49.1424 11.8431 582 125.124 268.771 484.658
3102 0 51.1474 12.9234 661 121.578 268.219 482.909
3103 0 52.1109 12.7037 662 120.598 268.684 484.266
3104 0 54.2256 12.7246 690 118.454 269.216 485.328
3105 0 57.1843 13.4652 770 117.426 269.287 482.238
3106 0 57.1824 12.294 703 121.481 269.441 482.196
3107 0 57.1824 12.294 703 152.404 269.475 482.077
3108 0 57.1824 12.3639 707 151.662 269.451 481.948
3109 0 57.201 12.3599 707 151.315 269.451 481.948
3110 0 57.2077 12.3585 707 151.147 269.451 481.948
3111 0 57.2077 12.3585 707 151.066 269.451 481.948
3112 0 57.2077 12.3585 707 151.066 269.451 481.948
3113 0 57.2077 12.3585 707 151.066 269.451 481.948
3114 0 57.2077 12.3585 707 151.066 269.451 481.948
3115 0 57.2077 12.3585 707 151.066 269.451 481.948
3116 0 57.2077 12.3585 707 151.066 269.451 481.948
3117 0 57.2077 12.3585 707 151.066 269.451 481.948
3118 0 57.2077 12.3585 707 151.066 269.451 481.948
3119 0 57.2077 12.3585 707 151.066 269.451 481.948
3120 0 57.2077 12.3585 707 151.066 269.451 481.948
3121 0 57.2077 12.3585 707 151.066 269.451 481.948
3122 0 57.2077 12.3585 707 151.066 269.451 481.948
3123 0 57.2077 12.3585 707 151.066 269.451 481.948
3124 0 57.2077 12.3585 707 151.066 269.451 481.948
3125 0 57.2077 12.3585 707 151.066 269.451 481.948
3126 0 57.2077 12.3585 707 151.066 269.451 481.948
3127 0 57.2077 12.3585 707 151.066 269.451 481.948
3128 0 57.2077 12.3585 707 151.066 269.451 481.948
3129 0 57.2077 12.3585 707 151.066 269.451 481.948
3130 0 57.2077 12.3585 707 151.066 269.451 481.948
3131 0 57.2077 12.3585 707 151.066 269.451 481.948
3132 0 58.2116 12.3515 719 150.022 269.492 482.21
3133 0 58.2116 12.3515 719 150.022 269.492 482.21
3134 0 58.2116 12.3515 719 150.022 269.492 482.21
3135 0 57.2077 12.3585 707 151.066 269.451 481.948
3136 0 57.2077 12.3585 707 151.066 269.451 481.948
3137 0 57.2077 12.3585 707 151.066 269.451 481.948
3138 0 57.2077 12.3585 707 151.066 269.451 481.948
3139 0 57.2077 12.3585 707 151.066 269.451 481.948
3140 0 57.2077 12.3585 707 151.066 269.451 481.948
3141 0 57.2077 12.3585 707 151.066 269.451 481.948
3142 0 57.2077 12.3585 707 151.066 269.451 481.948
3143 0 57.2077 12.3585 707 151.066 269.451 481.948
3144 0 57.2077 12.3585 707 151.066 269.451 481.948
3145 0 57.2077 12.3585 707 151.066 269.451 481.948
3146 0 57.2077 12.3585 707 151.066 269.451 481.948
3147 0 57.2077 12.3585 707 151.066 269.451 481.948
3148 0 57.2077 12.3585 707 151.066 269.451 481.948
3149 0 57.2077 12.3585 707 151.066 269.451 481.948
3150 0 57.2077 12.3585 707 151.066 269.451 481.948
3151 0 57.2077 12.3585 707 151.066 269.451 481.948
3152 0 57.2077 12.3585 707 151.066 269.451 481.948
3153 0 57.2077 12.3585 707 151.066 269.451 481.948
3154 0 57.2077 12.3585 707 151.066 269.451 481.948
3155 0 57.2077 12.3585 707 151.066 269.451 481.948
3156 0 57.2077 12.3585 707 151.066 269.451 481.948
3157 0 57.2077 12.3585 707 151.066 269.451 481.948
3158 0 57.2077 12.3585 707 151.066 269.451 481.948
3159 0 57.2077 12.3585 707 151.066 269.451 481.948
3160 0 57.2077 12.3585 707 151.066 269.451 481.948
3161 0 57.2077 12.3585 707 151.066 269.451 481.948
3162 0 57.2077 12.3585 707 151.066 269.451 481.948
3163 0 57.2077 12.3585 707 151.066 269.451 481.948
3164 0 57.2077 12.3585 707 151.066 269.451 481.948
3165 0 57.2077 12.3585 707 151.066 269.451 481.948
3166 0 57.2077 12.3585 707 151.066 269.451 481.948
3167 0 57.2077 12.3585 707 151.066 269.451 481.948
3168 0 57.2077 12.3585 707 151.066 269.451 481.948
3169 0 57.2077 12.3585 707 151.066 269.451 481.948
3170 0 57.2077 12.3585 707 151.066 269.451 481.948
3171 0 57.2077 12.3585 707 151.066 269.451 481.948
3172 0 57.2077 12.3585 707 151.066 269.451 481.948
3173 0 57.2077 12.3585 707 151.066 269.451 481.948
3174 0 57.2077 12.3585 707 151.066 269.451 481.948
3175 0 57.2077 12.3585 707 151.066 269.451 481.948
3176 0 57.2077 12.3585 707 151.066 269.451 481.948
3177 0 57.2077 12.3585 707 151.066 269.451 481.948
3178 0 57.2077 12.3585 707 151.066 269.451 481.948
3179 0 57.2077 12.3585 707 151.066 269.451 481.948
3180 0 57.2077 12.3585 707 151.066 269.451 481.948
3181 0 57.2077 12.3585 707 151.066 269.451 481.948
3182 0 57.2077 12.3585 707 151.066 269.451 481.948
3183 0 57.2077 12.3585 707 151.066 269.451 481.948
3184 0 57.2077 12.3585 707 151.066 269.451 481.948
3185 0 57.2077 12.3585 707 151.066 269.451 481.948
3186 0 57.2077 12.3585 707 151.066 269.451 481.948
3187 0 57.2077 12.3585 707 151.066 269.451 481.948
3188 0 57.2077 12.3585 707 151.066 269.451 481.948
3189 0 57.2077 12.3585 707 151.066 269.451 481.948
3190 0 57.2077 12.3585 707 151.066 269.451 481.948
3191 0 57.2077 12.3585 707 151.066 269.451 481.948
3192 0 57.2077 12.3585 707 151.066 269.451 481.948
3193 0 57.2077 12.3585 707 151.066 269.451 481.948
3194 0 57.2077 12.3585 707 151.066 269.451 481.948
3195 0 57.2077 12.3585 707 151.066 269.451 481.948
3196 0 57.2077 12.3585 707 151.066 269.451 481.948
3197 0 57.2077 12.3585 707 151.066 269.451 481.948
3198 0 57.2077 12.3585 707 151.066 269.451 481.948
3199 0 57.2077 12.3585 707 151.066 269.451 481.948
3200 0 57.2077 12.3585 707 151.066 269.451 481.948
3201 0 57.2077 12.3585 707 151.066 269.451 481.948
3202 0 57.2077 12.3585 707 151.066 269.451 481.948
3203 0 57.2077 12.3585 707 151.066 269.451 481.948
3204 0 57.2077 12.3585 707 151.066 269.451 481.948
3205 0 57.2077 12.3585 707 151.066 269.451 481.948
3206 0 57.2077 12.3585 707 151.066 269.451 481.948
3207 0 57.2077 12.3585 707 151.066 269.451 481.948
3208 0 57.2077 12.3585 707 151.066 269.451 481.948
3209 0 57.2077 12.3585 707 151.066 269.451 481.948
3210 0 57.2077 12.3585 707 151.066 269.451 481.948
3211 0 57.2077 12.3585 707 151.066 269.451 481.948
3212 0 57.2077 12.3585 707 151.066 269.451 481.948
3213 0 57.2077 12.3585 707 151.066 269.451 481.948
3214 0 57.2077 12.3585 707 151.066 269.451 481.948
3215 0 57.2077 12.3585 707 151.066 269.451 481.948
3216 0 57.2077 12.3585 707 151.066 269.451 481.948
3217 0 57.2077 12.3585 707 151.066 269.451 481.948
3218 0 57.2077 12.3585 707 151.066 269.451 481.948
3219 0 57.2077 12.3585 707 151.066 269.451 481.948
3220 0 57.2077 12.3585 707 151.066 269.451 481.948
3221 0 57.2077 12.3585 707 151.066 269.451 481.948
3222 0 57.2077 12.3585 707 151.066 269.451 481.948
3223 0 57.2077 12.3585 707 151.066 269.451 481.948
3224 0 57.2077 12.3585 707 151.066 269.451 481.948
3225 0 57.2077 12.3585 707 151.066 269.451 481.948
3226 0 57.2077 12.3585 707 151.066 269.451 481.948
3227 0 57.2077 12.3585 707 151.066 269.451 481.948
3228 0 57.2077 12.3585 707 151.066 269.451 481.948
3229 0 57.2077 12.3585 707 151.066 269.451 481.948
3230 0 57.2077 12.3585 707 151.066 269.451 481.948
3231 0 57.2077 12.3585 707 151.066 269.451 481.948
3232 0 57.2077 12.3585 707 151.066 269.451 481.948
3233 0 57.2077 12.3585 707 151.066 269.451 481.948
3234 0 57.2077 12.3585 707 151.066 269.451 481.948
3235 0 57.2077 12.3585 707 151.066 269.451 481.948
3236 0 57.2077 12.3585 707 151.066 269.451 481.948
3237 0 57.2077 12.3585 707 151.066 269.451 481.948
3238 0 57.2077 12.3585 707 151.066 269.451 481.948
3239 0 57.2077 12.3585 707 151.066 269.451 481.948
3240 0 57.2077 12.3585 707 151.066 269.451 481.948
3241 0 57.2077 12.3585 707 151.066 269.451 481.948
3242 0 57.2077 12.3585 707 151.066 269.451 481.948
3243 0 57.2077 12.3585 707 151.066 269.451 481.948
3244 0 57.2077 12.3585 707 151.066 269.451 481.948
3245 0 57.2077 12.3585 707 151.066 269.451 481.948
3246 0 57.2077 12.3585 707 151.066 269.451 481.948
3247 0 57.2077 12.3585 707 151.066 269.451 481.948
3248 0 57.2077 12.3585 707 151.066 269.451 481.948
3249 0 57.2077 12.3585 707 151.066 269.451 481.948
3250 0 57.2077 12.3585 707 151.066 269.451 481.948
3251 0 57.2077 12.3585 707 151.066 269.451 481.948
3252 0 57.2077 12.3585 707 151.066 269.451 481.948
3253 0 57.2077 12.3585 707 151.066 269.451 481.948
3254 0 57.2077 12.3585 707 151.066 269.451 481.948
3255 0 57.2077 12.3585 707 151.066 269.451 481.948
3256 0 57.2077 12.3585 707 151.066 269.451 481.948
3257 0 57.2077 12.3585 707 151.066 269.451 481.948
3258 0 57.2077 12.3585 707 151.066 269.451 481.948
3259 0 57.2077 12.3585 707 151.066 269.451 481.948
3260 0 57.2077 12.3585 707 151.066 269.451 481.948
3261 0 57.2077 12.3585 707 151.066 269.451 481.948
3262 0 57.2077 12.3585 707 151.066 269.451 481.948
3263 0 57.2077 12.3585 707 151.066 269.451 481.948
3264 0 57.2077 12.3585 707 151.066 269.451 481.948
3265 0 57.2077 12.3585 707 151.066 269.451 481.948
3266 0 57.2077 12.3585 707 151.066 269.451 481.948
3267 0 57.2077 12.3585 707 151.066 269.451 481.948
3268 0 57.2077 12.3585 707 151.066 269.451 481.948
3269 0 57.2077 12.3585 707 151.066 269.451 481.948
3270 0 57.2077 12.3585 707 151.066 269.451 481.948
3271 0 57.2077 12.3585 707 151.066 269.451 481.948
3272 0 57.2077 12.3585 707 151.066 269.451 481.948
3273 0 57.2077 12.3585 707 151.066 269.451 481.948
3274 0 57.2077 12.3585 707 151.066 269.451 481.948
3275 0 57.2077 12.3585 707 151.066 269.451 481.948
3276 0 57.2077 12.3585 707 151.066 269.451 481.948
3277 0 57.2077 12.3585 707 151.066 269.451 481.948
3278 0 57.2077 12.3585 707 151.066 269.451 481.948
3279 0 57.2077 12.3585 707 151.066 269.451 481.948
3280 0 57.2077 12.3585 707 151.066 269.451 481.948
3281 0 57.2077 12.3585 707 151.066 269.451 481.948
3282 0 57.2077 12.3585 707 151.066 269.451 481.948
3283 0 57.2077 12.3585 707 151.066 269.451 481.948
3284 0 57.2077 12.3585 707 151.066 269.451 481.948
3285 0 57.2077 12.3585 707 151.066 269.451 481.948
3286 0 57.2077 12.3585 707 151.066 269.451 481.948
3287 0 57.2077 12.3585 707 151.066 269.451 481.948
3288 0 57.2077 12.3585 707 151.066 269.451 481.948
3289 0 57.2077 12.3585 707 151.066 269.451 481.948
3290 0 57.2077 12.3585 707 151.066 269.451 481.948
3291 0 57.2077 12.3585 707 151.066 269.451 481.948
3292 0 57.2077 12.3585 707 151.066 269.451 481.948
3293 0 57.2077 12.3585 707 151.066 269.451 481.948
3294 0 57.2077 12.3585 707 151.066 269.451 481.948
3295 0 57.2077 12.3585 707 151.066 269.451 481.948
3296 0 57.2077 12.3585 707 151.066 269.451 481.948
3297 0 57.2077 12.3585 707 151.066 269.451 481.948
3298 0 57.2077 12.3585 707 151.066 269.451 481.948
3299 0 57.2077 12.3585 707 151.066 269.451 481.948
3300 0 57.2077 12.3585 707 151.066 269.451 481.948
3301 0 57.2077 12.3585 707 151.066 269.451 481.948
3302 0 57.2077 12.3585 707 151.066 269.451 481.948
3303 0 57.2077 12.3585 707 151.066 269.451 481.948
3304 0 57.2077 12.3585 707 151.066 269.451 481.948
3305 0 57.2077 12.3585 707 151.066 269.451 481.948
3306 0 57.2077 12.3585 707 151.066 269.451 481.948
3307 0 57.2077 12.3585 707 151.066 269.451 481.948
3308 0 57.2077 12.3585 707 151.066 269.451 481.948
3309 0 57.2077 12.3585 707 151.066 269.451 481.948
3310 0 57.2077 12.3585 707 151.066 269.451 481.948
3311 0 57.2077 12.3585 707 151.066 269.451 481.948
3312 0 57.2077 12.3585 707 151.066 269.451 481.948
3313 0 57.2077 12.3585 707 151.066 269.451 481.948
3314 0 57.2077 12.3585 707 151.066 269.451 481.948
3315 0 57.2077 12.3585 707 151.066 269.451 481.948
3316 0 57.2077 12.3585 707 151.066 269.451 481.948
3317 0 57.2077 12.3585 707 151.066 269.451 481.948
3318 0 57.2077 12.3585 707 151.066 269.451 481.948
3319 0 57.2077 12.3585 707 151.066 269.451 481.948
3320 0 57.2077 12.3585 707 151.066 269.451 481.948
3321 0 57.2077 12.3585 707 151.066 269.451 481.948
3322 0 57.2077 12.3585 707 151.066 269.451 481.948
3323 0 57.2077 12.3585 707 151.066 269.451 481.948
3324 0 57.2077 12.3585 707 151.066 269.451 481.948
3325 0 57.2077 12.3585 707 151.066 269.451 481.948
3326 0 57.2077 12.3585 707 151.066 269.451 481.948
3327 0 57.2077 12.3585 707 151.066 269.451 481.948
3328 0 57.2077 12.3585 707 151.066 269.451 481.948
3329 0 57.2077 12.3585 707 151.066 269.451 481.948
3330 0 57.2077 12.3585 707 151.066 269.451 481.948
3331 0 57.2077 12.3585 707 151.066 269.451 481.948
3332 0 57.2077 12.3585 707 151.066 269.451 481.948
3333 0 57.2077 12.3585 707 151.066 269.451 481.948
3334 0 57.2077 12.3585 707 151.066 269.451 481.948
3335 0 57.2077 12.3585 707 151.066 269.451 481.948
3336 0 57.2077 12.3585 707 151.066 269.451 481.948
3337 0 57.2077 12.3585 707 151.066 269.451 481.948
3338 0 57.2077 12.3585 707 151.066 269.451 481.948
3339 0 57.2077 12.3585 707 151.066 269.451 481.948
3340 0 57.2077 12.3585 707 151.066 269.451 481.948
3341 0 57.2077 12.3585 707 151.066 269.451 481.948
3342 0 57.2077 12.3585 707 151.066 269.451 481.948
3343 0 57.2077 12.3585 707 151.066 269.451 481.948
3344 0 57.2077 12.3585 707 151.066 269.451 481.948
3345 0 57.2077 12.3585 707 151.066 269.451 481.948
3346 0 57.2077 12.3585 707 151.066 269.451 481.948
3347 0 57.2077 12.3585 707 151.066 269.451 481.948
3348 0 57.2077 12.3585 707 151.066 269.451 481.948
3349 0 57.2077 12.3585 707 151.066 269.451 481.948
3350 0 57.2077 12.3585 707 151.066 269.451 481.948
3351 0 57.2077 12.3585 707 151.066 269.451 481.948
3352 0 57.2077 12.3585 707 151.066 269.451 481.948
3353 0 57.2077 12.3585 707 151.066 269.451 481.948
3354 0 57.2077 12.3585 707 151.066 269.451 481.948
3355 0 57.2077 12.3585 707 151.066 269.451 481.948
3356 0 57.2077 12.3585 707 151.066 269.451 481.948
3357 0 57.2077 12.3585 707 151.066 269.451 481.948
3358 0 57.2077 12.3585 707 151.066 269.451 481.948
3359 0 57.2077 12.3585 707 151.066 269.451 481.948
3360 0 57.2077 12.3585 707 151.066 269.451 481.948
3361 0 57.2077 12.3585 707 151.066 269.451 481.948
3362 0 57.2077 12.3585 707 151.066 269.451 481.948
3363 0 57.2077 12.3585 707 151.066 269.451 481.948
3364 0 57.2077 12.3585 707 151.066 269.451 481.948
3365 0 57.2077 12.3585 707 151.066 269.451 481.948
3366 0 57.2077 12.3585 707 151.066 269.451 481.948
3367 0 57.2077 12.3585 707 151.066 269.451 481.948
3368 0 57.2077 12.3585 707 151.066 269.451 481.948
3369 0 57.2077 12.3585 707 151.066 269.451 481.948
3370 0 57.2077 12.3585 707 151.066 269.451 481.948
3371 0 57.2077 12.3585 707 151.066 269.451 481.948
3372 0 57.2077 12.3585 707 151.066 269.451 481.948
3373 0 57.2077 12.3585 707 151.066 269.451 481.948
3374 0 57.2077 12.3585 707 151.066 269.451 481.948
3375 0 57.2077 12.3585 707 151.066 269.451 481.948
3376 0 57.2077 12.3585 707 151.066 269.451 481.948
3377 0 57.2077 12.3585 707 151.066 269.451 481.948
3378 0 57.2077 12.3585 707 151.066 269.451 481.948
3379 0 57.2077 12.3585 707 151.066 269.451 481.948
3380 0 57.2077 12.3585 707 151.066 269.451 481.948
3381 0 57.2077 12.3585 707 151.066 269.451 481.948
3382 0 57.2077 12.3585 707 151.066 269.451 481.948
3383 0 57.2077 12.3585 707 151.066 269.451 481.948
3384 0 57.2077 12.3585 707 151.066 269.451 481.948
3385 0 57.2077 12.3585 707 151.066 269.451 481.948
3386 0 57.2077 12.3585 707 151.066 269.451 481.948
3387 0 57.2077 12.3585 707 151.066 269.451 481.948
3388 0 57.2077 12.3585 707 151.066 269.451 481.948
3389 0 57.2077 12.3585 707 151.066 269.451 481.948
3390 0 57.2077 12.3585 707 151.066 269.451 481.948
3391 0 57.2077 12.3585 707 151.066 269.451 481.948
3392 0 57.2077 12.3585 707 151.066 269.451 481.948
3393 0 57.2077 12.3585 707 151.066 269.451 481.948
3394 0 57.2077 12.3585 707 151.066 269.451 481.948
3395 0 57.2077 12.3585 707 151.066 269.451 481.948
3396 0 57.2077 12.3585 707 151.066 269.451 481.948
3397 0 57.2077 12.3585 707 151.066 269.451 481.948
3398 0 57.2077 12.3585 707 151.066 269.451 481.948
3399 0 57.2077 12.3585 707 151.066 269.451 481.948
3400 0 57.2077 12.3585 707 151.066 269.451 481.948
3401 0 57.2077 12.3585 707 151.066 269.451 481.948
3402 0 57.2077 12.3585 707 151.066 269.451 481.948
3403 0 57.2077 12.3585 707 151.066 269.451 481.948
3404 0 57.2077 12.3585 707 151.066 269.451 481.948
3405 0 57.2077 12.3585 707 151.066 269.451 481.948
3406 0 57.2077 12.3585 707 151.066 269.451 481.948
3407 0 57.2077 12.3585 707 151.066 269.451 481.948
3408 0 57.2077 12.3585 707 151.066 269.451 481.948
3409 0 57.2077 12.3585 707 151.066 269.451 481.948
3410 0 57.2077 12.3585 707 151.066 269.451 481.948
3411 0 57.2077 12.3585 707 151.066 269.451 481.948
3412 0 57.2077 12.3585 707 151.066 269.451 481.948
3413 0 57.2077 12.3585 707 151.066 269.451 481.948
3414 0 57.2077 12.3585 707 151.066 269.451 481.948
3415 0 57.2077 12.3585 707 151.066 269.451 481.948
3416 0 57.2077 12.3585 707 151.066 269.451 481.948
3417 0 57.2077 12.3585 707 151.066 269.451 481.948
3418 0 57.2077 12.3585 707 151.066 269.451 481.948
3419 0 57.2077 12.3585 707 151.066 269.451 481.948
3420 0 57.2077 12.3585 707 151.066 269.451 481.948
3421 0 57.2077 12.3585 707 151.066 269.451 481.948
3422 0 57.2077 12.3585 707 151.066 269.451 481.948
3423 0 57.2077 12.3585 707 151.066 269.451 481.948
3424 0 57.2077 12.3585 707 151.066 269.451 481.948
3425 0 57.2077 12.3585 707 151.066 269.451 481.948
3426 0 57.2077 12.3585 707 151.066 269.451 481.948
3427 0 57.2077 12.3585 707 151.066 269.451 481.948
3428 0 57.2077 12.3585 707 151.066 269.451 481.948
3429 0 57.2077 12.3585 707 151.066 269.451 481.948
3430 0 57.2077 12.3585 707 151.066 269.451 481.948
3431 0 57.2077 12.3585 707 151.066 269.451 481.948
3432 0 57.2077 12.3585 707 151.066 269.451 481.948
3433 0 57.2077 12.3585 707 151.066 269.451 481.948
3434 0 57.2077 12.3585 707 151.066 269.451 481.948
3435 0 57.2077 12.3585 707 151.066 269.451 481.948
3436 0 57.2077 12.3585 707 151.066 269.451 481.948
3437 0 57.2077 12.3585 707 151.066 269.451 481.948
3438 0 57.2077 12.3585 707 151.066 269.451 481.948
3439 0 57.2077 12.3585 707 151.066 269.451 481.948
3440 0 57.2077 12.3585 707 151.066 269.451 481.948
3441 0 57.2077 12.3585 707 151.066 269.451 481.948
3442 0 57.2077 12.3585 707 151.066 269.451 481.948
3443 0 57.2077 12.3585 707 151.066 269.451 481.948
3444 0 57.2077 12.3585 707 151.066 269.451 481.948
3445 0 57.2077 12.3585 707 151.066 269.451 481.948
3446 0 57.2077 12.3585 707 151.066 269.451 481.948
3447 0 57.2077 12.3585 707 151.066 269.451 481.948
3448 0 57.2077 12.3585 707 151.066 269.451 481.948
3449 0 57.2077 12.3585 707 151.066 269.451 481.948
3450 0 57.2077 12.3585 707 151.066 269.451 481.948
3451 0 57.2077 12.3585 707 151.066 269.451 481.948
3452 0 57.2077 12.3585 707 151.066 269.451 481.948
3453 0 57.2077 12.3585 707 151.066 269.451 481.948
3454 0 57.2077 12.3585 707 151.066 269.451 481.948
3455 0 57.2077 12.3585 707 151.066 269.451 481.948
3456 0 57.2077 12.3585 707 151.066 269.451 481.948
3457 0 57.2077 12.3585 707 151.066 269.451 481.948
3458 0 57.2077 12.3585 707 151.066 269.451 481.948
3459 0 57.2077 12.3585 707 151.066 269.451 481.948
3460 0 57.2077 12.3585 707 151.066 269.451 481.948
3461 0 57.2077 12.3585 707 151.066 269.451 481.948
3462 0 57.2077 12.3585 707 151.066 269.451 481.948
3463 0 57.2077 12.3585 707 151.066 269.451 481.948
3464 0 57.2077 12.3585 707 151.066 269.451 481.948
3465 0 57.2077 12.3585 707 151.066 269.451 481.948
3466 0 57.2077 12.3585 707 151.066 269.451 481.948
3467 0 57.2077 12.3585 707 151.066 269.451 481.948
3468 0 57.2077 12.3585 707 151.066 269.451 481.948
3469 0 57.2077 12.3585 707 151.066 269.451 481.948
3470 0 57.2077 12.3585 707 151.066 269.451 481.948
3471 0 57.2077 12.3585 707 151.066 269.451 481.948
3472 0 57.2077 12.3585 707 151.066 269.451 481.948
3473 0 57.2077 12.3585 707 151.066 269.451 481.948
3474 0 57.2077 12.3585 707 151.066 269.451 481.948
3475 0 57.2077 12.3585 707 151.066 269.451 481.948
3476 0 57.2077 12.3585 707 151.066 269.451 481.948
3477 0 57.2077 12.3585 707 151.066 269.451 481.948
3478 0 57.2077 12.3585 707 151.066 269.451 481.948
3479 0 57.2077 12.3585 707 151.066 269.451 481.948
3480 0 57.2077 12.3585 707 151.066 269.451 481.948
3481 0 57.2077 12.3585 707 151.066 269.451 481.948
3482 0 57.2077 12.3585 707 151.066 269.451 481.948
3483 0 57.2077 12.3585 707 151.066 269.451 481.948
3484 0 57.2077 12.3585 707 151.066 269.451 481.948
3485 0 57.2077 12.3585 707 151.066 269.451 481.948
3486 0 57.2077 12.3585 707 151.066 269.451 481.948
3487 0 57.2077 12.3585 707 151.066 269.451 481.948
3488 0 57.2077 12.3585 707 151.066 269.451 481.948
3489 0 57.2077 12.3585 707 151.066 269.451 481.948
3490 0 57.2077 12.3585 707 151.066 269.451 481.948
3491 0 57.2077 12.3585 707 151.066 269.451 481.948
3492 0 57.2077 12.3585 707 151.066 269.451 481.948
3493 0 57.2077 12.3585 707 151.066 269.451 481.948
3494 0 57.2077 12.3585 707 151.066 269.451 481.948
3495 0 57.2077 12.3585 707 151.066 269.451 481.948
3496 0 57.2077 12.3585 707 151.066 269.451 481.948
3497 0 57.2077 12.3585 707 151.066 269.451 481.948
3498 0 57.2077 12.3585 707 151.066 269.451 481.948
3499 0 57.2077 12.3585 707 151.066 269.451 481.948
3500 0 57.2077 12.3585 707 151.066 269.451 481.948
3501 0 57.2077 12.3585 707 151.066 269.451 481.948
3502 0 57.2077 12.3585 707 151.066 269.451 481.948
3503 0 57.2077 12.3585 707 151.066 269.451 481.948
3504 0 57.2077 12.3585 707 151.066 269.451 481.948
3505 0 57.2077 12.3585 707 151.066 269.451 481.948
3506 0 57.2077 12.3585 707 151.066 269.451 481.948
3507 0 57.2077 12.3585 707 151.066 269.451 481.948
3508 0 57.2077 12.3585 707 151.066 269.451 481.948
3509 0 57.2077 12.3585 707 151.066 269.451 481.948
3510 0 57.2077 12.3585 707 151.066 269.451 481.948
3511 0 57.2077 12.3585 707 151.066 269.451 481.948
3512 0 57.2077 12.3585 707 151.066 269.451 481.948
3514 0 57.2077 12.3585 707 151.066 269.451 481.948
3515 0 57.2077 12.3585 707 151.066 269.451 481.948
3516 0 57.2077 12.3585 707 151.066 269.451 481.948
3517 0 57.2077 12.3585 707 151.066 269.451 481.948
3518 0 57.2077 12.3585 707 151.066 269.451 481.948
3519 0 57.2077 12.3585 707 151.066 269.451 481.948
3520 0 57.2077 12.3585 707 151.066 269.451 481.948
3521 0 57.2077 12.3585 707 151.066 269.451 481.948
3522 0 57.2077 12.3585 707 151.066 269.451 481.948
3523 0 57.2077 12.3585 707 151.066 269.451 481.948
3524 0 57.2077 12.3585 707 151.066 269.451 481.948
3525 0 57.2077 12.3585 707 151.066 269.451 481.948
3526 0 57.2077 12.3585 707 151.066 269.451 481.948
3527 0 57.2077 12.3585 707 151.066 269.451 481.948
3528 0 57.2077 12.3585 707 151.066 269.451 481.948
3529 0 57.2077 12.3585 707 151.066 269.451 481.948
3530 0 57.2077 12.3585 707 151.066 269.451 481.948
3531 0 57.2077 12.3585 707 151.066 269.451 481.948
3532 0 57.2077 12.3585 707 151.066 269.451 481.948
3533 0 57.2077 12.3585 707 151.066 269.451 481.948
3534 0 57.2077 12.3585 707 151.066 269.451 481.948
3535 0 57.2077 12.3585 707 151.066 269.451 481.948
3536 0 57.2077 12.3585 707 151.066 269.451 481.948
3537 0 57.2077 12.3585 707 151.066 269.451 481.948
3538 0 57.2077 12.3585 707 151.066 269.451 481.948
3539 0 57.2077 12.3585 707 151.066 269.451 481.948
3540 0 57.2077 12.3585 707 151.066 269.451 481.948
3541 0 57.2077 12.3585 707 151.066 269.451 481.948
3542 0 57.2077 12.3585 707 151.066 269.451 481.948
3543 0 57.2077 12.3585 707 151.066 269.451 481.948
3544 0 57.2077 12.3585 707 151.066 269.451 481.948
3545 0 57.2077 12.3585 707 151.066 269.451 481.948
3546 0 57.2077 12.3585 707 151.066 269.451 481.948
3547 0 57.2077 12.3585 707 151.066 269.451 481.948
3548 0 57.2077 12.3585 707 151.066 269.451 481.948
3549 0 57.2077 12.3585 707 151.066 269.451 481.948
3550 0 57.2077 12.3585 707 151.066 269.451 481.948
3551 0 57.2077 12.3585 707 151.066 269.451 481.948
3552 0 57.2077 12.3585 707 151.066 269.451 481.948
3553 0 57.2077 12.3585 707 151.066 269.451 481.948
3554 0 57.2077 12.3585 707 151.066 269.451 481.948
3555 0 57.2077 12.3585 707 151.066 269.451 481.948
3556 0 57.2077 12.3585 707 151.066 269.451 481.948
3557 0 57.2077 12.3585 707 151.066 269.451 481.948
3558 0 57.2077 12.3585 707 151.066 269.451 481.948
3559 0 57.2077 12.3585 707 151.066 269.451 481.948
3560 0 57.2077 12.3585 707 151.066 269.451 481.948
3561 0 57.2077 12.3585 707 151.066 269.451 481.948
3562 0 57.2077 12.3585 707 151.066 269.451 481.948
3563 0 57.2077 12.3585 707 151.066 269.451 481.948
3564 0 57.2077 12.3585 707 151.066 269.451 481.948
3565 0 57.2077 12.3585 707 151.066 269.451 481.948
3566 0 57.2077 12.3585 707 151.066 269.451 481.948
3567 0 57.2077 12.3585 707 151.066 269.451 481.948
3568 0 57.2077 12.3585 707 151.066 269.451 481.948
3569 0 57.2077 12.3585 707 151.066 269.451 481.948
3570 0 57.2077 12.3585 707 151.066 269.451 481.948
3571 0 57.2077 12.3585 707 151.066 269.451 481.948
3572 0 57.2077 12.3585 707 151.066 269.451 481.948
3573 0 57.2077 12.3585 707 151.066 269.451 481.948
3574 0 57.2077 12.3585 707 151.066 269.451 481.948
3575 0 57.2077 12.3585 707 151.066 269.451 481.948
3576 0 57.2077 12.3585 707 151.066 269.451 481.948
3577 0 57.2077 12.3585 707 151.066 269.451 481.948
3578 0 57.2077 12.3585 707 151.066 269.451 481.948
3579 0 57.2077 12.3585 707 151.066 269.451 481.948
3580 0 57.2077 12.3585 707 151.066 269.451 481.948
3581 0 57.2077 12.3585 707 151.066 269.451 481.948
3582 0 57.2077 12.3585 707 151.066 269.451 481.948
3583 0 57.2077 12.3585 707 151.066 269.451 481.948
3584 0 57.2077 12.3585 707 151.066 269.451 481.948
3585 0 57.2077 12.3585 707 151.066 269.451 481.948
3586 0 57.2077 12.3585 707 151.066 269.451 481.948
3587 0 57.2077 12.3585 707 151.066 269.451 481.948
3588 0 57.2077 12.3585 707 151.066 269.451 481.948
3589 0 57.2077 12.3585 707 151.066 269.451 481.948
3590 0 57.2077 12.3585 707 151.066 269.451 481.948
3591 0 57.2077 12.3585 707 151.066 269.451 481.948
3592 0 57.2077 12.3585 707 151.066 269.451 481.948
3593 0 57.2077 12.3585 707 151.066 269.451 481.948
3594 0 57.2077 12.3585 707 151.066 269.451 481.948
3595 0 57.2077 12.3585 707 151.066 269.451 481.948
3596 0 57.2077 12.3585 707 151.066 269.451 481.948
3597 0 57.2077 12.3585 707 151.066 269.451 481.948
3598 0 57.2077 12.3585 707 151.066 269.451 481.948
3599 0 57.2077 12.3585 707 151.066 269.451 481.948
3600 0 57.2077 12.3585 707 151.066 269.451 481.948
3601 0 57.2077 12.3585 707 151.066 269.451 481.948
3602 0 57.2077 12.3585 707 151.066 269.451 481.948
3603 0 57.2077 12.3585 707 151.066 269.451 481.948
3604 0 57.2077 12.3585 707 151.066 269.451 481.948
3605 0 57.2077 12.3585 707 151.066 269.451 481.948
3606 0 57.2077 12.3585 707 151.066 269.451 481.948
3607 0 57.2077 12.3585 707 151.066 269.451 481.948
3608 0 57.2077 12.3585 707 151.066 269.451 481.948
3609 0 57.2077 12.3585 707 151.066 269.451 481.948
3610 0 57.2077 12.3585 707 151.066 269.451 481.948
3611 0 57.2077 12.3585 707 151.066 269.451 481.948
3612 0 57.2077 12.3585 707 151.066 269.451 481.948
3613 0 57.2077 12.3585 707 151.066 269.451 481.948
3614 0 57.2077 12.3585 707 151.066 269.451 481.948
3615 0 57.2077 12.3585 707 151.066 269.451 481.948
3616 0 57.2077 12.3585 707 151.066 269.451 481.948
3617 0 57.2077 12.3585 707 151.066 269.451 481.948
3618 0 57.2077 12.3585 707 151.066 269.451 481.948
3619 0 57.2077 12.3585 707 151.066 269.451 481.948
3620 0 57.2077 12.3585 707 151.066 269.451 481.948
3621 0 57.2077 12.3585 707 151.066 269.451 481.948
3622 0 57.2077 12.3585 707 151.066 269.451 481.948
3623 0 57.2077 12.3585 707 151.066 269.451 481.948
3624 0 57.2077 12.3585 707 151.066 269.451 481.948
3625 0 57.2077 12.3585 707 151.066 269.451 481.948
3626 0 57.2077 12.3585 707 151.066 269.451 481.948
3627 0 57.2077 12.3585 707 151.066 269.451 481.948
3628 0 57.2077 12.3585 707 151.066 269.451 481.948
3629 0 57.2077 12.3585 707 151.066 269.451 481.948
3630 0 57.2077 12.3585 707 151.066 269.451 481.948
3631 0 57.2077 12.3585 707 151.066 269.451 481.948
3632 0 57.2077 12.3585 707 151.066 269.451 481.948
3633 0 57.2077 12.3585 707 151.066 269.451 481.948
3634 0 57.2077 12.3585 707 151.066 269.451 481.948
3635 0 57.2077 12.3585 707 151.066 269.451 481.948
3636 0 57.2077 12.3585 707 151.066 269.451 481.948
3637 0 57.2077 12.3585 707 151.066 269.451 481.948
3638 0 57.2077 12.3585 707 151.066 269.451 481.948
3639 0 57.2077 12.3585 707 151.066 269.451 481.948
3640 0 57.2077 12.3585 707 151.066 269.451 481.948
3641 0 57.2077 12.3585 707 151.066 269.451 481.948
3642 0 57.2077 12.3585 707 151.066 269.451 481.948
3643 0 57.2077 12.3585 707 151.066 269.451 481.948
3644 0 57.2077 12.3585 707 151.066 269.451 481.948
3645 0 57.2077 12.3585 707 151.066 269.451 481.948
3646 0 57.2077 12.3585 707 151.066 269.451 481.948
3647 0 57.2077 12.3585 707 151.066 269.451 481.948
3648 0 57.2077 12.3585 707 151.066 269.451 481.948
3649 0 57.2077 12.3585 707 151.066 269.451 481.948
3650 0 57.2077 12.3585 707 151.066 269.451 481.948
3651 0 57.2077 12.3585 707 151.066 269.451 481.948
3652 0 57.2077 12.3585 707 151.066 269.451 481.948
3653 0 57.2077 12.3585 707 151.066 269.451 481.948
3654 0 57.2077 12.3585 707 151.066 269.451 481.948
3655 0 57.2077 12.3585 707 151.066 269.451 481.948
3656 0 57.2077 12.3585 707 151.066 269.451 481.948
3657 0 57.2077 12.3585 707 151.066 269.451 481.948
3658 0 57.2077 12.3585 707 151.066 269.451 481.948
3659 0 57.2077 12.3585 707 151.066 269.451 481.948
3660 0 57.2077 12.3585 707 151.066 269.451 481.948
3661 0 57.2077 12.3585 707 151.066 269.451 481.948
3662 0 57.2077 12.3585 707 151.066 269.451 481.948
3663 0 57.2077 12.3585 707 151.066 269.451 481.948
3664 0 57.2077 12.3585 707 151.066 269.451 481.948
3665 0 57.2077 12.3585 707 151.066 269.451 481.948
3666 0 57.2077 12.3585 707 151.066 269.451 481.948
3667 0 57.2077 12.3585 707 151.066 269.451 481.948
3668 0 57.2077 12.3585 707 151.066 269.451 481.948
3669 0 57.2077 12.3585 707 151.066 269.451 481.948
3670 0 57.2077 12.3585 707 151.066 269.451 481.948
3671 0 57.2077 12.3585 707 151.066 269.451 481.948
3672 0 57.2077 12.3585 707 151.066 269.451 481.948
3673 0 57.2077 12.3585 707 151.066 269.451 481.948
3674 0 57.2077 12.3585 707 151.066 269.451 481.948
3675 0 57.2077 12.3585 707 151.066 269.451 481.948
3676 0 57.2077 12.3585 707 151.066 269.451 481.948
3677 0 57.2077 12.3585 707 151.066 269.451 481.948
3678 0 57.2077 12.3585 707 151.066 269.451 481.948
3679 0 57.2077 12.3585 707 151.066 269.451 481.948
3680 0 57.2077 12.3585 707 151.066 269.451 481.948
3681 0 57.2077 12.3585 707 151.066 269.451 481.948
3682 0 57.2077 12.3585 707 151.066 269.451 481.948
3683 0 57.2077 12.3585 707 151.066 269.451 481.948
3684 0 57.2077 12.3585 707 151.066 269.451 481.948
3685 0 57.2077 12.3585 707 151.066 269.451 481.948
3686 0 57.2077 12.3585 707 151.066 269.451 481.948
3687 0 57.2077 12.3585 707 151.066 269.451 481.948
3688 0 57.2077 12.3585 707 151.066 269.451 481.948
3689 0 57.2077 12.3585 707 151.066 269.451 481.948
3690 0 57.2077 12.3585 707 151.066 269.451 481.948
3691 0 57.2077 12.3585 707 151.066 269.451 481.948
3692 0 57.2077 12.3585 707 151.066 269.451 481.948
3693 0 57.2077 12.3585 707 151.066 269.451 481.948
3694 0 57.2077 12.3585 707 151.066 269.451 481.948
3695 0 57.2077 12.3585 707 151.066 269.451 481.948
3696 0 57.2077 12.3585 707 151.066 269.451 481.948
3697 0 57.2077 12.3585 707 151.066 269.451 481.948
3698 0 57.2077 12.3585 707 151.066 269.451 481.948
3699 0 57.2077 12.3585 707 151.066 269.451 481.948
3700 0 57.2077 12.3585 707 151.066 269.451 481.948
3701 0 57.2077 12.3585 707 151.066 269.451 481.948
3702 0 57.2077 12.3585 707 151.066 269.451 481.948
3703 0 57.2077 12.3585 707 151.066 269.451 481.948
3704 0 57.2077 12.3585 707 151.066 269.451 481.948
3705 0 57.2077 12.3585 707 151.066 269.451 481.948
3706 0 57.2077 12.3585 707 151.066 269.451 481.948
3707 0 57.2077 12.3585 707 151.066 269.451 481.948
3708 0 57.2077 12.3585 707 151.066 269.451 481.948
3709 0 57.2077 12.3585 707 151.066 269.451 481.948
3710 0 57.2077 12.3585 707 151.066 269.451 481.948
3711 0 57.2077 12.3585 707 151.066 269.451 481.948
3712 0 57.2077 12.3585 707 151.066 269.451 481.948
3713 0 57.2077 12.3585 707 151.066 269.451 481.948
3714 0 57.2077 12.3585 707 151.066 269.451 481.948
3715 0 57.2077 12.3585 707 151.066 269.451 481.948
3716 0 57.2077 12.3585 707 151.066 269.451 481.948
3717 0 57.2077 12.3585 707 151.066 269.451 481.948
3718 0 57.2077 12.3585 707 151.066 269.451 481.948
3719 0 57.2077 12.3585 707 151.066 269.451 481.948
3720 0 57.2077 12.3585 707 151.066 269.451 481.948
3721 0 57.2077 12.3585 707 151.066 269.451 481.948
3722 0 57.2077 12.3585 707 151.066 269.451 481.948
3723 0 57.2077 12.3585 707 151.066 269.451 481.948
3724 0 57.2077 12.3585 707 151.066 269.451 481.948
3725 0 57.2077 12.3585 707 151.066 269.451 481.948
3726 0 57.2077 12.3585 707 151.066 269.451 481.948
3727 0 57.2077 12.3585 707 151.066 269.451 481.948
3728 0 57.2077 12.3585 707 151.066 269.451 481.948
3729 0 57.2077 12.3585 707 151.066 269.451 481.948
3730 0 57.2077 12.3585 707 151.066 269.451 481.948
3731 0 57.2077 12.3585 707 151.066 269.451 481.948
3732 0 57.2077 12.3585 707 151.066 269.451 481.948
3733 0 57.2077 12.3585 707 151.066 269.451 481.948
3734 0 57.2077 12.3585 707 151.066 269.451 481.948
3735 0 57.2077 12.3585 707 151.066 269.451 481.948
3736 0 57.2077 12.3585 707 151.066 269.451 481.948
3737 0 57.2077 12.3585 707 151.066 269.451 481.948
3738 0 57.2077 12.3585 707 151.066 269.451 481.948
3739 0 57.2077 12.3585 707 151.066 269.451 481.948
3740 0 57.2077 12.3585 707 151.066 269.451 481.948
3741 0 57.2077 12.3585 707 151.066 269.451 481.948
3742 0 57.2077 12.3585 707 151.066 269.451 481.948
3743 0 57.2077 12.3585 707 151.066 269.451 481.948
3744 0 57.2077 12.3585 707 151.066 269.451 481.948
3745 0 57.2077 12.3585 707 151.066 269.451 481.948
3746 0 57.2077 12.3585 707 151.066 269.451 481.948
3747 0 57.2077 12.3585 707 151.066 269.451 481.948
3748 0 57.2077 12.3585 707 151.066 269.451 481.948
3749 0 57.2077 12.3585 707 151.066 269.451 481.948
3750 0 57.2077 12.3585 707 151.066 269.451 481.948
3751 0 57.2077 12.3585 707 151.066 269.451 481.948
3752 0 57.2077 12.3585 707 151.066 269.451 481.948
3753 0 57.2077 12.3585 707 151.066 269.451 481.948
3754 0 57.2077 12.3585 707 151.066 269.451 481.948
3755 0 57.2077 12.3585 707 151.066 269.451 481.948
3756 0 57.2077 12.3585 707 151.066 269.451 481.948
3757 0 57.2077 12.3585 707 151.066 269.451 481.948
3758 0 57.2077 12.3585 707 151.066 269.451 481.948
3759 0 57.2077 12.3585 707 151.066 269.451 481.948
3760 0 57.2077 12.3585 707 151.066 269.451 481.948
3761 0 57.2077 12.3585 707 151.066 269.451 481.948
3762 0 57.2077 12.3585 707 151.066 269.451 481.948
3763 0 57.2077 12.3585 707 151.066 269.451 481.948
3764 0 57.2077 12.3585 707 151.066 269.451 481.948
3765 0 57.2077 12.3585 707 151.066 269.451 481.948
3766 0 57.2077 12.3585 707 151.066 269.451 481.948
3767 0 57.2077 12.3585 707 151.066 269.451 481.948
3768 0 57.2077 12.3585 707 151.066 269.451 481.948
3769 0 57.2077 12.3585 707 151.066 269.451 481.948
3770 0 57.2077 12.3585 707 151.066 269.451 481.948
3771 0 57.2077 12.3585 707 151.066 269.451 481.948
3772 0 57.2077 12.3585 707 151.066 269.451 481.948
3773 0 57.2077 12.3585 707 151.066 269.451 481.948
3774 0 57.2077 12.3585 707 151.066 269.451 481.948
3775 0 57.2077 12.3585 707 151.066 269.451 481.948
3776 0 57.2077 12.3585 707 151.066 269.451 481.948
3777 0 57.2077 12.3585 707 151.066 269.451 481.948
3778 0 57.2077 12.3585 707 151.066 269.451 481.948
3779 0 57.2077 12.3585 707 151.066 269.451 481.948
3780 0 57.2077 12.3585 707 151.066 269.451 481.948
3781 0 57.2077 12.3585 707 151.066 269.451 481.948
3782 0 57.2077 12.3585 707 151.066 269.451 481.948
3783 0 57.2077 12.3585 707 151.066 269.451 481.948
3784 0 57.2077 12.3585 707 151.066 269.451 481.948
3785 0 57.2077 12.3585 707 151.066 269.451 481.948
3786 0 57.2077 12.3585 707 151.066 269.451 481.948
3787 0 57.2077 12.3585 707 151.066 269.451 481.948
3788 0 57.2077 12.3585 707 151.066 269.451 481.948
3789 0 57.2077 12.3585 707 151.066 269.451 481.948
3790 0 57.2077 12.3585 707 151.066 269.451 481.948
3791 0 57.2077 12.3585 707 151.066 269.451 481.948
3792 0 57.2077 12.3585 707 151.066 269.451 481.948
3793 0 57.2077 12.3585 707 151.066 269.451 481.948
3794 0 57.2077 12.3585 707 151.066 269.451 481.948
3795 0 57.2077 12.3585 707 151.066 269.451 481.948
3796 0 57.2077 12.3585 707 151.066 269.451 481.948
3797 0 57.2077 12.3585 707 151.066 269.451 481.948
3798 0 57.2077 12.3585 707 151.066 269.451 481.948
3799 0 57.2077 12.3585 707 151.066 269.451 481.948
3800 0 57.2077 12.3585 707 151.066 269.451 481.948
3801 0 57.2077 12.3585 707 151.066 269.451 481.948
3802 0 57.2077 12.3585 707 151.066 269.451 481.948
3803 0 57.2077 12.3585 707 151.066 269.451 481.948
3804 0 57.2077 12.3585 707 151.066 269.451 481.948
3805 0 57.2077 12.3585 707 151.066 269.451 481.948
3806 0 57.2077 12.3585 707 151.066 269.451 481.948
3807 0 57.2077 12.3585 707 151.066 269.451 481.948
3808 0 57.2077 12.3585 707 151.066 269.451 481.948
3809 0 57.2077 12.3585 707 151.066 269.451 481.948
3810 0 57.2077 12.3585 707 151.066 269.451 481.948
3811 0 57.2077 12.3585 707 151.066 269.451 481.948
3812 0 57.2077 12.3585 707 151.066 269.451 481.948
3813 0 57.2077 12.3585 707 151.066 269.451 481.948
3814 0 57.2077 12.3585 707 151.066 269.451 481.948
3815 0 57.2077 12.3585 707 151.066 269.451 481.948
3816 0 57.2077 12.3585 707 151.066 269.451 481.948
3817 0 57.2077 12.3585 707 151.066 269.451 481.948
3818 0 57.2077 12.3585 707 151.066 269.451 481.948
3819 0 57.2077 12.3585 707 151.066 269.451 481.948
3820 0 57.2077 12.3585 707 151.066 269.451 481.948
3821 0 57.2077 12.3585 707 151.066 269.451 481.948
3822 0 57.2077 12.3585 707 151.066 269.451 481.948
3823 0 57.2077 12.3585 707 151.066 269.451 481.948
3824 0 57.2077 12.3585 707 151.066 269.451 481.948
3825 0 57.2077 12.3585 707 151.066 269.451 481.948
3826 0 57.2077 12.3585 707 151.066 269.451 481.948
3827 0 57.2077 12.3585 707 151.066 269.451 481.948
3828 0 57.2077 12.3585 707 151.066 269.451 481.948
3829 0 57.2077 12.3585 707 151.066 269.451 481.948
3830 0 57.2077 12.3585 707 151.066 269.451 481.948
3831 0 57.2077 12.3585 707 151.066 269.451 481.948
3832 0 57.2077 12.3585 707 151.066 269.451 481.948
3833 0 57.2077 12.3585 707 151.066 269.451 481.948
3834 0 57.2077 12.3585 707 151.066 269.451 481.948
3835 0 57.2077 12.3585 707 151.066 269.451 481.948
3836 0 57.2077 12.3585 707 151.066 269.451 481.948
3837 0 57.2077 12.3585 707 151.066 269.451 481.948
3838 0 57.2077 12.3585 707 151.066 269.451 481.948
3839 0 57.2077 12.3585 707 151.066 269.451 481.948
3840 0 57.2077 12.3585 707 151.066 269.451 481.948
3841 0 57.2077 12.3585 707 151.066 269.451 481.948
3842 0 57.2077 12.3585 707 151.066 269.451 481.948
3843 0 57.2077 12.3585 707 151.066 269.451 481.948
3844 0 57.2077 12.3585 707 151.066 269.451 481.948
3845 0 57.2077 12.3585 707 151.066 269.451 481.948
3846 0 57.2077 12.3585 707 151.066 269.451 481.948
3847 0 57.2077 12.3585 707 151.066 269.451 481.948
3848 0 57.2077 12.3585 707 151.066 269.451 481.948
3849 0 57.2077 12.3585 707 151.066 269.451 481.948
3850 0 57.2077 12.3585 707 151.066 269.451 481.948
3851 0 57.2077 12.3585 707 151.066 269.451 481.948
3852 0 57.2077 12.3585 707 151.066 269.451 481.948
3853 0 57.2077 12.3585 707 151.066 269.451 481.948
3854 0 57.2077 12.3585 707 151.066 269.451 481.948
3855 0 57.2077 12.3585 707 151.066 269.451 481.948
3856 0 57.2077 12.3585 707 151.066 269.451 481.948
3857 0 57.2077 12.3585 707 151.066 269.451 481.948
3858 0 57.2077 12.3585 707 151.066 269.451 481.948
3859 0 57.2077 12.3585 707 151.066 269.451 481.948
3860 0 57.2077 12.3585 707 151.066 269.451 481.948
3861 0 57.2077 12.3585 707 151.066 269.451 481.948
3862 0 57.2077 12.3585 707 151.066 269.451 481.948
3863 0 57.2077 12.3585 707 151.066 269.451 481.948
3864 0 57.2077 12.3585 707 151.066 269.451 481.948
3865 0 57.2077 12.3585 707 151.066 269.451 481.948
3866 0 57.2077 12.3585 707 151.066 269.451 481.948
3867 0 57.2077 12.3585 707 151.066 269.451 481.948
3868 0 57.2077 12.3585 707 151.066 269.451 481.948
3869 0 57.2077 12.3585 707 151.066 269.451 481.948
3870 0 57.2077 12.3585 707 151.066 269.451 481.948
3871 0 57.2077 12.3585 707 151.066 269.451 481.948
3872 0 57.2077 12.3585 707 151.066 269.451 481.948
3873 0 57.2077 12.3585 707 151.066 269.451 481.948
3874 0 57.2077 12.3585 707 151.066 269.451 481.948
3875 0 57.2077 12.3585 707 151.066 269.451 481.948
3876 0 57.2077 12.3585 707 151.066 269.451 481.948
3877 0 57.2077 12.3585 707 151.066 269.451 481.948
3878 0 57.2077 12.3585 707 151.066 269.451 481.948
3879 0 57.2077 12.3585 707 151.066 269.451 481.948
3880 0 57.2077 12.3585 707 151.066 269.451 481.948
3881 0 57.2077 12.3585 707 151.066 269.451 481.948
3882 0 57.2077 12.3585 707 151.066 269.451 481.948
3883 0 57.2077 12.3585 707 151.066 269.451 481.948
3884 0 57.2077 12.3585 707 151.066 269.451 481.948
3885 0 57.2077 12.3585 707 151.066 269.451 481.948
3886 0 57.2077 12.3585 707 151.066 269.451 481.948
3887 0 57.2077 12.3585 707 151.066 269.451 481.948
3888 0 57.2077 12.3585 707 151.066 269.451 481.948
3889 0 57.2077 12.3585 707 151.066 269.451 481.948
3890 0 57.2077 12.3585 707 151.066 269.451 481.948
3891 0 57.2077 12.3585 707 151.066 269.451 481.948
3892 0 57.2077 12.3585 707 151.066 269.451 481.948
3893 0 57.2077 12.3585 707 151.066 269.451 481.948
3894 0 57.2077 12.3585 707 151.066 269.451 481.948
3895 0 57.2077 12.3585 707 151.066 269.451 481.948
3896 0 57.2077 12.3585 707 151.066 269.451 481.948
3897 0 57.2077 12.3585 707 151.066 269.451 481.948
3898 0 57.2077 12.3585 707 151.066 269.451 481.948
3899 0 57.2077 12.3585 707 151.066 269.451 481.948
3900 0 57.2077 12.3585 707 151.066 269.451 481.948
3901 0 57.2077 12.3585 707 151.066 269.451 481.948
3902 0 57.2077 12.3585 707 151.066 269.451 481.948
3903 0 57.2077 12.3585 707 151.066 269.451 481.948
3904 0 57.2077 12.3585 707 151.066 269.451 481.948
3905 0 57.2077 12.3585 707 151.066 269.451 481.948
3906 0 57.2077 12.3585 707 151.066 269.451 481.948
3907 0 57.2077 12.3585 707 151.066 269.451 481.948
3908 0 57.2077 12.3585 707 151.066 269.451 481.948
3909 0 57.2077 12.3585 707 151.066 269.451 481.948
3910 0 57.2077 12.3585 707 151.066 269.451 481.948
3911 0 57.2077 12.3585 707 151.066 269.451 481.948
3912 0 57.2077 12.3585 707 151.066 269.451 481.948
3913 0 57.2077 12.3585 707 151.066 269.451 481.948
3914 0 57.2077 12.3585 707 151.066 269.451 481.948
3915 0 57.2077 12.3585 707 151.066 269.451 481.948
3916 0 57.2077 12.3585 707 151.066 269.451 481.948
3917 0 57.2077 12.3585 707 151.066 269.451 481.948
3918 0 57.2077 12.3585 707 151.066 269.451 481.948
3919 0 57.2077 12.3585 707 151.066 269.451 481.948
3920 0 57.2077 12.3585 707 151.066 269.451 481.948
3921 0 57.2077 12.3585 707 151.066 269.451 481.948
3922 0 57.2077 12.3585 707 151.066 269.451 481.948
3923 0 57.2077 12.3585 707 151.066 269.451 481.948
3924 0 57.2077 12.3585 707 151.066 269.451 481.948
3925 0 57.2077 12.3585 707 151.066 269.451 481.948
3926 0 57.2077 12.3585 707 151.066 269.451 481.948
3927 0 57.2077 12.3585 707 151.066 269.451 481.948
3928 0 57.2077 12.3585 707 151.066 269.451 481.948
3929 0 57.2077 12.3585 707 151.066 269.451 481.948
3930 0 57.2077 12.3585 707 151.066 269.451 481.948
3931 0 57.2077 12.3585 707 151.066 269.451 481.948
3932 0 57.2077 12.3585 707 151.066 269.451 481.948
3933 0 57.2077 12.3585 707 151.066 269.451 481.948
3934 0 57.2077 12.3585 707 151.066 269.451 481.948
3935 0 57.2077 12.3585 707 151.066 269.451 481.948
3936 0 57.2077 12.3585 707 151.066 269.451 481.948
3937 0 57.2077 12.3585 707 151.066 269.451 481.948
3938 0 57.2077 12.3585 707 151.066 269.451 481.948
3939 0 57.2077 12.3585 707 151.066 269.451 481.948
3940 0 57.2077 12.3585 707 151.066 269.451 481.948
3941 0 57.2077 12.3585 707 151.066 269.451 481.948
3942 0 57.2077 12.3585 707 151.066 269.451 481.948
3943 0 57.2077 12.3585 707 151.066 269.451 481.948
3944 0 57.2077 12.3585 707 151.066 269.451 481.948
3945 0 57.2077 12.3585 707 151.066 269.451 481.948
