time division length width area intensity CMx CMy
0 0 56.0502 12.8813 722 149.158 205.468 477.644
1 0 57.0764 12.3694 706 150.644 206.371 477.241
2 0 57.0942 11.3322 647 153.454 206.012 477.099
3 0 60.0492 12.2566 736 149.126 205.552 474.473
4 0 62.0766 13.0484 810 146.294 206.177 473.878
5 1 32.0334 11.2383 360 150.794 206.994 489.272
6 0 32.0375 10.4877 336 153.19 206.345 489.452
7 0 34.1028 11.4653 391 148.916 206.179 489.524
8 0 35.0442 11.1859 392 148.02 206.492 490.753
9 0 35.0254 11.6487 408 149.402 205.652 488.252
10 0 36.0393 11.321 408 147.755 205.566 489.828
11 0 35.0103 11.9108 417 147.086 205.933 489.18
12 0 38.0452 13.9834 532 140.731 206.073 487.271
13 0 40.0084 13.8221 553 140.579 206.363 486.855
14 0 39.0204 12.7625 498 144.076 204.998 488.044
15 0 42.0666 13.7876 580 138.578 205.057 486.491
16 0 43.0327 14.1288 608 137.349 205.299 485.696
17 0 45.039 13.3662 602 138.4 205.493 486.691
18 0 46.0588 14.6986 677 134.099 204.129 486.354
19 0 45.1445 12.8476 580 141.579 204.564 486.821
20 0 48.0453 13.4456 646 138.11 204.045 485.591
21 0 50.0186 13.0551 653 138.499 204.389 484.833
22 0 52.1437 14.8052 772 141.525 203.699 483.872
23 0 53.0553 13.8158 733 145.412 203.304 484.363
24 0 54.0597 13.8921 751 144.501 203.144 485.226
25 0 53.0515 13.9299 739 147.014 203.313 482.901
26 0 56.0468 12.9713 727 148.3 203.387 483.234
27 0 59.0637 13.8325 817 144.188 203.179 482.848
28 0 62.048 14.8434 921 141.318 203.33 480.871
29 0 63.0488 14.8932 939 141.816 203.08 481.17
30 0 65.0831 14.3663 935 143.257 202.942 479.879
31 0 66.0681 13.4709 890 144.531 203.409 481.292
32 0 68.1588 14.5249 990 142.979 202.81 477.788
33 0 71.0752 14.4354 1026 143.38 202.561 477.473
34 0 73.1448 15.1207 1106 141.645 202.731 475.056
35 0 75.0794 14.5046 1089 143.668 202.456 475.201
36 0 78.0769 14.4601 1129 142.562 202.456 475.787
37 0 81.1537 15.0948 1225 140.564 202.243 473.789
38 0 84.2219 14.5212 1223 141.523 201.609 472.354
39 0 87.0926 14.1459 1232 143.246 201.472 470.09
40 0 89.0886 15.0749 1343 137.744 201.854 471.017
41 0 93.0522 14.0781 1310 140.558 201.769 468.931
42 0 97.1169 14.1479 1374 140.865 202.05 466.323
43 1 44.0154 12.4048 546 139.322 202.284 493.628
44 0 47.1211 13.7942 650 138.211 201.509 489.815
45 0 49.0587 14.2482 699 139.236 201.843 488.977
46 0 51.0383 14.7928 755 136.833 201.309 488.82
47 0 53.0517 13.4963 716 139.536 201.203 488.683
48 0 53.0638 14.3035 759 139.995 201.41 487.864
49 0 54.1104 14.2856 773 140.485 202.172 486.454
50 0 55.0686 12.7114 700 146.65 201.176 486.863
51 0 57.1625 13.9427 797 142.015 201.703 485.329
52 0 61.0858 13.964 853 139.623 201.114 485.001
53 0 62.0365 13.4759 836 141.846 201.651 483.184
54 0 63.0927 14.4232 910 140.153 201.759 480.541
55 0 66.0477 12.9452 855 141.4 201.092 481.25
56 0 70.1382 14.115 990 136.564 200.822 479.842
57 0 72.0176 13.9688 1006 135.82 200.888 479.286
58 0 74.0404 13.7493 1018 135.794 200.607 478.353
59 0 76.0858 13.1036 997 138.666 200.439 476.107
60 1 38.0779 11.3714 433 132.776 200.806 494.677
61 0 40.0342 12.2395 490 128.592 200.492 494.665
62 0 41.0281 12.3086 505 128.549 200.125 494.309
63 0 44.0366 12.9665 571 122.609 201.222 493.769
64 0 46.0256 13.8401 637 119.736 200.637 493.554
65 0 46.0482 12.6172 581 125.659 201.09 493.041
66 0 47.0256 13.8648 652 122.643 201.334 491.114
67 0 45.0912 10.7338 484 124.31 201.39 488.938
68 0 47.1104 11.7384 553 121.445 201.145 488.91
69 0 48.0661 12.2124 587 121.225 200.913 487.416
70 0 52.078 13.7678 717 128.287 200.335 488.792
71 0 53.1394 14.095 749 129.274 200.996 487.636
72 0 53.0298 13.8224 733 130.765 200.977 487.277
73 0 56.1146 14.0249 787 128.973 200.165 486.042
74 0 59.0654 14.4924 856 125.146 199.856 486.078
75 0 61.0377 14.0896 860 125.898 200.522 485.991
76 0 62.0643 13.6471 847 127.911 200.528 485.164
77 0 62.1714 13.9453 867 129.163 200.141 480.893
78 0 65.0556 14.7873 962 122.649 200.084 483.057
79 0 67.0598 13.3314 894 127.579 199.443 482.466
80 0 70.0887 13.7112 961 126.516 199.329 481.491
81 0 71.036 14.1055 1002 125.874 200.143 480.879
82 0 74.0866 12.8768 954 129.009 200.209 479.117
83 1 40.0304 11.916 477 125.287 201.128 494.782
84 0 42.0372 11.918 501 122.583 202.693 494.018
85 0 41.0525 11.059 454 120.718 201.267 494.775
86 0 43.0429 11.8951 512 119.402 200.6 494.682
87 0 43.0428 11.5931 499 120.224 201.064 495.122
88 0 46.0582 13.3961 617 115.648 201.034 494.039
89 0 48.0456 12.509 601 117.953 200.862 492.459
90 0 50.0501 13.1069 656 116.072 200.012 492.759
91 0 52.0272 13.0893 681 117.115 200.041 491.602
92 0 51.0633 13.121 670 118.601 200.097 490.443
93 0 53.0768 12.6421 671 119.675 199.903 490.517
94 0 54.0865 13.5524 733 119.048 199.574 488.574
95 0 56.063 13.3421 748 119.616 199.922 488.218
96 0 60.0644 12.3035 739 121.122 199.414 487.415
97 0 61.1667 14.2071 869 117.287 199.962 485.296
98 0 64.074 13.2347 848 119.219 200.061 484.645
99 0 64.1058 13.8209 886 119.812 199.892 485.043
100 0 67.1267 13.333 895 120.774 199.66 484.356
101 0 71.0774 13.9144 989 120.467 199.112 481.3
102 0 72.3302 14.4062 1042 119.975 199.572 481.073
103 0 77.2016 14.8054 1143 118.922 200.018 478.222
104 0 81.2546 14.0669 1143 120.334 199.878 477.571
105 0 84.2649 15.5462 1310 118.54 200.064 476.279
106 0 86.0833 13.6496 1175 117.5 200.188 474.092
107 1 44.1057 11.5631 510 117.547 200.416 494.853
108 0 45.0795 12.5112 564 117.757 201.112 494.129
109 0 48.0412 13.3843 643 113.894 200.096 494.022
110 0 48.071 13.1056 630 117.594 199.683 493.348
111 0 49.1248 13.313 654 118.817 199.752 492.632
112 0 50.023 13.2339 662 119.935 199.125 490.576
113 0 54.103 14.0473 760 114.928 199.159 491.989
114 0 54.0279 12.7527 689 119.424 199.914 491.006
115 0 56.0683 13.0555 732 119.541 199.234 488.844
116 0 58.031 12.7173 738 120.236 199.793 487.856
117 0 59.0927 12.2519 724 123.238 199.173 486.948
118 0 60.1125 12.5099 752 122.582 199.77 486.9
119 0 64.1548 12.8284 823 122.758 200.022 485.874
120 0 66.1089 13.2206 874 121.398 199.578 483.87
121 0 66.0976 12.4513 823 125.373 199.147 483.951
122 0 69.0899 13.2581 916 122.177 199.574 482.311
123 0 70.1195 12.6213 885 125.669 199.201 481.759
124 0 76.0468 12.9788 987 122.159 199.806 480.628
125 0 78.257 12.4845 977 123.886 198.825 479.634
126 0 80.1942 13.2179 1060 122.675 199.334 477.771
127 0 83.1268 12.9561 1077 123.279 199.547 477.138
128 0 86.1162 13.3308 1148 122.186 200.19 475.596
129 0 88.0733 11.3201 997 126.751 199.366 474.578
130 1 49.0828 11.3074 555 126.481 199.523 492.782
131 0 49.1339 12.3133 605 121.983 200.19 490.828
132 0 51.0559 12.359 631 119.409 200.002 492.448
133 0 51.0289 12.7575 651 124.611 198.155 490.974
134 0 54.0413 13.3046 719 122.287 198.189 490.455
135 0 55.0975 12.7229 701 125.068 197.608 488.603
136 0 58.0423 14.1104 819 120.647 198.563 487.015
137 0 60.2002 13.9368 839 120.962 198.315 486.857
138 0 62.154 13.4666 837 119.728 198.596 486.655
139 0 64.1184 13.5375 868 119.714 198.55 484.656
140 0 66.0456 12.9305 854 120.996 198.612 483.145
141 0 68.1818 13.4493 917 118.737 198.298 482.872
142 0 71.1574 13.4069 954 119.472 198.601 480.156
143 0 71.0749 12.3954 881 123.15 198.468 478.975
144 0 74.0421 12.9116 956 122.037 198.435 478.182
145 0 77.1147 12.4749 962 121.425 198.985 476.958
146 0 80.1123 13.3562 1070 119.609 198.981 475.066
147 0 82.0683 13.1963 1083 120.554 198.67 472.301
148 0 84.1708 11.0965 934 124.528 198.869 474.244
149 0 89.2327 12.3946 1106 120.799 198.872 472.363
150 0 92.2302 13.1085 1209 119.763 198.402 469.108
151 1 50.0757 12.6608 634 115.052 198.303 488.95
152 0 51.0771 12.9216 660 116.205 199.791 487.603
153 0 50.0301 11.3132 566 110.949 199.159 490.733
154 0 53.1035 11.5247 612 109.755 199.742 490.15
155 0 54.1335 11.9889 649 109.257 199.017 487.766
156 0 57.0609 11.4089 651 108.946 199.475 488.167
157 0 59.2336 12.4592 738 106.302 199.543 486.251
158 0 59.0327 11.6715 689 108.1 199.935 486.379
159 0 61.0342 11.8786 725 108.183 199.314 483.375
160 0 64.0582 11.2242 719 109.273 199.869 482.252
161 0 66.0653 11.7611 777 107.439 199.068 481.719
162 0 68.045 12.2566 834 106.243 199.349 483.201
163 0 70.0886 12.156 852 107.155 199.365 481.621
164 0 71.0509 12.667 900 107.029 199.573 479.084
165 0 75.0819 11.5341 866 109.38 200.178 478.388
166 0 78.0607 12.6568 988 108.512 200.479 476.252
167 0 82.0675 12.0632 990 110.192 200.228 473.587
168 0 85.1016 13.76 1171 107.477 199.353 473.027
169 0 90.1161 13.0831 1179 108.524 199.271 471.46
170 0 91.0843 13.8114 1258 110.069 199.198 467.805
171 0 95.0578 13.4444 1278 112.426 199.536 465.935
172 1 45.0426 10.7454 484 112.899 198.678 492.306
173 0 48.1201 12.0532 580 109.878 198.569 487.955
174 0 52.0907 12.3055 641 107.463 198.878 489.323
175 0 51.0772 11.1987 572 111.283 198.914 489.551
176 0 54.1891 11.017 597 119.66 198.859 488.998
177 0 57.0951 11.6823 667 117.072 199.063 488.997
178 0 58.101 12.5815 731 114.601 199.208 485.77
179 0 60.1356 12.9873 781 113.533 198.417 484.821
180 0 60.0702 11.3534 682 113.581 198.966 482.849
181 0 63.0806 12.6663 799 109.608 199.045 482.406
182 0 64.0775 13.1091 840 109.718 199.183 482.963
183 0 65.0904 11.7222 763 113.434 199.06 482.06
184 0 68.0488 11.8738 808 112.536 198.856 481.511
185 0 72.1872 12.3291 890 111.307 199.265 479.534
186 0 73.2105 11.5694 847 114.184 200.044 477.001
187 0 76.2141 12.3993 945 112.63 200.093 475.046
188 0 80.2737 12.7813 1026 111.696 199.535 472.521
189 0 82.3746 13.3901 1103 110.116 199.378 472.075
190 0 86.3525 12.449 1075 111.302 199.59 469.799
191 0 87.3216 12.391 1082 112.102 198.847 468.557
192 0 92.2785 13.3401 1231 110.577 199.414 465.267
193 0 94.2041 12.0483 1135 112.299 199.284 464.772
194 1 51.1686 11.9605 612 104.286 200.059 487.925
195 0 53.092 12.4501 661 102.87 199.439 489.504
196 0 54.1176 11.8446 641 105.846 199.61 486.479
197 0 56.0462 12.5789 705 102.97 199.604 486.165
198 0 60.0602 12.1878 732 103.545 200.273 486.874
199 0 60.0587 12.1215 728 103.339 199.637 485.321
200 0 62.1084 11.3994 708 105.345 199.309 484.113
201 0 65.1065 10.8591 707 105.958 198.662 483.825
202 0 67.0679 12.0177 806 105.543 199.873 480.158
203 0 71.1563 12.0439 857 104.58 199.52 479.526
204 0 71.1047 11.4338 813 107.164 200.042 477.483
205 0 77.1058 12.0743 931 105.492 199.712 477.914
206 0 79.1155 12.6271 999 107.457 199.477 474.217
207 1 39.065 10.6489 416 104.87 200.329 495.716
208 0 42.1099 10.0926 425 104.894 200.129 492.136
209 0 42.1331 11.6061 489 103.288 199.568 490.849
210 0 46.1199 11.6436 537 101.015 199.899 491.667
211 0 46.0494 11.1185 512 104.625 199.803 490.297
212 0 48.0713 10.5468 507 106.193 199.888 492.434
213 0 49.0215 12.4639 611 102.946 199.899 490.131
214 0 53.2416 12.7344 678 101.882 199.385 489.522
215 0 54.1276 12.9139 699 109.482 198.815 487.398
216 0 55.1513 11.7314 647 112.64 198.447 487.947
217 0 57.2139 12.6892 726 109.572 198.775 487.091
218 0 56.068 11.4147 640 114.075 199.167 486.198
219 0 57.1563 11.8272 676 112.873 199.713 486.136
220 0 58.2229 10.9064 635 114.137 199.638 485.964
221 0 62.1658 11.7267 729 111.819 199.549 484.15
222 0 62.1029 11.7225 728 110.864 200.173 483.46
223 0 66.2276 12.7741 846 107.843 199.411 482.241
224 0 69.1547 11.4815 794 110.128 199.514 480.087
225 0 71.1091 12.0519 857 108.247 199.697 480.567
226 0 74.0681 13.4066 993 104.549 199.339 478.835
227 0 75.102 12.5829 945 107.372 199.228 476.593
228 0 78.0956 10.7817 842 110.923 199.727 476.646
229 0 83.1248 12.2948 1022 109.051 199.694 472.984
230 1 40.0377 9.54102 382 107.183 200.521 493.662
231 0 44.0165 10.6097 467 104.585 200.173 493.48
232 0 45.0493 11.6983 527 104.922 199.139 491.886
233 0 47.0308 11.5669 544 105.719 200.542 492.695
234 0 49.0138 12.4863 612 103.801 199.93 490.662
235 0 49.0767 12.185 598 106.06 199.56 490.943
236 0 52.062 13.2919 692 103.474 199.597 489.893
237 0 52.1058 12.1676 634 107.311 199.582 488.497
238 0 55.079 13.2174 728 103.937 199.478 487.326
239 0 58.054 13.1429 763 104.472 199.613 487.093
240 0 59.0927 12.3535 730 107.19 199.519 484.899
241 0 63.1781 13.0267 823 104.842 199.674 485.864
242 0 62.1682 12.4501 774 108.773 199.115 482.824
243 0 64.1402 12.7377 817 108.338 198.704 481.684
244 0 68.0599 13.4587 916 105.86 198.764 482.233
245 0 70.1331 13.3603 937 107.498 199.346 480.663
246 0 71.1548 12.9858 924 109.054 199.133 479.621
247 0 72.096 13.1491 948 109.804 199.03 477.201
248 0 78.0632 13.1688 1028 108.002 199.116 477.297
249 0 81.07 13.7165 1112 106.962 199.173 474.709
250 0 81.0724 12.4703 1011 110.188 199.705 474.211
251 0 85.1612 12.9284 1101 108.908 199.646 473.221
252 0 88.1391 12.8093 1129 109.543 199.401 470.33
253 1 47.0313 11.5668 544 105.151 198.11 491.355
254 0 49.0495 12.1102 594 105.714 198.402 491.311
255 0 48.0404 11.5528 555 100.908 199.254 489.843
256 0 47.0429 9.56574 450 111.824 200.42 490.756
257 0 48.0912 10.0226 482 111.741 201.058 490.425
258 0 52.0761 11.464 597 106.166 201.106 490.357
259 0 53.0661 11.7966 626 105.657 200.77 490.746
260 0 53.0678 9.83647 522 110.404 200.297 489.768
261 0 55.0585 11.5332 635 107.517 199.69 488.013
262 0 57.1311 9.46945 541 111.662 199.468 487.891
263 0 60.023 11.2957 678 108.059 200.149 485.653
264 0 60.0492 11.2741 677 109.718 199.1 483.883
265 0 63.3475 11.9026 754 108.092 198.977 483.424
266 0 67.1319 11.4551 769 109.043 199.596 482.636
267 0 69.0771 11.5378 797 108.936 199.823 483.673
268 0 72.0514 11.8249 852 109.14 199.477 479.596
269 0 74.1379 12.8544 953 106.984 198.829 479.811
270 0 74.148 10.2498 760 114.695 199.034 479.316
271 0 79.0903 12.3403 976 108.934 198.917 476.468
272 0 80.1442 11.1798 896 112.823 199.433 472.33
273 1 42.02 10.6854 449 109.895 199.479 494.479
274 0 43.0642 11.1926 482 108.88 199.973 494.122
275 0 45.0801 12.8438 579 106.131 200.622 493.149
276 0 47.0176 13.6332 641 104.29 200.248 493.07
277 0 46.0935 11.6069 535 111.454 200.791 491.437
278 0 47.0744 11.6199 547 111.881 200.709 490.945
279 0 49.1152 11.9515 587 111.412 200.794 489.448
280 0 51.0627 11.5153 588 111.605 200.952 490.881
281 0 53.0799 12.5283 665 109.95 201.217 488.262
282 0 53.1508 12.4739 663 110.535 201.49 488.759
283 0 56.1012 12.3883 695 110.494 200.468 488.632
284 0 55.1172 12.7728 704 111.743 200.95 488.061
285 0 56.1484 12.4313 698 113.374 200.183 487.188
286 0 58.1463 12.7265 740 112.886 200.495 485.715
287 0 61.1108 12.8128 783 111.296 199.985 484.503
288 0 62.1157 12.3318 766 113.802 199.952 483.059
289 0 66.1175 13.355 883 110.938 200.641 482.228
290 0 68.1187 12.625 860 113.594 200.292 480.379
291 0 73.042 13.814 1009 109.171 200.821 481.629
292 0 72.055 12.0186 866 116.807 200.319 479.715
293 0 75.0932 13.157 988 114.017 200.884 480.196
294 0 79.1354 13.0283 1031 114.836 200.34 477.535
295 0 81.1381 13.5818 1102 113.657 200.789 475.949
296 0 85.1791 13.4657 1147 114.42 200.658 474.385
297 1 42.0471 11.2731 474 122.319 200.949 493.483
298 0 45.099 11.3084 510 119.271 200.922 493.08
299 0 47.0307 13.1191 617 117.397 197.609 490.157
300 0 49.033 11.5228 565 122.021 197.809 490.239
301 0 50.0558 12.2863 615 119.689 197.953 490.745
302 0 51.0245 12.3862 632 120.578 197.752 489.228
303 0 53.022 12.1648 645 120.152 197.633 489.633
304 0 55.0361 12.4282 684 118.949 197.731 489.2
305 0 56.0432 13.7751 772 116.452 198.013 487.593
306 0 57.0278 12.8534 733 118.776 198.464 486.778
307 0 59.0448 13.1595 777 117.831 197.857 484.956
308 0 59.0825 12.6264 746 120.871 197.584 483.976
309 0 62.0877 12.0636 749 121.174 199.769 482.949
310 0 64.2313 12.5795 808 119.199 198.64 482.973
311 0 67.0893 13.9814 938 115.552 199.16 482
312 0 68.1817 12.2907 838 119.938 199.5 481.582
313 0 72.0941 13.0246 939 117.92 199.307 479.473
314 0 74.1698 11.5276 855 121.792 199.593 478.82
315 0 76.136 12.7272 969 119.596 199.153 477.243
316 0 78.0796 12.6666 989 118.608 198.78 476.739
317 0 82.1497 12.3312 1013 119.751 198.935 474.307
318 1 43.0888 10.0722 434 116.281 198.813 494.675
319 0 42.0315 9.37392 394 119.756 198.437 494.01
320 0 46.0407 12.3586 569 110.483 200.779 492.851
321 0 47.0346 10.9919 517 115.42 200.526 491.816
322 0 45.0495 11.6317 524 110.609 200.87 493.027
323 0 48.0875 12.8724 619 106.465 200.871 492.887
324 0 49.0324 11.7881 578 108.542 199.941 492.502
325 0 49.0803 10.6764 524 111.187 200.485 492.307
326 0 51.072 11.9243 609 109.187 200.266 490.179
327 0 54.1308 11.5461 625 108.6 200.566 490.984
328 0 53.0777 12.3781 657 107.28 199.995 490.237
329 0 54.0577 12.9861 702 107.667 200.204 488.056
330 0 57.1315 12.7425 728 105.754 199.953 487.72
331 0 57.0838 12.0525 688 109.031 199.805 486.028
332 0 60.1593 11.0041 662 109.736 200.603 486.307
333 0 62.0692 10.8911 676 110.553 200.163 485.562
334 0 63.0788 11.9692 755 109.399 200.636 484.502
335 0 66.1571 11.6994 774 109.659 200.82 486.021
336 0 68.1814 11.9241 813 113.859 199.769 482.406
337 0 71.1488 12.4528 886 112.805 200.424 481.782
338 0 72.1224 11.7301 846 114.719 200.7 484.039
339 0 74.0542 11.9372 884 116.974 200.231 480.226
340 1 41.0521 11.9848 492 118.201 200.081 494.382
341 0 42.0669 11.4104 480 119.344 200.571 494.702
342 0 44.0968 12.6086 556 116.365 200.862 493.353
343 0 44.0759 12.8868 568 110.695 200.819 495.746
344 0 44.0581 11.1217 490 117.153 200.849 495.035
345 0 45.0757 11.7136 528 115.112 201.348 495.144
346 0 45.0573 12.3177 555 117.836 201.202 492.36
347 0 47.0408 11.6495 548 118.9 201.571 493.155
348 0 48.0408 12.0106 577 119.142 201.049 493.049
349 0 49.1368 12.0683 593 120.256 201.814 492.417
350 0 50.099 11.7767 590 122.514 201.542 491.849
351 0 53.0931 12.6947 674 120.49 201.199 490.772
352 0 54.0542 11.914 644 122.943 200.966 490.239
353 0 55.1283 11.9177 657 123.438 201.149 490.148
354 0 57.1156 13.1663 752 121.082 201.681 487.384
355 0 59.1206 12.2123 722 124.623 201.993 487.533
356 0 61.1284 13.5289 827 122.219 201.353 486.172
357 0 64.0479 12.4907 800 124.97 200.696 485.764
358 0 66.1143 12.9927 859 124.915 200.634 484.371
359 0 65.1366 12.6964 827 128.432 201.568 484.585
360 0 70.093 12.8543 901 128.127 200.812 483.731
361 0 72.1134 13.4649 971 127.286 201.097 482.07
362 0 75.0624 14.1083 1059 126.044 201.042 480.377
363 0 76.0773 13.7097 1043 129.51 201.401 480.419
364 0 78.1082 13.4045 1047 131.415 200.938 478.26
365 0 82.1381 14.0252 1152 128.53 200.569 476.549
366 0 84.0694 13.5721 1141 129.9 200.568 475.011
367 0 89.1864 13.668 1219 129.273 200.555 472.551
368 1 44.3579 11.4072 506 134.573 201.383 490.723
369 0 47.4142 12.1904 578 130.465 200.948 490.221
370 0 47.0289 12.7794 601 125.418 201.493 492.579
371 0 49.047 12.2535 601 126.111 202.338 493.058
372 0 50.0553 11.0877 555 127.371 202.395 493.467
373 0 50.0892 11.8788 595 127.217 201.57 489.563
374 0 53.1057 12.8611 683 123.886 201.492 490.772
375 0 53.0785 12.0199 638 129.296 201.433 488.248
376 0 55.0574 12.0238 662 127.796 201.275 489.979
377 0 58.0697 12.95 752 125.584 201.59 487.081
378 0 59.0382 13.1271 775 125.4 201.012 486.826
379 0 60.0596 12.3544 742 128.229 200.768 485.81
380 0 63.0432 12.0394 759 128.497 201.005 483.943
381 0 65.1827 12.8408 837 125.404 200.794 484.778
382 0 68.1665 12.2054 832 128.093 201.343 481.864
383 0 71.135 12.8488 914 124.664 201.334 481.188
384 0 73.1511 12.8911 943 125.17 201.195 479.328
385 0 76.1804 11.8272 901 126.257 201.095 477.191
386 0 79.122 12.1711 963 124.258 201.327 476.235
387 0 81.1139 12.2297 992 123.628 201.57 473.427
388 1 44.0842 10.0716 444 118.644 202.403 491.403
389 0 43.0271 9.8775 425 114.734 201.696 485.859
390 0 48.0131 12.1009 581 119.06 198.46 491.384
391 0 51.104 12.2691 627 117.788 198.713 490.491
392 0 52.0266 13.5315 704 114.473 199.307 491.212
393 0 52.0494 11.6044 604 119.954 199.141 490.286
394 0 53.1229 11.6522 619 121.065 199.641 488.312
395 0 55.0599 11.769 648 119.58 199.253 488.901
396 0 56.0635 11.4691 643 122.037 198.927 487.83
397 0 60.0707 12.0691 725 120.774 199.05 485.257
398 0 61.0917 12.7186 777 118.647 199.543 486.015
399 0 61.0429 12.0243 734 122.564 198.937 483.084
400 0 64.0655 11.2541 721 123.264 199.268 484.264
401 0 65.1766 13.2103 861 120.102 199.411 481.395
402 0 67.111 12.4272 834 121.727 199.769 483.456
403 0 69.1836 12.3295 853 122.428 199.648 482.283
404 0 73.1173 12.9381 946 120.698 200.131 479.732
405 0 74.1961 12.0087 891 124.369 199.759 479.875
406 0 77.1132 13.1106 1011 121.462 200.06 477.312
407 0 79.4123 12.5673 998 123.706 200.549 476.438
408 1 43.1245 10.5972 457 117.446 200.234 496.705
409 0 42.0395 10.4188 438 119.301 199.322 494.831
410 0 44.0311 11.5827 510 119.49 199.4 493.194
411 0 47.0639 11.92 561 113.431 202.234 494.242
412 0 44.0295 11.7421 517 114.36 201.36 493.137
413 0 47.0259 11.6319 547 114.58 201.764 492.291
414 0 49.0381 12.4189 609 111.732 200.967 492.888
415 0 52.024 12.7633 664 111.265 201.291 490.547
416 0 53.0757 12.322 654 112.824 201.865 490.379
417 0 54.0177 12.3108 665 112.597 201.039 491.809
418 0 56.0321 12.8676 721 111.037 200.931 490.974
419 0 56.049 11.2223 629 116.884 201.146 491.949
420 0 57.0502 12.0596 688 116.067 200.456 489.769
421 0 59.1155 11.7566 695 115.777 200.54 488.935
422 0 61.066 12.4619 761 115.803 201.034 485.067
423 0 64.081 12.1253 777 114.822 201.381 485.037
424 0 65.0778 11.9088 775 115.427 200.799 485.588
425 0 66.096 12.2398 809 114.913 200.473 483.54
426 0 70.0578 12.5896 882 112.574 201.374 484.098
427 1 148.236 11.6773 1731 126.806 200.962 444.596
428 1 73.0871 12.793 935 115.247 201.914 478.59
429 0 78.102 11.9075 930 115.788 201.76 477.669
430 0 79.1063 12.5654 994 115.36 202.159 476.368
431 0 83.1269 11.8614 986 113.379 202.459 476.583
432 1 40.0482 10.7121 429 115.429 203.152 495.336
433 0 42.0162 10.9006 458 113.937 203.332 494.985
434 0 45.0349 12.9011 581 113.349 198.96 493.666
435 0 46.054 11.8122 544 117.336 198.301 494.142
436 0 49.0352 12.3381 605 115.595 198.874 493.519
437 0 48.0217 13.8063 663 113.172 199.196 492.733
438 0 49.031 12.2575 601 119.125 198.837 491.669
439 0 50.0286 11.8932 595 114.466 199.136 492.208
440 0 51.0326 11.6396 594 115.892 199.869 492.414
441 0 50.0399 10.7314 537 119.538 201.866 492.868
442 0 51.0613 11.8877 607 116.768 202.25 492.128
443 0 53.0353 11.6149 616 118.464 201.786 490.273
444 0 56.0467 12.5074 701 115.976 201.722 489.367
445 0 55.0386 11.9007 655 118.869 202.521 489.319
446 0 58.0303 11.7353 681 119.53 202.568 488.579
447 0 62.0633 13.309 826 114.174 202.377 488.277
448 0 60.0261 11.6283 698 121.685 202.926 485.583
449 0 64.0409 11.8206 757 120.269 202.744 484.963
450 0 67.1 13.1595 883 116.983 201.804 483.854
451 0 69.1023 12.4019 857 118.393 202.126 484.348
452 0 71.0851 11.0431 785 121.838 202.834 483.985
453 0 75.1185 13.3389 1002 116.913 202.099 480.854
454 1 40.0177 10.9452 438 121.799 202.315 496.676
455 0 42.0149 12.1861 512 120.426 202.834 494.23
456 0 42.0114 11.6873 491 118.857 202.147 493.041
457 0 42.0152 10.3296 434 117.763 203.212 492.083
458 0 42.0187 11.4473 481 119.557 202.794 494.362
459 0 43.0367 11.5483 497 119.998 201.636 495.483
460 0 44.0603 12.3694 545 117.895 202.831 495.194
461 0 45.0469 11.5435 520 121.627 203.108 494.021
462 0 47.0424 12.2443 576 119.799 202.234 492.519
463 0 49.0916 12.3239 605 118.94 203.241 492.288
464 0 48.0688 10.4226 501 126.242 203.03 493.122
465 0 51.058 12.7698 652 119.452 203.13 490.821
466 0 53.1361 11.6117 617 121.947 202.629 491.734
467 0 54.0411 11.5653 625 123.286 202.925 489.026
468 0 55.1264 12.7888 705 120.474 202.73 489.176
469 0 57.0345 12.0979 690 121.496 202.875 488.92
470 0 59.0537 12.2092 721 120.667 202.707 488.369
471 0 61.0692 12.5268 765 119.77 202.58 487.897
472 0 63.0781 12.8254 809 118.576 203.02 485.445
473 0 64.0337 12.0562 772 120.858 202.574 485.886
474 0 68.0945 13.7456 936 117.16 202.359 483.302
475 0 70.119 11.6231 815 120.578 202.58 484.183
476 0 71.0698 13.3108 946 116.594 202.932 481.802
477 0 75.1486 13.3868 1006 116.025 201.621 478.988
478 1 41.0562 12.4951 513 114.573 202.877 495.61
479 0 41.0207 11.7745 483 117.795 202.988 494.344
480 0 43.0428 14.2184 612 104.147 202.673 494.771
481 0 44.1024 11.9041 525 109.587 201.806 495.105
482 0 43.0621 12.2846 529 111.216 202.648 493.442
483 0 47.0968 13.313 627 107.399 202.22 492.863
484 0 49.0535 12.3743 607 108.558 202.659 493.334
485 0 47.0953 11.7421 553 113.005 202.835 492.705
486 0 49.0597 11.2312 551 113.466 202.806 493.113
487 0 50.0465 11.4094 571 113.9 203.219 491.839
488 0 52.1624 11.7134 611 112.196 203.136 490.897
489 0 52.1343 11.8924 620 112.652 202.084 490.931
490 0 55.1617 12.0192 663 110.489 202.029 489.769
491 0 56.0506 11.561 648 114.708 202.142 487.622
492 0 58.0359 12.4061 720 111.112 202.231 488.189
493 0 61.1372 13.2489 810 108.49 201.74 487.769
494 0 60.0796 12.084 726 112.86 201.236 485.729
495 0 63.0871 11.9042 751 113.27 201.186 484.944
496 0 68.0678 13.3837 911 107.797 202.12 483.393
497 0 69.1421 11.8452 819 112.253 202.499 482.819
498 0 71.1384 11.1895 796 114.902 202.158 479.876
499 0 79.0995 11.062 875 112.942 201.974 480.482
500 0 77.1398 12.6524 976 115.737 201.128 475.008
501 1 40.1144 11.168 448 118.199 201.138 496.074
502 0 43.1631 12.2558 529 116.282 200.612 494.537
503 0 43.0449 11.5693 498 119.916 200.869 493.968
504 0 41.1536 11.1776 460 116.443 200.967 494.891
505 0 41.1874 10.8043 445 118.425 200.964 495.649
506 0 43.0769 10.7482 463 119.4 201.674 492.873
507 0 45.0596 11.9619 539 116.349 203.237 493.529
508 0 45.0389 9.90254 446 122.578 203.274 494.67
509 0 47.1523 12.4278 586 117.657 203.474 491.768
510 0 50.0816 12.3798 620 116.153 202.421 492.342
511 0 50.0657 12.1241 607 118.104 202.506 491.209
512 0 53.0749 12.6048 669 116.224 203.266 489.738
513 0 56.091 11.9805 672 117.534 203.158 490.344
514 0 54.0683 10.6717 577 122.78 202.792 489.712
515 0 58.0556 12.6775 736 118.118 202.412 487.005
516 0 61.0515 12.5795 768 118.026 202.242 487.065
517 0 61.0271 11.7489 717 121.423 202.046 487.137
518 0 65.0854 10.9856 715 123.972 202.122 486.436
519 0 68.1351 12.578 857 118.761 202.344 484.782
520 0 68.0639 12.2973 837 122.474 202.118 481.437
521 1 38.042 11.093 422 124.256 201.754 497.287
522 0 39.0534 11.6507 455 122.574 202.202 496.501
523 0 41.1045 12.2858 505 119.537 201.65 495.709
524 0 42.3214 12.5232 530 123.974 201.311 494.766
525 0 42.2595 11.5004 486 129.097 201.675 493.858
526 0 44.3278 13.152 583 124.177 200.858 494.461
527 0 44.0489 12.9175 569 125.432 200.641 494.286
528 0 45.2319 12.4691 564 128.532 201.152 493.312
529 0 47.2909 13.068 618 126.989 201.333 491.411
530 0 50.2299 13.3387 670 125.599 201.225 491.53
531 0 51.1232 12.8317 656 128.774 201.634 490.631
532 0 50.1998 12.6295 634 130.562 200.957 490.972
533 0 52.2416 12.2508 640 131.888 200.75 490.527
534 0 55.2022 14.0393 775 125.507 201.27 490.288
535 0 55.1834 13.8991 767 127.837 200.768 489.447
536 0 57.1969 13.3748 765 130.267 200.843 488.212
537 0 60.216 14.1823 854 126.526 200.628 487.388
538 0 60.217 13.3683 805 131.017 200.877 486.457
539 0 62.1883 13.5556 843 130.51 201.068 485.236
540 0 63.1529 12.1768 769 134.909 201.036 485.088
541 0 65.17 14.5159 946 128.068 200.876 482.014
542 0 67.2657 13.5136 909 130.25 201.235 482.799
543 0 68.1994 13.3139 908 131.522 201.304 482.648
544 0 69.1408 13.3785 925 132.816 201.191 479.125
545 0 73.329 13.2553 972 130.806 200.968 479.725
546 0 76.1816 13.9797 1065 128.528 200.855 476.912
547 0 78.1634 13.4334 1050 130.897 201.321 475.945
548 0 81.3036 13.3573 1086 130.299 201.693 474.775
549 0 85.2955 14.057 1199 126.918 201.615 473.515
550 0 85.211 13.3551 1138 130.371 201.98 471.962
551 1 45.0378 12.3008 554 125.982 203.016 491.96
552 0 46.0801 11.1979 516 129.095 203.081 490.802
553 0 45.0533 10.7206 483 123.259 201.911 494.122
554 0 45.0183 10.8622 489 123.354 202.554 493.464
555 0 48.0498 10.6348 511 123.988 202.174 491.918
556 0 50.0619 11.286 565 121.678 201.657 491.63
557 0 52.1115 11.5905 604 120.474 201.684 490.27
558 0 52.1342 11.0484 576 123.189 201.398 488.953
559 0 54.1253 11.6397 630 121.476 202.241 491.292
560 0 57.0789 12.1937 696 119.7 201.716 489.361
561 0 55.0464 12.0444 663 123.724 202.122 486.332
562 0 59.0501 11.3463 670 123.501 201.939 486.94
563 0 63.0858 13.0299 822 119.057 201.906 484.901
564 0 63.1225 12.3411 779 121.683 202.519 485.167
565 0 65.0669 11.1885 728 125.746 202.378 482.902
566 0 67.0524 12.8258 860 121.397 201.867 480.831
567 0 70.1623 12.015 843 122.581 201.676 481.989
568 0 72.0893 11.7909 850 123.775 201.476 481.638
569 0 77.1035 12.9436 998 119.469 201.803 479.205
570 0 80.1085 12.4831 1000 119.72 201.427 478.457
571 0 81.0566 12.7319 1032 120.216 201.556 477.311
572 1 43.0254 11.4816 494 120.455 202.215 495.314
573 0 43.0681 11.8185 509 122.917 202.096 494.607
574 0 44.1097 12.4462 549 120.426 202.076 495.517
575 0 46.0768 12.9132 595 114.634 201.613 494.454
576 0 48.0824 13.2689 638 114.884 201.092 494.072
577 0 51.0679 14.6276 747 110.021 201.987 492.392
578 0 51.0403 13.1465 671 115.966 201.824 491.423
579 0 53.1699 13.6543 726 115.154 200.927 490.981
580 0 53.0387 12.9717 688 116.686 200.935 491.105
581 0 56.1682 13.4952 758 114.983 201.274 490.024
582 0 55.122 14.1686 781 115.985 201.362 486.863
583 0 56.0491 13.0956 734 118.849 201.206 487.154
584 0 60.0715 12.9179 776 119.099 201.889 486.42
585 0 62.0674 14.5165 901 115.533 201.79 486.239
586 0 65.0879 13.7814 897 117.469 202.175 483.799
587 0 66.1166 14.4139 953 115.949 201.994 484.233
588 0 67.1005 13.1892 885 119.398 202.541 483.976
589 0 73.0852 14.9825 1095 112.931 202.468 482.637
590 0 74.0843 14.1595 1049 116.974 202.72 481.719
591 0 74.2528 12.8615 955 121.418 202.444 480.618
592 0 77.1341 12.7829 986 121.872 201.785 480.444
593 0 78.1368 13.0156 1017 121.873 201.794 478.897
594 1 43.0366 13.3143 573 118.265 202.016 496.115
595 0 42.1215 12.5352 528 119.941 202.267 495.748
596 0 44.0919 12.542 553 124.024 200.778 494.94
597 0 45.0256 13.2813 598 113.336 201.798 494.863
598 0 47.028 12.1204 570 113.77 201.37 495.039
599 0 48.0743 13.4375 646 111.147 201.658 493.319
600 0 49.0343 12.1548 596 112.096 201.312 494.069
601 0 47.0368 11.3953 536 115.121 201.66 493.41
602 0 50.0325 11.4526 573 113.86 201.459 492.726
603 0 52.0308 12.6656 659 110.219 201.079 492.255
604 0 54.113 11.938 646 111.288 201.147 491.89
605 0 55.0806 12.2548 675 110.754 201.439 490.099
606 0 57.1578 12.8591 735 109.559 201.805 488.418
607 0 57.1361 12.7765 730 110.063 201.596 487.026
608 0 59.0595 12.6652 748 110.679 202.234 487.159
609 0 62.0912 13.5607 842 107.916 202.261 487.382
610 0 63.0929 11.5068 726 113.083 201.946 485.573
611 0 66.0642 13.4112 886 108.928 201.09 484.041
612 0 67.1668 12.3126 827 113.197 201.761 480.992
613 0 72.1773 12.7325 919 112.412 201.504 480.922
614 0 73.1713 13.7896 1009 112.961 201.124 477.124
615 0 76.0777 13.105 997 114.449 200.964 479.005
616 0 79.0843 13.4161 1061 113.775 200.796 477.188
617 0 81.1118 13.0191 1056 114.927 200.357 476.716
618 0 85.0746 14.6812 1249 111.725 200.303 472.913
619 0 88.1556 13.7257 1210 114.764 200.715 471.579
620 0 91.1913 13.4991 1231 115.924 200.952 469.556
621 0 94.4619 12.3648 1168 118.524 200.665 467.061
622 0 98.2076 14.8054 1454 113.556 200.516 465.798
623 1 49.2953 11.989 591 113.386 200.343 490.526
624 0 50.2092 12.0695 606 113.797 199.606 489.373
625 0 54.0499 11.9889 648 113.429 200.566 491.039
626 0 56.1184 13.7388 771 108.674 200.904 490.346
627 0 57.0541 13.6888 781 112.629 200.524 487.826
628 0 59.0267 12.8755 760 111.759 200.237 488.046
629 0 60.0639 12.8863 774 112.925 201.426 485.627
630 0 64.0435 12.835 822 111.977 200.142 485.848
631 0 65.0853 13.1212 854 113.268 201.419 483.64
632 0 68.0625 12.9293 880 114.377 201.247 482.909
633 0 70.1097 12.7942 897 114.163 200.878 481.582
634 0 71.0967 12.1525 864 116.547 201.506 479.802
635 0 74.0702 13.2442 981 117.965 201.016 477.32
636 0 78.1592 12.8456 1004 116.305 200.593 479.02
637 0 80.1335 14.1763 1136 113.33 200.458 475.114
638 0 80.0799 12.5125 1002 116.913 200.783 476.736
639 0 85.0913 13.1858 1122 116.075 200.996 474.234
640 0 86.1345 13.4325 1157 116.02 199.947 473.136
641 0 87.2401 11.8524 1034 121.433 200.737 471.86
642 0 90.1461 12.7793 1152 120.056 199.669 469.664
643 0 95.3186 13.3972 1277 118.996 199.92 464.328
644 0 98.222 12.8892 1266 119.615 199.787 466.372
645 0 100.195 13.2641 1329 120.416 200.004 464.772
646 0 104.172 14.1305 1472 118.616 200.325 463.537
647 0 107.148 13.4954 1446 120.268 200.885 463.941
648 0 112.171 12.7662 1432 122.547 200.341 458.855
649 0 117.307 13.0427 1530 121.759 199.858 456.084
650 1 66.0865 12.2113 807 114.639 200.112 484.705
651 0 68.0475 12.8881 877 113.571 200.583 482.054
652 0 68.105 13.0974 892 114.388 201.422 483.137
653 0 66.0558 11.4752 758 111.759 200.102 483.639
654 0 72.0681 11.2394 810 110.672 201.138 483.933
655 0 73.074 12.4805 912 109.331 201.126 480.75
656 0 75.1377 12.3107 925 109.451 200.725 479.396
657 0 79.103 11.6936 925 110.024 201.076 479.017
658 0 80.1035 12.6087 1010 108.991 200.214 477.504
659 0 81.169 10.8539 881 112.107 200.101 478.079
660 0 88.0757 11.5469 1017 109.617 200.483 476.075
661 0 86.1411 10.8079 931 111.907 200.886 477.068
662 0 91.0948 12.6462 1152 108.159 200.07 472.377
663 0 92.1299 10.4635 964 110.165 200.626 475.087
664 0 96.1862 10.9059 1049 110.988 200.413 468.082
665 0 100.259 10.7721 1080 110.351 200.306 466.704
666 0 104.242 11.5789 1207 110.341 200.734 464.791
667 0 107.216 11.1178 1192 116.113 200.822 462.953
668 0 113.437 12.2094 1385 111.601 200.654 459.91
669 0 118.292 13.8893 1643 107.918 200.966 457.253
670 1 61.0353 12.075 737 105.452 202.189 485.735
671 0 61.0528 10.237 625 100.422 200.475 480.581
672 0 65.0535 12.4359 809 101.321 200.459 484.138
673 0 65.0921 11.2149 730 106.311 200.895 485.068
674 0 67.1077 11.2655 756 106.009 199.485 484.124
675 0 71.104 12.6013 896 104.472 199.898 481.663
676 0 73.1352 13.058 955 104.746 199.82 479.594
677 0 75.1515 11.9625 899 107.425 200.009 479.772
678 0 80.099 12.8341 1028 105.742 200.59 477.862
679 0 79.1526 12.0148 951 109.462 200.612 476.999
680 0 84.1341 13.1338 1105 106.419 200.17 475.767
681 0 84.13 12.0409 1013 110.225 199.256 476.676
682 0 88.1229 13.1975 1163 108.44 200.031 473.66
683 0 93.0878 12.5688 1170 108.363 199.77 473.503
684 0 95.1291 14.0125 1333 107.09 201.173 469.418
685 0 98.1561 13.448 1320 108.748 201.332 468.822
686 0 102.158 13.4302 1372 111.164 199.68 465.745
687 0 105.109 11.8829 1249 114.062 200.103 466.303
688 1 56.0686 11.4324 641 111.312 200.379 491.312
689 0 57.0264 11.5034 656 110.831 198.707 488.656
690 0 59.0693 12.7139 751 108.57 200.617 487.823
691 0 61.0775 13.6384 833 103.952 201.26 488.493
692 0 61.0718 14.311 874 104.483 201.407 485.609
693 0 64.1748 13.4165 861 106.165 201.089 484.861
694 0 66.0843 13.7249 907 106.195 200.097 485.569
695 0 69.1343 13.5099 934 106.187 200.52 484.352
696 0 69.0561 13.5542 936 107.444 200.494 483.001
697 0 72.1114 13.604 981 107.238 201.087 481.555
698 0 73.069 13.2888 971 108.704 201.027 479.754
699 0 75.0794 13.0262 978 109.174 201.194 479.421
700 0 79.1202 13.4353 1063 107.685 200.965 479.316
701 0 80.1097 12.5952 1009 109.266 200.834 476.892
702 0 86.0572 13.1424 1131 106.959 199.6 475.406
703 0 89.1338 12.6551 1128 106.262 199.665 474.561
704 1 43.0323 10.9685 472 111.922 199.271 494.199
705 0 46.0337 11.7523 541 108.588 199.431 493.848
706 0 48.0307 13.075 628 104.804 200.041 493.505
707 0 51.0828 13.1943 674 104.43 199.059 493.062
708 0 49.1315 13.0263 640 108.177 200.095 490.023
709 0 49.0315 12.7469 625 109.138 199.818 491.762
710 0 52.0696 13.1555 685 107.047 200.358 490.685
711 0 54.1288 14.5763 789 104.572 199.81 489.782
712 0 54.0462 12.8594 695 110.246 200.263 488.083
713 0 56.0879 13.0866 734 109.473 199.792 488.471
714 0 60.0522 14.0045 841 106.108 199.948 487.693
715 0 62.1093 14.716 914 104.314 199.903 485.756
716 0 64.1123 13.7259 880 107.359 199.981 484.141
717 0 67.0791 14.5947 979 105.13 200.589 484.874
718 0 68.2195 13.5005 921 109.606 200.454 483.24
719 0 70.1285 13.8032 968 108.58 199.92 482.633
720 0 72.1499 12.9591 935 112.128 200.621 481.506
721 0 75.1656 14.8206 1114 108.278 200.676 481.355
722 0 77.1755 13.8386 1068 111.257 200.352 480.47
723 0 80.2815 14.1627 1137 110.648 200.026 477.679
724 0 81.2758 13.2143 1074 114.557 200.119 477.843
725 0 84.2388 13.4974 1137 114.042 200.262 475.318
726 0 87.148 13.8271 1205 113.982 199.97 472.212
727 0 91.1446 12.3321 1124 112.2 200.002 472.177
728 0 93.0301 12.7163 1183 111.864 200.377 473.663
729 1 49.0551 13.1077 643 111.034 199.596 494.011
730 0 49.0249 11.9735 587 113.809 199.608 493.559
731 0 50.1213 12.8688 645 111.913 200.184 492.526
732 0 52.0576 12.6591 659 113.351 200.348 492.144
733 0 53.0575 14.1168 749 109.39 199.714 492.187
734 0 55.0822 12.8535 708 112.65 199.51 490.688
735 0 57.061 12.0748 689 115.351 199.604 489.434
736 0 61.122 14.3974 880 108.849 200.086 487.19
737 0 61.2402 13.4879 826 112.535 200.467 487.958
738 0 64.093 11.811 757 115.802 200.118 488.89
739 0 65.0341 13.0854 851 113.512 200.521 486.819
740 0 69.0582 13.2352 914 113.489 200.492 485.342
741 0 71.1044 12.8403 913 116.553 200.639 483.975
742 0 74.2396 13.7932 1024 115.732 200.219 481.838
743 0 76.132 13.2796 1011 117.52 200.725 481.548
744 0 80.0704 14.0376 1124 116.913 200.548 479.316
745 1 39.0326 11.9131 465 125.4 201.441 497.901
746 0 41.0654 11.8104 485 126.682 200.427 497.346
747 0 45.1236 13.8952 627 117.826 200.442 497.498
748 0 43.0225 12.2262 526 128.673 200.943 495.281
749 0 45.0212 14.2377 641 119.924 201.365 495.072
750 0 48.0672 14.022 674 119.709 201.212 494.154
751 0 47.0749 14.0839 663 123.012 201.173 493.192
752 0 49.0874 14.0769 691 122.734 201.868 493.391
753 0 51.0595 14.062 718 123.631 201.905 493.517
754 0 50.0779 13.2793 665 128.331 201.137 492.782
755 0 53.0218 14.0131 743 125.359 201.266 492.63
756 0 56.021 14.6017 818 124.403 201.108 492.062
757 0 56.0598 15.0018 841 125.384 201.331 490.209
758 0 55.0828 13.7611 758 132.73 201.277 490.115
759 0 61.0256 14.3874 878 127.927 201.308 489.441
760 0 60.0397 14.9068 895 129.653 200.885 488.122
761 0 63.094 13.9316 879 132.415 200.57 487.432
762 0 64.0625 13.8927 890 135.16 200.375 486.412
763 0 67.0677 13.7771 924 136.167 200.529 484.33
764 0 69.034 15.9197 1099 130.871 201.117 483.113
765 0 71.0973 13.8261 983 137.612 200.444 482.586
766 0 75.087 14.0104 1052 136.019 200.959 481.016
767 0 76.0974 14.3369 1091 137.209 200.621 479.231
768 0 81.077 14.9858 1215 135.031 200.965 479.289
769 1 44.0299 11.8329 521 143.656 201.127 495.503
770 0 45.0436 12.0106 541 139.183 201.482 493.787
771 0 47.0448 12.5625 591 140.308 201.79 490.374
772 0 48.0223 13.2647 637 138.182 200.983 490.308
773 0 49.032 12.4205 609 141.929 200.967 489.649
774 0 50.049 13.3469 668 138.052 201.275 490.626
775 0 52.0359 12.2608 638 141.925 201.067 489.271
776 0 53.0711 12.8884 684 143.466 201.044 491.243
777 0 55.0752 12.5828 693 144.466 201.061 490.859
778 0 56.1232 13.114 736 144.39 201.962 489.349
779 0 58.1343 13.142 764 142.467 201.386 489.427
780 0 61.1043 13.6652 835 140.011 201.456 488.172
781 0 63.0663 13.3193 840 139.81 201.396 488.629
782 0 66.0466 13.4451 888 138.521 200.807 487.697
783 0 67.0634 12.9281 867 140.166 201.28 486.915
784 0 69.0998 12.7931 884 141.51 201.492 483.719
785 0 73.1256 13.0871 957 139.648 201.703 483.996
786 0 74.0562 12.234 906 143.2 202.052 482.603
787 0 77.0616 13.8331 1066 139.59 201.617 480.163
788 0 81.1097 13.0194 1056 141.393 201.456 479.14
789 1 45.0267 11.5709 521 146.353 202.033 495.741
790 0 47.022 11.2713 530 145.921 202.219 494.723
791 0 46.0324 10.6447 490 142.622 201.673 492.298
792 0 47.2558 12.7392 602 135.058 200.57 490.13
793 0 48.1397 11.2174 540 137.959 200.959 489.113
794 0 49.1354 12.0483 592 136.769 200.419 487.118
795 0 50.1064 10.7371 538 141.288 199.87 486.812
796 0 53.1008 11.6382 618 137.193 200.345 485.492
797 0 57.0899 12.6467 722 133.584 200.504 485.579
798 0 57.1165 12.0981 691 137.386 199.751 484.043
799 0 58.1042 12.8218 745 134.428 200.161 484.254
800 0 59.1478 11.4966 680 141.06 200.391 482.563
801 0 64.1229 13.0219 835 133.976 200.343 482.253
802 0 64.11 12.1354 778 137.823 200.001 481.955
803 0 67.1294 13.0643 877 133.812 200.257 480.499
804 0 66.1091 11.7835 779 140.275 199.86 475.361
805 0 73.1455 12.3179 901 135.624 200.374 477.385
806 0 75.1542 12.9334 972 134.035 200.159 475.964
807 0 75.1646 11.8673 892 137.488 200.613 474.639
808 0 81.2297 11.8922 966 135.728 200.656 474.654
809 0 84.1155 12.8038 1077 133.192 200.837 472.755
810 0 84.1574 11.8825 1000 136.942 201.209 470.835
811 0 90.2459 11.5795 1045 135.788 200.936 470.285
812 0 93.1317 12.9065 1202 132.135 200.264 467.176
813 1 48.1002 9.02283 434 124.412 201.631 492.094
814 0 49.1504 11.1698 549 121.18 201.211 491.137
815 0 51.0875 12.1752 622 127.437 201.793 492.574
816 0 52.0581 11.8137 615 131.833 201.563 491.681
817 0 55.1208 12.8264 707 128.82 201.161 490.522
818 0 55.1215 13.0983 722 127.94 201.057 491.091
819 0 57.0909 13.3121 760 127.763 201.282 487.867
820 0 59.1607 13.083 774 128.433 201.607 489.915
821 0 62.0671 14.5327 902 123.756 201.778 486.682
822 0 62.0565 11.8279 734 132.308 202.005 486.331
823 0 66.0848 12.8774 851 128.439 201.039 484.528
824 0 66.106 12.1472 803 133.088 201.676 483.791
825 0 70.1369 12.7465 894 128.902 201.048 481.976
826 0 72.132 13.9051 1003 125.122 201.14 483.279
827 0 75.0662 12.842 964 125.721 201.588 481.164
828 0 79.136 13.8369 1095 122.663 201.422 477.669
829 0 82.1193 13.3464 1096 125.37 200.794 476.851
830 0 85.1229 13.0635 1112 125.307 201.21 476.36
831 0 88.0863 11.9769 1055 128.641 201.055 474.762
832 0 91.1793 13.0183 1187 126.187 200.692 473.651
833 1 47.0343 12.3102 579 129.737 201.943 493.513
834 0 49.0527 13.5976 667 126.619 201.568 492.978
835 0 51.0524 12.8887 658 121.079 200.767 493.629
836 0 51.0499 12.6347 645 121.499 201.526 492.043
837 0 54.1113 13.4538 728 117.427 201.375 490.977
838 0 56.0161 12.2465 686 121.91 201.783 490.773
839 0 56.047 12.775 716 121.198 201.292 490.295
840 0 56.0446 12.3652 693 124.277 199.794 490.988
841 0 61.1217 12.9741 793 120.015 199.454 488.127
842 0 63.0486 13.3548 842 117.905 199.903 486.042
843 0 63.0357 13.183 831 120.225 199.231 485.143
844 0 66.0576 12.7464 842 119.89 199.443 485.542
845 0 70.0848 13.2839 931 117.203 199.237 483.61
846 0 71.0618 12.8339 912 118.814 199.871 483.367
847 0 71.1021 13.2486 942 118.368 199.835 481.33
848 0 75.0898 14.0632 1056 116.502 199.153 477.776
849 0 79.0652 13.0019 1028 118.656 200.066 478.442
850 0 79.1163 12.2478 969 120.981 200.033 479.246
851 0 85.1165 14.4273 1228 112.973 200.892 478.971
852 0 88.1262 14.6268 1289 113.507 200.649 474.475
853 0 88.21 12.4816 1101 122.557 200.708 474.95
854 1 45.041 12.2777 553 123.072 201.872 495.32
855 0 48.1251 11.761 566 126.327 201.2 494.039
856 0 48.0292 13.0337 626 123.403 200.249 492.192
857 0 50.1676 12.3187 618 115.607 201.392 492.754
858 0 51.0444 12.5381 640 115.862 201.408 493.366
859 0 52.1649 12.403 647 116.728 200.462 490.708
860 0 53.1219 13.2714 705 114.8 200.948 491.118
861 0 55.0444 12.3355 679 118.629 201.234 488.683
862 0 56.1071 12.6722 711 118.072 200.875 489.824
863 0 57.125 12.0263 687 119.812 200.016 487.617
864 0 58.0831 11.8968 691 120.323 199.986 487.161
865 0 61.0554 12.3822 756 117.98 200.423 486.239
866 0 63.0871 13.3783 844 115.819 200.878 483.179
867 0 66.1451 13.0017 860 116.58 201.123 483.151
868 0 67.1863 13.5147 908 117.443 201.041 481.497
869 0 69.1633 13.0416 902 117.554 200.252 482.802
870 0 69.0943 12.5481 867 119.604 201.176 482.061
871 0 74.1194 12.345 915 119.706 201.969 481.13
872 0 76.1385 13.7118 1044 116.577 201.304 480.422
873 0 79.1457 13.5446 1072 118.046 200.833 478.807
874 0 83.1531 12.8317 1067 120.21 201.544 478.417
875 0 85.0667 13.6364 1160 118.683 201.078 475.781
876 1 44.038 11.9215 525 121.684 201.472 494.667
877 0 44.021 11.5399 508 121.772 201.512 494.327
878 0 45.009 11.8199 532 122.929 200.412 494.502
879 0 47.0848 12.1483 572 120.423 201.288 494.052
880 0 47.0195 12.3353 580 120.679 201.678 494.517
881 0 48.1289 12.051 580 121.634 200.914 492.836
882 0 48.0261 12.8055 615 121.203 200.691 493.408
883 0 51.0723 12.2963 628 121.037 201 491.825
884 0 52.0598 12.6201 657 120.196 201.132 491.581
885 0 53.1264 13.7785 732 117.146 201.352 491.176
886 0 54.0901 11.8876 643 121.227 201.314 490.82
887 0 57.1307 13.2328 756 116.966 201.148 488.807
888 0 59.0811 13.2868 785 115.836 201.548 488.465
889 0 61.0616 13.2489 809 115.759 201.131 486.42
890 0 63.1225 13.45 849 113.086 201.097 487.015
891 0 64.0582 13.035 835 115.477 200.581 485.55
892 0 66.167 13.073 865 114.247 200.686 486.223
893 0 70.0792 13.7844 966 110.822 201.059 483.827
894 0 71.1373 13.5794 966 111.842 200.655 481.027
895 0 74.0871 13.7136 1016 111.991 200.244 479.691
896 0 76.0797 13.5253 1029 112.578 200.459 477.974
897 0 76.0797 13.5516 1031 142.338 201.449 478.074
898 0 81.1337 14.359 1165 113.169 200.511 475.958
899 0 82.058 11.8818 975 118.514 200.47 476.718
900 0 84.0879 13.1886 1109 117.933 200.103 475.442
901 0 84.1027 11.5097 968 124.426 200.501 473.043
902 0 91.1341 13.2332 1206 119.138 201.078 472.879
903 1 48.0844 10.7519 517 120.397 200.48 491.108
904 0 50.1504 11.1664 560 115.912 200.618 488.755
905 0 48.0423 10.574 508 111.14 200.736 488.474
906 0 50.04 11.9105 596 108.737 200.77 485.997
907 0 50.0712 11.204 561 111.046 200.658 485.619
908 0 56.0427 12.3834 694 107.036 201.009 485.444
909 0 53.0152 11.8457 628 110.992 200.916 483.162
910 0 59.0694 11.8843 702 109.044 200.99 485.32
911 0 61.053 11.4163 697 110.716 200.968 482.207
912 0 65.023 12.534 815 108.005 201.129 482.59
913 0 65.1112 12.3635 805 110.887 200.277 480.098
914 0 67.0589 12.8096 859 110.57 200.6 480.687
915 0 68.1086 12.5094 852 112.673 201.04 479.488
916 0 74.1917 13.1956 979 110.982 200.351 476.953
917 0 76.1486 13.2635 1010 111.812 200.191 474.102
918 0 79.1302 12.8396 1016 114.761 200.02 474.279
919 0 83.149 13.3615 1111 118.599 200.491 474.697
920 0 85.1007 13.5134 1150 118.515 201.029 472.607
921 1 41.1146 10.6288 437 110.744 201.519 493.3
922 0 43.0787 10.2835 443 113.33 201.144 493.571
923 0 45.0644 10.5183 474 110.857 199.03 493.757
924 0 46.1279 11.5548 533 115.278 200.689 493.627
925 0 44.0824 10.798 476 119.3 200.454 494.922
926 0 50.1108 12.1531 609 113.724 200.394 493.246
927 0 49.1208 10.2197 502 117.283 200.594 494.4
928 0 51.1921 11.1931 573 116.642 199.983 490.745
929 0 53.1135 12.0685 641 114.126 200.393 491.148
930 0 54.0954 9.7975 530 119.432 201.394 490.902
931 0 58.1301 12.9537 753 111.693 200.95 487.183
932 0 60.1356 11.7401 706 113.259 200.763 487.154
933 0 62.2394 11.1987 697 115.765 201.067 485.723
934 0 62.1371 10.4768 651 118.177 200.005 484.154
935 0 68.1963 12.2587 836 112.9 200.557 482.653
936 0 69.1719 10.8426 750 117.259 199.952 481.693
937 0 71.1642 11.1994 797 116.396 200.622 479.961
938 0 76.1316 12.5572 956 112.73 200.43 478.326
939 0 79.1388 11.7768 932 114.065 200.483 478.317
940 0 81.1342 11.7337 952 116.343 200.526 474.586
941 1 44.0747 11.5713 510 115.365 200.135 493.574
942 0 45.0633 10.5629 476 118.212 200.58 492.973
943 0 48.0518 12.216 587 112.871 201.174 490.894
944 0 48.1734 13.0778 630 105.389 201.11 491.43
945 0 49.1355 11.7634 578 108.671 201.24 492.021
946 0 53.1364 12.2327 650 105.729 201.095 490.609
947 0 54.148 12.5212 678 105.671 201.167 489.771
948 0 55.0759 11.7293 646 107.481 201.393 488.376
949 0 55.0427 11.4275 629 108.704 201.393 488.208
950 0 57.0431 12.289 701 106.916 201.733 487.398
951 0 58.1301 12.2312 711 107.527 200.941 485.851
952 0 60.0816 12.0003 721 107.272 201.386 486.802
953 0 63.1201 11.9296 753 107.548 201.713 482.979
954 0 65.0358 11.5475 751 108.162 201.939 483.72
955 0 65.1838 12.6565 825 106.978 200.753 483.967
956 0 69.1299 12.7007 878 106.443 200.674 482.451
957 0 72.1291 12.5885 908 107.314 201.425 481.178
958 0 72.1064 11.5108 830 111.334 200.511 479.245
959 0 76.0485 13.7281 1044 106.236 200.454 478.144
960 0 79.1551 13.5178 1070 107.412 200.801 476.653
961 0 82.0738 11.6481 956 113.072 200.364 475.33
962 0 81.0602 11.5716 938 115.419 200.536 475.288
963 0 88.1422 13.1492 1159 111.713 200.434 473.774
964 0 88.1131 12.6428 1114 115.46 200.752 470.901
965 1 45.0093 11.0422 497 116.573 201.318 493.139
966 0 49.1008 12.5252 615 119.675 200.288 490.249
967 0 51.1598 11.4543 586 125.58 199.64 489.217
968 0 51.1256 12.3422 631 121.531 200.637 491.624
969 0 53.1274 12.7429 677 121.226 200.551 490.674
970 0 53.2187 12.3641 658 122.935 199.994 489.459
971 0 56.182 12.9045 725 121.508 200.582 488.846
972 0 57.0404 13.0434 744 122.64 200.993 487.5
973 0 59.2079 12.6672 750 123.151 200.984 487.035
974 0 60.1027 13.3438 802 121.892 200.883 486.67
975 0 63.1068 13.6118 859 120.59 200.992 484.239
976 0 64.1082 14.1012 904 119.934 201.384 483.412
977 0 65.1698 12.6899 827 122.266 201.25 484.871
978 0 68.1401 13.619 928 119.867 200.62 483.391
979 0 70.1767 13.4233 942 120.397 200.986 479.748
980 0 71.1794 13.8102 983 119.973 200.512 479.932
981 0 73.285 13.3588 979 120.985 200.007 477.484
982 0 76.2747 13.2416 1010 120.962 200.217 476.247
983 0 77.2365 12.7401 984 123.778 200.432 474.396
984 0 83.251 14.174 1180 116.969 200.197 474.285
985 0 86.2426 12.9518 1117 120.324 199.848 470.877
986 0 90.2254 13.3776 1207 117.825 200.059 469.229
987 1 47.1836 12.5891 594 118.128 200.601 487.529
988 0 47.1802 11.4667 541 120.089 201.721 485.876
989 0 51.1183 12.6765 648 114.756 200.873 484.753
990 0 51.1798 12.0751 618 116.621 200.801 485.94
991 0 51.2564 12.7399 653 116.914 200.744 482.962
992 0 53.1648 13.4864 717 114.384 201.035 482.869
993 0 55.1289 13.9673 770 112.994 200.326 481.63
994 0 54.2224 13.7213 744 115.93 201.363 481.899
995 0 58.1422 12.9338 752 115.448 201.616 482.465
996 0 59.1705 12.6076 746 116.343 200.905 478.629
997 0 59.1705 12.5907 745 130.968 200.933 478.734
998 0 64.184 12.5109 803 116.177 201.095 477.557
999 0 67.0853 13.0282 874 114.897 200.834 476.348
1000 0 68.1496 12.9421 882 116.085 200.509 475.221
1001 0 71.1531 13.0423 928 115.023 200.172 473.826
1002 0 75.1398 12.7762 960 114.797 200.566 471.745
1003 0 78.117 14.1711 1107 111.084 200.782 470.889
1004 0 80.2662 12.2966 987 112.976 200.738 469.44
1005 0 81.167 12.0492 978 108.554 200.972 468.395
1006 0 84.2876 12.6946 1070 107.114 200.888 468.579
1007 0 88.1048 13.6201 1200 105.547 201.127 466.548
1008 0 88.1475 12.3203 1086 110.217 201.049 464.673
1009 0 94.1414 13.9896 1317 107.104 200.194 463.623
1010 0 96.1112 12.4439 1196 112.161 200.502 459.017
1011 1 50.0754 11.3429 568 110.692 201.653 483.84
1012 0 51.1092 10.9569 560 114.568 201.318 482.495
1013 0 54.2893 12.986 705 109.306 201.115 482.133
1014 0 56.0499 11.9001 667 107.3 201.315 482.54
1015 0 59.2285 12.1901 722 107.662 201.066 480.834
1016 0 58.119 11.9754 696 109.437 200.907 480.004
1017 0 62.1724 11.8059 734 109.733 200.774 478.877
1018 0 65.1738 12.6892 827 109.434 200.796 475.469
1019 0 68.1591 13.175 898 108.222 200.824 476.937
1020 0 69.1072 11.8511 819 113.967 200.416 472.866
1021 0 72.1167 13.3534 963 111.577 199.867 472.153
1022 0 75.2725 13.2718 999 112.467 200.032 473.408
1023 0 78.2685 13.0193 1019 113.494 200.48 470.369
1024 0 79.078 11.71 926 118.727 200.122 470.722
1025 0 83.2064 13.5927 1131 114.271 200.491 466.652
1026 0 86.1638 13.0449 1124 116.91 200.008 465.612
1027 0 88.1624 13.0101 1147 117.688 200.084 466.269
1028 0 91.231 13.7015 1250 116.427 199.446 462.669
1029 0 94.22 12.6725 1194 119.529 200.102 461.653
1030 0 96.2601 12.4558 1199 118.807 199.957 461.818
1031 0 100.127 12.654 1267 113.846 200.058 460.025
1032 0 102.253 11.2075 1146 117.417 200.749 458.117
1033 0 107.125 11.594 1242 116.373 200.912 455.717
1034 0 110.312 12.1293 1338 116.356 200.265 454.232
1035 1 57.1111 10.0856 576 110.955 201.417 480.786
1036 0 57.2464 9.39797 538 110.232 201.606 481.043
1037 0 61.1096 12.5676 768 106.333 201.529 479.423
1038 0 64.0681 11.2693 722 102.421 200.575 478.319
1039 0 67.1125 11.4733 770 101.67 200.145 476.558
1040 0 67.1344 11.4695 770 102.565 200.14 473.925
1041 0 70.0522 10.8633 761 104.545 199.582 474.258
1042 0 71.11 10.9689 780 105.604 199.771 470.964
1043 0 76.1781 12.1295 924 102.41 199.549 472.208
1044 0 78.1809 11.985 937 103.977 199.874 471.703
1045 0 79.3331 11.8488 940 105.9 200.073 468.287
1046 0 84.2192 13.5124 1138 102.018 200.461 468.02
1047 0 86.1617 12.1864 1050 106.461 200.322 465.827
1048 0 88.2851 13.1506 1161 105.627 200.346 465.359
1049 0 91.2691 12.1838 1112 109.81 199.489 464.188
1050 0 94.2401 11.9164 1123 110.029 199.779 463.821
1051 1 48.2325 9.28834 448 107.379 200.156 487.051
1052 0 49.0816 11.4503 562 105.327 200.377 484.737
1053 0 52.1479 11.6975 610 109.002 200.769 482.703
1054 0 52.1487 12.1 631 104.079 200.932 484.639
1055 0 54.0198 12.2177 660 115.312 201.215 490.179
1056 0 56.0381 11.8669 665 115.755 200.708 490.023
1057 0 57.0402 12.1844 695 115.901 200.721 488.301
1058 0 57.0269 11.2754 643 120.798 201.485 485.631
1059 0 62.1182 12.605 783 115.473 200.992 486.023
1060 0 64.1438 12.6435 811 116.457 200.8 485.978
1061 0 66.1057 12.117 801 118.906 200.448 484.394
1062 0 67.056 13.8243 927 115.576 200.639 482.54
1063 0 67.0908 12.3415 828 122.042 200.595 482.077
1064 0 72.0777 11.9593 862 121.464 201.023 481.109
1065 0 76.1163 13.6896 1042 117.062 201.131 479.939
1066 0 77.1695 14.047 1084 116.97 200.925 478.735
1067 0 80.1395 14.5496 1166 115.491 201.712 478.515
1068 0 83.2494 13.5016 1124 119.834 201.427 477.598
1069 0 84.1441 12.9421 1089 122.623 200.562 475.363
1070 0 86.1359 12.7241 1096 124.258 201.084 472.407
1071 0 91.1558 13.0546 1190 122.854 200.815 472.713
1072 0 93.099 13.6306 1269 122.003 201.029 471.656
1073 1 50.0377 12.2508 613 124.853 201.669 492.173
1074 0 51.0978 12.114 619 126.83 201.943 491.136
1075 0 54.0565 13.9299 753 121.699 201.537 488.344
1076 0 56.1607 13.1943 741 114.744 201.254 490.741
1077 0 56.0165 13.5139 757 116.003 201.757 489.24
1078 0 58.0989 13.1672 765 117.49 201.782 488.159
1079 0 59.084 13.0831 773 117.052 201.113 489.664
1080 0 59.1354 12.6151 746 120.028 201.214 486.677
1081 0 62.1014 13.2686 824 118.374 201.172 484.911
1082 0 66.064 14.6373 967 114.138 200.976 485.946
1083 0 67.0522 13.7356 921 116.882 200.499 484.416
1084 0 70.0912 14.0389 984 114.805 201.161 483.532
1085 0 69.1102 12.6465 874 121.756 199.913 480.285
1086 0 74.0321 13.0754 968 115.126 201.2 480.17
1087 0 76.0541 13.28 1010 115.108 200.883 479.892
1088 0 79.187 13.285 1052 115.035 200.07 477.745
1089 0 82.1129 14.0538 1154 112.506 200.379 478.179
1090 0 85.1427 14.094 1200 112.753 199.953 475.174
1091 0 90.1175 13.6932 1234 112.403 201.011 474.182
1092 1 47.0516 13.1345 618 115.639 201.374 493.54
1093 0 49.0552 12.9854 637 116.529 200.923 492.915
1094 0 48.0203 12.0574 579 118.815 199.392 491.544
1095 0 51.0221 13.6608 697 112.161 198.772 490.686
1096 0 52.0203 13.3217 693 116.328 198.149 489.9
1097 0 52.0747 12.6741 660 119.355 198.433 488.973
1098 0 56.0643 13.4845 756 116.454 199.086 489.537
1099 0 56.076 13.5887 762 118.218 199.058 489.047
1100 0 57.0287 14.0105 799 117.543 198.735 488.513
1101 0 60.0892 13.247 796 119.099 198.565 486.441
1102 0 63.0876 13.933 879 117.809 199.212 485.86
1103 0 65.1155 14.0212 913 117.243 198.88 484.255
1104 0 65.045 13.3139 866 121.321 199.297 485.096
1105 0 67.034 13.6796 917 119.582 199.382 484.995
1106 0 71.0686 14.5915 1037 118.121 199.998 482.204
1107 0 73.1104 13.9788 1022 120.538 199.447 481.942
1108 0 75.0945 13.6228 1023 121.761 199.994 480.807
1109 0 78.1249 14.4128 1126 119.644 200.018 480.661
1110 0 80.1054 14.1688 1135 120.545 199.274 479.238
1111 0 83.0705 13.6511 1134 121.063 199.534 478.019
1112 0 87.1008 13.4327 1170 121.003 199.721 477.326
1113 0 89.1627 14.4231 1286 119.115 199.179 474.232
1114 0 92.1447 14.4121 1328 121.03 199.585 472.265
1115 1 46.065 11.0279 508 127.998 198.943 493.707
1116 0 45.1132 12.3024 555 123.861 199.813 493.218
1117 0 47.0253 12.3976 583 113.748 201.671 490.086
1118 0 47.0503 12.0297 566 116.357 201.401 488.968
1119 0 50.1071 10.717 537 119.02 201.194 487.238
1120 0 49.0149 10.9763 538 121.387 201.216 486.829
1121 0 55.0552 12.4421 685 115.964 201.342 487.048
1122 0 57.1098 11.259 643 119.715 200.14 485.821
1123 0 59.0624 12.4783 737 116.919 199.826 484.74
1124 0 59.0873 12.4054 733 119.317 199.72 483.975
1125 0 63.0809 11.6834 737 121.047 200.389 483.644
1126 0 63.0836 12.9352 816 120.414 200.906 481.043
1127 0 66.0988 11.6038 767 125.398 200.828 480.107
1128 0 67.1018 13.2634 890 122.883 200.803 478.953
1129 0 71.1322 13.3132 947 123.321 200.865 477.215
1130 0 72.1021 13.6057 981 124.481 200.545 476.508
1131 0 75.1777 13.2486 996 125.932 201.237 475.941
1132 0 75.1155 12.6738 952 129.618 201.064 473.742
1133 0 80.1022 12.6214 1011 129.406 201.075 472.124
1134 0 81.0855 12.789 1037 131.652 201.072 470.957
1135 0 87.1285 13.4284 1170 127.34 200.691 470.809
1136 0 88.1889 12.6773 1118 130.715 200.742 465.065
1137 1 45.0294 10.4376 470 118.332 200.453 492.285
1138 0 46.0818 10.8503 500 117.758 200.652 490.584
1139 0 48.0647 11.8382 569 129.056 200.643 492.355
1140 0 51.0979 12.5641 642 120.364 201.383 492.419
1141 0 50.0715 11.883 595 126.012 200.971 493.674
1142 0 52.1399 11.6993 610 126.936 200.452 491.644
1143 0 52.1399 11.776 614 153.023 199.45 491.616
1144 0 58.0492 12.6445 734 125.292 200.969 491.439
1145 0 57.0821 12.3331 704 130.335 200.57 486.791
1146 0 60.1193 12.9077 776 127.906 200.434 487.095
1147 0 62.0519 12.8441 797 128.688 199.957 484.625
1148 0 64.1535 12.1895 782 129.202 200.229 485.405
1149 0 63.0624 12.4004 782 131.078 199.627 483.848
1150 0 66.1451 12.3668 818 130.062 199.021 482.7
1151 0 68.0761 12.6329 860 129.631 199.717 481.129
1152 0 71.0993 12.2083 868 131.093 199.429 479.325
1153 0 72.135 11.4923 829 130.607 199.727 481.626
1154 0 76.1383 12.8188 976 127.077 199.689 478.044
1155 0 79.1305 12.3972 981 128.546 200.398 475.855
1156 0 79.0852 11.633 920 132.884 199.46 473.875
1157 0 82.0587 11.8939 976 132.455 199.536 472.715
1158 0 86.1242 12.2381 1054 129.871 200.131 470.463
1159 0 88.1579 11.763 1037 130.576 200.678 470.109
1160 0 93.0778 12.9247 1203 127.538 200.074 467.257
1161 1 50.0195 10.0161 501 130.118 200.982 490.543
1162 0 52.0261 11.4558 596 123.953 201.404 486.878
1163 0 53.0601 11.3833 604 125.992 200.396 487.154
1164 0 55.0452 12.4988 688 126.587 200.08 488.706
1165 0 58.0408 12.6807 736 126.533 200.13 487.171
1166 0 59.0841 13.0153 769 126.072 200.494 485.719
1167 0 61.1091 13.435 821 124.276 201.005 485.202
1168 0 62.1115 12.3327 766 128.111 200.847 484.616
1169 0 63.1213 11.8027 745 131.404 199.467 483.396
1170 0 66.2946 12.6858 841 128.126 200.139 483.002
1171 0 67.2404 12.7156 855 129.014 199.823 482.96
1172 0 67.3083 12.673 853 130.358 200.516 482.034
1173 0 70.3918 12.2173 860 132.157 200.257 481.781
1174 0 71.2958 12.4552 888 133.486 200.324 479.295
1175 0 73.372 11.762 863 134.155 199.853 478.934
1176 0 77.2574 12.7237 983 133.096 200.173 476.208
1177 0 76.2891 11.9676 913 137.198 199.47 473.876
1178 0 79.53 11.3919 906 138.715 199.341 471.283
1179 0 79.0844 11.4941 909 133.218 200.194 472.812
1180 0 83.147 11.4135 949 130.483 200.316 474.096
1181 1 41.0283 9.77373 401 133.359 200.469 489.18
1182 0 42.0583 10.4617 440 128.902 200.336 487.857
1183 0 41.0879 10.6601 438 130.82 198.562 485.674
1184 0 45.1126 11.1942 505 119.085 198.501 486.339
1185 0 44.2011 10.9273 483 122.234 199.321 486.211
1186 0 45.1432 9.70245 438 125.288 199.352 485.089
1187 0 48.1565 11.7118 564 119.897 199.819 485.246
1188 0 48.2044 10.8911 525 123.606 199.56 483.08
1189 0 50.1383 11.3287 568 121.688 198.789 484.482
1190 0 51.2045 10.4288 534 124.936 198.751 484.213
1191 0 55.1365 11.4443 631 121.735 199.588 483.65
1192 0 54.1381 10.6579 577 126.421 199.52 480.23
1193 0 57.1879 11.9256 682 122.434 200.284 482.834
1194 0 59.1865 11.3201 670 124.578 199.9 482.228
1195 0 61.1817 12.5364 767 121.914 199.698 482.179
1196 0 61.1303 11.4019 697 126.816 200.372 481.679
1197 0 63.1926 12.9604 819 126.087 200.007 477.738
1198 0 67.1658 12.149 816 128.669 200.249 479.016
1199 0 69.1222 13.5123 934 125.864 199.929 477.09
1200 0 70.1539 13.1283 921 129.114 199.667 477.088
1201 0 74.1721 13.1856 978 128.518 200.211 476.743
1202 0 76.1757 13.4295 1023 129.548 199.095 473.524
1203 0 77.2214 13.9987 1081 128.754 198.741 475.321
1204 0 78.1364 13.438 1050 131.19 198.849 473.127
1205 0 83.0871 14.7917 1229 127.31 199.239 474.379
1206 0 86.1177 14.5266 1251 127.929 200.102 474.055
1207 0 92.0581 15.1426 1394 123.981 199.884 474.658
1208 0 91.0435 13.7297 1250 132.507 200.006 473.184
1209 1 47.1251 12.0106 566 135.313 199.171 491.569
1210 0 49.1907 12.421 611 133.718 198.259 491.437
1211 0 52.1744 13.7424 717 129.204 198.226 490.745
1212 0 53.1668 13.2978 707 132.037 198.603 490.306
1213 0 52.1316 13.1398 685 133.739 198.869 490.49
1214 0 55.1381 13.6748 754 130.536 198.674 488.472
1215 0 57.1156 14.1642 809 129.892 198.88 488.627
1216 0 59.1219 14.4447 854 124.701 198.987 486.93
1217 0 61.0845 13.8497 846 125.065 199.299 486.048
1218 0 62.1219 14.3267 890 123.845 198.976 484.613
1219 0 65.1327 14.0483 915 122.815 198.687 485.804
1220 0 66.1144 14.2178 940 123.767 199.078 483.158
1221 0 67.0792 13.4617 903 125.445 199.203 482.769
1222 0 69.1478 13.0735 904 127.211 198.268 481.715
1223 0 74.0908 14.8601 1101 120.604 198.204 479.737
1224 0 75.1008 14.101 1059 123.554 198.285 477.96
1225 0 78.2466 14.416 1128 123.032 198.833 477.95
1226 0 82.1069 14.2254 1168 122.49 198.825 477.363
1227 0 82.1354 13.7456 1129 125.006 198.651 476.486
1228 0 87.1553 14.2275 1240 122.9 199.432 474.302
1229 0 89.1159 14.0267 1250 123.993 199.112 473.946
1230 0 91.1721 13.4361 1225 127.282 198.861 470.003
1231 0 94.0898 13.6678 1286 125.393 198.883 469.968
1232 1 48.0715 12.7726 614 127.204 198.485 491.182
1233 0 49.0884 12.8544 631 128.022 198.965 490.895
1234 0 55.114 14.4065 794 121.173 198.62 489.372
1235 0 53.0337 14.3305 760 121.128 198.586 489.875
1236 0 56.0955 12.8709 722 124.938 198.846 490.155
1237 0 58.0594 13.469 782 124.504 200.627 489.215
1238 0 59.0866 14.5211 858 124.051 199.782 485.959
1239 0 62.0995 13.8488 860 126.453 200.297 486.665
1240 0 62.0491 13.86 860 128.066 200.621 486.474
1241 0 66.2189 14.1349 936 126.7 200.181 484.479
1242 0 67.0958 14.8743 998 125.908 200.084 482.588
1243 0 68.1224 14.195 967 129.092 199.618 484.023
1244 0 69.1368 13.0032 899 133.832 200.291 482.299
1245 0 74.0954 15.0077 1112 127.713 199.861 480.174
1246 0 74.0697 13.4333 995 134.259 199.685 479.426
1247 0 77.1245 13.3939 1033 134.539 199.345 479.225
1248 0 81.1905 14.4844 1176 130.669 198.91 475.67
1249 0 82.0692 13.8298 1135 132.937 199.552 476.127
1250 0 85.2344 13.8559 1181 133.128 199.566 472.402
1251 0 86.0804 14.0218 1207 133.062 198.961 470.485
1252 0 90.123 14.3471 1293 131.228 198.757 471.048
1253 0 91.0749 14.2081 1294 131.282 198.496 464.788
1254 0 94.1646 13.7207 1292 134.254 199.16 462.92
1255 0 97.2021 13.7548 1337 132.741 199.666 462.298
1256 0 103.125 13.8666 1430 131.685 199.193 460.257
1257 0 106.161 14.2708 1515 130.919 199.414 457.734
1258 0 109.089 14.4744 1579 130.892 199.459 455.127
1259 0 114.141 13.5534 1547 132.901 198.958 453.43
1260 1 59.1519 12.0199 711 129.685 199.359 481.208
1261 0 63.1474 12.6529 799 128.502 199.123 480.673
1262 0 62.1583 12.0338 748 132.504 199.368 479.027
1263 0 68.1825 13.4932 920 126.726 199.234 478.618
1264 0 69.1327 12.5266 866 130.773 198.693 476.212
1265 0 73.1107 13.5411 990 126.838 198.967 473.909
1266 0 74.1994 12.8707 955 128.306 198.947 474.998
1267 0 78.1635 13.7404 1074 124.929 199.126 472.773
1268 0 79.2017 12.828 1016 127.721 199.177 471.773
1269 0 79.1469 11.6113 919 121.651 199.675 470.523
1270 0 83.1052 11.6118 965 119.605 198.93 473.536
1271 0 85.0674 12.1551 1034 119.884 198.899 470.561
1272 0 88.0946 11.6579 1027 121.808 198.867 469.092
1273 0 91.2596 11.9111 1087 121.461 199.039 468.232
1274 0 96.0574 11.8783 1141 122.466 199.883 466.688
1275 0 96.1624 11.7406 1129 124.911 200.124 464.185
1276 0 99.0805 11.7278 1162 124.466 199.764 464.861
1277 0 105.193 13.3279 1402 122.146 199.763 460.257
1278 0 108.093 13.035 1409 125.336 200.129 459.032
1279 0 112.309 12.9464 1454 126.813 199.986 457.538
1280 1 62.3159 11.4738 715 120.074 200.436 482.999
1281 0 66.0996 12.7535 843 117.885 200.771 480.61
1282 0 66.0475 12.7484 842 112.686 200.812 482.483
1283 0 71.1127 13.6966 974 109.726 200.621 481.474
1284 0 72.096 12.1505 876 114.825 200.804 480.299
1285 0 74.0558 12.6391 936 113.372 199.334 480.121
1286 0 77.1721 12.5693 970 115.176 199.092 476.98
1287 0 80.1924 12.7444 1022 115.176 199.343 475.017
1288 0 81.3 12.1648 989 117.028 199.385 473.694
1289 0 85.2239 12.297 1048 118.062 199.316 471.043
1290 0 90.3448 12.9282 1168 117.305 199.648 470.156
1291 0 92.1504 12.2734 1131 123.196 198.904 469.616
1292 0 94.0835 12.0637 1135 125.837 199.096 465.165
1293 0 99.188 12.8544 1275 123.312 199.609 465.719
1294 1 52.2803 10.3863 543 117.49 199.304 487.374
1295 0 51.2524 10.2239 524 118.13 198.672 486.347
1296 0 53.178 12.2043 649 114.797 199.578 483.712
1297 0 58.2905 13.1068 764 87.8259 199.178 486.237
1298 0 59.2171 11.365 673 115.256 199.162 485.37
1299 0 60.1096 11.7286 705 114.096 199.749 484.139
1300 0 63.0493 11.8003 744 112.105 200.07 484.862
1301 0 66.0729 12.5165 827 109.686 198.902 483.734
1302 0 67.0632 10.1099 678 115.224 199.827 482.962
1303 0 69.0295 10.5897 731 115.045 200.815 478.025
1304 0 73.0578 12.2643 896 110.907 200.056 476.214
1305 0 76.0376 12.2965 935 110.729 199.523 475.887
1306 0 80.0667 12.1149 970 109.931 199.916 476.38
1307 0 81.0564 11.6462 944 112.837 199.06 475.413
1308 0 85.0889 11.8464 1008 112.513 199.764 474.258
1309 0 86.0485 11.6911 1006 116.15 200.455 470.406
1310 0 88.1397 12.0831 1065 114.579 199.521 472.302
1311 0 91.1862 11.5259 1051 115.857 199.425 469.58
1312 0 93.1398 12.2075 1137 114.407 199.286 468.204
1313 1 55.126 10.7753 594 107.276 198.747 488.03
1314 0 56.1469 11.3452 637 104.911 198.305 484.63
1315 0 57.3085 10.3999 596 107.466 198.617 483.834
1316 0 59.1393 12.4621 737 112.84 198.9 486.798
1317 0 60.1298 13.6039 818 112.418 198.289 484.408
1318 0 62.1413 12.5038 777 115.968 198.782 483.306
1319 0 64.209 13.3626 858 113.401 199.221 482.965
1320 0 66.1661 13.723 908 112.61 198.45 481.834
1321 0 67.1791 13.397 900 114.704 198.858 481.526
1322 0 69.0712 13.392 925 115.583 198.614 480.787
1323 0 73.0632 14.2069 1038 113.202 198.66 478.954
1324 0 74.2523 13.0366 968 117.352 197.8 476.731
1325 0 78.1158 14.5681 1138 113.93 198.61 473.91
1326 0 81.0914 14.6748 1190 114.086 198.906 474.039
1327 0 82.1702 14.2022 1167 116.364 198.738 471.815
1328 0 87.1167 14.8536 1294 113.896 199.196 473.3
1329 0 86.1312 13.2008 1137 119.989 198.466 469.728
1330 0 90.1681 12.4212 1120 121.671 198.379 468.452
1331 0 94.1016 13.411 1262 116.96 198.985 468.835
1332 1 50.1372 10.9699 550 116.662 201.182 489.884
1333 0 52.1657 11.2334 586 117.539 200.976 489.715
1334 0 53.0832 11.9058 632 115.959 201.353 490.166
1335 0 54.0793 13.2768 718 113.71 200.508 488.068
1336 0 55.0971 11.9426 658 117.695 200.468 488.126
1337 0 57.2854 12.4639 714 116.024 199.634 488.856
1338 0 57.1115 12.6244 721 116.528 200.239 487.098
1339 0 57.0691 10.1281 578 111.801 200.343 488.727
1340 0 59.185 12.8242 759 107.888 200.789 486.325
1341 0 62.2427 12.4352 774 108.854 200.578 485.021
1342 0 63.1002 11.7274 740 111.454 200.776 483.914
1343 0 66.1039 12.556 830 109.051 201.284 483.307
1344 0 68.285 11.5106 786 111.816 201.212 482.394
1345 0 70.2355 10.9916 772 112.451 201.12 482.348
1346 0 74.2013 12.5604 932 109.966 200.96 479.183
1347 0 77.2609 13.0338 1007 108.387 200.797 478.104
1348 0 76.108 11.983 912 111.837 200.632 477.632
1349 0 82.1575 12.8534 1056 109.176 200.839 475.175
1350 0 83.2516 12.204 1016 110.749 201.039 475.458
1351 1 48.0119 11.6846 561 110.239 201.638 491.791
1352 0 48.0765 11.0449 531 112.637 201.145 490.258
1353 0 48.0182 11.7247 563 107.162 201.22 485.375
1354 0 51.0246 12.2294 624 107.758 201.739 485.942
1355 0 54.138 13.7796 746 108.646 200.54 489.214
1356 0 55.0881 12.4891 688 111.894 200.791 488.366
1357 0 57.0934 12.7685 729 111.926 201.133 486.626
1358 0 59.099 13.8243 817 109.308 200.761 487.326
1359 0 61.0806 13.4904 824 111.37 200.632 484.068
1360 0 62.0953 13.8658 861 110.596 199.88 485.79
1361 0 63.2689 12.439 787 112.682 199.907 485.534
1362 0 65.1809 12.5343 817 113.035 200.135 483.754
1363 0 67.2602 12.7862 860 112.635 200.17 481.827
1364 0 71.2535 13.9081 991 109.024 199.52 481.217
1365 0 73.1507 14.2856 1045 107.606 200.661 479.656
1366 0 74.2224 13.7829 1023 110.372 199.994 478.715
1367 0 77.229 13.6866 1057 111.01 199.965 478.439
1368 0 79.3021 13.3036 1055 112.572 200.018 476.334
1369 0 81.291 13.384 1088 112.853 200.045 476.061
1370 0 84.1611 13.4623 1133 112.797 199.52 474.929
1371 0 87.1793 13.1797 1149 114.492 200.027 474.04
1372 0 86.1691 9.98038 860 111.506 200.208 476.193
1373 0 92.1005 10.4125 959 108.264 198.865 476.829
1374 0 96.2131 12.5555 1208 105.488 198.034 471.444
1375 1 50.0601 10.6272 532 112.15 199.602 491.891
1376 0 54.0877 12.1839 659 109.487 197.839 489.023
1377 0 57.0876 12.875 735 109.819 197.897 489.182
1378 0 56.0926 12.6755 711 106.044 198.228 487.869
1379 0 59.0578 13.1227 775 104.912 198.886 486.946
1380 0 61.1126 13.6142 832 104.032 198.892 485.121
1381 0 63.1518 13.523 854 103.68 199.26 484.615
1382 0 64.0996 12.7146 815 106.625 199.171 486.328
1383 0 67.0754 13.701 919 104.287 199.106 484.503
1384 0 68.0303 12.2445 833 108.932 198.443 482.248
1385 0 69.1327 12.8449 888 108.114 198.634 482.544
1386 0 73.0714 13.4663 984 106.712 198.86 481.793
1387 0 74.0934 13.6989 1015 107.102 199.087 481.239
1388 0 77.1534 14.3092 1104 105.811 198.682 479.5
1389 0 80.0546 14.7025 1177 105.9 198.609 478.635
1390 0 81.0992 13.7732 1117 109.246 199.767 478.442
1391 0 84.2741 13.5273 1140 109.984 199.012 477.284
1392 0 89.1339 14.1921 1265 109.124 198.233 475.089
1393 0 92.2761 13.0912 1208 112.354 198.509 474.895
1394 0 93.099 13.8562 1290 113.585 198.081 472.716
1395 1 50.0627 11.7453 588 118.434 198.075 494.665
1396 0 49.0658 11.3929 559 121.413 198.014 493.814
1397 0 52.0853 12.3451 643 119.74 198.457 492.509
1398 0 53.1475 12.3994 659 120.153 199.219 490.382
1399 0 56.2031 15.0881 848 111.846 198.899 489.189
1400 0 57.1403 14.0356 802 116.133 199.041 490.387
1401 0 58.1232 14.1424 822 117.313 199.367 488.579
1402 0 60.083 13.8475 832 118.213 199.888 489.149
1403 0 63.1303 14.6997 928 116.621 200.03 486.86
1404 0 64.1158 14.3023 917 119.55 199.824 484.362
1405 0 67.1746 14.4995 974 119.402 199.227 483.245
1406 0 69.0776 15.07 1041 118.729 199.691 483.674
1407 0 71.0679 14.0007 995 123.898 199.673 481.011
1408 0 74.2238 15.2512 1132 120.964 199.28 480.44
1409 0 75.0926 14.7818 1110 122.189 198.667 480.663
1410 0 77.0969 14.2029 1095 129.401 199.748 478.236
1411 0 80.2093 13.9261 1117 129.98 200.139 475.987
1412 0 82.1342 13.5266 1111 132.577 199.384 474.473
1413 0 85.1538 13.9512 1188 129.199 198.676 471.158
1414 0 90.2922 14.0101 1265 122.32 198.697 471.365
1415 1 45.212 13.6911 619 120.913 198.717 491.341
1416 0 44.1082 12.3333 544 118.923 198.836 492.281
1417 0 45.1209 12.7435 575 117.419 200.485 491.699
1418 0 46.0717 12.155 560 120.025 199.611 489.879
1419 0 47.0537 13.729 646 116.156 199.105 489.531
1420 0 47.0537 13.8352 651 139.436 198.118 489.599
1421 0 51.1241 12.1469 621 118.517 199.061 488.89
1422 0 53.0965 12.7692 678 118.158 199.342 487.711
1423 0 52.206 12.4124 648 120.284 199.38 485.71
1424 0 54.1577 12.1128 656 119.008 199.409 485.143
1425 0 58.176 13.3388 776 115.646 199.738 484.378
1426 0 60.0833 13.6644 821 115.056 201.252 482.942
1427 0 61.1367 13.0854 800 116.174 201.164 483.664
1428 0 60.0556 13.0379 783 118.446 200.802 481.894
1429 0 63.1292 13.1318 829 117.086 201.131 481.236
1430 0 65.1331 12.9274 842 117.816 200.361 478.711
1431 0 69.1157 13.094 905 116.791 199.962 479.571
1432 0 71.1336 13.9175 990 115.995 200.034 477.591
1433 0 73.0801 12.7531 932 118.809 199.942 477.62
1434 0 77.1332 13.8202 1066 117.222 199.773 475.447
1435 0 80.1251 13.9532 1118 119.462 199.758 471.547
1436 0 82.1871 14.2845 1174 118.02 200.034 471.839
1437 0 87.1682 14.1107 1230 119.285 199.417 470.025
1438 0 89.1981 14.507 1294 121.987 198.82 468.502
1439 0 92.0947 13.3993 1234 124.939 199.393 466.575
1440 0 94.1752 13.082 1232 126.049 199.491 463.843
1441 0 100.227 13.6091 1364 121.391 198.58 462.418
1442 1 54.1032 13.0307 705 117.591 198.648 481.786
1443 0 57.3573 13.721 787 118.651 199.094 483.041
1444 0 59.1682 13.656 808 118.713 198.954 481.809
1445 0 60.1251 13.3389 802 119.345 198.869 483.561
1446 0 62.2127 13.1324 817 121.284 199.48 479.304
1447 0 66.1775 13.3127 881 119.222 198.86 479.711
1448 0 67.1308 14.2856 959 117.668 199.359 478.253
1449 0 71.1462 13.409 954 118.294 199.906 477.335
1450 0 73.1633 14.2148 1040 116.589 199.897 476.828
1451 0 75.1414 13.9204 1046 117.588 199.22 476.268
1452 0 77.3755 14.7592 1142 116.656 199.626 473.076
1453 0 81.226 14.5643 1183 116.797 199.658 471.856
1454 0 84.2966 13.9152 1173 118.21 198.517 470.274
1455 0 86.2424 14.4245 1244 117.439 198.76 468.404
1456 0 88.2054 13.8087 1218 119.547 198.661 467.727
1457 0 92.1536 15.485 1427 116.109 198.913 464.186
1458 0 95.199 13.1724 1254 123.004 200.163 465.066
1459 0 100.249 14.0351 1407 120.036 199.726 463.227
1460 0 103.253 14.4886 1496 119.45 199.461 462.092
1461 0 108.238 13.8121 1495 120.995 199.64 460.741
1462 1 58.1544 12.4152 722 115.579 200.434 485.533
1463 0 58.1013 12.0135 698 117.613 200.444 484.249
1464 0 61.1253 12.139 742 111.395 200.391 480.497
1465 0 62.1326 12.4894 776 115.839 200.128 483.702
1466 0 66.2119 12.2788 813 115.002 199.819 482.117
1467 0 66.1342 11.144 737 117.034 200.213 475.315
1468 0 71.1766 13.1504 936 111.261 200.026 476.941
1469 0 71.0844 11.7466 835 115.65 200.099 476.431
1470 0 77.1454 13.0014 1003 111.082 200.152 474.41
1471 0 78.2182 13.7948 1079 111.315 200.416 473.383
1472 0 82.1535 13.5478 1113 112.062 199.581 472.164
1473 0 86.1285 13.6656 1177 111.534 199.314 471.784
1474 0 87.198 12.8787 1123 115.809 199.211 468.537
1475 0 93.3773 14.6931 1372 111.832 198.439 469.692
1476 0 97.328 14.3844 1400 112.922 199.068 468.415
1477 0 99.2372 13.896 1379 115.708 198.819 466.576
1478 1 50.1271 12.189 611 117.003 199.034 489.795
1479 0 52.3346 13.0506 683 114.206 199.262 487.656
1480 0 54.0616 12.9112 698 113.351 198.345 488.246
1481 0 55.0608 13.3852 737 112.304 198.183 487.107
1482 0 55.0792 12.6545 697 115.307 198.036 488.267
1483 0 60.0925 14.511 872 109.425 198.464 486.153
1484 0 61.1783 14.8582 909 109.056 198.48 485.21
1485 0 62.0508 13.6179 845 112.486 198.085 485.441
1486 0 64.0286 13.7907 883 111.504 198.634 484.49
1487 0 67.0649 15.3732 1031 108.101 198.87 482.247
1488 0 69.0697 13.537 935 112.935 198.363 481.765
1489 0 69.129 13.2795 918 115.174 198.736 481.121
1490 0 76.1085 14.2954 1088 110.728 199.36 479.29
1491 0 77.1606 13.3747 1032 113.186 199.216 479.302
1492 0 78.1892 13.7999 1079 114.694 197.856 477.515
1493 0 81.0607 13.459 1091 116.691 198.333 475.56
1494 0 84.1473 13.8685 1167 116.578 198.532 474.105
1495 1 42.023 11.9458 502 116.659 197.681 495.207
1496 0 44.0338 12.7856 563 115.419 197.114 493.945
1497 0 44.0491 11.5553 509 117.613 198.432 493.483
1498 0 47.0388 12.6279 594 120.227 197.774 492.283
1499 0 49.0168 13.4444 659 118.118 197.778 492.062
1500 0 50.0583 13.3844 670 119.51 197.6 491.26
1501 0 53.033 13.1805 699 118.747 197.368 491.363
1502 0 53.0223 13.8244 733 119.023 197.022 490.192
1503 0 56.1519 14.6745 824 110.502 198.335 489.615
1504 0 56.0207 13.1737 738 115.304 198.359 487.946
1505 0 55.0844 13.6881 754 116.666 198.714 488.922
1506 0 57.0346 14.3597 819 119.718 197.874 487.738
1507 0 58.0346 12.9922 754 124.609 198.818 486.168
1508 0 57.0738 13.5264 772 124.894 198.637 486.975
1509 0 59.0338 12.6707 748 129.239 198.289 486.953
1510 0 62.096 14.2038 882 123.078 197.991 487.172
1511 0 64.0591 14.2993 916 122.029 197.914 484.308
1512 0 64.1228 12.2733 787 127.041 198.215 485.017
1513 0 66.0488 13.5657 896 123.82 198.007 483.538
1514 0 69.0503 13.6567 943 121.466 198.191 482.701
1515 0 68.0642 12.6204 859 125.42 198.186 481.555
1516 0 73.0618 13.8923 1015 120.287 198.053 480.619
1517 0 73.0461 14.1965 1037 119.747 198.012 480.169
1518 0 76.2015 12.7032 968 124.879 198.362 477.486
1519 0 78.0771 13.7556 1074 122.768 198.825 478.091
1520 0 81.0717 14.2467 1155 122.101 198.963 475.305
1521 0 84.1207 13.8967 1169 123.139 198.421 475.124
1522 0 85.1499 12.7657 1087 126.529 198.824 475.289
1523 0 88.238 13.4069 1183 125.901 198.761 474.786
1524 0 92.2153 13.4468 1240 127.602 198.448 472.242
1525 0 94.2552 12.01 1132 124.774 199.203 473.644
1526 0 96.113 12.4957 1201 120.494 199.709 473.517
1527 0 97.1952 11.6775 1135 123.732 199.733 472.734
1528 1 51.0265 13.6008 694 122.808 198.875 493.509
1529 0 52.0958 12.9377 674 125.89 198.718 494.136
1530 0 51.0816 14.4475 738 124.431 199.688 492.52
1531 0 54.0985 14.1224 764 125.84 199.721 491.546
1532 0 54.0401 14.0081 757 127.845 199.343 490.325
1533 0 56.0569 15.1988 852 124.599 198.711 490.58
1534 0 58.034 14.3536 833 128.82 199.251 489.822
1535 0 60.0536 14.0874 846 131.037 199.603 487.584
1536 0 61.0958 14.2236 869 132.532 198.552 486.448
1537 0 64.0636 14.47 927 131.379 197.907 485.424
1538 0 66.0835 14.8297 980 130.702 198.532 484.007
1539 0 69.1261 14.4663 1000 133.132 198.285 481.648
1540 0 71.1215 15.2556 1085 131.276 198.379 481.164
1541 0 72.3066 14.6736 1061 135.034 198.265 480.73
1542 0 74.257 14.6384 1087 136.454 198.4 478.87
1543 0 77.1767 15.173 1171 135.942 198.551 477.271
1544 0 79.1877 15.6843 1242 135.837 197.928 476.015
1545 0 82.1972 15.5236 1276 136.829 198.04 476.072
1546 0 84.1735 15.4562 1301 137.679 198.199 475.178
1547 0 86.1518 14.7298 1269 139.313 198.496 472.782
1548 1 44.0254 14.1055 621 145.348 198.097 491.918
1549 0 47.0555 15.2373 717 141.363 197.509 489.605
1550 0 49.1122 15.4341 758 139.741 197.483 489.471
1551 0 49.0554 15.0442 738 142.598 196.974 488.904
1552 0 52.0566 16.29 848 135.683 196.814 488.965
1553 0 52.0414 15.7567 820 139.032 197.506 487.171
1554 0 54.1459 15.1997 823 141.407 196.861 486.445
1555 0 55.0416 15.9879 880 139.249 195.922 486.274
1556 0 57.0526 16.1956 924 139.966 196.496 484.921
1557 0 59.0552 15.9343 941 141.592 196.377 483.171
1558 0 63.0418 17.1949 1084 133.924 196.328 483.953
1559 0 63.0443 16.0205 1010 139.668 196.981 482.085
1560 0 64.0472 15.3637 984 143.142 196.635 480.885
1561 0 66.016 16.1476 1066 140.662 197.367 480.1
1562 0 67.1629 15.5592 1045 142.042 197.259 478.881
1563 0 70.1293 15.1577 1063 142.397 197.355 478.471
1564 0 72.1556 15.2726 1102 142.072 197.173 478.779
1565 0 76.1204 15.0945 1149 140.729 197.374 476.986
1566 0 77.0508 15.7688 1215 140.848 197.526 474.909
1567 0 80.1432 15.4099 1235 140.705 197.487 473.387
1568 0 86.0496 15.5259 1336 137.675 197.284 471.048
1569 0 84.1572 15.1978 1279 141.514 197.221 469.991
1570 0 90.1151 15.003 1352 140.861 196.981 468.287
1571 0 92.0953 16.1246 1485 136.585 197.675 468.336
1572 0 95.2379 15.624 1488 138.81 197.214 466.543
1573 0 99.1222 16.172 1603 136.904 196.925 466.024
1574 0 108.195 16.267 1760 134.739 196.773 463.669
1575 0 111.137 16.4482 1828 135.968 197.56 462.506
1576 1 56.1168 15.2717 857 136.314 197.884 488.1
1577 0 58.0513 14.5216 843 137.448 197.389 487.164
1578 0 61.07 13.5255 826 139.541 197.449 486.621
1579 0 61.0644 15.0333 918 137.418 196.902 483.67
1580 0 64.0638 13.5646 869 140.407 197.288 483.303
1581 0 64.0963 13.5733 870 141.183 197.674 481.655
1582 0 70.1169 13.777 966 138.459 197.748 480.625
1583 0 72.0634 14.9868 1080 135.613 197.655 478.877
1584 0 75.1434 14.1729 1065 136.432 196.921 477.97
1585 0 78.1164 14.4656 1130 134.879 197.227 475.929
1586 0 80.1 15.618 1251 131.149 197.318 475.217
1587 0 82.0846 14.2049 1166 136.305 197.5 473.407
1588 0 85.1169 13.7811 1173 137.699 196.84 470.885
1589 0 89.2468 14.9809 1337 134.135 197.55 468.607
1590 0 94.129 15.2663 1437 132.106 197.406 466.613
1591 1 45.0725 12.0473 543 129.606 197.864 490.965
1592 0 47.0584 12.3676 582 128.57 197.387 491.814
1593 0 47.0643 11.9199 561 129.806 196.654 492.474
1594 0 50.0388 12.4903 625 127.446 197.293 490.638
1595 0 52.1066 12.8391 669 125.798 196.133 489.447
1596 0 55.0383 12.0643 664 125.324 195.649 488.795
1597 0 57.1532 11.5654 661 124.896 196.281 489.236
1598 0 59.1336 12.4464 736 123.001 196.8 486.295
1599 0 61.0989 12.8644 786 120.898 196.856 485.445
1600 0 62.0275 12.1881 756 122.315 196.837 483.464
1601 0 65.0272 12.3948 806 120.766 196.62 482.641
1602 0 68.0948 13.3637 910 118.027 196.937 480.557
1603 0 70.1048 13.3942 939 116.557 197.031 479.803
1604 0 72.123 12.6728 914 117.295 196.935 479.811
1605 0 75.1018 10.8919 818 120.064 196.495 478.435
1606 0 79.0447 11.8287 935 117.653 197.126 475.155
1607 0 81.2626 12.4411 1011 116.092 197.339 472.529
1608 0 84.1437 11.5517 972 117.856 197.569 469.349
1609 0 87.1141 11.5251 1004 116.681 197.443 470.871
1610 1 48.073 10.3177 496 111.8 197.024 489.371
1611 0 50.061 10.4273 522 112.921 196.634 490.471
1612 0 51.2724 12.1508 623 110.812 196.883 488.872
1613 0 52.0846 9.83017 512 104.605 196.926 492.146
1614 0 54.0794 9.1717 496 106.379 197.018 490.004
1615 0 57.1276 7.492 428 86.236 197.1 495.089
1616 0 57.2632 9.98897 572 105.453 196.911 488.08
1617 0 63.1086 5.76784 364 109.816 197.069 493.11
1618 0 64.0818 10.1745 652 104.615 196.676 485.356
1619 0 65.0734 10.0041 651 105.948 195.86 482.561
1620 0 70.0838 11.3864 798 103.302 196.81 481.739
1621 0 72.0926 10.0842 727 107.033 196.326 483.809
1622 0 75.0812 10.9215 820 107.088 196.785 478.96
1623 0 79.093 11.3537 898 105.069 196.367 481.902
1624 0 82.0766 11.672 958 105.357 197.728 476.491
1625 0 83.1803 10.5073 874 108.339 197.63 477.939
1626 1 43.1523 11.1002 479 105.282 198.319 494.384
1627 0 46.1936 11.9714 553 112.268 198.689 492.779
1628 0 47.056 12.347 581 112.434 198.46 493.034
1629 0 50.1977 12.8293 644 107.422 198.517 492.935
1630 0 50.1871 11.8158 593 110.587 198.315 492.487
1631 0 52.1729 11.5769 604 104.924 198.048 487.985
1632 0 52.117 10.1502 529 116.89 196.425 487.17
1633 0 57.0995 12.1017 691 122.758 195.945 489.153
1634 0 59.0307 11.2653 665 124.466 196.239 488.556
1635 0 61.0163 10.9643 669 125.62 196.336 489.142
1636 0 62.0244 11.9791 743 125.35 196.096 486.833
1637 0 64.0757 12.376 793 124.033 196.064 486.977
1638 0 67.0536 12.5124 839 125.733 195.336 484.087
1639 0 70.0399 13.8778 972 120.582 195.277 483.394
1640 0 71.056 12.7646 907 126.682 195.912 482.171
1641 0 73.0513 13.6753 999 125.916 195.653 480.828
1642 0 74.0606 12.5708 931 129.275 196.346 480.176
1643 0 79.0638 11.0291 872 126.704 197.38 476.305
1644 0 79.1198 12.7402 1008 116.419 197.8 477.785
1645 0 82.1952 12.4703 1025 118.14 197.139 474.004
1646 0 85.1947 13.0994 1116 117.237 197.782 474.304
1647 1 44.0384 10.6271 468 122.84 197.748 495.556
1648 0 45.2459 12.4873 565 127.223 197.223 490.333
1649 0 47.2128 13.2379 625 127.43 197.187 489.462
1650 0 50.2128 13.5025 678 126.656 198.434 491.97
1651 0 50.2847 13.4633 677 128.74 197.294 490.211
1652 0 53.3031 13.7515 733 126.532 197.869 490.121
1653 0 54.214 13.5389 734 127.865 197.18 488.466
1654 0 56.3304 14.0954 794 126.749 197.189 486.994
1655 0 57.4775 14.0403 807 127.739 197.504 485.887
1656 0 57.3032 13.6991 785 129.678 197.619 486.796
1657 0 60.4281 13.9505 843 127.711 196.926 484.707
1658 0 61.4697 14.0882 866 128.157 196.132 483.156
1659 0 64.2439 14.7563 948 125.797 195.859 482.99
1660 0 66.2995 14.4948 961 124.444 196.829 481.505
1661 0 67.0507 14.0789 944 125.701 197.581 482.03
1662 0 71.0617 14.0723 1000 123.597 198.223 482.562
1663 0 72.0756 15.1646 1093 121.938 198.233 480.635
1664 0 73.0434 14.772 1079 122.711 197.576 481.389
1665 0 76.0787 14.5507 1107 124.573 197.577 479.12
1666 0 77.042 14.5765 1123 125.483 197.415 475.833
1667 0 80.0358 14.3311 1147 124.647 197.81 475.99
1668 0 84.0904 15.3406 1290 120.752 197.933 474.962
1669 0 86.1179 14.3408 1235 124.343 198.002 472.508
1670 0 87.1142 13.7291 1196 126.931 197.836 472.419
1671 0 91.1451 14.5043 1322 123.054 197.569 473.047
1672 0 92.1111 13.7334 1265 126.965 197.23 469.315
1673 0 94.1649 12.2657 1155 123.087 197.418 464.616
1674 0 96.1598 13.6024 1308 121.206 197.375 461.513
1675 0 100.236 12.3608 1239 122.908 197.542 464.512
1676 1 52.1845 12.0151 627 127.096 197.541 483.453
1677 0 53.1317 12.102 643 131.185 197.019 481.526
1678 0 56.1271 12.7746 717 129.866 196.735 480.681
1679 0 57.1637 11.7907 674 120.518 197.634 481.148
1680 0 58.1079 11.7368 682 120.768 197.789 481.914
1681 0 61.2017 12.3036 753 119.426 197.587 479.649
1682 0 64.0889 12.8571 824 117.441 197.282 479.522
1683 0 64.046 11.8821 761 120.982 197.561 478.402
1684 0 68.1455 12.8989 879 118.493 197.437 475.597
1685 0 71.1128 13.2184 940 118.212 196.952 474.974
1686 0 73.0803 13.7383 1004 117.127 197.186 474.71
1687 0 77.0861 13.3098 1026 119.08 197.188 472.491
1688 0 77.0985 13.1001 1010 120.66 197.888 471.314
1689 0 81.1748 13.3785 1086 118.449 197.876 470.45
1690 0 82.1618 12.5119 1028 122.763 197.313 468.869
1691 0 84.1296 12.7541 1073 122.523 197.13 469.625
1692 0 89.1479 13.8309 1233 120.004 197.739 467.542
1693 0 91.154 15.3038 1395 117.429 197.997 464.942
1694 0 95.132 13.0555 1242 123.333 197.223 464.521
1695 0 97.2437 13.9649 1358 121.599 197.129 461.06
1696 0 99.0398 14.2367 1410 121.607 197.37 458.737
1697 0 105.158 14.9014 1567 119.819 197.594 455.974
1698 0 108.237 14.422 1561 122.131 197.284 454.696
1699 1 57.0446 11.8679 677 117.71 196.408 481.077
1700 0 59.0426 11.3647 671 121.112 196.306 481.104
1701 0 63.1721 12.4739 788 118.506 196.439 483.023
1702 0 63.1 12.1553 767 121.604 196.728 479.527
1703 0 67.1829 12.4734 838 120.527 196.252 479.375
1704 0 69.1948 13.3825 926 115.592 195.981 476.578
1705 0 71.0791 13.1684 936 116.27 195.88 475.888
1706 0 73.1156 11.0647 809 120.304 196.241 476.651
1707 0 76.1041 13.0479 993 117.682 196.08 474.006
1708 0 77.1195 12.6038 972 119.467 195.805 475.514
1709 0 79.0371 12.7155 1005 120.972 195.826 472.159
1710 0 84.0524 13.1704 1107 120.313 196.146 470.605
1711 0 85.0502 13.4274 1142 121.238 195.927 467.39
1712 0 87.0455 12.8668 1120 123.09 195.618 466.142
1713 0 91.0936 13.1074 1194 123.191 195.713 465.379
1714 0 94.1824 12.4121 1169 123.595 196.017 462.284
1715 0 98.1763 14.0564 1380 118.849 196.443 463.902
1716 0 101.201 12.4999 1265 123.669 195.955 462.064
1717 0 103.203 13.2069 1363 119.548 195.982 457.01
1718 1 54.1333 9.19951 498 117.454 195.701 484.44
1719 0 57.2138 10.9414 626 113.883 196.645 485.117
1720 0 59.1026 11.8607 701 112.802 197.104 483.622
1721 0 63.2537 11.5566 731 111.29 197.977 485.614
1722 0 62.1474 10.1211 629 117.507 197.369 483.494
1723 0 65.221 11.254 734 114.222 198.143 482.815
1724 0 69.2417 11.236 778 114.891 197.571 481.751
1725 0 69.1876 11.1725 773 117.044 198.072 479.749
1726 0 72.2013 11.1078 802 117.749 197.733 479.648
1727 0 73.2806 12.227 896 115.391 197.89 479.429
1728 0 78.2404 12.027 941 116.294 197.913 477.983
1729 0 78.3079 11.1611 874 120.532 198.113 476.264
1730 0 82.2928 12.2368 1007 119.218 198.264 474.486
1731 0 83.2182 11.572 963 124.74 198.012 473.852
1732 0 84.2351 11.4204 962 126.723 196.615 471.5
1733 0 89.2115 11.9043 1062 125.403 197.402 470.525
1734 0 90.2075 10.4759 945 131.214 197.37 468.538
1735 0 95.3229 12.1062 1154 126.537 197.685 468.328
1736 0 99.157 12.3541 1225 126.754 197.304 465.76
1737 0 100.221 11.7042 1173 130.005 197.311 463.728
1738 0 104.264 12.8136 1336 127.169 197.15 463.213
1739 0 106.188 11.8657 1260 131.491 196.837 462.864
1740 1 56.1759 11.5174 647 121.045 197.351 490.442
1741 0 58.1687 12.1027 704 120.609 198.195 487.344
1742 0 60.2232 11.8061 711 121.287 198.107 488.516
1743 0 62.1338 13.6319 847 118.044 198.557 486.096
1744 0 62.1856 11.7391 730 124.237 198.141 486.248
1745 0 66.2017 12.4317 823 120.475 198.146 485.423
1746 0 66.0994 12.2845 812 121.895 197.408 483.426
1747 0 68.2103 12.3442 842 122.317 197.259 483.11
1748 0 71.1328 12.568 894 120.961 197.272 481.644
1749 0 73.0885 12.6969 928 120.595 197.686 482.846
1750 0 75.1582 12.7464 958 121.26 197.748 479.996
1751 0 77.1402 12.9893 1002 120.041 197.101 477.09
1752 0 77.1668 10.8078 834 125.638 196.769 470.118
1753 0 82.3525 12.0336 991 121.918 196.532 469.397
1754 0 86.3209 12.3609 1067 134.195 196.449 475.417
1755 0 89.2491 14.241 1271 129.492 197.033 474.393
1756 1 180.267 13.5965 2451 132.939 197.452 433.852
1757 0 184.59 12.8555 2373 135.336 196.769 431.282
1758 1 95.2935 13.5791 1294 132.097 196.8 469.47
1759 0 99.1872 13.5501 1344 131.714 197.01 469.01
1760 1 51.0738 11.9239 609 131.396 197.634 491.731
1761 0 51.1084 12.3072 629 133.631 198.369 491.709
1762 0 53.2124 13.5495 721 132.351 197.331 490.875
1763 0 54.0263 12.716 687 137.397 198.381 490.617
1764 0 57.1387 13.0034 743 135.232 197.992 489.958
1765 0 59.1341 13.3087 787 133.714 198.226 489.682
1766 0 61.0846 13.2603 810 134.948 197.551 488.552
1767 0 63.1247 14.3842 908 131.697 198.133 487.731
1768 0 64.1376 13.206 847 136.393 198.29 487.666
1769 0 64.218 12.8936 828 139.754 197.748 484.228
1770 0 68.2877 13.0184 889 138.143 197.295 483.89
1771 0 67.1304 13.7345 922 138.902 197.7 483.774
1772 0 71.1562 13.7444 978 138.058 198.028 481.853
1773 0 72.1976 13.3107 961 141.283 198.07 480.422
1774 0 75.1587 14.4627 1087 137.316 198.066 480.499
1775 0 78.2709 14.1176 1105 139.01 197.982 478.747
1776 0 80.2414 14.5312 1166 137.574 196.973 477.732
1777 0 83.2801 14.6373 1219 136.068 197.01 478.107
1778 0 86.1616 15.0647 1298 135.451 196.958 474.082
1779 0 89.138 14.4159 1285 136.974 196.747 474.002
1780 0 91.1897 14.4863 1321 137.805 196.544 472.282
1781 1 47.1049 11.8247 557 138.707 196.458 494.061
1782 0 50.1223 11.9707 600 139.885 196.36 489.358
1783 0 53.2199 13.4348 715 135.655 196.751 488.596
1784 0 53.1402 13.5114 718 137.043 196.16 487.435
1785 0 55.206 14.5093 801 134.79 196.213 486.343
1786 0 57.0447 14.0416 801 134.408 198.166 488.955
1787 0 58.0217 15.0978 876 133.221 197.517 486.559
1788 0 59.0244 13.7231 810 136.006 197.958 487.059
1789 0 60.0144 13.3635 802 137.011 198.595 486.181
1790 0 66.039 14.8851 983 129.278 197.894 485.162
1791 0 68.0458 14.02 954 132.409 197.741 484.324
1792 0 70.0369 15.4918 1085 127.106 197.681 483.056
1793 0 70.1072 14.1783 994 132.603 197.61 482.118
1794 0 74.0818 15.5234 1150 127.019 197.303 481.504
1795 0 73.0842 13.6965 1001 134.953 197.113 480.085
1796 0 79.075 13.5441 1071 132.795 197.552 479.251
1797 0 81.0966 14.4766 1174 130.36 197.51 476.9
1798 0 84.2246 15.3399 1292 127.184 196.733 474.089
1799 0 87.1426 14.3673 1252 129.793 196.652 473.93
1800 0 89.2363 15.3861 1373 127.353 196.926 470.615
1801 0 93.2421 14.7466 1375 127.482 197.035 471.537
1802 0 96.2872 14.8306 1428 127.904 196.774 468.327
1803 0 98.3745 14.5871 1435 128.301 197.606 467.059
1804 1 55.1554 13.6161 751 126.393 197.365 489.481
1805 0 55.1368 12.5325 691 130.835 198.321 488.259
1806 0 56.1 12.4242 697 125.661 196.343 485.169
1807 0 55.1056 11.233 619 114.344 197.893 484.95
1808 0 58.0658 11.9347 693 123.11 196.717 488.32
1809 0 61.0623 12.6592 773 121.113 196.523 486.098
1810 0 65.0758 12.7697 831 120.267 196.835 484.309
1811 0 67.211 11.7243 788 120.885 196.949 486.105
1812 0 69.1124 11.8647 820 121.773 196.75 482.52
1813 0 70.0436 11.8355 829 121.258 196.404 482.709
1814 0 74.0372 12.156 900 120.69 196.369 479.208
1815 0 78.1267 13.2733 1037 117.739 196.118 477.85
1816 0 79.1073 12.3124 974 118.042 196.891 476.961
1817 0 83.2327 11.3777 947 108.007 197.662 473.987
1818 0 84.1789 9.44417 795 112.654 197.874 471.926
1819 0 90.1191 11.7955 1063 107.754 198.195 468.627
1820 0 92.1587 10.6555 982 110.348 197.222 468.486
1821 1 49.1995 10.2237 503 105.755 197.328 487.147
1822 0 52.18 11.5178 601 105 196.659 485.301
1823 0 54.1238 11.64 630 102.949 198.084 486.706
1824 0 52.1013 9.80782 511 106.851 197.818 483.207
1825 0 57.0505 11.4811 655 102.711 197.692 482.298
1826 0 59.1212 10.8929 644 103.933 197.564 483.663
1827 0 61.0842 11.4432 699 102.71 197.974 483.044
1828 0 63.1193 11.7714 743 102.26 197.809 481.063
1829 0 64.1722 11.0328 708 105.254 197.621 479.989
1830 0 67.1077 11.936 801 103.29 197.511 478.009
1831 0 69.0644 12.5245 865 102.031 197.927 477.651
1832 0 71.0552 12.6381 898 102.445 198.018 475.451
1833 0 76.1798 11.6435 887 104.064 197.467 474.861
1834 0 75.1824 11.8778 893 123.113 196.455 474.751
1835 0 81.242 12.0012 975 104.37 197.007 470.62
1836 0 84.3639 12.375 1044 103.658 196.644 469.502
1837 0 86.1877 11.4285 985 107.711 196.858 467.696
1838 0 90.2781 12.107 1093 106.436 196.781 466.766
1839 0 94.3762 11.9945 1132 108.477 196.214 463.3
1840 1 46.1934 10.0447 464 109.459 196.237 491.966
1841 0 47.2617 11.6796 552 113.011 195.36 491.598
1842 0 51.1997 11.5235 590 113.492 195.376 491.468
1843 0 50.1092 11.7144 587 86.1141 197.058 489.196
1844 0 53.1626 11.2109 596 106.705 196.122 487.891
1845 0 52.1248 10.59 552 108.502 196.589 485.074
1846 0 53.1161 10.0535 534 110.732 197.665 485.989
1847 0 56.1228 11.2788 633 112.823 198.136 487.856
1848 0 60.0868 10.8177 650 109.005 197.283 485.758
1849 0 62.1526 11.8257 735 107.469 197.118 484.2
1850 0 64.0322 11.9315 764 107.334 197.223 484.287
1851 0 66.106 11.3454 750 110 197.261 481.212
1852 0 65.1376 11.0382 719 111.757 197.64 480.917
1853 0 68.1181 12.3462 841 109.26 198.026 479.545
1854 0 68.0701 11.0328 751 113.589 197.478 479.64
1855 0 73.0621 11.4149 834 111.423 198.146 478.861
1856 0 75.1449 10.9256 821 111.903 197.509 475.933
1857 0 78.0972 12.2668 958 108.814 196.764 472.916
1858 0 81.1643 12.4439 1010 107.491 197.952 472.797
1859 0 81.2955 12.473 1014 107.873 197.621 473.383
1860 0 86.0816 10.6759 919 111.729 197.613 470.959
1861 0 87.1273 10.5593 920 110.752 197.807 472.18
1862 0 93.2304 12.1741 1135 107.563 197.205 468.137
1863 1 46.092 10.414 480 110.702 198.144 486.99
1864 0 48.0368 12.1782 585 110.665 198.398 487.653
1865 0 52.0352 11.6075 604 101.142 198.578 488.43
1866 0 54.0328 13.0476 705 98.6511 198.278 485.45
1867 0 54.1123 11.125 602 102.767 198.239 485.402
1868 0 54.0707 11.8548 641 102.256 197.832 484.13
1869 0 58.1474 10.8517 631 103.068 197.859 484.483
1870 0 59.0968 11.6419 688 101.166 197.664 483.01
1871 0 60.0651 11.6707 701 101.662 197.538 480.629
1872 0 63.0926 11.5386 728 99.831 197.326 479.275
1873 0 63.1245 11.2951 713 101.112 197.073 479.509
1874 0 66.0769 12.8941 852 97.4824 196.758 479.195
1875 0 67.1212 12.2465 822 98.2774 197.869 477.9
1876 0 70.1681 11.3727 798 100.528 197.541 475.855
1877 0 71.2001 12.0365 857 99.0023 197.629 475.943
1878 0 72.1244 11.6604 841 100.824 197.495 474.195
1879 0 76.207 11.4556 873 100.062 197.208 474.088
1880 0 79.2667 11.6695 925 100.181 197.363 470.497
1881 0 81.1437 13.014 1056 97.6345 196.985 469.772
1882 0 84.2327 13.7476 1158 96.9085 196.869 468.831
1883 0 88.2373 12.6704 1118 98.7218 196.535 467.494
1884 0 88.2525 11.739 1036 99.9093 197.059 465.755
1885 1 50.0869 9.12414 457 98.1007 197.276 487.225
1886 0 50.0949 10.4801 525 97.2095 197.29 485.253
1887 0 52.1219 12.0679 629 92.9364 197.828 487.307
1888 0 51.1279 10.8747 556 96.6439 197.192 486.034
1889 0 56.0713 11.7172 657 94.0426 197.673 485.137
1890 0 57.0626 11.6714 666 94.4159 197.773 482.778
1891 0 61.1245 12.859 786 93.2786 197.193 485.095
1892 0 61.0533 11.7602 718 94.8412 197.474 481.542
1893 0 63.1574 12.2868 776 93.9832 197.683 480.427
1894 0 63.1792 12.0926 764 95.0327 197.823 477.988
1895 0 65.0687 11.4648 746 96.3901 198.001 478.113
1896 0 68.0892 12.3074 838 94.574 198.012 476.673
1897 0 69.0894 12.3897 856 95.6367 197.703 475.221
1898 0 73.0847 13.8059 1009 92.0456 198.225 476.373
1899 0 74.049 12.3027 911 95.5554 197.99 476.499
1900 0 77.1409 11.7707 908 96.3172 198.436 472.828
1901 0 81.0861 12.2462 993 94.8228 198.342 471.833
1902 0 83.1157 12.7413 1059 94.915 198.012 470.117
1903 0 86.2352 12.7906 1103 94.4633 197.597 469.727
1904 0 89.19 13.5105 1205 93.4299 197.924 467.355
1905 0 92.1896 12.9624 1195 94.0879 197.378 468.957
1906 0 94.2527 13.05 1230 95.087 197.404 464.619
1907 0 98.1313 13.3596 1311 94.6903 196.888 462.866
1908 1 49.1119 11.5043 565 94.1221 197.823 487.752
1909 0 49.0202 11.5871 568 101.998 198.213 482.4
1910 0 53.1009 12.8058 680 98.1 197.075 482.766
1911 0 55.1313 12.5156 690 99.8696 197.674 481.448
1912 0 56.1281 11.545 648 101.465 197.762 481.213
1913 0 59.0866 11.5762 684 101.061 197.987 481.218
1914 0 60.0384 12.0756 725 101.116 197.866 480.463
1915 0 61.0621 10.9724 670 104.421 197.8 479.678
1916 0 63.1507 11.1163 702 106.322 198.554 478.655
1917 0 64.1061 11.325 726 104.748 197.84 480.55
1918 0 69.0717 11.4374 790 105.791 197.66 478.961
1919 0 74.1291 12.6806 940 103.491 197.134 478.234
1920 0 73.2005 10.56 773 110.181 197.43 476.56
1921 0 76.3024 11.8476 904 108.918 197.015 473.835
1922 0 81.1048 13.4764 1093 105.947 196.765 472.231
1923 0 83.2378 12.9629 1079 108.426 196.462 470.55
1924 0 87.1914 12.9256 1127 105.628 196.682 469.378
1925 0 90.4318 13.148 1189 105.55 197.205 468.217
1926 0 91.243 11.4749 1047 110.964 196.698 467.069
1927 1 48.2094 10.5581 509 102.729 197.921 489.715
1928 0 49.0618 10.8435 532 103.244 196.583 491.944
1929 0 50.1758 11.9181 598 103.005 197.97 488.259
1930 0 51.1182 11.1702 571 103.448 198.179 486.662
1931 0 54.1503 12.4653 675 101.449 197.892 485.267
1932 0 55.1194 12.7541 703 104.972 197.65 483.834
1933 0 57.068 11.5827 661 108.021 197.486 484.053
1934 0 58.2542 11.6215 677 109.645 197.926 482.338
1935 0 60.0757 13.1168 788 107.302 197.878 480.244
1936 0 60.0936 12.5138 752 110.969 197.645 479.928
1937 0 65.0753 12.7698 831 108.804 198.254 480.643
1938 0 69.1501 13.7238 949 107.796 197.802 478.178
1939 0 70.1327 12.6189 885 110.584 197.892 479.069
1940 0 72.1482 13.8604 1000 110.136 197.47 475.375
1941 0 73.0615 12.9891 949 114.979 197.888 475.149
1942 0 77.1768 12.7759 986 115.944 198.006 472.051
1943 0 77.1768 13.2034 1019 117.114 197.693 472.744
1944 0 81.1893 13.4131 1089 117.543 197.632 472.14
1945 0 84.1501 13.6185 1146 122.26 197.446 472.154
1946 0 88.0926 13.8604 1221 120.431 196.802 473.481
1947 0 91.114 14.7947 1348 117.677 197.045 469.964
1948 1 47.1328 11.9237 562 121.358 196.89 487.941
1949 0 48.0778 12.1886 586 121.439 196.089 485.241
1950 0 53.0752 13.0004 690 122.339 195.797 488.467
1951 0 53.0375 12.8588 682 122.818 196.034 488.155
1952 0 55.0412 14.5709 802 119.224 195.556 485.325
1953 0 56.0555 12.5768 705 123.96 195.695 485.115
1954 0 58.037 12.6299 733 122.7 195.831 484.262
1955 0 59.0321 12.0951 714 124.48 196.029 482.594
1956 0 61.1079 12.2406 748 124.686 196.329 482.167
1957 0 64.0887 14.0899 903 119.506 196.862 481.659
1958 0 65.0504 13.2513 862 121.944 197.125 481.089
1959 0 68.1166 14.0054 954 119.497 197.109 479.648
1960 0 68.12 12.5954 858 124.009 196.428 476.86
1961 0 72.127 12.6305 911 123.045 196.28 475.121
1962 0 74.0863 13.8217 1024 119.582 196.339 471.02
1963 0 75.122 13.285 998 122.227 196.778 471.965
1964 0 80.2577 13.3445 1071 119.852 196.308 468.547
1965 0 84.1604 13.2248 1113 118.955 196.349 467.462
1966 0 86.1454 13.1522 1133 116.591 196.269 468.841
1967 0 89.1411 14.449 1288 113.23 196.136 466.065
1968 0 91.103 14.2366 1297 114.224 196.886 465.555
1969 1 47.0733 12.4487 586 120.761 198.304 485.959
1970 0 50.0861 12.5783 630 118.965 197.529 486.284
1971 0 50.0757 12.8006 641 121.842 197.786 483.495
1972 0 52.0924 13.1113 683 120.448 197.628 483.728
1973 0 54.1862 13.2322 717 119.385 197.53 483.54
1974 0 57.1359 13.2841 759 117.684 197.072 481.036
1975 0 59.1483 13.7113 811 117.021 197.252 479.951
1976 0 60.0881 14.6285 879 115.799 197.695 479.228
1977 0 61.2026 12.091 740 122.811 197.33 477.888
1978 0 66.2801 12.8545 852 118.898 197.522 476.496
1979 0 68.1024 13.5384 922 113.579 197.644 477.033
1980 0 71.1462 13.1982 939 117.704 198.024 474.521
1981 0 73.0613 14.9737 1094 113.558 197.774 473.392
1982 0 75.1158 13.8453 1040 116.888 197.933 472.273
1983 0 75.0973 14.0751 1057 118.934 198.155 470.132
1984 0 80.0482 13.9416 1116 117.66 197.764 469.968
1985 0 82.1642 14.0694 1156 119.723 197.465 466.309
1986 0 86.2673 14.3392 1237 118.079 197.129 464.273
1987 0 88.1883 13.6186 1201 120.878 196.431 462.062
1988 0 91.2038 15.5147 1415 116.014 196.124 462.416
1989 0 95.1379 14.3791 1368 118.201 196.226 461.966
1990 0 98.1651 13.3449 1310 121.762 196.607 456.935
1991 1 49.1363 9.76875 480 123.196 197.088 482.554
1992 0 52.1331 10.3773 541 119.808 196.353 482.399
1993 0 52.2006 11.3217 591 118.494 196.394 480.937
1994 0 59.0533 13.2084 780 121.617 195.132 485.808
1995 0 61.0786 13.1306 802 121.611 195.421 485.081
1996 0 65.0585 13.5417 881 119.229 195.921 484.339
1997 0 65.1074 12.5946 820 122.651 195.707 482.402
1998 0 68.1514 12.1788 830 123.692 195.499 480.886
1999 0 68.1338 11.9324 813 125.531 195.84 479.341
2000 0 72.2132 11.8676 857 124.642 196.19 478.88
2001 0 74.2692 12.8182 952 123.585 195.645 475.688
2002 0 79.1353 13.5464 1072 121.035 195.832 474.438
2003 0 80.123 13.03 1044 122.777 195.622 473.381
2004 0 83.1806 14.2341 1184 119.323 195.677 472.675
2005 0 83.1266 12.5592 1044 125.335 195.696 470.566
2006 0 87.1598 13.7793 1201 121.142 195.264 468.875
2007 0 87.0971 13.1577 1146 121.111 195.58 469.536
2008 0 90.1146 11.2856 1017 126.602 195.079 466.224
2009 0 96.1142 13.2343 1272 120.586 195.59 466.149
2010 0 97.1088 13.2944 1291 121.524 195.338 467.749
2011 0 100.106 13.0462 1306 123.449 195.256 463.309
2012 1 55.0455 11.3361 624 118.747 194.588 486.934
2013 0 56.0429 11.8659 665 118.153 195.131 486.355
2014 0 57.1501 11.8285 676 118.423 197.617 485.988
2015 0 57.127 9.92525 567 105.164 196.991 479.337
2016 0 60.0855 11.3671 683 101.562 196.151 478.394
2017 0 61.1103 10.7511 657 103.511 197.052 478.982
2018 0 64.0734 11.8302 758 101.653 197.133 477.528
2019 0 65.1013 11.1518 726 104.656 196.814 477.701
2020 0 69.0586 12.627 872 100.092 197.173 475.491
2021 0 70.1513 12.2877 862 101.132 197.514 474.101
2022 0 72.1387 10.6323 767 105.649 197.106 471.089
2023 0 76.1016 12.0497 917 103.081 197.087 473.007
2025 0 79.1005 12.364 978 102.19 197.438 468.399
2026 0 81.1987 11.8475 962 104.168 197.658 469.284
2027 0 84.1371 11.3862 958 104.766 196.919 469.954
2028 0 84.1952 9.47797 798 109.608 197.219 465.668
2029 0 89.1729 10.7656 960 106.445 196.914 463.788
2030 0 90.2095 11.7283 1058 109.559 197.085 458.698
2031 1 54.042 11.158 603 113.811 196.703 488.779
2032 0 56.1241 12.1338 681 108.098 196.772 489.827
2033 0 56.0449 12.2402 686 109.356 195.981 485.325
2034 0 59.1298 12.9038 763 106.879 195.579 484.452
2035 0 61.0655 12.0363 735 109.386 194.635 484.42
2036 0 61.176 11.2462 688 110.936 195.009 483.932
2037 0 66.0484 13.157 869 104.719 195.136 482.144
2038 0 68.0729 12.4866 850 106.391 195.578 481.999
2039 0 71.1413 11.9621 851 107.172 195.801 481.36
2040 0 73.1118 13.1442 961 104.846 195.778 480.682
2041 0 75.0957 12.8902 968 105.995 196.338 479.633
2042 0 79.0816 14.6558 1159 101.399 196.526 478.107
2043 0 81.1138 13.1174 1064 104.899 195.958 476.202
2044 0 80.0456 12.4929 1000 108.365 196.199 474.682
2045 0 85.1007 13.1374 1118 105.431 195.748 472.88
2046 0 87.0804 12.8846 1122 106.713 195.919 470.745
2047 0 89.0731 11.8891 1059 109.862 195.768 470.124
2048 0 94.0765 13.9461 1312 104.133 195.007 468.685
2049 0 97.0487 13.3129 1292 105.849 195.159 465.234
2050 1 52.0244 10.9949 572 108.428 194.792 490.252
2051 0 51.0239 11.3476 579 112.069 195.164 487.687
2052 0 52.0453 10.9328 569 108.03 195.146 484.905
2053 0 54.0525 9.71278 525 112.293 195.116 482.587
2054 0 58.0956 10.9647 637 111.193 195.936 484.16
2055 0 60.0435 12.6408 759 110.767 196.173 486.544
2056 0 60.0774 11.868 713 115.286 195.714 484.115
2057 0 63.0564 13.4483 848 111.221 194.993 483.274
2058 0 64.0239 11.6675 747 116.24 195.054 483.071
2059 0 67.0837 12.6111 846 113.632 195.431 482.316
2060 0 70.0593 12.7463 893 112.863 194.797 480.905
2061 0 71.1181 11.9379 849 116.099 195.207 480.792
2062 0 76.0348 13.7174 1043 112.065 195.404 478.523
2063 0 76.0552 13.0563 993 115.412 195.905 477.4
2064 0 79.1074 12.818 1014 117.246 195.839 475.209
2065 0 81.1384 12.6081 1023 117.907 196.073 475.897
2066 0 84.0305 12.9953 1092 118.232 195.134 473.052
2067 1 45.0629 11.5838 522 118.709 195.764 492.841
2068 0 48.3313 12.0212 581 117.776 196.404 492.435
2069 0 48.4005 12.066 584 119.981 196.036 490.967
2070 0 49.089 12.4264 610 120.766 194.548 490.569
2071 0 51.1239 14.103 721 115.896 194.978 489.074
2072 0 51.0686 12.023 614 123.536 195.415 489.919
2073 0 54.0593 13.1152 709 120.135 195.76 488.836
2074 0 55.1197 11.8832 655 124.507 195.195 488.163
2075 0 58.1299 13.7967 802 119.768 194.9 486.247
2076 0 57.0499 12.9185 737 123.617 195.311 486.696
2077 0 59.0392 12.4494 735 125.41 195.442 484.718
2078 0 61.0824 12.7696 780 124.454 195.506 485.256
2079 0 64.076 14.2331 912 120.13 195.083 483.707
2080 0 64.0943 14.0106 898 122.489 195 482.556
2081 0 64.0992 12.9955 833 126.767 195.26 482.545
2082 0 69.1186 13.0934 905 125.021 195.34 480.387
2083 0 71.1877 12.9236 920 125.64 195.493 479.7
2084 0 72.2017 12.0496 870 125.087 194.984 482.023
2085 0 73.0899 12.7514 932 125.512 195.168 479.883
2086 0 76.1092 11.9171 907 126.138 195.168 480.477
2087 0 83.1323 14.4469 1201 117.804 195.581 478.46
2088 0 85.1646 12.9749 1105 122.685 195.358 476.649
2089 1 44.1705 12.0442 532 124.836 195.461 494.513
2090 0 45.007 12.487 562 126.429 195.429 492.813
2091 0 48.2065 12.5709 606 123.266 195.315 490.056
2092 0 50.3473 12.7912 644 123.929 195.363 489.716
2093 0 54.2505 13.069 709 121.772 195.766 489.008
2094 0 53.1974 12.5194 666 123.707 196.023 489.575
2095 0 54.1684 12.055 653 126.325 195.919 488.634
2096 0 58.1788 13.4757 784 120.503 196.014 487.8
2097 0 58.1119 13.1298 763 123.318 195.975 487.448
2098 0 60.3025 13.4986 814 121.849 195.958 486.735
2099 0 63.1962 13.466 851 122.462 196.136 484.837
2100 0 64.2005 14.2055 912 121 195.776 482.925
2101 0 67.2123 14.5063 975 119.988 195.824 483.194
2102 0 69.2788 14.4777 1003 120.865 196.149 480.699
2103 0 69.1834 12.8065 886 126.819 196.272 481.346
2104 0 73.3006 15.2795 1120 119.666 195.832 479.023
2105 0 77.2307 13.8028 1066 123.223 195.826 479.126
2106 0 79.2728 13.4725 1068 125.098 196.265 478.338
2107 0 82.351 14.7903 1218 121.58 196.237 476.598
2108 0 83.3989 13.8611 1156 125.589 196.084 473.281
2109 0 86.4765 13.3447 1154 127.003 196.692 471.412
2110 1 42.2438 10.9839 464 129.442 196.978 492.653
2111 0 45.2477 12.089 547 125.238 196.993 493.247
2112 0 46.3181 12.738 590 123.914 196.392 492.495
2113 0 46.1729 10.9371 505 113.283 195.709 488.178
2114 0 50.0577 12.0061 601 105.972 197.17 488.82
2115 0 51.1212 12.4801 638 105.11 197.166 487.538
2116 0 51.0531 12.869 657 105.073 196.784 488.138
2117 0 52.0406 11.76 612 108.444 196.585 487.111
2118 0 54.0643 12.2262 661 107.271 196.475 486.424
2119 0 55.045 11.9902 660 108.732 196.523 485.3
2120 0 58.092 11.6539 677 109.424 196.771 484.651
2121 0 60.0642 12.7031 763 107.191 197.093 483.489
2122 0 61.0546 12.1858 744 109.505 196.831 481.499
2123 0 63.0371 13.6904 863 106.487 197.044 481.046
2124 0 66.0639 12.0944 799 109.772 196.967 481.571
2125 0 68.0471 13.6817 931 106.079 196.736 480.605
2126 0 69.1515 12.0316 832 110.853 196.126 480.68
2127 0 70.0938 12.3977 869 111.017 196.613 477.135
2128 0 72.1582 12.7082 917 109.877 196.385 477.263
2129 0 74.1801 13.2381 982 110.199 196.156 475.517
2130 0 77.113 12.8383 990 110.126 196.346 475.036
2131 0 79.2225 12.1683 964 112.397 195.737 473.303
2132 0 83.1137 12.8499 1068 109.873 195.303 473.099
2133 0 85.2507 13.6187 1161 107.768 195.56 471.166
2134 0 88.2129 13.15 1160 110.068 195.959 467.694
2135 0 92.2608 13.6136 1256 108.708 195.443 468.209
2136 0 94.1045 13.7294 1292 109.462 195.789 465.173
2137 0 96.1121 13.8588 1332 109.475 196.26 462.7
2138 1 51.0698 11.2199 573 110.148 196.466 488.585
2139 0 52.0804 11.6359 606 109.297 196.429 485.338
2140 0 54.0596 12.6157 682 112.413 196.201 483.258
2141 0 54.1718 12.2388 663 109.385 196.54 484.691
2142 0 55.1239 12.0819 666 109.992 196.443 482.643
2143 0 60.0967 12.1138 728 106.935 196.312 484.413
2144 0 62.0857 12.7082 789 106.523 196.624 481.221
2145 0 65.0613 13.0953 852 105.903 197.001 480.107
2146 0 65.0734 11.802 768 110.503 196.283 478.297
2147 0 69.1714 12.9967 899 106.802 196.339 477.653
2148 0 74.064 13.9204 1031 104.458 196.436 475.752
2149 0 75.0428 13.2991 998 107.187 196.365 475.529
2150 0 77.1842 12.4248 959 109.171 195.786 474.765
2151 0 80.0351 12.1322 971 109.631 195.98 474.042
2152 0 83.1473 13.7948 1147 107.609 196.288 469.863
2153 0 85.1067 13.301 1132 109.835 196.179 469.224
2154 0 87.1301 13.0035 1133 111.061 195.417 468.86
2155 0 90.1084 12.7291 1147 112.327 195.507 468.862
2156 0 94.1293 13.1521 1238 112.532 195.987 465.206
2157 1 48.0467 11.9051 572 109.017 196.353 488.734
2158 0 50.1053 11.855 594 110.985 195.909 487.409
2159 0 54.0904 12.701 687 114.802 195.274 487.825
2160 0 55.1809 15.0414 830 107.276 195.475 485.994
2161 0 58.1169 13.0771 760 111.563 195.451 485.262
2162 0 57.0922 12.8038 731 114.409 196.319 484.866
2163 0 58.0613 14.2952 830 110.545 196.646 485.354
2164 0 63.1184 13.4668 850 110.18 196.713 484.132
2165 0 64.1464 13.1418 843 111.75 196.556 482.871
2166 0 64.1251 12.8967 827 113.421 196.121 480.859
2167 0 69.1432 13.7685 952 109.399 196.579 481.826
2168 0 70.1028 12.7955 897 112.938 196.14 480.36
2169 0 75.18 14.166 1065 108.004 196.3 479.861
2170 0 78.117 14.5423 1136 108.041 196.027 477.84
2171 0 80.2476 14.231 1142 108.8 196.461 477.432
2172 0 84.1131 13.9574 1174 108.922 196.141 474.689
2173 0 87.302 14.2494 1244 108.987 196.155 473.143
2174 0 89.4428 14.8587 1329 108.014 195.624 470.508
2175 1 46.1037 12.5803 580 113.483 196.702 491.928
2176 0 46.1129 11.4068 526 115.411 197.51 492.234
2177 0 49.0307 12.7471 625 112.363 197.162 490.152
2178 0 50.0727 12.6017 631 108.452 197.412 490.691
2179 0 51.0208 13.5043 689 107.959 197.128 488.57
2180 0 53.0871 13.3366 708 107.185 197.664 487.425
2181 0 53.0912 12.5821 668 110.165 196.945 484.111
2182 0 56.1327 13.0049 730 109.17 196.703 484.796
2183 0 59.1505 13.0684 773 107.92 196.864 487.298
2184 0 59.077 13.3047 786 111.083 196.869 484.379
2185 0 62.1399 13.7593 855 110.549 197.418 482.94
2186 0 66.1309 13.2767 878 110.582 197.174 483.782
2187 0 66.0754 13.0608 863 113.22 197.229 482.601
2188 0 68.114 12.9048 879 114.848 196.799 480.734
2189 0 70.0544 13.3325 934 116.021 197.028 477.698
2190 0 75.1124 13.1936 991 115.775 198.151 478.893
2191 0 75.0748 12.2411 919 120.476 197.979 477.566
2192 0 78.0911 12.844 1003 121.847 196.785 476.926
2193 0 82.1413 12.6124 1036 122.798 196.391 474.348
2194 0 85.2318 13.0468 1112 119.914 197.096 473.009
2195 0 86.1828 12.253 1056 122.27 196.793 472.909
2196 0 91.1204 12.7633 1163 120.647 196.278 471.032
2197 1 50.1695 12.1787 611 119.203 196.589 490.074
2198 0 51.0173 11.0943 566 116.716 196.906 491.346
2199 0 52.051 11.239 585 115.998 196.337 490.128
2200 0 54.0265 11.846 640 118.225 197.453 490.286
2201 0 55.1091 12.448 686 117.306 196.65 487.864
2202 0 57.1762 13.8344 791 112.646 196.546 486.004
2203 0 60.2529 13.7919 831 111.987 196.978 485.208
2204 0 62.1915 12.0435 749 116.677 197.13 484.585
2205 0 63.1734 11.9987 758 117.654 196.88 480.942
2206 0 66.1348 12.0965 800 116.692 197.659 483.104
2207 0 68.1459 12.8694 877 114.901 197.382 482.062
2208 0 70.1735 12.2411 859 116.329 197.426 479.786
2209 0 71.1112 11.9109 847 118.051 197.119 478.694
2210 0 73.214 12.6205 924 116.697 197.171 477.41
2211 0 77.2241 12.1983 942 118.583 197.219 477.194
2212 0 78.1972 12.379 968 123.051 196.819 475.105
2213 0 79.1518 10.6251 841 128.081 196.869 474.295
2214 0 84.2114 12.5992 1061 123.783 197.338 469.79
2215 1 42.2149 8.07772 341 123.32 196.633 492.238
2216 0 44.2376 9.69763 429 119.138 196.462 492.063
2217 0 45.1875 9.60442 434 120.265 196.786 490.615
2218 0 49.2019 10.9142 537 114.767 197.508 489.287
2219 0 49.2681 10.5139 518 114.429 196.66 489.299
2220 0 50.2819 11.0179 554 114.24 197.352 487.244
2221 0 55.2093 12.2262 675 109.489 197.784 486.139
2222 0 54.0669 12.54 678 118.317 195.311 487.941
2223 0 55.0465 12.5893 693 118.801 194.895 487.183
2224 0 57.1321 11.9022 680 120.553 194.771 485.679
2225 0 59.1452 11.9029 704 119.433 195.413 484.526
2226 0 62.1409 13.0188 809 116.036 195.739 483.998
2227 0 64.1553 13.2647 851 114.68 195.893 482.919
2228 0 67.0934 12.5199 840 114.631 195.352 483.215
2229 0 65.1689 12.3986 808 117.019 194.984 480.157
2230 0 70.19 12.11 850 116.415 195.218 479.431
2231 0 72.1106 13.3406 962 113.458 195.772 477.105
2232 0 75.1478 13.0277 979 114.532 195.346 476.657
2233 0 77.2069 11.8901 918 118.412 195.085 475.496
2234 0 80.1586 12.6624 1015 115.788 195.713 474.926
2235 0 82.1483 12.9157 1061 115.628 195.908 474.075
2236 0 85.1598 12.9404 1102 116.503 195.035 471.241
2237 0 88.1465 12.0708 1064 118.733 194.734 471.93
2238 0 90.271 11.5984 1047 120.961 194.466 470.647
2239 0 93.3357 12.7604 1191 118.1 194.893 467.222
2240 0 96.3605 12.8061 1234 118.626 194.462 466.205
2241 0 98.2674 13.0664 1284 118.692 194.714 464.433
2242 0 100.27 11.3993 1143 122.766 195.167 464.755
2243 1 53.0768 9.96669 529 123.711 194.454 487.499
2244 0 55.0614 11.4599 631 117.281 194.011 485.423
2245 0 55.0641 10.969 604 108.119 197.235 485.894
2246 0 57.1283 11.623 664 106.901 197.559 485.208
2247 0 55.0672 9.80621 540 115.25 196.161 487.052
2248 0 59.1098 10.9627 648 110.742 194.915 482.253
2249 0 61.0668 11.3155 691 109.582 194.993 481.669
2250 0 61.076 10.2004 623 113.368 194.788 480.372
2251 0 63.1388 9.55039 603 114.942 194.683 480.638
2252 0 69.085 11.3194 782 110.216 194.432 480.659
2253 0 70.1315 11.7066 821 110.262 194.922 478.98
2254 0 71.1334 11.1059 790 112.161 195.001 478.415
2255 0 73.1231 11.4601 838 112.266 194.613 476.956
2256 0 76.159 12.986 989 108.362 195.594 475.253
2257 0 80.1316 12.754 1022 108.012 194.552 475.69
2258 0 82.1175 12.3116 1011 108.86 193.929 475.223
2259 0 81.0853 11.6297 943 112.573 194.414 475.297
2260 0 83.1342 11.0544 919 112.348 194.541 480.16
2261 0 87.1397 12.1529 1059 110.342 194.44 477.784
2262 0 90.1784 12.0206 1084 110.976 194.9 475.259
2263 0 93.1936 11.9 1109 111.289 194.484 474.06
2264 0 96.1303 12.7639 1227 110.563 194.294 475.951
2265 0 99.1729 12.3623 1226 112.032 193.53 475.208
2266 0 101.221 12.774 1293 111.718 193.797 472.123
2267 0 105.249 12.1521 1279 111.478 193.21 475.851
2268 0 110.151 12.0743 1330 110.18 193.653 472.915
2269 0 112.145 10.9947 1233 112.903 193.186 473.118
2270 0 116.325 11.3131 1316 113.497 192.72 470.581
2271 0 123.175 12.5026 1540 111.557 194.499 465.726
2272 1 65.1091 11.5959 755 108.303 194.799 496.144
2273 0 68.1781 10.8246 738 105.252 194.718 492.222
2274 0 71.2168 12.834 914 106.281 193.7 490.768
2275 0 74.1632 12.0275 892 109.067 192.683 490.852
2276 0 78.0836 13.6905 1069 104.894 194.093 491.546
2277 0 81.0649 13.2857 1077 105.359 194.062 489.378
2278 0 84.108 13.8512 1165 105.015 192.726 487.264
2279 0 86.1157 12.2394 1054 109.808 192.454 484.272
2280 0 87.1276 13.1072 1142 107.489 191.806 482.247
2281 0 92.1982 13.7096 1264 105.85 190.975 479.603
2282 0 95.2205 14.0936 1342 104.665 191.358 479.578
2283 0 99.4239 13.3871 1331 105.381 191.505 478.529
2284 0 100.36 12.5448 1259 108.962 190.474 471.919
2285 0 105.335 13.4903 1421 105.626 190.046 469.884
2286 1 56.2026 11.9211 670 111.264 190.276 495.449
2287 0 57.1197 12.1324 693 110.584 191.488 496.4
2288 0 59.1038 12.6219 746 109.094 191.488 497.059
2289 0 60.1495 12.4191 747 110.557 190.59 496.282
2290 0 62.2457 13.2057 822 108.867 191.002 495.917
2291 0 62.1757 12.4647 775 111.219 191.408 497.471
2292 0 65.2835 12.2389 799 113.776 191.083 497.661
2293 0 68.202 13.1668 898 111.286 191.154 495.817
2294 0 70.1935 12.2803 862 114.225 191.089 495.384
2295 0 73.3244 13.2016 968 112.092 191.174 495
2296 0 76.2509 13.3507 1018 111.593 191.298 493.622
2297 0 77.2918 12.2135 944 116.234 191.193 492.093
2298 0 79.3622 13.4951 1071 113.18 190.658 490.652
2299 0 82.4563 12.2004 1006 116.398 189.958 489.348
2300 0 86.3028 13.1861 1138 112.13 189.421 485.796
2301 0 91.4736 13.2607 1213 109.422 190.111 485.51
2302 0 91.4439 12.401 1134 112.698 189.826 486.463
2303 1 51.1061 11.5055 588 111.378 190.917 505.367
2304 0 54.0488 12.8032 692 103.043 191.225 504.215
2305 0 53.0758 11.7756 625 100.034 191.426 502.466
2306 0 54.0528 11.0078 595 98.2151 190.899 502.008
2307 0 56.1392 9.9752 560 101.746 189.927 497.689
2308 0 57.1174 11.0124 629 100.566 190.267 496.943
2309 0 59.1778 10.7811 638 100.82 190.552 494.835
2310 0 61.1628 11.4449 700 100.2 189.657 495.821
2311 0 63.0652 13.383 844 106.097 188.682 497.69
2312 0 66.1226 12.7037 840 107.915 189.065 498.657
2313 0 66.0666 13.7134 906 106.624 188.487 497.486
2314 0 68.0387 12.9632 882 108.255 188.898 496.636
2315 0 70.0578 13.1035 918 107.184 189.183 495.905
2316 0 73.0707 13.5075 987 106.804 189.055 493.54
2317 0 74.066 11.6383 862 111.754 188.35 493.123
2318 0 78.1713 13.8414 1082 106.649 188.62 490.537
2319 0 81.0958 12.9107 1047 109.074 188.682 489.854
2320 0 83.0911 12.8052 1064 110.019 188.698 487.166
2321 0 86.143 12.8507 1107 109.671 188.52 485.896
2322 0 91.294 14.5464 1328 103.794 189.398 485.363
2323 0 92.3217 13.6804 1263 107.048 190.051 481.922
2324 0 96.3445 15.0294 1448 104.512 190.637 479.4
2325 0 98.1474 14.5495 1428 108.681 189.746 479.265
2326 1 48.1575 11.317 545 114.483 189.112 501.749
2327 0 53.0842 13.2243 702 111.117 188.634 501.138
2328 0 53.0926 13.8061 733 107.417 188.618 501.261
2329 0 54.0808 12.093 654 112.697 188.933 499.135
2330 0 54.1374 13.1702 713 110.913 188.725 498.136
2331 0 58.0903 12.4289 722 111.981 189.079 498.607
2332 0 57.0745 11.6865 667 114.645 189.7 499.535
2333 0 60.111 11.7949 709 111.867 189.447 499.066
2334 0 59.0608 11.5305 681 114.395 189.552 497.764
2335 0 62.1505 11.5043 715 114.796 189.112 496.607
2336 0 64.19 12.4942 802 112.709 189.35 494.667
2337 0 64.2636 11.5929 745 116.87 189.393 490.864
2338 0 69.1547 12.5805 870 113.007 189.537 491.375
2339 0 71.3 11.122 793 117.366 189.276 489.922
2340 0 74.2478 12.6873 942 114.274 189.316 486.865
2341 0 78.2602 13.1996 1033 113.712 189.622 484.943
2342 0 79.2151 12.2325 969 116.653 189.39 484.658
2343 0 83.1755 12.672 1054 115.855 189.706 481.565
2344 0 86.3263 12.8466 1109 116.583 190.192 480.235
2345 1 46.212 11.0361 510 117.72 190.529 500.129
2346 0 47.0909 12.8475 605 107.982 190.436 494.967
2347 0 47.2337 10.1622 480 110.412 190.719 490.9
2348 0 48.1429 9.72106 468 105.603 191.782 491.814
2349 0 50.0438 12.0694 604 101.952 191.454 491.899
2350 0 50.0854 11.7599 589 103.542 191.677 491.326
2351 0 51.0882 9.66956 494 108.866 192.63 489.86
2352 0 51.1744 10.5717 541 108.229 192.357 488.283
2353 0 52.1216 10.111 527 110.474 191.879 486.505
2354 0 55.2525 10.2077 564 109.924 193.156 490.851
2355 0 57.1508 12.0383 688 105.884 192.996 486.044
2356 0 57.2252 11.2188 642 109.156 192.994 487.377
2357 0 58.1978 10.2753 598 111.627 192.38 484.824
2358 0 60.1631 10.9203 657 110.927 192.653 479.441
2359 0 64.2284 11.6771 750 107.919 193.231 482.643
2360 0 65.2198 12.1742 794 107.931 193.263 480.53
2361 0 68.1235 12.1691 829 108.283 192.291 478.421
2362 0 69.317 12.5366 869 108.626 192.368 475.479
2363 0 73.1588 11.8509 867 108.903 192.068 476.623
2364 0 78.2982 12.5163 980 108.112 193.078 473.462
2365 0 75.2011 11.0637 832 115.297 193.188 469.939
2366 0 83.2115 13.2794 1105 110.298 192.775 472.527
2367 0 86.1584 13.2198 1139 116.895 192.464 471.843
2368 1 46.122 10.6023 489 119.556 192.38 492.356
2369 0 47.0285 9.63246 453 122.223 192.57 491.757
2370 0 49.1983 10.6711 525 117.192 193.032 490.455
2371 0 48.1155 9.95521 479 105.522 194.595 492.138
2372 0 49.0906 10.3686 509 107.277 193.792 490.399
2373 0 52.2202 11.643 608 105.035 193.757 488.197
2374 0 54.1361 12.3577 669 104.064 193.749 485.632
2375 0 55.135 11.4991 634 107.036 194.104 485.719
2376 0 57.257 11.9636 685 105.42 193.489 486.22
2377 0 60.1171 13.1244 789 102.616 192.895 480.989
2378 0 61.0888 12.2117 746 105.808 193.854 480.696
2379 0 63.2871 13.5573 858 103.451 193.506 480.439
2380 0 63.1363 11.7682 743 109.707 193.353 480.271
2381 0 68.2383 12.9693 885 105.948 193.374 480.593
2382 0 69.2615 11.3483 786 110.455 193.411 480.649
2383 0 72.1587 12.7358 919 108.598 193.814 479.177
2384 0 75.161 12.4533 936 109.298 194.079 479.442
2385 0 78.1757 12.3056 962 111.422 193.838 477.873
2386 0 80.2202 12.0294 965 111.562 193.837 479.264
2387 1 43.16 10.6117 458 108.753 194.459 496.264
2388 0 43.1574 11.377 491 110.556 194.458 494.253
2389 0 46.2537 11.6964 541 109.196 194.189 493.285
2390 0 46.1783 12.7766 590 107.492 194.169 493.341
2391 0 49.0687 12.3297 605 109.587 194.845 491.177
2392 0 52.1362 12.64 659 112.971 194.683 490.44
2393 0 52.1578 11.3885 594 118.242 193.997 488.929
2394 0 54.2072 12.9503 702 112.932 194.177 488.692
2395 0 56.0817 11.8577 665 116.379 194.916 489.144
2396 0 57.0652 13.3356 761 114.309 194.553 485.531
2397 0 60.1086 12.2611 737 115.431 194.805 487.387
2398 0 59.0574 11.9375 705 119.18 194.912 484.145
2399 0 62.0885 12.1923 757 116.476 194.333 485.081
2400 0 65.1485 12.034 784 115.995 194.776 484.425
2401 0 69.0528 13.6128 940 112.161 194.238 482.317
2402 0 70.044 12.6064 883 115.487 194.283 480.003
2403 0 75.1675 12.9311 972 113.608 194.275 480.652
2404 0 76.086 13.2087 1005 114.577 194.23 476.504
2405 0 79.085 13.8964 1099 112.545 193.387 477.025
2406 0 81.2364 13.4792 1095 107.892 193.406 476.901
2407 0 84.2292 13.3802 1127 109.067 194.235 476.311
2408 0 87.1764 12.5263 1092 111.933 193.824 474.264
2409 0 91.1849 13.0943 1194 111.255 193.405 473.137
2410 1 46.0973 10.608 489 111.241 193.869 494.106
2411 0 49.0381 12.7044 623 107.616 193.908 491.265
2412 0 50.2318 13.3979 673 112.171 193.802 490.324
2413 0 50.1166 11.8125 592 110.968 194.34 491
2414 0 53.1508 11.9471 635 110.027 194.543 490.109
2415 0 53.095 11.5265 612 111.168 194.503 488.43
2416 0 57.1231 12.2192 698 109.805 194.262 487.819
2417 0 57.1153 12.5536 717 109.943 194.116 484.279
2418 0 60.1352 13.3034 800 108.349 194.005 485.506
2419 0 63.1128 11.9944 757 110.421 194.193 486.33
2420 0 64.0462 12.7564 817 109.535 194.129 484.082
2421 0 68.1414 14.646 998 104.611 193.778 480.69
2422 0 69.14 12.1203 838 111.054 194.439 479.938
2423 0 72.0977 13.0379 940 108.678 194.755 477.105
2424 0 72.1163 11.9668 863 113.257 194.187 477.384
2425 0 76.1395 12.8842 981 110.197 194.276 477.686
2426 0 79.1546 12.1913 965 111.075 195.054 474.158
2427 0 82.166 12.8642 1057 109.568 194.89 475.029
2428 0 85.2119 12.733 1085 110.415 195.02 474.007
2429 0 88.0911 13.4293 1183 109.963 195.397 473.87
2430 0 90.0908 12.8093 1154 113.522 195.099 471.183
2431 0 94.156 13.69 1289 111.565 194.961 469.327
2432 0 95.2304 13.2206 1259 113.853 195.177 467.867
2433 1 50.1551 11.8233 593 116.481 195.548 490.808
2434 0 50.2393 11.6841 587 119.325 195.048 490.828
2435 0 53.1821 11.564 615 112.769 194.19 486.237
2436 0 54.1687 11.4826 622 116.077 194.849 489.016
2437 0 54.0674 11.6151 628 118.024 194.608 487.756
2438 0 57.1941 12.0642 690 116.419 194.635 487.942
2439 0 59.1355 12.1078 716 114.772 194.726 488.381
2440 0 61.1452 11.7425 718 118.372 194.262 486.401
2441 0 62.1232 11.2518 699 120.844 194.601 487.03
2442 0 64.1113 11.1993 718 122.021 195.163 485.748
2443 0 65.2294 11.2526 734 122.801 194.514 484.249
2444 0 70.1068 12.1101 849 121.701 194.105 481.368
2445 0 71.0757 12.6907 902 122.742 194.033 478.013
2446 0 75.1458 12.336 927 122.326 193.813 477.542
2447 0 76.1887 12.5609 957 122.594 193.317 476.294
2448 0 80.269 12.2214 981 124.01 193.942 473.138
2449 0 82.1328 11.7858 968 125.817 194.568 471.6
2450 0 87.1786 12.4801 1088 122.396 194.369 474.092
2451 0 89.2208 12.7325 1136 123.363 193.964 470.241
2452 0 91.1694 11.2977 1030 126.816 193.861 471.569
2453 0 94.397 12.4368 1174 124.758 193.957 469.4
2454 0 98.2859 13.1453 1292 124.082 193.877 464.519
2455 1 51.1212 10.837 554 121.969 194.173 489.783
2456 0 51.0631 10.4968 536 122.336 193.987 486.849
2457 0 55.1024 13.1392 724 125.025 193.006 488.084
2458 0 54.0485 11.3232 612 121.157 195.459 488.783
2459 0 57.1124 12.9044 737 116.856 195.688 487.381
2460 0 59.0885 12.7944 756 118.474 194.649 485.524
2461 0 59.0885 12.8282 758 137.6 193.648 485.475
2462 0 62.2103 12.7632 794 118.928 195.131 481.264
2463 0 64.2568 12.6835 815 119.353 195.167 479.814
2464 0 67.199 13.1103 881 117.699 194.498 479.538
2465 0 66.1458 11.7014 774 122.621 194.841 478.982
2466 0 71.096 12.898 917 119.661 194.563 477.64
2467 0 72.1802 12.5519 906 120.988 194.343 477.435
2468 0 73.1436 12.701 929 121.366 194.335 476.588
2469 0 77.1633 13.6075 1050 118.18 195.05 475.397
2470 0 79.1741 13.2872 1052 119.511 195.161 473.78
2471 0 80.192 12.3952 994 120.558 195.644 473.981
2472 0 83.1379 13.0025 1081 118.259 195.054 471.05
2473 0 86.189 13.6212 1174 116.071 195.224 471.054
2474 0 90.2792 13.0927 1182 115.295 194.606 467.382
2475 0 91.2425 12.8668 1174 116.749 194.738 462.521
2476 0 93.1453 13.5165 1259 114.439 194.364 461.133
2477 0 98.192 13.8199 1357 112.942 194.798 458.215
2478 0 99.1136 13.0255 1291 116.929 194.88 460.249
2479 1 56.1603 11.5562 649 113.009 195.051 484.573
2480 0 61.2911 12.8077 785 125.652 194.654 484.126
2481 0 62.0682 13.6624 848 122.436 193.455 483.344
2482 0 64.1797 13.5401 869 118.901 193.829 479.114
2483 0 65.161 12.5228 816 121.631 193.738 479.317
2484 0 69.2556 13.8761 961 116.376 194.194 478.407
2485 0 70.1833 13.764 966 118.149 193.853 476.783
2486 0 71.083 12.394 881 116.921 195.709 477.891
2487 0 75.1202 13.8844 1043 112.89 195.354 477.103
2488 0 78.1585 12.9225 1010 115.693 195.098 476.912
2489 0 80.1374 12.8529 1030 115.694 194.846 474.887
2490 0 85.0958 14.3133 1218 111.325 194.44 474.53
2491 0 87.1046 14.2702 1243 112.469 195.466 471.415
2492 0 89.15 12.7986 1141 116.734 195.269 471.5
2493 0 93.0894 13.5783 1264 114.921 194.936 469.936
2494 0 95.1067 13.017 1238 115.716 194.914 466.871
2495 1 52.051 12.8336 668 116.21 194.581 488.172
2496 0 54.1927 13.2859 720 114.688 193.403 483.888
2497 0 56.1535 13.0179 731 117.934 193.311 484.687
2498 0 58.1739 14.1988 826 115.625 193.605 481.585
2499 0 60.1899 12.9091 777 118.636 193.759 483.086
2500 0 61.1205 11.9927 733 122.116 193.999 480.701
2501 0 62.1733 13.4624 837 118.987 193.602 480.243
2502 0 65.1005 13.6404 888 117.773 194.048 480.348
2503 0 66.0977 12.9505 856 122.575 194.332 479.241
2504 0 68.1069 12.8181 873 122.761 193.462 479.383
2505 0 70.1388 12.7034 891 124.947 193.758 476.241
2506 0 73.1262 13.3331 975 123.854 193.518 474.255
2507 0 74.0832 13.1879 977 125.296 193.874 473.973
2508 0 77.1242 13.1217 1012 125.424 193.185 472.964
2509 0 79.0751 12.8106 1013 126.698 193.47 471.573
2510 0 83.0337 12.7779 1061 126.428 193.508 470.345
2511 0 88.1014 13.5185 1191 124.252 194.195 470.071
2512 0 89.0633 13.6083 1212 126.183 193.538 467.212
2513 1 46.068 11.852 546 123.595 193.421 489.165
2514 0 48.0264 11.6602 560 123.446 193.761 489.564
2515 0 48.0169 11.975 575 123.534 193.649 489.837
2516 0 50.1202 10.9736 550 106.329 195.893 484.082
2517 0 50.1408 10.4506 524 110.284 195.158 484.153
2518 0 53.0983 11.7706 625 105.538 195.835 482.726
2519 0 53.102 11.4497 608 108.429 195.742 480.354
2520 0 55.1508 11.2782 622 109.696 195.828 479.407
2521 0 56.1806 10.9112 613 111.237 195.011 478.502
2522 0 59.0977 11.9971 709 108.621 196.248 477.678
2523 0 57.1963 10.5601 604 115.22 195.276 475.805
2524 0 61.1486 11.3821 696 111.99 196.138 476.487
2525 0 63.1714 11.3184 715 112.278 196.259 475.968
2526 0 65.0824 12.1692 792 111.903 195.927 474.745
2527 0 66.0939 11.2416 743 114.588 195.125 475.104
2528 0 70.0468 12.2632 859 112.354 194.912 474.419
2529 0 72.1633 12.2223 882 112.782 195.154 471.34
2530 0 73.0382 12.5551 917 113.155 194.949 470.53
2531 0 76.0942 11.9851 912 114.629 194.724 470.082
2532 0 79.0833 11.5069 910 117.259 195.011 466.487
2533 0 82.0634 12.271 1007 115.287 194.873 465.469
2534 0 84.1496 11.7529 989 117.694 195.592 464.462
2535 0 87.1283 12.0397 1049 126.295 194.799 468.823
2536 0 90.1113 13.106 1181 123.382 194.479 468.914
2537 0 93.0645 12.3785 1152 124.785 194.751 467.48
2538 1 54.055 11.4328 618 122.523 193.35 485.568
2539 0 55.0996 12.2687 676 123.786 194.209 482.714
2540 0 57.1737 11.4913 657 118.875 194.181 482.595
2541 0 59.0588 11.9373 705 123.645 194.353 480.684
2542 0 60.0724 12.385 744 121.37 194.53 481.648
2543 0 63.0575 12.1318 765 122.48 194.92 481.115
2544 0 65.0611 13.7102 892 117.674 194.768 479.175
2545 0 66.1535 13.0908 866 120.798 194.98 475.613
2546 0 70.1404 13.9149 976 117.43 195.29 476.869
2547 0 72.1489 13.6523 985 118.381 195.032 476.396
2548 0 73.1488 12.6728 927 121.711 195.28 475.567
2549 0 77.1237 14.4703 1116 116.95 194.474 472.519
2550 0 81.1018 14.4756 1174 116.299 194.365 471.352
2551 0 81.2225 12.989 1055 121.172 195.18 468.103
2552 0 83.0965 13.2737 1103 117.09 195.897 469.176
2553 0 86.1684 12.5104 1078 119.327 194.896 465.776
2554 0 89.2479 14.3309 1279 113.787 195.684 466.496
2555 0 91.1998 13.5198 1233 116.526 195.905 460.839
2556 0 92.1546 12.2837 1132 119.763 195.273 461.348
2557 1 50.1001 10.6986 536 117.463 193.851 483.194
2558 0 51.0182 10.8589 554 114.906 194.316 481.289
2559 0 53.1526 11.721 623 109.687 195.937 476.612
2560 0 54.201 9.44632 512 104.061 196.666 480.26
2561 0 57.0469 12.3057 702 98.037 196.406 479.809
2562 0 58.0306 11.1493 647 101.36 195.495 478.569
2563 0 61.1239 10.8795 665 102.149 195.635 477.762
2564 0 60.1308 11.2255 675 103.101 194.981 477.723
2565 0 64.0621 11.6918 749 101.845 195.143 476.976
2566 0 65.2041 10.5822 690 102.69 197 476.255
2567 0 67.1946 11.8015 793 101.154 197.217 473.523
2568 0 67.0981 10.1642 682 105.875 196.204 475.097
2569 0 70.1672 11.9144 836 103.121 196.047 472.708
2570 0 73.2092 11.6925 856 103.787 196.512 469.439
2571 0 74.0967 11.6604 864 104.598 196.552 470.649
2572 0 77.1259 12.0323 928 105.199 196.658 468.784
2573 0 80.1208 11.9819 960 105.44 196.565 469.324
2574 0 82.2464 12.5963 1036 104.909 196.734 466.934
2575 0 86.1436 12.7462 1098 105.285 195.926 464.678
2576 0 84.1449 10.8622 914 109.27 196.859 464.06
2577 0 88.1963 11.8146 1042 107.572 196.023 462.649
2578 0 91.226 10.8193 987 110 196.162 464.242
2579 0 93.2836 11.9742 1117 107.28 195.596 462.449
2580 0 96.3274 11.409 1099 109.136 195.994 459.602
2581 0 97.2439 11.6203 1130 110.196 196.324 459.573
2582 0 102.21 10.7426 1098 111.837 196.182 460.76
2583 0 105.345 11.4481 1206 112.668 196.317 458.295
2584 0 110.224 12.7467 1405 110.003 196.31 457.001
2585 0 113.255 11.2931 1279 113.178 196.33 453.4
2586 0 117.1 12.1007 1417 114.978 194.241 450.761
2587 1 62.284 11.9132 742 111.978 196.085 479.288
2588 0 64.1059 11.715 751 108.798 197.145 480.013
2589 0 66.0816 12.6662 837 107.534 195.833 476.814
2590 0 70.1759 12.0269 844 108.043 196.622 473.929
2591 0 72.2734 12.5357 906 107.408 196.862 473.054
2592 0 75.1746 12.8102 963 107.02 196.16 472.523
2593 0 78.1572 13.1146 1025 106.757 196.749 471.074
2594 0 82.1838 14.6623 1205 102.949 196.491 471.517
2595 0 83.2535 13.8493 1153 106.386 196.659 469.01
2596 0 86.2191 13.0597 1126 108.823 197.197 469.534
2597 0 89.3688 13.0694 1168 110.092 197.503 469.142
2598 0 90.2669 12.6403 1141 114.491 196.429 464.559
2599 0 93.1894 13.038 1215 112.539 197.289 465.517
2600 0 98.1727 13.3948 1315 111.327 196.964 463.642
2601 0 98.3405 12.2635 1206 118.473 196.666 460.818
2602 1 53.1513 12.0787 642 109.553 197.687 483.623
2603 0 55.1201 12.2097 673 110.349 197.954 484.792
2604 0 56.0346 11.9212 668 111.56 196.969 483.741
2605 0 56.138 11.3114 635 107.331 196.885 481.244
2606 0 57.0681 9.54999 545 112.664 197.128 479.767
2607 0 57.2024 9.96462 570 109.989 197.296 478.1
2608 0 59.0438 10.5007 620 110.153 195.587 478.39
2609 0 62.0679 11.3907 707 107.857 195.952 477.912
2610 0 64.16 12.3286 791 106.855 195.814 475.306
2611 0 64.0638 10.8173 693 110.287 195.313 474.723
2612 0 68.0773 11.4282 778 109.436 195.084 472.657
2613 0 69.1871 12.1843 843 108.623 194.892 471.955
2614 0 71.0521 12.0334 855 109.464 195.444 471.642
2615 0 74.2736 10.9191 811 111.443 196.552 470.704
2616 0 73.0839 11.0421 807 113.908 195.926 466.389
2617 0 79.1838 12.5404 993 108.655 195.571 468.657
2618 0 84.1499 13.4641 1133 106.233 195.891 466.763
2619 0 83.2258 12.2919 1023 111.697 195.904 465.458
2620 0 84.1299 12.445 1047 112.093 195.287 463.047
2621 0 89.0697 13.4501 1198 109.247 195.048 463.737
2622 0 94.2016 13.9382 1313 108.341 194.983 461.695
2623 1 49.2313 10.9483 539 111.026 194.981 484.002
2624 0 51.1605 12.3337 631 110.06 195.049 483.525
2625 0 52.0504 11.9692 623 112.705 194.376 482.838
2626 0 55.135 11.6804 644 113.589 193.755 481.637
2627 0 56.2211 11.6682 656 114.005 194.383 481.825
2628 0 55.0477 12.9706 714 113.088 194.231 479.994
2629 0 58.0443 12.6111 732 113.568 193.474 480.316
2630 0 59.0975 11.9125 704 115.278 193.315 478.119
2631 0 61.1612 11.4125 698 116.984 193.761 479.1
2632 0 64.0656 12.1594 779 115.22 193.406 477.434
2633 0 68.1198 12.801 872 113.788 193.442 475.529
2634 0 68.1032 12.9509 882 115.069 193.304 474.776
2635 0 71.1084 12.6286 898 115.664 193.024 475.759
2636 0 75.1687 12.758 959 115.372 193.567 474.073
2637 0 74.2213 12.3684 918 117.666 193.589 472.947
2638 0 78.2568 12.4206 972 117.378 193.212 471.493
2639 0 81.2963 12.5713 1022 117.137 192.949 471.059
2640 0 81.3478 11.8995 968 120.046 193.025 467.971
2641 0 84.2394 12.1321 1022 118.436 193.187 466.914
2642 1 43.0927 10.2338 441 111.036 193.742 488.15
2643 0 44.1017 10.7479 474 114.532 193.295 485.755
2644 0 48.1903 9.77375 471 107.454 194.934 490.367
2645 0 50.2077 10.7155 538 104.532 194.234 490.158
2646 0 48.1724 10.3586 499 107.178 194.593 488.086
2647 0 53.2218 10.7663 573 104.567 194.805 487.766
2648 0 53.1646 12.3579 657 107.615 194.56 487.454
2649 0 57.0548 11.1647 637 108.656 194.639 486.188
2650 0 57.0679 12.6516 722 105.975 195.475 488.278
2651 0 58.0893 10.7421 624 110.787 195.155 487.226
2652 0 61.1218 11.7798 720 108.833 194.278 484.589
2653 0 62.1196 10.9627 681 109.927 194.471 485.759
2654 0 65.1184 12.8074 834 106.459 194.355 484.904
2655 0 65.0721 10.9571 713 112.725 194.352 482.921
2656 0 69.0757 10.8576 750 113.077 194.533 482.121
2657 0 69.2278 10.9638 759 113.744 194.029 482.515
2658 0 74.156 12.8917 956 109.998 193.981 479.514
2659 0 75.1333 11.3132 850 113.624 193.819 479.959
2660 0 79.1912 12.9939 1029 109.819 193.809 476.434
2661 0 82.209 12.4074 1020 111.238 194.293 475.828
2662 0 87.3258 12.6309 1103 110.178 194.241 475.322
2663 0 87.118 11.2721 982 115.631 193.87 474.649
2664 0 91.1358 12.2564 1117 113.697 194.428 472.382
2665 1 52.2212 12.5428 655 115.105 194.647 491.934
2666 0 52.2912 11.7228 613 120.175 194.321 487.613
2667 0 54.1435 11.6357 630 104.46 193.822 486.162
2668 0 54.0583 11.8576 641 105.632 193.189 485.811
2669 0 56.0941 12.176 683 103.99 193.757 485.906
2670 0 58.0996 12.186 708 104.972 194.151 483.956
2671 0 60.1497 11.7041 704 106.996 193.986 483.507
2672 0 62.0814 11.9198 740 106.454 193.926 484.027
2673 0 62.1635 11.4054 709 109.573 193.491 483.011
2674 0 68.0695 11.8849 809 107.773 193.538 481.276
2675 0 69.091 12.4763 862 107.173 193.727 478.515
2676 0 73.0518 12.8402 938 104.85 193.909 478.916
2677 0 76.0905 12.9714 987 105.264 193.871 478.131
2678 0 77.0716 12.8322 989 107.356 193.812 474.862
2679 0 80.0723 11.7144 938 110.05 193.865 474.41
2680 0 83.0839 12.2767 1020 109.334 193.904 473.68
2681 0 86.1107 13.0181 1121 108.025 193.482 472.415
2682 1 46.0571 12.1154 558 104.088 194.76 492.882
2683 0 46.2265 11.8979 550 107.084 193.205 491.245
2684 0 47.0335 11.3111 532 108.639 193.434 489.917
2685 0 48.064 10.8813 523 110.738 194.57 489.987
2686 0 49.1637 10.5769 520 111.55 194.36 490.946
2687 0 49.1925 10.3471 509 114.151 193.904 487.42
2688 0 53.192 13.0095 692 106.816 194.309 487.691
2689 0 56.1722 12.5685 706 107.205 194.474 486.919
2690 0 56.0753 12.1979 684 110.36 194.88 484.908
2691 0 59.1977 12.5681 744 109.059 193.957 484.206
2692 0 61.1601 11.9359 730 110.16 194.577 484.908
2693 0 59.21 12.0588 714 112.496 194.845 483.321
2694 0 64.1213 12.6947 814 109.688 194.318 482.471
2695 0 66.1777 12.5722 832 110.071 193.689 482.255
2696 0 69.1686 12.9538 896 109.478 194.46 480.525
2697 0 70.1126 13.5068 947 109.102 194.418 478.434
2698 0 72.1094 12.1759 878 113.312 194.327 479.073
2699 0 74.2059 13.1526 976 97.8299 194.401 476.91
2700 0 75.182 12.6759 953 113.999 193.948 476.352
2701 0 78.2206 13.2957 1040 112.361 194.34 475.855
2702 0 81.2484 12.9849 1055 113.953 193.964 473.562
2703 0 81.0865 12.6285 1024 115.938 194.289 473.025
2704 0 85.2193 11.9691 1020 117.555 194.415 473.538
2705 0 86.0654 12.4092 1068 116.905 194.132 470.593
2706 0 91.1024 13.8196 1259 113.512 193.94 469.637
2707 0 92.1666 12.3581 1139 118.445 194.399 468.349
2708 0 96.1565 13.01 1251 116.674 194.05 466.794
2709 0 98.1976 11.9148 1170 121.286 194.101 466.95
2710 0 101.156 12.367 1251 120.102 193.963 464.894
2711 1 56.1121 10.6929 600 115.282 195.51 488.473
2712 0 55.215 11.2469 621 114.863 194.665 488.386
2713 0 57.2464 11.3195 648 114.92 194.769 486.282
2714 0 59.1641 11.9836 709 111.762 195.072 484.914
2715 0 58.0659 12.1069 703 114.111 194.176 482.341
2716 0 62.0313 11.7038 726 114.063 193.956 482.434
2717 0 62.0456 11.0403 685 117.603 194.696 478.244
2718 0 65.0649 11.0966 722 116.73 194.916 478.305
2719 0 67.033 11.2631 755 115.642 194.641 478.192
2720 0 72.0969 12.4555 898 111.045 194.716 478.535
2721 0 73.1063 11.025 806 115.53 194.706 476.566
2722 0 77.0241 12.0352 927 113.188 193.847 474.857
2723 0 80.1168 12.4818 1000 111.807 194.428 472.814
2724 0 83.2296 14.2618 1187 114.949 194 473.896
2725 0 85.1358 13.3316 1135 117.888 193.694 474.289
2726 0 89.0885 12.7963 1140 118.023 194.427 471.111
2727 0 90.1089 12.4849 1125 119.573 194.453 467.13
2728 0 95.1236 11.7847 1121 120.516 194.091 468.559
2729 0 97.1576 12.3819 1203 118.616 194.114 468.351
2730 0 102.161 12.4412 1271 119.418 194.393 463.552
2731 0 104.152 11.9633 1246 116.102 194.956 457.269
2732 0 106.123 11.7788 1250 117.98 194.065 455.721
2733 1 56.0742 8.97026 503 116.716 194.171 476.143
2734 0 60.0473 12.0405 723 108.238 194.797 478.657
2735 0 61.0566 10.3019 629 112.017 193.652 478.998
2736 0 65.153 11.2197 731 109.514 194.086 479.338
2737 0 64.0788 10.5339 675 113.375 193.753 475.397
2738 0 68.0941 11.5575 787 109.717 194.118 477.762
2739 0 69.1387 10.4283 721 113.344 194.047 477.415
2740 0 72.0532 11.2695 812 111.793 194.055 475.058
2741 0 76.2612 12.6932 968 106.73 195.319 473.729
2742 0 76.3148 11.3477 866 110.585 195.21 472.212
2743 0 82.1978 11.2047 921 110.086 195.113 471.752
2744 0 83.2848 11.2986 941 110.526 195.035 469.75
2745 0 85.3162 11.0999 947 112.121 195.174 467.109
2746 0 88.28 12.0186 1061 110.041 195.493 465.518
2747 0 92.3507 11.2723 1041 112.348 195.205 463.563
2748 0 93.2899 10.7943 1007 113.809 195.439 461.274
2749 1 50.0589 9.06932 454 113.991 194.731 483.936
2750 0 51.0706 9.90786 506 110.812 194.688 482.899
2751 0 55.1434 10.3548 571 105.725 195.522 484.338
2752 0 56.088 11.0362 619 104.677 196.898 484.486
2753 0 58.0302 11.2011 650 103.806 196.963 480.972
2754 0 57.1049 9.75398 557 108.048 196.452 480.079
2755 0 59.1802 11.8114 699 103.259 195.516 481.014
2756 0 62.1615 10.9232 679 104.579 195.501 479.038
2757 0 65.1132 11.7641 766 102.189 195.416 479.046
2758 0 66.157 12.032 796 100.56 195.361 477.891
2759 0 66.0895 11.3482 750 102.956 195.368 476.492
2760 0 68.1043 10.9978 749 103.591 195.826 477.465
2761 0 74.1533 11.4223 847 100.754 195.483 479.042
2762 0 74.1106 11.8337 877 100.949 196.242 476.771
2763 0 75.084 11.6137 872 101.867 195.833 475.136
2764 0 79.1701 11.9616 947 100.763 195.459 475.074
2765 0 81.1349 11.8198 959 101.898 195.179 470.463
2766 0 83.1425 12.1358 1009 101.752 194.885 470.296
2767 0 86.146 13.6745 1178 99.3727 195.324 469.056
2768 0 89.1645 13.5592 1209 99.3292 195.963 469.274
2769 0 90.1078 11.8192 1065 104.148 196.318 468.979
2770 0 95.0681 12.5173 1190 103.203 195.608 466.759
2771 0 97.1579 13.0406 1267 102 195.748 465.782
2772 0 100.173 13.0574 1308 102.664 196.164 462.656
2773 0 103.122 12.0537 1243 105.499 195.497 463.95
2774 0 110.2 13.1941 1454 101.939 195.101 461.37
2775 0 111.213 12.3906 1378 105.356 195.048 458.829
2776 1 59.1648 11.3074 669 109.018 195.907 486.096
2777 0 63.0903 12.3474 779 105.38 195.488 485.999
2778 0 62.068 11.9707 743 112.036 196.144 485.306
2779 0 65.1154 13.9445 908 106.727 195.315 483.802
2780 0 66.1785 12.6929 840 109.815 195.89 483.071
2781 0 69.0883 13.186 911 107.703 195.854 482.481
2782 0 73.0839 14.1344 1033 104.533 195.229 479.967
2783 0 76.1159 13.0985 997 105.507 195.567 480.364
2784 0 80.1477 16.5819 1329 96.9827 195.293 478.505
2785 0 80.0977 13.2588 1062 106.199 194.992 475.601
2786 0 83.2282 13.8415 1152 104.015 195.001 475.527
2787 0 85.1335 13.8723 1181 103.046 195.033 475.473
2788 0 89.1432 14.314 1276 101.899 195.23 472.067
2789 0 90.1613 12.9213 1165 105.006 195.877 470.403
2790 0 94.1202 13.2278 1245 104.09 196.092 468.247
2791 0 96.1758 13.257 1275 103.587 195.827 465.627
2792 0 102.227 13.4602 1376 102.109 195.888 463.634
2793 0 103.19 12.6854 1309 104.17 194.961 463.428
2794 1 56.0082 11.7304 657 106.018 195.403 487.458
2795 0 60.0654 12.9525 778 102.271 195.783 486.467
2796 0 62.081 12.8703 799 100.876 195.444 486.588
2797 0 64.0969 13.776 883 98.1472 195.307 483.824
2798 0 65.041 13.3916 871 99.7222 195.989 482.166
2799 0 65.153 13.169 858 99.9837 195.307 483.189
2800 0 69.0882 14.0111 968 97.5754 195.353 480.018
2801 0 70.177 13.8222 970 99.0278 195.686 479.555
2802 0 73.0555 13.1544 961 100.121 195.576 479.016
2803 0 76.0988 13.7321 1045 99.1043 195.372 478.51
2804 0 78.1645 14.8277 1159 95.9422 194.297 476.046
2805 0 79.1241 13.3335 1055 100.246 193.758 474.092
2806 0 85.2169 15.0792 1285 95.4226 194.003 472.651
2807 0 85.2715 13.2518 1130 100.203 194.298 471.488
2808 0 88.0851 13.7481 1211 101.087 194.205 470.963
2809 0 91.1537 13.8667 1264 101.616 194.459 469.435
2810 0 92.1856 14.601 1346 102.793 194.738 468.908
2811 0 96.3194 13.829 1332 103.73 194.327 468.781
2812 0 98.2035 14.2154 1396 101.989 195.003 464.974
2813 0 102.186 15.8242 1617 97.7434 194.645 464.221
2814 0 102.206 13.8446 1415 103.23 193.781 463.257
2815 0 106.379 13.4895 1435 98.1387 193.659 456.009
2816 0 107.24 12.8123 1374 99.96 194.141 455.725
2817 0 110.243 12.672 1397 104.508 194.18 454.697
2818 0 117.165 13.8693 1625 101.383 193.487 451.374
2819 1 62.2984 10.53 656 102.924 193.259 476.643
2820 0 65.1582 10.7277 699 102.262 193.712 476.724
2821 0 69.3556 11.4338 793 99.5574 193.448 478.151
2822 0 71.0934 12.0124 854 99.7834 193.071 475.059
2823 0 73.0278 13.4606 983 97.7264 192.844 472.347
2824 0 75.0976 12.1442 912 101.345 192.594 472.754
2825 0 80.1097 13.9434 1117 100.887 192.547 475.691
2826 0 83.1457 14.7693 1228 99.0839 192.585 474.567
2827 0 85.1419 13.0371 1110 102.883 192.854 473.587
2828 0 87.0475 13.7971 1201 101.585 193.014 473.132
2829 0 90.1102 13.5945 1225 102.726 193.179 470.685
2830 0 92.1663 13.0416 1202 103.986 193.197 470.504
2831 0 97.1176 13.5712 1318 101.983 193.207 469.126
2832 0 96.1296 12.1399 1167 106.144 193.177 466.5
2833 0 101.13 13.0031 1315 101.548 194.097 467.782
2834 0 102.233 11.865 1213 105.134 194.768 464.023
2835 0 109.234 13.5763 1483 100.863 195.452 462.674
2836 0 110.184 12.2069 1345 104.282 194.581 463.406
2837 0 114.136 13.7293 1567 102.202 194.516 459.614
2838 1 68.1328 12.6224 860 99.6465 193.087 485.36
2839 0 68.162 12.3676 843 101.033 192.645 480.999
2840 0 69.2146 11.905 824 98.085 194.007 477.038
2841 0 71.2835 12.1908 869 99.1542 193.93 473.583
2842 0 72.1572 12.0709 871 99.4811 193.738 476.484
2843 0 75.3479 11.4668 864 101.029 193.513 475.083
2844 0 78.3301 11.8473 928 100.398 193.891 472.682
2845 0 81.1747 11.9988 974 100.57 192.905 471.958
2846 0 85.3977 12.8809 1100 98.4991 193.335 469.023
2847 0 88.2655 12.9269 1141 99.3944 193.93 469.843
2848 0 89.3832 12.6086 1127 100.967 194.143 466.934
2849 0 92.3719 14.0086 1294 99.8091 193.47 465.861
2850 0 96.3499 13.0773 1260 101.382 193.87 464.732
2851 0 97.2321 12.6604 1231 102.735 193.774 464.618
2852 0 102.379 13.284 1360 101.201 193.648 462.585
2853 0 106.159 12.7921 1358 103.565 193.56 459.597
2854 0 109.291 13.6791 1495 100.835 193.689 458.415
2855 1 55.0464 8.86524 488 96.3934 194.107 485.357
2856 0 58.123 12.3531 718 90.7786 194.493 485.634
2857 0 57.2082 10.3132 590 101.469 193.473 481.707
2858 0 62.1655 11.389 708 105.46 194.154 487.931
2859 0 64.1572 11.5654 742 106.341 193.449 485.679
2860 0 67.1682 11.7615 790 106.01 193.429 485.482
2861 0 70.1661 13.5963 954 102.993 192.965 482.709
2862 0 71.1522 14.2371 1013 101.575 193.387 482.277
2863 0 74.1696 13.5231 1003 102.444 193.701 480.392
2864 0 76.2256 12.8172 977 105.285 193.233 479.534
2865 0 79.2727 13.195 1046 103.706 193.072 479.328
2866 0 79.2924 12.5863 998 107.696 192.935 476.085
2867 0 85.3178 14.3112 1221 101.614 192.862 478.25
2868 0 83.2567 12.6356 1052 108.637 193.169 474.335
2869 0 87.2591 13.0989 1143 108.83 193.094 471.279
2870 0 90.3563 13.5021 1220 108.097 192.856 471.875
2871 0 92.4004 12.8679 1189 111.021 193.449 469.94
2872 0 95.6245 14.1596 1354 108.705 192.986 466.957
2873 0 96.3812 12.9175 1245 111.572 192.953 464.433
2874 0 100.441 12.0867 1214 111.943 192.825 466.362
2875 0 104.249 13.3814 1395 107.305 193.709 464.73
2876 1 58.1662 10.6247 618 103.282 194.227 490.858
2877 0 61.2225 11.9727 733 102.664 194.012 485.531
2878 0 63.1252 11.7227 740 103.615 194.039 485.523
2879 0 65.1102 11.9643 779 103.418 193.908 486.144
2880 0 68.0777 13.1174 893 101.512 193.951 483.661
2881 0 69.1734 11.8832 822 105.062 193.954 483.825
2882 0 70.1363 11.3208 794 106.791 194.219 483.606
2883 0 74.1602 11.1785 829 107.608 194.23 481.498
2884 0 74.1784 11.5667 858 107.199 194.647 481.911
2885 0 75.1918 11.0118 828 111.359 193.699 476.838
2886 0 77.1714 11.144 860 111.502 194.1 476.042
2887 0 82.2173 12.9292 1063 107.923 193.522 474.676
2888 0 85.149 11.4857 978 111.249 193.514 474.675
2889 0 85.3111 11.8742 1013 114.161 194.175 471.573
2890 0 90.1686 12.6541 1141 113.553 193.685 473.443
2891 0 93.2894 12.3808 1155 115.846 193.273 468.676
2892 0 95.2716 12.4906 1190 115.45 193.734 467.703
2893 0 100.364 12.9528 1300 114.924 193.792 464.287
2894 1 53.1722 10.5694 562 113.847 195.167 487.311
2895 0 56.1353 10.5816 594 113.246 194.492 485.566
2896 0 57.1096 12.047 688 108.744 194.315 483.958
2897 0 57.1292 11.0451 631 114.788 194.618 482.414
2898 0 60.0354 11.1268 668 114.367 194.686 482.19
2899 0 62.1408 12.1176 753 112.332 194.082 482.139
2900 0 65.0258 13.1486 855 110.601 194.002 481.296
2901 0 67.1129 12.1139 813 113.18 193.74 482.171
2902 0 70.1268 12.1066 849 113.108 192.721 477.078
2903 0 72.1106 12.9246 932 112.054 193.19 475.742
2904 0 75.168 11.8401 890 114.765 193.39 477.073
2905 0 76.1838 12.5617 957 114.42 192.792 476.633
2906 0 80.2375 13.996 1123 110.649 192.866 474.732
2907 0 81.2458 13.3915 1088 113.526 192.936 473.59
2908 0 84.1871 12.8761 1084 116.464 192.987 473.391
2909 0 87.119 14.0957 1228 114.226 193.081 473.195
2910 0 89.2567 12.1111 1081 119.904 193.607 471.971
2911 0 90.2479 12.6208 1139 119.946 194.07 470.706
2912 0 95.0744 13.358 1270 117.598 193.911 469.756
2913 0 94.1597 12.2876 1157 121.887 193.245 465.667
2914 0 98.2049 12.6165 1239 121.228 193.119 462.634
2915 0 105.301 12.8394 1352 119.879 192.567 460.816
2916 0 106.237 12.6133 1340 120.702 192.934 462.462
2917 0 110.206 13.502 1488 118.558 192.954 457.019
2918 1 59.1161 11.6212 687 119.012 193.33 484.293
2919 0 60.1446 12.8191 771 118.215 193.354 484.095
2920 0 61.2646 12.4378 762 121.604 192.955 480.571
2921 0 66.12 13.3394 882 114.795 192.107 480.98
2922 0 67.0906 13.5339 908 115.489 192.585 477.991
2923 0 69.2025 12.3695 856 118.248 193.039 479.436
2924 0 73.1568 13.1088 959 116.709 193.007 478.139
2925 0 74.4173 13.599 1012 115.897 193.234 475.376
2926 0 77.2469 14.5896 1127 114.534 193.475 472.404
2927 0 80.2364 13.4852 1082 119.11 193.157 472.402
2928 0 83.347 13.0299 1086 121.331 193.376 471.093
2929 0 83.2341 12.7232 1059 123.965 193.037 468.776
2930 0 89.3515 13.3406 1192 120.373 193.209 470.657
2931 0 92.232 14.4852 1336 118.036 193.475 467.617
2932 0 94.2844 14.0957 1329 119.964 193.128 465.275
2933 0 96.3956 13.2371 1276 124.128 192.952 463.324
2934 0 101.435 13.6146 1381 123.131 193.445 462.98
2935 0 104.119 13.9168 1449 121.919 192.698 460.155
2936 0 108.19 13.3376 1443 121.84 193.003 452.848
2937 0 109.259 13.1522 1437 122.581 193.391 450.845
2938 1 60.02 11.6461 699 114.193 192.578 480.838
2939 0 60.1381 11.2075 674 118.135 193.181 477.696
2940 0 64.096 11.7324 752 116.21 194.118 475.963
2941 0 64.1192 11.697 750 116.913 194.375 474.624
2942 0 68.0891 11.8815 809 115.211 193.765 474.817
2943 0 66.1533 11.0954 734 118.779 194.098 471.553
2944 0 70.054 12.1049 848 116.015 194.033 469.427
2945 0 74.102 12.0375 892 114.592 193.698 470.572
2946 0 74.1654 11.0294 818 118.395 194.022 468.053
2947 0 79.0635 12.0157 950 113.151 193.893 466.135
2948 0 80.1622 12.824 1028 112.817 193.498 465.972
2949 0 86.0762 12.1172 1043 114.293 193.355 464.495
2950 0 88.079 11.7054 1031 116.944 192.439 461.372
2951 0 91.1635 12.8451 1171 114.011 193.155 460.487
2952 0 91.1296 11.1599 1017 119.691 192.923 458.548
2953 0 96.2694 11.7587 1132 116.793 192.827 458.009
2954 0 98.1871 12.4456 1222 116.722 193.087 453.746
2955 0 101.174 11.9892 1213 117.546 193.268 452.467
2956 0 110.33 12.8343 1416 113.249 193.578 452.052
2957 0 111.244 12.3872 1378 115.481 193.408 451.087
2958 0 116.426 12.9868 1512 114.677 193.589 446.079
2959 0 118.174 13.4886 1594 114.716 192.87 444.342
2960 0 126.204 14.4449 1823 111.041 193.665 443.052
2961 1 67.1136 10.1023 678 107.602 193.714 471.68
2962 0 70.2139 10.6674 749 107.84 192.762 473.546
2963 0 73.2954 10.9147 800 108.685 193.16 475.06
2964 0 74.2092 11.1981 831 110.07 192.425 472.876
2965 0 77.1633 11.197 864 108.738 193.023 473.905
2966 0 80.4173 11.1419 896 110.041 192.461 468.823
2967 0 83.2394 11.2327 935 109.291 192.794 469.888
2968 0 84.1792 10.6321 895 113.021 192.44 461.896
2969 0 87.4638 11.5019 1006 109.536 192.422 466.829
2970 0 91.3139 12.1011 1105 109.835 192.71 459.743
2971 0 93.4969 11.9576 1118 110.491 193.095 459.596
2972 0 95.3227 9.97664 951 115.548 192.553 457.708
2973 0 100.356 10.7518 1079 113.329 192.655 458.017
2974 0 101.483 11.2039 1137 111.953 192.685 456.224
2975 0 108.475 12.6758 1375 121.025 192.679 459.974
2976 0 111.441 11.8179 1317 124.104 193.269 460.443
2977 0 113.377 12.3306 1398 122.911 193.572 459.693
2978 0 118.373 12.9759 1536 120.16 193.512 458.146
2979 0 121.363 12.0217 1459 121.815 193.565 457.771
2980 1 68.2177 10.7157 731 120.269 194.928 480.848
2981 0 71.2157 12.2866 875 114.509 194.762 480.834
2982 0 74.1276 13.0855 970 112.513 192.379 477.969
2983 0 74.1638 13.3084 987 111.512 194.893 478.797
2984 0 77.1108 13.124 1012 111.435 194.92 477.714
2985 0 78.2693 13.1214 1027 110.456 194.51 478.236
2986 0 82.0481 14.3452 1177 107.293 194.195 476.07
2987 0 84.1688 13.2234 1113 111.517 193.546 473.717
2988 0 84.1778 13.1151 1104 112.139 193.077 473.558
2989 0 87.1885 12.559 1095 112.639 192.802 473.096
2990 0 91.254 14.3446 1309 108.209 192.773 467.497
2991 0 94.2145 13.4905 1271 110.044 193.947 466.352
2992 0 97.2068 13.8571 1347 109.082 193.024 464.782
2993 0 98.3164 13.2938 1307 110.445 193.386 464.069
2994 0 101.256 13.1844 1335 110.895 193.393 463.509
2995 0 105.261 13.4903 1420 109.776 192.853 459.217
2996 0 105.242 12.457 1311 112.48 193.234 455.541
2997 0 109.385 12.4423 1361 112.741 193.583 455.591
2998 0 113.315 13.0962 1484 111.335 193.009 451.675
2999 0 117.257 12.9801 1522 111.684 193.244 450.434
3000 1 63.1971 10.222 646 116.433 192.901 479.907
3001 0 65.1658 11.6165 757 109.781 193.267 475.05
3002 0 66.0572 11.6566 770 110.529 191.651 481.544
3003 0 68.1053 11.5997 790 111.548 191.895 480.281
3004 0 68.1053 11.5556 787 142.17 192.898 480.333
3005 0 73.248 11.8638 869 111.197 191.812 477.581
3006 0 78.0512 11.864 926 109.329 191.366 478.123
3007 0 77.0619 11.7308 904 111.893 191.614 474.789
3008 0 80.1502 11.6157 931 112.112 190.91 474.869
3009 0 83.2621 11.1455 928 112.688 190.817 475.208
3010 0 86.1934 12.7968 1103 109.227 190.822 473.289
3011 0 90.1434 11.5372 1040 111.976 191.044 471.257
3012 0 91.1096 12.2819 1119 111.626 191.375 470.414
3013 0 90.2214 11.7156 1057 114.388 191.826 466.518
3014 0 96.182 13.8903 1336 108.994 191.504 466.657
3015 0 97.1464 12.7848 1242 111.246 191.247 467.088
3016 0 102.329 12.6552 1295 112.022 191.931 464.602
3017 0 103.204 11.4821 1185 115.188 191.533 462.664
3018 0 103.114 12.6172 1301 113.218 191.657 459.675
3019 0 109.429 12.8668 1408 111.711 192.398 455.893
3020 0 111.333 12.7995 1425 112.27 191.792 452.693
3021 1 61.1345 10.0107 612 114.949 192.211 479.191
3022 0 64.0578 12.2389 784 111.467 192.135 478.934
3023 0 65.1695 10.9407 713 113.296 193.383 471.324
3024 0 70.1377 10.7788 756 112.115 193.738 474.853
3025 0 70.1469 10.8772 763 145.89 193.75 474.919
3026 0 75.1421 14.0135 1053 107.028 194.068 474.489
3027 0 76.142 11.5048 876 113.458 193.781 471.703
3028 0 80.2007 13.1046 1051 108.118 194.078 472.856
3029 0 83.1209 13.6307 1133 107.207 194.619 469.706
3030 0 85.1377 12.4269 1058 110.036 194.463 469.251
3031 0 88.1269 12.8338 1131 108.472 193.382 470.534
3032 0 90.1204 12.3058 1109 111.514 193.99 465.474
3033 0 93.0821 13.9984 1303 107.511 194.272 466.177
3034 0 96.1421 13.1472 1264 109.399 194.422 464.219
3035 0 98.1486 12.8784 1264 109.725 194.674 464.272
3036 0 100.106 12.4168 1243 111.016 193.216 463.783
3037 0 103.192 12.4331 1283 111.631 193.422 462.562
3038 0 107.183 13.575 1455 108.579 193.792 461.485
3039 0 108.142 13.1124 1418 109.535 193.848 459.298
3040 0 114.202 12.7319 1454 110.03 193.747 455.953
3041 1 62.0947 10.6772 663 113.913 195.021 477.726
3042 0 67.0805 12.239 821 108.961 194.536 477.984
3043 0 69.0421 11.5726 799 109.166 195.096 476.412
3044 0 73.2064 12.335 903 111.03 194.598 478.372
3045 0 77.3401 12.0507 932 112.941 194.135 476.958
3046 0 79.173 13.8178 1094 104.214 193.695 475.419
3047 0 80.227 13.225 1061 109.217 193.531 475.642
3048 0 80.1974 13.8658 1112 112.344 194.035 474.369
3049 0 81.1639 13.5282 1098 103.385 193.655 472.709
3050 0 82.219 13.1113 1078 111.265 194.282 472.814
3051 0 81.2281 13.0989 1064 118.17 193.976 472.1
3052 0 83.1603 13.6123 1132 116.508 193.442 473.053
3053 0 85.2247 13.5641 1156 117.243 193.678 471.241
3054 0 89.3193 14.5209 1297 112.722 193.825 473.827
3055 0 88.2626 14.3549 1267 113.226 194.399 471.779
3056 0 93.1539 13.8158 1287 113.145 194.365 467.549
3057 0 96.1979 13.6178 1310 111.761 194.546 468.189
3058 0 100.172 13.5367 1356 110.973 194.299 464.657
3059 0 103.336 14.419 1490 108.826 193.397 461.028
3060 0 105.252 13.2254 1392 110.335 193.644 460.369
3061 0 110.152 14.2712 1572 106.417 193.87 460.442
3062 0 113.248 14.1901 1607 107.716 193.719 456.965
3063 0 118.265 13.0047 1538 108.836 194.017 459.769
3064 1 67.1594 12.8649 864 104.007 194.846 483.058
3065 0 66.0946 11.4382 756 112.487 194.943 478.975
3066 0 68.0951 11.3224 771 112.182 195.289 479.265
3067 0 72.1186 10.9819 792 98.3346 194.611 476.505
3068 0 72.3001 11.1342 805 101.307 194.717 475.668
3069 0 74.0985 10.2566 760 105.764 194.372 472.468
3070 0 77.1148 11.3338 874 105.015 193.844 472.586
3071 0 79.1668 10.661 844 107.857 194.248 473.097
3072 0 83.1333 11.5597 961 106.785 193.917 472.43
3073 0 84.2906 11.1875 943 110.824 193.513 471.635
3074 0 85.1749 11.9988 1022 112.234 192.908 467.703
3075 0 89.3487 11.4048 1019 114.982 193.381 467.817
3076 0 91.3111 10.7325 980 120.9 193.388 464.232
3077 0 93.2868 10.7518 1003 121.951 193.603 463.982
3078 0 96.4266 11.3869 1098 120.805 193.464 464.103
3079 0 98.2484 10.9722 1078 123.078 193.177 462.292
3080 1 53.147 8.84339 470 114.504 193.445 484.789
3081 0 56.1442 10.5799 594 110.362 193.822 484.224
3082 0 56.2154 9.76601 549 114.565 193.891 481.754
3083 0 58.1989 10.6875 622 115.627 194.013 483.966
3084 0 61.2446 10.6295 651 116.598 194.187 483.381
3085 0 62.1069 10.965 681 116.455 194.231 481.673
3086 0 65.2179 11.7299 765 114.92 194.486 480.643
3087 0 65.1895 11.3515 740 117.57 194.68 478.119
3088 0 68.1998 11.5103 785 117.417 194.21 478.504
3089 0 69.1667 12.7663 883 114.657 194.051 476.137
3090 0 72.1309 11.7148 845 117.224 194.315 477.35
3091 0 73.1055 12.2426 895 116.285 194.029 478.006
3092 0 77.0538 12.1084 933 115.32 192.632 477.221
3093 0 79.1702 12.7321 1008 115.474 193.049 474.925
3094 0 79.0694 12.4068 981 117.465 192.826 473.666
3095 0 82.0986 11.5349 947 119.035 192.818 474.057
3096 0 86.1606 13.2543 1142 114.362 193.602 472.634
3097 0 89.2564 12.7946 1142 116.304 193.749 466.477
3098 0 91.3618 12.9157 1180 116.097 193.428 464.887
3099 0 93.1411 12.3576 1151 117.209 193.256 464.104
3100 0 99.1936 13.398 1329 112.712 193.47 464.363
3101 0 99.16 12.0311 1193 118.883 193.364 462.59
3102 1 55.0771 10.9664 604 113.487 193.343 486.333
3103 0 57.317 12.1081 694 114.859 193.705 484.575
3104 0 58.2526 12.2226 712 120.357 193.705 481.808
3105 0 58.1933 11.6165 676 114.003 194.907 483.491
3106 0 61.2492 11.9512 732 110.564 194.676 480.766
3107 0 63.0828 11.477 724 110.96 194.878 481.374
3108 0 60.1539 10.6394 640 118.169 194.992 479.555
3109 0 67.1976 10.7593 723 115.376 194.412 478.09
3110 0 66.2744 9.55121 633 119.13 194.254 476.044
3111 0 71.1665 11.5644 823 113.815 194.57 475.927
3112 0 73.1846 11.0406 808 115.053 194.797 474.624
3113 0 74.1691 10.7997 801 115.307 193.574 473.338
3114 0 74.227 9.65956 717 117.847 194.654 472.611
3115 0 80.18 11.5864 929 110.246 194.466 473.015
3116 0 83.1886 11.9608 995 109.102 193.757 471.967
3117 0 82.1462 10.7978 887 113.541 193.502 470.041
3118 0 87.2441 12.5395 1094 108.912 194.198 469.69
3119 0 86.1725 11.8135 1018 113.057 193.157 467.431
3120 0 91.1856 12.2717 1119 112.272 193.339 464.651
3121 0 93.2135 12.2622 1143 110.552 194.122 463.896
3122 0 97.2019 12.4895 1214 117.7 194.326 465.555
3123 0 102.176 12.6448 1292 110.794 193.707 461.019
3124 0 105.084 13.0086 1367 110.546 194.537 460.671
3125 1 58.0689 11.4347 664 108.321 195.367 484.333
3126 0 60.3637 12.1762 735 107.437 195.773 483.774
3127 0 61.0714 11.724 716 109.021 195.756 483.771
3128 0 61.0507 11.4659 700 103.077 194.634 476.167
3129 0 62.1095 10.9323 679 104.069 195.001 477.504
3130 0 65.1875 10.7843 703 104.427 195.541 475.444
3131 0 70.175 12.1696 854 100.333 195.174 475.826
3132 0 72.2115 12.1033 874 100.43 195.508 473.229
3133 0 73.2011 11.1884 819 103.578 195.116 470.553
3134 0 74.1968 10.0409 745 106.772 194.969 470.697
3135 0 79.2188 10.9317 866 104.381 195.188 469.24
3136 0 83.17 12.3362 1026 101.391 195.088 469.691
3137 0 85.2297 12.5191 1067 102.711 195.08 465.207
3138 0 90.2774 12.3065 1111 103.915 194.949 465.87
3139 0 93.256 13.093 1221 103.66 195.1 464.171
3140 0 93.3777 10.7842 1007 113.626 194.57 460.963
3141 0 100.263 11.4599 1149 110.002 194.874 463.943
3142 0 101.262 12.6504 1281 104.716 194.982 461.489
3143 0 102.485 11.8066 1210 115.121 194.365 456.194
3144 0 106.398 14.192 1510 111.808 194.732 454.793
3145 0 109.505 14.7117 1611 108.757 194.678 454.821
3146 0 111.339 12.5921 1402 115.068 194.496 455.513
3147 0 114.334 12.8396 1468 118.166 193.433 455.585
3148 0 120.373 13.0511 1571 124.685 194.354 457.486
3149 0 123.32 13.842 1707 122.187 193.134 458.213
3150 0 126.283 13.0897 1653 125.913 193.177 454.009
3151 0 132.371 13.2128 1749 124.491 193.797 454.775
3152 0 136.262 14.362 1957 121.71 193.786 451.625
3153 0 140.243 13.5122 1895 123.028 193.365 452.648
3154 1 76.2204 13.7627 1049 121.546 193.536 478.429
3155 0 80.2245 13.3126 1068 120.493 193.728 479.824
3156 0 81.416 14.0881 1147 120.92 193.846 476.851
3157 0 82.27 13.1032 1078 124.422 194.065 474.774
3158 0 85.4658 13.2217 1130 122.779 194.123 474.456
3159 0 89.3677 14.625 1307 117.075 194.185 470.438
3160 0 90.2501 13.1634 1188 121.293 194.128 466.929
3161 0 92.2702 13.4821 1244 119.679 193.898 466.779
3162 0 92.2499 13.2683 1224 119.297 193.387 465.155
3163 0 97.3331 13.3562 1300 118.441 193.812 463.419
3164 1 52.1458 9.81863 512 112.662 194.578 485.949
3165 0 54.0676 10.117 547 107.188 194.325 485.634
3166 0 58.0941 11.1199 646 106.003 193.159 486.133
3167 0 57.0956 12.663 723 101.36 193.057 486.495
3168 0 59.0641 11.242 664 103.748 193.619 483.867
3169 0 59.0577 10.5659 624 104.97 194.125 483.649
3170 0 63.0356 11.2635 710 102.507 194.301 483.68
3171 0 67.2475 12.4317 836 99.5778 193.862 481.562
3172 0 68.1984 12.0971 825 101.08 194.085 480.621
3173 0 70.086 12.1422 851 101.631 193.841 479.083
3174 0 73.2008 12.4179 909 101.014 193.672 477.877
3175 0 76.2778 13.595 1037 99.1254 194.058 476.843
3176 0 76.2293 13.0921 998 100.975 194.093 477.992
3177 0 79.1182 12.336 976 103.207 193.036 475.538
3178 0 82.0739 12.8177 1052 103.194 192.828 475.167
3179 0 85.0988 14.16 1205 100.844 192.603 473.914
3180 0 89.1012 14.3432 1278 100.383 192.363 474.474
3181 0 90.1462 13.0344 1175 105.083 192.32 472.066
3182 0 93.0727 14.1932 1321 103.375 192.424 471.126
3183 0 96.1318 13.2838 1277 106.215 192.036 470.164
3184 0 98.2166 12.9917 1276 106.937 192.82 468.244
3185 1 55.1131 12.0661 665 107.702 192.597 490.147
3186 0 58.1783 12.8398 747 106.574 192.466 487.909
3187 0 58.2039 12.9201 752 108.539 191.753 486.346
3188 0 61.0782 12.8033 782 105.942 191.739 485.463
3189 0 63.087 12.4748 787 105.565 191.806 485.612
3190 0 67.0915 14.1299 948 100.794 192.456 484.87
3191 0 68.1274 14.0766 959 100.602 192.539 484.3
3192 0 68.1358 12.7686 870 104.278 192.377 483.324
3193 0 73.1452 14.0269 1026 100.611 192.513 479.705
3194 0 75.1204 14.3503 1078 100.138 192.683 480.299
3195 0 77.0666 13.6635 1053 101.438 192.723 478.469
3196 0 78.1725 12.869 1006 103.893 192.501 478.279
3197 0 79.1167 12.6648 1002 105.409 192.01 474.675
3198 0 83.16 13.6364 1134 102.714 192.506 474.601
3199 0 85.1005 13.6309 1160 102.749 192.241 474.935
3200 0 87.1268 13.3139 1160 105.234 192.179 472.292
3201 0 92.1752 14.0385 1294 102.65 192.155 470.54
3202 0 93.0876 12.7514 1187 106.842 191.517 469.619
3203 0 97.1022 13.0069 1263 106.113 190.199 468.463
3204 0 100.108 12.4565 1247 108.638 191.048 468.026
3205 1 57.047 12.4108 708 108.407 191.449 486.513
3206 0 58.0524 11.8686 689 108.552 191.138 486.869
3207 0 61.0427 12.1882 744 106.425 190.902 486.165
3208 0 63.1573 12.5876 795 106.826 191.88 483.391
3209 0 63.1129 13.3412 842 107.207 192.097 482.664
3210 0 67.0766 14.8487 996 103.145 191.766 482.65
3211 0 69.0679 13.0451 901 107.812 192.155 481.714
3212 0 72.0889 13.0395 940 106.439 191.988 481.501
3213 0 73.0626 13.0299 952 108.046 192.048 480.164
3214 0 77.1284 14.625 1128 104.461 191.676 477.461
3215 0 77.1097 12.9556 999 109.92 191.972 476.645
3216 0 82.1162 15.5998 1281 103.723 190.893 474.194
3217 0 85.1322 14.3659 1223 106.45 191.829 474.972
3218 0 86.0785 13.418 1155 110.476 191.752 474.145
3219 0 88.1458 13.8294 1219 110.7 191.768 470.137
3220 0 92.1647 14.0292 1293 110.205 191.428 470.954
3221 0 92.1081 12.6808 1168 115.87 191.078 469.358
3222 0 97.1135 13.7571 1336 113.005 191.694 470.136
3223 0 99.0803 13.4033 1328 116.218 191.714 465.883
3224 0 103.069 13.7868 1421 115.223 192.108 467.118
3225 0 106.154 13.9609 1482 116.088 192.687 463.218
3226 0 108.118 13.0228 1408 117.338 192.81 464.043
3227 0 113.133 13.5681 1535 117.053 193.165 460.921
3228 0 117.149 13.1371 1539 118.07 193.475 459.192
3229 1 66.1278 13.0354 862 114.534 194.124 484.437
3230 0 68.1648 13.4087 914 115.325 193.67 480.148
3231 0 69.0393 11.8194 816 115.865 193.653 478.669
3232 0 70.1712 12.783 897 117.357 192.648 475.2
3233 0 74.2348 12.5144 929 116.048 193.269 475.817
3234 0 75.3829 13.0932 987 116.913 193.051 471.578
3235 0 77.0968 12.6075 972 118.241 193.265 472.772
3236 0 79.1222 12.7903 1012 118.074 193.076 471.448
3237 0 85.2061 13.8605 1181 113.861 193.567 469.332
3238 0 86.1769 13.4955 1163 116.695 193.868 467.341
3239 0 90.2163 12.8026 1155 118.114 193.972 465.827
3240 0 92.1252 13.6879 1261 117.204 193.622 464.649
3241 0 95.1596 13.1779 1254 118.864 193.206 464.146
3242 0 98.2843 14.1935 1395 116.849 193.057 462.756
3243 0 101.143 13.2981 1345 121.341 192.083 459.778
3244 0 102.176 11.852 1211 120.718 193.342 461.027
3245 0 104.217 11.7064 1220 125.262 192.486 457.147
3246 0 108.237 13.2302 1432 128.469 193.777 460.04
3247 0 113.218 12.3656 1400 130.656 193.216 459.404
3248 1 67.1341 11.5887 778 127.222 193.815 485.445
3249 0 70.1854 12.6522 888 121.505 193.971 483.104
3250 0 72.149 14.4008 1039 119.224 193.57 478.912
3251 0 74.2052 12.6676 940 123.81 194.124 478.569
3252 0 76.1615 14.0228 1068 120.17 194.075 477.065
3253 0 79.0884 13.8326 1094 120.859 194.006 475.683
3254 0 82.1545 13.645 1121 121.368 194.07 474.57
3255 0 86.173 14.5057 1250 119.199 194.455 472.534
3256 0 88.1417 14.7603 1301 118.048 194.806 474.306
3257 0 90.1865 13.4166 1210 121.51 194.071 472.985
3258 0 95.1729 14.1006 1342 119.423 194.047 469.746
3259 0 96.1802 13.2876 1278 122.225 193.99 468.679
3260 0 101.146 14.0292 1419 119.199 194.782 468.135
3261 0 104.139 14.4614 1506 118.117 193.716 464.427
3262 0 106.165 14.0254 1489 119.14 193.765 462.375
3263 1 60.1097 11.662 701 113.553 194.407 481.966
3264 0 60.0877 10.7676 647 115.252 192.345 477.722
3265 0 64.0596 12.0513 772 104.32 193.162 479.456
3266 0 66.2078 11.192 741 107.462 193.113 478.167
3267 0 69.1367 12.3813 856 103.79 193.43 477.308
3268 0 73.0517 12.32 900 103.282 192.841 476.792
3269 0 74.1271 12.3032 912 104.372 193.427 474.321
3270 0 78.112 11.7011 914 105.409 193.676 475.339
3271 0 78.1968 12.0593 943 105.947 193.454 471.962
3272 0 81.072 11.3356 919 106.622 194.194 474.214
3273 0 81.1369 10.3036 836 109.894 193.97 470.738
3274 0 86.1644 11.3388 977 107.686 193.745 471.728
3275 0 85.1019 10.27 874 111.814 193.881 469.235
3276 0 90.1675 11.0794 999 110.922 194.264 467.638
3277 0 91.3571 11.6576 1065 110.561 192.933 459.888
3278 0 92.1861 10.7825 994 112.328 193.463 460.248
3279 0 96.1693 10.9806 1056 112.736 193.782 458.421
3280 0 101.24 12.2086 1236 112.913 193.636 456.544
3281 0 103.17 11.6798 1205 116.307 193.357 456.771
3282 0 106.44 12.5517 1336 114.826 192.9 456.38
3283 0 110.252 12.9975 1433 114.494 192.82 455.987
3284 0 110.53 11.8791 1313 118.51 192.824 453.705
3285 1 61.2895 10.3443 634 113.574 192.516 477.681
3286 0 66.1789 10.7587 712 110.045 193.162 477.037
3287 0 68.2991 12.211 834 110.6 193.048 476.345
3288 0 66.2248 11.2949 748 113.955 193.614 475.68
3289 0 73.2632 12.0115 880 111.264 193.189 474.409
3290 0 72.182 11.1108 802 115.431 193.182 472.318
3291 0 75.0845 10.8411 814 109.141 193.593 477.461
3292 0 80.1186 12.1819 976 107.512 192.382 471.807
3293 0 82.126 11.2754 926 109.517 192.608 472.613
3294 0 84.2087 11.7209 987 110.161 192.47 468.664
3295 0 87.2769 11.5953 1012 110.003 192.753 470.49
3296 0 89.2822 11.7941 1053 111.486 192.947 468.172
3297 0 93.2408 12.6232 1177 110.444 192.969 468.309
3298 0 96.1059 11.6122 1116 113.258 192.737 467.672
3299 0 100.274 13.2237 1326 110.709 193.048 465.747
3300 0 103.198 13.1495 1357 115.284 192.534 462.368
3301 0 103.213 12.0043 1239 121.645 193.077 460.98
3302 0 108.182 12.063 1305 121.947 192.79 459.974
3303 0 113.187 12.8902 1459 119.619 192.602 459.619
3304 0 115.248 13.1282 1513 118.419 193.169 459.073
3305 1 65.0887 11.1233 724 120.97 192.479 484.892
3306 0 66.1745 11.6812 773 115.656 193.736 479.312
3307 0 67.184 11.208 753 119.339 193.728 475.745
3308 0 68.2912 11.041 754 116.424 193.865 475.297
3309 0 70.3848 11.153 785 117.211 194.473 475.878
3310 0 74.312 11.4113 848 115.978 194.046 473.896
3311 0 75.2126 11.7799 886 119.131 193.814 474.199
3312 0 76.3235 12.1064 924 120.34 193.64 471.406
3313 0 80.2301 12.2273 981 119.959 193.668 470.934
3314 0 81.2304 11.9167 968 122.916 194.255 469.746
3315 0 82.3331 11.2713 928 126.376 194.428 469.353
3316 0 87.2924 12.5326 1094 123.09 193.981 469.782
3317 0 90.3003 13.3997 1210 122.093 194.202 467.427
3318 0 91.2342 12.9995 1186 124.643 194.55 466.494
3319 0 95.4581 12.4662 1190 125.919 194.313 467.624
3320 0 96.1958 12.6721 1219 127.6 194.461 464.318
3321 0 100.36 13.0828 1313 128.004 194.014 462.199
3322 0 102.228 12.9807 1327 128.2 194.005 461.513
3323 0 105.238 12.7046 1337 129.572 194.571 460.35
3324 0 109.14 11.8197 1290 130.868 193.852 460.522
3325 0 112.156 12.2775 1377 131.664 193.262 454.581
3326 0 115.169 11.6004 1336 132.191 193.115 455.627
3327 0 116.176 11.6891 1358 133.489 193.197 451.407
3328 0 122.157 11.6489 1423 133.06 193.275 452.101
3329 1 73.0711 12.2347 894 131.732 193.092 476.725
3330 0 78.1075 12.1243 947 136.163 191.999 478.476
3331 0 79.0776 12.8228 1014 136.038 192.218 476.449
3332 0 81.1974 14.2492 1157 131.866 194.216 473.404
3333 0 85.1083 13.6767 1164 128.787 193.432 476.783
3334 0 85.1002 13.8543 1179 130.254 194.043 473.667
3335 0 88.1092 13.7216 1209 130.366 194.055 473.036
3336 0 92.1 14.3322 1320 128.546 194.245 472.093
3337 0 95.0937 13.5866 1292 130.922 194.618 469.231
3338 0 96.0735 14.5409 1397 128.98 194.852 469.323
3339 0 100.072 13.7702 1378 132.282 194.142 465.57
3340 0 101.06 14.3776 1453 135.657 193.84 464.289
3341 0 104.142 14.3938 1499 133.268 194 465.168
3342 0 107.114 13.705 1468 137.087 193.659 463.163
3343 0 109.175 14.692 1604 135.64 193.46 457.64
3344 0 113.134 13.8862 1571 137.858 193.325 456.785
3345 0 117.151 14.9465 1751 134.194 192.636 453.027
3346 0 121.238 14.3767 1743 134.027 193.275 451.652
3347 0 123.299 14.0715 1735 138.217 192.84 453.619
3348 0 127.262 13.3111 1694 140.927 193.028 452.299
3349 0 129.295 12.9858 1679 140.77 192.874 443.512
3350 0 133.295 12.5961 1679 142.154 192.632 442.271
3351 0 138.247 12.8538 1777 140.763 193.256 438.931
3352 1 84.118 9.34402 786 136.793 193.761 468.943
3353 0 88.071 10.9684 966 129.351 193.403 466.369
3354 0 87.0404 11.3625 989 128.844 193.684 467.512
3355 0 91.1192 11.3478 1034 127.918 193.186 465.911
3356 0 95.1082 10.4513 994 129.126 193.272 465.297
3357 0 98.2393 13.0192 1279 122.224 193.393 463.685
3358 0 100.139 10.9648 1098 129.473 193.483 457.713
3359 0 102.305 10.7326 1098 130.679 192.991 458.842
3360 0 107.213 11.6031 1244 128.977 193.115 457.184
3361 0 111.234 12.8827 1433 126.278 192.957 453.435
3362 0 115.225 12.749 1469 127.553 192.795 452.657
3363 0 116.318 11.4772 1335 131.565 193.246 451.634
3364 0 119.249 11.2873 1346 131.871 193.126 450.84
3365 0 125.614 12.9126 1622 129.472 192.943 443.449
3366 0 130.358 11.1769 1457 134.874 192.883 446.475
3367 1 74.1479 10.8702 806 125.167 192.473 476.03
3368 0 74.1338 11.6411 863 129.001 191.696 477.333
3369 0 77.1882 12.3205 951 127.161 191.813 475.415
3370 0 78.2525 11.4373 895 124.463 192.728 468.472
3371 0 82.3531 10.9164 899 124.171 192.814 468.99
3372 0 85.1449 12.4376 1059 121.166 192.682 466.495
3373 0 86.1178 11.9255 1027 122.785 192.356 465.841
3374 0 90.1351 12.0597 1087 122.079 192.643 464.945
3375 0 93.1515 11.2398 1047 124.016 192.729 462.273
3376 0 95.2345 11.5714 1102 123.144 192.634 461.856
3377 0 95.3186 10.1554 968 127.312 192.628 460.867
3378 0 100.206 10.9275 1095 125.369 192.916 459.598
3379 0 104.168 12.1343 1264 121.934 192.741 459.317
3380 0 107.332 11.4505 1229 122.804 192.656 459.718
3381 0 110.194 11.1985 1234 123.921 193.02 456.965
3382 0 112.274 11.6768 1311 123.972 192.971 453.937
3383 0 114.213 11.9075 1360 123.221 192.562 453.574
3384 0 118.172 11.8556 1401 123.779 192.729 450.775
3385 0 121.232 11.6388 1411 124.828 192.843 448.833
3386 0 127.311 12.442 1584 122.763 192.575 446.098
3387 0 132.176 12.1354 1604 123.895 192.751 442.941
3388 0 136.247 11.7067 1595 124.375 192.144 440.386
3389 0 145.246 12.978 1885 120.682 191.607 440.901
3390 1 82.2191 10.7518 884 120.994 192.169 469.631
3391 0 85.3646 13.659 1166 123.515 191.972 469.437
3392 0 88.1776 12.4295 1096 121.244 192.318 470.39
3393 0 87.1253 12.0057 1046 122.982 192.037 467.675
3394 0 93.1796 13.8013 1286 118.133 192.834 465.418
3395 0 98.1569 13.672 1342 117.724 192.664 465.75
3396 0 99.1308 12.6701 1256 121.317 192.893 462.532
3397 0 101.198 12.9548 1311 121.307 192.972 461.385
3398 0 104.13 12.8781 1341 122.424 192.315 459.89
3399 0 109.16 13.7596 1502 119.355 193.009 456.668
3400 0 113.238 13.9794 1583 118.649 192.843 457.274
3401 0 116.356 14.2236 1655 119.109 192.502 454.809
3402 0 119.236 14.2742 1702 119.456 192.458 453.514
3403 0 122.275 13.4206 1641 122.037 193.151 453.627
3404 0 125.226 14.382 1801 120.507 192.749 450.865
3405 0 128.189 14.7751 1894 119.757 193.212 451.28
3406 0 134.176 14.0189 1881 121.351 192.887 447.166
3407 0 135.185 12.8786 1741 124.746 192.851 447.988
3408 0 139.22 13.8199 1924 124.016 192.555 445.859
3409 0 141.335 14.8795 2103 124.102 192.307 440.872
3410 0 146.155 14.0467 2053 128.094 192.825 441.706
3411 0 152.268 13.5682 2066 131.746 193.081 437.844
3412 0 155.277 14.0652 2184 131.75 193.059 431.17
3413 1 90.1038 11.9973 1081 131.022 193.674 469.905
3414 0 91.0592 11.9922 1092 133.696 193.411 469.372
3415 0 96.1599 12.7912 1230 131.589 193.744 465.661
3416 0 99.0803 13.2721 1315 131.807 193.173 462.455
3417 0 101.177 12.8488 1300 133.308 193.178 462.659
3418 0 105.196 13.4131 1411 136.433 193.097 459.498
3419 0 108.139 13.8063 1493 135.064 193.299 455.347
3420 0 112.098 14.4784 1623 132.633 193.256 451.896
3421 0 117.175 14.7215 1725 130.721 193.512 452.516
3422 0 119.23 14.2329 1697 132.768 193.362 449.903
3423 0 121.263 15.0829 1829 130.634 193.489 448.248
3424 0 125.371 14.5887 1829 132.752 193.575 442.598
3425 0 128.311 14.5272 1864 133.142 193.176 439.541
3426 0 134.4 14.8065 1990 132.106 193.277 435.96
3427 0 137.379 14.2235 1954 134.344 193.584 434.089
3428 0 142.427 15.4114 2195 130.265 193.117 431.46
3429 0 150.43 15.4025 2317 129.049 193.576 429.775
3430 0 155.308 14.8994 2314 130.436 193.286 426.198
3431 0 159.386 14.6248 2331 131.346 193.754 423.872
3432 0 160.282 14.1625 2270 133.493 193.641 422.428
3433 0 168.32 15.0725 2537 130.224 192.968 417.409
3434 0 173.255 14.7471 2555 130.875 192.73 417.663
3435 0 179.356 14.2845 2562 132.341 193.361 415.128
3436 1 102.185 12.1153 1238 126.982 194.019 453.355
3437 0 105.235 12.0683 1270 129.627 194.073 448.535
3438 0 108.216 11.9021 1288 130.86 193.73 443.686
3439 0 109.213 12.1598 1328 130.366 193.917 447.117
3440 0 111.203 12.5536 1396 130.729 194.029 439.371
3441 0 115.294 12.6459 1458 131.163 193.146 436.904
3442 0 123.268 13.4342 1656 127.837 193.482 437.104
3443 0 127.158 13.1647 1674 127.968 193.444 436.967
3444 0 131.302 11.7744 1546 133.569 193.315 431.254
3445 0 138.27 13.1843 1823 128.609 194.54 433.626
3446 0 141.324 13.0692 1847 129.695 194.293 429.303
3447 0 147.331 15.197 2239 123.761 194.036 429.677
3448 0 152.34 14.1329 2153 126.758 194.148 426.715
3449 0 154.283 12.2502 1890 132.875 194.129 423.175
3450 0 158.193 13.1358 2078 131.337 193.023 415.684
3451 0 163.342 13.1503 2148 130.887 192.764 417.186
3452 0 169.4 13.6482 2312 129.408 193.516 414.886
3453 0 173.24 13.8017 2391 129.563 193.455 410.917
3454 0 180.478 13.8964 2508 128.854 193.034 408.5
3455 0 182.35 13.3151 2428 131.804 192.539 405.382
3456 0 189.233 13.3698 2530 131.821 192.181 404.813
3457 0 198.458 14.4162 2861 128.568 191.772 402.896
3458 0 203.455 16.2149 3299 123.789 191.944 401.934
3459 0 211.429 14.2506 3013 128.799 191.757 400.858
3460 0 217.488 14.3686 3125 129.529 191.443 391.625
3461 1 41.016 6.8266 280 92.6893 193.061 492.014
3462 0 41.0799 6.98639 287 91.4774 192.798 495.289
3463 0 43.0224 8.92558 384 90.9688 194.43 491.76
3464 0 44.0466 9.87591 435 90.0046 194.184 491.545
3465 0 34.0194 3.498 119 96.9916 190.824 497
3466 0 39.0189 6.3559 248 92.8347 191.484 497
3467 0 41.0165 7.60669 312 91.7468 191.452 495.532
3468 0 39.0416 6.55712 256 95.2344 190.902 494.859
3469 0 43.0357 8.45809 364 93.7088 191.192 494.467
3470 0 41.0464 9.136 375 94.0053 190.611 495.149
3471 0 41.0937 7.17872 295 98.4305 191.241 495.047
3472 0 313.795 15.797 4957 129.12 192.01 339.358
3473 0 324.445 15.9904 5188 129.653 191.645 340.032
3474 0 332.622 15.011 4993 133.38 191.205 329.08
3475 0 343.504 17.0857 5869 126.502 190.853 332.236
3476 0 352.031 15.6946 5525 131.541 191.015 323.868
3477 0 362.66 15.6483 5675 132.218 191.377 318.312
3478 0 377.881 16.7698 6337 131.07 191.066 313.509
3479 0 392.074 16.2418 6368 132.514 191.116 308.691
3480 0 401.797 16.5606 6654 132.749 191.612 303.316
3481 1 320.81 18.4689 5925 123.423 192.092 335.261
3482 0 324.632 13.6863 4443 138.585 192.061 346.936
3483 0 326.803 12.2031 3988 139.575 191.412 357.104
3484 0 326.845 10.43 3409 139.747 192.131 370.989
3485 1 48.0612 10.1537 488 104.902 193.27 492.844
3486 0 49.0894 10.9392 537 103.858 192.797 492.233
3487 0 50.0435 10.6108 531 104.51 192.597 492.024
3488 0 50.0667 10.5859 530 104.606 192.642 493.27
3489 0 52.1657 10.6967 558 104.615 190.987 492.045
3490 0 51.0779 9.33867 477 108.78 190.929 491.742
3491 0 52.0658 9.33435 486 108.597 190.979 491.412
3492 0 51.1016 10.6259 543 106.385 190.492 492.061
3493 0 52.0413 11.6254 605 104.61 191.248 491.527
3494 0 52.0577 9.83523 512 109.197 191.008 492.824
3495 0 49.0351 10.0744 494 110.113 191.162 493.202
3496 0 398.225 16.7493 6670 129.883 191.634 302.719
3497 0 406.848 14.7156 5987 133.579 191.864 298.624
3498 0 420.091 16.1203 6772 136.227 191.587 284.988
3499 0 452.629 13.8038 6248 133.387 192.366 234.474
3500 0 55.0493 15.4952 853 96.1336 189.89 489.535
3501 0 56.0248 14.8684 833 98.2473 189.639 484.939
3502 0 56.0394 16.3813 918 95.4216 190.63 476.371
3503 0 56.0491 14.523 814 99.6032 190.565 479.625
3504 0 57.0236 14.4677 825 99.3212 190.122 477.326
3505 0 55.0717 14.0544 774 102.868 189.901 484.191
3506 0 56.0798 13.4986 757 101.703 190.061 485.431
3507 0 57.0422 15.4973 884 96.491 190.472 484.103
3508 0 57.0983 15.5346 887 95.9098 190.212 482.17
3509 0 57.1091 14.5336 830 98.4868 190.398 484.443
3510 0 56.0675 15.41 864 97.39 190.484 484.683
3511 0 59.1287 17.8424 1055 89.0057 190.53 484.163
3512 0 56.0916 14.6011 819 98.7265 190.956 483.846
3513 0 57.0369 15.1305 863 96.9038 190.067 484.2
