time division length width area intensity CMx CMy
0 0 73.0407 11.0076 804 99.7823 203.224 464.148
1 0 73.123 9.95583 728 101.326 202.706 462.801
2 0 76.1494 10.4925 799 99.7297 203.369 462.358
3 0 75.0811 8.80381 661 102.372 202.862 459.051
4 0 82.1192 11.3007 928 97.7435 203.108 458.199
5 0 83.1112 9.85427 819 96.9536 202.984 452.824
6 0 87.0474 10.8102 941 95.6759 203.802 451.147
7 0 89.0646 9.91415 883 97.8131 203.135 446.798
8 0 93.1812 9.96983 929 97.6738 203.165 443.003
9 0 96.1637 10.2429 985 97.9533 202.411 443.481
10 0 99.1386 11.963 1186 95.9081 202.394 445.648
11 0 102.147 11.2975 1154 97.0945 202.503 448.5
12 0 107.185 11.3542 1217 97.7584 205.808 448.39
13 0 107.174 10.1051 1083 101.456 205.309 446.568
14 0 114.252 10.9932 1256 103.499 205.134 444.226
15 0 116.203 10.5592 1227 104.629 204.397 443.303
16 1 67.1242 10.339 694 94.0937 204.425 468.429
17 0 70.1003 12.5106 877 89.6739 204.076 467.016
18 0 71.1279 10.9521 779 92.5315 204.772 465.476
19 0 74.0962 12.1329 899 90.6107 204.507 464.89
20 0 75.0657 11.6831 877 91.2611 205.267 464.609
21 0 80.1371 12.6159 1011 90.2097 204.868 461.351
22 0 81.1911 12.5999 1023 90.8602 204.055 461.54
23 0 85.3048 11.6406 993 91.7422 204.602 459.489
24 0 86.4114 12.4405 1075 91.9944 205.585 456.32
25 0 90.2933 12.703 1147 93.4821 205.01 455.59
26 0 89.4398 10.5099 940 100.461 204.274 454.682
27 0 94.3107 12.3422 1164 97.372 205.483 455.043
28 0 97.1868 11.8123 1148 99.5775 204.57 452.089
29 0 98.3115 11.962 1176 100.909 205.392 449.58
30 0 103.364 13.0413 1348 99.2025 205.006 448.189
31 0 106.23 12.8401 1364 99.7141 205.719 448.021
32 0 110.243 12.9713 1430 99.572 205.46 447.008
33 0 112.199 10.5972 1189 105.178 205.082 446.522
34 1 65.1658 11.9695 780 92.4487 205.567 468.095
35 0 65.0853 11.047 719 94.9499 204.638 462.207
36 0 65.1816 10.9233 712 97.2289 204.577 464.063
37 0 66.102 11.9966 793 97.459 204.146 462.831
38 0 70.1465 10.7774 756 99.381 205.017 461.84
39 0 71.1049 12.1229 862 99.0487 204.97 459.426
40 0 73.107 13.022 952 97.8414 205.716 459.517
41 0 75.134 11.3397 852 102.455 205.637 457.9
42 0 78.2134 11.4942 899 102.327 205.393 458.694
43 0 81.1611 11.6682 947 103.692 206.025 457.411
44 0 82.1359 11.5662 950 104.56 204.841 456.44
45 0 86.1651 13.7527 1185 101.527 205.095 453.947
46 0 88.131 13.3097 1173 103.388 205.484 446.719
47 0 90.3319 11.4245 1032 109.143 204.736 445.278
48 0 94.1877 12.5813 1185 106.443 205.865 449.592
49 0 95.1252 12.8567 1223 107.867 205.783 448.059
50 0 98.2384 12.7241 1250 108.844 205.119 448.699
51 0 98.2706 11.7431 1154 112.237 205.962 447.539
52 0 102.185 13.4658 1376 110.624 204.459 443.836
53 0 107.256 12.8012 1373 112.569 205.344 445.844
54 0 111.247 13.4835 1500 111.221 204.704 446.801
55 0 114.222 12.537 1432 114.134 205.23 443.921
56 0 117.347 13.0383 1530 113.325 204.326 442.963
57 0 118.211 12.1816 1440 118.111 205.693 438.817
58 0 125.387 13.6776 1715 115.879 204.887 437.099
59 0 128.16 12.8043 1641 118.225 204.377 436.885
60 0 133.252 12.9379 1724 117.964 204.777 436.89
61 0 140.139 14.2002 1990 115.215 204.813 434.472
62 1 78.0621 12.8615 1004 111.507 204.774 464.539
63 0 80.1683 12.8979 1034 117.65 205.202 461.508
64 0 82.1893 13.0431 1072 127.558 205.94 456.615
65 0 86.1932 13.9802 1205 122.396 204.626 456.631
66 0 87.2418 13.6861 1194 123.365 204.59 456.16
67 0 90.1193 13.4044 1208 124.325 204.195 455.312
68 0 93.227 13.923 1298 122.951 204.674 454.465
69 0 96.1476 13.2713 1276 124.596 204.73 452.668
70 0 98.3894 13.599 1338 123.188 205.105 453.497
71 0 101.303 13.5534 1373 124.446 204.742 450.194
72 0 103.171 12.6974 1310 126.691 204.878 448.3
73 0 107.149 13.7846 1477 122.828 204.293 447.775
74 0 110.258 14.1849 1564 122.722 204.826 446.855
75 0 110.302 12.9826 1432 127.499 204.175 442.969
76 0 114.25 14.0131 1601 123.995 204.996 442.265
77 0 118.241 13.9884 1654 124.466 204.623 440.463
78 0 123.196 14.205 1750 123.326 204.657 438.173
79 0 126.369 13.8483 1750 125.545 205.192 435.458
80 0 132.23 14.3463 1897 125.3 205.059 434.971
81 0 136.2 14.1997 1934 125.982 205.338 433.223
82 0 140.139 14.4 2018 124.782 205.523 430.449
83 0 146.151 14.6629 2143 122.669 204.75 425.706
84 1 82.1694 12.2917 1010 115.87 205.356 453.06
85 0 85.2033 11.3141 964 116.034 205.572 454.343
86 0 89.1443 12.6424 1127 121.101 204.975 457.947
87 0 93.2861 12.8744 1201 120.533 205.035 456.089
88 0 96.1906 13.203 1270 120.058 204.836 453.883
89 0 97.2043 12.232 1189 122.059 205.294 453.922
90 0 100.162 13.7977 1382 119.521 205.344 449.31
91 0 103.223 13.3497 1378 120.933 205.631 449.603
92 0 104.181 12.4879 1301 115.295 204.723 449.331
93 0 107.254 12.2699 1316 113.73 204.223 448.345
94 0 112.206 13.2524 1487 111.148 204.823 446.987
95 0 116.143 12.9926 1509 112.053 204.476 445.105
96 0 121.229 13.1157 1590 111.964 204.826 441.925
97 0 125.224 12.7531 1597 112.172 205.112 440.584
98 0 128.29 12.0352 1544 111.68 205.176 439.358
99 1 71.0765 10.2706 730 99.5521 205.599 464.873
100 0 76.0419 11.875 903 102.491 206.399 464.038
101 0 77.0767 12.7665 984 102.543 204.943 462.295
102 0 80.0519 12.2546 981 102.975 204.949 461.376
103 0 83.1059 13.0436 1084 102.268 205.283 458.857
104 0 86.0407 12.2616 1055 102.975 205.853 461.039
105 0 89.1246 13.0492 1163 102.043 205.452 459.272
106 0 91.076 12.2425 1115 106.532 205.384 456.806
107 0 92.1596 11.0243 1016 110.114 204.153 454.185
108 0 95.1055 13.1328 1249 105.972 204.804 453.204
109 0 96.0878 11.4791 1103 109.11 204.461 449.811
110 0 100.118 11.926 1194 105.287 204.956 449.7
111 0 104.096 11.4798 1195 107.988 205.055 447.604
112 0 105.132 11.6805 1228 108.763 205.585 447.748
113 0 113.209 11.757 1331 107.477 204.739 446.98
114 0 115.061 10.3337 1189 111.55 205.403 443.215
115 0 120.192 10.2919 1237 111.838 204.023 441.447
116 1 69.1163 10.996 760 101.558 205.22 466.604
117 0 74.2138 11.0492 820 100.268 204.905 466.27
118 0 78.1256 11.5839 905 106.122 204.334 464.498
119 0 81.2046 12.4254 1009 100.114 204.37 455.967
120 0 82.1266 10.0455 825 104.967 204.048 461.234
121 0 85.1561 11.3674 968 104.156 203.965 460.555
122 0 83.2855 10.5421 878 103.1 203.278 461.144
123 0 92.1483 12.0675 1112 102.46 204.558 454.629
124 0 96.1437 13.0638 1256 101.92 202.889 452.386
125 0 100.134 11.215 1123 105.934 203.238 453.525
126 0 100.136 12.7627 1278 103.818 203.752 450.841
127 0 106.166 12.8289 1362 104.315 203.067 445.883
128 0 106.228 12.285 1305 107.294 203.906 446.054
129 0 111.298 12.9562 1442 105.524 203.487 445.098
130 0 114.29 12.5645 1436 107.614 204.283 441.14
131 1 62.3001 10.7544 670 98.6388 204.784 469.101
132 0 61.3125 12.787 784 97.1097 204.307 465.133
133 0 64.1845 12.0122 771 97.537 204.514 462.691
134 0 66.1078 11.9502 790 97.3734 204.618 464.215
135 0 66.204 10.664 706 100.511 204.506 464.198
136 0 69.2586 11.8397 820 98.8354 205.333 464.879
137 0 70.2405 11.2471 790 100.438 205.254 467.609
138 0 71.1062 10.0132 712 103.973 204.597 464.16
139 0 76.1055 11.852 902 100.303 204.078 463.091
140 0 78.0888 11.9735 935 100.22 204.61 461.686
141 0 81.2187 12.3494 1003 98.8893 204.772 460.93
142 0 85.1068 12.5607 1069 97.8924 204.307 460.02
143 0 87.1288 12.8086 1116 97.9229 204.113 458.275
144 0 89.2434 11.5975 1035 100.339 205.196 455.508
145 0 93.1149 11.3516 1057 99.1145 204.883 459.114
146 0 96.1939 12.8386 1235 98.9992 204.65 454.266
147 0 98.2084 12.6364 1241 99.2804 204.486 452.328
148 0 101.104 12.7789 1292 100.103 204.135 449.898
149 0 106.174 12.4513 1322 100.396 203.43 446.222
150 0 108.136 12.6322 1366 99.4649 203.668 437.504
151 0 113.244 13.2987 1506 97.2596 202.037 439.242
152 0 115.199 12.9515 1492 98.8968 203.691 436.489
153 0 118.124 13.1725 1556 99.4351 203.764 431.211
154 0 123.384 12.6677 1563 101.997 203.763 433.909
155 1 70.2149 11.8351 831 96.5945 203.812 462.582
156 0 71.2256 10.7546 766 100.142 203.371 463.672
157 0 74.186 12.0778 896 101.627 203.328 459.165
158 0 75.0929 10.2406 769 99.2458 203.287 460.308
159 0 81.0975 12.6638 1027 94.8968 203.286 458.374
160 0 83.1616 12.5539 1044 96.2797 203.407 453.75
161 0 86.1025 13.5652 1168 94.5985 203.523 453.151
162 0 88.1938 12.4839 1101 96.3797 203.471 453.132
163 0 89.2313 11.4198 1019 98.5319 202.938 452.933
164 0 94.214 12.8643 1212 96.5693 202.6 451.059
165 0 96.2742 12.3709 1191 97.7615 202.857 448.031
166 0 100.109 11.9071 1192 98.6409 202.654 446.847
167 0 98.2214 12.0849 1187 98.0034 203.354 438.644
168 0 101.088 11.6631 1179 97.7116 203.154 437.464
169 0 104.165 12.4226 1294 95.7983 203.65 437.706
170 0 106.406 12.8753 1370 99.465 203.462 438.758
171 0 110.22 11.6857 1288 102.665 203.809 428.906
172 0 112.267 11.535 1295 102.008 203.354 434.31
173 0 119.235 12.6137 1504 99.7048 203.506 431.555
174 0 122.327 12.6383 1546 99.7568 203.847 430.287
175 0 125.261 12.6456 1584 104.393 204.27 424.778
176 1 64.2846 9.4735 609 97.578 204.356 454.445
177 0 74.0831 12.594 933 99.4587 205.218 458.781
178 0 77.0748 12.4684 961 100.837 203.843 459.739
179 0 79.0538 12.5864 995 101.876 204.399 456.08
180 0 84.161 12.6068 1061 99.8096 204.065 457.483
181 0 87.2542 13.2143 1153 104.211 203.398 455.795
182 0 89.1842 12.3228 1099 105.228 204.504 454.672
183 0 93.1099 13.3391 1242 101.218 203.874 454.699
184 0 95.1709 12.3147 1172 103.729 203.931 450.811
185 0 99.2515 11.889 1180 103.531 203.577 451.387
186 0 101.275 12.629 1279 103.163 203.206 448.407
187 0 103.099 11.0088 1135 106.337 203.478 446.257
188 0 106.234 11.3711 1208 105.587 202.704 443.679
189 0 110.293 12.9473 1428 103.007 203.255 442.6
190 0 111.179 11.0722 1231 106.699 202.808 439.484
191 0 117.265 12.3908 1453 104.178 202.936 439.554
192 0 121.233 12.4966 1515 104.358 202.924 437.412
193 0 122.101 11.5151 1406 106.946 202.943 435.341
194 0 130.306 14.5734 1899 99.2965 202.156 432.842
195 0 133.243 13.6292 1816 101.841 203.288 431.917
196 0 136.218 13.6252 1856 103.05 202.348 429.42
197 0 141.301 13.772 1946 103.04 202.533 430.035
198 0 143.256 12.7883 1832 106.94 203.171 428.007
199 0 148.228 14.3495 2127 103.681 202.392 425.053
200 0 152.195 14.0347 2136 106.604 203.055 422.424
201 0 156.191 14.0213 2190 109.006 202.535 420.375
202 0 162.19 14.853 2409 108.724 202.487 416.572
203 0 167.337 13.7089 2294 110.296 202.926 414.324
204 0 170.204 13.5544 2307 111.173 203.029 414.296
205 0 176.259 14.5411 2563 109.357 202.575 410.904
206 0 181.265 14.4871 2626 110.098 201.959 407.873
207 0 185.338 13.8665 2570 113.299 202.507 403.194
208 0 193.221 14.2479 2753 112.618 201.965 405.029
209 0 199.332 15.276 3045 110.544 202.844 402.748
210 0 205.341 15.7007 3224 108.878 202.769 398.028
211 0 212.673 15.3569 3266 112.302 203.156 391.028
212 0 218.34 14.4224 3149 113.34 202.75 388.536
213 1 55.1444 9.68367 534 99.2846 203.871 472.313
214 0 55.225 12.1322 670 93.1179 203.11 471.549
215 0 57.1141 10.6103 606 95.6271 204.36 473.335
216 0 59.0881 12.9298 764 92.7618 204.705 470.665
217 0 61.0601 10.94 668 95.3234 205.404 470.832
218 0 62.1209 11.0591 687 96.917 205.157 468.914
219 0 63.1509 9.96027 629 98.3593 204.846 469.987
220 0 65.0384 11.0243 717 97.8075 204.781 468.368
221 0 67.0609 10.5874 710 100.532 204.246 467.185
222 0 71.1636 10.5953 754 100.328 205.069 466.379
223 0 71.0827 11.972 851 99.2385 204.071 463.926
224 0 74.0537 12.1398 899 100.333 204.793 461.933
225 0 78.2507 11.4759 898 100.913 204.981 463.957
226 0 77.2371 11.9114 920 101.577 204.791 463.704
227 0 80.0557 9.89311 792 105.79 204.106 463.841
228 0 84.1714 11.3697 957 102.96 204.293 461.969
229 0 87.0866 13.3086 1159 99.3615 203.583 455.46
230 0 89.2614 12.2785 1096 101.978 204.33 455.725
231 0 91.2492 10.9809 1002 104.146 204.367 455.096
232 0 97.2441 12.011 1168 100.85 205.013 454.068
233 0 100.122 11.8056 1182 100.041 204.387 452.298
234 1 60.0979 10.3831 624 100.045 204.401 469.979
235 0 64.082 11.9378 765 98.3621 204.522 467.881
236 0 65.2897 11.3035 738 98.7317 204.863 470.423
237 0 67.2317 12.4495 837 95.8232 204.076 468.335
238 0 71.1479 12.2562 872 95.9197 203.913 468.962
239 0 69.132 11.9482 826 98.7094 204.231 466.708
240 0 71.1689 13.9387 992 90.8579 204.369 466.944
241 1 89.2782 16.835 1503 80.0492 203.903 456.114
242 0 89.1968 19.6083 1749 76.6066 203.99 452.611
243 1 171.249 10.2424 1754 102.552 203.563 417.686
244 0 170.334 9.06453 1544 105.648 204.301 424.516
245 0 164.274 10.8781 1787 104.452 204.039 425.041
246 0 170.166 9.10289 1549 109.817 203.806 423.937
247 0 174.272 10.6156 1850 106.189 203.533 425.178
248 0 175.43 11.4633 2011 106.559 203.639 419.024
249 0 174.286 11.6074 2023 107.516 204.03 422.025
250 1 99.2734 18.162 1803 90.8869 204.658 449.92
251 0 98.3298 16.3124 1604 98.9364 204.367 450.708
252 0 100.18 15.3324 1536 104.171 204.094 452.234
253 0 102.252 14.8163 1515 102.975 205.061 450.696
254 1 59.0555 12.3951 732 108.208 204.693 472.045
255 0 61.1473 12.6743 775 107.551 204.12 469.692
256 0 61.0686 12.0029 733 102.939 203.899 463.587
257 0 62.0993 11.691 726 102.324 204.698 461.366
258 0 64.086 12.2492 785 94.9987 204.51 460.149
259 0 63.1988 10.2534 648 100.221 204.114 455.935
260 0 65.1259 10.0114 652 100.995 204.963 456.586
261 0 68.0631 11.8126 804 97.5672 205.025 460.43
262 0 72.0878 11.8605 855 97.7883 204.428 455.011
263 0 71.0889 10.0719 716 102.448 203.885 453.899
264 0 73.155 11.6739 854 100.624 203.665 453.269
265 0 76.0795 11.764 895 100.057 204.58 457.287
266 0 79.1759 11.2029 887 99.3957 203.723 457.775
267 0 82.0833 12.5604 1031 96.7468 204.076 456.52
268 0 86.257 10.9672 946 98.6818 204.462 455.26
269 0 87.2584 11.8842 1037 99.1186 203.507 451.804
270 0 91.2403 12.5054 1141 97.1744 204.741 450.411
271 0 93.2444 12.7193 1186 98.0363 204.394 449.663
272 0 97.2794 12.644 1230 98.2268 203.566 447.875
273 0 99.328 12.8866 1280 99.4242 204.037 444.454
274 0 105.229 13.2187 1391 107.819 204.594 448.334
275 0 108.2 13.5489 1466 107.042 204.278 445.259
276 0 112.313 13.1419 1476 106.337 204.891 445.199
277 0 116.266 13.2627 1542 105.008 205.212 443.547
278 0 120.282 12.0883 1454 102.327 204.68 436.476
279 1 65.3183 10.0891 659 93.0501 205.522 458.815
280 0 67.1259 10.3686 696 92.5259 204.611 463.128
281 0 69.1036 13.0384 901 90.5372 204.425 461.909
282 0 71.0567 11.9482 849 90.2438 204.416 465.684
283 0 72.074 9.92037 715 94.1091 205.443 464.648
284 0 77.1692 12.0514 930 92.0387 205.433 463.969
285 0 81.089 12.8377 1041 90.1614 205.576 463.126
286 0 81.1651 11.2733 915 94.2525 205.411 459.528
287 0 84.1074 11.0573 930 96.3882 205.046 457.516
288 0 88.2842 14.0002 1236 93.0316 204.889 454.802
289 0 90.2216 12.6134 1138 95.775 205.046 455.844
290 0 93.1195 12.4893 1163 95.534 205.155 456.833
291 0 95.118 12.1743 1158 97.4991 204.702 452.752
292 0 98.4018 12.4896 1229 98.0627 204.142 445.668
293 0 100.244 11.2725 1130 100.428 203.679 444.659
294 0 105.23 12.0973 1273 98.392 204.274 445.858
295 0 107.348 13.3771 1436 96.7249 204.338 441.728
296 0 108.207 12.0787 1307 100.577 203.282 440.577
297 0 114.224 12.423 1419 99.8027 203.396 438.044
298 0 118.362 12.7406 1508 99.7666 203.483 439.107
299 1 67.2267 11.6323 782 95.2366 204.402 463.689
300 0 67.1294 11.8279 794 97.5516 204.652 462.689
301 0 72.1152 12.8822 929 94.9612 204.48 465.792
302 0 73.3437 11.862 870 97.9368 204.651 461.432
303 0 76.4036 12.9706 991 96.6155 203.681 459.11
304 0 77.4572 11.2578 872 101.117 204.183 457.436
305 0 81.4971 11.7182 955 100.867 204.158 456.677
306 0 83.351 12.5014 1042 99.1977 204.1 455.865
307 0 86.3112 12.6982 1096 101.076 204.385 450.268
308 0 89.4039 12.382 1107 102.184 204.143 451.97
309 0 91.3013 12.8476 1173 102.251 204.732 449.371
310 0 96.2356 13.0513 1256 101.666 204.627 448.482
311 0 95.2606 11.7257 1117 105.214 204.681 448.953
312 0 98.2838 12.1587 1195 105.092 204.792 446.019
313 0 104.359 12.8498 1341 104.33 204.91 443.662
314 0 107.324 12.2806 1318 106.211 204.851 442.922
315 0 109.286 12.3895 1354 106.964 205.332 440.45
316 0 114.346 13.6428 1560 104.4 205.523 441.35
317 0 117.328 12.8699 1510 106.854 204.922 438.842
318 0 121.331 12.2722 1489 109.357 204.631 436.469
319 0 124.29 12.9213 1606 108.352 204.86 433.859
320 1 72.237 12.6666 915 100.336 205.027 462.067
321 0 75.2812 12.3537 930 101.957 203.889 461.037
322 0 75.1853 12.0502 906 104.042 204.978 461.266
323 0 78.3198 12.2064 956 104.152 204.535 458.764
324 0 82.3698 14.01 1154 101.919 204.96 458.191
325 0 84.2587 12.699 1070 105.196 204.466 457.421
326 0 87.1431 13.277 1157 105.927 205.366 455.106
327 0 90.3289 14.6465 1323 103.425 204.562 454.892
328 0 90.3969 12.8434 1161 108.384 205.473 454.994
329 0 94.2858 14.7742 1393 106.146 205.022 451.098
330 0 98.2628 14.909 1465 106.245 205.19 450.927
331 0 101.33 14.6649 1486 107.025 204.789 450.627
332 0 103.381 14.1226 1460 109.768 205.107 448.814
333 0 106.516 14.0072 1492 109.176 204.712 447.353
334 0 109.501 14.5113 1589 108.954 204.522 445.411
335 0 111.198 13.4984 1501 111.433 205.237 445.434
336 0 117.182 15.8984 1863 106.047 205.274 442.663
337 0 119.161 14.1154 1682 110.966 205.309 438.879
338 0 124.3 15.5913 1938 106.95 205.217 437.732
339 0 126.302 14.2278 1797 110.371 205.645 435.715
340 0 132.278 14.3485 1898 108.445 204.926 435.932
341 1 76.137 11.6238 885 107.888 205.767 463.131
342 0 79.2916 12.8387 1018 106.499 205.389 461.521
343 0 83.1818 14.0656 1170 107.034 205.749 458.109
344 0 84.2534 13.0915 1103 110.076 205.542 455.867
345 0 89.1286 14.0808 1255 108.324 205.312 454.19
346 0 92.2687 13.7533 1269 109.25 205.177 452.162
347 0 95.3053 13.5564 1292 109.33 205.531 454.19
348 0 99.1411 15.0493 1492 107.736 205.146 449.885
349 0 103.151 14.0377 1448 108.497 204.946 450.523
350 0 105.076 13.3332 1401 111.76 204.852 447.86
351 0 108.181 14.1984 1536 110.64 204.756 444.186
352 0 111.218 15.3213 1704 108.45 204.331 441.897
353 0 115.153 14.9453 1721 108.859 204.176 442.17
354 0 119.098 13.8122 1645 111.28 204.16 439.696
355 0 124.222 14.0394 1744 110.68 204.737 439.948
356 0 128.293 13.968 1792 111.367 204.233 436.233
357 0 131.265 13.9718 1834 111.435 203.92 430.355
358 0 138.241 15.8781 2195 105.87 204.387 427.148
359 1 79.1511 13.6701 1082 105.593 203.808 460.384
360 0 82.2213 13.1596 1082 108.933 204.387 456.177
361 0 84.336 13.1261 1107 108.017 203.827 456.959
362 0 86.1047 12.7868 1101 109.816 204.705 455.364
363 0 89.2693 12.7591 1139 109.145 204.773 454.477
364 0 91.1156 13.0933 1193 109.791 204.143 451.389
365 0 96.3135 13.3626 1287 108.563 204.527 450.866
366 0 99.4586 14.036 1396 107.69 204.516 447.226
367 0 105.532 13.3324 1407 108.022 203.711 448.335
368 0 105.381 13.6458 1438 109.744 204.877 442.116
369 0 111.361 13.8917 1547 107.826 204.069 442.979
370 0 113.353 14.1857 1608 108.175 204.606 440.79
371 0 118.481 15.4455 1830 104.832 205.027 439.244
372 0 122.543 14.7866 1812 105.607 204.323 436.962
373 0 125.27 14.0657 1762 106.647 204.779 434.718
374 0 130.451 14.5956 1904 104.999 204.256 432.718
375 0 135.433 14.3466 1943 105.462 204.905 432.38
376 0 140.553 15.0192 2111 104.343 204.018 426.616
377 0 145.444 14.6517 2131 105.354 203.858 424.634
378 1 82.3117 11.7845 970 99.8938 203.906 459.02
379 0 85.4248 12.8651 1099 99.232 203.673 458.345
380 0 86.1499 12.5827 1084 100.938 204.22 457.527
381 0 91.167 12.8884 1175 98.3055 203.499 454.947
382 0 93.0694 13.5705 1263 98.1734 204.027 453.3
383 0 97.1706 12.936 1257 99.0255 204.331 455.048
384 0 98.1339 12.7683 1253 102.735 204.259 450.038
385 0 103.137 12.75 1315 103.897 203.905 445.918
386 0 107.099 13.4455 1440 101.986 203.605 437.222
387 0 111.237 13.1971 1468 103.25 203.808 435.967
388 0 113.132 12.4368 1407 102.874 204.06 436.275
389 0 116.18 12.5925 1463 103.746 204.01 434.939
390 0 120.218 12.469 1499 104.33 203.636 435.767
391 0 124.19 14.043 1744 101.275 203.96 435.734
392 0 129.197 14.4895 1872 100.462 203.26 436.669
393 0 131.112 14.2779 1872 102.265 203.714 433.197
394 0 137.433 13.9559 1918 103.753 203.095 428.416
395 0 141.226 12.5048 1766 106.897 204.181 427.195
396 0 148.188 14.3804 2131 103.267 203.438 428.21
397 0 153.357 12.9567 1987 107.647 204.252 423.326
398 1 87.1678 12.7914 1115 96.9489 203.955 456.158
399 0 88.218 10.7121 945 100.927 204.495 452.369
400 0 93.1209 11.877 1106 100.797 204.224 456.521
401 0 97.268 12.1828 1185 100.024 203.789 451.449
402 0 102.261 12.5953 1288 99.9682 204.401 450.368
403 0 102.14 12.7863 1306 101.32 204.322 448.617
404 0 106.133 13.9353 1479 98.9682 204.42 449.401
405 0 110.132 13.5655 1494 100.601 205.367 447.816
406 0 112.203 12.7626 1432 103.098 203.963 444.76
407 0 116.213 13.5097 1570 101.023 204.36 442.885
408 0 117.412 13.261 1557 103.352 203.691 438.961
409 0 123.276 12.8898 1589 103.581 203.937 440.668
410 0 126.155 13.2297 1669 103.412 203.704 437.293
411 0 129.189 13.5538 1751 102.941 204.053 436.573
412 0 134.15 12.9258 1734 104.188 203.725 434.322
413 0 139.194 13.3986 1865 102.961 203.839 431.213
414 0 144.26 13.8638 2000 102.376 204.286 427.688
415 0 151.292 14.2374 2154 102.058 203.223 425.794
416 0 155.318 14.5765 2264 102.513 204.364 418.472
417 0 159.239 14.7388 2347 101.823 204.021 419.359
418 1 91.1481 10.8066 985 98.9411 203.655 452.484
419 0 95.3355 10.3949 991 99.1907 202.912 452.141
420 0 97.1933 12.2025 1186 96.2749 203.073 448.03
421 0 100.074 12.6506 1266 99.8397 203.149 446.276
422 0 105.317 13.3027 1401 97.6817 203.881 449.557
423 0 106.102 11.5832 1229 101.655 204.041 447.934
424 0 110.18 12.7791 1408 99.902 204.415 443.692
425 0 114.233 13.8926 1587 97.2924 204.043 443.142
426 0 117.215 12.2168 1432 100.95 203.799 440.918
427 0 123.267 13.1747 1624 98.8633 204.908 440.004
428 0 126.3 13.0008 1642 99.5457 203.146 436.04
429 0 130.4 13.1288 1712 99.9141 203.697 434.145
430 0 134.351 13.0256 1750 100.258 203.832 434.849
431 0 139.363 12.6217 1759 100.463 204.239 432.81
432 0 143.195 13.9321 1995 99.7709 203.894 429.206
433 0 149.265 14.0153 2092 98.5277 203.792 428.331
434 0 155.321 13.0826 2032 99.3991 204.471 427.627
435 0 159.353 14.0129 2233 99.5862 203.57 420.447
436 0 164.312 13.3101 2187 102.009 203.829 417.779
437 1 97.2485 10.8279 1053 94.5366 203.915 451.358
438 0 99.2104 11.4 1131 95.4085 203.11 453.03
439 0 101.257 11.5152 1166 96.2367 204.231 453.021
440 0 105.219 12.2221 1286 95.944 203.437 449.506
441 0 108.123 11.043 1194 96.6424 203.802 447.435
442 0 114.121 12.4868 1425 95.7102 204.415 448.886
443 0 116.179 13.2468 1539 102.718 204.09 443.48
444 0 120.189 12.73 1530 104.542 203.638 439.617
445 0 124.147 12.6624 1572 105.14 203.237 437.889
446 0 129.255 13.044 1686 103.632 203.477 439.052
447 0 131.283 13.1548 1727 104.584 204.415 434.011
448 0 136.237 12.6837 1728 104.752 204.107 431.778
449 0 142.16 12.9643 1843 103.32 204.204 430.381
450 0 146.382 13.1915 1931 102.503 203.361 424.114
451 0 151.338 12.2838 1859 102.378 203.902 422.741
452 0 158.184 12.9154 2043 100.363 203.94 419.479
453 0 161.41 11.4863 1854 102.439 203.928 416.437
454 0 168.332 13.4377 2262 100.186 202.884 411.017
455 0 172.32 13.5272 2331 101.398 202.924 409.779
456 0 177.386 13.6144 2415 101.839 203.737 409.009
457 0 184.416 13.5671 2502 102.195 204.34 406.723
458 0 190.592 14.0929 2686 101.79 203.883 404.265
459 0 196.405 13.7115 2693 102.488 204.197 401.982
460 0 202.559 13.759 2787 102.481 203.855 400.903
461 0 206.351 12.9876 2680 105.325 204.081 395.213
462 0 216.511 13.5651 2937 104.352 203.947 392.01
463 0 221.389 13.8128 3058 105.358 203.288 386.902
464 0 228.637 14.5689 3331 103.875 203.231 377.322
465 0 234.35 12.5326 2937 109.564 202.74 372.615
466 0 239.504 13.553 3246 107.341 203.472 369.893
467 0 248.422 13.2195 3284 108.991 202.607 367.233
468 0 259.589 14.573 3783 106.388 203.041 363.544
469 0 267.426 14.7854 3954 107.673 202.771 358.045
470 0 275.502 13.5643 3737 110.044 202.221 355.846
471 1 68.2248 9.73253 664 88.9744 203.471 464.953
472 0 69.2188 9.26049 641 91.5523 203.535 462.772
473 0 73.2558 10.9752 804 89.2886 203.633 464.633
474 0 73.194 11.0665 810 90.9309 203.54 464.328
475 0 73.243 11.4277 837 91.0418 203.281 464.37
476 0 78.0814 11.4624 895 92.7844 203.764 462.036
477 0 79.0704 9.78874 774 96.2946 203.616 462.273
478 0 80.1712 11.5628 927 94.9687 203.04 461.663
479 0 82.0945 11.7426 964 95.3869 202.796 459.69
480 0 84.182 11.1188 936 98.2457 202.598 456.878
481 0 84.1912 11.6521 981 96.7808 202.781 455.593
482 0 87.2772 12.3744 1080 94.8537 203.068 454.4
483 0 87.2232 10.8113 943 98.1994 202.803 453.75
484 0 359.421 16.3457 5875 104.551 202.735 286.032
485 0 10.001 5.59945 56 71.5 204.375 464.089
486 0 10.0018 4.09925 41 74.1463 206.049 472.049
487 0 13.0081 6.22689 81 72.8765 204.753 480.259
488 0 13.007 6.30429 82 71.3293 204.11 487.134
489 0 17.0142 4.64318 79 75.3165 204.62 489.658
490 0 20.1127 8.2535 166 72.0904 204.783 490.054
491 0 22.088 6.56465 145 76.3931 204.779 489.593
492 0 376.83 14.9139 5620 102.488 202.594 290.031
494 0 194.535 15.6784 3050 82.3187 203.153 401.956
495 0 193.545 16.3941 3173 82.1469 203.341 401.648
496 0 199.517 15.8683 3166 83.0379 203.653 400.286
497 0 204.936 14.5216 2976 86.1351 203.406 393.197
498 0 211.735 14.6504 3102 86.7376 202.395 391.269
499 0 217.862 15.3767 3350 87.0919 203.219 388.126
500 0 223.676 14.7848 3307 89.6834 203.328 382.51
501 0 227.515 13.2783 3021 94.0801 203.192 374.47
502 0 236.564 15.7082 3716 89.1173 202.409 371.912
503 0 244.832 15.2104 3724 90.1284 202.324 370.715
504 0 252.792 14.1698 3582 92.3216 202.719 361.792
505 0 258.701 15.4812 4005 90.8879 202.491 361.341
506 0 268.437 15.5753 4181 91.9271 202.776 357.105
507 0 274.593 14.964 4109 93.5247 201.861 358.564
508 0 282.674 15.4454 4366 93.9622 202.258 352.126
509 0 290.597 16.6175 4829 92.637 202.015 347.456
510 0 299.534 15.4173 4618 95.7341 202.165 338.398
511 1 248.402 12.7656 3171 99.4932 202.186 373.233
512 0 255.288 11.8102 3015 101.28 201.701 373.278
513 0 264.218 11.4867 3035 102.725 202.332 364.554
514 0 271.502 12.0883 3282 100.771 202.832 366.448
515 0 280.458 13.4352 3768 98.9387 203.174 362.333
516 0 287.59 13.3558 3841 99.3965 202.267 353.997
517 0 296.478 14.5812 4323 97.1538 202.604 345.073
518 0 299.566 14.7413 4416 96.9728 202.29 338.735
519 0 310.582 17.0809 5305 92.2 203.211 333.643
520 0 320.638 16.5108 5294 91.2811 202.557 327.261
521 0 329.603 15.4246 5084 93.453 202.475 329.659
522 1 266.43 12.3484 3290 98.3733 202.832 364.611
523 0 271.474 11.8869 3227 99.6566 202.857 353.346
524 1 68.1664 11.0905 756 88.1772 202.907 462.89
525 0 70.1758 12.2692 861 86.0511 203.181 463.807
526 0 68.1293 10.5535 719 81.7761 203.79 468.006
527 0 70.0927 9.8013 687 82.7991 203.413 469.496
528 0 71.1058 11.9118 847 81.608 203.041 464.406
529 0 76.1069 9.4341 718 84.1393 204.047 465.366
530 0 75.0722 11.1359 836 83.5048 202.52 462.303
531 0 77.0594 11.1862 862 84.0429 203.356 461.455
532 0 77.1342 11.0327 851 85.7015 202.653 461.706
533 0 80.0965 10.0504 805 87.2075 203.257 456.924
534 0 83.1546 11.6289 967 86.2254 202.914 456.118
535 0 88.2237 11.3575 1002 84.7784 203.193 457.116
536 0 91.1666 12.8227 1169 83.1617 203.364 447.666
537 0 96.2494 13.6209 1311 82.0542 203.468 448.218
538 0 97.3889 13.328 1298 84.2273 202.525 448.09
539 0 97.2295 13.0207 1266 85.44 202.527 445.097
540 0 105.078 17.0731 1794 77.4788 202.868 436.659
541 0 105.147 14.7603 1552 84.3634 203.514 439.918
542 0 107.172 12.5406 1344 88.1741 203.315 443.889
543 0 108.385 11.413 1237 90.0299 203.442 442.15
544 0 127.237 14.414 1834 80.1118 203.18 432.047
545 0 122.278 13.4774 1648 81.5831 203.779 432.839
546 0 127.352 15.4375 1966 80.6226 203.646 427.143
547 0 127.426 12.313 1569 89.7279 204.3 431.978
548 0 121.322 10.2619 1245 95.6763 203.377 434.411
549 0 128.503 13.3382 1714 90.7964 203.933 429.402
550 1 101.851 17.1426 1746 70.9387 203.4 444.215
551 0 107.835 16.7756 1809 71.7927 203.778 445.945
552 0 101.092 20.9808 2121 68.4517 203.457 441.748
553 0 100.1 16.2137 1623 77.146 204.096 444.722
554 0 101.53 20.0138 2032 72.5901 203.818 440.805
555 0 97.5384 20.0741 1958 72.9203 204.23 445.64
556 0 99.3762 17.7507 1764 78.5958 202.89 443.755
557 0 101.39 16.7276 1696 81.5926 204.475 443.881
558 0 100.636 17.5583 1767 74.7719 204.135 446.626
559 0 101.463 17.0308 1728 78.4572 204.361 443.685
560 0 100.752 15.8012 1592 82.4397 204.104 440.683
561 0 100.741 16.468 1659 82.5744 203.546 447.569
562 0 100.26 14.1033 1414 89.3126 203.607 445.129
563 0 100.768 15.0544 1517 89.7284 203.372 445.496
564 0 101.446 14.7961 1501 90.7482 203.043 445.241
565 0 100.335 12.8969 1294 93.8416 203.453 447.87
566 0 104.354 13.1188 1369 92.6158 202.737 444.617
567 0 107.664 14.0344 1511 89.8729 203.508 443.643
568 0 109.66 11.9278 1308 92.9717 203.332 442.588
569 0 113.811 12.2044 1389 92.0842 203.469 441.059
570 0 116.659 12.3951 1446 90.9882 203.594 442.855
571 0 116.653 13.4072 1564 91.0301 204.072 436.015
572 0 121.58 13.5467 1647 90.779 203.174 435.458
573 0 124.781 13.087 1633 91.7495 204.147 430.863
574 0 128.794 12.555 1617 94.8306 203.543 428.463
575 0 134.544 14.1886 1909 92.2321 204.137 430.927
576 1 73.3587 12.0913 887 92.77 204.029 460.254
577 0 73.7107 11.9657 882 94.559 204.016 458.543
578 0 74.2493 13.4143 996 94.8554 203.393 454.74
579 0 78.7378 12.7893 1007 95.5104 204.037 457.017
580 0 81.6124 12.6574 1033 96.607 203.836 457.28
581 0 79.5022 11.9619 951 102.783 204.323 455.158
582 0 83.3595 12.1402 1012 102.985 204.204 454.708
583 0 84.4846 13.6356 1152 101.5 204.375 452.905
584 0 84.5437 11.8873 1005 108.753 203.179 452.668
585 0 84.3505 11.4285 964 111.799 203.127 452.912
586 0 88.3886 10.748 950 113.561 202.739 454.748
587 0 90.5729 11.7033 1060 114.187 203.542 451.219
588 0 91.428 12.4579 1139 114.608 203.025 448.138
589 0 97.4881 12.4323 1212 114.248 203.341 446.831
590 0 98.2645 12.8734 1265 115.048 202.701 446.792
591 0 103.47 12.4674 1290 115.088 203.324 446.24
592 0 107.364 11.8103 1268 117.446 202.498 444.912
593 0 106.281 11.987 1274 120.164 202.625 440.563
594 0 115.197 14.0021 1613 113.472 202.428 443.5
595 0 114.143 12.0463 1375 120.115 202.805 438.442
596 0 120.08 13.0413 1566 117.45 202.727 436.404
597 0 124.318 13.3207 1656 116.604 202.481 434.643
598 0 129.154 12.8142 1655 118.2 202.727 432.756
599 0 133.137 14.1809 1888 115.312 201.411 432.523
600 0 137.137 13.9714 1916 116.339 201.906 427.185
601 0 137.298 12.5421 1722 121.886 201.743 424.598
602 0 148.163 13.5458 2007 117.1 202.085 424.456
603 0 154.237 12.6818 1956 118.442 202.639 423.889
604 0 158.142 12.3433 1952 118.77 202.613 422.607
605 0 164.236 12.7195 2089 119.067 201.803 417.553
606 0 171.395 13.0634 2239 116.855 202.902 417.356
607 0 173.426 14.1905 2461 116.169 203.216 408.181
608 0 180.214 14.2164 2562 115.831 202.915 407.913
609 0 185.157 13.2698 2457 118.607 202.522 403.346
610 0 193.339 12.5997 2436 120.526 201.833 399.529
611 0 199.313 14.0834 2807 116.902 201.773 400.945
612 0 205.404 13.6073 2795 118.304 202.674 398.673
613 0 215.284 14.3717 3094 116.738 202.3 389.661
614 0 224.347 13.6039 3052 118.005 203.005 391.382
615 0 234.558 13.34 3129 118.873 202.177 388.566
616 0 242.465 14.3526 3480 117.171 202.3 384.477
617 0 251.461 13.2347 3328 120.297 201.742 381.819
618 0 261.528 13.7997 3609 118.178 201.263 380.239
619 0 269.379 14.7005 3960 117.629 202.53 371.322
620 0 278.407 14.996 4175 117.81 201.942 365.97
621 0 375.558 26.3208 9885 91.0733 200.901 287.253
622 1 299.429 15.9771 4784 115.923 201.95 352.384
623 1 83.2153 11.4042 949 105.761 203.563 460.985
624 0 88.229 10.8581 958 106.484 202.985 459.431
625 0 87.3072 9.09432 794 108.952 202.553 462.358
626 0 91.1886 11.4927 1048 107.71 203.004 457.16
627 0 95.1672 11.5166 1096 107.955 202.608 455.442
628 0 97.1739 11.9682 1163 109.01 202.88 451.642
629 0 101.212 11.0956 1123 110.958 202.43 449.759
630 0 107.284 11.7911 1265 111.708 202.938 449.395
631 0 107.166 11.3935 1221 114.226 203.573 446.686
632 0 112.242 11.8226 1327 113.533 203.437 444.529
633 0 115.263 10.6452 1227 109.628 202.074 445.08
634 0 116.26 10.6485 1238 111.92 203.318 441.214
635 0 123.361 10.9435 1350 111.299 202.841 438.401
636 0 125.403 11.2756 1414 110.025 203.103 436.557
637 0 130.243 10.3729 1351 113.535 202.54 431.241
638 0 133.292 10.1581 1354 112.892 204.004 428.352
639 0 138.267 9.53948 1319 115.215 203.444 421.472
640 0 146.326 11.2352 1644 110.137 203.723 426.227
641 0 147.39 9.36292 1380 116.513 203.989 420.761
642 0 157.407 11.9626 1883 109.244 203.215 424.192
643 0 158.322 10.1755 1611 116.656 203.116 409.024
644 0 166.337 10.3765 1726 114.601 202.289 412.965
645 0 171.564 9.42507 1617 117.763 202.643 409.066
646 0 177.327 11.4196 2025 113.534 202.705 406.012
647 0 182.499 8.78362 1603 122.459 202.812 388.674
648 0 191.296 10.5962 2027 117.613 202.468 396.071
649 1 101.246 7.062 715 101.199 204.352 448.4
650 0 105.159 10.6886 1124 103.882 203.158 447.331
651 0 102.241 5.35012 547 110.66 201.386 441.722
652 0 106.243 8.67823 922 104.141 201.069 446.752
653 0 108.225 8.97202 971 104.974 201.956 442.779
654 0 111.119 8.86437 985 105.408 202.25 439.688
655 0 115.234 6.91634 797 108.437 202.566 437.094
656 0 119.561 9.17522 1097 105.481 202.459 439.119
657 0 121.181 7.74871 939 109.357 202.338 436.86
658 0 127.15 7.6524 973 109.579 202.077 433.347
659 0 129.344 8.87554 1148 107.576 202.42 429.435
660 0 135.332 10.3228 1397 105.709 202.513 429.484
661 0 142.296 10.2181 1454 106.794 202.726 424.483
662 0 144.62 8.71251 1260 111.573 201.873 417.964
663 0 149.488 7.05073 1054 115.811 201.595 417.097
664 0 157.5 9.84129 1550 109.397 202.732 418.176
665 0 163.453 8.58961 1404 112.787 203.014 409.863
666 0 173.643 10.2509 1780 110.523 202.362 412.154
667 1 103.48 12.1376 1256 102.496 203.576 451.093
668 0 104.537 12.5697 1314 102.95 203.48 449.635
669 0 106.48 11.2227 1195 105.529 202.65 451.692
670 1 57.3905 9.30468 534 99.8109 203.979 474.852
671 0 60.1119 10.7965 649 96.4114 204.182 473.054
672 0 63.2691 11.0797 701 93.2939 203.481 471.626
673 0 64.2136 11.6486 748 92.0201 203.834 472.655
674 0 65.2778 11.4894 750 92.1533 204.384 472.92
675 0 66.1467 11.4443 757 94.2867 203.968 470.092
676 0 68.156 10.9455 746 96.752 203.071 470.714
677 0 69.1501 11.2364 777 96.7233 203.861 469.909
678 0 70.0821 11.7719 825 96.7224 203.432 469.668
679 0 75.0634 10.7376 806 99.0062 204.15 468.084
680 0 75.1403 12.3236 926 97.6134 204.342 466.336
681 0 77.0803 11.4037 879 105.172 204.68 463.866
682 0 78.0589 11.2864 881 108.802 204.042 465.049
683 0 83.1005 11.4319 950 110.245 204.432 461.712
684 0 86.0826 11.4541 986 111.439 203.908 461.089
685 0 88.0879 11.375 1002 111.667 204.874 458.694
686 0 91.2142 10.5905 966 114.038 204.111 457.785
687 0 95.1846 10.5059 1000 111.639 204.63 459.467
688 1 49.0189 10.1593 498 106.841 204.821 480.53
689 0 51.0515 11.1456 569 109.234 204.766 478.772
690 0 52.0433 11.2214 584 116.279 205.033 476.721
691 0 53.2547 11.8487 631 115.552 205.217 476.41
692 0 55.0749 12.3105 678 114.881 204.718 476.463
693 0 57.0809 12.1056 691 116.731 204.719 475.259
694 0 59.1528 12.9664 767 115.421 204.703 474.04
695 0 60.0711 13.201 793 115.967 204.586 474.351
696 0 60.1637 12.4826 751 119.595 204.921 473.742
697 0 62.0718 12.0183 746 122.576 204.603 472.834
698 0 63.115 12.5802 794 122.506 204.834 471.319
699 0 66.1116 13.6285 901 119.899 204.549 471.341
700 0 65.1402 13.6168 887 122.582 204.691 470.436
701 0 67.1663 13.5485 910 122.852 204.915 469.348
702 0 70.199 13.2765 932 124.011 204.806 467.674
703 0 72.1091 14.7831 1066 120.744 203.865 465.206
704 0 72.1425 14.0278 1012 125.095 205.124 464.565
705 0 76.1031 13.9153 1059 125.618 204.546 463.659
706 0 78.1607 14.5342 1136 124.208 202.798 463.137
707 0 79.1404 13.6214 1078 128.81 203.611 462.436
708 0 84.1426 14.5349 1223 125.309 204.182 462.069
709 0 83.1118 14.4263 1199 128.925 203.302 460.151
710 0 86.0806 13.6616 1176 131.503 203.886 460.827
711 0 87.0937 13.1468 1145 136.126 203.617 456.667
712 0 92.0996 14.8318 1366 129.609 203.924 457.451
713 0 95.1578 14.8175 1410 130.33 203.692 454.671
714 0 97.113 15.1061 1467 130.785 203.898 454.037
715 0 98.0858 14.3344 1406 135.681 204.237 453.779
716 0 101.094 14.6794 1484 134.924 203.282 452.721
717 0 101.168 12.84 1299 127.362 202.909 453.852
718 0 107.096 14.5757 1561 121.949 204.014 451.852
719 0 109.111 13.5458 1478 125.532 203.892 452.912
720 0 115.156 14.4065 1659 124.839 203.538 448.565
721 0 118.137 14.1107 1667 126.089 204.071 446.231
722 0 121.111 14.3092 1733 128.003 204.52 443.526
723 0 126.2 13.4152 1693 128.034 203.625 444.831
724 0 132.187 14.9032 1970 129.54 203.816 437.202
725 0 136.136 13.9713 1902 132.98 203.345 434.078
726 0 143.336 14.5183 2081 127.557 203.862 432.565
727 0 148.261 14.9264 2213 124.461 203.533 428.538
728 0 152.247 14.529 2212 126.854 202.672 425.815
729 1 89.0814 12.7861 1139 124.188 203.988 461.161
730 0 92.176 13.4091 1236 124.824 204.074 458.54
731 0 97.2245 13.3917 1302 122.892 203.807 457.092
732 0 98.1173 12.5258 1229 125.315 203.36 457.856
733 0 100.087 12.4991 1251 126.078 203.81 457.427
734 0 105.116 13.9085 1462 123.412 203.473 452.564
735 0 106.167 12.5651 1334 126.394 202.448 451.829
736 0 111.263 10.6774 1188 129.829 203.263 451.187
737 0 117.298 12.8135 1503 124.401 202.628 448.601
738 0 119.162 12.5292 1493 123.869 203.352 448.331
739 1 70.0821 13.1417 921 122.584 203.706 469.768
740 0 66.2606 11.3039 749 115.786 203.438 463.562
741 0 73.2079 12.6353 925 124.135 203.639 467.533
742 0 75.2142 12.3913 932 124.397 202.96 466.635
743 0 77.1809 11.9848 925 125.846 203.533 465.285
744 0 80.1928 11.7716 944 125.233 204.317 461.996
745 0 82.11 12.3615 1015 122.943 203.846 462.284
746 0 83.1969 12.1279 1009 124.184 202.92 458.572
747 0 88.1678 12.0792 1065 122.701 204.094 458.679
748 0 92.2266 12.003 1107 120.94 204.678 459.035
749 0 96.1855 12.3823 1191 119.63 204.411 457.474
750 0 99.1905 13.217 1311 117.428 203.504 455.394
751 1 54.0739 10.2083 552 115.543 205.259 477.533
752 0 54.1399 10.6576 577 114.948 204.114 474.466
753 0 57.1631 10.9686 627 106.576 204.561 476.053
754 0 59.1188 11.2147 663 106.552 204.725 475.228
755 0 61.0987 11.4078 697 105.377 205.43 474.532
756 0 61.1045 10.5557 645 107.822 205.037 474.122
757 0 64.0882 12.1083 776 104.018 205.174 472.005
758 0 66.1087 11.8592 784 104.284 204.835 470.205
759 0 66.1078 11.2997 747 106.878 204.691 468.969
760 0 68.1446 11.3582 774 106.426 204.437 470.28
761 0 73.2302 12.5631 920 103.112 203.834 469.318
762 0 73.1521 10.5944 775 107.334 203.175 467.845
763 0 78.2166 12.4015 970 102.726 203.39 464.272
764 0 78.2203 11.3142 885 105.499 202.653 466.293
765 0 81.0867 9.29869 754 109.088 203.682 468.044
766 0 82.2388 11.114 914 106.631 202.87 464.842
767 0 85.0915 11.2232 955 105.373 203.759 464.605
768 0 91.2287 11.1917 1021 104.68 203.185 460.597
769 0 94.1183 10.1256 953 107.6 203.492 458.515
770 1 46.0481 10.6628 491 110.045 203.189 477.279
771 0 49.054 11.7218 575 103.464 203.332 477.111
772 0 51.2225 11.4793 588 108.854 202.417 475.886
773 0 54.1478 11.9857 649 105.857 203.379 477.28
774 0 57.2379 12.0724 691 104.654 203.382 476.398
775 0 57.1786 13.3442 763 102.713 203.495 475.22
776 0 59.2036 13.158 779 103.028 202.782 474.882
777 0 61.2148 13.0361 798 103.214 202.794 472.939
778 0 62.2789 12.0908 753 104.262 202.477 471.979
779 0 64.2592 11.3602 730 104.912 202.882 471.968
780 0 68.1412 13.3987 913 100.07 202.337 470.391
781 0 69.1111 11.8505 819 102.816 203.426 469.266
782 0 70.2267 12.5451 881 101.001 202.762 466.753
783 0 72.2011 12.2436 884 101.434 203.079 466.441
784 0 74.2433 11.6509 865 100.069 202.721 466.079
785 0 78.2907 12.5175 980 96.5163 203.259 465.02
786 0 81.2802 13.3612 1086 185.04 202.706 464.655
787 0 83.3935 12.5309 1045 114.9 201.906 465.612
788 0 83.4227 12.3468 1030 101.629 202.063 464.023
789 0 86.1673 12.9516 1116 100.075 202.351 462.235
790 0 92.226 13.3802 1234 97.3379 202.416 460.648
791 0 92.3737 12.7201 1175 97.7745 202.412 455.317
792 0 95.1857 12.8065 1219 98.2666 201.427 455.82
793 0 98.3257 13.0485 1283 97.6539 201.542 454.359
794 0 103.129 13.5946 1402 94.2482 200.75 451.33
795 1 57.1091 10.6638 609 93.2479 201.558 473.575
796 0 57.0754 10.4598 597 89.67 201.07 474.422
797 0 63.0864 12.5384 791 84.292 204.062 476.11
798 0 63.1801 12.2665 775 87.7445 203.785 473.187
799 0 65.1366 11.7292 764 87.6924 204.136 469.462
800 0 69.2124 13.8126 956 84.6454 203.296 470.615
801 0 71.0466 12.4988 888 87.1768 202.555 469.651
802 0 74.091 11.8233 876 88.7306 203.365 468.847
803 0 75.1683 12.9177 971 89.2369 202.953 466.979
804 0 81.1459 13.9871 1135 87.2106 203.053 465.189
805 0 84.0866 14.2234 1196 87.6672 203.296 463.024
806 0 84.1376 11.3623 956 93.9801 202.702 462.392
807 0 88.1192 12.8916 1136 92.0889 203.257 459.393
808 0 91.1097 13.127 1196 93.6179 203.231 457.16
809 0 98.1927 13.5448 1330 101.52 202.728 455.811
810 0 100.259 12.9664 1300 104.511 203.122 453.422
811 0 103.197 13.0818 1350 103.765 203.378 452.35
812 1 50.0426 11.2704 564 95.1968 202.445 479.121
813 0 48.0673 12.9818 624 86.4135 203.505 473.84
814 0 50.1498 9.77074 490 98.6796 204.204 479.988
815 0 50.1951 8.7658 440 101.48 203.518 480.114
816 0 57.118 9.43661 539 98.4601 203.518 480.855
817 0 58.0592 11.695 679 99.3299 203.679 478.747
818 0 59.0668 12.3928 732 99.7281 203.787 475.874
819 0 59.1569 10.3623 613 102.78 202.982 477.191
820 0 61.1919 12.0931 740 100.247 202.988 473.523
821 0 64.0791 10.8928 698 99.8223 202.393 474.676
822 0 67.1433 9.99355 671 100.648 202.738 473.855
823 0 70.1286 9.71073 681 100.389 203.197 472.144
824 0 73.1473 12.55 918 96.1133 202.454 470.212
825 0 75.2754 11.9162 897 98.1171 202.889 470.585
826 0 78.3588 12.6087 988 98.7581 202.493 465.577
827 0 81.1475 11.5962 941 98.6993 202.457 466.143
828 0 82.2645 11.2928 929 103.006 202.076 464.721
829 0 86.0915 11.0115 948 101.102 202.32 462.928
830 0 91.2372 12.9772 1184 98.9848 201.438 461.258
831 0 94.1404 12.1202 1141 96.0885 202.465 456.208
832 1 52.0549 11.776 613 97.3148 201.512 479.943
833 0 54.0348 12.2514 662 96.1375 202.196 478.29
834 0 53.036 10.5023 557 99.6607 202.937 472.357
835 0 56.0817 11.2871 633 100.479 202.57 472.251
836 0 61.1781 12.7497 780 106.505 201.926 474.896
837 0 61.1761 12.9299 791 106.085 201.534 475.04
838 0 62.1837 12.8169 797 106.725 202.184 474.679
839 0 67.0742 13.7012 919 103.818 201.63 471.46
840 0 69.2098 12.8017 886 103.456 202.203 471.446
841 0 69.2679 12.6466 876 105.161 202.324 468.555
842 0 72.1465 12.6132 910 104.523 202.582 469.09
843 0 75.0526 14.2167 1067 100.636 201.789 466.664
844 0 78.1818 13.4686 1053 102.326 203.84 465.02
845 0 82.0899 13.132 1078 102.055 204.03 465.348
846 0 84.104 13.4833 1134 103.23 203.115 461.81
847 0 85.1147 11.6666 993 99.5519 203.28 463.605
848 0 88.0927 12.7479 1123 99.5076 202.561 460.435
849 0 91.1522 12.6053 1149 101.531 203.268 458.312
850 1 48.182 13.1999 636 98.6069 203.39 479.947
851 0 51.0782 11.5901 592 100.213 203.196 475.753
852 0 53.1825 12.8426 683 99.5373 203.41 474.857
853 0 53.0481 10.9146 579 101.133 202.739 477.347
854 0 56.182 11.9077 669 100.037 203.435 477.567
855 0 57.0968 11.4718 655 100.142 202.85 476.91
856 0 59.053 12.3448 729 97.6324 202.827 476.554
857 0 61.0273 11.5686 706 98.2819 202.055 476.552
858 0 64.0416 12.8042 820 96.0963 202.477 472.66
859 0 65.1051 12.6104 821 97.8161 202.688 472.693
860 0 66.1079 10.9669 725 99.64 202.644 475.862
861 0 68.0935 10.8968 742 101.407 202.702 471.458
862 0 73.0932 12.5183 915 97.3082 202.219 470.894
863 0 76.1015 12.825 976 97.1086 202.78 467.091
864 0 79.1013 12.7558 1009 97.2517 203.283 466.253
865 0 81.119 12.4139 1007 97.4886 203.3 465.765
866 0 84.0738 12.2987 1034 98.7224 203.333 463.859
867 0 88.1058 12.2126 1076 99.079 203.263 461.239
868 0 88.1616 11.6604 1028 101.865 202.983 461.084
869 0 93.0705 13.1298 1222 98.356 203.06 460.99
870 0 97.0843 12.7415 1237 100.736 203.622 456.461
871 1 52.0739 11.3108 589 101.199 203.078 480.295
872 0 52.1376 10.5874 552 103.159 202.197 478.174
873 0 56.0614 12.3614 693 98.228 202.739 479.076
874 0 58.0421 12.5426 728 98.294 203.416 476.324
875 0 59.1006 13.1978 780 97.6 202.818 474.277
876 0 61.1112 11.7818 720 99.675 204.056 472.794
877 0 64.2178 13.2362 850 97.1847 203.709 472.185
878 0 68.0667 13.2664 903 96.5183 203.821 471.486
879 0 67.1581 12.4185 834 99.5935 203.838 469.709
880 0 71.1484 13.015 926 97.9428 203.715 469.405
881 0 72.1235 12.5479 905 99.3083 203.653 469.43
882 0 77.1233 13.7831 1063 97.206 202.879 465.992
883 0 80.1263 13.7533 1102 97.392 203.686 465.526
884 0 83.2262 15.1275 1259 95.0858 202.242 462.276
885 0 84.1193 13.3025 1119 99.7292 202.593 460.837
886 0 89.1124 14.1619 1262 98.3796 202.887 459.51
887 0 91.1663 13.4699 1228 102.516 202.385 458.8
888 0 97.143 13.4853 1310 112.124 203.019 457.566
889 0 100.321 13.8456 1389 111.379 202.847 453.74
890 0 104.222 14.2868 1489 110.431 203.537 452.545
891 1 54.026 11.9017 643 108.163 203.188 476.81
892 0 56.2276 11.5602 650 111.038 203.802 472.482
893 0 58.0423 12.1291 704 102.835 202.719 474.838
894 0 62.0523 13.9076 863 102.023 202.68 474.158
895 0 64.0776 12.4692 799 105.119 201.733 472.454
896 0 67.1365 13.5843 912 101.951 202.334 471.155
897 0 67.1206 12.634 848 105.838 201.981 470.112
898 0 70.1397 12.9741 910 105.448 202.799 467.137
899 0 73.0582 13.5098 987 103.547 202.73 468.475
900 0 76.1224 14.0169 1067 103.752 203.431 466.363
901 0 76.1558 12.0149 915 105.84 203.597 468.99
902 0 77.2778 12.0992 935 108.537 203.15 463.467
903 0 84.1703 12.3915 1043 107.93 203.174 462.385
904 0 86.0812 14.1146 1215 106.337 203.184 460.947
905 0 88.2634 13.5617 1197 106.794 202.61 459.907
906 0 91.165 11.8905 1084 110.057 203.264 458.201
907 0 94.215 12.4609 1174 107.741 202.834 458.141
908 0 99.1464 12.6782 1257 106.503 203.601 455.701
909 0 101.209 12.8448 1300 105.902 203.598 452.582
910 1 52.0499 11.3353 590 109.208 204.28 473.427
911 0 53.0538 12.3648 656 107.032 203.87 473.439
912 0 58.0579 13.0387 757 104.383 203.182 469.904
913 0 61.0563 13.5121 825 99.4594 202.999 470.19
914 0 59.17 12.4387 736 100.179 203.978 470.538
915 0 61.1238 12.4338 760 99.6645 204.318 470.496
916 0 66.1542 12.2895 813 98.6753 203.99 468.615
917 0 67.1866 13.1127 881 99.1896 203.68 467.289
918 0 68.2157 12.7976 873 100.301 203.26 465.782
919 0 72.0474 14.2545 1027 97.7955 203.648 465.809
920 0 74.137 12.7467 945 100.395 203.921 464.08
921 0 75.1195 13.0059 977 100.48 203.868 462.494
922 0 78.1538 12.6673 990 102.501 203.921 461.855
923 0 80.0841 13.3734 1071 102.66 204.097 461.366
924 0 83.2036 13.485 1122 102.785 204.145 460.128
925 0 86.1812 13.1931 1137 105.31 203.872 457.107
926 0 86.1479 12.3741 1066 108.383 203.597 456.792
927 0 89.1117 12.4114 1106 108.371 203.18 454.596
928 0 92.058 11.6557 1073 108.326 204.132 457.454
929 0 96.1145 12.5787 1209 106.954 204.007 453.347
930 0 99.2737 12.4001 1231 107.69 203.855 450.286
931 1 55.0633 11.5867 638 104.464 204.564 474.182
932 0 57.0229 12.3459 704 104.212 205.027 472.382
933 0 56.1041 11.1935 628 98.4793 203.58 474.457
934 0 58.1421 12.2803 714 96.3725 203.108 471.71
935 0 62.05 11.6197 721 96.9695 204.003 469.577
936 0 62.0836 10.8724 675 98.2341 203.004 470.969
937 0 64.1774 12.2005 783 96.0409 203.992 468.045
938 0 68.1401 9.99412 681 99.0764 204.349 468.821
939 0 72.0544 12.5183 902 94.99 203.675 466.888
940 0 75.0938 13.8094 1037 93.7772 204.082 463.905
941 0 78.1134 11.2913 882 98.3243 203.675 465.438
942 0 80.0544 12.1917 976 97.0102 203.439 459.884
943 0 85.1036 11.9736 1019 96.0432 203.041 461.236
944 0 90.1092 13.3505 1203 93.1663 203.065 456.598
945 0 90.1694 11.6447 1050 96.9552 202.295 455.211
946 0 96.1824 14.119 1358 91.6546 203.069 454.18
947 0 99.1331 13.2246 1311 93.4203 202.195 450.502
948 0 103.042 12.0534 1242 95.5845 203.619 452.918
949 0 105.187 12.8819 1355 94.4059 202.352 448.758
950 1 59.0678 11.7492 694 101.068 203.202 472.104
951 0 60.019 12.0962 726 99.0882 203.416 469.022
952 0 64.0897 13.4187 860 93.164 204.735 469.449
953 0 65.1024 13.1792 858 93.0956 203.514 466.636
954 0 64.1103 10.248 657 99.6104 203.886 469.306
955 0 69.0843 11.9419 825 95.1806 203.719 466.25
956 0 73.1335 12.0601 882 94.3061 202.354 465.74
957 0 75.0513 12.8312 963 93.053 202.775 465.663
958 0 77.0778 12.0787 931 95.3953 203.067 462.615
959 0 81.1779 13.7476 1116 90.9552 203.215 460.943
960 0 82.1445 13.4397 1104 92.6341 203.649 459.053
961 0 89.1582 12.7975 1141 93.1648 202.791 458.314
962 0 89.1385 13.0695 1165 93.7494 203.427 457.617
963 0 93.1397 12.8517 1197 93.0794 203.367 454.205
964 0 97.1995 12.6235 1227 93.533 203.553 456.441
965 0 100.168 12.8884 1291 93.9628 202.988 454.11
966 0 105.13 12.3085 1294 96.2875 202.757 452.4
967 1 57.1606 12.1937 697 96.4175 204.453 472.813
968 0 59.2656 12.4356 737 93.9376 204.072 472.758
969 0 58.0887 11.8267 687 86.7205 203.927 466.533
970 0 60.1107 12.5435 754 86.4271 203.416 463.572
971 0 60.0854 10.1689 611 92.7414 203.38 464.967
972 0 63.068 10.0368 633 92.6319 203.385 460.962
973 0 65.1148 11.0727 721 91.3467 202.682 462.033
974 0 67.056 11.0654 742 91.2911 203.305 460.759
975 0 70.1342 11.6919 820 91.2927 202.541 460.484
976 0 73.1738 12.5045 915 91.5027 202.936 456.501
977 0 77.0553 11.9135 918 92.4597 203.186 456.307
978 0 79.0633 12.4963 988 93.9089 202.661 454.082
979 0 81.1081 12.0087 974 96.1376 202.885 450.768
980 0 84.0894 12.2251 1028 94.5438 203.044 454.821
981 0 88.1651 11.7393 1035 97.9952 203.066 450.179
982 0 90.0801 11.4787 1034 99.7621 202.651 447.909
983 0 94.1912 13.3877 1261 97.0214 203.247 447.254
984 0 97.1544 13.7616 1337 100.62 202.984 445.446
985 0 99.1361 12.5181 1241 100.293 202.624 444.695
986 1 52.0878 11.5766 603 96.33 203.411 468.766
987 0 55.0544 13.6047 749 99.8812 204.224 471.105
988 0 57.2014 11.3459 649 104.256 203.468 470.881
989 0 60.1493 13.1839 793 95.2371 204.76 471.749
990 0 60.102 11.6302 699 100.019 202.735 473.728
991 0 62.0762 11.357 705 99.2525 203.538 473.444
992 0 66.0983 11.7552 777 98.4569 203.57 470.862
993 0 67.1259 12.0073 806 98.7891 204.103 469.705
994 0 68.1151 11.554 787 100.803 204.196 468.346
995 0 72.1442 11.879 857 99.6324 203.971 466.655
996 0 75.0863 13.2381 994 97.6911 203.864 465.22
997 0 77.0965 11.8034 910 101.568 203.868 464.576
998 0 80.0962 12.1354 972 101.338 204.04 462.011
999 0 83.0756 13.1206 1090 99.6679 203.574 459.737
1000 0 85.113 13.4175 1142 99.0315 204.482 460.226
1001 0 89.0899 12.5042 1114 101.948 203.666 457.837
1002 0 92.177 12.1288 1118 102.755 203.191 456.065
1003 0 97.2671 12.625 1228 101.213 203.215 454.092
1004 0 100.241 12.849 1288 100.907 203.274 448.615
1005 0 104.181 12.9295 1347 99.2814 203.537 452.072
1006 0 108.237 13.2949 1439 99.3308 203.648 449.475
1007 0 113.171 13.7137 1552 98.0715 203.955 447.077
1008 0 119.201 13.0704 1558 99.2856 203.143 443.098
1009 1 60.1072 10.3814 624 104.053 203.681 470.418
1010 0 62.1216 11.5419 717 98.5132 204.478 462.796
1011 0 61.0597 11.3987 696 95.3405 205.283 461.129
1012 0 66.0348 12.4328 821 92.8417 204.648 462.002
1013 0 69.0506 12.0781 834 93.9964 203.513 460.529
1014 0 70.0449 11.0643 775 96.8568 204.301 458.135
1015 0 70.0913 10.8002 757 98.9022 203.729 459.074
1016 0 75.1433 11.2452 845 98.7124 204.786 457.446
1017 0 74.1068 10.9032 808 100.705 204.121 455.936
1018 0 81.0559 10.795 875 100.527 205.45 455.922
1019 0 81.1279 11.4141 926 101.167 204.447 450.987
1020 0 87.0993 11.7911 1027 100.582 204.396 450.815
1021 0 90.0653 13.1349 1183 97.6086 205.265 453.156
1022 0 93.177 12.2455 1141 101.679 205.071 447.619
1023 0 96.104 11.7789 1132 103.559 204.361 446.51
1024 0 101.147 11.4388 1157 104.296 203.758 444.327
1025 1 51.0295 9.5239 486 92.823 203.749 474
1026 0 54.037 11.6587 630 98.719 203.94 473.194
1027 0 57.1292 12.0954 691 95.2069 203.871 474.793
1028 0 58.1304 10.7861 627 97.5582 204.34 472.552
1029 0 60.1708 11.7333 706 96.068 203.492 473.395
1030 0 63.1114 12.2165 771 94.5175 204.699 471.14
1031 0 63.0669 12.3044 776 95.2861 204.117 468.996
1032 0 67.051 12.8111 859 93.1583 203.341 468.739
1033 0 69.2928 11.2854 782 95.8517 204.532 469.428
1034 0 70.0686 11.7599 824 91.966 203.927 463.154
1035 0 73.2673 12.2701 899 94.2425 204.736 466.341
1036 0 74.2861 11.873 882 95.4501 204.464 464.355
1037 0 78.1997 12.9924 1016 93.3937 204.309 463.266
1038 0 80.2102 12.5794 1009 94.9098 204.706 464.059
1039 0 82.0789 13.1946 1083 95.2013 203.899 460.367
1040 0 85.2139 12.3571 1053 96.9924 204.387 459.075
1041 0 89.1911 12.0752 1077 96.8087 204.678 458.192
1042 0 91.1091 11.6893 1065 97.5653 204.404 456.457
1043 0 93.0953 12.3637 1151 93.9305 204.287 450.714
1044 0 97.1056 12.9653 1259 92.5457 204.532 451.607
1045 0 101.09 13.1171 1326 95.6508 204.269 449.069
1046 1 56.2867 12.2764 691 91.5311 204.48 473.505
1047 0 57.0579 13.3373 761 90.2878 205.147 472.347
1048 0 57.0722 10.5305 601 91.822 204.674 472.428
1049 0 57.0537 11.3051 645 94.5116 204.487 472.13
1050 0 61.1083 11.7333 717 93.8689 204.835 470.812
1051 0 63.0607 11.4334 721 95.2677 205.226 472.035
1052 0 65.147 11.144 726 97.2466 204.8 469.751
1053 0 66.0288 10.4045 687 98.4469 205.07 470.646
1054 0 71.0549 11.9063 846 97.4303 204.846 466.783
1055 0 74.1065 12.2122 905 98.4862 204.824 464.013
1056 0 74.0766 11.3126 838 100.878 205.088 467.261
1057 0 79.1126 12.438 984 100.768 204.904 463.899
1058 0 83.1667 12.9018 1073 102.099 204.37 462.004
1059 0 88.1258 13.4921 1189 102.24 204.774 461.24
1060 0 91.1919 12.7643 1164 106.247 204.436 457.665
1061 0 91.3315 12.8214 1171 111.231 204.856 455.682
1062 0 97.3611 12.4177 1209 112.917 203.656 453.546
1063 1 48.1375 10.1169 487 111.961 203.719 477.448
1064 0 51.2339 11.75 602 111.056 205.096 473.731
1065 0 57.1719 14.2203 813 109.416 204.359 470.323
1066 0 57.1773 12.4525 712 104.58 204.617 472.173
1067 0 59.0667 12.342 729 112.616 204.165 470.283
1068 0 61.2143 12.0723 739 111.828 204.191 470.571
1069 0 62.091 11.8375 735 108.844 204.256 471.593
1070 0 66.219 12.217 809 107.931 204.755 471.247
1071 0 67.1388 11.7816 791 109.498 204.708 467.975
1072 0 72.0652 13.46 970 112.064 204.596 468.088
1073 0 73.1927 12.9248 946 114.823 205.391 465.36
1074 0 77.2019 13.5748 1048 112.094 204.313 463.942
1075 0 79.2276 13.3161 1055 112.263 204.271 461.167
1076 0 82.2868 12.6873 1044 115.686 204.062 458.234
1077 0 86.222 13.8132 1191 111.819 203.951 458.116
1078 1 45.2355 11.7828 533 108.233 204.606 476.039
1079 0 46.0522 10.8573 500 108.116 203.676 477.612
1080 0 47.052 12.093 569 104.598 205.452 474.67
1081 0 50.2599 12.6741 637 101.746 204.981 471.71
1082 0 50.1732 10.5634 530 107.038 206.204 474.128
1083 0 53.1528 11.2694 599 106.404 206.04 471.845
1084 0 55.0591 11.9871 660 103.789 205.986 473.776
1085 0 55.1291 11.4096 629 106.121 205.598 472.9
1086 0 58.1036 12.0819 702 104.984 206.242 469.768
1087 0 61.2122 12.7262 779 102.836 206.039 468.784
1088 0 62.0754 12.1465 754 106.102 205.541 467.582
1089 0 66.162 12.7263 842 103.96 205.609 467.71
1090 0 67.2067 12.35 830 107.06 204.835 464.169
1091 0 69.1903 11.0565 765 110.621 204.702 463.984
1092 0 71.1616 10.5675 752 111.665 205.867 465.513
1093 0 75.1533 12.7872 961 107.54 204.723 460.185
1094 0 78.1656 11.2581 880 109.456 205.184 460.681
1095 0 80.0978 11.873 951 108.089 206.196 455.857
1096 0 83.1703 11.1699 929 109.783 205.947 453.846
1097 0 87.1445 12.2785 1070 107.168 205.997 453.593
1098 0 91.1029 10.6912 974 109.801 205.35 454.266
1099 0 94.1829 11.4777 1081 109.257 204.988 448.035
1100 0 97.2497 11.1363 1083 109.997 204.576 444.718
1101 0 102.288 10.7735 1102 109.05 204.625 446.151
1102 1 55.081 11.1835 616 102.792 205.14 467.299
1103 0 55.2805 12.2105 675 103.545 205.101 464.628
1104 0 57.039 11.4132 651 102.433 205.218 467.304
1105 0 60.105 12.578 756 99.6376 205.218 467.788
1106 0 61.07 12.6085 770 100.779 205.394 466.148
1107 0 63.0511 12.1965 769 100.905 205.406 468.052
1108 0 68.135 12.8275 874 98.0114 205.628 465.791
1109 0 71.0243 12.7562 906 97.6887 205.086 464.905
1110 0 72.0859 12.2077 880 100.469 205.48 464.67
1111 0 70.1158 9.95497 698 105.881 205.563 462.625
1112 0 73.0594 10.4846 766 104.709 205.67 462.488
1113 0 78.1503 11.5802 905 102.8 204.835 459.702
1114 0 80.1497 11.8279 948 102.459 205.365 459.889
1115 0 90.0718 8.04914 725 106.559 204.586 464.172
1116 0 89.0762 11.6305 1036 101.838 204.927 455.364
1117 0 90.1542 11.1808 1008 104.436 205.069 454.011
1118 1 49.0387 10.8894 534 104.215 204.998 471.758
1119 0 51.0737 11.2974 577 104.029 205.248 472.435
1120 0 53.0731 10.6269 564 101.679 207.569 470.172
1121 0 55.1294 11.4277 630 107.773 204.281 472.043
1122 0 56.2102 11.4748 645 109.812 205.367 468.809
1123 0 59.1816 12.2166 723 107.101 204.913 467.476
1124 0 60.1478 12.3363 742 107.404 204.821 465.739
1125 0 59.0288 10.7575 635 101.271 204.814 469.172
1126 0 59.1156 9.62521 569 103.67 205.735 466.278
1127 0 62.1168 11.1564 693 100.905 206.123 465.515
1128 0 66.2489 11.0341 731 100.387 205.581 465.43
1129 0 68.0905 11.6316 792 99.3346 205.801 463.583
1130 0 70.0945 9.88665 693 102.734 204.817 463.499
1131 0 74.1419 11.9501 886 100.323 205.537 459.032
1132 0 76.1348 12.202 929 99.4575 205.839 459.254
1133 0 81.1655 11.2486 913 100.678 205.359 459.507
1134 0 84.1532 11.2058 943 100.639 205.827 458.367
1135 0 86.1432 10.9701 945 103.436 204.993 455.957
1136 0 87.133 10.593 923 104.737 205.694 454
1137 0 91.1716 11.8129 1077 101.4 206.03 450.312
1138 0 96.2353 11.3887 1096 102.848 205.641 448.849
1139 0 100.158 12.4304 1245 100.165 205.248 447.221
1140 0 103.19 11.3577 1172 102.543 206.016 445.532
1141 0 108.201 12.7633 1381 101.21 204.776 444.098
1142 0 112.192 13.3611 1499 99.6244 205.917 440.506
1143 0 114.198 11.5589 1320 113.283 205.435 437.417
1144 0 119.202 11.2331 1339 112.918 205.277 437.426
1145 1 65.0763 11.7708 766 101.463 205.838 463.775
1146 0 65.0778 9.95732 648 102.387 206.383 465.113
1147 0 69.0497 10.9776 758 102.305 206.927 463.431
1148 0 66.06 9.20375 608 105.388 206.597 462.75
1149 0 71.223 10.6707 760 101.189 206.208 460.691
1150 0 75.1292 11.7664 884 100.239 205.956 459.549
1151 0 77.074 11.4046 879 100.577 206.167 458.943
1152 0 82.2132 11.2391 924 99.9589 206.16 460.172
1153 0 84.19 11.5334 971 100.024 206.064 457.02
1154 0 86.156 10.9337 942 100.763 207.234 457.512
1155 0 91.1157 11.9738 1091 98.4977 205.675 456.758
1156 0 94.0993 12.795 1204 97.7035 206.174 450.799
1157 0 95.141 11.6248 1106 100.732 206.509 450.507
1158 0 100.253 11.451 1148 99.7448 207.044 451.202
1159 0 102.14 11.3471 1159 101.207 207.021 447.475
1160 0 106.087 12.0562 1279 98.9601 206.118 446.652
1161 0 110.254 10.7207 1182 98.4467 206.782 445.774
1162 0 115.211 11.6308 1340 96.9672 206.119 444.737
1163 1 56.1017 8.55589 480 100.102 207.769 476.165
1164 0 58.134 10.5618 614 96.7036 207.503 474.65
1165 0 60.1795 11.4491 689 97.4862 206.628 470.833
1166 0 59.1795 11.896 704 98.2528 206.484 469.438
1167 0 64.1966 11.3557 729 98.2003 206.68 469.394
1168 0 67.1204 11.2633 756 97.787 206.202 469.197
1169 0 69.098 12.6487 874 93.7551 206.514 466.977
1170 0 72.1127 11.6068 837 93.871 206.491 468.965
1171 0 77.1518 12.5467 968 94.9824 206.306 462.88
1172 0 76.1727 11.2376 856 98.3037 206.77 464.527
1173 0 77.0874 10.5594 814 99.8219 207.421 465.629
1174 0 79.1341 12.9527 1025 96.7785 206.603 461.562
1175 0 80.0996 10.7117 858 100.745 207.131 463.811
1176 0 83.2109 11.4528 953 101.724 206.573 457.94
1177 0 89.235 12.1589 1085 98.73 206.406 458.467
1178 0 92.0722 11.7516 1082 100.099 206.416 457.408
1179 0 96.212 13.3351 1283 97.0335 206.411 453.881
1180 0 100.092 13.078 1309 97.4798 206.124 453.846
1181 0 104.192 14.1085 1470 96.2782 206.129 448.871
1182 1 52.1127 10.9378 570 109.037 206.488 472.895
1183 0 52.0299 12.1469 632 108.127 206.274 471.614
1184 0 54.1572 13.1285 711 105.586 206.211 471.797
1185 0 58.221 12.6071 734 106.238 205.935 471.048
1186 0 58.2377 13.0843 762 106.021 205.925 470.353
1187 0 56.1561 12.2516 688 110.571 206.02 467.898
1188 0 62.2624 13.2986 828 105.661 206.806 466.877
1189 0 62.2375 13.9305 867 105.027 205.561 465.344
1190 0 63.0872 12.6333 797 101.174 206.726 470.208
1191 0 60.125 11.9584 719 104.465 206.62 467.89
1192 0 65.062 11.6965 761 104.085 206.325 467.502
1193 0 66.0524 11.7937 779 104.078 205.598 465.846
1194 0 66.0672 11.9727 791 105.274 205.601 464.932
1195 0 69.0464 11.514 795 105.779 204.113 465.318
1196 0 76.0891 10.2906 783 106.419 204.517 466.709
1197 0 75.0372 12.8603 965 104.663 204.85 458.258
1198 0 76.0869 12.8931 981 105.698 204.48 459.489
1199 0 77.069 12.5472 967 110.4 205.467 453.998
1200 0 84.264 14.6326 1233 103.387 204.521 452.612
1201 0 82.0731 13.5489 1112 105.991 205.15 449.298
1202 0 85.1747 13.5251 1152 105.076 205.1 450.053
1203 0 84.1506 11.527 970 109.78 205.428 446.457
1204 1 47.0373 12.7771 601 103.774 204.18 468.777
1205 0 53.0595 13.3058 706 99.4433 204.681 468.898
1206 0 54.0641 13.4285 726 100.145 205.23 468.226
1207 0 55.0972 12.5052 689 102.575 205.25 467.904
1208 0 56.0646 12.6105 707 101.638 205.958 463.437
1209 0 57.1532 11.3379 648 102.122 205.96 465.046
1210 0 60.0573 14.3363 861 96.5029 206.002 463.102
1211 0 62.0625 14.4854 899 96.8587 205.883 461.409
1212 0 63.1189 13.0072 821 106.011 205.652 465.069
1213 0 65.0314 13.5012 878 101.778 205.345 466.443
1214 0 66.1303 13.1256 868 102.258 205.796 464.508
1215 0 67.0771 12.3589 829 104.875 204.922 463.059
1216 0 72.0533 14.1978 1023 99.4868 205.177 463.5
1217 0 74.0486 12.6404 936 102.927 205.597 462.533
1218 0 76.2289 13.4463 1025 100.95 204.968 462.323
1219 0 79.1864 12.8305 1016 101.52 204.924 460.321
1220 0 82.1166 14.4185 1184 98.3834 205.163 459.248
1221 0 83.1489 13.9148 1157 100.472 205.257 457.289
1222 0 88.0774 12.648 1114 102.847 205.542 452.337
1223 0 91.2443 13.3159 1215 101.964 205.495 451.495
1224 0 94.3133 13.4976 1273 103.376 205.98 449.217
1225 1 50.2537 12.7354 640 100.625 205.583 469.123
1226 0 50.1021 11.9157 597 98.8978 206.171 473.863
1227 0 54.1337 11.5085 623 96.7705 206.117 475.401
1228 0 52.063 10.3336 538 91.9721 205.283 476.493
1229 0 55.0504 10.8264 596 91.4396 205.552 474.456
1230 0 55.1014 10.1449 559 93.3131 206.123 472.397
1231 0 57.0671 10.0934 576 92.8976 206.655 471.045
1232 0 61.1368 11.3189 692 91.0014 206.371 468.948
1233 0 62.0753 10.6484 661 91.8124 206.104 469.902
1234 0 65.0497 10.9147 710 90.3521 207.039 470.13
1235 0 66.0603 11.2019 740 91.4054 206.481 465.305
1236 0 68.0995 12.0999 824 89.5024 206.953 464.682
1237 0 68.1849 8.99026 613 93.0685 206.969 464.724
1238 0 72.176 9.61538 694 92.9294 207.256 462.308
1239 0 78.0575 12.1193 946 89.0455 206.294 460.597
1240 0 79.2354 11.51 912 89.0921 206.9 463.298
1241 0 84.1397 12.8833 1084 87.5369 206.093 459.819
1242 0 84.0772 12.5956 1059 90.5571 206.767 455.321
1243 1 45.0266 11.8596 534 86.7172 206.382 477.588
1244 0 46.0402 11.9678 551 85.9038 206.417 478.374
1245 0 47.1452 10.7328 506 87.7352 206.832 477.453
1246 0 49.0788 13.1218 644 84.4627 205.72 475.986
1247 0 49.1368 10.4606 514 88.4786 206.196 477.584
1248 0 50.0746 11.0036 551 89.2105 206.279 475.381
1249 0 50.0436 10.8306 542 89.9354 205.572 474.124
1250 0 53.1448 10.8383 576 89.9635 205.333 474.778
1251 0 57.0394 11.1327 635 89.0409 205.268 472.718
1252 0 57.1337 11.0618 632 90.7547 205.516 471.761
1253 0 60.1002 11.6805 702 90.2179 205.285 470.026
1254 0 62.1445 10.9583 681 92.9001 205.837 468.858
1255 0 64.1648 12.125 778 91.7969 206.072 468.859
1256 0 67.1477 12.1672 817 92.0551 206.323 467.758
1257 0 69.204 11.6901 809 93.4067 206.213 466.116
1258 0 70.0667 12.0742 846 94.3924 206.706 464.403
1259 0 73.0927 12.5457 917 94.5049 206.244 461.891
1260 0 76.1202 12.7167 968 94.7324 206.053 462.845
1261 0 78.1689 12.7544 997 95.4183 206.273 461.911
1262 0 79.1276 11.0581 875 98.9806 206.647 461.294
1263 0 81.1519 12.4211 1008 98.0615 205.554 457.947
1264 0 84.1373 11.4931 967 101.54 206.615 456.987
1265 0 89.2277 13.4039 1196 97.76 205.451 456.304
1266 0 92.2025 12.6244 1164 99.622 206.002 454.849
1267 1 49.2094 10.6484 524 96.5496 206.431 478.246
1268 0 51.1196 11.835 605 97.0579 206.38 475.977
1269 0 52.0131 11.6125 604 97.1523 206.113 475.247
1270 0 55.1354 11.2813 622 109.632 206.82 470.932
1271 0 58.2043 12.1469 707 105.877 206.526 473.833
1272 0 58.1087 11.6506 677 108.183 205.733 471.538
1273 0 62.0966 11.8203 734 108.516 206.925 470.102
1274 0 64.1808 13.9761 897 104.763 206.045 468.741
1275 0 66.075 13.0155 860 106.413 205.553 466.588
1276 0 67.229 12.7028 854 107.932 205.966 465.875
1277 0 68.0773 12.4711 849 109.948 206.482 464.727
1278 0 72.0374 13.1598 948 108.63 206.244 462.701
1279 0 74.0594 13.2596 982 107.28 206.542 464.314
1280 0 77.0429 13.2913 1024 107.127 206.141 463.246
1281 0 78.0581 13.0544 1019 109.315 206.14 460.876
1282 0 78.0932 12.1906 952 110.451 206.672 461.12
1283 0 81.147 12.6191 1024 110.554 206.112 456.965
1284 0 85.1305 13.6261 1160 107.169 207.054 457.956
1285 0 89.073 12.7536 1136 109.847 207.464 455.881
1286 0 91.0516 13.4649 1226 106.852 207.533 455.408
1287 0 95.1624 13.9971 1332 105.116 207.14 453.72
1288 0 97.1446 13.3306 1295 107.154 207.626 451.625
1289 0 101.103 14.0748 1423 104.943 207.694 451.126
1290 0 105.137 13.0496 1372 106.508 207.407 447.627
1291 0 105.102 12.702 1335 108.607 207.971 448.007
1292 1 59.0492 11.3634 671 106.615 208.232 471.08
1293 0 63.0446 12.4991 788 108.037 208.736 470.288
1294 0 65.1314 12.9584 844 107.002 209.239 468.517
1295 0 64.0834 11.9376 765 99.6418 208.908 466.51
1296 0 68.0993 13.0251 887 98.283 208.639 466.924
1297 0 72.0413 13.409 966 97.353 208.621 464.209
1298 0 73.0558 12.7984 935 99.5476 208.253 464.713
1299 0 75.1479 12.828 964 99.666 208.642 462.723
1300 0 77.1026 12.5936 971 101.366 207.399 460.933
1301 0 81.2437 12.0378 978 102.014 208.333 460.015
1302 0 83.075 13.9031 1155 98.5732 208.313 458.61
1303 0 87.1075 12.5477 1093 101.572 208.217 458.544
1304 0 90.1855 13.2837 1198 99.3297 208.016 458.517
1305 0 92.0995 12.0305 1108 111.487 207.732 454.191
1306 0 93.0888 11.0325 1027 113.605 208.16 453.185
1307 1 49.1331 12.11 595 102.76 208.292 474.145
1308 0 50.0388 11.2912 565 103.304 208.177 475.844
1309 0 52.0594 12.1016 630 101.794 208.127 474.557
1310 0 53.0697 13.5482 719 100.595 208.673 472.189
1311 0 53.0688 12.1352 644 105.966 207.727 471.722
1312 0 57.0896 11.9987 685 103.619 207.403 473.128
1313 0 57.1035 11.9783 684 105.317 207.149 471.345
1314 0 58.0746 11.7607 683 105.776 207.013 470.281
1315 0 63.1837 13.2154 835 101.721 206.644 470.337
1316 0 63.1991 12.4685 788 105.176 207.152 469.168
1317 0 63.1298 12.4981 789 106.582 207.035 467.089
1318 0 65.127 12.4833 813 104.378 206.568 467.042
1319 0 68.0836 12.8372 874 103.519 207.141 466.143
1320 0 68.0688 12.9869 884 105.523 206.822 464.545
1321 0 71.0817 12.8866 916 104.729 207.061 464.074
1322 0 73.1168 12.7467 932 105.657 205.71 463.574
1323 0 72.1206 12.1741 878 108.993 206.23 465.006
1324 0 76.1029 12.6802 965 108.06 205.527 464.393
1325 0 79.0852 13.77 1089 106.086 206.628 462.051
1326 0 80.1138 11.9455 957 111.888 205.938 460.026
1327 0 83.1394 12.6174 1049 110.202 205.284 458.92
1328 0 84.2068 11.5549 973 113.768 205.714 456.771
1329 0 88.1415 12.2871 1083 111.611 205.214 458.89
1330 0 89.0583 13.6315 1214 110.971 205.05 455.345
1331 0 91.1788 11.5268 1051 117.218 205.242 455.188
1332 0 94.1143 12.6442 1190 113.924 203.962 455.139
1333 0 97.1184 13.3033 1292 114.109 205.262 451.001
1334 0 98.1254 12.5554 1232 116.494 204.412 452.377
1335 1 56.2721 12.3507 695 117.865 205.978 469.586
1336 0 55.1394 9.93844 548 120.568 205.869 466.785
1337 0 55.1118 10.6692 588 119.153 205.105 465.871
1338 0 62.1804 12.3351 767 120.656 204.566 470.898
1339 0 64.1729 13.1987 847 116.621 204.607 469.72
1340 0 66.2545 12.2105 809 119.608 205.072 468.43
1341 0 69.1537 12.0601 834 119.609 204.806 467.036
1342 0 72.2041 12.617 911 117.38 205.178 467.02
1343 0 75.1777 12.5968 947 117.079 204.399 466.527
1344 0 74.2232 12.9609 962 117.986 204.472 466.086
1345 0 77.1763 12.6593 977 119.171 204.36 463.23
1346 0 77.1787 12.2054 942 121.737 204.804 463.252
1347 0 82.1332 12.9789 1066 116.392 204.799 462.452
1348 0 85.1938 11.8201 1007 119.133 205.038 462.522
1349 0 88.1434 13.0469 1150 116.257 204.541 461.32
1350 0 89.1621 12.1015 1079 119.935 204.167 459.057
1351 0 92.2011 12.4185 1145 118.172 203.997 456.208
1352 0 95.2075 11.8478 1128 118.342 205.041 457.903
1353 0 99.2209 12.1446 1205 119.051 204.768 454.379
1354 1 55.0698 12.4569 686 109.917 205.758 476.825
1355 0 55.1979 10.8338 598 112.702 205.779 477.983
1356 0 59.0971 12.5556 742 103.499 205.162 476.112
1357 0 58.1543 12.0369 700 105.367 204.524 476.487
1358 0 61.0803 13.2121 807 101.648 204.586 475.116
1359 0 61.0784 12.2629 749 104.789 204.344 473.19
1360 0 64.1217 13.2716 851 101.818 203.729 471.606
1361 0 66.0695 11.1246 735 105.99 202.805 472.888
1362 0 67.1158 12.5753 844 103.313 203.203 470.832
1363 0 67.0753 12.1207 813 104.363 203.037 470.49
1364 0 72.156 10.5882 764 102.554 203.13 466.119
1365 0 72.1417 11.6022 837 100.023 203.734 465.584
1366 0 76.1264 12.2559 933 102.374 203.288 466.117
1367 0 79.1524 12.1159 959 102.771 203.359 465.891
1368 0 81.1477 12.7668 1036 102.048 203.428 463.023
1369 0 84.2337 12.8808 1085 102.027 204.078 461.718
1370 0 85.1586 11.5666 985 101.648 203.208 458.068
1371 0 87.1951 9.72532 848 103.237 203.011 459.055
1372 1 45.037 8.65954 390 97.5769 202.951 477.559
1373 0 47.1137 9.04196 426 99.0728 202.695 476.195
1374 0 47.0847 10.4068 490 104.557 202.669 472.812
1375 0 51.2438 9.26941 475 112.505 202.872 475.429
1376 0 52.1891 10.2129 533 111.563 202.953 474.062
1377 0 54.2159 9.79417 531 113.546 202.522 472.345
1378 0 54.1935 10.5179 570 110.86 202.33 473.351
1379 0 55.2724 10.0955 558 114.303 202.604 471.466
1380 0 58.2475 10.0948 588 113.406 201.876 471.464
1381 0 60.1027 11.4304 687 111.425 202.157 469.738
1382 0 62.1331 10.3166 641 114.39 201.819 468.774
1383 0 62.1448 10.6204 660 114.232 201.305 468.159
1384 0 64.104 10.5298 675 115.51 202.034 464.797
1385 0 69.2364 12.3923 858 116.145 202.479 471.218
1386 0 71.3058 12.4254 886 116.169 203.228 469.292
1387 0 71.1808 11.7026 833 118.487 202.872 468.971
1388 0 75.1628 11.6414 875 117.519 202.648 469.014
1389 0 77.1444 12.2109 942 117.194 202.906 466.496
1390 0 78.1057 11.6509 910 118.688 200.256 466.568
1391 0 83.2262 13.7577 1145 111.972 201.59 464.842
1392 0 84.1461 12.9418 1089 114.416 201.104 464.052
1393 0 87.1272 13.1761 1148 113.477 200.666 460.642
1394 0 90.1616 12.3556 1114 114.122 201.242 461.961
1395 0 92.2803 13.3181 1229 113.339 201.253 457.769
1396 1 51.1482 10.4012 532 111.256 201.511 481.111
1397 0 49.1611 9.45869 465 105.972 201.884 475.692
1398 0 50.2124 9.34031 469 105.938 202 476.928
1399 0 52.0871 11.3656 592 102.128 201.838 476.01
1400 0 52.2116 11.3768 594 102.406 201.793 474.34
1401 0 53.1905 10.1898 542 104.672 202.127 474.897
1402 0 57.3414 11.4926 659 107.202 202.464 476.774
1403 0 60.2493 12.0665 727 104.292 202.089 477.689
1404 0 61.2807 11.7982 723 105.555 202.344 474.797
1405 0 62.189 11.8831 739 105.958 201.039 474.495
1406 0 64.2026 12.8344 824 103.313 201.625 473.506
1407 0 69.1306 13.0767 904 100.342 201.727 472.738
1408 0 69.2681 12.199 845 103.138 202.186 470.266
1409 0 69.1413 11.5705 800 101.994 202.077 468.46
1410 0 73.2097 11.7334 859 101.061 202.428 468.647
1411 0 73.2379 11.7289 859 102.822 202.083 465.998
1412 0 77.1744 11.1695 862 102.874 202.875 468.101
1413 0 80.1738 12.6849 1017 100.703 202.595 465.697
1414 0 79.1435 10.4873 830 106.929 202.08 464.71
1415 0 83.1157 12.4164 1032 102.038 201.564 463.595
1416 0 84.0809 11.5365 970 104.77 201.852 464.247
1417 0 88.1121 12.2798 1082 102.837 202.175 462.285
1418 0 92.2162 13.3599 1232 100.317 202.2 461.882
1419 0 93.378 12.6689 1183 103.736 202.809 457.333
1420 0 96.3764 12.97 1250 104.4 201.941 458.586
1421 0 101.453 12.459 1264 107.65 202.578 454.434
1422 0 102.234 11.2781 1153 111.929 201.606 453.932
1423 0 107.277 13.4605 1444 107.856 201.776 453.848
1424 0 104.128 11.4091 1188 107.682 202.082 454.609
1425 0 109.232 12.6428 1381 105.689 201.528 455.831
1426 0 110.31 11.5311 1272 105.516 201.904 455.888
1427 0 112.359 11.7926 1325 108.509 201.869 453.57
1428 0 117.186 12.5101 1466 105.466 202.308 453.269
1429 0 121.233 13.2554 1607 103.022 201.977 451.63
1430 1 71.2776 12.1637 867 107.095 201.893 473.197
1431 0 72.2302 12.7924 924 107.171 202.579 472.566
1432 0 74.1594 12.3787 918 108.913 201.946 471.515
1433 0 77.0643 12.8853 993 108.167 201.708 470.604
1434 0 79.1735 13.9819 1107 106.248 201.439 469.362
1435 0 82.1664 13.3631 1098 108.294 201.533 469
1436 0 83.181 12.8876 1072 111.57 201.328 466.021
1437 0 86.2237 12.6879 1094 111.494 202.36 466.535
1438 0 89.2226 12.0485 1075 114.498 201.629 463.856
1439 0 89.2868 12.6447 1129 114.801 201.946 461.37
1440 0 97.0434 13.5919 1319 111.883 201.274 459.582
1441 0 98.4408 12.4136 1222 115.707 201.498 454.97
1442 1 51.2145 10.8172 554 110.969 201.569 480.179
1443 0 54.0394 12.5649 679 109.839 201.412 479.782
1444 0 55.0951 12.3786 682 110.677 202.148 480.965
1445 0 57.0784 12.9997 742 114.309 202.137 479.356
1446 0 58.0889 12.7219 739 115.992 201.457 477.024
1447 0 58.0771 13.396 778 113.303 201.393 475.234
1448 0 59.1011 12.7747 755 115.156 200.813 471.332
1449 0 63.1748 13.6447 862 111.516 201.738 472.929
1450 0 64.1177 12.3679 793 113.472 200.499 474.206
1451 0 65.1688 13.4267 875 111.517 201.6 470.877
1452 0 67.0943 12.7284 854 112.898 201.575 472.133
1453 0 69.2036 14.2478 986 109.611 202.372 469.856
1454 0 71.276 13.2583 945 111.291 202.101 470.25
1455 0 73.1725 13.3657 978 111.694 202.37 466.565
1456 0 75.3163 13.3836 1008 111.904 201.855 466.122
1457 0 75.3583 13.0576 984 112.151 201.917 467.249
1458 0 81.1347 14.3958 1168 109.281 201.746 464.741
1459 0 84.2174 13.7264 1156 110.304 202.318 463.564
1460 0 86.1421 12.6767 1092 113.507 201.393 462.5
1461 0 88.2522 14.1639 1250 110 200.798 460.607
1462 0 91.1375 14.2861 1302 109.791 201.106 459.441
1463 0 93.1668 14.1359 1317 109.516 202.112 458.15
1464 0 95.3992 15.0106 1432 107.837 201.631 456.596
1465 0 98.1816 14.3 1404 109.406 201.738 456.462
1466 0 102.282 14.7044 1504 108.966 202.453 453.823
1467 0 106.188 14.2859 1517 109.514 202.424 451.327
1468 0 111.224 15.0777 1677 106.989 202.005 451.11
1469 0 112.191 13.6375 1530 110.822 202.733 448.212
1470 1 56.0849 11.3578 637 109.732 202.516 475.24
1471 0 58.096 11.481 667 111.484 202.765 475.667
1472 0 62.0606 12.8423 797 110.467 203.046 473.597
1473 0 63.048 13.1646 830 111.722 203.06 473.302
1474 0 66.1651 13.8744 918 110.118 202.357 472.505
1475 0 66.0435 13.4305 887 113.09 202.042 469.706
1476 0 70.0886 13.754 964 111.877 202.86 469.624
1477 0 72.1319 13.2951 959 112.724 202.118 468.588
1478 0 73.175 13.2696 971 112.452 201.852 469.087
1479 0 75.2042 13.3636 1005 113.095 202.368 466.342
1480 0 80.1435 13.9999 1122 111.216 201.695 465.126
1481 0 81.178 15.1888 1233 108.391 202.419 463.887
1482 0 83.1466 13.3499 1110 112.831 201.638 461.369
1483 0 86.2455 14.2036 1225 110.324 202.393 462.13
1484 0 90.154 13.7875 1243 111.284 201.874 461.791
1485 0 92.1318 13.5892 1252 111.764 201.383 459.59
1486 0 94.1327 13.6509 1285 111.584 201.655 455.657
1487 0 98.162 13.2027 1296 112.039 201.756 455.846
1488 0 103.209 14.7468 1522 106.829 201.143 455.476
1489 0 105.118 14.5836 1533 108.067 201.61 454.117
