time division length width area intensity CMx CMy
0 0 46.0269 12.1451 559 150.517 809.961 483.24
1 0 44.0525 11.8041 520 154.785 810.937 482.496
2 0 47.0341 12.7567 600 148.983 810.708 482.068
3 0 49.0135 12.5272 614 149.752 810.047 481.068
4 0 49.0236 12.7082 623 147.546 810.311 482.151
5 0 50.0592 12.2255 612 151.743 811.083 480.639
6 0 50.0359 11.3119 566 154.542 810.332 480.652
7 0 53.0763 12.1146 643 150.994 810.459 479.521
8 0 53.0298 12.5778 667 150.201 810.762 479.445
9 0 57.0237 12.6789 723 147.313 810.169 479.539
10 0 57.0547 12.8123 731 147.705 810.324 478.347
11 0 59.0557 12.8353 758 146.47 810.409 478.479
12 0 62.0658 12.4706 774 147.36 810.386 477.066
13 0 64.0252 12.3076 788 146.651 810.718 476.831
14 1 34.0267 12.4902 425 146.449 809.699 490.574
15 0 34.016 12.3765 421 148.836 809.836 489.855
16 0 34.0263 12.3728 421 149.853 810.589 489.081
17 0 37.1022 12.9103 479 146.171 810.731 488.706
18 0 37.0228 13.3431 494 145.7 809.17 490.075
19 0 37.0101 13.1045 485 146.965 809.751 489.676
20 0 40.0708 12.9022 517 145.832 809.197 489.014
21 0 42.0747 12.6917 534 145.921 809.513 488.054
22 0 43.027 13.8053 594 142.109 808.948 489.032
23 0 43.0126 13.0892 563 144.396 808.396 489.604
24 0 44.0455 12.0784 532 148.41 808.329 488.231
25 0 46.0202 13.7114 631 143.054 808.509 487.284
26 0 48.0871 13.1428 632 143.617 808.492 486.834
27 0 50.0821 12.9188 647 144.23 808.372 485.42
28 0 51.1864 14.5351 744 139.751 808.543 484.496
29 0 51.0506 13.516 690 144.504 808.294 483.712
30 0 55.0928 13.5589 747 142.371 808.224 483.529
31 0 56.0863 13.6219 764 142.418 808.708 483.373
32 0 58.0707 13.7591 799 141.263 808.029 482.553
33 0 60.0476 14.4552 868 140.245 807.828 480.248
34 0 62.1203 14.2787 887 140.227 807.956 479.679
35 0 61.0785 12.9505 791 145.752 807.642 479.656
36 0 65.0908 13.9958 911 142.762 807.257 477.167
37 0 67.0393 14.141 948 142.653 806.997 476.275
38 0 69.0572 13.3947 925 145.541 806.535 475.814
39 0 74.1387 13.8389 1026 143.975 806.339 473.712
40 0 76.0618 14.1464 1076 142.296 806.791 473.229
41 0 80.0852 15.2088 1218 139.036 806.813 470.099
42 0 81.1605 14.8102 1202 139.438 807.019 471.452
43 0 86.1053 15.2255 1311 137.362 807.367 468.995
44 0 87.0667 15.0574 1311 138.05 806.594 469.314
45 0 90.1549 14.3198 1291 139.858 806.832 468.799
46 0 94.1241 15.1715 1428 137.306 806.337 466.06
47 0 95.1013 14.8473 1412 138.686 806.125 464.122
48 0 97.1596 14.4402 1403 140.602 806.399 462.346
49 0 102.074 14.7833 1509 138.997 807.484 462.814
50 0 105.205 15.3984 1620 140.994 806.496 459.992
51 0 111.186 14.9659 1664 139.876 806.876 458.327
52 0 112.147 14.9268 1674 139.64 806.246 455.406
53 0 117.114 14.2682 1671 141.674 806.599 451.607
54 0 122.174 14.643 1789 139.923 806.552 453.5
55 0 126.217 13.9046 1755 141.795 805.989 450.634
56 0 130.187 14.3102 1863 141.101 805.687 448.119
57 0 137.143 14.7364 2021 138.844 805.746 446.587
58 0 142.191 14.8392 2110 138.292 805.534 442.834
59 0 148.137 14.8579 2201 138.214 805.421 441.782
60 0 152.229 14.6227 2226 138.424 805.832 439.637
61 0 159.376 14.3999 2295 139.217 805.472 434.644
62 0 165.376 14.9538 2473 137.333 805.028 434.347
63 0 172.133 14.3261 2466 139.318 805.107 431.256
64 0 179.292 14.5851 2615 138.023 804.577 427.013
65 0 184.247 13.9107 2563 140.41 805.226 423.561
66 1 98.1707 13.2117 1297 136.175 805.166 464.398
67 0 102.12 14.0228 1432 133.467 805.344 462.876
68 0 107.077 13.8872 1487 136.682 804.969 459.877
69 0 110.136 14.2007 1564 133.587 805.059 459.971
70 0 115.114 14.4986 1669 131.273 804.753 457.15
71 0 119.249 14.2726 1702 132.609 805.339 453.827
72 0 124.096 15.8023 1961 127.822 805.647 451.716
73 0 130.21 15.4674 2014 129.337 804.898 448.357
74 0 134.217 14.2381 1911 132.187 804.762 443.497
75 0 139.253 15.0159 2091 131.918 805.35 440.126
76 0 142.167 14.4196 2050 134.452 805.482 435.142
77 0 148.262 13.7797 2043 136.106 805.511 435.065
78 0 154.213 15.6213 2409 129.987 805.726 431.606
79 0 156.346 13.7899 2156 136.54 804.807 425.84
80 0 164.224 13.9566 2292 134.831 804.836 424.255
81 1 88.0978 11.6916 1030 134.216 805.502 462.706
82 0 92.1012 12.2691 1130 130.388 805.542 458.843
83 0 98.106 12.4355 1220 128.293 805.952 459.015
84 0 98.0854 13.3557 1310 129.683 806.381 460.068
85 0 101.078 13.3659 1351 127.794 806.145 459.905
86 0 102.206 12.9933 1328 130.342 805.161 457.179
87 0 106.122 13.4091 1423 129.916 805.543 455.508
88 0 110.187 13.0415 1437 129.474 805.723 454.326
89 0 116.156 13.4819 1566 128.359 805.453 451.073
90 0 119.176 13.8367 1649 126.504 804.649 450.319
91 0 123.125 12.9787 1598 128.616 804.747 446.058
92 0 130.235 13.6522 1778 125.723 804.917 443.328
93 0 133.266 13.822 1842 127.365 804.643 443.438
94 0 140.31 14.7246 2066 124.903 804.363 438.961
95 0 145.29 14.4883 2105 124.621 804.812 432.083
96 0 150.296 14.172 2130 126.352 804.277 431.825
97 1 87.2979 12.4172 1084 119.649 805.02 467.961
98 0 89.2732 11.7841 1052 117.187 804.968 469.279
99 0 93.1575 12.3554 1151 113.206 805.067 466.697
100 0 96.1703 12.0411 1158 114.436 805.285 466.481
101 0 99.1073 11.5531 1145 116.381 804.616 466.018
102 0 104.296 11.9852 1250 116.678 804.823 462.86
103 0 104.096 9.62572 1002 124.426 805.552 459.584
104 0 110.119 12.2413 1348 117.341 805.461 459.427
105 0 115.183 12.5018 1440 116.942 805.406 458.697
106 0 119.153 11.9846 1428 119.104 805.349 455.774
107 0 122.193 12.5211 1530 119.593 804.871 449.607
108 1 66.1293 10.0561 665 106.098 805.821 483.893
109 0 68.0436 11.3604 773 104.441 804.515 481.75
110 0 73.1786 12.8179 938 110.08 805.103 479.721
111 0 75.298 11.6338 876 114.572 804.976 477.79
112 0 75.1603 11.1362 837 115.603 804.876 477.918
113 0 78.1908 11.9068 931 114.293 803.824 474.789
114 0 84.2159 11.3874 959 113.959 805.492 476.41
115 0 84.2298 11.3499 956 137.543 806.487 476.413
116 0 89.1616 12.3259 1099 113.376 804.487 472.44
117 0 91.1265 11.6871 1065 116.906 804.137 469.185
118 0 94.1138 11.773 1108 117.294 805.568 467.375
119 0 96.1487 9.73492 936 122.201 805.785 468.185
120 1 52.1379 9.70504 506 114.411 804.901 489.923
121 0 53.0616 10.2334 543 118.56 804.645 486.488
122 0 57.281 11.9586 685 108.114 804.399 486.718
123 0 56.0866 11.0543 620 111.018 803.818 487.205
124 0 58.0877 11.7753 684 108.431 804.398 486.38
125 0 60.0957 11.4151 686 111.592 802.794 485.267
126 0 61.054 11.5308 704 108.732 804.274 483.483
127 0 62.2699 11.5144 717 112.863 804.068 483.477
128 0 66.0935 10.3338 683 112.955 803.719 483.157
129 0 70.1183 11.937 837 110.859 803.757 482.271
130 0 72.079 11.8342 853 109.192 805.372 480.362
131 0 73.288 12.1029 887 113.193 804.842 479.499
132 0 76.1677 13.0633 995 110.884 804.458 478.663
133 0 79.1577 12.4561 986 113.158 803.779 475.408
134 0 81.1774 12.3433 1002 110.937 804.418 477.619
135 0 82.1188 12.0679 991 113.273 803.953 474.419
136 0 84.0931 11.6538 980 114.222 804.718 475.452
137 0 88.2048 12.0175 1060 113.846 804.242 473.615
138 0 92.1557 12.6959 1170 112.272 804.631 470.524
139 0 94.1768 12.2429 1153 114.874 804.472 468.492
140 0 95.0554 12.4349 1182 117.596 804.734 466.646
141 0 98.2587 12.3551 1214 118.949 803.879 466.739
142 0 104.161 13.8632 1444 115.115 805.382 465.033
143 0 108.111 13.2179 1429 115.066 805.512 463.412
144 1 57.1011 10.7353 613 114.533 805.977 487.002
145 0 62.1142 11.4306 710 111.81 806.342 486.073
146 0 62.0183 12.1899 756 112.401 806.176 485.05
147 0 61.0718 11.0689 676 104.598 805.318 485.996
148 0 61.1717 11.5249 705 105.423 805.458 485.59
149 0 62.0889 11.3547 705 106.14 805.591 484.796
150 0 66.1597 11.835 783 103.66 804.883 483.797
151 0 67.0668 11.3171 759 104.368 804.547 482.921
152 0 70.165 11.2592 790 105.367 805.22 481.484
153 0 72.1547 12.002 866 105.262 804.547 478.963
154 0 76.0349 11.5473 878 104.73 805.282 481.273
155 0 74.1054 10.4311 773 108.259 804.594 477.354
156 0 81.1377 11.2155 910 104.631 804.996 476.227
157 0 83.1303 11.6564 969 104.813 805.244 472.653
158 0 86.1275 10.3103 888 106.843 805.586 474.894
159 0 89.1846 11.7621 1049 105.34 804.525 468.627
160 0 90.1099 10.5649 952 107.636 805.17 471.807
161 0 96.3075 11.4218 1100 104.349 803.825 470.236
162 1 48.1728 10.6076 511 101.477 804.272 490.495
163 0 49.0527 11.6609 572 99.6923 804.467 491.196
164 0 52.0479 11.8737 618 101.27 805.225 488.254
165 0 53.0695 13.1337 697 102.085 806.057 487.651
166 0 52.1048 10.3637 540 106.05 804.844 490.361
167 0 55.0647 11.4592 631 103.827 805 488.366
168 0 57.0206 11.6274 663 104.293 804.446 485.484
169 0 59.0934 11.2195 663 104.192 804.836 486.658
170 0 60.0514 12.023 722 104.637 805.392 483.269
171 0 60.0609 11.3551 682 107.333 805.905 483.856
172 0 64.072 13.1103 840 103.617 805.021 480.714
173 0 66.1513 11.6249 769 106.287 805.208 481.831
174 0 66.0857 11.6969 773 108.408 805.102 478.123
175 0 72.0561 12.5735 906 104.754 805.21 479.285
176 0 71.1704 12.182 867 108.047 805.032 476.881
177 0 77.0999 12.9053 995 105.845 805.128 475.947
178 0 78.1534 12.4115 970 107.311 805.16 474.806
179 0 81.3224 12.3951 1008 108.318 804.267 473.321
180 0 84.1106 12.0912 1017 110.545 804.508 471.964
181 0 86.2684 12.4611 1075 110.738 804.692 470.033
182 0 88.3503 11.9185 1053 114.888 804.757 468.079
183 0 92.2507 12.6503 1167 115.323 804.714 467.784
184 0 93.2628 12.1914 1137 117.478 804.597 466.37
185 0 100.238 12.8495 1288 114.672 804.573 464.28
186 0 103.255 13.5587 1400 113.189 805.104 463.896
187 0 105.171 12.4179 1306 118.605 805.129 460.375
188 0 110.193 12.8956 1421 117.569 804.243 456.494
189 0 115.223 13.6258 1570 114.788 804.4 458.021
190 1 62.0761 10.761 668 108.37 805.142 483.114
191 0 63.0808 11.3664 717 111.049 804.7 484.452
192 0 65.0758 11.4636 746 110.918 804.162 480.055
193 0 69.112 12.4725 862 107.137 804.094 481.261
194 0 71.142 12.7632 908 107.282 804.116 479.769
195 0 74.0948 12.2411 907 108.921 804.496 478.735
196 0 73.2613 12.0118 880 113.189 804.784 475.915
197 0 76.1579 12.2771 935 112.765 804.903 474.325
198 0 81.1653 12.1973 990 113.439 805.619 473.552
199 0 81.1635 12.136 985 138.366 805.604 473.582
200 0 86.118 11.9139 1026 114.628 804.777 469.164
201 0 90.1518 13.4107 1209 111.563 804.16 469.32
202 0 93.1315 12.5521 1169 115.342 805.769 467.591
203 0 94.1056 12.8791 1212 118.786 805.343 464.983
204 0 100.066 13.9307 1394 114.854 805.829 464.605
205 0 102.116 12.7992 1307 117.65 805.608 461.366
206 0 105.236 13.3604 1406 117.451 805.693 460.955
207 0 107.219 12.6843 1360 118.074 805.537 458.48
208 0 111.219 12.7587 1419 115.533 804.684 459.327
209 1 61.0686 10.9058 666 108.857 804.832 484.477
210 0 62.0603 11.8272 734 108.771 805.153 482.605
211 0 66.1954 13.0674 865 113.861 804.652 479.052
212 0 63.0732 11.3202 714 116.109 805.136 480.331
213 0 67.238 12.0765 812 112.544 805.018 480.083
214 0 70.1584 11.5738 812 114.466 805.117 479.901
215 0 70.0899 12.0702 846 113.128 805.061 479.413
216 0 74.1312 13.9213 1032 109.271 804.382 476.926
217 0 74.1278 11.5746 858 115.118 804.415 477.189
218 0 77.0676 13.0794 1008 111.934 805.034 473.71
219 0 79.115 12.6904 1004 112.462 805.299 474.257
220 0 81.1458 12.1879 989 113.885 805.056 471.302
221 0 84.1325 12.5279 1054 112.359 805.17 472.843
222 0 86.1186 10.9848 946 116.094 805.611 471.349
223 0 91.2357 12.9445 1181 111.955 804.613 467.602
224 0 94.1326 13.6828 1288 110.987 804.523 464.918
225 0 96.0912 12.4153 1193 113.728 805.046 463.018
226 0 98.1356 11.8204 1160 115.142 804.611 462.225
227 0 103.178 13.4816 1391 111.179 804.082 460.231
228 0 107.093 13.1101 1404 111.904 805.041 456.833
229 0 107.078 12.8692 1378 113.052 804.988 452.856
230 0 114.129 14.2734 1629 108.67 805.452 453.255
231 0 118.123 13.6553 1613 109.569 805.2 451.967
232 0 119.109 12.6942 1512 112.323 805.136 448.603
233 0 121.243 12.5203 1518 114.681 805.044 444.236
234 0 126.139 13.723 1731 110.791 805.403 445.352
235 0 132.186 13.5112 1786 111.764 805.031 441.608
236 0 136.196 14.0312 1911 109.693 805.214 441.509
237 0 137.312 12.5844 1728 114.696 805.22 436.288
238 0 142.214 14.3727 2044 111.17 805.082 430.27
239 0 147.191 13.7169 2019 114.309 805.094 426.285
240 0 152.192 12.8259 1952 116.244 805.188 421.256
241 0 158.293 13.5066 2138 115.383 804.578 420.795
242 0 165.407 14.2799 2362 112.826 804.404 422.705
243 0 170.268 13.7724 2345 115.258 804.07 414.949
244 1 99.2977 11.0476 1097 111.827 804.188 456.613
245 0 101.241 11.5368 1168 112.996 804.822 456.248
246 0 103.195 11.9774 1236 115.422 804.608 461.619
247 0 107.284 12.891 1383 114.783 803.916 456.79
248 0 111.276 12.2847 1367 115.819 803.761 457.248
249 0 115.204 11.8312 1363 114.781 805.205 452.676
250 0 116.195 12.5048 1453 109.743 805.271 446.393
251 0 124.076 11.9927 1488 116.359 805.372 452.037
252 0 128.122 10.9661 1405 118.423 805.26 446.894
253 0 130.147 11.9173 1551 116.386 804.09 443.235
254 1 68.0388 10.0384 683 103.679 804.744 470.466
255 0 74.075 10.1249 750 102.936 805.745 473.197
256 0 74.1165 10.3756 769 110.966 803.791 478.139
257 0 78.0819 10.8092 844 112.076 804.244 474.414
258 0 81.1152 12.4021 1006 107.284 804.633 474.376
259 0 85.0943 13.726 1168 106.096 804.229 471.645
260 0 87.0489 12.4298 1082 110.126 803.999 470.41
261 0 91.1196 12.094 1102 109.837 803.533 469.175
262 0 95.0879 13.1457 1250 109.106 803.439 466.344
263 0 97.2019 12.8393 1248 110.996 804.172 465.904
264 0 100.229 13.9182 1395 110.203 803.212 459.192
265 0 104.218 13.1072 1366 111.231 802.909 460.323
266 0 107.264 12.7256 1365 112.383 803.484 458.006
267 0 112.328 13.2024 1483 110.299 803.808 457.625
268 1 58.0458 8.9929 522 111.268 804.337 484.68
269 0 60.0214 9.56325 574 110.338 805.5 485.706
270 0 60.094 10.7498 646 109.263 802.551 483.786
271 0 64.0476 11.4915 736 109.046 806.348 481.043
272 0 64.0638 12.6749 812 100.071 805.781 481.708
273 0 67.0403 12.2165 819 102.241 805.501 481.468
274 0 69.0347 11.487 793 104.358 806.082 480.315
275 0 69.1353 12.2513 847 103.72 805.957 477.672
276 0 72.0517 10.201 735 107.248 805.958 480.465
277 0 73.1056 11.1346 814 107.055 806.295 476.62
278 0 75.0846 10.5348 791 108.235 806.441 474.895
279 0 78.0897 13.0747 1021 103.609 805.812 473.446
280 0 80.0747 11.4393 916 106.981 805.726 471.705
281 0 85.0656 12.9665 1103 102.335 806.189 473.326
282 0 86.1098 11.8221 1018 105.831 806.464 471.901
283 0 89.1147 11.7377 1046 106.845 805.539 468.777
284 0 93.1971 12.436 1159 105.481 805.845 467.486
285 0 96.1401 12.9499 1245 105.304 805.176 465.357
286 0 98.1607 12.4286 1220 108.021 804.603 463.942
287 0 101.087 11.6137 1174 108.693 804.408 464.138
288 1 53.0422 9.48302 503 111.583 803.34 487.612
289 0 56.0869 12.2667 688 101.943 804.427 486.01
290 0 56.1662 12.2137 686 109.041 804.276 484.431
291 0 58.2556 11.2779 657 111.545 804.586 484.447
292 0 60.159 11.5527 695 110.383 804.237 485.541
293 0 62.2651 11.965 745 110.498 804.808 482.51
294 0 66.1347 13.7447 909 105.783 804.512 481.353
295 0 68.183 12.6278 861 108.389 805.012 481.13
296 0 69.1845 12.6762 877 109.982 805.273 479.369
297 0 69.2122 12.6278 874 112.357 805.444 476.937
298 0 74.2685 13.8417 1028 108.607 805.11 476.22
299 0 77.1759 13.4109 1035 109.328 804.7 476.338
300 0 77.1722 12.8544 992 112.577 805.022 474.255
301 0 81.1547 13.6406 1107 110.62 804.986 473.279
302 0 84.205 12.8258 1080 113.088 804.945 473.731
303 0 84.1673 13.2593 1116 114.185 804.505 469.28
304 0 88.1975 13.3904 1181 112.87 804.762 471.019
305 1 44.0488 10.897 480 106.506 805.81 493.238
306 0 44.1261 9.9261 438 114.982 806.39 490.868
307 0 47.0494 11.1585 525 112.029 805.476 488.215
308 0 47.04 11.8835 559 112.336 805.111 488.907
309 0 49.011 12.6094 618 110.55 806.429 489.168
310 0 53.036 12.5952 668 108.021 805.569 489.997
311 0 49.0241 12.1369 595 113.294 805.718 487.992
312 0 53.0345 11.8225 627 113.193 806.204 486.703
313 0 55.0236 13.3579 735 109.197 806.049 485.639
314 0 55.0397 12.5727 692 112.065 806.169 486.166
315 0 55.0077 11.2711 620 117.811 805.927 485.21
316 0 58.084 12.7918 743 111.717 805.342 485.754
317 0 61.0461 12.5807 768 113.208 805.525 482.979
318 0 63.0342 12.168 767 114.352 806.216 481.299
319 0 63.0673 12.3994 782 115.45 805.717 480.926
320 0 67.0973 13.4879 905 111.569 805.421 478.901
321 0 70.1175 13.4916 946 111.263 805.298 479.151
322 0 70.1144 11.7807 826 115.53 805.924 479.142
323 0 72.1126 13.784 994 111.168 806.149 478.434
324 0 77.0574 13.6002 1048 110.694 805.264 476.683
325 0 79.0759 13.2025 1044 112.611 805.628 474.652
326 0 78.1284 11.4043 891 118.315 805.552 470.655
327 0 84.102 13.3172 1120 112.038 805.752 470.804
328 0 87.064 13.0708 1138 112.739 805.215 469.324
329 0 89.0932 13.3793 1192 111.947 805.445 469.98
330 0 91.1088 12.8308 1169 113.362 805.293 467.672
331 0 94.078 12.107 1139 114.606 805.222 468.747
332 0 98.0976 14.037 1377 110.667 805.821 466.44
333 0 99.1073 13.329 1321 113.571 805.338 462.992
334 0 103.193 13.7703 1421 113.105 805.72 461.015
335 0 104.195 13.5323 1410 114.205 805.809 458.684
336 0 109.096 13.8318 1509 112.482 804.812 459.632
337 0 110.091 11.4269 1258 110.754 805.371 462.421
338 0 113.205 11.8281 1339 109.517 805.4 460.459
339 0 118.089 12.2281 1444 108.813 803.792 456.188
340 1 65.0647 12.941 842 101.177 803.338 482.893
341 0 65.1131 10.4126 678 108.412 803.749 481.296
342 0 66.0821 12.6963 839 107.215 803.7 479.049
343 0 70.0264 12.0954 847 106.947 803.917 479.393
344 0 70.0673 12.4737 874 107.749 804.009 479.097
345 0 76.0752 12.9871 988 105.891 804.448 478.341
346 0 76.1645 14.0354 1069 105.563 804.25 475.354
347 0 79.0875 13.8075 1092 106.412 804.679 475.541
348 0 82.0407 13.7737 1130 107.219 804.345 473.03
349 0 84.1524 12.6913 1068 111.159 805.112 472.586
350 0 88.1273 13.855 1221 107.739 804.965 472.32
351 0 88.1272 13.6961 1207 110.461 804.918 469.284
352 0 92.1354 13.5778 1251 111.517 804.657 469.357
353 0 95.1086 13.0798 1244 112.469 805.096 468.829
354 0 99.2527 13.7024 1360 111.207 805.744 467.943
355 0 102.121 13.7484 1404 113.4 805.732 463.177
356 0 103.126 13.8375 1427 115.16 805.528 462.911
357 1 51.036 11.4625 585 114.711 804.227 489.532
358 0 52.1339 10.051 524 104.454 805.088 485.448
359 0 53.0815 10.4933 557 102.521 805.79 486.438
360 0 53.0922 11.6025 616 107.106 806.633 486.39
361 0 57.1408 12.4254 710 103.489 806.786 485.013
362 0 62.1513 12.5983 783 100.529 806.667 484.564
363 0 64.0833 13.2016 846 99.7045 806.734 484.46
364 0 65.1373 12.8037 834 101.305 806.526 483.305
365 0 67.0906 12.1328 814 102.645 806.168 482.784
366 0 69.1115 12.4871 863 102.431 805.875 481.184
367 0 70.1168 13.3634 937 101.796 806.465 480.732
368 0 73.1284 12.8541 940 103.81 806.612 478.352
369 0 73.2107 12.3616 905 105.897 806.088 478.105
370 0 77.1432 13.7277 1059 103.468 806.013 475.427
371 0 80.1349 13.1403 1053 103.803 806.756 477.266
372 0 80.1393 12.4533 998 107.017 806.587 474.173
373 0 83.1388 13.0144 1082 106.366 805.911 474.634
374 0 87.1451 13.5406 1180 105.336 805.699 471.84
375 0 88.1435 13.2284 1166 107.646 805.622 470.835
376 0 92.1987 13.0913 1207 108.643 805.42 469.707
377 0 92.135 12.5251 1154 113.194 805.61 468.529
378 0 95.1068 13.3955 1274 111.399 804.521 466.597
379 0 98.3439 11.3784 1119 116.265 804.018 464.323
380 0 102.237 14.8283 1516 109.119 804.416 460.909
381 1 57.2786 13.4256 769 103.376 804.256 481.346
382 0 59.221 12.3098 729 109.239 805.173 482.403
383 0 62.2198 12.8255 798 109.14 805.529 482.987
384 0 62.1675 12.8845 801 102.871 804.923 483.866
385 0 62.1321 12.1193 753 105.716 804.636 482.619
386 0 66.1507 13.3332 882 102.797 805.007 481.967
387 0 69.064 12.3219 851 104.716 805.261 481.626
388 0 71.1461 11.8348 842 105.527 805.659 481.01
389 0 75.2353 13.0125 979 102.152 806.42 478.538
390 0 76.155 12.4483 948 105.501 806.028 476.944
391 0 79.069 13.1531 1040 103.781 805.966 476.56
392 0 82.1719 11.5855 952 107.295 806.545 477.126
393 0 86.159 12.9992 1120 104.69 806.181 473.468
394 0 89.1027 13.0524 1163 105.72 806.659 471.979
395 0 91.1644 12.4281 1133 107.501 806.091 470.054
396 0 95.1714 12.7244 1211 106.439 806.007 470.312
397 0 98.1441 12.4409 1221 109.003 805.976 466.154
398 1 52.1806 10.5978 553 102.62 807.08 491.024
399 0 53.1775 11.5274 613 101.918 806.163 488.569
400 0 54.1293 10.7151 580 105.848 806.424 489.652
401 0 58.1163 11.8555 689 99.0116 804.395 488.075
402 0 58.2086 11.5447 672 100.936 804.972 487.07
403 0 58.0885 10.4323 606 103.658 804.95 486.259
404 0 60.0481 11.9571 718 100.058 805.422 485.643
405 0 65.0959 11.3832 741 100.382 804.704 483.887
406 0 66.0457 11.2801 745 100.928 805.054 483.235
407 0 70.2387 11.2046 787 100.62 805.274 482.094
408 0 72.0445 11.7983 850 99.5294 805.512 480.266
409 0 73.0208 10.6134 775 101.996 805.286 481.201
410 0 76.1767 11.9722 912 100.485 805.643 478.005
411 0 77.1474 11.8215 912 102.038 805.988 476.898
412 0 81.1289 12.0919 981 101.882 805.304 472.554
413 0 82.0651 10.5282 864 105.946 806.078 470.164
414 1 46.1071 9.80325 452 98.3584 806.549 492.655
415 0 46.1161 9.60618 443 102.973 805.564 493.948
416 0 48.1194 11.7001 563 98.6288 806.082 492.972
417 0 46.025 11.6458 536 107.537 804.601 491.761
418 0 51.1178 12.9114 660 102.944 804.456 490.83
419 0 52.0663 12.7338 663 105.003 805.131 490.451
420 0 53.1493 12.1544 646 107.017 804.46 490.546
421 0 54.1134 12.5662 680 106.5 804.56 488.643
422 0 58.198 11.9935 698 107.5 805.168 486.484
423 0 58.0745 11.6058 674 109.343 805.844 486.706
424 0 60.0697 12.6686 761 107.307 805.197 486.514
425 0 62.1572 13.6267 847 104.453 804.737 484.988
426 0 64.2114 13.1285 843 105.53 805.559 484.454
427 0 66.1516 13.2423 876 105.893 805.582 484.997
428 0 69.2158 13.9852 968 104.221 805.412 482.9
429 0 70.1486 12.4735 875 109.907 805.295 479.09
430 0 74.3315 13.5878 1010 107.95 805.881 478.513
431 0 76.1684 13.0369 993 110.074 805.676 478.022
432 0 80.205 13.7273 1101 108.382 805.986 474.437
433 0 81.299 13.4811 1096 109.12 806.042 475.115
434 0 86.2403 14.2161 1226 106.829 805.433 472.205
435 0 87.2963 14.445 1261 107.397 804.662 469.055
436 1 46.2529 9.57779 443 112.088 805.901 491.786
437 0 45.132 10.1923 460 107.207 805.685 487.53
438 0 49.2982 10.4669 516 106.273 805.382 486.202
439 0 49.2905 9.79906 483 106.692 805.408 487.052
440 0 53.1867 11.3374 603 103.922 806.033 485.189
441 0 52.0988 11.0559 576 104.378 805.764 483.877
442 0 56.1098 13.135 737 110.46 805.396 486.18
443 0 53.1358 9.67333 514 110.854 804.866 488.813
444 0 55.1219 10.8668 599 108.524 804.962 488.748
445 0 59.2167 12.7498 755 107.446 805.547 486.927
446 0 61.1475 13.0668 799 106.581 805.841 484.812
447 0 63.1275 13.4173 847 105.168 805.521 487.06
448 0 66.1136 13.2045 873 105.659 806.238 484.345
449 0 68.0598 12.298 837 107.449 806.105 483.452
450 0 69.2206 12.713 880 108.816 805.491 481.733
451 0 74.1727 13.2124 980 107.253 805.89 481.221
452 0 77.2071 14.9468 1154 104.218 806.701 478.873
453 0 78.3454 13.2107 1035 109.801 806.291 474.912
454 0 81.2819 13.1271 1067 111.988 805.944 472.56
455 0 85.3015 15.0994 1288 111.262 806.79 472.144
456 0 85.3916 13.28 1134 118.4 805.979 470.638
457 0 88.3335 13.1773 1164 115.165 806.72 470.075
458 0 91.1339 13.4747 1228 109.022 806.538 469.454
459 0 95.1757 13.2072 1257 109.959 806.707 468.119
460 0 96.2053 12.359 1189 114.167 806.902 467.472
461 0 100.165 12.4594 1248 113.739 807.136 465.764
462 0 103.258 13.1224 1355 113.076 806.372 466.714
463 0 108.28 13.4559 1457 113.781 807.275 462.336
464 0 110.219 13.1375 1448 114.689 807.259 462.739
465 0 114.285 13.4751 1540 114.081 807.378 458.051
466 0 117.198 12.9695 1520 116.383 806.614 457.1
467 0 123.419 14.2684 1761 111.869 807.185 453.974
468 0 127.209 13.639 1735 113.94 806.901 452.774
469 0 131.267 12.806 1681 116.974 806.75 449.526
470 0 137.303 13.6487 1874 115.043 806.679 448.258
471 0 141.2 13.5906 1919 116.072 806.539 444.276
472 1 76.1282 12.1506 925 110.352 806.99 477.536
473 0 79.195 11.2002 887 111.902 806.426 478.125
474 0 79.1933 11.4404 906 110.405 806.489 474.445
475 0 84.1666 13.0337 1097 107.549 806.693 474.64
476 0 87.2056 13.1758 1149 109.192 807.186 472.829
477 0 91.1206 12.2475 1116 110.879 806.364 472.973
478 0 94.2008 13.726 1293 108.954 806.752 468.841
479 0 98.133 13.39 1314 110.144 806.994 469.431
480 0 100.262 12.587 1262 118.104 806.238 466.381
481 0 103.289 13.3799 1382 116.619 805.295 463.561
482 0 108.413 14.288 1549 114.606 806.289 461.328
483 0 110.25 13.3696 1474 115.892 805.955 461.465
484 0 115.202 13.2376 1525 116.529 806.423 458.035
485 0 118.225 12.3747 1463 119.687 806.705 454.424
486 0 121.245 12.5366 1520 119.62 806.578 451.69
487 0 127.366 12.9626 1651 119.516 806.956 448.85
488 0 133.377 13.6906 1826 118.009 806.973 444.97
489 0 136.406 14.1929 1936 118.228 805.877 441.824
490 0 141.236 13.7855 1947 121.359 805.915 438.35
491 1 74.4512 11.4169 850 116.887 805.901 471.16
492 0 77.2485 12.9582 1001 112.932 805.991 469.644
493 0 80.3388 12.9452 1040 111.322 805.778 473.988
494 0 84.4142 14.0142 1183 111.38 805.417 472.511
495 0 84.1998 13.4323 1131 115.034 805.399 469.654
496 0 86.3722 11.8672 1025 117.977 805.901 467.802
497 0 91.5341 13.6124 1246 113.826 806.31 465.247
498 0 94.5634 14.0329 1327 113.298 806.05 464.164
499 0 93.3674 12.1027 1130 119.868 805.799 461.153
500 0 98.4192 12.8227 1262 119.957 806.467 462.865
501 0 103.271 13.0628 1349 122.678 806.454 458.376
502 0 105.529 13.4845 1423 123.413 805.711 456.908
503 0 110.339 12.5885 1389 127.022 807.015 455.172
504 1 56.3749 11.8492 668 121.834 806.033 481.626
505 0 58.3721 12.4888 729 122.298 805.978 481.144
506 0 61.5474 12.202 751 123.253 806.447 480.337
507 0 63.2798 11.3306 717 124.575 806.375 481.872
508 0 65.3915 11.7905 771 124.847 806.38 480.922
509 0 69.2946 12.1655 843 125.285 806.912 478.081
510 0 69.3446 12.0269 834 126.558 805.749 476.788
511 0 74.3179 12.9444 962 123.306 805.712 476.367
512 0 76.387 12.4629 952 126.369 806.295 475.256
513 0 76.2661 12.3515 942 129.859 806.317 471.209
514 0 77.3131 11.4987 889 133.979 805.87 472.12
515 0 78.2855 12.0584 944 132.279 805.709 473.1
516 0 83.1616 12.5298 1042 133.512 805.621 468.979
517 0 89.3597 13.3729 1195 131.423 805.26 466.87
518 0 89.3996 12.9307 1156 134.257 805.51 466.744
519 0 92.2553 12.4546 1149 136.022 805.818 464.395
520 0 96.441 13.9982 1350 131.223 805.599 461.47
521 1 50.3379 11.6215 585 126.675 804.846 487.815
522 0 49.1895 11.7911 580 126.224 805.333 488.274
523 0 51.1603 12.4902 639 126.574 804.615 484.797
524 0 53.2761 12.3695 659 128.114 805.099 485.017
525 0 55.2622 12.9383 715 127.147 805.706 484.004
526 0 56.1962 13.6664 768 126.043 804.784 483.368
527 0 60.37 14.2621 861 123.111 805.107 481.222
528 0 60.1686 12.9636 780 127.56 805.273 479.708
529 0 62.3638 13.1326 819 127.347 805.25 479.756
530 0 64.3201 14.5989 939 124.398 805.174 477.539
531 0 66.2485 13.6758 906 126.404 805.55 476.797
532 0 68.2268 12.605 860 129.14 804.919 477.421
533 0 72.2363 13.5804 981 125.873 804.769 476.511
534 0 74.3917 12.6627 942 128.731 805.228 475.842
535 0 75.3677 12.9499 976 129.697 804.77 473.627
536 0 78.3068 14.3283 1122 126.272 804.819 472.86
537 0 81.3375 14.7533 1200 125.078 804.653 470.606
538 0 82.2977 14.7513 1214 126.932 804.942 468.008
539 0 85.2465 13.678 1166 129.657 805.19 467.659
540 0 90.3404 14.866 1343 126.259 805.014 466.991
541 0 93.2405 15.3689 1433 124.376 805.107 466.553
542 0 94.4652 12.9677 1225 131.982 805.34 465.021
543 0 97.2777 13.8675 1349 129.52 805.32 465.208
544 0 101.2 14.5751 1475 129.266 805.331 459.677
545 0 105.435 13.9422 1470 130.335 805.159 459.088
546 0 109.303 13.641 1491 130.774 805.14 457.781
547 0 114.325 13.9165 1591 129.696 805.58 454.415
548 0 119.357 15.4913 1849 123.01 806.217 453.052
549 0 124.218 14.7563 1833 123.779 806.17 453.69
550 0 127.113 15.1125 1921 124.947 806.741 450.808
551 0 131.194 14.0175 1839 128.172 806.706 449.309
552 0 136.251 14.4219 1965 127.725 807.182 447.816
553 1 68.104 13.9639 951 129.493 806.624 479.858
554 0 69.1148 13.4848 932 134.573 807.21 478.752
555 0 69.2598 13.471 933 135.671 806.934 477.414
556 0 74.1792 14.101 1046 134.993 806.668 476.002
557 0 77.169 14.073 1086 135.194 806.652 475.735
558 0 78.222 14.3054 1119 135.99 806.446 474.468
559 0 82.1026 14.6037 1199 136.235 807.193 473.064
560 0 85.1344 14.4712 1232 137.508 806.691 471.312
561 0 88.1102 15.6054 1375 135.361 807.141 470.74
562 0 89.2127 14.5607 1299 140.038 806.593 467.115
563 0 92.2419 14.7547 1361 141.086 806.712 464.802
564 0 95.0868 14.2396 1354 142.936 807.318 466.252
565 0 100.225 15.1759 1521 139.517 807.259 464.332
566 0 103.222 14.7449 1522 141.396 806.702 461.532
567 0 109.316 14.1608 1548 142.554 806.585 458.981
568 0 112.145 13.973 1567 143.773 806.483 457.417
569 0 116.166 14.2641 1657 143.378 806.738 453.767
570 0 120.176 13.863 1666 145.253 806.357 452.364
571 1 64.0628 11.4107 731 139.114 806.576 477.895
572 0 66.0292 11.6615 770 137.669 806.294 475.109
573 0 67.04 11.2172 752 146.199 806.536 474.956
574 0 70.0455 11.8637 831 143.398 806.52 475.091
575 0 73.0359 12.3364 901 141.828 806.252 473.276
576 0 75.0705 11.9887 900 143.06 805.694 472.209
577 0 78.0631 12.7461 995 141.133 806.454 470.725
578 0 80.0715 12.7886 1024 141.627 806.642 469.638
579 0 83.192 12.5012 1040 143.241 805.747 467.651
580 0 86.0434 13.0051 1119 141.196 805.826 466.258
581 0 88.102 12.5082 1102 143.727 806.077 464.198
582 0 92.086 13.444 1238 139.48 806.2 464.124
583 0 95.1091 12.207 1161 143.723 806.01 461.728
584 0 97.0816 12.4019 1204 143.798 806.504 458.585
585 0 101.078 13.3758 1352 141.024 806.411 458.279
586 0 106.14 12.7567 1354 141.905 806.855 457.055
587 1 60.0154 10.3307 620 126.835 807.076 482.876
588 0 57.0302 8.48673 484 128.855 806.979 482.99
589 0 60.0524 11.3401 681 116.295 806.614 482.518
590 0 62.0711 10.3913 645 118.76 806.507 481.355
591 0 63.0631 9.75214 615 119.717 806.151 478.704
592 0 67.0916 11.447 768 114.174 806.376 478.755
593 0 66.0562 8.12944 537 122.728 806.482 477.331
594 0 70.0491 9.53617 668 120.067 805.988 475.981
595 0 74.0709 10.2064 756 118.77 806.644 474.496
596 0 76.1284 12.6891 966 113.874 805.65 473.169
597 0 78.0664 10.2477 800 120.528 805.521 472.504
598 0 80.1357 10.1079 810 119.66 804.907 471.833
599 0 83.1079 8.84393 735 123.427 805.042 471.581
600 0 85.0953 11.0112 937 119.549 804.848 467.911
601 0 89.1785 10.451 932 119.75 805.256 465.872
602 0 89.131 10.2882 917 121.77 805.115 465.489
603 0 93.1365 10.3397 963 121.048 805.088 464.252
604 0 95.2293 8.6843 827 126.127 805.045 463.438
605 1 49.0776 9.98418 490 116.382 805.139 487.712
606 0 52.0538 9.98966 520 115.356 805.846 487.712
607 0 47.0215 7.89 371 120.264 806.604 488.65
608 0 51.029 8.70093 444 119.173 807.273 488.354
609 0 52.0609 8.68215 452 121.197 807.431 485.299
610 0 61.1788 8.042 492 119.073 806.939 488.567
611 0 59.0743 7.21126 426 123.8 806.007 484.932
612 0 60.0757 9.37151 563 119.792 806.721 483.282
613 0 61.0628 8.71235 532 121.374 806.688 484.368
614 0 63.0906 9.35163 590 119.734 806.293 484.832
615 0 62.0354 9.20443 571 122.524 806.082 483.518
616 0 64.0314 9.15176 586 124.263 805.939 481.138
617 1 143.488 12.2588 1759 128.052 805.333 441.998
618 0 148.606 11.2714 1675 130.735 805.162 435.341
619 0 154.664 10.9657 1696 131.6 805.717 434.624
620 0 161.51 12.7856 2065 126.338 805.842 435.589
621 0 165.483 11.5238 1907 130.458 805.829 432.682
622 0 167.553 12.0141 2013 131.67 805.79 428.24
623 0 176.615 13.5436 2392 127.514 805.948 423.928
624 1 85.0979 11.2459 957 123.425 805.92 472.762
625 0 89.0596 10.5323 938 126.349 805.974 471.725
626 0 92.0536 11.124 1024 126.794 805.599 470.946
627 1 52.0172 10.7464 559 115.547 805.381 490.608
628 0 53.0304 11.0691 587 123.516 805.101 489.46
629 0 53.0567 11.2144 595 126.904 805.114 486.849
630 0 51.065 10.046 513 123.292 805.99 491.788
631 0 53.0324 10.3899 551 122.407 807.345 490.822
632 0 54.0403 11.3989 616 122.654 806.576 488.364
633 0 58.0594 11.5744 672 120.052 807.586 489.039
634 0 57.0273 11.1701 637 124.214 807.44 486.972
635 0 60.1837 11.8803 715 122.561 806.537 487.159
636 0 60.0625 10.4391 627 125.426 806.848 486.514
637 0 60.0571 10.4401 627 141.657 805.833 486.435
638 0 63.0549 11.0697 698 126.537 807.324 483.544
639 0 68.0472 11.6684 794 123.504 807.411 483.436
640 0 69.0916 11.9551 826 124.523 806.344 480.644
641 0 71.1241 11.6416 828 125.457 807.161 481.283
642 0 71.0865 10.4802 745 129.846 806.111 479.652
643 0 73.2127 12.0607 883 126.605 806.692 477.982
644 0 77.1163 12.319 950 125.029 806.606 476.788
645 0 81.1608 12.5676 1020 124.375 806.706 473.536
646 0 83.1225 11.8379 984 124.982 806.929 475.762
647 0 86.1485 13.3374 1149 122.722 807.369 473.201
648 0 87.0891 11.184 974 127.68 806.714 473.796
649 0 92.1279 13.9806 1288 120.638 806.447 470.453
650 0 92.107 11.7146 1079 126.841 806.107 470.853
651 0 94.1024 12.1145 1140 126.745 806.179 466.273
652 0 100.089 12.4989 1251 124.401 806.271 466.425
653 0 102.078 12.4023 1266 126.208 805.181 463.088
654 1 56.0848 11.1795 627 122.075 806.722 488.458
655 0 57.0571 12.2509 699 118.85 806.482 485.353
656 0 60.0428 12.4411 747 115.325 806.523 486.893
657 0 61.1868 12.9767 794 116.662 806.429 485.443
658 0 62.1359 13.0842 813 117.145 805.786 484.002
659 0 65.0898 14.1343 920 113.407 805.7 483.451
660 0 66.1196 13.1126 867 116.285 805.889 484.475
661 0 69.1356 12.7575 882 117.549 806.146 482.151
662 0 70.1197 12.5785 882 119.348 805.27 482.584
663 0 73.1388 13.1121 959 118.63 805.752 479.375
664 0 77.1571 15.0343 1160 111.926 805.713 479.422
665 0 78.1555 12.7182 994 116.992 805.627 478.414
666 0 80.1779 14.1311 1133 114.672 806.071 477.606
667 0 81.1105 13.5248 1097 116.997 806.233 474.572
668 0 86.1379 13.6525 1176 115.719 805.776 475.659
669 0 87.2278 13.6195 1188 117.191 806.184 473.329
670 0 90.1168 12.85 1158 119.411 806.35 472.161
671 0 91.0624 13.6829 1246 119.734 805.414 467.957
672 0 95.128 14.3911 1369 116.774 805.088 468.463
673 0 98.0901 13.8954 1363 119.789 806.363 468.783
674 0 103.132 15.2814 1576 116.356 805.153 467.614
675 0 103.188 13.8195 1426 123.518 805.168 463.945
676 0 109.226 14.5753 1592 121.558 804.96 461.058
677 0 112.222 15.0416 1688 120.107 805.18 459.092
678 1 62.0427 11.9756 743 124.316 806.096 485.794
679 0 62.2832 11.817 736 120.7 805.427 481.867
680 0 64.215 11.9443 767 113.876 805.404 478.146
681 0 65.0968 13.1036 853 107.233 803.667 478.842
682 0 66.125 10.6011 701 111.571 804.765 476.767
683 0 70.1654 11.1879 785 110.115 804.769 476.196
684 0 69.0824 10.35 715 113.94 805.53 473.248
685 0 76.0876 10.8033 822 112.487 805.665 471.103
686 0 78.0722 12.2963 960 109.743 805.416 471.844
687 0 79.1295 13.3579 1057 108.623 805.59 470.508
688 0 83.2603 11.9505 995 112.584 805.464 470.176
689 0 86.0929 12.382 1066 111.649 804.659 467.976
690 0 88.2248 11.9694 1056 114.27 804.82 466.325
691 0 89.1258 11.7138 1044 117.091 804.935 461.99
692 0 93.2924 13.2915 1240 112.717 805.175 464.686
693 0 97.2196 12.1786 1184 116.241 804.709 460.585
694 0 104.082 12.9898 1352 125.951 804.857 464.264
695 0 105.135 13.183 1386 125.578 805.021 462.753
696 0 107.079 13.5974 1456 126.018 805.092 456.413
697 0 113.161 13.6001 1539 123.87 805.549 459.392
698 0 118.195 14.2561 1685 122.691 805.561 455.751
699 1 65.0533 10.5606 687 117.878 806.787 484.687
700 0 67.2103 10.177 684 114.459 806.792 483.12
701 0 70.1526 12.8862 904 111.365 806.678 478.579
702 0 73.0797 11.9322 872 113.743 806.354 480.413
703 0 72.0765 11.5433 832 116.522 806.832 477.873
704 0 76.0713 12.015 914 114.606 806.643 475.988
705 0 79.1191 11.9314 944 114.409 806.064 474.865
706 0 80.0545 11.1799 895 117.004 806.585 474.248
707 0 84.1557 12.7264 1071 113.518 806.387 473.92
708 0 86.1296 12.7134 1095 115.026 807.258 470.428
709 0 89.1938 12.4224 1108 114.9 806.806 470.519
710 0 94.1144 13.048 1228 113.513 807.007 467.337
711 0 98.0823 12.7342 1249 113.901 806.301 466.89
712 0 99.0497 12.8218 1270 115.043 806.68 464.349
713 0 102.073 11.1684 1140 119.524 806.151 463.961
714 0 106.146 12.3509 1311 117.004 806.149 461.167
715 0 110.107 12.3334 1358 116.054 805.943 460.034
716 1 60.1175 10.4296 627 112.74 806.939 482.997
717 0 61.1489 12.396 758 109.497 807.189 482.152
718 0 63.1834 12.1393 767 108.67 807.258 483.369
719 0 65.063 11.973 779 108.902 806.506 482.489
720 0 65.055 11.4519 745 111.561 806.905 480.596
721 0 69.1857 12.228 846 110.793 807.305 478.418
722 0 74.1471 12.9203 958 107.521 806.91 477.085
723 0 74.1097 11.5504 856 110.919 806.532 476.164
724 0 79.0656 13.8872 1098 104.832 806.505 473.987
725 0 78.1167 12.6093 985 109.329 806.48 473.366
726 0 84.184 12.7697 1075 108.473 806.095 472.484
727 0 86.1794 12.7409 1098 108.75 806.33 471.355
728 0 88.1648 11.2857 995 112.814 806.561 469.073
729 0 92.1521 13.2715 1223 109.131 805.772 467.166
730 0 91.1209 11.1061 1012 114.236 805.838 468.431
731 0 96.1436 11.8781 1142 112.174 806.179 465.303
732 0 99.1857 12.8144 1271 110.883 806.736 463.195
733 0 104.14 12.5504 1307 111.08 805.881 461.667
734 1 53.0189 10.4302 553 112.557 805.796 484.367
735 0 54.1033 11.515 623 105.751 804.857 479.618
736 0 52.0334 7.64893 398 105.894 804.462 480.465
737 0 55.1076 10.4341 575 100.83 805.122 480.965
738 0 55.111 10.0524 554 101.767 804.462 479.908
739 0 59.1539 11.1235 658 99.7356 804.729 480.208
740 0 59.0966 9.01914 533 105.302 804.874 477.642
741 0 63.0967 10.8246 683 102.239 805.048 477.833
742 0 65.0899 11.3535 739 101.453 805.001 477.23
743 0 68.061 12.0039 817 100.322 805.425 476.108
744 0 71.2597 11.3388 808 101.569 805.119 475.407
745 0 75.0985 10.8125 812 102.546 805.084 474.706
746 0 76.0461 12.0059 913 102.495 804.631 470.947
747 0 80.1279 11.1197 891 104.16 805.01 471.457
748 0 79.1639 10.333 818 108.066 804.605 470.441
749 0 83.2609 11.0736 922 105.905 804.975 471.669
750 0 85.1971 10.8337 923 107.113 804.95 469.449
751 0 88.2756 10.977 969 107.943 804.722 464.105
752 0 94.1056 11.5827 1090 112.058 805.019 471.052
753 0 95.1353 12.5611 1195 109.926 805.326 467.654
754 0 98.1413 11.9012 1168 113.725 804.763 461.587
755 1 55.135 10.8642 599 103.411 805.008 486.005
756 0 56.0331 11.3683 637 112.234 804.254 486.768
757 0 56.0753 11.3241 635 113.501 804.631 486.165
758 0 55.1612 12.6719 699 108.227 806.825 483.014
759 0 60.0553 11.3229 680 108.947 807.035 485.063
760 0 60.0554 12.4385 747 107.254 806.36 485.26
761 0 63.0819 11.4771 724 108.128 806.08 482.381
762 0 66.0579 11.6716 771 108.28 805.588 482.677
763 0 67.0499 11.0664 742 110.105 803.867 482.276
764 0 70.0924 11.5562 810 109.977 804.402 480.595
765 0 71.0487 11.5132 818 111.033 803.773 477.749
766 0 76.1032 11.1691 850 110.713 804.291 475.618
767 0 79.1499 12.5332 992 108.656 803.838 472.932
768 0 79.124 10.5657 836 113.744 804.059 471.944
769 0 82.1201 11.4466 940 112.744 804.06 471.632
770 0 87.1188 11.8115 1029 110.57 804.218 471.093
771 0 89.0768 10.5527 940 113.514 804.69 471.055
772 0 93.1665 11.4848 1070 111.859 804.07 466.848
773 1 50.0293 11.1934 560 108 803.4 490.054
774 0 52.141 11.3922 594 107.052 803.776 488.769
775 0 53.0514 11.7245 622 109.561 803.711 486.283
776 0 54.0543 12.4505 673 107.848 803.374 486.854
777 0 58.0306 12.5279 727 106.777 803.32 485.814
778 0 59.0404 11.8394 699 107.801 804.702 487.88
779 0 58.0137 11.0146 639 111.682 803.77 484.443
780 0 63.0555 11.3234 714 108.618 803.868 485.214
781 0 63.0851 11.6509 735 108.63 803.77 483.513
782 0 66.0843 12.4084 820 107.11 803.376 481.561
783 0 68.0525 11.9467 813 107.629 803.811 481.974
784 0 70.1305 11.5071 807 108.476 804.169 480.086
785 0 71.1452 11.1322 792 109.606 804.337 480.643
786 0 73.0553 11.8814 868 109.099 804.887 477.12
787 0 76.2061 11.8626 904 109.928 805.263 475.998
788 0 81.1478 12.964 1052 107.073 805.276 475.332
789 0 84.3998 13.8152 1166 105.843 805.531 473.82
790 0 86.502 13.3754 1157 106.743 805.646 470.889
791 0 88.0685 11.0255 971 107.159 804.675 471.371
792 0 92.0954 12.4219 1144 98.3986 804.656 470.517
793 0 95.1789 13.0701 1244 97.8754 805.215 466.956
794 0 100.19 13.0053 1303 98.2364 804.753 466.776
795 1 48.1001 10.0623 484 96.4897 803.758 487.57
796 0 50.0591 10.3677 519 98.3815 804.335 489.206
797 0 55.1398 10.1016 557 98.6212 806.923 487.515
798 0 53.0975 11.2058 595 98.6101 806.161 487.766
799 0 56.0602 10.9703 615 98.7967 806.564 487.41
800 0 58.1275 12.1113 704 97.4403 806.749 486.824
801 0 59.2216 11.4316 677 97.839 806.465 483.046
802 0 63.1015 12.5195 790 95.8494 806.148 483.339
803 0 62.2061 11.9442 743 97.7699 806.149 483.524
804 0 66.1888 13.4766 892 95.0067 806.2 483.179
805 0 67.0625 12.2721 823 98.4399 806.295 482.531
806 0 69.1484 10.6582 737 102.406 805.879 482.669
807 0 72.1666 12.8037 924 99.5087 806.137 479.539
808 0 74.151 13.3242 988 98.5354 805.669 479.445
809 0 77.1284 12.4468 960 101.679 806.21 478.457
810 0 77.1238 12.4864 963 103.216 806.592 476.642
811 0 77.1143 12.5139 965 129.625 807.609 476.674
812 0 83.1927 12.2246 1017 106.382 805.791 473.251
813 0 86.2701 12.1711 1050 106.179 806.516 472.164
814 0 86.2339 12.0138 1036 108.789 806.068 471.963
815 0 92.289 10.7597 993 108.689 806.016 469.873
816 0 97.2004 12.1604 1182 107.115 805.766 468.039
817 1 47.1149 10.6336 501 105.495 806.393 490.244
818 0 49.0385 10.6651 523 109.432 803.778 490.514
819 0 51.0207 10.0351 512 110.854 803.736 489.369
820 0 56.0859 12.2134 685 113.378 804.102 488.745
821 0 57.0311 12.4143 708 113.158 804.428 487.576
822 0 58.0297 12.6487 734 113.214 804.554 486.629
823 0 59.1357 12.2768 726 115.262 804.387 486.832
824 0 62.1123 14.6509 910 108.141 805.095 485.298
825 0 64.0899 13.8867 890 110.036 804.542 484.508
826 0 64.071 12.3145 789 114.937 804.378 484.063
827 0 67.0438 13.961 936 110.844 804.344 480.447
828 0 68.12 11.8027 804 116 804.381 480.583
829 0 72.0268 13.1062 944 113.373 803.728 479.993
830 0 75.0578 12.3904 930 114.066 804.284 478.101
831 0 76.0632 13.1996 1004 112.947 804.1 477.679
832 0 76.0865 11.5395 878 118.29 803.837 475.123
833 0 81.1109 12.3904 1005 115.302 804.302 475.633
834 0 82.057 13.0031 1067 114.516 803.903 472.529
835 0 85.1236 12.1353 1033 115.739 803.172 471.867
836 0 91.0842 13.0429 1188 111.104 803.85 470.908
837 0 93.0702 12.5604 1169 111.206 803.879 469.014
838 0 93.0848 11.5486 1075 114.264 804.273 468.033
839 0 98.1393 12.9306 1269 110.139 804.115 468.15
840 1 52.0304 12.9924 676 105.51 803.615 490.358
841 0 51.0346 10.8358 553 111.298 803.879 488.584
842 0 54.0378 12.0101 649 106.484 804.112 488.646
843 0 56.0598 11.9337 669 102.236 803.716 488.146
844 0 56.0428 13.1328 736 99.7948 804.024 488.182
845 0 58.2889 11.7861 687 102.515 804.08 485.103
846 0 61.093 11.2451 687 103.352 804.664 485.384
847 0 63.1307 11.9752 756 101.574 804.717 483.286
848 0 64.069 11.8466 759 102.949 803.847 482.597
849 0 66.1036 12.193 806 101.608 804.676 483.613
850 0 68.095 12.1154 825 103.293 803.153 481.331
851 0 71.1325 12.5962 896 102.615 804.256 479.546
852 0 72.0845 12.2911 886 103.913 804.05 479.993
853 0 74.1201 11.3869 844 107.52 804.555 476.466
854 0 79.2202 12.1181 960 104.916 804.942 476.192
855 0 79.2559 12.0622 956 107.15 804.114 475.376
856 0 82.2945 11.5804 953 107.732 803.485 474.124
857 0 84.17 11.156 939 107.182 804.454 473.294
858 0 87.2033 12.7174 1109 103.054 804.751 471.202
859 0 92.1225 11.3219 1043 107.105 804.035 467.68
860 0 95.1765 12.0198 1144 107.049 804.384 466.792
861 0 99.1242 11.5613 1146 109.467 804.86 466.296
862 1 51.105 10.1556 519 107.36 803.992 491.127
863 0 52.0652 11.5048 599 106.466 802.913 488.783
864 0 52.0565 11.6988 609 107.565 803.069 486.504
865 0 54.0091 11.7943 637 114.878 806.278 486.75
866 0 56.0382 12.081 677 113.866 806.71 486.229
867 0 60.0427 11.6417 699 113.627 806.883 485.748
868 0 60.0673 11.4538 688 115.523 806.924 484.009
869 0 63.0301 11.5659 729 112.985 806.236 484.481
870 0 65.0466 11.0229 717 114.06 807.199 483.64
871 0 69.0724 12.1611 840 111.164 807.83 480.279
872 0 73.1721 11.1655 817 112.071 807.142 482.357
873 0 73.0389 11.0763 809 114.366 806.692 480.85
874 0 77.0702 13.1958 1017 109.202 807.268 479.154
875 0 79.0377 12.4245 982 110.207 806.874 477.412
876 0 79.0643 10.6622 843 114.145 806.565 475.982
877 0 84.0269 11.3178 951 112.351 806.634 472.935
878 0 86.0442 11.7963 1015 111.815 805.718 473.086
879 0 89.0805 11.4615 1021 111.595 806.226 472.239
880 0 93.1143 13.1344 1223 108.875 806.581 469.992
881 0 95.0747 12.6848 1206 109.967 805.833 466.025
882 0 101.119 12.421 1256 109.69 805.772 465.803
883 0 102.094 11.9792 1223 108.886 806.101 466.798
884 1 54.0521 11.4519 619 105.527 806.624 489.824
885 0 56.0467 11.3298 635 106.849 806.913 489.734
886 0 58.204 11.5456 672 106.705 805.272 486.497
887 0 59.0677 12.037 711 104.668 806.522 486.173
888 0 61.0407 12.2214 746 103.875 806.946 486.237
889 0 64.0608 12.4101 795 103.35 806.703 485.977
890 0 64.0224 12.1989 781 104.721 806.288 485.338
891 0 68.1112 11.6427 793 106.021 806.156 482.31
892 0 70.0587 12.9035 904 103.43 806.126 482.303
893 0 72.1019 12.6349 911 105.816 806.703 480.905
894 0 76.034 12.5733 956 106.387 806.163 479.725
895 0 77.0826 14.1796 1093 105.788 805.657 477.428
896 0 80.0464 14.0793 1127 105.998 805.839 476.075
897 0 82.0758 12.5006 1026 110.807 805.877 475.564
898 0 85.1033 13.2662 1129 110.282 806.051 472.848
899 0 90.1501 14.1653 1277 106.772 805.857 474.463
900 0 91.0985 13.447 1225 108.691 805.625 473.482
901 0 96.1557 13.8525 1332 107.67 805.945 470.815
902 1 50.0573 12.2859 615 113.509 807.031 491.246
903 0 52.0311 12.0313 626 117.097 806.284 490.187
904 0 54.0495 10.7679 582 107.416 804.227 484.875
905 0 57.0191 14.1356 806 112.002 805.777 488.805
906 0 58.0422 13.5936 789 114.011 806.459 487.611
907 0 61.0196 14.1758 865 110.543 805.505 488.18
908 0 58.0914 12.0328 699 112.924 805.106 488.569
909 0 59.1113 11.1485 659 114.578 805.184 489.354
910 0 61.13 10.6822 653 117.482 805.161 486.867
911 0 64.1206 13.2719 851 111.913 805.566 484.669
912 0 65.2415 12.2468 799 114.438 805.91 484.951
913 0 69.0778 12.4353 859 114.669 804.469 484.066
914 0 71.1005 13.1363 934 114.757 805.101 480.685
915 0 73.1842 11.7922 863 116.119 805.684 482.161
916 0 76.1578 14.0498 1070 112.104 804.8 478.736
917 0 77.103 13.2291 1020 114.183 804.873 479.58
918 0 79.1727 11.5444 914 119.926 804.726 476.965
919 0 82.0757 12.7078 1043 117.959 805.091 476.267
920 0 86.0883 13.37 1151 117.28 806.003 473.735
921 0 90.2332 13.321 1202 117.361 805.512 471.453
922 0 90.2402 13.1538 1187 118.409 805.091 472.228
923 0 95.371 14.711 1403 113.855 804.334 468.745
924 0 97.4208 13.3955 1305 116.618 804.559 466.74
925 0 98.3348 11.6541 1146 122.135 804.264 464.851
926 0 103.238 12.941 1336 118.01 804.299 461.646
927 1 57.1621 11.3887 651 115.229 805.088 486.853
928 0 59.2086 12.8697 762 116.635 804.929 486.562
929 0 61.0328 13.5501 827 108.415 805.414 487.258
930 0 62.0672 13.2598 823 108.663 804.441 483.635
931 0 66.0865 13.9968 925 105.006 804.31 481.996
932 0 69.1067 13.5009 933 105.451 804.256 481.83
933 0 70.1078 13.0656 916 107.475 804.583 481.488
934 0 72.1181 13.1867 951 108.543 803.713 479.35
935 0 74.1948 13.5859 1008 107.94 804.269 478.188
936 0 77.0563 13.4188 1034 109.32 803.548 477.662
937 0 79.1447 13.9112 1101 109.315 804.402 475.277
938 0 82.0802 14.0716 1155 109.652 804.384 474.365
939 0 85.1829 13.2656 1130 111.143 804.494 473.296
940 0 89.0951 13.9289 1241 108.902 804.72 472.384
941 0 90.1481 12.7901 1153 113.117 803.855 468.291
942 0 92.0721 12.1209 1116 115.133 804.156 469.213
943 0 97.0791 13.4426 1305 113.665 804.405 466.404
944 0 101.179 13.7973 1396 113.076 804.432 464.164
945 1 53.0382 10.7281 569 118.796 804.199 488.587
946 0 56.1376 11.8459 665 116.071 803.88 486.517
947 0 55.0674 12.2032 672 117.799 804.095 485.545
948 0 59.1226 13.2098 781 115.334 804.415 485.836
949 0 61.1658 12.3108 753 112.936 804.761 486.405
950 0 64.1366 14.3756 922 108.612 805.054 484.298
951 0 66.0902 13.7993 912 111.295 804.491 482.946
952 0 68.2305 13.1466 897 112.289 804.919 484.222
953 0 70.0849 12.9129 905 114.463 805.537 481.042
954 0 71.0879 13.6029 967 113.625 805.615 479.082
955 0 76.1645 13.6153 1037 111.907 804.73 478.905
956 0 78.1826 14.4789 1132 111.201 804.599 477.145
957 0 79.2093 13.8999 1101 113.612 805.441 475.767
958 0 81.1628 13.3805 1086 115.507 804.617 475.335
959 0 84.1817 12.4849 1051 116.681 804.594 474.388
960 0 87.168 13.2388 1154 116.509 805.058 473.504
961 0 89.2004 13.3408 1190 118.75 805.034 469.967
962 0 94.3492 13.8634 1308 117.547 805.302 469.42
963 0 94.4095 12.9966 1227 124.54 805.055 467.271
964 0 99.3645 13.3649 1328 123.117 805.541 464.888
965 0 101.269 12.9951 1316 120.863 805.69 464.989
966 0 104.446 12.3126 1286 123.474 805.019 463.04
967 0 109.289 12.3617 1351 122.809 804.214 462.061
968 0 111.299 11.9767 1333 122.904 805.078 459.051
969 1 62.1659 12.1449 755 118.923 805.37 482.768
970 0 64.2565 12.6524 813 119.26 804.9 481.143
971 0 65.0508 13.3895 871 116.9 806.458 482.242
972 0 67.0523 12.5425 841 120.17 806.583 478.734
973 0 70.0442 12.8348 899 118.732 806.59 478.927
974 0 70.0967 13.0677 916 119.334 806.513 477.352
975 0 73.1218 13.3339 975 119.765 806.675 476.467
976 0 76.0713 12.6329 961 121.143 807.058 474.189
977 0 81.1548 13.16 1068 118.447 806.968 473.601
978 0 81.1095 13.4633 1092 120.345 806.273 471.541
979 0 84.0919 14.0561 1182 118.883 806.679 468.591
980 0 87.1094 13.6265 1187 120.484 806.174 469.658
981 0 89.1563 12.7753 1139 122.945 805.778 468.169
982 0 92.1192 13.4282 1237 122.243 805.946 466.143
983 0 94.1947 12.8245 1208 126.524 806.061 463.368
984 0 97.1222 12.5512 1219 126.478 805.595 460.803
985 0 99.0913 11.4036 1130 126.742 803.906 465.759
986 1 55.0404 10.0108 551 123.013 803.862 487.98
987 0 55.0291 11.6847 643 120.325 803.748 484.547
988 0 59.0692 12.0198 710 118.701 805.034 484.746
989 0 59.0633 13.6633 807 115.898 805.44 483.584
990 0 61.0594 11.3987 696 122.784 806.573 482.404
991 0 63.0306 12.3591 779 120.62 806.573 481.656
992 0 65.1068 12.8865 839 118.981 807.379 479.59
993 0 66.0312 12.3124 813 121.301 806.793 480.755
994 0 71.1046 13.9935 995 116.66 807.686 478.45
995 0 69.0374 11.8052 815 124.331 807.789 479.017
996 0 73.1583 14.2157 1040 117.37 807.203 479.359
997 0 71.1545 13.0842 931 143.204 806.145 477.62
998 0 79.1621 14.5271 1150 117.538 807.199 472.529
999 0 80.1368 14.2881 1145 119.635 806.855 472.159
1000 0 83.0923 12.8411 1067 122.858 806.549 474.172
1001 0 86.1142 14.1905 1222 119.354 806.209 472.13
1002 0 88.1116 14.4589 1274 119.268 806.486 470.694
1003 0 92.0843 14.7474 1358 116.413 807.001 469.627
1004 0 94.1035 13.804 1299 119.105 806.634 464.083
1005 0 95.0567 14.0758 1338 119.815 806.837 466.238
1006 0 98.1239 14.1046 1384 120.37 806.305 465.105
1007 0 103.081 13.8532 1428 120.819 806.821 464.599
1008 0 108.107 15.2626 1650 117.185 806.563 460.728
1009 1 58.0513 12.11 703 120.172 806.377 485.496
1010 0 59.1215 11.3833 673 121.12 805.961 484.428
1011 0 63.1665 13.5515 856 108.435 806.629 483.978
1012 0 64.059 12.0826 774 111.616 806.433 484.05
1013 0 67.0448 14.0652 943 105.913 806.724 482.18
1014 0 67.0665 12.9424 868 108.917 806.864 481.65
1015 0 72.0877 13.7055 988 106.931 806.717 480.81
1016 0 73.0695 13.713 1002 107.003 806.434 478.939
1017 0 75.1791 14.3258 1077 105.045 806.457 480.366
1018 0 78.0599 13.8483 1081 107.189 806.394 475.952
1019 0 79.1277 12.5746 995 110.925 806.482 477.096
1020 0 81.0683 13.1371 1065 110.934 806.17 474.462
1021 0 84.1448 12.9539 1090 111.744 805.636 474.368
1022 0 87.0873 13.7448 1197 110.717 805.622 471.222
1023 0 91.2942 12.4761 1139 119.999 806.118 470.941
1024 0 95.1865 14.1512 1347 116.475 804.99 466.462
1025 0 97.14 12.4459 1209 117.198 804.437 466.838
1026 0 100.1 12.7373 1275 116.663 803.986 464.724
1027 1 53.1089 12.1072 643 115.857 804.272 485.947
1028 0 56.2054 11.9917 674 116.355 804.792 485.635
1029 0 58.1828 12.8388 747 113.827 805.526 486.846
1030 0 59.3033 11.8712 704 116.956 805.19 483.445
1031 0 62.081 11.9521 742 116.116 805.306 482.526
1032 0 63.2366 12.303 778 115.869 805.897 481.974
1033 0 66.135 12.9281 855 113.545 805.98 480.849
1034 0 67.1521 12.6578 850 115.026 805.561 479.736
1035 0 69.1561 12.1031 837 116.485 806.318 479.56
1036 0 72.1379 13.4187 968 111.908 806.451 480.692
1037 0 73.1278 12.8952 943 114.734 806.574 477.69
1038 0 77.084 12.6096 972 114.3 805.353 477.855
1039 0 79.0887 15.2361 1205 109.587 805.56 473.976
1040 0 84.1473 14.4984 1220 108.724 805.534 474.489
1041 0 84.1065 14.3152 1204 111.262 805.009 471.24
1042 0 90.1398 14.7549 1330 110.172 804.961 469.86
1043 0 90.1062 13.7615 1240 113.265 804.744 469.752
1044 0 93.1736 13.4802 1256 113.587 805.062 468.123
1045 0 97.1919 13.3653 1299 114.63 805.209 465.718
1046 0 102.144 13.4026 1369 113.458 805.66 464.556
1047 1 55.1182 12.065 665 110.633 806.385 487.989
1048 0 55.1096 12.829 707 107.846 806.168 488.082
1049 0 56.1106 12.7962 718 107.12 805.636 484.584
1050 0 59.113 13.5841 803 105.233 805.745 484.21
1051 0 60.1008 13.0947 787 106.643 805.861 483.028
1052 0 64.086 14.5118 930 101.983 806.235 483.857
1053 0 68.169 14.8601 1013 100.966 806.126 480.726
1054 0 68.0716 13.3683 910 101.768 806.049 480.058
1055 0 71.0618 13.5797 965 102.556 805.874 478.566
1056 0 72.1463 12.3776 893 101.009 805.038 476.899
1057 0 76.0849 13.6689 1040 98.8615 805.249 476.476
1058 0 79.1478 13.2663 1050 99.9705 805.939 473.831
1059 0 81.1869 13.4874 1095 100.86 805.242 473.634
1060 0 84.1488 14.2604 1200 100.131 805.19 470.842
1061 0 89.2594 13.6456 1218 101.587 804.654 468.309
1062 0 92.1497 13.4347 1238 101.236 804.901 468.09
1063 0 93.132 13.948 1299 101.744 804.27 467.018
1064 1 48.0375 12.1364 583 102.37 805.106 492.051
1065 0 50.0339 12.6914 635 101.611 804.631 490.54
1066 0 49.0605 11.8221 580 105.581 805.852 488.55
1067 0 54.1274 12.2489 663 101.08 806.674 488.344
1068 0 55.11 12.8289 707 101.201 806.489 487.051
1069 0 58.1117 12.1834 708 101.771 805.579 485.331
1070 0 58.1275 12.0081 698 101.765 806.268 485.891
1071 0 61.0783 13.0979 800 99.2412 806.119 484.784
1072 0 64.0611 12.3632 792 101.681 805.62 482.922
1073 0 65.0896 12.8131 834 100.797 805.946 482.059
1074 0 66.0943 11.9829 792 103.761 806.288 479.496
1075 0 68.0938 12.7324 867 102.892 805.907 477.603
1076 0 71.1476 12.5935 896 103.454 805.769 476.57
1077 0 73.0954 11.6834 854 105.342 806.314 478.241
1078 0 77.1628 12.4283 959 104.133 806.29 476.372
1079 0 80.1415 12.8523 1030 103.667 805.777 475.376
1080 0 80.0643 12.1777 975 106.56 805.799 472.401
1081 0 86.1373 13.2231 1139 104.011 805.664 472.22
1082 0 88.1083 13.1997 1163 105.857 805.326 470.744
1083 0 91.2293 11.1368 1016 111.661 804.37 467.06
1084 0 95.1576 11.9591 1138 111.324 805.22 466.903
1085 1 50.0866 11.2006 561 106.168 803.891 487.793
1086 0 55.2918 11.6473 644 106.421 804.646 483.759
1087 0 56.2495 12.3912 697 102.35 804.254 485.628
1088 0 58.2152 13.347 777 100.287 803.792 484.003
1089 0 58.0823 12.6028 732 103.107 804.276 485.84
1090 0 62.0853 14.1579 879 99.1365 803.998 484.144
1091 0 61.1648 12.6053 771 103.974 804.807 483.358
1092 0 63.1198 12.8011 808 103.599 804.538 483.329
1093 0 67.0645 12.5103 839 107.48 804.185 479.756
1094 0 68.1851 11.7768 803 108.254 804.385 482.212
1095 0 71.1673 13.4331 956 105.545 804.099 476.794
1096 0 74.0638 13.9474 1033 104.226 803.537 477.762
1097 0 76.0622 13.2392 1007 105.786 803.581 477.317
1098 0 79.2468 14.1835 1124 103.818 804.195 474.725
1099 0 82.0766 13.9016 1141 105.534 804.192 472.737
1100 0 84.1352 13.4427 1131 106.126 803.875 472.176
1101 0 87.0383 13.8675 1207 110.519 803.896 468.689
1102 0 92.0637 13.5775 1250 109.751 804.141 470.771
1103 1 46.0572 10.2047 470 109.072 802.964 491.711
1104 0 49.0851 11.9588 587 106.811 803.641 490.688
1105 0 49.0402 10.2569 503 107.421 803.988 489.974
1106 0 50.1013 11.377 570 104.339 806.295 489.304
1107 0 52.1032 12.9743 676 98.2973 806.047 488.141
1108 0 53.0816 12.1323 644 99.9146 806.543 487.585
1109 0 55.1239 11.6828 644 101.224 806.575 487.171
1110 0 56.0907 12.1232 680 100.947 805.776 485.599
1111 0 59.1037 12.4865 738 99.3049 806.05 485.748
1112 0 58.034 11.4933 667 103.417 806.09 484.502
1113 0 64.0252 12.3233 789 100.237 805.516 484.117
1114 0 63.0643 12.4952 788 102.415 805.991 482.195
1115 0 66.0983 12.4511 823 101.964 805.891 481.165
1116 0 69.0779 12.9998 898 100.127 806.673 480.043
1117 0 72.0275 11.926 859 101.988 806.868 480.335
1118 0 73.0375 11.7337 857 103.839 806.538 479.921
1119 0 75.0454 12.6856 952 101.791 806.305 478.464
1120 0 76.0566 11.544 878 106.309 806.337 476.35
1121 0 78.0589 12.3112 961 106.066 806.786 473.687
1122 1 42.0264 10.8741 457 105.212 806.158 494.074
1123 0 41.0224 11.189 459 108.702 805.917 492.673
1124 0 45.0725 11.2707 508 105.874 804.191 492.982
1125 0 47.0547 11.6248 547 110.336 804.3 491.717
1126 0 48.0342 12.7826 614 109.476 804.634 490.603
1127 0 49.0169 13.2607 650 108.462 804.518 490.28
1128 0 50.0324 12.332 617 112.193 804.475 489.295
1129 0 50.0581 11.9261 597 114.146 804.757 489.218
1130 0 53.04 13.6878 726 110.028 804.514 488.654
1131 0 54.0837 12.0554 652 114.612 805.586 485.058
1132 0 56.0986 12.9415 726 113.438 805.351 485.818
1133 0 57.0443 13.7788 786 112.198 805.527 484.751
1134 0 59.0414 13.3127 786 113.5 805.299 485.419
1135 0 62.1721 13.6235 847 111.59 804.986 485.399
1136 0 64.064 14.5948 935 109.89 805.259 482.821
1137 0 64.0813 14.4972 929 111.094 804.997 482.013
1138 0 67.0637 14.6726 984 110.932 805.295 481.695
1139 0 69.0602 14.0747 972 113.45 805.182 480.813
1140 0 71.0794 13.914 989 115.34 805.41 479.05
1141 0 74.0433 13.9918 1036 115.207 804.802 479.038
1142 0 77.1097 14.3432 1106 114.9 804.443 475.753
1143 0 77.108 14.3824 1109 129.529 804.417 475.794
1144 0 81.1921 15.7528 1279 112.802 804.776 474.704
1145 0 84.0772 14.2845 1201 115.728 804.58 472.256
1146 0 87.2884 13.3351 1164 118.427 804.406 471.247
1147 1 44.1349 12.4165 548 119.71 803.781 491.754
1148 0 46.1344 12.4202 573 117.051 803.705 489.712
1149 0 45.1303 12.7409 575 116.57 803.148 486.81
1150 0 49.0797 11.7564 577 120.125 802.6 490.766
1151 0 49.1226 12.0718 593 120.626 803.442 488.686
1152 0 52.0763 13.7875 718 115.182 803.329 488.547
1153 0 54.0913 13.2739 718 115.288 803.35 488.241
1154 0 54.162 13.3304 722 116.442 803.596 484.601
1155 0 58.1823 14.0249 816 113.646 804.051 485.071
1156 0 58.1123 13.4051 779 115.27 803.276 485.63
1157 0 61.1485 13.5735 830 114.935 803.645 483.408
1158 0 63.2357 14.3432 907 113.386 804.551 482.439
1159 0 64.1063 12.6977 814 117.571 805.029 482.925
1160 0 68.1098 13.5223 921 115.675 804.369 481.068
1161 0 69.1621 14.5311 1005 116.457 804.796 479.673
1162 0 72.2103 14.4578 1044 116.88 805.083 479.42
1163 0 74.1755 14.2635 1058 117.976 804.073 478.694
1164 0 76.1112 14.1241 1075 117.228 804.018 479
1165 0 79.1853 13.9925 1108 118.886 804.505 475.617
1166 0 80.1546 14.8338 1189 118.17 804.959 474.749
1167 0 82.1548 14.7892 1215 117.928 805.391 474.194
1168 0 84.3393 14.2164 1199 120.067 805.074 474.221
1169 0 87.2715 13.1085 1144 122.616 803.844 472.107
1170 0 91.1907 14.3984 1313 119.878 804.951 469.513
1171 1 51.2576 12.2714 629 121.863 804.814 488.707
1172 0 52.2482 13.7421 718 119.838 805.369 487.341
1173 0 57.2575 13.9196 797 118.358 804.903 486.538
1174 0 55.1699 13.7575 759 121.834 805.138 485.036
1175 0 59.0558 13.8174 816 120.994 805.129 484.619
1176 0 60.1802 14.2738 859 121.463 805.767 482.929
1177 0 62.1973 13.8752 863 122.702 805.075 482.587
1178 0 63.0718 13.334 841 125.207 805.055 481.801
1179 0 66.1728 14.8248 981 121.419 804.678 481.581
1180 0 71.131 14.7474 1049 120.112 803.997 479.74
1181 0 71.0455 13.8503 984 125.335 803.917 478.13
1182 0 76.2127 14.5907 1112 122.049 804.645 477.032
1183 0 77.1691 14.2285 1098 125.158 804.537 474.928
1184 0 80.1661 13.5094 1083 127.272 804.47 472.078
1185 0 84.0837 13.8196 1162 124.677 805.143 474.35
1186 0 87.1322 14.6444 1276 122.482 805.277 472.527
1187 0 89.0819 14.1106 1257 126.664 805.522 471.101
1188 1 45.027 11.9262 537 124.063 805.665 492.611
1189 0 48.0313 13.2414 636 120.119 804.987 490.272
1190 0 48.0425 13.5089 649 112.718 805.096 490.821
1191 0 49.0485 12.4774 612 116.355 805.655 490.479
1192 0 49.0381 11.3381 556 118.615 805.854 489.815
1193 0 53.0749 12.7556 677 114.287 806.462 489.647
1194 0 54.1047 12.2725 664 116.643 806.048 488.002
1195 0 54.071 12.0952 654 116.769 805.745 489.054
1196 0 58.1488 13.2419 770 114.083 806.442 486.322
1197 0 57.0667 12.5467 716 117.511 806.07 486.046
1198 0 60.1031 13.0775 786 115.669 806.158 485.131
1199 0 63.0298 12.8987 813 114.566 805.97 484.813
1200 0 62.0584 11.6986 726 119.174 805.904 483.676
1201 0 67.0725 12.8965 865 114.797 806.301 481.664
1202 0 69.0658 13.7984 953 112.076 805.398 480.018
1203 0 72.145 14.5956 1053 110.606 804.964 479.984
1204 0 71.1388 12.0328 856 112.43 804.974 473.431
1205 0 78.1349 13.7967 1078 107.821 804.585 475.092
1206 0 78.1746 12.4977 977 112.947 805.119 472.906
1207 0 82.1175 12.884 1058 111.861 804.928 472.191
1208 0 85.2138 13.0495 1112 112.013 805.05 468.896
1209 0 85.2425 11.0274 940 117.946 805.182 465.963
1210 0 89.3889 11.0193 985 117.687 804.419 466.87
1211 1 47.1058 10.8267 510 114.388 804.967 488.308
1212 0 52.0332 12.0116 625 112.749 804.947 489.075
1213 0 52.0872 12.1143 631 114.862 805.192 487.387
1214 0 55.0916 11.0725 610 116.379 805.203 488.018
1215 0 56.0985 11.8185 663 115.306 805.063 485.86
1216 0 59.179 12.5213 741 110.827 805.699 482.529
1217 0 62.1686 13.2543 824 108.521 805.944 483.496
1218 0 62.0545 11.3771 706 113.959 805.467 482.378
1219 0 66.1252 11.3875 753 113.098 805.194 482.097
1220 0 69.1264 13.497 933 108.636 805.498 481.355
1221 0 70.2402 11.8451 832 113.635 805.607 478.785
1222 0 74.0814 12.8102 949 111.391 804.487 478.266
1223 0 75.1096 12.5017 939 112.506 804.439 476.567
1224 0 79.2081 14.1905 1124 108.028 804.469 474.808
1225 0 80.1074 12.7079 1018 113.806 804.978 473.189
1226 0 84.1479 12.5018 1052 112.852 805.031 473.567
1227 0 88.292 14.6333 1292 107.685 804.761 472.067
1228 0 88.1382 13.7284 1210 111.207 805.393 468.675
1229 0 92.1642 13.0094 1199 112.449 804.752 469.471
1230 0 96.1591 12.5105 1203 114.281 804.768 466.377
1231 0 97.0804 12.0416 1169 116.083 804.817 464.468
1232 0 100.269 12.4864 1252 114.745 804.851 463.533
1233 0 103.088 13.6291 1405 112.55 805.298 462.888
1234 0 106.184 12.4971 1327 114.409 805.029 463.759
1235 0 111.169 11.7299 1304 117.995 804.599 458.893
1236 0 112.1 12.5513 1407 115.963 804.8 459.115
1237 0 116.185 11.9809 1392 117.176 804.887 458.185
1238 0 121.223 13.3886 1623 115.811 804.124 453.068
1239 0 123.262 11.3173 1395 120.505 804.55 454.504
1240 0 130.188 11.1071 1446 120.844 804.822 452.532
1241 1 73.1151 12.5829 920 111.458 804.49 477.915
1242 0 76.1104 11.8906 905 110.902 804.463 476.539
1243 0 79.1687 13.2755 1051 109.513 803.823 474.837
1244 0 82.2257 13.4994 1110 109.609 804.391 472.046
1245 0 84.2306 12.8813 1085 111.302 804.04 471.159
1246 0 87.1587 12.896 1124 112.19 803.835 471.043
1247 0 92.1577 13.3792 1233 108.283 804.153 468.028
1248 0 93.2238 11.8103 1101 112.268 803.799 465.681
1249 0 97.167 12.9982 1263 110.088 804.432 463.316
1250 0 98.1542 12.1849 1196 112.594 804.451 459.6
1251 0 104.182 12.6989 1323 111.095 803.888 457.559
1252 0 109.155 12.6151 1377 110.707 803.858 459.054
1253 0 113.124 11.7305 1327 112.242 803.836 455.364
1254 0 118.221 13.0349 1541 110.233 804.794 454.305
1255 1 61.1418 10.3366 632 108.668 805.899 485.82
1256 0 64.1756 12.2009 783 107.966 805.213 481.314
1257 0 67.0958 12.5045 839 104.626 805.13 479.141
1258 0 70.0941 12.8684 902 103.38 805.327 479.613
1259 0 71.1744 13.5723 966 102.436 804.363 477.925
1260 0 71.2177 11.6684 831 106.649 804.638 476.698
1261 0 76.0805 12.9205 983 103.574 804.495 476.192
1262 0 80.2392 12.8491 1031 103.791 804.768 472.607
1263 0 82.2394 12.9622 1066 103.731 804.501 473.337
1264 0 83.1384 12.9543 1077 105.201 804.004 470.519
1265 0 86.1935 12.2747 1058 107.414 804.291 469.701
1266 0 88.0734 12.0922 1065 108.249 804.215 469.856
1267 0 91.1246 11.83 1078 109.906 804.759 467.737
1268 0 92.0711 11.4151 1051 112.468 804.625 463.939
1269 0 96.1707 11.9371 1148 112.088 805.247 464.005
1270 0 101.24 12.8704 1303 110.115 804.583 460.808
1271 0 102.126 13.3168 1360 110.412 804.468 458.668
1272 0 106.335 11.8212 1257 112.814 804.502 458.917
1273 0 106.323 11.8788 1263 129.397 803.47 458.93
1274 0 110.116 11.6695 1285 114.389 805.349 455.311
1275 0 115.153 13.1825 1518 111.181 805.288 448.86
1276 0 118.401 11.7904 1396 113.342 804.851 445.08
1277 0 124.239 13.0071 1616 109.139 804.713 448.064
1278 0 128.271 13.6274 1748 107.745 804.857 447.092
1279 0 132.307 13.053 1727 108.543 804.651 447.528
1280 0 135.314 13.295 1799 109.039 804.708 444.372
1281 0 142.491 13.271 1891 109.634 805.36 439.896
1282 0 147.652 13.2677 1959 109.883 805.119 437.975
1283 0 152.33 12.5845 1917 112.508 804.899 432.554
1284 0 157.34 12.1648 1914 115.018 805.168 430.88
1285 0 161.43 13.4237 2167 114.882 804.329 424.264
1286 0 168.246 14.2292 2394 114.86 804.335 422.538
1287 0 173.395 13.7317 2381 118.351 804.592 418.749
1288 0 175.289 12.9558 2271 117.735 804.58 416.25
1289 0 180.267 13.1305 2367 118.637 804.58 409.76
1290 0 192.42 14.2709 2746 114.063 805.047 409.744
1291 0 194.259 12.9209 2510 117.77 804.103 406.641
1292 0 199.345 13.434 2678 116.889 804.323 404.55
1293 0 208.341 14.1163 2941 115.376 804.945 407.837
1294 0 213.414 12.3094 2627 120.907 804.417 401.896
1295 0 222.529 12.9196 2875 120.11 804.231 396.599
1296 0 229.553 12.3762 2841 122.547 804.892 392.789
1297 1 190.456 10.7479 2047 98.2335 804.879 428.635
1298 0 186.42 12.7508 2377 118.316 804.585 413.863
1299 0 195.269 12.5417 2449 116.212 804.9 407.316
1300 0 200.259 12.8034 2564 117.54 804.775 401.453
1301 0 209.37 14.0135 2934 115.974 803.537 398.786
1302 0 215.327 12.8688 2771 119.726 804.091 395.366
1303 0 226.525 14.3913 3260 117.043 804.862 390.286
1304 0 234.435 13.6583 3202 119.951 804.234 386.012
1305 0 243.293 13.0296 3170 123.209 803.615 381.697
1306 0 251.35 13.6065 3420 122.646 803.892 373.732
1307 0 261.209 13.6213 3558 123.643 802.914 371.123
1308 1 60.1048 10.3652 623 105.713 805.146 477.453
1309 0 62.1067 11.0133 684 109.028 805.626 482.42
1310 0 64.1223 12.0395 772 107.76 805.01 480.036
1311 0 70.0975 13.467 944 103.317 805.849 480.24
1312 0 72.1314 13.0318 940 103.415 805.591 478.752
1313 0 71.3818 11.8097 843 108.721 805.018 475.962
1314 0 74.1852 12.2801 911 106.731 804.265 478.056
1315 0 76.2317 11.7536 896 108.689 804.23 475.171
1316 0 80.2806 12.2944 987 106.453 805.541 476.361
1317 0 83.2442 11.4723 955 108.692 805.066 474.813
1318 0 83.2442 11.5323 960 134.124 804.066 474.8
1319 1 47.0329 12.6295 594 93.7003 806.731 490.854
1320 0 47.0854 11.6597 549 93.4718 803.929 492.051
1321 0 47.0326 11.0562 520 96.2096 804.404 492.212
1322 0 48.0248 10.911 524 96.2195 803.887 490.143
1323 0 50.2185 12.0473 605 89.8463 804.245 483.114
1324 0 56.0822 14.7997 830 82.0253 803.555 480.195
1325 0 57.1599 12.4738 713 87.3619 804.302 481.677
1326 0 58.1157 12.0277 699 90.1645 804.595 482.649
1327 0 59.1325 12.0746 714 91.9552 804.307 482.338
1328 0 60.1743 12.0483 725 93.0841 804.417 480.222
1329 0 62.0954 11.9171 740 93.1486 804.024 480.773
1330 0 62.1944 12.4609 775 93.2942 803.888 479.23
1331 0 65.1643 13.2128 861 93.2346 804.409 480.484
1332 0 65.0969 11.721 763 97.3578 804.145 480.67
1333 0 67.0907 13.1464 882 95.102 804.167 480.645
1334 0 69.168 12.101 837 97.1422 804.503 479.024
1335 0 71.1026 12.4749 887 97.0947 803.838 478.612
1336 0 77.106 12.9043 995 95.6191 803.719 477.191
1337 0 78.1274 13.1068 1024 96.2295 804.4 475.86
1338 0 81.0468 12.9678 1051 97.0105 804.827 475.4
1339 0 80.0934 11.4117 914 101.827 804.617 473.782
1340 0 86.0943 13.6014 1171 97.1529 804.283 473.776
1341 0 88.1629 13.4751 1188 98.5219 804.316 470.402
1342 1 46.0565 11.3773 524 100.393 804.044 492.269
1343 0 48.0255 12.1394 583 99.3688 804.842 491.214
1344 0 49.1494 12.6146 620 101.671 805.576 489.131
1345 0 50.0224 11.5148 576 100.743 804.101 489.802
1346 0 52.0429 11.4713 597 100.33 804.241 489.216
1347 0 54.1379 13.5395 733 97.0873 804.045 486.161
1348 0 57.1259 12.4287 710 98.5169 804.001 488.57
1349 0 56.1359 13.6276 765 98.1961 804.395 485.548
1350 0 57.0835 12.2277 698 101.655 804.407 484.881
1351 0 61.0857 14.1113 862 96.1566 804.434 486.922
1352 0 61.0559 12.3002 751 101.067 803.965 484.186
1353 0 64.1383 13.1746 845 99.4308 804.614 483.193
1354 0 66.1509 13.1518 870 100.156 804.847 483.007
1355 0 67.0438 13.3047 892 101.241 804.157 480.581
1356 0 69.2062 13.8571 959 100.786 804.429 480.178
1357 0 72.0882 13.0534 941 102.421 804.429 478.923
1358 0 74.0622 13.2591 982 103.255 804.584 478.014
1359 0 76.1305 14.0023 1066 102.522 804.326 477.284
1360 0 78.1553 13.2173 1033 105.115 805.081 477.395
1361 0 80.1773 13.5325 1085 104.462 803.992 475.324
1362 0 84.1839 12.9954 1094 105.239 804.361 474.485
1363 0 85.1081 12.6897 1080 105.219 804.786 473.565
1364 0 90.1535 12.8226 1156 104.654 804.188 471.17
1365 0 91.2832 11.9518 1091 107.32 805.215 468.529
1366 0 95.0817 13.2728 1262 105.723 804.471 466.515
1367 0 99.2301 13.4032 1330 105.674 804.063 463.585
1368 0 101.131 12.5481 1269 108.856 804.14 461.306
1369 1 55.1486 11.333 625 102.861 804.69 487.096
1370 0 56.1018 12.1565 682 112.912 804.449 485.61
1371 0 56.0363 12.4919 700 109.8 805.09 483.29
1372 0 60.1225 13.3893 805 116.598 805.583 486.671
1373 0 63.1346 13.7801 870 116.703 805.317 485.005
1374 0 65.1245 12.9905 846 120.257 804.214 483.117
1375 0 66.1233 13.1724 871 121.87 804.834 481.318
1376 0 67.0576 14.3459 962 120.457 804.196 480.529
1377 0 71.1446 13.4796 959 122.045 804.312 481.944
1378 0 72.1993 14.086 1017 123.022 804.325 478.98
1379 0 74.2415 14.0622 1044 124.234 804.714 478.624
1380 0 78.2454 14.5568 1139 123.455 804.606 477.324
1381 0 81.3126 15.0653 1225 123.264 804.635 475.055
1382 0 84.3547 14.6287 1234 122.922 804.527 475.553
1383 0 84.2014 13.4083 1129 127.582 804.51 473.322
1384 0 85.126 12.1937 1038 125.249 803.434 471.938
1385 0 91.0611 13.6282 1241 121.476 803.78 470.745
1386 0 94.0691 12.8204 1206 122.384 804.012 471.485
1387 0 97.2787 13.5898 1322 121.57 804.315 469.806
1388 0 100.176 13.037 1306 124.459 803.785 468.343
1389 0 103.302 13.7945 1425 124.151 803.94 465.44
1390 0 107.421 13.5169 1452 124.506 804.802 463.402
1391 1 58.138 13.5883 790 119.573 804.356 487.242
1392 0 58.138 13.6916 796 139.852 803.338 487.216
1393 0 61.1177 12.2878 751 124.277 803.999 485.17
1394 0 65.097 13.2571 863 121.272 803.683 484.351
1395 0 66.0584 13.7908 911 119.591 803.853 484.664
1396 0 69.0716 14.8542 1026 117.19 803.815 481.966
1397 0 71.1475 13.1839 938 121.191 804.062 480.711
1398 0 72.0958 12.8718 928 123.61 804.414 479.248
1399 0 76.0596 12.8189 975 123.997 804.008 476.171
1400 0 80.1547 13.3367 1069 122.139 804.123 476.888
1401 0 82.1373 13.5992 1117 123.703 804.347 473.591
1402 0 85.2556 12.9141 1101 126.208 804.93 473.054
1403 0 88.0981 14.4611 1274 123.122 804.882 470.762
1404 0 88.2411 13.2365 1168 127.652 804.789 469.964
1405 0 92.1154 14.1019 1299 125.246 804.15 467.888
1406 0 96.111 13.5676 1304 127.401 804.498 465.205
1407 0 99.3023 14.4005 1430 125.285 804.476 465.092
1408 0 102.25 13.9756 1429 128.603 803.713 461.843
1409 0 104.188 13.6196 1419 130.817 803.099 461.124
1410 0 108.222 13.8789 1502 130.023 803.305 460.94
1411 0 110.127 15.2006 1674 128.174 803.846 457.47
1412 0 112.151 13.1251 1472 134.257 802.954 455.645
1413 0 117.151 13.8198 1619 131.685 803.064 456.206
1414 0 122.154 14.0478 1716 131.462 804.443 451.962
1415 0 127.186 14.0189 1783 130.436 803.728 449.602
1416 0 132.189 14.6154 1932 128.288 803.219 446.934
1417 0 135.239 14.1527 1914 130.512 804.134 445.236
1418 0 140.243 13.4766 1890 132.641 803.422 442.304
1419 1 77.0699 12.7417 982 130.939 803.034 473.017
1420 0 77.0699 12.7676 984 145.604 803.046 473.053
1421 0 83.1521 14.0225 1166 128.747 803.261 471.005
1422 0 86.2277 14.253 1229 124.028 804.219 470.453
1423 0 88.1844 14.0614 1240 123.845 803.726 468.378
1424 0 93.1166 13.5314 1260 123.878 804.028 467.78
1425 0 95.3263 13.3331 1271 125.499 804.191 465.877
1426 0 100.287 14.299 1434 124.643 805.718 463.992
1427 0 103.356 14.6 1509 125.355 805.597 461.26
1428 0 104.429 14.4214 1506 127.897 805.254 457.96
1429 0 110.329 14.7197 1624 126.877 805.539 455.662
1430 0 113.243 14.2878 1618 128.204 804.985 452.975
1431 0 118.3 14.5477 1721 126.833 804.554 451.026
1432 0 121.207 14.7021 1782 126.494 804.02 445.836
1433 1 65.091 13.0894 852 123.892 803.979 473.214
1434 0 68.0945 12.8351 874 124.957 804.09 472.32
1435 0 71.1269 12.9487 921 122.906 804.211 473.322
1436 0 72.1793 12.0949 873 126.279 804.611 469.915
1437 0 77.1599 14.4246 1113 119.811 803.845 469.155
1438 0 80.1477 13.525 1084 122.147 803.378 469.754
1439 0 80.1986 12.8805 1033 125.403 803.944 468.788
1440 0 85.2366 13.3159 1135 120.411 804.376 465.751
1441 0 86.2081 12.6786 1093 123.38 804.025 462.548
1442 0 90.2757 13.7135 1238 120.355 804.056 462.742
1443 0 90.1499 13.4221 1210 124.009 804.336 459.799
1444 0 95.2621 14.0875 1342 121.966 804.184 459.806
1445 0 98.4014 13.7092 1349 124.4 804.257 459.424
1446 0 101.3 13.3367 1351 126.053 804.6 458.858
1447 0 106.284 14.019 1490 128.593 803.958 458.775
1448 0 107.334 13.7888 1480 128.168 804.458 456.587
1449 0 112.326 13.5944 1527 129.001 805.242 456.396
1450 1 59.1985 12.1794 721 124.454 805.638 482.386
1451 0 62.155 12.0827 751 121.619 805.068 482.577
1452 0 64.3446 12.8061 824 120.227 805.453 480.01
1453 0 67.2736 14.0917 948 115.826 805.634 476.32
1454 0 68.1515 14.0129 955 116.104 804.43 475.879
1455 0 72.0962 13.801 995 115.11 804.439 476.93
1456 0 76.0804 13.5252 1029 115.13 804.494 473.992
1457 0 75.1598 12.8659 967 117.65 804.491 472.906
1458 0 78.1362 13.1181 1025 117.416 805.214 470.747
1459 0 84.1275 13.1229 1104 117.042 804.859 471.389
1460 0 84.1068 13.6136 1145 118.537 804.46 467.8
1461 0 84.1068 13.6374 1147 142.53 803.474 467.849
1462 0 90.1535 13.9429 1257 117.119 805.02 467.078
1463 0 93.1915 13.5098 1259 119.248 804.967 465.322
1464 0 95.1577 14.3446 1365 117.67 805.07 464.149
1465 0 97.1604 13.2358 1286 121.393 804.695 463.773
1466 0 100.103 13.6659 1368 121.654 804.422 460.526
1467 0 105.111 14.7939 1555 119.027 804.997 460.418
1468 0 106.138 14.0101 1487 123.41 804.931 461.192
1469 0 110.127 13.9838 1540 122.673 804.945 457.344
1470 0 116.161 14.9362 1735 119.9 804.939 457.145
1471 0 117.267 13.1154 1538 125.131 805.22 454.359
1472 0 123.173 14.4999 1786 127.994 804.058 454.622
1473 1 61.1342 10.0762 616 129.878 803.791 469.575
1474 0 68.16 11.3703 775 122.853 803.983 471.006
1475 0 71.0643 12.5802 894 122.199 803.314 470.03
1476 0 70.1397 11.9191 836 119.112 804.438 471.103
1477 0 72.1348 11.9083 859 120.367 804.214 467.674
1478 0 74.0744 11.1239 824 120.648 804.39 469.067
1479 0 79.1319 12.7382 1008 118.308 804.679 466.582
1480 0 79.1503 12.5584 994 121.499 804.439 462.971
1481 0 83.2121 12.366 1029 121.172 804.02 461.605
1482 0 85.2147 11.2539 959 124.528 803.926 459.306
1483 0 88.3261 12.9407 1143 120.573 804.405 458.906
1484 0 94.3188 12.7758 1205 121.012 804.2 459.888
1485 0 96.2507 14.1194 1359 124.639 803.627 459.303
1486 0 102.224 13.9693 1428 121.931 804.15 461.268
1487 0 103.374 13.7365 1420 123.611 804.427 457.421
1488 0 102.39 13.4486 1377 150.619 804.398 456.566
1489 0 109.322 12.98 1419 121.638 804.459 450.054
1490 0 116.281 13.7598 1600 121.337 804.773 454.702
1491 0 121.291 13.7273 1665 118.395 804.965 448.216
1492 0 124.317 13.6989 1703 125.484 803.229 448.06
1493 0 129.36 13.1648 1703 124.3 803.8 442.335
1494 0 135.419 13.0336 1765 126.275 804.18 441.323
1495 0 141.253 15.1785 2144 121.713 803.812 435.804
1496 1 79.2238 10.9563 868 111.281 804.419 471.568
1497 0 79.2431 10.7265 850 116.94 805.411 472.276
1498 0 84.0842 11.429 961 114.261 804.633 473.202
1499 0 87.0799 11.4263 995 115.215 804.792 471.625
1500 0 91.0975 12.4262 1132 112.353 804.608 468.531
1501 0 92.1758 11.8469 1092 114.394 804.782 467.968
1502 0 98.2323 11.5033 1130 115.758 804.505 465.516
1503 0 99.0673 12.8297 1271 110.294 804.589 463.389
1504 0 100.08 12.7298 1274 112.035 804.578 463.83
1505 0 102.05 11.6806 1192 114.964 804.909 465.358
1506 0 103.057 11.6053 1196 121.058 804.13 462.489
1507 0 103.061 12.6817 1307 120.391 805.018 460.239
1508 0 105.165 12.8845 1355 120.125 804.956 461.402
1509 0 103.094 10.8833 1122 128.086 803.693 458.726
1510 0 110.102 12.3885 1364 123.48 803.948 457.339
1511 0 113.191 10.9108 1235 125.12 803.515 454.764
1512 0 119.273 11.8719 1416 120.782 803.496 454.006
1513 0 123.252 11.6671 1438 120.721 803.287 449.723
1514 0 127.216 11.791 1500 118.474 803.39 449.309
1515 1 70.1722 10.9303 767 108.673 803.203 479.366
1516 0 71.218 9.70261 691 109.848 802.964 482.043
1517 0 73.1803 10.3853 760 109.864 802.842 478.446
1518 0 74.1 10.2969 763 111.768 802.769 478.598
1519 0 78.1676 11.6928 914 112.939 803.205 475.271
1520 0 80.2802 11.3228 909 115.155 803.303 474.834
1521 0 81.1587 12.2846 997 114.67 802.78 475.006
1522 0 84.11 12.0675 1015 116.009 803.33 473.725
1523 0 86.2264 11.7945 1017 117.483 802.992 473.166
1524 0 89.2262 11.0394 985 121.099 803.246 471.745
1525 0 92.2807 12.3753 1142 120.176 803.539 468.441
1526 0 94.4514 11.9321 1127 122.051 803.89 468.671
1527 0 97.4208 10.9114 1063 125.557 804.256 467.143
1528 1 48.1366 11.0311 531 113.992 802.324 491.979
1529 0 50.0531 10.6887 535 114.277 802.422 491.215
1530 0 50.2814 11.2964 568 113.958 805.035 489.217
1531 0 52.2523 11.1191 581 115.392 805.048 490.668
1532 0 53.1029 10.4514 555 118.09 804.436 488.467
1533 0 54.1165 10.3296 559 118.567 803.93 488.687
1534 0 55.3105 11.3179 626 117.006 804.577 488.428
1535 0 56.1252 11.3318 636 118.519 804.753 488.836
1536 0 56.1083 10.2124 573 122.401 803.455 488.553
1537 0 56.0335 9.94048 557 121.763 802.849 490.189
1538 0 59.0643 11.8007 697 118.44 803.267 487.518
1539 0 61.1099 11.1111 679 121.493 802.057 486.24
1540 0 64.0326 11.1974 717 120.961 802.02 485.837
1541 0 65.1272 11.9766 780 120.096 801.869 483.708
1542 0 67.0813 10.8227 726 122.876 803.045 484.178
1543 0 69.163 12.0006 830 119.681 803.155 482.11
1544 0 72.1647 12.6239 911 119.733 802.531 480.845
1545 0 74.2361 12.4872 927 120.052 802.317 479.009
1546 0 76.3924 12.1085 925 120.116 802.243 478.966
1547 0 78.2667 11.3458 888 123.405 802.672 476.925
1548 0 82.2599 13.0197 1071 118.558 802.232 475.505
1549 0 82.2952 11.799 971 123.835 802.112 473.594
1550 0 88.2292 13.0682 1153 118.618 802.068 474.542
1551 1 47.0534 9.98865 470 119.917 801.151 494.83
1552 0 50.0879 12.2984 616 116.117 801.029 491.856
1553 0 52.12 12.0683 629 112.669 802.07 490.866
1554 0 52.2446 12.4032 648 116.051 801.17 490.781
1555 0 53.0608 11.6282 617 117.394 799.891 490.53
1556 0 55.0131 12.7424 701 116.397 800.551 490.933
1557 0 54.0148 12.5336 677 119.056 800.335 488.421
1558 0 59.0253 12.2151 721 118.208 800.465 487.868
1559 0 61.1104 12.4529 761 117.696 801.127 486.645
1560 0 61.0508 12.465 761 119.866 800.717 485.586
1561 0 63.0443 12.7847 806 118.427 801.489 485.974
1562 0 65.0621 12.6802 825 118.682 801.445 485.341
1563 0 67.1544 13.2679 891 116.171 802.163 482.642
1564 0 70.1026 12.8241 899 117.606 802.007 482.197
1565 0 72.0822 12.4441 897 117.382 802.05 480.475
1566 0 72.0873 12.7762 921 119.939 802.464 479.762
1567 0 75.1062 13.634 1024 112.457 802.627 476.382
1568 0 78.1196 13.5689 1060 112.62 802.558 476.292
1569 0 79.1911 13.0318 1032 115.854 802.605 475.208
1570 0 83.0903 12.0953 1005 117.042 802.238 475.653
1571 0 85.1277 12.3579 1052 118.083 802.174 473.231
1572 0 89.1859 12.6814 1131 116.629 801.926 467.376
1573 0 93.2326 13.4824 1257 115.042 801.767 463.392
1574 0 96.3831 13.685 1319 114.827 801.559 462.54
1575 0 98.1394 12.6962 1246 119.435 802.092 467.089
1576 0 100.088 12.9486 1296 125.488 801.848 464.377
1577 1 53.1645 10.4205 554 114.273 802.011 486.074
1578 0 55.1847 13.029 719 120.128 802.958 490.065
1579 0 59.0549 14.1055 833 117.055 802.581 485.112
1580 0 59.2808 14.0855 835 118.521 802.364 483.922
1581 0 61.2073 13.8382 847 119.155 802.665 485.192
1582 0 63.213 14.0161 886 119.102 802.778 484.37
1583 0 65.2798 14.0166 915 118.289 802.732 481.943
1584 0 69.1279 12.2092 844 125.944 801.999 483.71
1585 0 69.3503 13.3525 926 128.303 802.043 481.489
1586 0 72.2275 13.1113 947 129.864 802.199 480.121
1587 0 73.3569 12.6777 930 132.725 802.21 477.065
1588 0 77.4405 14.4627 1120 127.023 801.403 476.321
1589 0 79.2962 13.6072 1079 130.561 802.155 473.529
1590 0 83.5093 14.693 1227 124.521 801.905 473.355
1591 0 80.109 11.4344 916 125.721 802.073 472.295
1592 0 85.2376 11.9079 1015 126.28 801.746 472.222
1593 0 89.154 12.6411 1127 122.493 802.467 471.984
1594 0 92.1649 12.9333 1192 122.879 802.724 471.464
1595 0 93.2521 11.796 1100 126.665 801.252 466.745
1596 0 97.3854 13.2258 1288 122.954 800.616 463.513
1597 0 102.251 12.7822 1307 123.272 801.197 462.649
1598 0 104.21 11.8703 1237 126.179 801.747 460.281
1599 0 110.25 12.2177 1347 124.81 801.947 459.156
1600 1 59.1526 11.969 708 116.219 801.958 482.883
1601 0 60.1146 13.2247 795 114.517 801.985 481.408
1602 0 60.0922 11.9816 720 116.156 803.518 484.881
1603 0 66.0229 12.1322 801 113.402 803.718 485.237
1604 0 67.0783 12.15 815 115.804 803.492 482.987
1605 0 67.0659 11.1681 749 118.64 803.172 482.151
1606 0 71.0837 12.2813 873 117.278 802.285 479.056
1607 0 74.1183 12.0753 895 117.809 802.513 478.512
1608 0 77.166 13.4904 1041 115.595 802.745 476.618
1609 0 78.0897 12.2167 954 119.468 802.769 475.875
1610 0 81.0743 11.4093 925 121.39 803.983 473.601
1611 0 85.1546 13.4109 1142 117.14 803.876 471.306
1612 0 86.1022 11.7186 1009 121.864 803.167 464.762
1613 0 88.175 11.4885 1013 121.84 803.429 468.801
1614 0 92.1079 12.2682 1130 120.635 803.55 465.271
1615 0 96.176 12.0404 1158 100.211 803.604 465.889
1616 0 98.1311 10.4758 1028 125.838 803.209 464.652
1617 1 54.0482 11.5637 625 115.045 803.907 489.443
1618 0 55.0603 11.9142 656 117.625 803.718 486.602
1619 0 58.1665 13.2035 768 114.784 802.879 485.508
1620 0 60.1412 12.4374 748 119.485 803.849 484.5
1621 0 61.0371 12.4842 762 120.289 803.415 482.386
1622 0 64.1135 12.5091 802 119.201 803.744 482.358
1623 0 66.1177 14.1717 937 114.714 803.352 481.794
1624 0 68.1203 12.7422 868 117.54 803.255 481.433
1625 0 70.1187 12.5787 882 118.475 802.892 479.455
1626 0 72.1995 13.1718 951 116.66 802.619 478.243
1627 0 75.1949 12.8865 969 117.609 803.028 475.72
1628 0 79.1793 12.6296 1000 117.2 802.931 476.094
1629 0 80.1422 13.3637 1071 117.049 802.893 473.176
1630 0 83.1961 13.0655 1087 116.752 802.808 474.578
1631 0 87.209 13.2784 1158 116.194 802.859 471.168
1632 0 89.2827 13.8997 1241 114.869 802.669 470.227
1633 0 92.2035 13.3075 1227 116.953 802.351 468.689
1634 0 98.2385 13.5588 1332 115.225 803.035 468.318
1635 1 53.0979 11.0551 587 117.371 803.463 487.852
1636 0 53.101 11.3369 602 116.184 803.709 487.767
1637 0 55.0782 11.7288 646 115.817 803.61 485.376
1638 0 58.0303 12.4935 725 113.006 802.611 486.959
1639 0 58.0757 12.1738 707 115.038 802.693 486.382
1640 0 63.0679 13.4775 850 112.12 803.278 484.433
1641 0 64.1134 13.2733 851 113.559 802.939 483.011
1642 0 65.1759 12.5507 818 115.79 803.609 483.324
1643 0 66.1797 13.1914 873 116.415 803.015 478.792
1644 0 71.1748 13.6425 971 113.313 802.777 480.912
1645 0 72.1545 13.0969 945 116.074 802.056 476.921
1646 0 73.1359 12.2512 896 118.845 802.857 477.819
1647 0 78.2267 13.0646 1022 116.573 802.829 475.321
1648 0 81.1331 12.9294 1049 117.319 803.159 474.631
1649 0 82.2197 13.7558 1131 117.414 803.086 473.134
1650 0 86.1886 14.3871 1240 115.08 803.888 472.846
1651 0 91.4152 13.9255 1273 115.69 802.573 471.357
1652 0 92.282 13.2203 1220 117.546 803.17 469.951
1653 0 92.1707 12.5202 1154 119.353 802.938 466.621
1654 1 51.0623 11.1824 571 116.704 803.236 489.07
1655 0 48.1787 9.2572 446 118.392 803.209 483.482
1656 0 51.049 11.4987 587 100.482 802.165 486.896
1657 0 55.011 12.8883 709 111.159 800.893 487.745
1658 0 56.0385 12.6163 707 112.61 800.284 485.662
1659 0 55.0189 11.8687 653 113.766 802.602 486.617
1660 0 55.0734 10.5859 583 117.648 803.139 487.408
1661 0 58.0351 10.9933 638 116.437 803.306 487.715
1662 0 62.0917 11.6441 723 114.035 803.835 487.037
1663 0 63.038 11.9293 752 114.62 803.743 486.392
1664 0 67.0598 13.1972 885 111.355 803.158 483.582
1665 0 68.0318 12.6853 863 113.25 803.198 484.241
1666 0 70.1025 13.0095 912 114.502 802.982 481.629
1667 0 73.0795 13.629 996 112.874 803.192 479.981
1668 0 77.0743 13.5454 1044 110.599 803.598 481.446
1669 0 78.1467 12.822 1002 115.728 803.538 477.46
1670 0 81.0798 12.5062 1014 116.183 803.501 476.771
1671 0 83.0999 13.1769 1095 114.9 803.442 474.674
1672 0 85.1555 11.9898 1021 119.924 803.123 473.909
1673 0 89.1064 13.5793 1210 117.107 803.08 471.869
1674 1 47.0715 11.7268 552 117.54 803.346 493.105
1675 0 47.2485 12.2544 579 110.993 802.152 491.257
1676 0 50.1916 12.791 642 107.358 803.587 489.41
1677 0 48.111 12.6998 611 111.83 803.092 489.065
1678 0 51.0679 13.4135 685 109.004 802.816 489.385
1679 0 53.1293 12.6296 671 111.541 803.404 488.073
1680 0 52.0642 12.4078 646 114.074 803.72 488.608
1681 0 55.0979 12.6502 697 113.646 803.509 487.838
1682 0 58.056 12.2468 711 114.248 803.263 484.931
1683 0 59.0318 11.9088 703 115.767 803.491 484.053
1684 0 61.0858 13.2109 807 112.149 803.434 484.228
1685 0 63.0813 14.4258 910 109.102 802.913 483.422
1686 0 64.0938 13.7923 884 111.836 803.069 481.219
1687 0 69.0333 14.4278 996 109.558 803.189 480.809
1688 0 69.0689 12.1473 839 116.417 803.937 481.704
1689 0 71.13 13.2574 943 115.305 803.873 478.011
1690 0 76.1115 13.1386 1000 115.054 803.398 477.181
1691 0 77.1391 13.171 1016 116.518 803.267 474.733
1692 0 79.0851 13.3906 1059 117.703 803.641 473.525
1693 0 82.2066 12.9795 1067 118.393 803.813 472.724
1694 0 84.1366 13.3473 1123 118.04 803.103 474.579
1695 0 84.1492 13.0958 1102 120.689 803.153 467.992
1696 0 89.2311 13.325 1189 119.095 803.495 468.911
1697 1 45.0753 10.5157 474 118.705 804.23 485.603
1698 0 44.198 10.6792 472 119.447 802.331 482.335
1699 0 46.1717 11.5872 535 116.166 802.129 484.116
1700 0 48.271 11.2076 541 117.238 802.296 483.582
1701 0 50.2151 10.0966 507 119.203 802.156 480.631
1702 0 50.2369 9.85332 495 120.424 802.776 480.665
1703 0 52.1634 11.5023 600 117.568 802.21 480.203
1704 0 56.1281 12.4893 701 110.943 801.856 479.088
1705 0 57.2028 10.8561 621 114.519 802.002 476.982
1706 0 59.1605 11.6463 689 112.144 802.264 477.213
1707 0 63.212 12.5451 793 110.805 802.304 475.023
1708 0 65.1346 12.1134 789 112.858 801.973 475.119
1709 0 65.1929 12.1025 789 114.698 802.049 471.847
1710 0 68.2144 12.4167 847 114.407 802.522 472.972
1711 0 70.2304 11.8752 834 116.582 802.263 472.457
1712 0 70.2224 11.6487 818 144.053 802.219 472.186
1713 0 78.2219 13.2188 1034 116.288 802.379 474.237
1714 0 81.2572 12.8604 1045 118.011 802.442 472.9
1715 0 84.0634 13.7515 1156 119.887 803.007 474.154
1716 0 84.0634 13.7039 1152 150.364 803.022 474.148
1717 1 46.0254 12.1889 561 117.168 802.526 491.43
1718 0 47.0765 12.7027 598 109.6 802.306 493.03
1719 0 48.045 11.1978 538 116.245 799.766 489.065
1720 0 50.0852 11.5603 579 115.323 800.149 488.466
1721 0 53.0551 13.3823 710 110.792 800.689 488.585
1722 0 53.0922 11.546 613 113.829 800.163 489.237
1723 0 55.0362 12.7916 704 110.615 800.976 487.487
1724 0 56.0622 11.8797 666 113.374 800.461 487.836
1725 0 55.0379 11.156 614 117.13 801.094 487.381
1726 0 59.0465 12.7527 753 112.556 800.768 484.827
1727 0 61.0275 11.503 702 115.608 800.956 483.698
1728 0 66.0918 12.6793 838 111.356 801.054 482.675
1729 0 65.0495 12.6673 824 112.186 801.417 483.314
1730 0 70.1348 13.4028 940 108.481 801.583 482.273
1731 0 70.0661 12.4026 869 113.159 801.543 477.578
1732 0 73.1102 12.1734 890 114.688 800.362 476.652
1733 0 76.0976 11.4458 871 116.668 801.021 476.383
1734 1 39.0416 11.2188 438 115.669 801.009 495.45
1735 0 40.0159 11.8953 476 113.742 801.04 496.204
1736 0 39.0153 10.5599 412 119.507 800.682 494.146
1737 0 41.1011 11.3136 465 117.449 801.03 494.923
1738 0 40.0401 11.2637 451 111.754 802.754 495.783
1739 0 39.0793 10.4659 409 115.704 800.797 495.729
1740 0 41.0598 10.1559 417 115.391 800.592 495.549
1741 0 40.0285 8.79373 352 119.673 802.148 494.347
1742 0 46.0367 11.6863 538 111.978 801.154 492.242
1743 0 46.0436 10.2729 473 114.59 802.782 494.002
1744 0 46.0375 9.92669 457 116.057 802.392 493.363
1745 0 46.0792 10.0262 462 117.877 801.416 488.994
1746 0 49.0809 11.4097 560 113.655 803.2 489.35
1747 0 54.0279 11.383 615 112.023 802.943 491.086
1748 0 52.0486 12.0272 626 113.371 802.872 488.374
1749 0 56.0588 10.3998 583 116.238 803.244 489.343
1750 0 56.0744 11.8592 665 113.699 803.275 485.307
1751 0 57.0268 11.065 631 114.777 802.911 484.426
1752 0 61.0515 11.7278 716 112.754 803.251 484.39
1753 0 60.0371 9.37754 563 119.595 803.377 485.329
1754 0 65.1096 11.8262 770 113.951 802.418 483.865
1755 0 66.0935 10.6818 706 117.616 803.101 481.16
1756 0 69.1341 10.9208 755 116.796 803.478 481.109
1757 0 70.0588 11.6616 817 116.651 802.974 478.902
1758 0 72.1144 10.8994 786 118.92 802.819 478.046
1759 0 77.0307 12.6703 976 114.095 802.978 478.022
1760 0 80.0349 12.3821 991 115.749 802.826 477.878
1761 1 41.034 11.6732 479 114.701 803.67 495.248
1762 0 43.2091 11.3634 491 115.373 803.059 493.316
1763 0 44.144 10.9641 484 116.605 803.448 493.477
1764 0 43.1394 11.1731 482 119.417 803.172 494.376
1765 0 44.1977 10.9282 483 122.118 803.424 492.594
1766 0 46.1555 11.8946 549 119.783 802.687 492.424
1767 0 48.2101 12.5285 604 118.662 803.238 491.328
1768 0 49.2284 11.4365 563 121.936 803.314 490.014
1769 0 51.1256 11.8141 604 120.061 803.23 489.843
1770 0 52.0524 12.1416 632 119.506 802.796 488.465
1771 0 56.1569 12.3404 693 117.521 803.339 489.672
1772 0 56.0792 12.6428 709 117.767 803.52 488.185
1773 0 57.1284 12.3056 703 120.188 803.687 485.482
1774 0 60.1644 12.4991 752 118.888 803.555 485.803
1775 0 62.0619 13.3254 827 117.133 803.705 483.501
1776 0 64.1582 12.438 798 118.64 802.649 484.529
1777 0 66.1735 12.9508 857 117.602 802.627 482.113
1778 0 69.1107 13.4567 930 116.197 802.594 481.63
1779 0 70.1455 14.0422 985 115.56 802.451 480.303
1780 0 72.0735 12.7092 916 119.635 802.556 479.172
1781 0 75.0819 13.9581 1048 117.841 802.24 477.274
1782 0 76.1116 13.3488 1016 120.781 802.907 475.735
1783 0 79.1026 14.083 1114 118.828 803.009 475.214
1784 0 82.1248 13.7839 1132 120.575 802.549 472.648
1785 0 86.1234 14.1077 1215 119.428 802.289 472.145
1786 0 89.1336 12.4196 1107 122.396 802.978 472.671
1787 0 90.1678 12.9647 1169 123.947 802.198 467.925
1788 0 95.0608 13.16 1251 122.043 802.655 467.389
1789 1 49.0962 10.734 527 124.926 803.258 488.924
1790 0 51.2058 12.5181 641 118.365 802.187 484.613
1791 0 52.1874 12.5892 657 107.741 801.922 483.6
1792 0 53.1206 11.7469 624 114.401 802.322 482.377
1793 0 57.146 11.7768 673 112.804 802.116 483.544
1794 0 58.0999 11.4802 667 114.64 802.046 482.748
1795 0 59.1047 12.1818 720 114.125 801.843 482.186
1796 0 60.1588 11.852 713 115.589 802.422 481.648
1797 0 63.0967 13.202 833 113.78 802.501 479.067
1798 0 62.0758 11.8404 735 118.769 802.067 478.827
1799 0 66.0608 11.2775 745 119.561 801.868 479.071
1800 0 69.1309 11.9339 825 118.952 802.293 477.587
1801 0 69.0602 11.5986 801 121.792 802.567 475.792
1802 0 74.2416 12.3381 916 118.653 802.046 477.54
1803 0 77.0782 12.403 956 120.319 802.81 473.708
1804 0 80.059 13.49 1080 116.22 802.309 475
1805 0 82.2177 13.1359 1080 117.056 801.831 472.69
1806 0 85.208 12.8979 1099 118.748 801.804 471.492
1807 0 87.0663 13.7711 1199 118.146 801.631 470.921
1808 1 45.035 11.6798 526 119.937 801.854 493.702
1809 0 47.1351 12.4748 588 117.311 801.544 492.265
1810 0 50.116 12.4711 625 117.266 801.931 490.166
1811 0 49.165 12.0818 594 120.503 803.806 488.295
1812 0 53.1377 13.0604 694 116.635 803.656 489
1813 0 55.1772 12.8133 707 117.13 803.274 487.027
1814 0 56.1575 12.3759 695 118.377 803.229 487.153
1815 0 60.137 13.6023 818 113.576 802.988 486.867
1816 0 59.143 14.9299 883 112.669 803.078 484.101
1817 0 63.1576 13.4426 849 115.233 803.087 484.931
1818 0 65.1101 13.7152 893 115.345 803.493 483.33
1819 0 68.107 14.3451 977 115.237 802.027 483.131
1820 0 69.1685 13.6189 942 118.111 801.43 481.8
1821 0 71.057 13.9888 994 116.225 801.438 481.647
1822 0 73.0346 13.966 1020 116.776 801.331 478.073
1823 0 76.113 13.1909 1004 118.013 801.763 478.531
1824 0 79.1769 15.1812 1202 112.749 801.701 475.738
1825 0 81.1208 12.882 1045 119.179 802.189 474.814
1826 0 84.1081 13.5421 1139 117.834 803.268 473.045
1827 0 87.1206 13.6592 1190 117.63 803.471 473.955
1828 1 46.081 11.8487 546 117.998 804.103 492.996
1829 0 47.0499 11.0733 521 121.716 804.002 491.511
1830 0 51.1252 12.6356 646 119.404 803.226 488.433
1831 0 48.0369 12.6569 608 116.257 801.827 491.151
1832 0 50.0378 11.851 593 118.659 803.135 490.825
1833 0 51.0713 12.3944 633 117.057 803.85 490.27
1834 0 54.0805 13.1471 711 115.373 803.526 485.731
1835 0 53.0309 11.993 636 119.564 803.575 487.803
1836 0 58.0826 13.3603 776 113.454 803.327 486.054
1837 0 61.0948 14.1747 866 110.353 803.737 485.473
1838 0 61.0567 12.7095 776 115.192 803.639 482.832
1839 0 63.1308 12.7196 803 114.544 803.071 481.524
1840 0 66.1512 12.8191 848 113.351 803.169 480.915
1841 0 69.1526 13.3473 923 111.094 802.59 481.124
1842 0 71.0635 14.1423 1005 110.301 802.534 478.995
1843 0 71.3181 11.2594 803 99.3076 803.504 479.443
1844 0 76.1737 12.3271 939 113.748 802.2 473.82
1845 0 78.0962 12.8303 1002 110.954 802.338 476.184
1846 0 81.2429 13.0965 1064 110.674 802.937 472.036
1847 0 82.169 13.2775 1091 110.304 802.809 473.264
1848 0 87.1722 12.481 1088 112.004 801.574 471.2
1849 0 89.1652 13.4806 1202 109.062 801.496 470.73
1850 1 47.1611 12.4467 587 108.578 801.121 491.33
1851 0 47.1901 10.9981 519 112.751 801.52 488.285
1852 0 50.1756 11.5594 580 110.164 801.184 487.636
1853 0 49.236 10.4192 513 108.14 801.725 487.587
1854 0 52.1102 11.0151 574 104.244 801.134 487.34
1855 0 53.0415 11.9906 636 102.626 802.514 485.236
1856 0 55.0901 11.8896 655 108.043 803.408 485.121
1857 0 57.1198 12.1149 692 105.458 802.419 484.762
1858 0 59.1629 10.8852 644 107.202 803.598 484.391
1859 0 62.2578 12.5125 779 104.599 803.142 483.458
1860 0 64.0788 12.2974 788 105.754 803.098 481.086
1861 0 66.1705 12.5887 833 104.891 803.299 480.222
1862 0 67.1367 12.4224 834 106.55 802.658 478.971
1863 0 71.0988 12.9116 918 105.284 803.358 477.868
1864 0 74.0481 12.4649 923 106.406 803.115 478.55
1865 0 76.0929 11.3414 863 109.732 803.472 473.761
1866 0 78.065 12.5921 983 108.155 803.43 472.934
1867 0 81.047 11.6229 942 110.5 803.238 474.949
1868 0 82.1037 12.265 1007 110.858 802.845 474.494
1869 0 84.1397 12.2653 1032 112.758 802.732 470.922
1870 0 88.0758 12.9775 1143 111.594 802.77 470.26
1871 0 90.1089 12.5404 1130 114.44 802.804 466.981
1872 1 47.0493 11.286 531 115.996 803.077 489.783
1873 0 50.0203 11.9152 596 115.24 802.891 489.248
1874 0 50.0463 11.3695 569 116.975 802.494 487.214
1875 0 51.0359 10.9335 558 116.376 803.629 488.367
1876 0 54.0616 12.8187 693 112.358 803.424 487.345
1877 0 55.0335 12.3561 680 117.541 803.856 485.235
1878 0 56.0486 13.2742 744 115.492 803.914 486.469
1879 0 58.0872 13.9618 811 114.382 803.407 483.42
1880 0 61.0506 13.0384 796 116.932 803.597 484.529
1881 0 63.0171 13.2028 832 116.828 803.097 481.944
1882 0 65.0403 12.3769 805 119.06 803.183 482.002
1883 0 67.0445 14.3785 964 115.115 802.585 480.741
1884 0 71.2133 14.604 1040 114.082 802.455 482.056
1885 0 72.1813 14.0064 1011 118.633 801.917 477.045
1886 0 76.3477 14.9972 1145 114.62 801.738 477.082
1887 0 76.2698 13.0065 992 122.182 802.042 476.587
1888 0 79.3647 13.5703 1077 121.032 801.233 473.825
1889 0 82.3011 13.7422 1131 122.107 801.744 473.439
1890 0 84.3327 13.5416 1142 127.788 801.911 471.44
1891 0 87.3209 14.8762 1299 114.711 801.17 473.497
1892 1 46.0605 10.7684 496 122.097 801.212 492.673
1893 0 46.0616 11.8971 548 120.881 801.305 492.588
1894 0 47.1212 11.8418 558 120.444 801.459 489.839
1895 0 49.0376 12.8473 630 117.995 801.489 490.151
1896 0 51.0941 13.1131 670 114.713 801.652 489.358
1897 0 51.0628 13.3169 680 115.306 801.349 489.847
1898 0 55.074 12.9281 712 115.201 801.728 488.823
1899 0 54.0924 12.7929 692 118.259 801.402 487.072
1900 0 55.0874 12.6526 697 119.603 802.359 486.34
1901 0 58.1879 13.1814 767 116.802 802.224 485.205
1902 0 59.2281 12.933 766 117.899 802.059 484.999
1903 0 63.1316 14.9687 945 111.796 801.931 483.782
1904 0 63.1651 12.1586 768 120.014 802.194 482.773
1905 0 66.1027 12.889 852 118.181 801.649 481.915
1906 0 68.1656 13.0271 888 117.917 801.813 480.5
1907 0 69.3618 13.2494 919 119.168 801.347 479.75
1908 0 72.2009 13.8364 999 117.153 801.944 477.611
1909 0 76.2856 12.7547 973 118.661 801.88 476.495
1910 0 78.2693 14.6673 1148 113.997 801.111 475.089
1911 0 78.4003 13.7755 1080 117.819 801.613 471.602
1912 0 81.0949 12.7012 1030 120.067 801.711 471.943
1913 0 85.3203 12.037 1027 121.103 801.918 471.378
1914 0 87.3469 12.6622 1106 119.484 801.966 469.4
1915 1 46.3652 11.6251 539 119.996 801.455 487.82
1916 0 45.1546 9.67787 437 113.19 801.696 490.792
1917 0 50.0863 11.6 581 106.396 801.076 489.661
1918 0 51.1379 11.3614 581 107.69 801.299 487.742
1919 0 54.2346 11.6531 632 106.878 800.649 486.783
1920 0 53.0898 11.2451 597 107.295 801.358 489.839
1921 0 55.1445 11.9504 659 107.03 801.288 486.085
1922 0 58.1088 11.6506 677 107.592 801.093 484.682
1923 0 58.1324 12.0587 701 107.009 800.826 484.404
1924 0 61.1895 12.6492 774 106.079 801.078 481.497
1925 0 62.1378 12.0378 748 107.555 801.614 482.588
1926 0 64.0749 12.2045 782 107.513 800.954 479.927
1927 0 68.0995 12.8929 878 105.31 801.54 480.894
1928 0 68.1507 11.8561 808 108.147 802.911 480.082
1929 0 71.1596 12.0433 857 108.293 803.512 478.62
1930 0 74.1291 11.8847 881 108.117 803.426 475.378
1931 0 76.2068 12.8073 976 108.394 803.087 476.374
1932 0 77.1585 11.3921 879 114.924 802.78 475.957
1933 0 81.4119 12.8728 1048 111.734 802.652 474.899
1934 0 84.245 12.5349 1056 113.4 803.123 473.119
1935 0 85.2868 11.9362 1018 116.081 802.882 468.287
1936 0 84.3768 9.36276 790 122.722 802.462 469.909
1937 0 88.2534 8.75887 773 124.683 802.959 468.924
1938 1 48.0958 9.81374 472 118.267 803.364 490.347
1939 0 51.0812 11.3153 578 114.656 803.192 489.272
1940 0 54.2537 10.9301 593 115.229 802.988 488.867
1941 0 54.2504 11.2995 613 115.512 802.917 487.586
1942 0 55.1762 10.5843 584 118.611 803.098 485.565
1943 0 59.1386 11.9212 705 114.437 802.742 485.282
1944 0 60.2656 11.2502 678 116.999 802.78 484.622
1945 0 62.1175 12.4281 772 113.794 802.422 481.159
1946 0 65.1218 11.824 770 115.348 802.638 481.927
1947 0 66.1684 11.6068 768 115.841 802.811 480.393
1948 0 69.124 11.7904 815 115.921 803.063 479.36
1949 0 71.152 11.89 846 115.767 802.596 479.423
1950 0 73.1278 12.0611 882 117.133 802.464 478.73
1951 0 75.2291 11.0197 829 119.694 802.546 477.285
1952 0 79.1699 12.5174 991 116.991 801.936 473.749
1953 0 82.181 12.6428 1039 116.625 802.226 474.138
1954 0 85.145 11.8151 1006 118.546 802.369 472.556
1955 0 87.2871 11.7429 1025 120.217 802.573 469.468
1956 0 90.1532 12.3124 1110 119.614 802.861 468.014
1957 1 49.094 10.8771 534 118.824 804.006 490.624
1958 0 50.0786 11.0426 553 118.859 804.132 489.68
1959 0 50.0435 10.351 518 119.535 803.927 488.938
1960 0 52.0306 12.0506 627 116.262 800.911 488.608
1961 0 55.0701 12.929 712 112.66 801.018 488.556
1962 0 55.0552 11.9516 658 114.942 801.219 486.473
1963 0 56.1233 12.6864 712 112.868 801.767 487.118
1964 0 57.1666 12.5423 717 113.279 801.354 485.113
1965 0 60.2307 11.871 715 118.476 801.239 484.638
1966 0 64.2009 11.7288 753 120.177 800.639 483.753
1967 0 64.1329 13.1758 845 117.131 800.625 480.974
1968 0 67.0933 13.593 912 115.087 800.889 482.56
1969 0 68.2903 13.3987 915 116.263 801.562 479.635
1970 0 70.2141 12.6755 890 117.873 801.138 479.334
1971 0 73.1399 12.8521 940 117.961 801.722 477.174
1972 0 74.2463 13.5764 1008 118.041 801.704 475.957
1973 0 77.3196 12.4031 959 121.437 801.536 475.219
1974 0 81.3821 13.111 1067 118.83 801.258 475.19
1975 0 82.3167 12.8164 1055 120.403 801.489 473.483
1976 0 86.3009 13.9164 1201 116.823 802.057 471.797
1977 0 86.3218 14.4691 1249 116.041 801.74 470.588
1978 0 90.3943 13.0982 1184 119.792 802.071 466.354
1979 0 92.3514 11.597 1071 124.76 801.934 467.123
1980 0 93.3918 11.7248 1095 125.254 801.99 466.046
1981 1 50.1907 10.8187 543 122.392 801.582 489.269
1982 0 50.0338 11.4723 574 120.42 800.963 488.786
1983 0 53.0898 12.978 689 114.495 801.16 487.742
1984 0 56.2172 12.4161 698 116.987 801.039 485.557
1985 0 55.1528 11.3684 627 121.33 801.596 484.37
1986 0 56.2458 12.5876 708 118.47 801.321 484.408
1987 0 60.1278 11.9911 721 119.444 800.65 482.266
1988 0 63.1804 13.596 859 114.625 800.136 482.25
1989 0 64.1807 13.3373 856 114.978 800.386 482.553
1990 0 65.0893 13.0897 852 116.7 800.477 479.969
1991 0 67.1662 12.3127 827 118.475 801.252 479.427
1992 0 70.1456 13.2011 926 115.481 800.59 479.6
1993 0 72.1792 14.3116 1033 114.58 800.538 475.318
1994 0 75.2196 12.643 951 118.349 800.192 476.565
1995 0 77.1476 13.714 1058 115.054 800.469 475.864
1996 0 80.1977 13.1799 1057 117.007 800.751 473.157
1997 0 81.1334 12.5349 1017 119.108 800.399 472.786
1998 0 84.1174 12.97 1091 117.808 800.103 473.271
1999 0 89.0974 13.4123 1195 116.71 800.623 469.829
2000 1 45.0478 11.2547 507 114.696 800.574 490.509
2001 0 48.0675 12.0248 578 108.699 800.022 490.663
2002 0 48.0542 10.9043 524 110.365 801.601 491.88
2003 0 49.0563 10.6205 521 111.664 800.161 489.601
2004 0 49.055 9.74416 478 114.824 800.232 489.479
2005 0 48.1018 9.1057 438 118.274 800.212 486.817
2006 0 51.0692 10.2214 522 114.123 799.987 489.387
2007 0 52.0349 10.935 569 114.439 800.54 485.478
2008 0 54.1402 10.5098 569 113.641 799.928 486.13
2009 0 55.0478 11.045 608 112.628 800.395 485.89
2010 0 60.0908 11.9985 721 108.789 800.318 485.562
2011 0 62.0217 11.1574 692 109.361 800.065 483.705
2012 0 62.0807 10.132 629 112.011 800.1 481.626
2013 0 65.0732 10.2961 670 111.963 800.569 480.063
2014 0 68.0627 11.0486 752 109.414 800.578 479.487
2015 0 71.0563 10.5691 751 111.423 800.727 477.543
2016 0 73.1241 10.9813 803 110.01 799.775 474.271
2017 0 75.113 11.4627 861 109.704 800.655 474.437
2018 0 78.1958 10.9852 859 111.104 800.701 473.042
2019 0 80.113 10.6724 855 112.556 800.526 472.125
2020 1 38.0369 10.5687 402 108.943 800.022 489.848
2021 0 42.0556 10.1295 426 107.629 800.671 488.157
2022 0 43.0286 10.6209 457 109.972 803.886 489.53
2023 0 44.0049 10.4988 462 112.539 803.554 489.742
2024 0 46.0726 10.3966 479 112.38 804.399 489.061
2025 0 47.0803 11.045 520 111.183 804.529 487.383
2026 0 49.1262 11.155 548 110.013 803.943 486.609
2027 0 49.1076 11.4443 562 110.246 804.253 486.466
2028 0 53.0484 12.3284 654 106.966 804.06 485.838
2029 0 52.1004 11.6122 605 110.34 804.364 483.669
2030 0 54.0355 11.3074 611 110.34 803.966 486.646
2031 0 56.0293 12.4578 698 108.708 804.245 484.629
2032 0 58.1592 12.9816 755 107.458 804.008 483.019
2033 0 60.069 11.8031 709 110.44 803.863 482.79
2034 0 62.177 11.8693 738 110.611 803.724 482.259
2035 0 64.0431 11.7421 752 111.584 802.63 481.916
2036 0 65.0932 12.0903 787 111.229 802.922 481.492
2037 0 69.1098 12.1256 838 111.013 802.961 481.078
2038 0 69.1883 12.1552 841 113.822 803.247 477.784
2039 0 71.0877 12.2103 868 115.151 803.376 475.681
2040 0 73.2298 11.3751 833 117.624 803.381 473.986
2041 0 78.1444 12.3489 965 115.687 804.012 476.155
2042 0 78.2038 12.5569 982 117.726 804.075 473.723
2043 0 83.2585 13.8845 1156 113.353 803.278 471.761
2044 0 83.3517 14.2289 1186 115.452 803.419 471.809
2045 0 87.2561 12.9618 1131 118.326 802.852 469.767
2046 1 46.2591 11.3491 525 117.69 803.004 489.743
2047 0 45.4994 10.7694 490 112.196 801.739 484.504
2048 0 48.3358 9.74433 471 114.433 801.066 484.242
2049 0 48.2033 11.41 550 112.551 801.127 482.669
2050 0 49.2644 10.129 499 116.367 801.154 482.717
2051 0 52.2604 11.1365 582 114.17 801.981 482.498
2052 0 53.2691 11.4513 610 114.42 801.68 482.623
2053 0 55.2263 11.2265 620 116.455 801.5 480.627
2054 0 56.1935 11.8341 665 114.904 802.141 480.388
2055 0 59.2731 12.5014 741 113.086 802.332 478.996
2056 0 60.1802 11.6982 704 115.161 802.418 478.234
2057 0 61.1716 11.2307 687 117.386 801.21 476.504
2058 0 65.2358 11.5427 753 114.661 801.56 476.772
2059 0 68.2435 12.0011 819 113.519 801.989 476.206
2060 0 67.1684 12.0295 808 114.401 801.234 474.225
2061 0 72.2757 11.3039 817 114.165 801.685 475.599
2062 0 76.126 12.0984 921 111.033 801.183 473.139
2063 0 75.1139 10.8768 817 115.315 801.439 470.411
2064 0 79.0366 12.1336 959 113.095 801.303 468.881
2065 0 82.0568 11.1996 919 113.843 801.679 472.17
2066 1 44.0984 10.4766 462 103.102 800.944 490.418
2067 0 46.0331 10.9269 503 102.779 801.364 490.274
2068 0 47.0724 11.1955 527 103.734 801.628 488.288
2069 0 47.1509 10.9436 516 101.671 801.442 482.853
2070 0 49.1423 11.2734 554 100.347 801.02 481.475
2071 0 50.122 11.2725 565 100.104 801.281 482.177
2072 0 53.2268 10.784 574 101.071 801.735 480.695
2073 0 52.1492 10.5275 549 101.834 801.876 482.064
2074 0 55.09 11.9804 660 98.1242 800.935 480.07
2075 0 55.0879 10.9098 601 102.108 800.882 478.737
2076 0 57.1228 11.2915 645 101.203 801.296 477.617
2077 0 62.1194 12.7496 792 97.2677 801.374 478.143
2078 0 64.1881 11.8402 760 98.6842 801.317 478.274
2079 0 64.1086 11.7613 754 100.053 801.076 475.431
2080 0 65.0855 11.9996 781 100.081 800.882 474.516
2081 0 66.1273 10.7217 709 102.79 801.186 473.746
2082 0 71.1221 11.5435 821 99.9671 802.021 472.038
2083 0 72.1765 11.0839 800 102.139 802.053 467.961
2084 0 74.1315 11.5471 856 101.542 801.467 467.077
2085 0 76.1241 11.1003 845 103.205 801.591 466.086
2086 0 78.0757 10.8869 850 104.354 801.6 463.927
2087 0 84.1108 11.8772 999 102.173 801.912 463.406
2088 0 85.1656 10.5089 895 106.197 801.917 461.359
2089 0 88.2593 12.3953 1094 105.813 801.534 461.562
2090 0 91.0685 12.4412 1133 113.346 801.919 461.725
2091 0 91.133 10.7425 979 115.667 801.887 462.294
2092 0 94.2004 9.58594 903 115.906 801.435 462.898
2093 1 48.1605 10.5065 506 102.196 801.194 486.018
2094 0 49.0459 8.93041 438 104.518 802.219 482.685
2095 0 48.1415 9.49285 457 105.751 802.088 481.505
2096 0 53.1355 9.76749 519 104.119 802.029 481.52
2097 0 52.1252 9.97598 520 104.85 802.029 481.804
2098 0 54.093 8.5963 465 108.626 801.832 477.987
2099 0 56.1827 9.87849 555 105.629 801.879 480.229
2100 0 58.1533 8.8731 516 109.475 801.275 477.822
2101 0 63.1697 10.2581 648 107.324 801.627 475.08
2102 0 64.0793 9.69111 621 110.366 801.211 474.069
2103 0 66.0696 10.6857 706 108.874 801.786 473.967
2104 0 69.2222 10.8491 751 108.662 801.15 472.625
2105 0 66.1195 9.2106 609 114.849 801.154 471.123
2106 0 72.3108 11.0634 800 111.664 801.266 470.191
2107 0 77.2175 12.7173 982 108.183 801.269 467.526
2108 0 79.3231 11.409 905 110.735 801.028 465.778
2109 0 85.2972 13.2009 1126 106.472 801.778 464.759
2110 0 88.2217 12.8313 1132 108.315 801.89 465.379
2111 0 93.4675 13.5555 1267 107.085 801.522 463.395
2112 0 93.1985 11.6633 1087 112.923 800.827 463.307
2113 0 97.1937 11.9041 1157 112.131 801.024 459.792
2114 0 101.227 11.2618 1140 113.252 801.487 458.896
2115 1 52.0831 11.04 575 105.569 802.005 481.908
2116 0 54.1948 11.4587 621 109.596 802.343 483.944
2117 0 54.0673 9.95056 538 119.955 802.351 483.245
2118 0 57.0289 11.3451 647 114.628 802.053 481.745
2119 0 58.0351 10.5281 611 117.023 802.079 479.326
2120 0 63.0896 11.5233 727 111.999 802.413 482.061
2121 0 63.1123 12.1529 767 112.803 802.602 478.827
2122 0 67.0491 11.857 795 112.613 802.338 477.657
2123 0 71.0399 12.4859 887 110.747 802.652 476.88
2124 0 73.1055 11.7228 857 113.067 802.61 474.026
2125 0 75.0846 11.8932 893 114.167 802.469 474.15
2126 0 76.0984 11.6691 888 115.63 801.619 472.286
2127 0 80.1882 11.5852 929 109.926 802.266 471.378
2128 0 83.3065 11.1276 927 111.105 802.206 472.462
2129 0 87.1083 11.2274 978 110.264 802.099 473.384
2130 0 90.1821 12.4748 1125 110.664 802.05 468.827
2131 0 93.0726 11.2815 1050 113.937 801.434 468.15
2132 0 97.3415 12.1736 1185 110.47 800.862 467.208
2133 0 98.1677 10.8997 1070 115.979 801.09 464.582
2134 0 103.274 12.1327 1253 112.769 801.435 463.489
2135 1 53.0699 11.1174 590 108.634 801.542 487.385
2136 0 56.1902 10.6958 601 109.722 801.839 490.035
2137 0 57.2796 12.2033 699 112.127 802.173 486.68
2138 0 59.1498 10.6002 627 110.022 802.137 485.97
2139 0 59.2652 11.0183 653 109.779 802.124 482.89
2140 0 63.1312 11.4682 724 106.373 802.421 485.272
2141 0 66.1685 12.0903 800 105.858 802.273 483.64
2142 0 66.1245 11.3574 751 107.13 802.204 482.594
2143 0 69.3007 12.0201 833 106.42 802.042 477.515
2144 0 72.1698 12.2628 885 106.573 802.194 477.679
2145 0 74.2089 11.5754 859 107.612 802.829 478.298
2146 0 77.1653 11.9743 924 107.159 801.751 472.992
2147 0 77.1913 10.9598 846 107.022 801.819 472.298
2148 0 82.1584 11.6239 955 105.521 801.831 469.889
2149 0 83.2348 10.5004 874 111.114 801.529 467.851
2150 1 43.0425 10.5942 456 105.875 799.417 491.327
2151 0 46.2133 12.7885 591 101.181 799.875 487.638
2152 0 45.0445 11.6551 525 104.288 799.918 491.093
2153 0 48.1012 12.0787 581 102.869 799.845 489.783
2154 0 50.0636 11.6452 583 103.619 799.283 488.988
2155 0 51.0364 12.0894 617 103.528 799.207 487.044
2156 0 54.072 11.9101 644 102.702 799.891 489.033
2157 0 55.0717 11.9662 659 102.237 800.393 486.669
2158 0 56.181 11.8368 665 104.015 802.638 485.917
2159 0 58.0657 12.4342 722 101.988 802.566 484.855
2160 0 59.076 11.8153 698 103.314 802.805 484.381
2161 0 61.0581 12.5127 764 101.796 803.01 483.808
2162 0 61.1157 12.2064 746 103.324 803.611 483.965
2163 0 64.0772 11.6266 745 104.499 803.059 482.098
2164 0 66.0493 11.5974 766 104.867 802.655 481.501
2165 0 69.0659 12.7125 878 101.508 802.603 478.887
2166 0 71.1128 12.4028 882 101.977 802.223 480.92
2167 0 73.0609 12.5512 917 102.417 802.605 477.853
2168 0 76.0748 12.3694 941 102.751 802.092 477.73
2169 0 77.0505 11.9402 920 104.63 802.311 475.276
2170 0 81.0707 11.6195 942 105.173 802.185 476.361
2171 0 82.0883 12.3647 1015 104.346 802.6 473.03
2172 0 86.0996 12.4739 1074 104.931 802.192 471.713
2173 0 90.1688 12.2659 1106 105.925 802.24 470.26
2174 0 93.0888 12.6976 1182 106.719 801.596 468.13
2175 1 49.131 11.1335 547 107.695 802.448 489.7
2176 0 47.1433 10.7545 507 109.846 802.878 489.073
2177 0 53.0391 10.8034 573 114.496 803.079 488.604
2178 0 55.0289 12.3935 682 110.575 803.164 487.606
2179 0 56.088 13.4253 753 109.554 803.127 485.807
2180 0 58.1622 12.2588 713 112.502 803.428 486.144
2181 0 59.0588 13.1902 779 110.35 802.669 486.252
2182 0 61.1219 11.9924 733 114.362 802.325 484.259
2183 0 63.1087 12.5181 790 113.089 802.82 483.241
2184 0 64.0588 11.989 768 116.171 802.708 481.974
2185 0 67.0615 12.332 827 115.089 803.273 481.589
2186 0 69.1107 12.0676 834 115.839 803.191 480.787
2187 0 71.1725 12.5329 892 115.212 802.945 480.954
2188 0 75.1157 13.619 1023 113.153 802.235 478.389
2189 0 77.1349 12.6143 973 116.106 802.695 478.351
2190 0 79.1054 12.515 990 118.704 803.624 476.063
2191 0 82.0678 13.1964 1083 117.27 803.379 475.003
2192 0 84.1859 12.2823 1034 120.502 802.668 474.095
2193 0 87.1757 13.1918 1150 119.542 802.458 471.15
2194 0 90.0885 12.2657 1105 121.633 803.05 471.027
2195 1 48.2704 10.6898 516 118.312 802.983 492.176
2196 0 49.1041 12.1171 595 113.58 802.672 491.78
2197 0 50.0639 12.2044 611 111.372 803.074 490.884
2198 0 51.1212 11.8933 608 109.791 802.293 491.873
2199 0 53.0782 12.604 669 108.903 802.324 490.311
2200 0 56.0491 12.4355 697 109.714 803.043 489.461
2201 0 55.1068 11.5594 637 113.452 802.111 489.151
2202 0 56.0732 12.6799 711 111.47 801.897 488.439
2203 0 59.0557 13.6481 806 108.469 802.187 487.612
2204 0 60.1096 14.2739 858 107.707 802.334 486.43
2205 0 60.1502 12.369 744 113.538 802.411 486.958
2206 0 64.123 13.8952 891 109.942 802.765 482.658
2207 0 66.1284 12.1733 805 113.764 802.624 484.983
2208 0 68.1965 12.8452 876 112.588 802.398 482.049
2209 0 71.1696 13.3625 951 111.39 802.006 480.79
2210 0 72.1322 13.2119 953 115.069 802.65 478.836
2211 0 75.1442 13.6005 1022 114.284 802.833 479.266
2212 0 77.1488 13.4416 1037 115.288 802.673 477.356
2213 0 80.0512 14.4033 1153 112.117 802.526 475.494
2214 0 80.1766 12.5722 1008 118.816 802.258 472.597
2215 0 82.074 14.0605 1154 114.832 801.22 472.042
2216 0 82.1194 12.2748 1008 120.106 800.881 474.079
2217 1 49.1087 11.3218 556 122.059 801.736 490.099
2218 0 51.1867 12.7572 653 117.907 801.838 488.222
2219 0 52.2301 11.3536 593 122.015 800.548 484.253
2220 0 53.2971 12.496 666 119.347 801.153 486.153
2221 0 54.1688 11.1873 606 122.96 802.86 485.708
2222 0 57.1857 12.7654 730 117.978 802.614 486.436
2223 0 57.0933 13.4517 768 118.419 802.085 484.697
2224 0 58.1305 11.4054 663 124.192 801.934 483.46
2225 0 61.2795 12.0758 740 121.957 802.526 483.005
2226 0 64.1412 10.9914 705 123.688 802.844 483.384
2227 0 65.2715 12.1033 790 122.597 802.708 480.92
2228 0 68.1269 13.284 905 118.193 802.145 481.019
2229 0 69.1696 12.7223 880 121.29 801.797 478.992
2230 0 69.102 11.7507 812 125.249 801.861 477.963
2231 0 71.3329 12.0562 860 125.884 801.976 474.443
2232 0 77.2278 13.117 1013 121.851 800.999 473.237
2233 0 81.2471 13.0097 1057 122.977 801.216 471.823
2234 0 81.1941 12.3901 1006 124.606 802.024 472.881
2235 0 85.2816 12.5349 1069 124.645 801.735 468.285
2236 0 89.3458 11.3044 1010 127.752 800.867 469.326
2237 0 94.2783 12.601 1188 123.799 800.382 468.992
2238 0 96.1637 12.1772 1171 122.997 799.9 469.699
2239 0 98.541 12.4821 1230 125.989 800.548 464.918
2240 0 102.225 13.0692 1336 124.417 800.165 465.539
2241 1 58.1775 12.7541 742 123.512 800.009 486.243
2242 0 60.2131 12.954 780 121.746 800.599 486.469
2243 0 59.2322 13.5906 805 123.327 799.93 484.307
2244 0 62.2353 13.1115 816 123.58 800.136 483.539
2245 0 62.2904 13.6458 850 123.186 800.426 482.667
2246 0 66.3067 13.9805 927 120.918 800.708 482.093
2247 0 66.226 13.318 882 125.078 800.232 481.177
2248 0 70.1969 14.1317 992 120.917 800.693 482.38
2249 0 72.2222 13.7354 992 122.446 800.827 480.418
2250 0 72.2244 13.915 1005 123.509 800.422 476.979
2251 0 76.1743 13.3378 1016 124.149 800.402 478.326
2252 0 78.2086 13.643 1067 124.057 800.425 475.231
2253 0 79.3647 14.1121 1120 123.6 800.803 475.697
2254 0 81.4187 13.2279 1077 125.808 800.858 475.137
2255 0 85.2657 13.8274 1179 124.071 800.469 473.452
2256 0 89.341 13.6332 1218 125.104 801.44 471.661
2257 0 93.2541 15.7527 1469 118.379 800.498 471.776
2258 0 94.3709 12.9595 1223 126.815 799.745 469.975
2259 0 98.4412 14.3639 1414 124.033 800.378 468.273
2260 0 102.459 14.5424 1490 123.342 800.601 469.021
2261 1 55.2937 11.1043 614 125.946 800.27 492.842
2262 0 55.1035 12.0682 665 126.083 799.914 492.644
2263 0 59.1719 12.2693 726 124.946 799.792 493.216
2264 0 61.2642 12.4706 764 126.33 800.247 491.856
2265 0 63.2345 13.8057 873 123.181 799.471 492.513
2266 0 63.1664 12.9024 815 127.448 799.398 492.005
2267 0 66.3252 13.1021 869 126.842 799.039 493.02
2268 0 68.1871 13.287 906 126.965 799.107 491.911
2269 0 69.2348 12.6093 873 130.309 798.669 491.239
2270 0 73.1673 13.599 995 126.099 798.266 491.674
2271 0 73.3688 13.7115 1006 126.158 798.843 492.145
2272 0 77.2579 13.332 1030 129.17 799.096 488.27
2273 0 77.186 13.4351 1037 129.421 798.845 488.672
2274 0 81.2505 14.363 1167 127.284 798.09 485.298
2275 0 85.4207 13.2287 1130 127.03 797.401 484.052
2276 0 86.2854 12.9918 1121 127.181 798.369 482.467
2277 0 90.0971 13.1081 1181 120.908 798.722 479.432
2278 0 93.2436 14.2423 1328 119.812 797.732 475.63
2279 0 97.2604 13.2222 1286 122.729 797.433 475.81
2280 1 49.1619 9.82468 483 126.023 796.505 498.582
2281 0 54.2538 11.9254 647 120.43 796.08 493.284
2282 0 54.3532 12.2164 664 119.407 795.86 495.053
2283 0 57.0892 11.2631 643 109.652 797.272 495.527
2284 0 57.1084 10.9441 625 110.006 796.235 494.067
2285 0 56.1607 10.1673 571 113.548 795.471 491.336
2286 0 61.1413 11.547 706 110.527 795.901 492.721
2287 0 62.1408 11.9567 743 109.1 796.174 492.673
2288 0 64.093 11.1869 717 110.48 795.764 495.958
2289 0 67.1208 12.485 838 106.878 795.082 494.61
2290 0 70.1488 12.9154 906 106.915 795.572 493.513
2291 0 71.1878 12.9095 919 107.251 795.597 489.802
2292 0 74.2238 10.6165 788 113.734 795.596 490.874
2293 0 78.1108 12.3671 966 112.895 795.487 489.16
2294 0 80.1361 12.0046 962 114.768 795.401 489.257
2295 0 82.2148 11.0807 911 117.328 794.827 485.009
2296 0 87.5611 12.7682 1118 113.051 794.953 480.744
2297 0 90.3594 12.9704 1172 112.706 795.16 480.394
2298 0 92.3606 11.6067 1072 116.724 794.985 475.911
2299 0 94.3716 11.2322 1060 117.484 794.484 476.517
2300 1 48.2087 10.0189 483 110.176 794.609 501.375
2301 0 51.0589 10.7327 548 109.434 795.659 501.573
2302 0 51.0964 10.7053 547 108.002 795.795 500.512
2303 0 53.1712 10.344 550 109.467 796.18 501.044
2304 0 54.1407 12.3752 670 106.334 795.394 498.324
2305 0 57.3515 10.6187 609 108.778 795.806 499.665
2306 0 57.0816 10.1259 578 110.651 795.725 499.076
2307 0 63.243 12.2069 772 105.819 794.944 497.281
2308 0 63.1195 11.0267 696 110.323 795.195 494.105
2309 0 66.2521 11.743 778 107.934 795.573 495.283
2310 0 67.1961 10.9679 737 111.068 794.758 493.676
2311 0 69.1886 11.4759 794 111.174 795.188 493.043
2312 0 73.1855 12.3795 906 109.347 795.645 492.475
2313 0 74.2189 12.3419 916 110.926 795.121 491.386
2314 0 78.2345 12.3091 963 110.104 795.435 490.687
2315 0 80.1914 12.2332 981 111.727 795.562 487.256
2316 0 84.2351 12.1921 1027 111.64 795.588 488.227
2317 0 85.2433 11.0507 942 115.827 795.168 485.92
2318 1 46.1357 11.1627 515 110.384 795.856 505.604
2319 0 48.1296 12.1547 585 109.834 794.79 503.015
2320 0 49.0327 12.1144 594 110.616 796.049 503.412
2321 0 53.0749 12.1903 647 103.669 795.643 502.621
2322 0 52.1405 12.6389 659 104.596 796.282 500.803
2323 0 52.208 11.9139 622 106.77 796.791 500.976
2324 0 54.2055 11.77 638 107.094 796.948 500.078
2325 0 56.0527 12.2563 687 106.223 796.556 499.087
2326 0 58.085 12.1202 704 106.797 796.175 498.825
2327 0 58.0731 12.3982 720 108.301 795.946 496.871
2328 0 61.1651 12.2782 751 108.213 796.21 494.449
2329 0 62.0958 12.6418 785 107.722 796.475 494.493
2330 0 66.2423 12.3033 815 107.78 796.204 494.799
2331 0 68.1238 13.5342 922 104.183 796.38 493.651
2332 0 71.1985 13.5256 963 103.324 796.796 493.247
2333 0 71.1598 12.4649 887 106.694 796.427 490.909
2334 0 73.2115 12.4571 912 107.546 796.582 489.48
2335 0 75.1204 12.3136 925 107.763 796.156 489.659
2336 0 78.1209 13.6327 1065 106.608 796.034 484.362
2337 0 81.2583 13.5494 1101 107.564 796.095 482.941
2338 0 83.23 11.6424 969 113.022 796.044 481.621
2339 0 87.3273 12.0466 1052 112.12 795.278 480.61
2340 1 48.2718 12.9682 626 105.781 795.045 496.717
2341 0 47.2978 11.9456 565 108.428 794.977 495.455
2342 0 51.0456 12.4007 633 105.367 794.179 496.011
2343 0 52.1135 12.396 646 106.342 794.528 494.721
2344 0 55.0558 12.4964 688 104.987 794.773 495.172
2345 0 55.0503 12.2615 675 107.159 794.927 494.178
2346 0 56.0714 12.3236 691 107.857 795.139 492.764
2347 0 59.1321 13.4952 798 104.603 795.316 490.107
2348 0 61.0253 13.3715 816 105.181 795.127 489.243
2349 0 61.1017 12.651 773 108.429 795.327 488.291
2350 0 63.1251 11.7069 739 111.295 795.65 485.211
2351 0 63.0569 11.8782 749 111.77 796.519 486.188
2352 0 68.0743 12.2366 833 109.983 796.325 483.696
2353 0 70.0968 12.5398 879 109.443 795.885 483.232
2354 0 73.1028 12.7902 935 108.449 797.722 479.943
2355 0 74.0432 12.8033 948 108.745 797.241 479.098
2356 0 78.1313 12.7862 999 108.706 797.387 477.726
2357 0 80.1169 13.0684 1047 108.697 796.997 477.596
2358 0 84.0771 13.1784 1108 109.419 797.19 473.941
2359 1 45.0063 11.2429 506 111.97 797.484 494.968
2360 0 46.1763 11.651 538 111.29 798.082 492.967
2361 0 46.0849 11.9128 549 109.557 796.78 492.335
2362 0 47.069 13.3634 629 107.779 796.99 491.377
2363 0 48.0588 12.4223 597 109.251 796.899 490.61
2364 0 51.1106 13.3827 684 106.194 797.874 489.497
2365 0 50.0846 12.1395 608 109.683 798.271 488.836
2366 0 50.0587 12.1657 609 111.105 797.842 488.53
2367 0 54.0961 11.7569 636 110.426 797.83 487.006
2368 0 56.0835 12.8558 721 107.791 797.947 487.035
2369 0 58.0543 12.7122 738 107.778 798.084 486.244
2370 0 58.0826 12.5855 731 108.655 798.373 486.049
2371 0 61.0918 11.5891 708 109.897 798.795 483.852
2372 0 63.2026 12.6261 798 107.875 797.954 482.447
2373 0 65.1675 12.3067 802 108.924 798.156 481.562
2374 0 70.1341 13.0892 918 106.187 798.066 481.388
2375 0 71.0855 12.4076 882 108.012 798.475 481.56
2376 0 74.1128 13.6414 1011 106.054 797.926 476.917
2377 0 77.1025 13.4237 1035 106.891 797.637 475.693
2378 0 79.1657 13.3896 1060 106.078 798.084 475.806
2379 0 80.1038 12.5088 1002 108.892 798.037 474.039
2380 0 85.121 13.193 1123 106.746 797.959 473.502
2381 0 85.1487 12.2022 1039 110.623 797.873 472.479
2382 0 89.1759 13.7817 1229 106.376 798.057 469.037
2383 0 93.0675 14.1725 1319 104.241 798.486 469.306
2384 0 94.0503 11.9617 1125 110.404 798.393 470.821
2385 0 95.0683 10.7817 1025 109.582 798.628 465.179
2386 1 51.0529 10.5185 537 111.911 797.937 486.704
2387 0 55.1381 10.4284 575 103.256 799.301 478.6
2388 0 58.1085 10.6181 617 102.754 799.358 480.135
2389 0 59.1552 9.78782 579 104.938 799.06 482.37
2390 0 60.0926 10.5005 631 104.531 799.255 478.808
2391 0 61.1132 10.7505 657 105.851 799.886 477.676
2392 0 65.1112 12.3174 802 102.809 799.764 477.813
2393 0 65.1212 10.4728 682 107.579 798.96 477.415
2394 0 69.0788 11.5955 801 106.452 799.152 475.252
2395 0 71.1626 10.8203 770 107.984 799.844 475.869
2396 0 74.0934 10.1628 753 110.432 799.676 470.398
2397 0 78.1102 11.3686 888 107.696 799.779 471.221
2398 0 82.0556 12.5281 1028 104.459 799.73 470.999
2399 0 82.0637 11.1621 916 108.254 799.298 468.074
2400 0 86.1312 11.0065 948 108.146 799.592 468.428
2401 0 89.1045 11.2116 999 108.825 799.159 465.499
2402 0 95.1205 10.5235 1001 110.107 799.051 466.014
2403 0 97.0725 10.7857 1047 110.599 798.99 463.959
2404 0 103.103 11.0666 1141 109.549 798.934 464.381
2405 0 104.06 10.4363 1086 111.428 799.039 460.996
2406 0 110.141 11.1312 1226 109.1 798.684 460.754
2407 1 59.1654 8.85653 524 102.366 798.857 483.828
2408 0 60.0689 9.18945 552 105.185 798.322 479.002
2409 0 64.057 11.0527 708 105.75 799.64 483.487
2410 0 66.1157 10.406 688 99.343 799.028 480.331
2411 0 68.0838 10.3843 707 99.1853 799.252 477.083
2412 0 71.1132 11.1794 795 97.5069 799.486 477.687
2413 0 72.1312 11.4236 824 98.2148 799.536 475.625
2414 0 73.0815 10.1394 741 101.682 799.57 473.545
2415 0 77.0696 11.3144 872 99.2833 799.654 473.338
2416 0 78.119 11.6105 907 100.066 799.486 470.853
2417 0 81.0688 10.7193 869 102.041 799.234 472.079
2418 0 83.194 10.5657 879 102.524 799.124 469.286
2419 0 88.0805 11.2511 991 101.424 799.327 468.994
2420 0 91.0846 12.3621 1126 99.5888 799.3 467.972
2421 0 94.0642 12.4277 1169 100.755 798.895 463.524
2422 0 96.2051 11.0285 1061 104.37 799.533 463.361
2423 0 101.138 11.2223 1135 104.11 799.468 463.333
2424 0 103.084 10.5933 1092 106.561 798.886 461.606
2425 0 108.227 11.7346 1270 106.255 798.606 460.117
2426 1 54.0794 9.33813 505 107.055 798.242 485.909
2427 0 56.0418 10.171 570 102.854 798.423 487.314
2428 0 58.0919 10.8621 631 99.1537 800.407 485.672
2429 0 60.1514 9.09372 547 103.658 800.525 484.786
2430 0 57.1097 10.1734 581 104.804 800.287 483.055
2431 0 62.1126 11.8656 737 104.87 800.881 485.037
2432 0 62.1093 10.8357 673 107.722 801.278 485.104
2433 0 67.1076 13.1431 882 102.993 800.833 483.169
2434 0 69.164 11.8703 821 105.82 800.664 481.622
2435 0 71.0997 11.3503 807 103.82 800.064 478.425
2436 0 75.276 11.584 872 102.162 800.883 477.313
2437 0 75.1831 11.3855 856 104.176 800.443 475.862
2438 0 78.1814 11.5756 905 104.667 800.105 474.855
2439 0 80.1504 11.7779 944 104.756 800.347 474.657
2440 0 82.152 10.3832 853 109.485 799.679 472.168
2441 0 85.183 11.0233 939 109.132 800.069 472.099
2442 0 88.1109 11.8374 1043 108.18 800.49 470.257
2443 0 90.1223 11.5732 1043 110.123 799.801 469.916
2444 0 92.117 11.4528 1055 113.442 799.182 466.002
2445 0 95.1477 11.5189 1096 115.195 799.081 466.419
2446 0 99.2096 11.7731 1168 115.764 798.727 465.889
2447 0 100.28 11.3781 1141 118.306 798.399 462.349
2448 0 103.128 12.2081 1259 118.368 798.666 459.446
2449 0 105.163 11.1256 1170 122.602 799.228 459.654
2450 0 111.183 11.3776 1265 121.604 799.355 456.34
2451 0 115.171 11.166 1286 122.159 799.066 458.312
2452 0 121.304 11.9287 1447 122.364 799.168 453.242
2453 1 66.0963 11.8312 782 112.173 800.402 483.829
2454 0 66.058 11.7473 776 110.04 800.143 480.223
2455 0 69.1998 12.5578 869 112.207 799.237 482.12
2456 0 69.1687 12.1298 839 114.664 798.946 478.453
2457 0 75.1107 13.9794 1050 107.286 799.103 480.776
2458 0 74.1055 11.9154 883 113.394 799.684 481.373
2459 0 79.0632 13.5082 1068 109.053 799.645 479.101
2460 0 82.2005 12.8101 1053 107.311 799.309 474.526
2461 0 84.0568 12.1703 1023 108.971 799.586 473.257
2462 0 86.0579 12.4102 1068 108.986 799.794 472.126
2463 0 87.1102 11.9045 1037 110.548 800.524 469.939
2464 0 92.1038 12.4642 1148 109.233 799.967 466.316
2465 0 94.1479 12.6291 1189 109.042 800.153 465.632
2466 0 97.0623 11.8172 1147 111.467 799.919 463.713
2467 0 100.157 13.1494 1317 108.998 799.755 464.428
2468 1 53.0808 9.90943 526 109.154 799.69 487.551
2469 0 55.11 10.3429 570 109.261 800.395 485.704
2470 0 57.1914 11.7325 671 108.815 799.887 484.943
2471 0 60.1164 12.4758 750 102.673 800.468 484.021
2472 0 61.2542 12.2604 751 103.134 799.874 483.334
2473 0 62.1763 12.738 792 102.543 800.029 483.803
2474 0 64.1085 12.2137 783 102.383 799.441 482.392
2475 0 67.2009 11.2647 757 103.88 799.752 476.635
2476 0 70.2101 11.8644 833 102.134 799.558 477.594
2477 0 72.155 12.7226 918 101.664 799.863 475.422
2478 0 73.122 12.3219 901 102.866 800.042 476.243
2479 0 74.2806 12.4932 928 102.582 800.07 472.376
2480 0 77.143 12.0555 930 104.503 800.331 469.491
2481 0 80.2256 12.5022 1003 102.94 799.488 473.132
2482 0 82.1912 13.2131 1086 101.969 799.994 469.942
2483 0 84.1144 12.7445 1072 103.104 800.25 470.767
2484 0 88.2882 11.8929 1050 105.978 800.354 468.61
2485 0 90.2482 14.2939 1290 101.294 799.598 465.467
2486 0 92.1389 11.8625 1093 107.769 800.441 469.472
2487 0 95.1176 11.9536 1137 108.837 800.126 466.7
2488 0 98.1285 13.1256 1288 107.612 799.805 463.702
2489 0 103.247 13.6372 1408 105.817 799.683 462.841
2490 0 105.241 11.9725 1260 109.952 799.411 465.823
2491 1 53.157 11.1556 593 114.341 800.845 487.912
2492 0 56.1596 10.5592 593 114.847 800.764 488.85
2493 0 60.0555 13.2544 796 115.052 800.485 485.455
2494 0 62.07 12.0187 746 107.307 800.04 481.702
2495 0 60.1645 12.0004 722 106.259 799.609 478.015
2496 0 62.1242 12.3462 767 105.571 799.476 476.773
2497 0 63.2814 11.1723 707 108.061 799.863 477.208
2498 0 67.1311 13.2427 889 103.253 800.084 474.349
2499 0 69.2849 11.8063 818 106.414 800.341 471.68
2500 0 70.233 12.43 873 106.885 800.362 471.104
2501 0 75.2071 13.6423 1026 102.816 799.971 470.512
2502 0 75.1869 13.513 1016 105.009 800.328 467.628
2503 0 79.1945 12.2862 973 107.137 800.168 467.191
2504 0 80.2292 13.4864 1082 106.116 799.651 465.214
2505 0 83.228 12.4357 1035 109.587 799.74 465.031
2506 0 85.1609 12.4001 1056 109.814 799.748 466.608
2507 0 88.1401 12.8432 1132 110.238 799.989 462.374
2508 0 91.1575 12.824 1169 110.21 799.539 463.666
2509 0 95.1801 13.5217 1287 109.233 799.762 460.242
2510 0 95.1608 13.0621 1243 112.041 799.859 458.598
2511 0 99.2278 13.2019 1310 112.012 800.415 456.425
2512 0 102.219 13.0113 1330 112.143 799.729 455.344
2513 1 51.1385 10.0707 515 113.513 799.984 479.583
2514 0 55.0505 12.8064 705 105.655 800.743 481.224
2515 0 57.0627 11.759 671 107.973 800.648 480.545
2516 0 59.2278 12.072 715 107.652 800.958 478.85
2517 0 60.2205 12.1055 729 108.733 800.078 478.317
2518 0 64.1104 12.6656 812 107.191 800.905 476.897
2519 0 66.063 13.9564 922 104.782 800.748 475.661
2520 0 67.1473 11.5716 777 111.936 800.87 474.447
2521 0 69.0411 11.9929 828 110.681 800.153 474.536
2522 0 73.145 12.5914 921 109.815 801.334 471.339
2523 0 72.1809 11.2495 812 114.956 800.427 470.879
2524 0 78.1443 12.8992 1008 111.042 801.339 468.604
2525 0 79.1253 12.3728 979 113.861 801.269 465.207
2526 0 83.1837 12.5746 1046 112.849 801.488 466.607
2527 0 86.1156 12.9129 1112 112.386 800.826 464.021
2528 0 89.1489 12.6193 1125 114.567 800.384 461.809
2529 0 92.132 13.2744 1223 112.733 800.683 459.66
2530 0 93.0862 13.0739 1217 114.931 800.606 458.541
2531 0 99.0932 14.1281 1400 112.555 800.301 455.741
2532 0 100.277 12.4156 1245 117.554 800.751 455.983
2533 0 104.083 12.3267 1283 118.221 800.366 452.995
2534 0 107.083 12.8031 1371 119.781 801.444 453.022
2535 1 59.2007 11.7397 695 120.016 801.751 474.528
2536 0 62.133 11.7007 727 119.836 800.579 473.374
2537 0 65.1426 12.158 792 109.636 800.649 473.08
2538 0 66.0885 11.0912 733 112.126 799.707 472.232
2539 0 68.1166 12.2878 837 109.54 800.62 468.02
2540 0 70.0969 11.8836 833 110.86 800.333 465.533
2541 0 72.0647 12.4333 896 110.109 801.016 465.333
2542 0 77.0525 12.4331 958 108.892 801.051 465.072
2543 0 78.2361 12.8202 1003 109.635 801.467 465.631
2544 0 81.2499 12.0123 976 110.895 801.347 463.756
2545 0 85.1474 13.7761 1173 107.962 801.604 460.129
2546 0 85.1542 12.542 1068 112.783 801.772 459.301
2547 0 91.1433 12.036 1097 113.013 801.314 459.382
2548 0 94.112 12.7826 1203 111.665 801.514 458.546
2549 0 97.1059 12.44 1208 114.482 800.589 455.546
2550 0 100.133 13.2623 1328 112.619 800.429 451.139
2551 0 105.203 13.8779 1460 109.742 801.251 451.805
2552 0 109.136 13.9643 1524 112.437 801.957 453.82
2553 0 111.173 14.0142 1558 117.678 801.368 453.837
2554 0 114.255 12.9009 1474 122.77 801.647 451.259
2555 1 64.1688 10.8931 699 121.391 801.95 471.815
2556 0 66.215 11.1455 738 122.911 801.211 472.793
2557 0 69.153 11.5107 796 111.611 800.312 472.803
2558 0 73.1278 11.8013 863 109.703 800.359 470.867
2559 0 76.0852 11.75 894 109.319 800.999 471.523
2560 0 77.1243 11.5657 892 111.658 800.663 470.879
2561 0 82.2038 13.0408 1072 109.106 801.068 466.432
2562 0 84.1355 12.6106 1061 111.121 800.281 466.872
2563 0 87.1402 11.8889 1036 115.496 800.634 461.763
2564 0 88.1139 11.9731 1055 116.718 799.909 461.225
2565 0 94.1383 13.1296 1236 113.963 799.931 460.688
2566 0 93.1973 12.8759 1200 118.644 800.503 459.331
2567 0 98.1655 12.0816 1186 120.119 800.858 457.569
2568 0 100.263 12.0084 1204 121.152 800.462 455.065
2569 0 103.344 12.0278 1243 121.492 799.541 453.624
2570 0 108.38 12.5577 1361 119.747 800.154 450.897
2571 0 110.331 12.0999 1335 121.254 799.993 450.36
2572 0 117.381 12.1655 1428 120.445 800.109 448.404
2573 0 121.298 13.3802 1623 117.62 800.062 447.948
2574 1 65.1579 9.85299 642 115.209 799.634 477.125
2575 0 68.0792 11.9567 814 112.857 798.936 473.157
2576 0 70.1475 12.2741 861 108.925 800.301 471.677
2577 0 71.1164 11.0101 783 112.994 799.312 470.808
2578 0 74.239 12.3251 915 110.932 799.274 468.296
2579 0 79.1436 12.888 1020 108.936 798.764 468.135
2580 0 80.1333 11.9301 956 111.421 799.115 468.781
2581 0 84.093 12.4981 1051 111.147 799.434 467.337
2582 0 86.1137 13.1222 1130 111.785 799.313 464.74
2583 0 88.1657 12.8962 1137 114.001 799.747 463.375
2584 0 90.1281 12.6598 1141 115.109 799.845 462.015
2585 0 93.1348 12.4765 1162 116.044 799.999 462.04
2586 0 93.0878 11.2152 1044 121.111 799.172 457.085
2587 0 96.093 12.925 1242 117.697 800.037 457.343
2588 0 100.267 13.115 1315 117.652 800.934 458.223
2589 0 103.145 11.7989 1217 122.683 799.812 455.053
2590 0 107.224 13.2246 1418 119.39 799.858 455.038
2591 0 109.18 13.2351 1445 120.616 800.122 453.498
2592 0 114.169 12.8231 1464 122.491 799.439 450.279
2593 0 117.206 13.2928 1558 121.93 800.126 448.395
2594 1 68.1736 12.3655 843 119.033 799.518 472.923
2595 0 69.1944 11.7351 812 123.288 800.176 471.181
2596 0 74.3103 13.9954 1040 116.191 801.135 470.122
2597 0 75.2733 13.2185 995 120.222 802.108 473.662
2598 0 79.2493 13.6027 1078 118.611 800.948 471.082
2599 0 83.2836 12.5115 1042 121.638 801.686 469.838
2600 0 83.305 13.1445 1095 123.063 801.499 467.089
2601 0 85.4194 12.3625 1056 126.678 801.438 466.271
2602 0 89.3126 14.063 1256 122.596 801.388 465.415
2603 0 90.2488 12.6428 1141 127.64 801.877 464.874
2604 0 94.4051 14.745 1392 121.114 800.716 462.733
2605 0 97.286 14.2364 1385 123.921 800.847 459.713
2606 0 101.386 14.1243 1432 123.207 801.256 461.196
2607 0 104.288 13.7504 1434 125.251 801.659 458.294
2608 0 109.207 13.5981 1485 124.71 800.093 457.067
2609 0 111.172 13.4477 1495 124.379 800.133 453.793
2610 1 64.0925 10.8281 694 116.978 800.076 481.122
2611 0 65.0709 11.5259 750 113.443 799.907 479.867
2612 0 69.3028 13.506 936 112.718 800.6 475.824
2613 0 70.0193 12.8393 899 115.925 801.89 476.742
2614 0 70.0506 12.3054 862 120.103 802.118 472.901
2615 0 72.0364 12.4798 899 119.945 803.151 474.546
2616 0 74.0524 11.897 881 121.328 802.684 474.253
2617 0 76.112 12.0743 919 121.499 802.053 473.903
2618 0 77.1037 10.5572 814 125.94 802.539 471.959
2619 0 82.0852 12.2434 1005 120.745 802.604 472.201
2620 0 83.0875 11.7828 979 123.485 802.005 468.057
2621 0 88.0683 12.6266 1112 120.132 801.726 469.524
2622 0 89.0687 12.002 1069 122.573 801.384 468.004
2623 0 92.1164 12.2671 1130 120.436 801.86 466.935
2624 0 93.1142 11.749 1094 121.324 801.718 465.06
2625 0 100.094 13.2575 1327 116.754 801.586 463.732
2626 0 101.125 11.8962 1203 120.59 800.953 463.716
2627 0 103.121 11.7338 1210 122.691 801.438 461.669
2628 0 108.214 13.1868 1427 118.776 801.324 459.758
2629 0 113.089 12.4858 1412 120.322 800.453 460.849
2630 1 61.1354 11.2046 685 124.107 800.81 478.412
2631 0 66.1426 13.2743 878 111.625 800.573 480.246
2632 0 68.1505 12.5311 854 112.993 800.193 478.833
2633 0 70.0525 11.9196 835 115.029 800.613 481.387
2634 0 74.1489 12.5693 932 112.254 800.556 478.029
2635 0 74.0473 12.2894 910 114.595 800.089 477.035
2636 0 77.0928 12.1412 936 114.829 800.707 476.802
2637 0 79.0509 12.1061 957 114.972 800.648 475.848
2638 0 83.0511 13.7867 1145 110.433 800.153 472.778
2639 0 84.0711 12.1802 1024 114.73 799.809 473.059
2640 0 88.1139 12.7903 1127 112.823 799.902 469.633
2641 0 90.1052 13.8394 1247 110.185 800.103 467.63
2642 0 94.1864 13.9935 1318 109.599 800.155 466.693
2643 0 95.0919 11.7676 1119 114.634 800.009 468.64
2644 0 100.063 13.1217 1313 112.602 800.04 464.879
2645 0 102.07 12.7756 1304 113.988 799.205 463.833
2646 0 106.078 13.754 1459 111.96 799.856 461.425
2647 0 110.126 13.421 1478 113.877 800.04 462.315
2648 1 58.0314 10.8045 627 122.463 799.973 483.461
2649 0 62.0576 11.7471 729 115.612 799.653 484.233
2650 0 65.0956 12.858 837 112.829 800.481 483.049
2651 0 65.0759 12.5085 814 116.292 799.925 479.145
2652 0 69.0188 11.8518 818 117.51 798.836 481.005
2653 0 69.0552 11.3967 787 121.121 799.374 480.853
2654 0 73.0334 12.0356 879 119.499 799.327 479.445
2655 0 74.0639 11.8546 878 121.746 799.284 478.53
2656 0 77.0302 12.5665 968 120.092 799.428 476.647
2657 0 79.0803 12.5569 993 120.202 799.198 476.752
2658 0 82.1285 13.3815 1099 118.26 799.186 474.983
2659 0 84.1483 13.5832 1143 119.626 798.857 472.857
2660 0 87.0974 13.2495 1154 121.412 799.029 470.328
2661 0 92.0745 14.4231 1328 116.422 799.566 471.389
2662 0 93.101 13.2866 1237 120.188 799.416 468.183
2663 0 96.2445 13.1124 1262 121.319 799.021 467.102
2664 0 100.19 13.664 1369 119.402 799.672 464.207
2665 0 104.218 13.8459 1443 120.463 799.084 460.909
2666 1 57.2039 10.8909 623 122.091 800.108 484.827
2667 0 56.2579 10.9318 615 121.971 798.841 479.267
2668 0 58.2221 12.5554 731 117.453 798.005 478.257
2669 0 60.1292 12.7891 769 116.618 798.579 477.352
2670 0 62.1141 10.7383 667 119.54 799.019 478.211
2671 0 62.0656 11.7618 730 121.559 798.741 473.679
2672 0 65.1349 11.9444 778 119.603 798.756 473.54
2673 0 65.132 12.2213 796 120.746 798.224 471.295
2674 0 66.1268 11.7653 778 124.094 798.425 471.429
2675 0 73.1215 13.0194 952 119.187 798.582 468.57
2676 0 75.182 12.1572 914 121.642 798.814 470.591
2677 0 77.1234 13.5108 1042 120.382 798.595 467.046
2678 0 79.1271 13.2951 1052 121.183 798.567 467.486
2679 0 82.1498 13.8162 1135 120.689 798.775 466.203
2680 0 84.0965 12.01 1010 127.003 798.862 465.344
2681 0 86.1314 14.443 1244 121.954 798.332 460.72
2682 0 91.2404 13.7768 1257 123.334 798.92 461.226
2683 0 93.1738 13.1475 1225 125.029 798.841 461.244
2684 0 99.2282 14.3608 1425 121.287 798.814 459.018
2685 1 47.0312 9.58938 451 123.104 799.94 480.486
2686 0 52.1022 12.0149 626 113.243 799.756 483.893
2687 0 49.1315 10.6449 523 125.392 799.143 478.727
2688 0 55.2087 12.2263 675 119.456 799.35 483.981
2689 0 60.259 12.828 773 123.223 799.693 484.552
2690 0 60.1528 12.2189 735 125.936 800.053 483.257
2691 0 63.1535 12.6834 801 125.69 799.22 482.03
2692 0 63.1389 12.5121 790 127.8 799.404 480.333
2693 0 65.2109 13.1573 858 127.383 799.737 478.308
2694 0 67.1632 13.296 893 127.784 799.387 478.747
2695 0 71.2049 13.103 933 127.727 798.592 477.997
2696 0 75.199 13.8433 1041 125.208 799.406 476.915
2697 0 76.2349 13.4584 1026 126.985 799.289 476.088
2698 0 78.1484 13.4232 1049 128.339 799.297 475.705
2699 0 81.1599 13.1592 1068 118.201 799.317 472.413
2700 0 83.1383 12.9784 1079 130.619 798.936 472.123
2701 0 85.1091 13.0773 1113 132.022 799.35 469.94
2702 0 91.1519 12.737 1161 130.533 799.183 470.817
2703 0 91.1738 12.9094 1177 132.059 799.097 467.082
2704 1 49.0519 9.66324 474 128.907 799.57 490.599
2705 0 52.1729 11.6152 606 125.449 797.942 486.422
2706 0 52.1389 11.7762 614 119.49 797.493 481.552
2707 0 56.0275 12.4225 696 114.553 797.543 486.149
2708 0 56.0955 12.3004 690 116.377 797.264 484.833
2709 0 57.1184 12.3603 706 116.517 797.407 484.096
2710 0 59.1134 12.586 744 114.16 797.538 484.89
2711 0 62.0693 11.9705 743 117.241 798.572 484.696
2712 0 63.0948 12.1405 766 116.111 797.779 484.889
2713 0 66.0651 11.852 783 115.208 798.648 483.223
2714 0 68.1516 11.7972 804 116.423 798.389 482.098
2715 0 69.0781 12.551 867 115.51 797.796 480.386
2716 0 70.1154 11.3812 798 120.965 797.585 478.897
2717 0 72.0787 12.7083 916 118.031 798.361 478.092
2718 0 76.0952 12.8786 980 117.459 799.33 476.608
2719 0 77.086 12.9466 998 118.876 798.721 474.561
2720 0 78.0921 12.1395 948 121.743 799.203 473.603
2721 0 83.1002 12.9843 1079 118.767 799.466 472.452
2722 0 85.1896 12.6776 1080 120.272 798.52 472.365
2723 0 86.1303 12.574 1083 120.996 798.912 471.893
2724 0 88.2526 11.6937 1032 124.676 799.297 469.324
2725 0 92.1417 12.7087 1171 121.001 799.128 470.436
2726 0 95.3133 12.4642 1188 121.512 799.831 466.425
2727 0 98.1431 12.5021 1227 121.293 799.598 464.685
2728 0 100.117 12.2756 1229 121.006 799.176 464.046
2729 0 104.092 11.4899 1196 118.188 799.881 456.214
2730 1 55.1362 8.59689 474 119.755 800.722 480.019
2731 0 58.0681 10.7116 622 113.997 799.728 480.865
2732 0 62.0805 12.9509 804 119.667 799.03 480.678
2733 0 65.1651 12.9057 841 118.524 798.936 481.006
2734 0 66.085 14.3149 946 116.447 798.899 477.717
2735 0 69.0448 12.5715 868 121.949 797.712 476.092
2736 0 73.1952 12.9107 945 119.676 797.997 477.252
2737 0 74.172 12.7811 948 120.905 797.977 476.65
2738 0 75.1567 13.066 982 121.541 798.227 472.775
2739 0 78.1619 13.1522 1028 120.588 798.83 474.032
2740 0 81.1946 13.7324 1115 119.906 798.857 471.715
2741 0 80.1492 13.1629 1055 124.264 799.01 470.931
2742 0 85.1472 14.3986 1226 119.012 798.787 472.346
2743 0 89.11 13.9154 1240 121.157 798.729 467.623
2744 0 89.1491 13.4157 1196 123.876 798.798 467.988
2745 0 91.053 13.2999 1211 125.271 799.44 462.868
2746 0 97.2957 13.3819 1302 123.544 799.677 462.796
2747 0 99.2932 14.1198 1402 122.521 799.79 460.793
2748 0 99.2932 14.1198 1402 135.221 798.794 460.819
2749 0 104.218 12.7905 1333 127.023 800.173 457.071
2750 0 110.27 12.814 1413 124.786 800.369 454.781
2751 0 114.275 13.4063 1532 123.646 800.011 452.876
2752 0 115.331 13.2228 1525 124.746 800.384 451.864
2753 0 120.31 13.6148 1638 123.091 800.649 449.437
2754 0 120.232 11.3863 1369 129.017 800.189 451.367
2755 0 128.408 13.1223 1685 123.59 799.908 447.41
2756 0 133.21 12.987 1730 122.748 799.866 443.577
2757 1 72.1371 10.7296 774 118.832 799.566 467.712
2758 0 71.1398 10.9643 780 118.246 799.449 464.108
2759 0 78.1131 11.7266 916 114.488 799.401 465.522
2760 0 82.1318 11.9199 979 113.185 799.371 465.044
2761 0 83.0803 11.3866 946 107.934 799.403 467.26
2762 0 86.0706 10.596 912 110.288 800.143 462.322
2763 0 88.1294 10.0307 884 109.807 799.665 465.119
2764 0 90.1477 9.77285 881 111.821 799.638 460.395
2765 0 97.1076 12.1927 1184 105.754 799.712 461.108
2766 0 98.1786 10.4707 1028 110.646 799.669 454.966
2767 0 103.105 11.9781 1235 108.499 799.687 454.643
2768 0 105.183 11.1995 1178 108.861 800.587 452.241
2769 0 110.267 11.844 1306 107.56 800.838 450.77
2770 0 112.09 10.0634 1128 112.482 800.223 448.338
2771 0 112.173 10.9652 1230 111.958 800.547 445.577
2772 0 118.311 10.9965 1301 111.446 800.819 443.6
2773 0 123.245 11.4893 1416 112.412 800.32 441.222
2774 1 133.352 13.6631 1822 115.779 799.794 441.445
2775 0 136.451 13.5873 1854 114.948 799.872 435.876
2776 0 138.279 12.9376 1789 118.757 800.276 433.526
2777 0 140.195 12.9962 1822 117.405 799.626 432.061
2778 1 79.1802 11.2276 889 111.883 800.928 464.917
2779 0 86.0749 11.8734 1022 111.967 799.946 462.205
2780 0 88.055 11.913 1049 113.511 801.388 460.929
2781 0 91.1093 12.9295 1178 111.554 801.134 458.959
2782 0 95.0952 12.3035 1170 109.623 800.815 465.186
2783 0 95.0646 10.7611 1023 114.249 801.028 462.481
2784 0 99.0517 11.499 1139 113.484 800.798 458.529
2785 0 102.12 11.8097 1206 112.803 800.643 458.384
2786 0 105.091 12.2656 1289 112.87 800.634 457.657
2787 0 108.088 11.8145 1277 114.166 800.63 455.808
2788 0 113.092 11.7161 1325 113.977 800.845 453.537
2789 0 117.094 12.776 1496 111.791 800.685 450.419
2790 0 116.117 11.7381 1363 113.625 801.048 447.045
2791 0 121.173 12.9236 1566 112.055 800.888 445.397
2792 1 67.0389 9.56161 641 110.755 801.488 471.053
2793 0 67.1 10.4173 699 104.506 800.093 468.577
2794 0 74.1719 11.1498 827 99.7352 799.375 468.432
2795 0 74.0796 9.80027 726 103.579 800.187 467.909
2796 0 78.0881 10.4625 817 100.823 799.6 470.49
2797 0 81.2133 11.8946 966 99.3468 799.243 468.186
2798 0 84.1429 11.2428 946 101.035 799.815 467.267
2799 0 86.0908 11.7899 1015 100.597 799.25 466.675
2800 0 88.1505 11.1741 985 101.968 799.106 460.869
2801 0 91.186 11.0214 1005 102.788 799.344 459.778
2802 0 95.2298 11.089 1056 104.393 799.206 459.144
2803 0 97.1929 12.1511 1181 103.346 798.998 462.442
2804 0 99.0898 10.6368 1054 107.617 799.051 458.513
2805 0 103.112 12.1907 1257 104.655 798.465 458.928
2806 0 108.164 11.9726 1295 104.343 798.923 450.708
2807 0 108.203 12.1438 1314 104.207 799.244 452.979
2808 0 107.086 11.2339 1203 106.756 799.627 448.433
2809 0 109.186 11.0362 1205 110.752 799.69 445.658
2810 0 116.157 11.7427 1364 110.156 800.008 444.778
2811 1 62.0275 8.80255 546 101.685 800.381 472.128
2812 0 66.1096 10.9213 722 106.341 801.107 471.9
2813 0 67.2722 12.7096 855 104.628 800.436 470.437
2814 0 71.1713 11.4231 813 109.711 799.535 468.497
2815 0 72.1689 12.0273 868 109.9 798.997 467.297
2816 0 75.2355 13.1188 987 107.764 799.638 467.425
2817 0 77.1804 13.0214 1005 108.618 799.892 468.546
2818 0 77.1903 11.2968 872 114.459 799.005 465.808
2819 0 81.149 12.8283 1041 109.762 799.072 465.025
2820 0 83.1683 12.8174 1066 110.64 799.511 462.547
2821 0 86.1236 12.4705 1074 112.142 798.789 459.818
2822 0 89.1171 11.8159 1053 112.898 799.111 460.557
2823 0 87.1939 11.893 1037 115.235 798.871 457.149
2824 0 95.2014 12.5944 1199 110.812 798.932 457.229
2825 0 94.1297 12.5571 1182 113.705 798.775 454.502
2826 0 98.2254 13.7337 1349 110.404 798.733 453.982
2827 0 102.207 12.4649 1274 113.414 799.027 452.188
2828 0 106.148 12.8688 1366 107.452 799.495 455.784
2830 0 106.198 12.5143 1329 110.676 799.509 448.66
2831 0 110.242 13.7062 1511 106.801 799.518 455.019
2832 0 115.196 11.5976 1336 110.54 799.454 451.339
2833 0 118.163 12.5673 1485 108.418 799.38 444.076
2834 0 125.133 13.3378 1669 106.655 799.07 443.004
2835 0 128.172 13.2635 1700 105.942 799.191 438.479
2836 0 136.166 13.8948 1892 110.401 799.002 431.499
2837 0 137.316 13.5163 1856 108.436 798.879 431.699
2838 1 76.2366 10.4805 799 106.991 798.942 463.806
2839 0 78.1986 11.5987 907 106.397 798.394 461.219
2840 0 78.5225 10.6721 838 104.539 797.899 461.035
2841 0 85.3603 10.567 902 102.322 798.746 462.742
2842 0 83.1923 9.56819 796 106.342 798.416 459.714
2843 0 94.2546 10.1533 957 101.713 799.143 466.579
2844 0 95.0773 10.4126 990 101.841 799.547 465.161
2845 0 99.0908 10.6367 1054 101.95 797.734 462.971
2846 0 101.173 11.5248 1166 102.003 798.247 460.359
2847 0 105.166 11.4105 1200 102.414 799.103 455.654
2848 0 109.212 11.7386 1282 103.255 799.315 458.138
2849 0 114.244 12.167 1390 103.292 798.465 455.383
2850 1 65.2124 10.9488 714 98.1373 798.506 479.013
2851 0 67.2801 11.415 768 101.279 798.602 477.314
2852 0 67.1543 11.8235 794 102.654 798.694 477.897
2853 0 72.1978 12.3134 889 99.8313 798.682 475.925
2854 0 73.1961 12.405 908 99.5033 799.695 473.611
2855 0 75.1398 11.8579 891 101.818 799.782 472.631
2856 0 80.1556 12.8625 1031 99.6004 799.749 469.883
2857 0 78.2066 10.8814 851 106.306 799.743 469.483
2858 0 84.0717 11.5854 974 103.44 799.226 468.048
2859 0 85.1961 12.5827 1072 103.294 797.602 468.127
2860 0 91.1763 13.8962 1267 99.1144 797.397 469.172
2861 0 93.0596 12.1642 1132 104.713 796.373 464.802
2862 0 96.0754 12.5214 1203 104.448 796.76 465.067
2863 0 97.3159 11.8994 1158 106.736 796.662 462.579
2864 0 99.1469 12.5672 1246 106.244 796.15 462.041
2865 0 100.139 10.5952 1061 111.63 796.925 463.954
2866 0 105.168 12.732 1339 107.854 797.261 460.647
2867 0 109.265 12.0166 1313 108.8 797.094 461.567
2868 0 110.16 11.1656 1230 112.026 797.195 457.253
2869 0 115.204 12.6905 1462 107.568 799.062 457.458
2870 0 115.085 11.5219 1326 113.876 798.94 453.719
2871 1 64.09 8.65969 555 105.852 799.928 472.636
2872 0 67.1338 10.4269 700 105.219 798.183 469.58
2873 0 71.0686 10.8627 772 94.237 798.219 470.251
2874 0 74.0632 11.7737 872 94.078 797.654 468.819
2875 0 73.1087 11.4077 834 97.1067 798.68 465.683
2876 0 79.1719 11.8097 935 97.4888 798.326 467.571
2877 0 82.1835 11.377 935 99.0952 798.387 466.979
2878 0 82.1342 10.4585 859 103.529 797.799 462.879
2879 0 84.1129 12.9588 1090 99.5927 797.75 463.57
2880 0 88.2156 12.6735 1118 101.4 797.812 462.041
2881 0 92.192 12.9295 1192 101.857 797.648 461.989
2882 0 91.1387 11.093 1011 108.413 798.105 458.027
2883 0 98.1361 12.5642 1233 105.548 798.011 459.201
2884 0 98.3239 12.0825 1188 109.095 798.29 457.522
2885 0 99.2144 12.1051 1201 112.006 797.794 452.773
2886 0 105.259 12.0939 1273 111.075 798.22 453.288
2887 0 110.244 12.4179 1369 111.723 797.357 453.587
2888 0 112.238 12.9011 1448 111.602 797.227 451.965
2889 0 115.285 12.8204 1478 111.93 798.18 451.602
2890 0 118.261 12.7176 1504 112.957 797.834 449.61
2891 0 121.384 13.3955 1626 112.236 797.455 448.552
2892 0 123.232 12.4643 1536 115.982 797.954 444.416
2893 0 131.14 14.313 1877 111.989 798.125 446.406
2894 0 136.157 13.859 1887 114.499 798.914 444.868
2895 0 139.347 13.7355 1914 122.169 798.713 440.032
2896 1 73.2333 9.5858 702 119.09 798.674 471.954
2897 0 77.3544 10.5618 817 113.884 798.87 470.982
2898 0 80.0965 10.4998 841 115.185 799.545 473.838
2899 0 82.1369 12.2235 1004 112.666 798.534 474.021
2900 0 85.1972 11.8901 1013 114.968 798.648 470.645
2901 0 88.1792 12.3158 1086 113.38 798.783 470.048
2902 0 90.0822 11.3785 1025 115.368 798.084 468.762
2903 0 93.094 11.9879 1116 115.01 798.574 464.896
2904 0 94.1 11.509 1083 116.557 798.89 466.35
2905 0 97.135 11.273 1095 118.489 798.712 463.785
2906 0 97.0856 10.4753 1017 121.671 798.843 461.611
2907 0 105.121 11.4724 1206 118.383 799.081 460.954
2908 0 108.135 11.6521 1260 119.132 798.706 459.514
2909 0 110.169 12.9256 1424 116.27 798.605 458.034
2910 0 114.169 12.9283 1476 115.883 798.968 456.12
2911 0 117.173 13.2965 1558 115.568 799.107 450.086
2912 0 121.152 13.0579 1582 117.444 798.896 449.004
2913 0 125.179 12.3264 1543 121.181 798.215 448.128
2914 0 131.319 12.0089 1577 121.663 798.209 446.255
2915 0 135.233 11.8167 1598 122.887 797.65 441.501
2916 0 140.332 13.012 1826 119.077 797.933 441.919
2917 1 79.0822 10.0655 796 112.742 799.363 473.005
2918 0 81.1665 11.384 924 106.602 799.29 469.128
2919 0 76.1305 10.0879 768 109.866 799.462 461.207
2920 0 83.1812 11.1564 928 106.101 799.06 464.265
2921 0 83.1238 10.7791 896 109.18 798.165 458.232
2922 0 89.255 11.3383 1012 106.686 798.417 456.429
2923 0 89.1545 11.4072 1017 108.03 798.771 455.863
2924 0 95.1202 12.4474 1184 105.203 798.687 455.323
2925 0 95.2415 11.0036 1048 109.595 798.505 451.315
2926 0 100.171 11.8197 1184 107.48 798.931 451.543
2927 0 105.084 11.8001 1240 118.005 799.027 459.967
2928 0 110.095 13.3066 1465 113.935 799.41 456.068
2929 0 113.138 12.9487 1465 115.625 799.072 453.348
2930 0 114.139 10.9253 1247 120.69 799.422 454.719
2931 0 119.178 13.6099 1622 113.757 799.554 452.978
2932 0 123.241 13.6968 1688 114.131 799.182 449.376
2933 0 127.186 15.2846 1944 110.05 799.155 447.927
2934 0 131.232 13.9981 1837 113.941 798.562 446.606
2935 0 135.224 13.0006 1758 116.935 797.656 444.206
2936 0 135.372 11.9818 1622 120.47 798.192 440.938
2937 0 140.262 13.6459 1914 116.97 798.575 439.851
2938 0 144.466 12.7227 1838 123.174 797.869 436.034
2939 0 150.375 14.0316 2110 118.847 797.556 434.18
2940 0 152.428 12.4387 1896 124.132 797.711 427.562
2941 0 157.372 13.9478 2195 120.347 798.051 421.25
2942 0 163.471 12.5588 2053 122.868 797.29 423.172
2943 1 90.2979 10.5097 949 118.24 797.545 455.179
2944 0 94.3438 11.5747 1092 117.354 797.598 456.168
2945 0 101.311 13.8189 1400 112.941 798.044 458.774
2946 0 106.325 12.9697 1379 113.876 797.977 458.427
2947 0 109.227 13.1103 1432 113.425 797.805 457.492
2948 0 111.285 13.4789 1500 113.368 797.575 454.593
2949 0 113.328 12.7947 1450 115.736 797.394 449.944
2950 0 115.377 12.9402 1493 114.52 797.209 449.341
2951 0 118.134 12.8499 1518 111.411 797.475 442.076
2952 0 119.238 12.0347 1435 114.206 797.203 439.749
2953 0 122.144 12.4525 1521 113.046 797.292 439.975
2954 0 126.197 13.3046 1679 110.909 797.566 436.023
2955 0 127.194 12.0681 1535 114.444 797.73 432.153
2956 0 136.217 13.1408 1790 110.292 797.946 431.402
2957 0 141.185 12.6713 1789 111.074 797.77 431.448
2958 0 145.249 12.0414 1749 112.987 798.005 428.26
2959 1 81.1493 9.57495 777 105.485 796.903 462.394
2960 0 86.1312 10.5304 907 101.408 798.636 465.734
2961 0 88.1583 11.4113 1006 100.42 798.068 461.734
2962 0 91.1643 10.5743 964 101.725 798.086 461.052
2963 0 95.1667 9.85639 938 102.958 798.018 459.954
2964 0 99.2059 12.2473 1215 98.5712 797.243 458.077
2965 0 101.096 11.2071 1133 100.898 797.643 456.008
2966 0 104.178 11.3844 1186 100.675 797.937 453.271
2967 0 105.208 11.7481 1236 101.618 798.395 449.086
2968 0 106.194 10.3019 1094 105.998 798.096 445.053
2969 1 61.1269 9.9138 606 98.7244 797.797 473.696
2970 0 61.1915 9.95236 609 99.0099 797.655 475.177
2971 0 65.1431 11.3135 737 101.434 797.449 474.822
2972 0 61.093 10.1648 621 101.913 797.412 469.758
2973 0 64.1911 10.7803 692 100.006 797.936 470.902
2974 0 68.1909 10.8372 739 99.1258 798.058 469.625
2975 0 68.1988 10.5574 720 100.508 797.449 469.521
2976 0 70.1124 10.6828 749 101.916 798.012 466.162
2977 0 74.1893 10.4463 775 102.557 798.39 465.103
2978 0 78.1307 12.0055 938 100.296 798.252 464.717
2979 0 82.2637 10.5514 868 108.768 798.124 464.927
2980 0 82.1911 11.0109 905 110.166 798.593 463.014
2981 0 82.1911 11.3759 935 138.825 799.624 463.933
2982 0 88.2787 12.2 1077 108.218 797.724 462.842
2983 0 88.2325 10.903 962 113.393 798.251 458.977
2984 0 93.1558 11.0031 1025 112.701 798.835 459.89
2985 0 94.2236 10.6767 1006 115.28 798.395 456.105
2986 0 98.1449 11.6868 1147 113.878 798.068 454.186
2987 0 104.168 12.5087 1303 112.256 797.32 454.348
2988 0 105.242 11.0032 1158 116.115 797.122 452.651
2989 0 107.257 11.6823 1253 116.797 796.88 451.157
2990 0 113.204 11.3512 1285 117.619 797.05 443.535
2991 1 63.0755 8.90995 562 110.76 798.769 473.569
2992 0 63.0476 9.80211 618 114.214 798.625 471.214
2993 0 67.1592 11.9716 804 111.005 797.847 469.139
2994 0 70.1942 12.7931 898 107.83 797.874 468.703
2995 0 70.0925 11.6846 819 110.821 797.366 467.758
2996 0 72.1985 12.4241 897 109.794 797.572 465.787
2997 0 73.1058 12.0647 882 111.293 798.124 465.441
2998 0 77.0786 11.5337 889 112.714 797.664 464.103
2999 0 82.1271 12.8825 1058 108.687 797.331 467.784
3000 0 85.1468 12.7427 1085 112.961 796.71 469.974
3001 0 86.2222 13.2333 1141 110.009 796.862 470.567
3002 0 88.1304 12.6858 1118 112.647 797.058 470.254
3003 0 92.1148 12.2239 1126 113.929 797.504 469.511
3004 0 92.1707 12.0754 1113 116.44 797.333 463.849
3005 0 96.1127 12.6726 1218 115.565 797.401 464.2
3006 0 100.163 13.8075 1383 112.432 797.131 465.471
3007 0 101.188 12.4422 1259 117.516 797.579 460.332
3008 0 106.239 12.8484 1365 115.845 796.905 460.374
3009 0 107.205 12.7606 1368 116.642 796.76 459.862
3010 0 112.145 12.9743 1455 112.406 796.597 458.213
3011 0 111.161 11.9287 1326 115.85 797.133 452.793
3012 0 114.177 11.6836 1334 117.42 797.432 452.398
3013 0 122.411 12.115 1483 114.092 798.129 450.932
3014 0 127.512 14.2653 1819 109.356 797.758 444.471
3015 1 73.357 11.7371 861 110.429 797.341 471.324
3016 0 76.2716 10.9871 838 112.245 797.772 472.267
3017 0 77.1706 12.2845 948 109.518 797.453 465.581
3018 0 78.1633 9.07075 709 110.171 797.907 465.169
3019 0 83.2304 11.8106 983 104.369 798.564 465.82
3020 0 86.1267 10.8561 935 105.404 798.219 468.048
3021 0 85.09 10.4595 890 110.938 798.478 460.267
3022 0 88.2755 10.3426 913 111.032 798.631 460.422
3023 0 89.3195 12.0802 1079 108.322 798.339 460.715
3024 0 98.2234 11.2397 1104 110.583 798.057 459.09
3025 0 103.187 12.1236 1251 110.46 798.955 462.815
3026 0 105.22 12.0224 1265 111.637 799.109 458.779
3027 0 104.214 10.7855 1124 115.845 798.559 457.101
3028 0 108.239 12.0936 1309 113.241 798.613 457.286
3029 0 113.32 11.922 1351 113.169 799.141 457.457
3030 0 116.374 13.7402 1599 110.964 798.66 450.698
3031 0 119.209 11.786 1405 115.767 797.641 451.473
3032 0 123.296 12.0604 1487 114.388 798.28 449.998
3033 0 130.216 13.2165 1721 110.56 798.569 450.385
3034 0 134.341 11.776 1582 114.274 799.052 447.857
3035 0 137.479 11.6381 1600 116.563 799.161 441.878
3036 0 144.224 13.1601 1898 112.661 797.586 441.348
3037 0 147.24 12.3676 1821 116.273 797.965 437.474
3038 0 152.313 12.5728 1915 115.328 797.65 438.71
3039 0 157.163 13.1329 2064 111.09 797.539 433.029
3040 0 160.513 12.2607 1968 113.724 797.955 429.989
3041 1 86.1641 12.1048 1043 107.364 798.257 465.015
3042 0 87.0903 11.5972 1010 108.583 797.994 464.773
3043 0 90.3301 11.5908 1047 109.16 798.496 459.358
3044 0 95.2878 11.7749 1122 106.747 798.438 462.598
3045 0 99.364 12.7108 1263 104.363 798.078 460.354
3046 0 100.119 11.806 1182 104.267 798.543 460.485
3047 0 100.119 11.796 1181 148.13 798.559 460.256
3048 0 104.153 12.4049 1292 108.004 799.086 463.713
3049 0 105.225 12.2404 1288 98.1832 798.622 463.012
3050 0 106.176 11.8482 1258 104.804 799.273 463.56
3051 0 104.149 11.6852 1217 113.104 798.792 459.094
3052 0 108.064 13.7696 1488 105.999 798.315 460.017
3053 0 107.148 11.4328 1225 113.141 798.539 456.774
3054 0 113.2 12.7826 1447 109.489 798.584 458.777
3055 0 117.21 12.9853 1522 107.25 799.064 457.317
3056 0 121.444 12.0796 1467 108.083 799.018 451.435
3057 0 126.305 11.876 1500 108.123 798.962 449.17
3058 0 131.42 13.3997 1761 104.678 798.817 444.283
3059 0 133.4 12.1215 1617 107.479 798.063 442.863
3060 0 137.451 11.6551 1602 109.431 798.356 441.483
3061 0 140.308 11.5603 1622 112.329 798.574 436.944
3062 0 144.347 12.2621 1770 111.625 798.412 432.086
3063 1 82.1352 10.9454 899 109.643 799.426 465.551
3064 0 83.159 10.6182 883 111.351 799.779 460.851
3065 0 86.2339 11.5732 998 110.478 798.946 456.811
3066 0 87.2365 11.1765 975 112.966 799.097 457.359
3067 0 91.189 12.0519 1099 112.491 799.51 456.067
3068 0 94.2179 12.5242 1180 112.105 799.999 457.292
3069 0 95.1666 11.3275 1078 117.476 799.768 451.892
3070 0 95.3869 12.3707 1180 116.958 799.021 452.685
3071 0 101.179 13.3229 1348 114.88 799.467 450.726
3072 1 49.1205 9.73117 478 113.803 799.201 477.134
3073 0 53.1559 9.10529 484 115.669 798.893 477.459
3074 0 54.1065 11.3665 615 114.615 798.348 473.917
3075 0 54.0401 9.08585 491 108.609 798.44 478.086
3076 0 56.0514 11.311 634 107.47 797.661 478.29
3077 0 58.1552 9.13074 531 111.128 797.985 478.429
3078 0 58.0367 8.83924 513 114.271 797.959 475.265
3079 0 61.0622 9.12185 557 114.262 797.693 476.352
3080 0 59.0686 9.00647 532 117.306 797.562 475.451
3081 0 64.0939 9.70451 622 115.013 798.084 474.865
3082 0 67.072 10.362 695 113.616 798.03 476.338
3083 0 67.1482 9.72476 653 118.213 798.239 472.525
3084 0 70.1814 10.9288 767 114.734 798.34 474.791
3085 0 73.0771 9.87998 722 119.159 798.576 470.252
3086 0 75.1004 11.3714 854 114.98 798.704 470.608
3087 0 81.0851 11.3091 917 114.274 798.758 468.286
3088 0 82.0219 12.2772 1007 113.032 798.428 466.935
3089 0 82.0527 11.5048 944 116.172 798.298 464.304
3090 0 86.0516 12.3182 1060 113.682 798.41 463.113
3091 0 87.1008 12.0665 1051 114.768 798.256 462.614
3092 0 90.0314 12.6511 1139 114.571 797.648 460.917
3093 0 93.1107 11.9643 1114 117.234 798.156 457.709
3094 0 96.0867 11.8955 1143 117.107 797.777 458.296
3095 0 98.0527 13.3806 1312 113.721 797.723 457.292
3096 0 102.145 13.0501 1333 114.111 798.614 454.556
3097 0 101.148 11.9626 1210 118.04 798.853 452.362
3098 0 109.086 12.2563 1337 116.169 798.892 449.939
3099 0 112.214 12.5475 1408 115.141 798.717 448.959
3100 0 115.229 12.2278 1409 117.077 798.858 445.777
3101 1 58.1131 10.187 592 119.524 799.336 471.789
3102 0 63.147 10.0242 633 119.69 798.957 470.123
3103 0 65.0704 11.0649 720 110.285 798.672 473.688
3104 0 63.1092 10.0144 632 110.785 799.573 472.633
3105 0 67.039 11.2174 752 108.496 799.528 471.271
3106 0 67.0382 11.2772 756 117.98 799.517 471.372
3107 0 71.1559 11.6083 826 107.247 799.826 468.288
3108 0 70.0712 11.0745 776 109.67 800.122 463.576
3109 0 75.1431 10.5665 794 108.908 799.383 464.796
3110 0 77.1379 11.0192 850 108.858 799.201 460.861
3111 0 81.2003 11.1822 908 107.137 799.424 464.346
3112 0 84.1368 12.6461 1064 104.803 799.503 460.857
3113 0 88.2283 11.2776 995 106.223 798.397 463.157
3114 0 88.1747 12.0216 1060 105.779 799.52 461.403
3115 0 93.2271 11.6275 1084 107.093 798.995 460.33
3116 0 93.2151 12.2298 1140 108.621 798.175 457.386
3117 0 97.1965 12.4593 1211 109.526 797.95 455.086
3118 0 98.1957 11.4465 1124 112.835 798.48 454.951
3119 0 102.229 11.3569 1161 113.544 797.654 453.259
3120 0 107.267 12.8372 1377 110.169 798.087 452.961
3121 0 107.141 12.8708 1379 114.152 798.472 445.738
3122 0 113.306 12.3471 1399 114.454 798.294 444.882
3123 1 64.0765 10.8308 694 111.131 798.412 470.87
3124 0 67.0882 12.0886 811 108.866 798.832 471.374
3125 0 67.1776 11.5217 774 108.815 798.924 467.203
3126 0 73.1957 10.0279 734 108.756 799.817 471.556
3127 0 71.1532 10.6531 758 110.947 799.21 465.939
3128 0 75.1667 9.81818 738 113.142 798.882 462.015
3129 0 80.2319 11.7285 941 107.546 799.339 463.441
3130 0 82.1262 11.6041 953 108.037 799.719 459.068
3131 0 84.0909 12.5697 1057 106.121 799.45 459.69
3132 0 86.1287 11.1926 964 110.303 799.768 456.355
3133 0 92.1405 11.8406 1091 101.808 799.396 463.262
3134 0 96.1397 12.7523 1226 109.776 798.985 459.767
3135 0 100.179 12.8171 1284 108.96 799.097 461.202
3136 0 104.164 13.2483 1380 108.946 798.984 457.701
3137 0 106.185 12.7514 1354 111.94 798.833 452.064
3138 0 110.131 13.7926 1519 108.515 798.647 453.955
3139 0 116.175 14.7623 1715 105.493 798.648 451.625
3140 0 118.221 13.3225 1575 110.243 798.63 448.658
3141 0 124.243 14.2785 1774 107.411 799.26 448.135
3142 1 68.1484 11.563 788 107.19 799.591 475.213
3143 0 64.1864 10.9057 700 108.373 799.82 469.56
3144 0 70.124 11.0661 776 105.477 800.126 468.923
3145 0 71.0897 11.9286 848 104.613 800.296 468.17
3146 0 75.1071 10.5982 796 107.041 800.057 466.606
3147 0 78.196 11.842 926 104.072 799.043 467.361
3148 0 77.108 11.4385 882 107.683 800.408 464.635
3149 0 80.123 11.5448 925 107.613 799.216 465.205
3150 0 82.3636 11.9956 988 107.815 799.412 461.709
3151 0 85.1841 11.4575 976 110.076 800.075 460.323
3152 0 91.2084 12.8387 1171 105.731 799.798 461.601
3153 0 94.2715 12.5913 1187 106.741 799.465 460.193
3154 0 95.539 12.5812 1202 107.876 799.172 458.827
3155 0 99.2771 12.7925 1270 107.422 798.889 459.041
3156 0 102.325 12.1183 1240 110.216 798.848 455.932
3157 0 105.396 12.7519 1344 109.727 798.765 454.399
3158 0 109.258 12.9876 1419 109.048 798.519 454.72
3159 0 113.138 11.897 1346 112.624 797.802 457.484
3160 0 117.438 12.3981 1456 111.636 798.425 452.671
3161 0 122.244 12.5078 1529 111.746 798.322 450.457
3162 1 67.137 11.618 780 103.835 797.486 480.505
3163 0 70.3952 11.1797 787 105.9 798.696 478.006
3164 0 74.1493 12.2725 910 103.313 800.018 476.904
3165 0 75.0619 10.6978 803 107.291 799.995 476.077
3166 0 79.0738 11.9003 941 104.97 799.795 475.372
3167 0 79.0738 11.7865 932 135.457 799.767 475.337
3168 0 83.0789 11.5071 956 106.692 799.945 469.899
3169 0 86.2271 12.1308 1046 105.872 799.629 471.858
3170 0 90.2063 12.4603 1124 106.084 799.698 468.685
3171 0 92.1262 11.951 1101 107.244 799.452 471.226
3172 0 96.1848 13.0062 1251 105.775 799.327 467.418
3173 0 99.1492 11.9819 1188 108.219 799.162 466.497
3174 0 101.129 12.7164 1286 107.914 799.274 461.734
3175 0 102.208 11.6429 1190 111.95 799.649 461.892
3176 0 105.106 11.6835 1228 111.153 800.22 460.546
3177 0 109.165 12.2475 1337 110.498 799.012 459.343
3178 0 110.15 11.7203 1291 111.826 799.039 462.486
3179 0 115.098 11.2599 1296 114.032 798.758 458.882
3180 0 116.191 10.0869 1172 117.554 798.528 454.349
3181 0 122.264 11.4506 1400 115.126 798.281 449.441
3182 0 126.39 10.167 1285 119.061 798.437 445.002
3183 1 70.086 11.0721 776 108.428 798.832 476.848
3184 0 73.133 11.5406 844 106.986 799.089 476.716
3185 0 77.0277 13.0083 1002 104.305 799.743 472.072
3186 0 78.1489 12.5914 984 106.118 799.308 472.663
3187 0 82.092 12.2058 1002 107.265 798.584 469.087
3188 0 84.0949 11.82 994 109.16 798.756 468.933
3189 0 86.1275 12.0519 1038 109.214 798.466 465.931
3190 0 87.1346 11.8323 1031 109.819 799.013 463.833
3191 0 90.139 12.636 1139 108.126 799.227 465.885
3192 0 94.2724 11.838 1116 111.211 798.955 462.863
3193 0 98.1153 11.5069 1129 111.264 798.972 462.089
3194 0 97.1316 10.8513 1054 114.182 799.303 462.175
3195 0 99.2373 11.014 1093 114.371 799.23 458.069
3196 0 103.197 11.1631 1152 114.859 798.959 457.121
3197 0 110.126 12.3313 1358 109.591 798.143 459.512
3198 0 109.24 12.1293 1325 112.147 798.402 457.995
3199 0 113.151 13.1064 1483 109.85 798.021 455.746
3200 0 116.138 11.5466 1341 112.923 797.916 455.239
3201 0 122.151 11.1583 1363 113.281 797.695 451.59
3202 0 125.206 12.0522 1509 112.346 796.926 447.449
3203 1 70.1534 8.9233 626 111.625 795.585 470.232
3204 0 70.0422 10.3937 728 108.933 796.721 465.431
3205 0 74.0514 10.5467 781 107.658 797.497 467.786
3206 0 74.132 10.7376 796 108.129 796.997 463.96
3207 0 78.0517 12.5942 983 103.579 796.737 463.554
3208 0 80.071 12.4639 998 104.145 797.914 461.479
3209 0 85.0948 12.0336 1024 103.45 798.482 461.288
3210 0 87.0945 11.3899 992 106.757 798.16 460.37
3211 0 91.1618 11.7812 1074 105.831 798.179 458.509
3212 0 93.081 12.9779 1208 104.227 797.677 458.169
3213 0 96.208 11.683 1124 107.756 797.912 453.973
3214 0 98.1725 11.3066 1110 108.935 797.591 454.421
3215 0 102.25 11.6674 1193 109.329 797.693 453.241
3216 0 104.163 12.7301 1326 108.304 796.799 452.635
3217 0 109.097 12.9426 1412 114.331 798.259 459.394
3218 0 113.271 12.9512 1467 118.296 798.189 454.933
3219 0 116.194 13.9422 1620 116.851 797.985 455.458
3220 0 117.302 12.8216 1504 118.676 797.473 452.207
3221 0 122.268 12.7098 1554 116.055 796.813 441.792
3222 0 124.3 12.5744 1563 117.997 797.633 438.137
3223 1 68.0809 10.37 706 104.606 797.833 468.548
3224 0 70.2317 10.6647 749 105.374 797.355 465.502
3225 0 72.1705 11.3204 817 103.136 798.295 468.001
3226 0 72.284 10.1267 732 104.71 798.165 466.395
3227 0 76.1601 11.6071 884 102.89 798.426 465.896
3228 0 79.2525 11.7473 931 103.327 798.34 464.59
3229 0 80.2161 10.8582 871 106.323 798.582 463.017
3230 0 86.2477 11.4438 987 104.139 798.383 461.766
3231 0 86.194 10.952 944 106.715 797.893 458.369
3232 0 90.2965 12.5476 1133 103.857 797.775 461.341
3233 0 92.232 11.6446 1074 107.186 798.348 456.738
3234 0 93.246 12.3651 1153 106.549 798.155 454.997
3235 0 98.2053 13.2987 1306 103.903 798.053 455.577
3236 0 103.185 14.663 1513 110.007 797.822 458.643
3237 0 106.173 13.6664 1451 111.827 798.503 458.424
3238 0 107.24 12.5233 1343 117.028 798.645 454.453
3239 0 113.117 12.6064 1426 114.14 798.425 451.689
3240 0 118.176 14.1653 1674 110.13 797.474 452.249
3241 0 121.15 14.3293 1736 110.403 797.118 448.571
3242 0 122.338 12.817 1568 114.548 797.51 442.557
3243 1 64.1724 9.31864 598 115.873 796.353 469.415
3244 0 69.1268 10.1118 699 116.396 797.124 469.715
3245 0 70.1276 12.2919 862 111.153 796.433 469.563
3246 0 72.1279 12.0342 868 112.301 797.423 469.01
3247 0 76.0862 12.6961 966 109.833 797.252 469.453
3248 0 80.1455 11.3793 912 114.185 796.793 463.647
3249 0 83.1177 12.1033 1006 111.652 796.849 463.228
3250 0 83.143 11.1735 929 116.689 796.728 462.732
3251 0 87.1727 12.1254 1057 113.456 797.625 462.759
3252 0 89.1868 11.7394 1047 114.301 797.555 461.002
3253 0 90.1506 11.0149 993 117.475 797.494 457.081
3254 0 96.2405 12.3025 1184 109.397 798.621 463.238
3255 0 99.1704 11.8584 1176 110.333 799.068 461.434
3256 0 101.164 10.9426 1107 112.294 799.255 461.085
3257 0 102.091 10.3144 1053 112.303 798.19 454.513
3258 0 108.122 11.672 1262 109.3 798.35 456.607
3259 0 113.249 12.1326 1374 108.662 798.235 453.849
3260 0 114.115 11.0415 1260 111.256 798.869 451.662
3261 1 63.0339 8.8841 560 105.982 798.714 474.991
3262 0 68.118 10.1001 688 102.472 799.017 472.776
3263 0 69.1066 10.3029 712 102.903 797.848 473.785
3264 0 72.1165 9.70652 700 105.694 796.637 474.067
3265 0 75.1566 10.0457 755 104.711 796.774 473.857
3266 0 79.0859 11.2536 890 103.166 796.569 471.209
3267 0 79.1068 9.78424 774 106.833 797.302 469.315
3268 0 83.1906 11.8042 982 103.619 796.673 466.713
3269 0 85.1237 10.2322 871 106.923 797.199 464.111
3270 0 88.1626 10.8323 955 106.394 797.528 463.57
3271 0 92.0845 10.4795 965 106.754 797.493 461.238
3272 0 93.1293 10.6411 991 107.258 798.068 455.029
3273 0 97.108 11.4924 1116 103.504 797.916 459.392
3274 0 102.083 11.9413 1219 101.624 797.746 458.086
3275 0 103.184 9.76894 1008 105.298 799.42 456.563
3276 0 108.074 10.9647 1185 101.846 799.925 458.802
3277 0 110.152 9.40518 1036 104.212 799.002 457.573
3278 0 114.147 10.2499 1170 102.951 799.384 454.628
3279 1 67.0792 9.31735 625 97.5168 800.003 480.402
3280 0 71.265 11.1836 797 99.7227 798.881 473.449
3281 0 72.099 11.0404 796 99.3781 798.884 472.848
3282 0 77.1 12.5422 967 92.3433 799.696 472.745
3283 0 77.0388 9.61854 741 97.9271 799.74 473.429
3284 0 82.1216 11.4586 941 94.1775 799.768 472.582
3285 0 84.1867 11.332 954 95.1709 799.123 468.828
3286 0 86.1418 12.1428 1046 94.4799 798.781 468.017
3287 0 88.2461 9.75681 861 96.9779 799.077 465.895
3288 0 93.1238 12.07 1124 94.0436 799.625 466.2
3289 0 96.1294 12.0879 1162 94.5912 799.457 464.205
3290 0 97.2034 10.4317 1014 96.9586 799.229 461.12
3291 0 100.123 10.7768 1079 98.1613 798.976 457.77
3292 0 103.161 11.1477 1150 98.0896 798.498 456.263
3293 0 107.357 10.7678 1156 99.577 798.1 453.303
3294 1 60.2141 9.05104 545 93.7743 798.963 479.813
3295 0 61.1357 11.041 675 92.8044 799.256 480.699
3296 0 63.0721 11.7802 743 94.1104 799.637 480.258
3297 0 64.0373 11.6339 745 97.2591 799.997 477.925
3298 0 67.0971 11.8634 796 96.7601 799.742 478.374
3299 0 67.1255 12.3202 827 97.5006 799.943 476.768
3300 0 70.1635 11.2024 786 100.98 799.519 476.995
3301 0 74.2062 12.5461 931 99.565 799.953 476.441
3302 0 74.2076 11.0096 817 102.963 799.655 475.195
3303 0 76.16 12.1455 925 100.804 799.379 471.892
3304 0 79.0748 12.8486 1016 99.1722 799.795 471.875
3305 0 82.1585 12.9141 1061 99.6645 799.299 472.43
3306 0 86.1341 13.1075 1129 99.6439 799.503 467.994
3307 0 89.1298 13.4859 1202 98.8195 799.86 467.304
3308 0 90.1931 11.553 1042 103.833 799.831 463.215
3309 0 92.2818 11.6816 1078 104.531 800.447 465.619
3310 0 96.4183 11.0871 1069 109.218 799.766 462.284
3311 0 100.344 10.5637 1060 109.974 799.706 463.146
3312 0 104.185 12.4682 1299 106.864 799.28 461.39
3313 0 106.382 11.7031 1245 110.516 799.263 457.359
3314 0 109.366 10.9449 1197 110.948 799.942 459.965
3315 0 113.422 11.8055 1339 111.074 800.004 453.14
3316 0 118.377 13.0177 1541 109.081 799.545 450.155
3317 1 64.0585 9.94404 637 97 800.554 479.239
3318 0 69.1306 10.2993 712 96.1896 800.329 480.244
3319 0 71.1779 9.72212 692 98.5607 798.994 476.046
3320 0 75.0747 12.361 928 94.0647 799.537 472.561
3321 0 77.108 11.5293 889 96.1136 798.886 473.405
3322 0 77.0928 10.4939 809 97.7305 799.04 472.382
3323 0 79.0866 10.4822 829 99.0929 800.024 469.404
3324 0 83.1025 12.7313 1058 108.843 798.781 471.166
3325 0 87.1828 11.3784 992 111.833 798.012 473.25
3326 0 90.1924 12.6175 1138 111.5 797.871 468.132
3327 0 92.2105 12.5474 1157 111.844 797.909 470.125
3328 0 92.1702 12.1731 1122 116.374 798.111 465.298
3329 0 97.1484 12.1052 1176 115.514 798.44 466.71
3330 0 100.232 11.6729 1170 116.415 797.38 467.683
3331 0 102.166 11.5009 1175 119.248 797.414 463.649
3332 0 107.284 13.5435 1453 114.287 797.931 461.579
3333 0 111.23 14.3846 1600 114.346 796.95 461.783
3334 0 114.257 14.1086 1612 116.562 797.796 459.978
3335 0 117.264 13.0987 1536 120.432 797.743 455.529
3336 0 119.266 13.0465 1556 121.745 797.99 453.807
3337 0 122.344 12.4076 1518 124.047 798.096 453.2
3338 0 129.411 14.0328 1816 119.729 798.278 452.36
3339 1 75.3108 11.3928 858 120.564 797.845 475.111
3340 0 78.1115 11.3043 883 108.512 799.248 476.181
3341 0 79.1625 11.1037 879 108.884 799.383 474.575
3342 0 81.1612 11.5819 940 110.265 799.103 473.55
3343 0 83.0797 10.8089 898 112.57 799.488 474.189
3344 0 84.1158 11.7338 987 111.96 799.824 471.302
3345 0 89.1162 12.2537 1092 110.579 798.903 470.723
3346 0 92.1339 10.8104 996 112.833 799.239 468.192
3347 0 95.1683 12.3571 1176 108.113 798.855 466.924
3348 0 98.1906 10.9888 1079 112.88 798.499 463.006
3349 0 101.255 11.7032 1185 111.201 798.397 464.305
3350 0 104.16 11.8472 1234 112.411 798.427 463.246
3351 0 107.163 12.0191 1288 113.044 798.963 461.558
3352 0 109.269 11.0095 1203 116.49 798.894 459.756
3353 0 113.375 10.2492 1162 119.983 798.431 454.213
3354 0 117.285 11.229 1317 118.396 798.88 456.143
3355 0 119.237 11.2465 1341 119.647 798.331 454.324
3356 0 123.31 13.1295 1619 116.189 798.701 452.236
3357 0 127.202 12.9401 1646 117.036 798.834 447.886
3358 0 130.202 12.6342 1645 118.185 798.696 448.165
3359 0 135.14 13.7487 1858 121.327 798.425 452.151
3360 0 139.183 12.8392 1787 123.66 798.425 446.634
3361 0 144.186 13.7739 1986 123.795 798.658 443.258
3362 0 150.443 13.4004 2016 124.409 798.837 444.366
3363 1 84.1831 13.043 1098 121.964 799.199 472.556
3364 0 89.436 12.9254 1156 123.033 798.593 469.733
3365 0 90.3958 13.6179 1231 119.056 798.752 470.059
3366 0 93.2097 13.6788 1275 119.525 798.716 469.26
3367 0 96.2855 14.9348 1438 116.254 798.21 468.656
3368 0 99.2177 14.7353 1462 117.009 797.853 465.126
3369 0 101.243 14.5196 1470 116.968 797.687 465.937
3370 0 105.306 13.9118 1465 119.752 797.979 461.888
3371 0 107.342 13.1636 1413 122.062 798.118 462.016
3372 0 109.383 13.3932 1465 123.048 797.918 459.552
3373 0 113.349 13.7539 1559 122.006 797.645 457.829
3374 0 116.295 13.3368 1551 123.651 797.934 456.603
3375 0 120.402 14.4765 1743 120.633 798.065 452.843
3376 0 123.364 14.7126 1815 120.043 798.115 450.691
3377 0 125.234 13.327 1669 124.336 798.543 446.569
3378 0 131.23 13.2363 1737 126.393 798.428 444.822
3379 0 136.278 12.9221 1761 125.568 798.581 446.178
3380 0 139.337 13.0978 1825 124.424 798.379 441.438
3381 0 140.277 12.6607 1776 129.297 798.544 434.695
3382 0 147.268 13.927 2051 123.22 798.645 432.331
3383 0 153.195 12.866 1971 125.268 798.418 432.534
3384 1 78.0787 10.6047 828 123.139 798.774 464.821
3385 0 78.1236 9.93298 776 126.588 798.372 463.131
3386 0 83.0778 12.2415 1017 118.938 799.345 463.54
3387 0 85.0558 12.3801 1053 119.894 799.307 462.367
3388 0 86.0689 10.5381 907 126.248 798.775 459.728
3389 0 93.135 12.4658 1161 121.113 798.107 458.17
3390 0 95.0546 12.8032 1217 120.537 798.757 459.979
3391 0 98.0419 12.1785 1194 122.364 798.384 457.24
3392 0 102.235 12.0018 1227 124.131 798.068 460.281
3393 0 105.286 13.1736 1387 120.56 797.77 460.085
3394 0 107.222 12.7493 1367 120.49 798.817 454.146
3395 0 110.162 13.2805 1463 120.335 798.502 449.519
3396 0 112.185 11.1957 1256 126.479 798.752 446.945
3397 0 118.073 12.7972 1511 121.414 799.212 445.301
3398 0 124.114 12.3999 1539 121.873 798.687 444.715
3399 1 67.144 10.5147 706 120.829 798.255 480.115
3400 0 69.1907 11.8802 822 119.173 798.343 478.832
3401 0 69.2851 10.9403 758 106.338 797.942 472.843
3402 0 71.1955 12.6553 901 101.354 797.948 473.575
3403 0 74.2147 11.305 839 105.288 799.783 474.548
3404 0 78.0474 10.8652 848 106.581 799.249 472.145
3405 0 78.2141 10.4201 815 109.321 799.373 468.277
3406 0 80.3359 11.8751 954 106.881 799.196 468.162
3407 0 86.2008 12.7145 1096 104.09 799.26 469.729
3408 0 87.236 10.6149 926 110.306 798.787 464.802
3409 0 90.2616 11.9652 1080 107.905 798.375 465.228
3410 0 92.3185 12.0236 1110 108.877 798.648 466.003
3411 0 95.2317 12.6323 1203 108.195 798.804 461.665
3412 0 95.1963 11.6811 1112 112.816 798.384 461.952
3413 0 97.1633 9.94203 966 116.961 798.733 462.87
3414 0 103.306 11.8677 1226 113.312 798.675 461.99
3415 0 105.328 12.4468 1311 113.485 799.067 460.166
3416 0 107.24 11.9918 1286 116.421 798.45 456.381
3417 0 109.423 11.259 1232 120.463 798.231 454.875
3418 0 113.337 11.3731 1289 121.633 798.289 452.611
3419 0 120.329 12.4658 1500 119.353 798.217 451.429
3420 0 127.264 15.6053 1986 118.501 798.248 450.866
3421 0 129.194 14.1725 1831 120.13 798.301 445.575
3422 0 133.439 13.5567 1809 122.71 798.138 444.566
3423 1 75.1789 11.0935 834 123.391 798.031 471.812
3424 0 77.3674 12.0981 936 121.278 797.911 470.892
3425 0 80.0327 12.22 978 117.081 797.807 466.744
3426 0 83.1301 12.306 1023 113.675 798.607 466.173
3427 0 85.1526 11.1564 950 117.393 799.033 463.029
3428 0 87.0752 12.1619 1059 114.866 798.231 462.754
3429 0 90.094 11.6878 1053 116.289 798.245 461.868
3430 0 93.134 11.972 1115 116.684 798.005 457.592
3431 0 94.1271 12.0157 1131 117.778 798.757 453.891
3432 0 99.1165 12.3794 1227 116.236 798.899 455.033
3433 0 103.156 11.6135 1198 116.586 798.306 453.901
3434 0 105.155 11.8778 1249 116.445 797.926 453.03
3435 0 110.13 12.1947 1343 114.7 798.662 451.443
3436 0 113.108 12.6339 1429 113.669 798.861 451.877
3437 0 115.133 12.238 1409 115.731 799.16 449.612
3438 0 116.1 11.7141 1360 117.989 798.888 447.485
3439 0 123.213 12.8071 1578 114.153 798.791 447.755
3440 0 127.223 12.3405 1570 115.048 798.936 444.135
3441 0 132.264 14.0704 1861 111.556 797.683 440.537
3442 0 136.341 13.0555 1780 114.062 797.875 438.663
3443 0 138.206 10.412 1439 119.564 797.715 437.594
3444 1 57.2491 9.85169 564 108.346 797.851 474.872
3445 0 60.3399 9.77795 590 105.898 799.175 475.11
3446 0 61.1855 11.3262 693 103.466 798.453 476.261
3447 0 64.2032 11.6038 745 103.16 798.483 475.607
3448 0 64.1945 12.1506 780 104.378 798.645 472.901
3449 0 66.1193 11.7212 775 106.338 798.575 473.212
3450 0 67.1157 11.3237 760 108.564 797.463 471.842
3451 0 72.2616 12.4686 901 106.057 797.43 470.719
3452 0 71.2488 12.4353 886 108.161 798.221 466.928
3453 0 73.2127 11.2959 827 111.533 798.189 466.386
3454 0 77.3516 11.6093 898 110.631 797.728 464.491
3455 0 79.1559 11.2184 888 112.877 797.367 462.054
3456 0 80.1906 11.0362 885 115.388 796.957 464.085
3457 0 83.2353 11.4375 952 115.761 796.613 463.353
3458 0 85.1986 10.7631 917 118.534 797.14 463.953
3459 0 89.1187 11.6249 1036 118.304 796.901 462.755
3460 0 90.1234 11.1514 1005 119.518 796.551 463.298
3461 0 95.2469 12.8718 1226 117.25 796.993 455.442
3462 0 97.1909 12.6658 1231 117.322 796.503 457.868
3463 0 101.425 12.0779 1225 118.866 797.016 453.985
3464 0 106.216 13.0112 1382 116.174 796.642 453.25
3465 0 106.311 12.1248 1289 120.458 796.265 451.287
3466 0 109.169 13.2822 1450 117.851 796.606 448.814
3467 0 113.376 12.119 1374 121.635 796.621 446.485
3468 0 116.218 12.0205 1397 122.087 796.071 444.436
3469 0 117.217 13.121 1538 120.287 796.311 443.211
3470 0 124.227 12.1391 1508 121.939 795.883 443.075
3471 0 128.311 11.2461 1443 123.498 796.39 442.443
3472 0 130.258 12.053 1570 122.991 796.962 439.292
3473 0 134.259 11.88 1595 123.507 796.569 437.524
3474 0 136.137 11.0404 1503 125.798 796.18 430.824
3475 0 140.304 13.0502 1831 120.239 795.916 433.097
3476 0 140.444 9.2706 1302 127.103 796.007 438.416
3477 0 137.175 9.0104 1236 128.133 796.17 437.487
3478 0 138.466 7.06312 978 128.48 795.907 448.108
3479 0 136.282 8.34299 1137 130.472 795.68 439.471
3480 1 91.1328 10.6767 973 127.302 796.115 451.454
3481 0 95.1948 11.1246 1059 126.097 796.628 450.176
3482 0 98.3278 11.6854 1149 125.874 796.656 446.058
3483 0 105.279 12.8136 1349 120.356 795.852 445.158
3484 0 106.097 13.4122 1423 119.796 796.33 443.091
3485 0 112.186 13.0141 1460 120.491 796.986 443.288
3486 0 121.305 12.7365 1545 120.1 796.509 441.783
3487 0 123.379 13.1303 1620 119.788 796.148 439.885
3488 0 132.412 13.1711 1744 119.171 796.576 440.195
3489 0 133.366 11.7946 1573 123.437 796.341 438.455
3490 0 135.268 12.1906 1649 123.465 796.452 438.301
3491 0 145.454 13.2619 1929 119.669 796.913 437.674
3492 0 143.502 10.9475 1571 127.544 795.943 435.388
3493 0 151.383 11.996 1816 125.551 796.855 430.601
3494 0 159.409 13.1737 2100 121.728 796.67 429.696
3495 0 166.316 13.751 2287 119.804 797.298 427.942
3496 0 171.345 12.3319 2113 121.69 797.065 429.403
3497 1 98.2444 11.9091 1170 117.197 797.195 462.986
3498 0 103.339 13.1509 1359 115.288 796.755 458.653
3499 0 104.273 13.1674 1373 116.331 796.557 455.509
3500 0 109.201 12.1611 1328 118.684 797.041 455.48
3501 0 111.344 11.9359 1329 120.34 796.678 452.385
3502 0 114.163 11.8778 1356 120.931 798.228 452.87
3503 0 119.479 13.0566 1560 117.951 797.856 449.806
3504 0 123.215 13.1803 1624 119.425 797.446 439.569
3505 0 126.257 12.9261 1632 121.979 797.194 435.547
3506 0 130.271 13.4259 1749 120.719 797.4 426.086
3507 0 134.286 13.2404 1778 121.134 797.808 426.49
3508 0 137.419 13.9355 1915 120.404 797.488 424.308
3509 1 16.0102 7.55767 121 88.1405 796.942 487.033
3510 0 16.0252 4.99214 80 91.7 796.925 496.575
3511 0 16.0068 7.49682 120 89.2667 797.808 501.317
3512 0 13.015 5.91626 77 92.1039 797.909 500.766
3513 0 16.0166 5.99378 96 91.3333 797.479 501.521
3514 0 15.0174 5.12737 77 95.7532 797.195 500.234
3515 1 95.305 9.75814 930 118.874 797.899 460.751
3516 0 99.2978 11.1684 1109 120.464 798.182 453.757
3517 0 104.182 12.4398 1296 116.685 797.954 461.058
3518 0 103.307 12.1676 1257 121.1 797.752 456.521
3519 0 109.301 12.1865 1332 121.883 798.194 456.971
3520 0 112.211 12.6725 1422 122.741 798.66 454.674
3521 0 115.276 11.8238 1363 125.2 798.186 453.527
3522 0 118.307 11.7322 1388 129.35 798.341 449.898
3523 0 121.316 12.3727 1501 129.412 798.69 449.16
3524 0 123.304 12.092 1491 131.211 798.27 448.869
3525 0 127.254 12.5575 1598 130.599 798.247 444.118
3526 0 132.362 11.7707 1558 134.418 798.816 437.911
3527 0 136.252 12.3521 1683 133.012 798.307 437.405
3528 0 142.275 13.1787 1875 130.265 798.681 441.059
3529 0 146.207 13.1389 1921 131.438 798.956 436.316
3530 0 149.272 13.3917 1999 132.183 798.842 431.186
3531 0 156.266 13.5922 2124 130.748 799.369 431.323
3532 0 159.244 12.9864 2068 133.584 798.724 427.911
3533 1 18.0313 4.99132 90 95.9222 801.422 499.978
3534 0 18.0183 7.15937 129 92.2868 801.101 500.752
3535 0 19.0103 7.52225 143 88.8811 801.72 498.804
3536 0 19.0076 4.20885 80 95.225 801.188 500.35
3537 0 16.0114 7.7445 124 92.5887 801.363 501.363
3538 0 19.0204 4.83691 92 95.3261 801.402 498.478
3539 0 17.0023 1.94091 33 99.2727 800.636 498.545
3540 0 16.0181 5.43136 87 92.3333 800.345 499.839
3541 0 18.043 7.205 130 86.7 800.123 500.277
3542 0 19.0151 4.89085 93 90.8387 799.516 498.559
3543 0 17.0172 3.1145 53 92.6038 799.264 499.698
3544 0 16.0165 6.43086 103 90.4369 799.524 495.942
3545 0 14.0041 1.928 27 91.8519 799.556 498.889
3546 0 14.0044 3.78453 53 94.0189 799.434 493.17
3547 0 16.0275 5.17859 83 90.6747 798.133 491.229
3548 0 19.0255 5.88684 112 91.75 798.045 491.455
3549 0 15.0193 2.92957 44 93.2727 798.25 490.932
3550 0 14.0457 2.06468 29 91.2414 797.517 494.31
3551 0 13.0132 2.45904 32 97.1562 797.344 490.812
3552 0 15.0127 3.33052 50 94.26 798.16 493.2
3553 0 18.0107 5.71883 103 92.9417 797.417 493.553
3554 0 18.0208 4.05088 73 100.959 800.288 501.096
3555 0 21.0748 6.97516 147 96.3673 799.782 501.238
3556 0 19.0075 4.62976 88 95.3295 801.023 502.773
3557 0 20.0056 4.49875 90 97.4778 802.5 498.222
3558 0 20.0121 6.39614 128 91.4688 800.367 502.602
3559 0 19.0276 6.93731 132 92.2348 800.068 501.341
3560 0 19.0096 4.99747 95 94.4 799.916 502.747
3561 0 19.0019 6.84144 130 91.9923 799.592 500.754
3562 0 17.0353 6.33978 108 91.3704 800.648 501.12
3563 0 18.0032 7.94301 143 90.2937 800.776 500.497
3564 0 18.005 3.38794 61 96.1803 800.344 503.262
3565 0 19.0026 5.52557 105 93.6381 800.79 500.21
3566 0 18.0015 5.83284 105 92.4476 799.448 503.581
3567 0 20.0232 7.89085 158 90.6392 799.88 500.481
3568 0 19.028 4.36199 83 95.506 800.373 502.422
3569 0 18.0304 6.87727 124 92.3387 798.323 501.161
3570 0 20.2216 6.42875 130 91.4615 796.969 497.285
3571 0 19.0767 7.96784 152 91.5197 798.263 501.507
3572 0 16.0315 3.99215 64 97.0938 798.188 503.531
3573 0 20.0077 7.14725 143 91.7622 797.972 501.993
3574 0 16.061 4.91876 79 97.3797 800.962 498.582
3575 0 13.0246 4.52988 59 96.5085 800.237 501.102
3576 0 17.0039 7.35124 125 90.896 799.6 502.984
3577 0 18.0114 5.55203 100 93.94 798.92 502.83
3578 0 15.004 4.93202 74 90.3108 797.338 503.541
3579 0 17.0092 8.58357 146 88.1507 796.849 501.253
3580 0 15.0014 5.7328 86 93.0349 796.779 503.279
3581 0 14.0142 3.78187 53 96.1698 796.472 502.566
3582 0 15.008 6.46321 97 90.8763 796.392 502.577
3583 0 15.0043 7.66447 115 89.8957 796.391 502.957
3584 0 15.1013 6.15843 93 93.0323 797.839 500.774
3585 0 16.0295 6.30088 101 89.505 797.327 503.248
3586 0 13.0049 5.84397 76 91.3026 795.908 502.039
3587 0 14.0028 5.14183 72 89.7361 796.681 502.806
3588 0 13.018 4.22493 55 93 796.345 501.764
3589 0 12.0044 6.33102 76 90.9737 796.382 499.224
3590 0 14.0244 7.05915 99 86.6263 795.929 500.667
3591 0 12.0005 5.16643 62 89.3226 795.984 500.968
3592 0 16.0136 6.74425 108 88.2685 796.204 498.907
3593 0 13.0013 6.84547 89 88.5843 796.449 499.64
3594 0 13.0007 5.76893 75 88.5067 796.667 499.253
3595 0 13.0143 4.84082 63 89.9683 796.333 497.524
3596 0 11.0044 2.90792 32 92.4062 796.094 498.625
3597 0 14.0343 3.49145 49 90.7143 795.735 499.592
3598 0 14.0019 5.21359 73 90.8493 795.822 501.644
3599 0 11.0006 3.27256 36 94.3333 799.083 502.222
3600 0 15.0393 6.44978 97 89.3093 798.639 502.103
3601 0 14.0038 6.71245 94 89.5319 798.787 502.596
3602 0 15.0052 6.66437 100 87.55 798.62 501.61
3603 0 9.00358 2.77667 25 92.72 797.64 502.92
3604 0 11.0033 5.08936 56 89.625 796.804 502.071
3605 0 17.0134 6.34793 108 86.9167 797.87 499.037
3606 0 17.0047 6.76285 115 85.4609 798.139 499.748
3607 0 15.0014 2.79974 42 90.6667 798.786 498.333
3608 0 16.0018 7.06169 113 86.0531 796.743 497.257
3609 0 16.0303 4.30435 69 86.8841 797 500.478
3610 0 14.0104 4.35391 61 88.623 798.934 500.066
3611 0 15.0017 3.93288 59 88.0678 798.542 500.373
3612 0 13.0193 2.38109 31 89.5806 796.419 498.677
3613 0 15.0266 5.05769 76 82.6711 796.408 498.632
3614 0 11.0017 4.63565 51 81.2745 795.843 501
3615 0 12.0019 4.49928 54 81.0741 796.056 500.667
3616 0 14.0006 4.28554 60 81.6333 796.25 500.133
3617 0 14.0105 5.92413 83 78.9518 796.928 501.386
3618 0 12.0013 5.91603 71 79.8451 796.31 500.07
3619 0 12.0101 7.49371 90 78.3 797.256 500.611
3620 0 15.004 5.86511 88 80.2159 797.511 500.125
3621 0 12.0087 6.49528 78 78.5641 797.795 500.038
3622 0 12.0253 4.07476 49 82.4082 797.347 502.143
3623 0 10.0049 4.99755 50 80.1 796.62 502.68
3624 0 12.0017 4.58267 55 82.4727 796.2 501.891
3625 0 14.0152 7.56323 106 78.3491 796.764 501.311
3626 0 13.0035 3.38369 44 84.1591 796.795 500.432
3627 0 13.0049 3.76781 49 82.8776 796.327 501.592
3628 0 13.0134 3.6885 48 82.9167 796.021 502.146
3629 0 13.0024 6.07582 79 79.5316 797.076 503.684
3630 0 12 1 12 89 797.167 502.75
3631 0 11.0069 3.54323 39 84.9744 797.436 501.59
3632 0 15.018 6.39233 96 80.4583 799.458 501.812
3633 0 14.013 3.85355 54 83.8889 801.722 498.111
3634 0 14.0012 7.14224 100 77.86 802.18 499.59
3635 0 15.0497 3.18943 48 82.6458 801.75 499.729
3636 0 13.0007 5.692 74 79 801.811 500.378
3637 0 12.0026 6.16532 74 79.2973 800.811 500.581
3638 0 15.0037 4.59887 69 80.1594 799.71 504.174
3639 0 11.0031 7.90686 87 77.1954 797.023 503.851
3640 0 13.0022 3.15332 41 80.878 798.268 506
3641 0 14.0254 7.62901 107 76.0374 797.71 503.869
3642 0 13.0014 4.38413 57 79.9825 798.123 505.579
3643 0 12.006 3.998 48 81.9167 798.188 504.938
3644 0 17.0088 6.58484 112 79.6429 798.598 501.366
3645 0 10.0067 6.29576 63 75.8571 798.063 501.683
3646 1 26.1085 3.71526 97 83.4536 798.887 499.546
3647 0 16.004 5.31116 85 82.7647 798.965 504.047
3648 0 18.0018 5.83276 105 83.7333 799.743 502.638
3649 0 25.0417 7.3078 183 79.6284 799.071 497.093
3650 0 22.0019 6.31763 139 81.3094 799.755 503.18
3651 0 28.0357 4.67261 131 82.6031 799.443 496.237
3652 0 20.0054 6.14835 123 81.9187 800.431 502.065
3653 0 20.0689 6.77664 136 81.5809 800.265 502.426
3654 0 19.0191 6.20428 118 82.4407 800.22 500.703
3655 0 18.0031 4.27703 77 86.039 800.636 501.377
3656 0 20.0393 8.93246 179 80.6034 801.458 501.123
3657 0 18.0456 2.88159 52 89.1538 802.212 502
3658 0 13.0027 3.07628 40 89.575 801.775 501.225
3659 0 16.0027 5.24913 84 85.2857 802.226 502.881
3660 0 18.0112 5.8297 105 83.9619 802.181 503.257
3661 0 17.0073 7.82015 133 82.3308 802.602 503.414
3662 0 21.0253 5.42204 114 84.7632 801.658 500.167
3663 1 37.2659 6.84272 255 82.102 801.329 493.176
3664 0 36.0756 7.29025 263 81.1331 800.255 494.357
3665 0 32.1341 7.25086 233 80.9399 800.824 495.944
3666 0 39.1941 5.25589 206 82.1456 800.971 497.214
3667 1 133.371 8.72756 1164 107.085 798.188 438.842
3668 0 135.399 8.64113 1170 108.537 798.279 432.8
3669 1 198.503 10.4381 2072 109.198 797.961 407.725
3670 0 201.406 10.243 2063 111.268 798.114 406.91
3671 0 205.447 9.72513 1998 113.245 797.797 402.704
3672 0 212.417 11.049 2347 111.746 798.427 395.339
3673 0 217.44 9.11054 1981 115.218 797.759 396.961
3674 0 224.599 11.4114 2563 111.213 797.971 394.441
3675 0 233.667 12.1369 2836 110.335 798.374 391.655
3676 0 239.509 12.7928 3064 109.311 797.97 391.842
3677 0 246.709 12.3181 3039 111.279 797.488 389.057
3678 0 252.889 12.4007 3136 114.261 797.23 380.931
3679 1 113.606 9.16321 1041 105.977 796.754 447.764
3680 0 112.548 9.56036 1076 109.947 796.159 446.627
3681 0 116.764 11.1421 1301 107.832 796.666 446.59
3682 0 118.284 11.354 1343 108.674 796.76 446.952
3683 0 119.366 11.5276 1376 109.882 796.398 447.31
3684 0 119.203 10.3018 1228 117.748 796.393 436.857
3685 0 125.26 10.5541 1322 118.75 797.021 432.706
3686 0 130.515 11.7841 1538 117.101 797.106 434.66
3687 0 129.389 10.9747 1420 122.083 797.13 429.606
3688 0 136.529 11.8876 1623 118.299 797.177 433.537
3689 0 136.411 11.0255 1504 123.91 796.679 424.092
3690 1 6 3.83333 23 81.6957 798 500.696
3691 0 11.0044 3.81664 42 81.2143 798.905 497.762
3692 0 9.00317 4.99824 45 80.0667 798.822 498.644
3693 0 8.00254 3.99873 32 82.25 798.406 499.344
3694 0 12.001 4.91625 59 81 799.254 500.102
3695 0 15.0797 3.38202 51 82.3922 799.725 500.882
3696 0 18.0031 1.61084 29 87.7241 799.448 501.966
3697 0 20.0015 3.29976 66 86.303 800.318 505.394
3698 0 13.0087 3.92047 51 90.9608 800.314 504.961
3699 1 78.1814 4.20816 329 104.383 798.097 480.663
3700 0 74.3541 8.39227 624 103.141 798.019 469.183
3701 0 77.4902 9.8335 762 99.5262 797.812 471.903
3702 0 83.4867 6.69567 559 103.939 797.853 470.968
3703 0 84.4518 8.13482 687 103.24 797.77 467.802
3704 0 83.5504 10.2094 853 100.116 797.807 466.429
3705 0 81.5044 8.56396 698 104.537 798.254 463.228
3706 0 83.5365 9.58862 801 102.007 798.442 466.201
3707 0 83.59 9.12789 763 102.869 797.843 465.865
3708 0 83.3965 9.06513 756 103.073 798.41 465.759
3709 0 90.3513 10.26 927 101.685 798.054 461.927
3710 0 90.5768 11.8684 1075 101.002 797.603 462.247
3711 0 90.347 9.68488 875 108.062 798.353 457.89
3712 0 94.4049 10.2749 970 105.449 798.467 458.521
3713 0 90.2528 10.249 925 113.736 796.937 452.11
3714 0 94.1874 10.9357 1030 111.946 797.04 450.117
3715 0 101.188 10.1 1022 113.34 796.456 450.937
3716 0 98.2429 10.983 1079 112.023 796.606 449.248
3717 0 105.234 9.85419 1037 116.07 796.844 441.697
3718 0 105.159 12.1531 1278 110.505 796.655 443.924
3719 0 109.155 11.36 1240 112.041 795.947 440.846
3720 0 108.101 12.3588 1336 109.653 796.168 442.063
3721 1 119.104 12.2666 1461 108.047 796.42 440.962
3722 0 118.044 12.004 1417 107.32 795.676 439.909
3723 0 124.085 12.3463 1532 105.715 795.772 442.882
3724 0 128.048 12.5735 1610 105.556 796.481 436.56
3725 0 131.098 12.7996 1678 107.265 795.833 437.172
3726 0 133.132 11.1844 1489 112.514 796.273 431.837
3727 0 137.208 13.0167 1786 107.972 796.454 433.152
3728 0 136.535 11.5501 1577 113.227 796.675 433.33
3729 1 146.267 10.9184 1597 115.758 796.205 424.884
3730 0 143.241 11.9938 1718 115.568 796.157 417.412
3731 0 151.181 12.2436 1851 115.105 796.254 416.378
3732 1 161.343 11.9992 1936 113.577 796.617 420.499
3733 0 169.374 13.7093 2322 109.598 796.735 417.088
3734 0 174.4 13.0848 2282 111.726 796.845 413.607
3735 0 180.396 12.9659 2339 112.812 797.717 407.246
3736 0 182.345 12.4764 2275 114.514 797.163 404.401
3737 0 193.427 14.3051 2767 110.1 797.008 405.068
3738 0 195.318 12.7177 2484 116.128 798.384 398.137
3739 1 205.474 15.637 3213 108.415 798.341 388.684
3740 0 207.256 14.3253 2969 112.815 798.396 387.379
3741 0 215.296 17.4225 3751 105.784 798.176 385.774
3742 0 222.372 14.9164 3317 112.782 798.375 383.38
3743 0 228.373 14.9974 3425 113.155 798.719 377.187
3744 1 10.0024 1.99953 20 79.6 797.2 494.95
3745 0 14.0007 5.85686 82 73.8293 797.951 493.78
3746 0 11.0031 6.54359 72 76.1944 798.639 492
3747 0 14.0001 2.92854 41 78.0488 798.39 494.195
3748 0 15.0093 4.39728 66 77.5303 798.455 489.894
3749 0 11.0011 5.63578 62 76.4516 798.258 491.903
3750 0 9.00413 1.33272 12 80.9167 801.083 491.083
3751 0 11.0022 6.18059 68 74.9559 801.162 491.426
3752 0 8.00086 4.99947 40 75.85 797.675 487.6
3753 0 14.0061 5.28343 74 75.527 799.568 488.757
3754 0 12.0253 3.7421 45 79.1778 801.244 494.2
3755 0 17.0302 8.04454 137 80.7518 801.891 495.38
3756 0 19.0104 8.78465 167 82.8144 802.299 496.617
3757 0 18.0211 6.60336 119 87.3697 801.924 495.731
3758 0 15.0601 6.44086 97 85.1546 799.412 500.351
3759 0 15.0063 4.06496 61 86.918 799 500.361
3760 0 13.0031 1.84572 24 90.5 799.458 500.083
3761 0 14.0092 4.21151 59 87.4068 799.525 500
3762 1 99.2095 9.40434 933 113.97 801.068 448.52
3763 0 106.129 9.93135 1054 111.632 801.481 452.793
3764 0 109.16 10.2143 1115 111.969 801.494 451.03
3765 0 110.298 12.2214 1348 108.401 800.356 445.081
3766 0 116.197 14.3463 1667 102.016 800.855 443.152
3767 0 117.322 10.2283 1200 113.097 800.93 449.073
3768 0 124.326 15.9017 1977 99.2241 800.297 438.239
3769 0 127.423 14.1027 1797 102.962 799.853 444.314
3770 0 132.308 16.5372 2188 98.1316 799.959 442.706
3771 0 135.194 15.304 2069 101.49 799.109 441.958
3772 1 79.0485 8.0963 640 107.817 797.055 471.066
3773 0 82.1078 9.31702 765 101.136 797.956 470.529
3774 0 84.216 11.3636 957 97.8819 800.707 470.833
3775 0 86.1385 11.7021 1008 93.6161 801.465 470.302
3776 0 84.1057 10.8911 916 97.8177 802.049 471.825
3777 0 86.1337 9.38077 808 101.407 801.645 468.568
3778 0 89.0788 9.73296 867 100.08 801.453 469.144
3779 0 92.1416 10.3645 955 99.8241 801.76 468.782
3780 0 93.0926 10.4842 976 101.149 801.22 465.277
3781 0 95.0529 9.64726 917 102.822 801.035 466.834
3782 0 96.1773 9.29533 894 104.52 801.182 463.503
3783 0 98.1704 8.91307 875 105.285 800.785 464.523
3784 0 100.229 10.4461 1047 104.394 800.954 460.847
3785 0 103.133 9.09508 938 104.999 801.334 462.978
3786 0 107.14 8.9509 959 105.934 801.414 462.089
3787 0 106.172 9.53174 1012 107.402 800.761 455.274
3788 0 113.162 10.2155 1156 103.6 800.769 458.599
3789 0 113.223 10.2541 1161 105.688 800.75 455.136
3790 0 118.122 11.2003 1323 104.676 800.441 453.042
3791 0 119.173 10.5141 1253 105.763 800.273 452.927
3792 0 124.215 10.9005 1354 105.631 801.162 450.787
3793 0 127.142 12.6866 1613 102.306 800.885 445.233
3794 0 128.239 10.3946 1333 107.697 800.424 445.296
3795 0 134.151 10.5925 1421 107.437 799.81 439.869
3796 0 138.308 11.5323 1595 108.459 800.078 438.345
3797 1 82.1567 9.62795 791 100.979 800.541 468.708
3798 0 84.1861 10.6787 899 100.158 800.032 467.379
3799 0 83.0988 8.53201 709 103.364 799.874 467.262
3800 0 85.1324 11.1826 952 100.599 799.451 462.438
3801 0 88.2004 10.204 900 101.833 799.419 461.26
3802 0 88.0998 8.28606 730 106.275 799.86 458.473
3803 0 96.1571 9.77567 940 102.081 800.088 461.717
3804 0 97.1533 10.468 1017 101.159 800.237 463.215
3805 0 100.046 11.7246 1173 98.9309 799.962 457.931
3806 0 102.095 11.2542 1149 99.5587 800.165 458.06
3807 0 104.288 9.93401 1036 103.122 799.924 453.555
3808 0 107.11 9.83101 1053 103.838 800.022 453.249
3809 0 110.174 11.3911 1255 102.34 799.989 450.266
3810 0 116.183 11.3872 1323 102.355 800.283 452.598
3811 0 120.29 12.0791 1453 101.336 800.298 452.277
3812 0 123.154 12.2043 1503 101.034 799.893 445.394
3813 0 126.227 11.5506 1458 102.953 799.894 446.697
3814 0 129.177 12.2003 1576 102.425 799.129 445.137
3815 0 134.345 13.3462 1793 100.389 799.791 443.07
3816 0 135.369 11.6127 1572 106.289 798.761 441.934
3817 0 136.227 11.3414 1545 107.831 799.254 437.447
3818 0 140.331 10.5607 1482 108.918 799.036 438.453
3819 0 147.377 11.1212 1639 107.469 798.882 437.92
3820 0 151.409 11.0694 1676 107.66 799.078 435.749
3821 0 153.207 9.45127 1448 110.646 798.372 434.349
3822 0 160.28 11.2179 1798 107.227 798.522 426.365
3823 0 167.312 10.8779 1820 107.284 798.602 425.038
3824 0 169.511 11.6629 1977 106.177 798.447 422.484
3825 0 176.32 12.1881 2149 104.678 799.011 425.713
3826 0 183.439 10.3522 1899 108.12 798.791 424.493
3827 0 185.376 11.0424 2047 108.64 798.553 418.938
3828 0 190.491 11.9323 2273 108.736 798.515 415.841
3829 0 194.411 11.8872 2311 109.802 799.122 406.728
3830 0 201.46 13.6007 2740 112.642 797.932 405.507
3831 0 208.316 14.5164 3024 110.199 798.471 395.042
3832 0 211.61 10.8643 2299 110.904 797.945 399.38
3833 0 221.364 12.2603 2714 112.974 798.347 391.459
3834 0 227.402 12.3658 2812 116.093 798.774 383.905
3835 0 235.496 12.824 3020 114.536 799.237 379.512
3836 0 243.581 12.7391 3103 115.076 798.987 375.803
3837 1 58.3595 10.0926 589 95.2139 798.548 478.591
3838 0 61.1971 10.9809 672 93.8571 798.376 476.811
3839 0 60.5166 11.9802 725 91.9159 799.309 478.977
3840 0 65.2343 10.6539 695 93.5079 799.642 475.745
3841 0 63.3164 10.7713 682 95.11 798.35 475.128
3842 0 69.3523 11.2037 777 93.408 798.865 474.696
3843 0 71.202 11.1795 796 94.9673 798.524 470.982
3844 0 74.1562 12.7029 942 92.1136 799.145 470.594
3845 0 73.1352 11.4993 841 96.5101 800.413 470.905
3846 0 79.2174 11.6641 924 96.4177 800.015 471.076
3847 0 76.0855 9.18703 699 107.705 799.66 468.026
3848 0 84.1598 11.2286 945 102.293 798.711 466.915
3849 0 85.2178 11.4882 979 101.124 798.765 466.439
3850 0 89.147 12.9673 1156 99.2958 798.24 467.154
3851 0 86.145 9.97156 859 106.069 798.612 470.092
3852 1 99.1943 16.2913 1616 90.573 798.976 458.614
3853 0 97.2269 16.9603 1649 90.1273 799.712 463.302
3854 0 98.2797 15.9748 1570 94.0669 799.18 461.856
3855 0 99.2437 16.394 1627 94.3848 799.423 463.307
3856 0 100.269 15.0894 1513 98.9478 799.706 459.874
3857 0 104.299 15.4076 1607 98.7368 799.169 458.582
3858 0 106.272 14.8017 1573 101.992 799.052 455.506
3859 0 106.385 14.4475 1537 105.005 799.253 452.74
3860 0 110.203 15.789 1740 102.993 798.982 453.884
3861 0 111.287 14.2245 1583 108.579 798.877 451.399
3862 0 116.195 15.1728 1763 106.849 798.725 449.265
3863 0 119.161 15.8189 1885 105.509 798.524 451.272
3864 0 122.215 14.9491 1827 108.386 798.545 443.537
3865 0 126.174 16.8894 2131 104.041 799.178 441.722
3866 0 127.252 15.0096 1910 110.546 798.706 441.831
3867 0 132.232 17.5752 2324 103.879 799.075 439.903
3868 0 134.142 15.4985 2079 110.681 798.343 439.391
3869 0 138.192 15.6594 2164 110.507 798.756 437.35
3870 0 144.291 15.8638 2289 110.19 798.259 435.984
3871 0 147.197 16.3522 2407 110.336 798.294 433.906
3872 0 151.262 15.9261 2409 111.505 798.975 428.374
3873 0 158.195 18.06 2857 106.988 799.075 427.918
3874 0 162.183 15.9758 2591 111.403 798.56 427.359
3875 1 98.114 13.5862 1333 108.686 798.713 460.276
3876 0 99.1267 13.5281 1341 113.808 799.242 457.056
3877 0 99.0873 11.9491 1184 115.519 799.443 461.967
3878 0 103.194 12.4813 1288 114.469 799.046 460.436
3879 0 103.192 12.6657 1307 114.857 799.252 459.748
3880 0 108.182 13.8378 1497 113.422 799.24 456.236
3881 0 113.313 13.1406 1489 115.271 799.383 452.762
3882 0 116.181 13.6684 1588 114.729 798.632 449.89
3883 0 118.23 13.8713 1640 114.577 798.884 450.656
3884 0 120.239 13.2819 1597 117.188 799.229 446.522
3885 0 123.168 12.7306 1568 119.32 798.616 446.869
3886 0 128.165 14.3642 1841 115.709 798.446 444.787
3887 0 129.153 13.8828 1793 119.251 799.008 442.404
3888 0 134.125 14.6058 1959 120.863 798.768 441.041
3889 0 138.14 15.021 2075 120.937 798.216 435.911
3890 0 140.239 13.6838 1919 126.722 797.644 432.098
3891 0 145.358 13.8829 2018 126.022 797.871 429.082
3892 0 148.286 14.0202 2079 126.703 797.742 427.375
3893 0 155.491 14.7854 2299 124.3 797.081 425.515
3894 0 159.237 14.4502 2301 125.145 797.301 422.105
3895 0 164.225 14.4558 2374 125.58 798.052 420.016
3896 0 166.338 13.6649 2273 128.486 798.016 416.018
3897 0 172.239 14.027 2416 127.519 797.929 417.427
3898 0 178.341 14.0237 2501 127.784 797.82 411.365
3899 0 186.277 15.5736 2901 122.645 797.838 409.447
3900 0 188.192 13.4916 2539 128.353 797.614 408.691
3901 0 196.194 14.5417 2853 126.123 797.222 401.454
3902 0 202.347 13.6103 2754 127.353 797.761 401.375
3903 0 212.282 13.8495 2940 124.899 796.955 398.724
3904 0 219.312 15.3343 3363 122.233 797.774 393.64
3905 0 229.351 14.7678 3387 123.563 797.256 387.509
3906 0 238.318 15.366 3662 122.597 797.764 383.413
3907 0 248.638 16.9121 4205 118.253 797.966 374.777
3908 0 252.353 14.8562 3749 123.174 798.331 378.378
3909 1 62.1237 11.5898 720 102.426 798.103 475.753
3910 0 64.1639 11.6732 749 102.557 798.784 478.494
3911 0 64.2508 12.3578 794 103.16 798.684 474.395
3912 0 67.2149 11.8575 797 104.952 799.242 473.804
3913 0 67.0779 11.2854 757 105.231 799.003 475.388
3914 0 69.0687 11.0614 764 106.637 799.145 473.686
3915 0 70.131 11.1078 779 108.139 799.376 472.154
3916 0 74.1307 11.1155 824 107.688 799.056 473.499
3917 0 77.092 12.2711 946 105.279 798.805 472.808
3918 0 79.1094 11.3514 898 107.664 798.424 471.472
3919 0 79.0475 12.1066 957 106.753 799.681 471.152
3920 0 82.0901 12.133 996 108.162 798.631 465.676
3921 0 84.1177 12.0664 1015 109.038 798.395 464.585
3922 0 88.1264 11.1885 986 111.699 798.786 462.414
3923 0 90.0506 11.6823 1052 110.727 798.857 465.618
3924 0 98.1604 16.6666 1636 97.0385 797.15 451.944
3925 0 97.1747 13.1619 1279 109.634 797.352 455.35
3926 0 99.2323 12.3649 1227 113.163 797.168 456.003
3927 0 104.159 12.4714 1299 113.388 797.133 457.674
3928 0 110.129 14.1198 1555 108.581 796.393 458.924
3929 0 113.251 12.5738 1424 113.243 797.287 455.444
3930 0 117.311 12.5649 1474 114.189 796.803 454.839
3931 0 122.392 13.5548 1659 113.192 797.2 451.502
3932 1 73.1817 12.1069 886 98.6061 797.585 476.385
3933 0 76.1318 11.8216 900 101.218 796.551 477.06
3934 0 79.1945 12.3998 982 99.5815 797.029 473.833
3935 0 81.1568 11.7427 953 102.076 796.665 471.927
3936 0 80.0992 11.4858 920 105.042 797.066 471.26
3937 0 81.1803 10.8647 882 106.689 797.104 470.757
3938 0 84.1013 12.806 1077 103.933 797.535 469.685
3939 0 85.165 10.92 930 109.056 797.752 470.212
3940 0 91.1888 12.1616 1109 107.338 797.812 469.087
3941 0 92.0977 12.617 1162 108.229 797.816 465.406
3942 0 94.2998 11.4316 1078 111.956 797.306 464.55
3943 0 95.2364 11.6132 1106 112.935 797.867 463.906
3944 0 102.152 12.7751 1305 111.323 798.316 462.629
3945 0 103.261 12.2215 1262 114.262 797.667 459.005
