time division length width area intensity CMx CMy
0 0 46.1399 12.1153 559 147.776 53.0322 481.868
1 0 49.1544 12.9592 637 143.416 54.2151 480.827
2 0 49.0917 13.0165 639 143.44 53.9155 480.862
3 0 51.1435 12.944 662 142.881 53.4063 481.453
4 0 50.1089 12.1735 610 150.177 53.8869 479.525
5 0 51.1179 12.6374 646 147.898 54.5015 480.416
6 0 54.1267 12.5631 680 146.628 53.7691 479.807
7 0 53.1432 12.7392 677 149.044 53.6854 479.885
8 0 56.1054 13.1182 736 146.564 54.0326 479.818
9 0 58.0678 12.4854 725 150.029 53.1545 477.672
10 0 60.0672 12.3362 741 149.378 53.5344 478.684
11 0 59.0513 12.5823 743 151.436 53.5518 478.503
12 0 62.1089 12.3976 770 151.132 53.5623 476.181
13 1 31.0195 10.5095 326 152.178 54.6258 492.923
14 0 32.0576 10.3252 331 155.438 53.2145 491.967
15 0 32.0276 11.1779 358 149.123 53.4274 490.796
16 0 33.0936 10.8178 358 138.492 54.1006 491.087
17 0 31.0315 10.1832 316 139.348 54.5411 489.623
18 0 33.3302 10.981 366 135.314 52.8852 488.746
19 0 35.0335 12.645 443 137.709 52.9729 491.494
20 0 37.1106 13.069 485 138.043 51.9278 490.711
21 0 39.1047 13.3232 521 135.559 52.2649 490.428
22 0 39.1795 12.7618 500 136.334 51.506 491.534
23 0 39.1012 12.8385 502 135.331 51.2928 492.082
24 0 41.1722 12.2656 505 135.925 50.895 490.725
25 0 43.1618 12.9513 559 131.585 51.3596 489.343
26 0 41.0564 12.3001 505 135.596 51.3881 490.121
27 0 43.0449 13.4278 578 127.955 51.5606 489.837
28 0 44.0973 12.7446 562 130.984 51.7651 488.103
29 0 47.094 13.8446 652 126.675 51.6227 487.963
30 0 47.0211 12.7177 598 130.786 51.7876 488.406
31 0 46.0551 12.0942 557 134.452 52.4973 488.117
32 0 51.0469 13.3407 681 127.451 51.8253 488.219
33 0 50.061 12.7844 640 130.844 51.6875 485.888
34 0 53.0452 12.9135 685 128.569 51.7518 486.149
35 0 56.0334 13.6704 766 124.932 51.4256 486.214
36 0 54.039 12.8796 696 129.58 51.4454 484.934
37 0 59.0481 13.2942 785 124.61 50.9911 484.068
38 0 59.1276 12.5999 745 127.905 50.4913 483.42
39 0 61.0987 12.7008 776 127.474 50.1057 483.161
40 0 62.0944 12.1267 753 129.477 50.6693 482.367
41 0 64.0882 13.0133 834 126.128 50.6391 481.098
42 0 67.1452 13.9697 938 122.134 50.7239 479.084
43 0 68.085 13.9825 952 122.648 50.9863 477.651
44 0 73.1514 14.6409 1071 119.342 50.282 476.506
45 0 75.2567 13.6865 1030 122.675 50.3883 474.759
46 0 78.1459 14.0762 1100 121.274 49.6782 473.567
47 0 81.2439 14.7457 1198 118.767 49.515 472.785
48 0 83.1387 14.2533 1185 123.273 49.7536 471.586
49 1 44.1146 11.7421 518 133.332 50.1988 491.176
50 0 44.079 12.6364 557 135.118 49.3591 489.334
51 0 48.0166 12.7872 614 132.684 49.8127 490.523
52 0 49.06 12.7803 627 133.335 48.9888 488.833
53 0 47.1711 11.9989 566 133.735 49.8852 490.049
54 0 50.0277 12.693 635 130.002 49.8157 487.619
55 0 54.0241 13.6421 737 124.796 49.5916 489.015
56 0 53.055 12.6096 669 130.105 49.1151 487.782
57 0 54.1137 12.9912 703 130 49.2176 486.203
58 0 57.0485 12.9188 737 128.469 48.8901 487.281
59 0 59.0692 11.7997 697 131.66 48.9283 486.053
60 0 60.0824 12.7991 769 129.423 49.277 484.534
61 0 63.0929 13.0443 823 128.679 49.1239 482.96
62 0 66.0627 13.5023 892 126.783 48.7242 481.369
63 0 71.0224 13.8407 983 122.969 48.8271 481.224
64 0 72.056 13.5034 973 123.672 48.4902 480.258
65 0 75.1486 13.7727 1035 124.326 49.4754 477.921
66 0 78.0708 12.8217 1001 127.167 49.5075 476.836
67 0 80.0468 13.0549 1045 126.253 49.1761 474.092
68 0 84.0685 12.9537 1089 125.787 49.3673 475.216
69 0 87.0967 12.687 1105 124.835 49.3394 474.828
70 0 92.0886 13.7259 1264 120.835 48.6234 473.403
71 1 48.0555 13.0682 628 123.981 49.2389 492.282
72 0 52.0845 12.6717 660 124.442 50.6318 489.483
73 0 50.1508 11.286 566 117.053 48.2827 477.419
74 0 50.0434 10.2711 514 118.951 49.3405 486.99
75 0 53.0215 13.2399 702 119.677 48.8162 489.521
76 0 54.0392 12.0283 650 123.577 49.1277 489.086
77 0 55.0887 12.0351 663 123.469 49.2881 487.635
78 0 56.0554 12.2914 689 122.655 49.2554 485.845
79 0 59.0267 13.8412 817 117.597 48.6438 486.16
80 0 62.0312 13.0257 808 118.756 48.2834 486.271
81 0 64.0305 12.2754 786 121.328 49.0483 484.667
82 0 65.0474 11.9144 775 121.738 48.9948 483.697
83 0 67.0758 12.5828 844 120.549 48.9727 482.218
84 0 69.0557 11.5125 795 122.137 49.3321 482.203
85 0 72.0839 13.1791 950 116.638 49.0179 478.785
86 0 75.0334 13.1008 983 116.594 48.295 479.116
87 0 78.0483 12.4923 975 117.582 49.161 477.788
88 0 79.053 12.5106 989 118.354 49.6006 476.332
89 0 84.1558 12.8809 1084 118.049 49.4972 473.539
90 0 85.1239 12.4407 1059 119.5 48.831 472.352
91 0 91.2062 14.2863 1303 114.317 49.0146 470.781
92 0 94.0767 12.9788 1221 119.269 48.5463 467.238
93 1 52.078 11.0987 578 121.635 49.1972 492.407
94 0 55.1824 13.5732 749 111.8 48.8865 490.632
95 0 55.1377 12.8587 709 116.986 48.2271 487.858
96 0 57.1064 12.4855 713 120.909 47.2973 488.616
97 0 58.0663 12.5546 729 121.139 47.6859 487.335
98 0 60.1578 12.8329 772 120.451 47.8627 486.308
99 0 61.062 13.5436 827 119.607 47.6191 484.675
100 0 65.059 12.9114 840 119.956 47.4036 484.08
101 0 66.0437 13.0217 860 120.141 46.9977 482.434
102 0 68.0879 13.321 907 118.564 47.3815 482.643
103 0 71.098 13.5869 966 117.104 47.8002 482.492
104 0 72.1025 12.926 932 119.58 47.5912 479.26
105 0 74.0583 12.9898 962 119.432 47.9304 478.384
106 0 78.1056 14.1731 1107 114.542 47.8672 478.125
107 0 79.0892 14.0854 1114 116.794 47.6382 475.529
108 0 83.1524 13.4692 1120 118.188 48.1062 474.738
109 0 86.2022 13.8047 1190 115.831 47.2924 472.962
110 0 89.1975 13.9914 1248 115.499 47.8421 471.416
111 0 90.148 12.6015 1136 120.092 47.5757 470.405
112 0 93.1121 12.9306 1204 119.259 47.0897 465.95
113 0 98.0663 14.2863 1401 114.226 47.1399 467.071
114 0 99.2547 13.4402 1334 116.875 47.4325 462.034
115 0 105.275 14.5808 1535 112.364 47.1772 461.547
116 0 106.329 12.3955 1318 112.942 48.0061 453.467
117 0 111.176 14.4546 1607 112.071 47.4599 456.823
118 1 57.0463 9.5887 547 115.154 47.8537 483.704
119 0 58.2493 10.6096 618 114.178 48.3236 479.901
120 0 62.083 11.0819 688 115.118 47.5756 482.106
121 0 65.0803 11.9698 779 119.901 46.448 482.275
122 0 67.0516 12.4531 835 118.98 47.097 479.368
123 0 68.036 11.979 815 121.323 46.8503 480.733
124 0 73.0636 12.9339 945 117.811 47.2212 478.986
125 0 74.0551 12.6663 938 120.767 46.7772 476.925
126 0 76.0547 12.3858 942 121.084 47.1019 477.261
127 0 82.1094 14.2371 1169 116.24 47.5329 475.855
128 0 83.1342 12.2453 1018 123.86 48.3232 473.395
129 0 86.1869 14.0393 1210 119.306 47.5537 472.888
130 0 90.2044 12.8708 1161 122.615 48.1421 470.481
131 0 93.0666 13.5817 1264 118.988 48.1867 470.624
132 0 94.0422 12.7709 1201 123.361 47.5512 468.527
133 0 99.1887 13.0761 1297 120.833 47.1264 467.072
134 0 101.104 13.5207 1367 116.787 47.2612 465.129
135 1 56.1613 11.1109 624 120.595 45.9135 487.319
136 0 56.1894 11.0697 622 116.793 47.6865 483.058
137 0 60.1511 11.787 709 111.941 46.4485 485.296
138 0 59.0238 11.2328 663 111.878 47.3243 485.751
139 0 61.0938 10.6557 651 111.708 48.0829 487.601
140 0 64.026 11.2454 720 109.883 48.5653 485.385
141 0 66.0413 11.1445 736 110.902 48.1467 484.087
142 0 68.1052 10.7774 734 113.287 49.0286 482.693
143 0 71.0714 11.3548 807 110.538 48.4932 481.537
144 0 75.1051 11.1044 834 111.1 48.4916 479.609
145 0 76.1164 11.6401 886 110.879 49.0666 478.109
146 0 79.0946 11.3788 900 111.107 48.7533 478.559
147 0 79.0928 11.7204 927 112.356 47.6375 476.357
148 0 84.4012 11.8719 1002 112.665 48.485 473.975
149 0 86.2134 12.3067 1061 111.688 48.1876 475.47
150 0 89.1259 11.983 1068 115.313 47.7097 471.69
151 0 92.1613 12.3588 1139 114.609 47.2976 469.594
152 0 96.1792 12.1336 1167 115.362 47.9366 470.593
153 0 98.1695 12.1728 1195 114.712 47.5464 468.925
154 0 99.2454 11.1239 1104 117.358 48.3143 468.892
155 0 103.175 12.1057 1249 115.5 47.4291 464.956
156 0 109.232 12.1943 1332 113.887 47.9489 461.637
157 0 112.4 11.1388 1252 116.76 48.0399 460.61
158 1 59.0904 12.2016 721 116.813 49.3703 484.893
159 0 61.0678 11.3808 695 119.973 48.3165 483.514
160 0 63.0998 12.6783 800 115.694 48.9088 482.02
161 0 65.1122 11.8718 773 119.828 48.3364 483.317
162 0 67.0781 12.4035 832 119.696 48.4543 482.054
163 0 68.0855 12.5577 855 119.956 48.6585 480.524
164 0 71.0271 13.1077 931 116.686 48.5338 479.385
165 0 74.0836 13.8357 1025 114.354 49.0868 478.071
166 0 76.063 14.2513 1084 112.73 49.6328 479.69
167 0 76.0275 12.4955 950 119.435 49.2758 475.643
168 0 81.1225 12.5366 1017 117.586 48.2861 474.42
169 0 83.0661 13.7962 1146 114.308 47.9991 472.489
170 0 87.0986 13.3297 1161 112.836 47.286 471.862
171 0 89.1096 12.883 1148 114.938 47.8049 470.352
172 0 91.1219 13.6301 1242 113.226 46.9992 469.254
173 0 95.2468 13.4598 1282 112.639 47.1193 467.559
174 0 98.1815 12.5176 1229 114.111 47.249 465.59
175 1 55.1705 10.4222 575 106.515 46.7513 489.63
176 0 54.0478 11.4158 617 102.112 47.1199 488.274
177 0 54.0693 10.6345 575 99.8157 48.08 486.242
178 0 56.0828 12.0001 673 99.2689 48.3804 485.152
179 0 59.0749 11.8494 700 99.6171 47.5057 484.984
180 0 58.1695 10.16 591 105.02 47.9086 484.714
181 0 61.0817 11.853 724 101.61 47.9544 482.373
182 0 62.0949 12.0461 748 100.503 48.1992 484.647
183 0 64.2092 10.9019 700 104.061 48.0443 481.997
184 0 65.1107 11.5035 749 103.658 47.9479 482.166
185 0 69.1492 11.7427 812 102.943 47.9323 480.369
186 0 70.161 11.4309 802 104.635 48.3566 479.878
187 0 73.104 12.5301 916 102.461 48.4825 481.18
188 0 74.2118 12.9225 959 103.435 47.7873 477.46
189 0 77.1903 11.7631 908 106.856 47.4824 476.372
190 0 80.1133 13.3436 1069 103.68 47.638 474.941
191 0 83.1153 13.8843 1154 103.098 47.078 475.142
192 0 84.2084 12.2316 1030 108.85 46.8874 468.98
193 0 86.2956 11.9241 1029 109.877 47.1156 470.451
194 0 90.1616 11.9896 1081 110.333 47.3728 469.115
195 0 94.2352 12.9357 1219 110.317 47.4906 464.086
196 0 97.2374 13.2357 1287 111.982 47.4367 465.567
197 0 99.1653 13.9162 1380 112.804 47.2 460.641
198 0 103.658 13.5445 1404 114.925 47.693 456.824
199 0 106.591 13.4252 1431 114.945 46.8791 453.884
200 0 111.237 14.159 1575 113.076 46.6083 455.061
201 1 56.1993 11.9041 669 110.83 46.5456 481.172
202 0 59.0928 12.2011 721 108.398 47.8003 483.46
203 0 59.0755 12.5602 742 107.699 48.4461 485.235
204 0 60.1019 12.4788 750 108.036 48.8187 484.171
205 0 63.1187 11.613 733 109.168 48.6453 484.241
206 0 65.0378 12.5465 816 107.955 48.7488 482.417
207 0 69.0857 12.3036 850 107.932 49.1024 482.578
208 0 69.0369 13.2248 913 106.38 48.3045 479.387
209 0 70.1046 11.8822 833 109.498 48 479.628
210 0 73.1173 13.3347 975 106.932 47.9754 476.504
211 0 77.0909 13.1014 1010 106.286 47.8465 476.299
212 0 80.1424 13.2015 1058 105.896 48.0841 478.282
213 0 80.1543 13.2993 1066 108.226 48.1435 475.42
214 0 84.1201 12.7199 1070 111.23 47.6953 473.024
215 0 88.0761 12.8071 1128 111.98 47.8715 471.112
216 0 88.3142 12.999 1148 113.781 47.4834 469.135
217 0 91.2367 12.769 1165 115.272 47.376 465.94
218 0 92.31 11.9272 1101 117.92 48.0963 466.374
219 0 97.3477 13.1898 1284 115.588 48.4424 465.664
220 0 101.369 12.6863 1286 117.481 48.2092 462.572
221 1 53.2164 11.4814 611 108.234 48.7365 487.036
222 0 57.2427 13.5039 773 103.444 49.1695 481.171
223 0 56.1556 12.8037 719 106.449 48.612 487.249
224 0 55.1212 11.4656 632 110.965 48.5997 486.665
225 0 59.0658 12.4438 735 107.55 48.6925 486.827
226 0 61.1443 12.2988 752 108.219 48.1689 484.644
227 0 64.0828 12.874 825 106.673 47.977 484.699
228 0 66.1394 12.3829 819 108.79 48.4542 483.714
229 0 69.1135 14.2519 985 104.389 48.3959 482.966
230 0 70.2005 13.2763 932 108.42 48.9227 480.432
231 0 72.0651 13.5294 975 107.981 48.7015 478.928
232 0 73.2846 11.6259 852 112.756 48.6162 480.494
233 0 74.326 12.2837 913 112.892 48.8992 479.646
234 0 79.1131 13.0825 1035 111.402 48.9411 476.649
235 0 80.2048 13.9144 1116 111.082 48.5529 473.994
236 0 83.1172 13.3306 1108 112.064 48.9233 474.493
237 0 86.1547 13.3829 1153 112.92 48.8959 472.134
238 0 91.0715 14.2635 1299 110.586 48.669 470.53
239 0 93.1873 14.0792 1312 113.081 48.6227 469.949
240 0 95.0965 13.5967 1293 115.194 48.5414 467.933
241 1 52.1262 10.724 559 117.508 49.2379 490.177
242 0 53.0901 11.8666 630 116.033 48.8444 487.989
243 0 57.1039 12.7312 727 113.1 48.2462 488.563
244 0 60.0937 13.6786 822 110.558 47.9562 482.073
245 0 62.1901 14.3592 893 112.829 48.8511 485.095
246 0 64.1692 13.3553 857 116.813 48.6534 483.767
247 0 64.2244 11.6778 750 123.095 48.3573 483.771
248 0 66.1512 13.2273 875 120.121 48.4446 479.951
249 0 71.1203 13.9623 993 116.463 48.4028 480.874
250 0 71.1705 13.6995 975 119.059 48.6831 478.879
251 0 71.155 13.2949 946 121.665 48.4345 477.905
252 0 73.1093 12.8438 939 123.018 48.0362 476.806
253 0 75.259 13.2343 996 121.58 47.1265 475.996
254 0 78.0858 12.5887 983 122.854 47.5758 475.476
255 0 83.225 14.2385 1185 118.641 47.9468 471.977
256 0 83.2093 13.0634 1087 118.116 47.9338 470.915
257 0 85.1871 13.0184 1109 120.182 48.3345 469.543
258 0 91.0991 12.8541 1171 116.954 48.5816 468.871
259 0 90.2316 13.1661 1188 118.444 48.5286 466.407
260 0 95.2461 13.3024 1267 117.144 47.7766 462.931
261 0 99.1168 13.4387 1332 117.808 47.2312 457.572
262 0 100.149 13.1804 1320 118.652 47.2788 462.653
263 0 104.307 13.1631 1373 119.149 47.6977 458.787
264 0 108.161 14.4877 1567 115.844 46.6573 455.853
265 1 57.14 10.343 591 114.362 46.1387 485.32
266 0 60.1405 12.8699 774 109.611 47.0491 482.921
267 0 60.0958 12.6465 760 109.579 47.6224 483.742
268 0 64.0185 13.4492 861 106.34 48.4297 483.085
269 0 64.0655 12.6121 808 108.601 48.5582 483.681
270 0 67.1191 12.4257 834 110.279 48.054 480.664
271 0 71.1144 13.3588 950 106.964 48.5863 480.092
272 0 71.0837 12.5767 894 108.635 48.7841 481.398
273 0 74.1794 13.1573 976 107.972 48.584 477.738
274 0 76.1432 13.3827 1019 107.25 48.7282 476.662
275 0 79.1749 13.6912 1084 107.122 48.3828 475.052
276 0 82.1023 12.7037 1043 109.531 48.2943 474.099
277 0 86.121 13.5855 1170 107.515 48.6564 472.831
278 0 88.1903 13.5616 1196 109.524 49.163 470.579
279 0 91.2055 12.6966 1158 113.38 48.2124 460.744
280 0 95.2127 13.7587 1310 110.973 48.2779 465.369
281 0 98.118 12.6073 1237 113.158 48.8367 469.45
282 0 101.12 12.6483 1279 116.383 49.1134 467.948
283 0 101.242 11.9516 1210 120.198 48.0273 464.96
284 0 106.238 13.4509 1429 117.599 48.5913 462.81
285 0 109.278 14.0284 1533 114.595 47.7508 459.49
286 0 112.125 13.4582 1509 115.353 48.0384 460.763
287 0 116.273 12.6771 1474 116.83 47.6119 457.477
288 1 58.0505 12.2652 712 112.001 48.4129 486.237
289 0 59.064 11.4791 678 117.569 49.115 485.524
290 0 61.0748 12.6075 770 114.327 48.7221 484.171
291 0 63.1674 13.108 828 104.085 48.8804 483.693
292 0 64.0361 13.3362 854 104.413 47.9016 482.704
293 0 67.0533 12.8256 860 104.937 47.8709 482.522
294 0 70.2201 12.4751 876 106.803 47.4874 481.225
295 0 71.0983 12.3632 879 107.473 47.8544 481.503
296 0 72.1053 11.1781 806 110.581 47.9429 480.378
297 0 75.0946 12.1314 911 109.124 48.0779 479.562
298 0 76.0714 11.0028 837 108.906 47.8722 476.973
299 0 78.0884 12.9853 1014 105.681 47.3866 474.511
300 0 81.046 12.2276 991 107.15 47.7124 474.313
301 0 84.1105 13.2683 1116 108.636 47.5269 473.895
302 0 85.1171 12.0422 1025 113.347 47.4146 471.957
303 0 90.0541 12.8256 1155 111.235 46.8805 471.87
304 0 92.1347 12.9593 1194 113.299 47.0427 470.218
305 0 95.1416 12.4551 1185 111.949 47.2819 465.482
306 0 98.2067 13.2476 1301 109.964 47.9616 468.58
307 0 99.187 13.0057 1290 111.863 47.3233 466.767
308 0 104.147 13.7498 1432 110.598 47.0573 464.892
309 0 108.173 12.8405 1389 112.966 47.8553 461.425
310 0 111.303 12.1111 1348 116.036 46.7886 461.091
311 0 114.285 13.9038 1589 116.171 46.9106 453.436
312 0 121.33 14.1185 1713 114.489 47.3584 454.664
313 1 66.1632 11.7437 777 106.526 47.242 483.828
314 0 66.1604 10.2478 678 111.686 47.5885 480.538
315 0 68.0372 11.8171 804 111.407 47.5908 481.269
316 0 71.0528 12.0615 857 110.016 47.2322 480.915
317 0 72.0973 11.6093 837 113.492 47.3728 479.013
318 0 76.1386 11.8862 905 112.99 47.8243 473.29
319 0 79.164 12.9604 1026 111.435 47.7573 476.744
320 0 82.1631 12.5482 1031 113.263 47.3957 474.94
321 0 83.1404 12.3646 1028 115.055 47.1235 474.651
322 0 86.2172 12.0858 1042 117.165 47.6411 472.511
323 0 91.3552 12.6867 1159 116.299 47.5289 469.644
324 0 91.3294 10.9822 1003 121.778 46.7278 466.917
325 0 96.3666 12.0685 1163 117.96 47.1195 468.79
326 0 99.2272 11.3376 1125 120.923 47.1929 465.373
327 0 101.248 11.4669 1161 120.238 47.522 466.393
328 0 105.188 12.0451 1267 118.762 47.0616 463.601
329 0 111.191 12.0783 1343 116.804 47.6195 462.634
330 1 55.0603 11.3512 625 112.443 47.2528 490.384
331 0 56.0698 11.9316 669 119.374 46.4574 488.794
332 0 56.1627 11.805 663 111.284 48.7858 487.306
333 0 60.113 12.7759 768 108.105 48.2891 486.326
334 0 63.1498 12.2882 776 109.771 48.7268 484.603
335 0 65.1489 12.2642 799 109.11 48.9412 486.262
336 0 67.243 11.912 801 111.298 47.8577 483.381
337 0 69.1304 12.4981 864 111.525 48.7153 480.117
338 0 70.1262 12.3492 866 113.01 48.9018 481.054
339 0 73.1313 12.5528 918 114.782 48.0458 479.225
340 0 75.1503 12.3486 928 118.943 47.4213 479.367
341 0 78.1535 13.5247 1057 112.372 48.1334 476.997
342 0 78.1472 13.0395 1019 114.935 48.4043 475.203
343 0 82.1113 13.2016 1084 114.031 48.6024 475.824
344 0 84.2231 12.8468 1082 114.638 48.9917 476.865
345 0 88.1569 13.0563 1151 115.956 49.0895 473.224
346 0 90.1558 13.1772 1188 118.712 48.8476 470.939
347 0 93.1537 12.6136 1175 119.374 49.3821 471.999
348 0 95.0536 13.1505 1250 120.174 48.7816 468.398
349 0 97.1332 12.3336 1198 124.423 49.6561 467.078
350 1 55.054 11.7884 649 115.834 50.3205 487.767
351 0 56.0612 12.0761 677 118.164 49.9616 489.027
352 0 58.0284 12.649 734 115.132 49.7534 487.948
353 0 56.176 11.4284 642 116.917 49.0047 487.531
354 0 60.0853 12.865 773 112.565 48.9961 487.339
355 0 60.1248 12.2911 739 115.384 49.1272 485.652
356 0 62.1872 12.1568 756 115.052 48.6799 486.767
357 0 63.1089 12.4864 788 114.976 48.1967 485.297
358 0 66.1135 12.7659 844 113.564 48.1765 483.717
359 0 69.2146 12.5841 871 113.966 49.1091 482.82
360 0 71.0435 12.7105 903 114.608 48.5748 482.464
361 0 72.1802 12.4134 896 114.32 48.7634 482.346
362 0 75.0414 12.9662 973 113.963 48.7862 479.895
363 0 76.1026 12.7065 967 116.245 49.5326 477.455
364 0 80.2457 12.7857 1026 114.999 49.3382 476.319
365 0 81.1539 12.6673 1028 117.583 48.4805 476.335
366 0 86.2148 12.6544 1091 117.093 48.2612 475.749
367 0 88.134 13.4908 1189 115.944 49.1817 472.58
368 0 91.0288 13.0838 1191 118.439 49.817 472.844
369 0 93.1034 12.0404 1121 123.243 49.4674 470.176
370 0 98.141 12.9609 1272 123.509 48.9646 455.075
371 0 100.203 13.1034 1313 122.463 49.9307 465.471
372 1 51.1849 10.804 553 119.121 50.5461 490.532
373 0 52.1621 10.7166 559 119.623 50.0519 490.744
374 0 56.1019 11.9782 672 115.521 49.6443 488.378
375 0 60.1205 12.9407 778 112.668 49.4512 487.577
376 0 61.028 12.0928 738 114.058 48.3117 488.175
377 0 63.0827 11.9684 755 114.407 48.6967 487.556
378 0 64.063 12.597 807 113.211 48.0446 484.367
379 0 65.1103 12.5479 817 113.268 47.8837 484.693
380 0 69.0808 12.2755 848 112.705 48.4233 483.066
381 0 73.0656 13.3168 973 109.004 48.3772 483.366
382 0 74.116 12.8447 952 111.995 49.1744 480.628
383 0 77.0965 11.972 923 113.704 49.0152 478.349
384 0 81.2067 13.2255 1074 110.682 48.8445 478.704
385 0 82.0589 13.4294 1102 111.158 48.8067 475.888
386 0 84.0892 12.2727 1032 114.646 49.0669 475.878
387 0 89.1447 13.0238 1161 113.281 49.4737 473.019
388 0 93.1572 12.5165 1166 112.77 49.6398 474.678
389 1 43.1362 11.1044 479 116.405 49.785 495.054
390 0 47.043 12.2016 574 113.233 49.3641 494.598
391 0 48.0168 12.8497 617 113.525 49.4733 493.353
392 0 49.0411 12.9891 637 117.779 50.0738 491.636
393 0 48.0883 12.6642 609 117.054 49.1872 492.892
394 0 50.038 11.1315 557 121.176 49.7092 492.21
395 0 53.125 13.2329 703 114.437 49.8748 485.128
396 0 54.0653 12.4849 675 116.793 49.1111 491.197
397 0 55.0383 11.8645 653 118.884 48.9464 490.534
398 0 57.1046 12.5559 717 117.688 49.5411 489.194
399 0 56.0188 11.871 665 120.475 49.3098 487.88
400 0 60.0376 13.7914 828 114.187 49.5048 486.979
401 0 62.039 12.5566 779 116.769 48.7163 487.108
402 0 63.2153 13.715 867 116.06 48.2007 484.423
403 0 66.1175 14.0054 926 113.864 48.2127 484.509
404 0 68.1249 13.2991 906 115.982 48.5728 483.586
405 0 69.0981 14.2985 988 114.447 48.0395 482.635
406 0 72.0883 13.4973 973 116.982 48.1686 480.956
407 0 73.0991 13.0918 957 119.916 48.2842 480.049
408 0 76.0916 14.338 1091 117.247 48.6022 478.998
409 0 78.0524 14.7337 1150 117.587 48.4087 476.032
410 0 80.1229 13.8787 1112 120.555 48.6978 475.206
411 0 83.1385 14.0248 1166 121.827 49.1252 473.559
412 0 87.0646 14.8166 1290 119.562 48.3419 473.915
413 0 88.0768 14.5328 1280 122.327 49.0562 470.296
414 0 92.0874 15.3441 1413 119.944 47.8627 469.599
415 0 94.0999 13.0818 1231 127.636 48.3745 468.137
416 0 98.0469 13.5955 1333 124.677 48.2896 467.965
417 1 53.0661 11.4574 608 127.431 47.7681 489.613
418 0 57.0143 13.1371 749 122.741 47.5247 488.418
419 0 58.0647 13.2266 768 124.854 48.2357 487.803
420 0 57.0669 12.9322 738 126.318 47.9444 489.07
421 0 61.0216 13.9295 850 121.753 47.9894 488.416
422 0 63.0469 14.3544 905 120.933 48.547 485.343
423 0 65.1007 13.9169 906 121.513 49.0199 486.211
424 0 67.0759 14.6252 981 119.93 48.5851 484.602
425 0 69.132 14.5519 1006 119.814 48.0209 483.33
426 0 71.0173 14.3064 1016 121.095 48.8947 482.781
427 0 72.0515 14.0871 1015 122.536 48.6177 479.105
428 0 77.0995 13.2037 1018 122.695 48.2554 480.886
429 0 80.0567 14.065 1126 122.401 48.3259 478.731
430 0 81.1653 13.454 1092 121.431 48.652 478.961
431 0 85.052 14.6969 1250 119.21 48.8488 476.505
432 0 88.0647 14.9549 1317 117.053 49.0273 474.581
433 0 89.1164 14.4306 1286 120.596 49.1563 461.799
434 0 94.1616 14.5388 1369 117.356 49.8101 469.199
435 1 51.1301 11.7543 601 122.837 48.0483 493.784
436 0 51.0215 12.0734 616 124.807 48.914 491.653
437 0 51.0523 12.4774 637 118.975 48.4144 491.228
438 0 53.0942 13.2783 705 114.309 49.0596 491.855
439 0 54.0167 13.9401 753 113.004 48.2988 491.523
440 0 58.0719 14.4476 839 111.312 49.0846 489.853
441 0 60.0525 14.4873 870 110.064 48.6563 489.78
442 0 60.0463 15.0717 905 111.238 48.6265 487.105
443 0 62.0456 13.619 845 114.669 48.4071 486.52
444 0 64.0922 12.8877 826 117.108 48.6053 485.889
445 0 67.1109 14.2004 953 111.882 49.2571 485.932
446 0 69.082 14.4756 1000 111.371 49.322 483.264
447 0 69.0581 13.3366 921 114.536 49.2486 482.951
448 0 73.0995 14.2819 1044 110.79 49.7874 481.67
449 0 75.0714 13.667 1026 112.919 49.6355 479.626
450 0 78.0745 13.231 1033 113.933 48.7067 480.288
451 0 81.1163 12.7348 1033 114.531 49.1191 478.272
452 0 83.2252 12.5443 1044 114.145 50.1015 475.725
453 1 43.1187 10.7146 462 115.632 49.4199 497.219
454 0 43.0933 11.3475 489 114.46 49.0041 495.014
455 0 46.0467 13.3777 616 110.12 50.0649 494.331
456 0 46.0789 12.1531 560 112.641 49.0179 494.639
457 0 48.0465 12.6544 608 111.329 49.9309 493.442
458 0 50.0996 12.555 629 111.569 48.8633 492.337
459 0 49.1176 11.5844 569 114.861 49.2074 492.856
460 0 51.08 13.2146 675 110.944 49.4326 490.077
461 0 55.0811 13.2532 730 109.399 49.7986 490.507
462 0 54.0798 12.2227 661 112.893 49.003 488.758
463 0 57.1175 13.3759 764 110.234 50.0419 488.056
464 0 59.1224 13.5482 801 109.609 49.9588 486.801
465 0 60.063 11.388 684 112.924 50.0088 488.022
466 0 63.1531 14.1086 891 107.301 49.5398 484.669
467 0 65.1159 11.7329 764 112.257 49.8626 484.729
468 0 68.2643 13.7847 941 108.345 49.8002 481.957
469 0 70.1601 13.2696 931 110.719 49.8077 483.178
470 0 72.1996 13.1303 948 112.301 49.6139 481.526
471 0 74.1769 12.9825 963 113.67 49.4818 481.272
472 0 78.2908 13.5393 1060 111.038 50.0972 480.789
473 0 80.2185 14.3109 1148 111.873 49.5078 476.922
474 0 82.3503 13.5519 1116 114.866 49.4848 475.071
475 0 86.431 13.7798 1191 112.962 49.8413 474.889
476 0 91.3795 14.3905 1315 111.652 50.3757 471.314
477 1 47.2836 13.345 631 115.352 49.5674 493.048
478 0 47.1161 13.8806 654 107.226 50.0566 493.901
479 0 50.1231 13.0479 654 107.607 50.4251 494.213
480 0 51.2025 12.8314 657 108.225 49.8402 492.766
481 0 52.1044 13.5113 704 107.202 49.0582 492.807
482 0 54.1252 13.0438 706 109.467 49.9816 491.926
483 0 57.1719 13.5731 776 107.892 49.5928 490.608
484 0 60.2196 14.2811 860 105.555 50.0895 489.336
485 0 59.2178 13.5939 805 109.058 50.3006 488.442
486 0 61.1232 12.4339 760 111.658 50.2487 488.861
487 0 65.2561 12.7191 830 111.234 50.7337 485.957
488 0 66.1514 13.3028 880 110.433 50.6864 484.538
489 0 68.2497 13.348 911 110.138 49.5993 483.595
490 0 72.1655 13.2058 953 110.68 49.7975 482.57
491 0 75.1607 14.1297 1062 109.398 49.9407 480.649
492 0 77.1889 13.6419 1053 110.75 50.037 479.651
493 0 80.1029 12.8959 1033 115.287 49.908 477.323
494 1 38.2352 12.1877 466 115.543 49.4034 498.723
495 0 41.2274 11.7155 483 116.714 49.2257 497.509
496 0 42.0957 12.8992 543 115.446 49.7109 495.166
497 0 45.0382 13.6773 616 109.841 50.8864 495.065
498 0 46.0425 11.9455 550 115.691 50.3945 495.871
499 0 48.0524 14.0056 673 110.963 49.9718 494.299
500 0 49.0913 13.3628 656 115.503 50.6418 494.576
501 0 50.2427 12.8178 644 121.818 50.6894 492.388
502 0 53.0897 13.8822 737 118.44 49.7585 490.977
503 0 55.1161 13.1359 724 122.599 51.1119 490.605
504 0 55.1271 13.0426 719 122.882 50.3894 491.246
505 0 58.0519 13.4535 781 121.805 50.2996 489.552
506 0 60.1876 12.9429 779 122.249 50.7972 490.443
507 0 63.1036 13.1054 827 122.097 50.717 488.544
508 0 62.1272 12.3134 765 126.081 50.8196 488.361
509 0 66.1193 13.2034 873 123.876 51.2898 487.373
510 0 66.1537 13.1663 871 125.454 50.0987 485.569
511 0 71.1849 15.0594 1072 118.576 50.0896 484.842
512 0 73.1648 14.0505 1028 123.27 50.5788 482.646
513 0 75.1575 14.4763 1088 123.903 50.2518 481.261
514 0 78.4052 14.7694 1158 123.958 49.8739 479.339
515 0 82.183 14.1513 1163 123.988 49.5847 478.144
516 0 83.1512 13.8543 1152 127.168 49.4158 474.228
517 0 85.3273 13.9697 1192 126.443 49.1057 473.206
518 0 88.3382 13.0974 1157 131.029 49.0389 471.411
519 0 93.4511 13.5044 1262 131.677 49.2116 469.812
520 0 96.2878 14.4463 1391 128.487 49.2193 466.533
521 0 100.428 13.4923 1355 131.227 48.3542 462.883
522 0 102.215 14.3717 1469 129.758 48.7835 451.872
523 1 53.0405 12.8769 683 127.987 48.451 485.069
524 0 56.1176 13.6856 768 124.208 49.1458 477.044
525 0 57.1459 13.7543 786 124.214 49.4796 486.272
526 0 57.3686 12.533 719 128.75 48.7566 486.122
527 0 62.2611 13.7325 855 123.394 49.0468 485.67
528 0 63.417 14.3968 913 123.581 49.1117 483.095
529 0 67.318 13.4585 906 125.126 49.0397 478.624
530 0 68.1736 13.8617 945 124.135 48.9471 478.653
531 0 69.4511 13.8371 961 126.528 49.3798 476.513
532 0 72.2728 13.8503 1001 126.516 48.7552 477.451
533 0 76.3059 13.8914 1060 126.695 48.5962 476.8
534 0 77.286 13.9741 1080 127.933 48.9324 474.806
535 0 81.1651 13.9592 1133 127.554 48.6364 473.508
536 0 83.424 13.7011 1143 128.046 48.7069 472.977
537 0 86.4239 14.4057 1245 125.684 48.392 469.792
538 0 88.3813 13.487 1192 128.315 48.6602 470.326
539 0 93.206 13.7008 1277 128.245 48.9554 467.115
540 0 95.2687 13.1208 1250 129.283 48.7712 468.504
541 0 101.378 14.4114 1461 123.958 48.6687 467.086
542 1 49.3566 12.5009 617 124.253 48.9368 488.989
543 0 51.2283 12.7859 655 124.182 49.0137 489.737
544 0 52.0497 12.7378 663 127.17 48.9397 490.318
545 0 55.2239 13.7078 757 124.869 48.9881 489.804
546 0 56.1035 13.7425 771 125.316 48.6822 488.187
547 0 58.305 12.709 741 129.248 49.0405 486.163
548 0 62.2604 13.6523 850 125.707 49.4576 483.439
549 0 64.2437 13.1063 842 127.795 49.2957 482.266
550 0 65.1974 13.0527 851 130.055 49.6287 481.792
551 0 67.3981 12.4929 842 132.855 49.5511 479.945
552 0 70.2178 13.3157 935 131.677 49.5968 479.657
553 0 73.4199 14.0561 1032 129.012 48.5136 478.987
554 0 74.2943 12.7601 948 135.699 49.1139 476.475
555 0 78.2248 14.0237 1097 130.488 48.8778 476.853
556 0 82.2612 14.6363 1204 131.183 48.4103 473.098
557 0 85.3993 14.6488 1251 131.63 48.458 471.266
558 0 87.2525 13.9136 1214 133.97 48.2834 469.505
559 0 92.2779 14.944 1379 131.65 48.9819 467.672
560 0 96.194 14.0965 1356 133 48.6497 468.016
561 1 50.3156 11.5272 580 134.778 48.8241 489.174
562 0 52.2221 13.1362 686 131.55 48.5029 487.35
563 0 54.2778 12.9519 703 132.92 48.5846 482.768
564 0 55.0895 12.3436 680 135.815 50.6235 490.053
565 0 56.0398 13.9008 779 134.104 50.5866 488.017
566 0 58.0741 12.8112 744 137.421 50.1667 487.47
567 0 60.0512 12.8723 773 137.367 50.1164 485.349
568 0 61.047 12.5641 767 139.267 50.1512 485.709
569 0 67.1189 13.3494 896 134.19 50.5312 485.198
570 0 67.0638 12.7342 854 138.143 50.1475 484.091
571 0 69.1286 13.2507 916 137.08 50.1594 483.345
572 0 72.1125 13.1877 951 138.015 50.183 480.781
573 0 75.1676 13.4632 1012 137.364 50.2105 480.299
574 0 79.1273 12.9791 1027 137.073 50.1363 480.721
575 0 78.3997 12.7552 1000 140.591 49.787 477.547
576 0 82.3039 14.5315 1196 135.196 49.24 475.496
577 0 84.3517 13.337 1125 139.086 49.928 474.48
578 0 86.178 13.623 1174 139.179 49.9881 472.535
579 0 88.2669 12.938 1142 140.612 49.0079 472.802
580 0 92.3125 13.3243 1230 140.005 48.9073 469.212
581 0 96.3371 13.5877 1309 139.632 49.162 467.393
582 0 99.4396 14.3303 1425 137.769 49.1846 466.097
583 0 102.364 14.0284 1436 138.744 49.2103 464.04
584 0 105.423 13.0142 1372 141.446 49.6647 461.934
585 0 108.365 14.6265 1585 138.093 49.6599 457.315
586 0 113.448 14.0769 1597 139.456 50.0895 455.869
587 0 118.419 14.2291 1685 138.985 50.0231 454.986
588 0 121.416 14.8992 1809 136.712 50.393 453.091
589 0 126.505 13.96 1766 140.337 50.3964 448.258
590 0 129.454 13.3483 1728 141.709 50.3547 445.158
591 1 70.4041 11.7607 828 136.041 50.5773 475.835
592 0 72.3852 12.7374 922 133.823 50.0662 474.599
593 0 75.1916 13.0201 979 130.868 50.4821 480.323
594 0 78.1496 12.7064 993 131.765 49.9416 478.218
595 0 78.1833 12.266 959 131.977 50.4995 478.032
596 0 83.1323 11.2712 937 126.721 49.3746 474.037
597 0 82.1519 11.5031 945 127.295 49.4265 472.333
598 0 86.0883 11.8599 1021 126.542 48.9657 472.016
599 0 89.1988 12.702 1133 126.336 49.293 470.148
600 0 92.1633 12.7925 1179 126.229 49.0721 468.948
601 0 96.1588 12.2402 1177 127.709 49.5098 469.956
602 0 98.119 12.974 1273 127.789 49.4713 466.511
603 0 101.15 13.2279 1338 124.227 49.6046 467.682
604 0 106.184 12.7608 1355 126.246 49.2863 461.904
605 0 110.18 12.4887 1376 125.268 49.3641 462.927
606 1 61.217 11.6471 713 120.208 49.7363 485.104
607 0 63.3369 12.1256 768 118.913 49.194 482.831
608 0 64.2579 11.9363 767 121.417 49.7014 482.811
609 0 69.3066 13.5052 936 125.986 50.2949 480.855
610 0 68.0737 11.9136 811 128.36 50.0358 479.236
611 0 70.0893 12.0132 842 126.561 49.1734 481.486
612 0 72.0864 11.2365 810 127.872 49.7198 478.593
613 0 74.101 11.5788 858 127.862 49.493 477.183
614 0 77.2514 12.2457 946 125.866 49.0793 475.848
615 0 82.1556 13.1823 1083 122.705 49.024 474.978
616 0 82.1237 12.1768 1000 126.197 48.936 475.304
617 0 86.1037 12.1249 1044 126.296 48.8736 472.986
618 0 90.1841 12.9624 1169 122.464 48.8212 472.536
619 0 90.1255 11.9056 1073 125.259 49.4604 471.018
620 0 95.0899 12.5776 1196 124.61 49.5084 468.982
621 0 98.2414 12.4693 1225 125.166 49.5339 466.734
622 0 101.124 13.083 1323 122.945 49.2162 465.07
623 1 50.0323 11.3127 566 117.166 49.3675 492.701
624 0 51.0352 12.0505 615 116.915 48.9333 489.663
625 0 54.0865 11.7959 638 116.513 49.3683 491.036
626 0 55.1209 12.7175 701 120.826 49.3167 489.037
627 0 54.1301 12.1744 659 125.404 49.2291 488.414
628 0 58.0513 13.712 796 120.094 48.9121 488.157
629 0 60.0591 13.4201 806 121.151 50.0285 484.975
630 0 63.0815 13.3637 843 120.338 48.9834 486.452
631 0 64.0857 12.4521 798 124.046 49.609 485.207
632 0 66.0267 13.2068 872 123.474 49.3521 482.103
633 0 65.0709 12.2943 800 129.256 49.225 483.468
634 0 71.0607 13.6503 970 124.563 49.9041 481.653
635 0 72.0845 14.0668 1014 126.695 49.1055 480.319
636 0 74.0639 13.0158 964 130.71 48.9782 479.883
637 0 75.0583 12.7634 958 133.864 49.1743 477.877
638 0 78.0738 13.436 1049 131.791 49.5377 476.888
639 0 81.1418 13.9509 1132 131.455 48.4231 473.262
640 0 83.1204 13.3782 1112 133.57 47.2203 474.465
641 0 86.0622 13.8853 1195 133.796 48.0318 472.657
642 0 90.0702 13.867 1249 131.594 47.2538 474.338
643 0 92.2128 13.8159 1274 135.381 47.9113 468.548
644 0 95.1299 14.107 1342 134.958 47.9232 469.217
645 0 99.1327 14.4856 1436 135.049 47.9812 466.579
646 0 102.077 13.9698 1426 135.972 48.1353 466.024
647 1 56.1345 10.8668 610 130.464 49.1623 487.2
648 0 56.2301 11.0261 620 125.732 49.4226 482.987
649 0 59.1081 11.2167 663 124.75 49.8597 482.024
650 0 60.174 11.0679 666 118.074 49.2087 482.932
651 0 62.1309 12.3127 765 116.863 49.4405 481.311
652 0 63.1728 10.2101 645 122.468 49.7132 481.09
653 0 67.1708 12.3863 832 125.056 49.2139 484.974
654 0 68.2253 12.4441 849 127.244 49.9293 483.74
655 0 70.1052 11.6824 819 130.032 49.8388 482.989
656 0 74.1985 12.9517 961 126.202 49.8023 481.607
657 0 76.1772 13.2454 1009 125.72 49.8583 479.97
658 0 78.1093 12.9434 1011 126.694 49.1691 479.81
659 0 78.1202 12.8776 1006 127.512 49.172 478.075
660 0 83.2218 13.1456 1094 126.148 49.3437 476.149
661 0 84.1661 13.1644 1108 126.582 49.7283 474.214
662 0 89.1953 13.4312 1198 124.508 48.793 472.674
663 0 92.1318 13.459 1240 123.573 49.4605 471.669
664 0 94.1029 12.3163 1159 125.856 49.4116 470.67
665 0 96.1237 12.1302 1166 124.623 49.4228 468.024
666 0 100.118 12.5452 1256 123.443 49.8336 466.463
667 1 54.0288 11.1607 603 120.191 51.063 491.695
668 0 56.0473 10.5625 592 113.78 50.4206 489.966
669 0 58.0629 12.2281 710 118.449 50.9352 488.67
670 0 59.067 12.1557 718 113.426 51.0905 488.35
671 0 62.0976 11.8523 736 113.068 49.9755 488.067
672 0 63.1238 12.7369 804 110.061 49.6032 487.698
673 0 63.117 11.7876 744 114.269 50.6774 484.214
674 0 67.1397 12.6155 847 110.607 49.3577 484.812
675 0 68.0306 11.5977 789 113.731 49.4639 484.133
676 0 70.069 11.6171 814 114.553 49.2346 483.405
677 0 71.101 12.5033 889 113.143 49.3678 480.867
678 0 74.217 12.8542 954 112.267 49.9748 481.543
679 0 78.1197 12.9033 1008 111.792 49.6925 478.922
680 0 80.2018 12.693 1018 112.338 49.2141 479.296
681 0 81.1387 12.4601 1011 113.856 48.4787 477.522
682 0 83.2078 12.3426 1027 114.338 49.3447 478.808
683 0 84.1358 11.9687 1007 116.217 49.0149 476.514
684 0 88.1596 11.8648 1046 117.016 49.7562 474.61
685 0 92.0809 13.6185 1254 113.062 49.9003 472.211
686 0 93.0863 12.4938 1163 116.277 49.374 471.122
687 0 97.1175 12.3253 1197 120.29 50.0008 469.579
688 0 99.1909 12.6221 1252 116.227 49.2077 469.766
689 0 102.165 12.4505 1272 120.063 48.9811 466.786
690 0 106.127 12.1929 1294 117.428 48.8315 466.654
691 1 54.0626 11.8381 640 111.958 49.4016 490.956
692 0 56.2406 11.6464 655 113.644 49.6427 490.237
693 0 59.1269 12.2279 723 114.567 48.9059 487.111
694 0 61.1076 11.4552 700 113.397 48.7443 490.523
695 0 62.0284 11.0433 685 115.718 49.1051 488.699
696 0 62.298 11.6537 726 116.164 47.6474 486.455
697 0 65.1515 12.4326 810 113.864 48.3185 485.805
698 0 67.1332 12.438 835 114.317 48.3186 483.832
699 0 67.1127 11.9053 799 116.186 48.4243 484.437
700 0 72.2156 12.1719 879 115.276 48.7088 482.44
701 0 75.1188 12.4736 937 115.757 49.2465 480.531
702 0 78.2037 12.672 991 115.172 48.7497 479.459
703 0 81.126 11.9937 973 116.868 49.3762 477.545
704 0 82.2726 11.4497 942 118.412 49.3577 477.148
705 0 86.2086 11.2402 969 117.637 49 473.82
706 0 90.2329 12.3902 1118 115.16 49.6315 472.039
707 0 92.1105 12.4307 1145 117.712 49.2052 470.703
708 1 45.0997 11.7296 529 112.087 50.172 494.138
709 0 47.1104 12.1841 574 112.064 49.6672 493.491
710 0 47.096 11.0838 522 115.592 50.1149 492.619
711 0 50.0429 13.5883 680 108.287 49.6485 491.963
712 0 50.1553 11.5242 578 113.118 49.8045 492.057
713 0 51.1669 11.2768 577 114.341 49.2842 489.91
714 0 54.1482 11.8379 641 111.807 49.4134 489.268
715 0 55.1337 12.2248 674 111.736 49.2404 487.712
716 0 58.1145 12.6647 736 110.288 49.3913 488.364
717 0 59.1241 12.7697 755 111.343 49.8636 487.877
718 0 61.1771 13.3547 817 111.234 49.9229 485.884
719 0 62.2203 12.3754 770 114.558 49.2701 486.412
720 0 65.4064 12.0019 785 117.983 49.9503 484.575
721 0 67.3166 12.5081 842 123.648 49.7126 481.907
722 0 70.1547 12.4012 870 124.029 49.408 483.154
723 0 71.3186 12.4932 891 124.798 49.0101 480.553
724 0 74.4527 12.921 962 123.221 48.6372 480.519
725 0 76.292 13.6843 1044 122.534 48.5939 477.702
726 0 79.4865 12.8827 1024 124.917 48.2168 477.034
727 0 82.6988 13.132 1086 124.878 48.4429 474.26
728 0 86.5247 14.204 1229 122.522 48.6314 472.525
729 0 88.4705 13.1343 1162 127.174 48.0775 470.715
730 0 90.5059 13.8334 1252 124.797 48.0455 469.494
731 1 45.2761 12.1256 549 120.406 48.6758 492.821
732 0 47.2969 11.967 566 123.534 48.8375 490.648
733 0 50.0637 12.2843 615 122.945 48.5512 491.423
734 0 50.0597 12.3652 619 122.213 48.9499 494.465
735 0 53.0777 12.7737 678 122.445 49.0369 492.468
736 0 54.0533 12.3212 666 124.06 49.3829 490.698
737 0 56.2003 11.9216 670 125.53 49.3328 490.812
738 0 56.0757 13.036 731 124.209 48.7989 489.71
739 0 59.1233 13.6156 805 122.909 49.2932 488.217
740 0 59.2558 13.0451 773 126.629 49.5459 485.939
741 0 61.2734 12.2076 748 128.666 49.7513 485.539
742 0 63.3048 12.7321 806 129.055 49.6179 484.266
743 0 66.2766 13.4889 894 125.97 50.2506 485.406
744 0 68.275 13.5628 926 127.681 49.9935 482.61
745 0 70.2307 12.701 892 131.017 49.8756 481.306
746 0 73.2621 12.7351 933 130.996 49.4877 481.6
747 0 75.1461 13.8929 1044 130.149 49.6782 480.254
748 0 79.4053 13.3744 1062 130.982 49.178 479.587
749 0 77.2934 12.8213 991 135.968 49.1776 477.427
750 0 80.3444 13.1434 1056 137.4 48.6799 473.021
751 0 84.4912 12.664 1070 138.621 48.3243 471.678
752 0 89.4047 13.3774 1196 136.866 48.995 469.077
753 0 92.4625 14.5464 1345 133.77 49.0751 469.202
754 0 92.524 13.8775 1284 136.213 48.1114 470.282
755 0 98.6667 13.5811 1340 136.963 48.3776 466.648
756 0 99.3892 14.3979 1431 136.91 48.1698 464.84
757 0 103.524 13.5717 1405 140.036 48.652 461.572
758 0 105.503 14.2839 1507 137.424 48.3689 462.512
759 0 108.457 14.2084 1541 138.018 48.5633 458.848
760 0 111.386 12.8114 1427 142.891 48.3483 457.446
761 0 118.295 14.4385 1708 136.167 47.8103 455.899
762 0 121.271 13.5152 1639 140.162 47.6327 453.797
763 0 125.183 13.1568 1647 137.464 47.8276 449.355
764 1 67.147 9.993 671 132.428 48.8405 474.933
765 0 67.073 11.1073 745 128.554 48.9047 472.893
766 0 71.1554 12.1424 864 129.758 49.8472 477.635
767 0 73.0693 11.797 862 129.935 48.855 480.57
768 0 75.0979 12.1575 913 131.977 49.0219 476.248
769 0 79.0685 13.0393 1031 129.974 48.5228 475.008
770 0 81.0948 13.1698 1068 129.926 48.6948 473.33
771 0 82.0936 12.1569 998 133.079 48.4118 473.978
772 0 82.0951 11.4014 936 138.231 47.7169 468.667
773 0 89.1075 11.3122 1008 135.832 47.6915 468.077
774 0 90.1182 12.2395 1103 131.991 48.0807 466.217
775 0 95.0906 12.1779 1158 130.317 47.9758 465.747
776 0 98.0803 11.4906 1127 132.62 48.0479 464.283
777 0 98.087 11.4898 1127 150.759 48.047 464.063
778 0 103.122 11.5882 1195 131.464 48.8377 458.957
779 1 58.094 8.58953 499 118.379 48.1423 481.034
780 0 62.0724 10.2944 639 121.869 47.9108 483.402
781 0 66.1036 9.99945 661 118.546 49.6384 485.427
782 0 65.13 11.0088 717 112.887 49.1883 483.382
783 0 66.0755 10.3669 685 113.931 50.0905 484.788
784 0 69.1909 10.854 751 112.385 50.229 481.36
785 0 72.1548 8.95297 646 115.659 50.5573 482.588
786 0 73.1799 9.52447 697 115.103 50.8637 480.057
787 0 75.1451 9.47501 712 115.081 50.5 480.482
788 0 78.3126 10.3942 814 111.22 50.172 476.842
789 0 81.2228 10.1573 825 110.845 50.0048 477.224
790 0 83.2791 9.57022 797 109.248 49.7252 476.4
791 0 86.2248 10.7626 928 108.497 49.1336 471.4
792 0 87.2753 10.3809 906 109.55 48.9636 470.922
793 0 92.2014 10.9977 1014 108.969 49.4438 468.938
794 0 93.2792 10.2381 955 110.524 48.9602 467.992
795 0 98.198 10.988 1079 109.188 48.4078 467.167
796 0 100.183 10.8102 1083 109.305 48.8144 466.387
797 0 107.295 10.3267 1108 120.28 47.6408 466.637
798 0 108.12 9.44321 1021 124.58 46.7365 459.244
799 1 55.0384 7.79456 429 107.681 48.7483 489.802
800 0 58.0463 10.0437 583 104.593 49.1441 486.736
801 0 58.1784 10.0381 584 106.339 48.6164 487.048
802 0 63.2953 11.4068 722 103.614 48.0429 486.248
803 0 63.2665 10.2266 647 107.301 48.2875 483.408
804 0 66.1514 9.68989 641 106.969 48.0889 485.066
805 0 68.1386 10.5667 720 118.41 49.3597 482.814
806 0 65.0406 7.14938 465 125.497 48.7785 483.112
807 0 74.1729 10.152 753 121.335 49.3772 477.263
808 0 77.1608 10.7827 832 121.4 48.1394 476.762
809 0 79.1881 11.3148 896 118.513 48.3482 477.788
810 0 80.2816 10.3137 828 120.393 48.878 475.901
811 0 85.2122 11.1369 949 118.651 48.4953 473.921
812 0 84.2835 11.6037 978 118.127 48.1084 470.814
813 0 90.1598 10.9916 991 114.999 48.9294 474.638
814 0 88.1249 9.55462 842 119.234 48.8551 471.496
815 0 94.1046 10.8709 1023 115.214 49.042 470.175
816 0 90.2242 9.79782 884 118.153 49.0758 474.122
817 0 90.3793 10.5887 957 119.13 48.2027 472.068
818 0 95.523 10.8665 1038 118.668 47.9586 469.848
819 0 99.3911 11.6006 1153 115.527 48.2108 468.962
820 0 101.328 10.2835 1042 118.89 48.0672 470.465
821 0 105.358 11.067 1166 117.838 48.4151 467.196
822 0 108.356 11.2499 1219 117.021 48.5258 466.813
823 1 56.0934 10.1616 570 111.304 47.3421 491.746
824 0 57.0725 11.0386 630 112.408 47.9635 487.552
825 0 60.1658 11.2855 679 111.652 47.5361 487.586
826 0 61.0848 9.98612 610 113.411 47.6689 489.221
827 0 64.1175 11.167 716 112.859 48.2095 485.126
828 0 63.184 11.0629 699 114.2 48.1688 484.12
829 0 69.1552 11.0042 761 112.292 47.5099 485.104
830 0 71.1644 12.2252 870 110.477 48.1506 481.337
831 0 74.1828 11.5525 857 111.415 48.0338 482.882
832 0 74.1132 12.0356 892 112.186 48.1939 478.987
833 0 79.1977 11.1998 887 114.207 48.1725 479.108
834 1 41.1015 10.3889 427 112.803 46.8454 496.213
835 0 39.0286 10.4026 406 113.126 46.2808 497.291
836 0 42.0783 11.0984 467 110.794 46.9422 497.514
837 0 43.0687 10.3788 447 114 47.2685 495.826
838 0 46.0683 11.6349 536 120.616 47.722 496.229
839 0 48.1268 10.9295 526 122.072 47.3422 496.356
840 0 45.1408 11.0765 500 126.304 47.074 494.5
841 0 48.0376 12.0947 581 121.733 47.2186 495.68
842 0 49.0533 12.1704 597 122.296 47.7253 494.526
843 0 53.0299 11.7292 622 122.989 46.6576 493.881
844 0 52.0373 12.7024 661 122.136 47.1876 493.322
845 0 54.1162 12.8797 697 123.103 47.208 492.798
846 0 55.0737 13.146 724 122.927 47.7873 491.744
847 0 54.0158 12.1261 655 127.753 47.7191 491.081
848 0 58.045 12.8521 746 123.775 46.9665 490.71
849 0 58.0544 13.0739 759 124.287 47.7115 489.166
850 0 62.0596 12.3591 767 125.81 46.2151 488.527
851 0 63.0553 13.1155 827 125.081 47.3374 487.674
852 0 65.0478 12.5293 815 126.968 47.2822 487.693
853 0 68.0237 12.4809 849 128.236 47.5183 486.289
854 0 68.0774 12.9999 885 128.345 47.8836 485.077
855 0 70.0469 12.82 898 130.144 47.1359 483.628
856 0 75.0961 13.9688 1049 124.255 46.2316 483.834
857 0 76.1658 14.022 1068 124.945 47.4757 482.122
858 0 77.1965 12.5135 966 131.283 47.913 480.492
859 0 81.2008 12.8078 1040 130.076 47.1375 479.062
860 0 81.2251 12.8286 1042 132.664 47.5365 477.312
861 0 85.2201 14.2337 1213 129.214 48.1641 476.268
862 0 89.1666 14.2991 1275 127.46 47.7757 474.813
863 0 91.3709 14.1839 1296 125.583 47.314 474.308
864 1 47.2542 11.1948 529 130 47.828 494.892
865 0 50.2665 12.195 613 126.607 48.8385 492.414
866 0 49.2183 11.3982 561 120.727 48.5668 489.153
867 0 49.2169 9.67148 476 126.166 48.9937 488.945
868 0 51.2206 10.035 514 127.881 48.751 485.807
869 0 54.171 11.1683 605 121.486 48.2331 487.269
870 0 56.114 11.2093 629 123.137 48.4181 488.135
871 0 62.0498 12.909 801 125.828 48.9313 489.986
872 0 60.0646 12.4033 745 130.562 48.3826 488.337
873 0 64.0695 13.5478 868 125.477 47.9839 488.543
874 0 64.0826 13.623 873 127.514 48.3769 484.754
875 0 64.0702 12.58 806 129.706 48.0682 486.12
876 0 68.044 12.8299 873 129.014 47.5464 483.095
877 0 73.19 12.775 935 126.309 47.8193 483.117
878 0 74.1429 12.3141 913 128.79 46.8182 482.739
879 0 75.1562 13.585 1021 125.593 47.3996 480.908
880 0 76.0511 13.2542 1008 127.852 47.8085 479.696
881 0 81.0859 13.3809 1085 126.234 47.1871 478.023
882 0 80.0867 12.4115 994 131.873 47.0956 476.921
883 0 84.0798 13.1898 1109 127.129 47.1136 475.377
884 0 89.1186 14.1385 1260 124.406 48.0405 475.003
885 0 92.18 13.875 1279 125.571 48.767 473.392
886 0 92.213 14.0002 1291 127.651 48.8311 470.604
887 1 47.0536 10.4136 490 127.424 49.0469 493.798
888 0 51.0935 11.8998 608 122.104 49.3487 492.53
889 0 52.1062 12.7432 664 115.003 48.2485 490.378
890 0 53.0283 12.5216 664 114.988 48.3163 491.035
891 0 54.0167 12.4961 675 115.919 47.8889 490.449
892 0 57.051 13.8648 791 111.18 47.9027 489.828
893 0 58.059 12.849 746 114.929 48.2038 488.421
894 0 61.1482 12.9685 793 113.513 47.826 488.038
895 0 62.0678 12.5347 778 115.572 47.5141 486.524
896 0 64.0523 13.7544 881 111.662 47.8252 485.545
897 0 66.0646 13.0478 862 113.749 48.4176 484.274
898 0 69.1058 12.2421 846 115.69 48.6986 483.22
899 0 72.0788 13.3465 962 111.743 48.6081 483.633
900 0 73.1315 12.7168 930 114.338 48.1473 482.543
901 0 76.0714 13.6188 1036 112.676 48.2992 480.613
902 0 79.1669 13.2 1045 114.54 48.7416 479.617
903 0 81.075 13.0003 1054 117.246 47.833 479.984
904 0 85.3616 14.339 1224 113.643 47.5008 477.205
905 0 85.1936 13.1583 1121 116.081 47.6012 476.993
906 0 90.1246 14.3912 1297 111.687 47.687 474.961
907 1 51.1435 13.159 673 114.501 47.3596 492.458
908 0 50.2439 11.7427 590 110.69 48.0644 492.337
909 0 52.0421 13.0279 678 109.366 49.5959 491.404
910 0 54.0755 12.5195 677 110.406 49.5229 492.199
911 0 55.0308 12.4112 683 110.354 49.5081 491.19
912 0 55.0582 13.2224 728 109.198 49.5907 490.396
913 0 58.0585 13.2625 770 108.668 48.7468 488.742
914 0 59.0853 12.8797 761 109.982 49.1564 489.194
915 0 60.0512 13.322 800 109.134 49.5712 488.238
916 0 60.0697 12.2358 735 112.939 48.3456 488.252
917 0 62.0648 11.0046 683 115.697 48.5549 487.881
918 0 66.0807 11.5314 762 115.109 47.7927 486.904
919 0 68.0706 12.3107 838 114.138 48.4487 484.525
920 0 71.0807 12.3099 875 114.371 48.8709 483.616
921 0 72.1493 10.7693 777 116.346 48.8443 485.112
922 0 75.0915 12.4515 935 114.274 48.2171 479.975
923 0 80.0791 11.8633 950 113.961 47.86 480.333
924 1 43.0311 12.5258 539 110.046 48.0575 496.785
925 0 45.0448 11.6773 526 110.871 47.1958 496.428
926 0 45.0702 12.4251 560 110.446 48.9054 493.139
927 0 47.0451 11.8397 557 111.18 48.9156 494.093
928 0 46.0261 10.7548 495 116.747 48.3535 493.307
929 0 49.0504 11.8042 579 111.478 47.2193 493.668
930 0 52.0616 11.8706 618 110.934 47.8932 491.799
931 0 52.0381 11.3955 593 112.786 47.9916 492.319
932 0 53.1612 10.6845 568 113.718 47.787 490.496
933 0 56.0367 13.0093 729 109.698 48.1674 488.848
934 0 55.0459 11.4813 632 112.856 47.2516 490.318
935 0 58.0791 11.5876 673 112.746 47.7593 489.796
936 0 60.0853 12.5155 752 111.122 47.2088 488.223
937 0 63.0896 13.0449 823 109.608 48.2442 486.487
938 0 67.0587 12.2579 822 110.105 48.0073 485.321
939 0 66.1377 11.8692 785 112.814 48.0879 482.93
940 0 69.1032 12.0978 836 112.273 47.9844 481.333
941 0 72.0793 12.7221 917 109.499 46.795 480.953
942 0 75.0764 13.1999 991 107.86 47.1029 480.476
943 0 78.0916 12.3573 965 108.767 47.4591 479.76
944 1 39.0174 11.1489 435 112.926 47.9931 495.86
945 0 42.0731 11.5989 488 110.482 49.3607 496.199
946 0 43.0307 12.5724 541 109.092 49.3697 494.458
947 0 45.044 13.2981 599 105.81 47.6644 494.172
948 0 45.0211 11.7945 531 112.367 48.2109 494.687
949 0 47.0159 12.4213 584 113.168 47.8664 493.777
950 0 48.0447 12.0929 581 115.339 48.1033 493.317
951 0 48.0481 11.0514 531 119.158 47.5782 492.35
952 0 49.0935 12.303 604 116.146 48.0927 492.634
953 0 50.0478 11.6089 581 119.157 48.3356 492.578
954 0 52.0165 11.8039 614 119.068 48.4805 490.717
955 0 51.0228 11.9358 609 120.529 47.5419 490.015
956 0 55.0738 12.2563 675 119.059 47.5096 489.713
957 0 56.06 12.4866 700 118.56 48.8471 488.64
958 0 58.0574 12.436 722 119.46 47.8116 488.091
959 0 59.0714 13.4583 795 118.068 47.9358 486.548
960 0 63.1086 13.2312 835 118.754 48.3593 485.566
961 0 61.0594 11.5134 703 126.982 47.7795 485.3
962 0 67.0524 13.7206 920 120.26 47.962 485.122
963 0 69.0974 14.0382 970 120.552 47.8948 483.379
964 0 71.0653 13.1851 937 124.446 48.4653 481.535
965 0 72.0603 13.5442 976 123.412 48.4201 481.71
966 0 74.0803 13.9038 1030 123.953 47.866 478.978
967 0 76.0965 13.0098 990 126.051 47.0465 479.485
968 0 77.1179 12.63 974 129.502 47.9179 477.14
969 0 81.1566 13.7019 1112 125.192 48.0567 476.788
970 0 83.0879 13.0464 1084 127.108 47.3755 473.75
971 0 87.0728 13.4026 1167 125.749 47.7438 470.183
972 1 46.0472 11.4448 527 124.558 47.9848 491.818
973 0 48.1104 12.4505 599 121.267 48.2922 488.92
974 0 51.0589 14.0622 718 112.336 47.7967 491.408
975 0 51.1606 12.3728 633 118.788 48.1374 489.943
976 0 53.0922 12.4689 662 117.115 48.5559 489.816
977 0 54.0583 12.468 674 117.251 48.3961 489.168
978 0 56.0378 13.7229 769 114.718 47.9324 489.286
979 0 59.0831 12.9309 764 115.008 48.5144 488.026
980 0 62.0717 13.1622 817 114.073 48.1346 488.007
981 0 62.0578 14.3737 892 112.266 47.5583 484.768
982 0 64.0562 13.3164 853 113.853 47.8464 485.036
983 0 66.0945 12.6183 834 116.323 48.0851 483.781
984 0 67.0788 11.4641 769 118.224 47.9662 483.514
985 0 71.093 12.4485 885 115.306 47.6983 482.342
986 0 74.0675 13.5822 1006 112.823 48.1799 479.845
987 0 75.0503 13.884 1042 112.172 48.1305 478.687
988 0 77.1215 12.6943 979 114.558 49.2165 478.965
989 0 80.1006 13.2583 1062 113.632 49.1017 475.631
990 0 83.0848 13.071 1086 114.091 48.6593 474
991 0 86.0929 13.9617 1202 111.931 48.7562 471.498
992 0 91.0978 13.8532 1262 110.852 48.9374 471.329
993 0 92.0603 13.1218 1208 113.584 48.1283 467.993
994 0 96.063 13.8451 1330 111.915 49.1226 467.873
995 1 46.0706 11.4824 529 119.134 48.8223 492.248
996 0 50.0276 12.5931 630 115.292 48.3206 492.19
997 0 51.1181 12.3244 630 120.916 47.9873 489.402
998 0 54.0476 12.9701 701 118.561 48.5193 488.713
999 0 54.0186 12.5512 678 121.471 48.2035 487.78
1000 0 56.0344 12.528 702 121.199 47.896 487.571
1001 0 58.05 12.4031 720 120.556 47.4917 486.443
1002 0 63.1414 12.4799 788 119.255 47.9251 486.522
1003 0 62.0827 13.2726 824 119.24 48.1468 486.032
1004 0 64.032 14.4147 923 117.418 48.0574 482.564
1005 0 63.1821 12.5668 794 124.146 48.1524 482.224
1006 0 69.0596 14.1182 975 119.376 47.9467 480.611
1007 0 71.0968 14.3607 1021 119.303 48.3418 480.577
1008 0 73.119 14.0046 1024 120.579 48.1689 480.087
1009 0 75.0555 14.1229 1060 121.251 47.4764 477.462
1010 0 78.1224 15.1173 1181 118.825 47.8307 476.412
1011 0 80.095 14.6201 1171 121.684 48.3715 475.39
1012 0 85.1315 14.4482 1230 121.41 48.0431 473.659
1013 0 87.1081 14.5337 1266 121.371 48.2599 473.842
1014 0 90.1391 14.3556 1294 121.799 49.3068 472.106
1015 0 93.187 14.326 1335 123.259 49.1041 470.145
1016 0 95.1403 13.3067 1266 125.566 48.97 468.494
1017 0 98.0709 12.8988 1265 127.189 49.4024 467.349
1018 1 50.0268 11.1141 556 127.302 49.7914 490.942
1019 0 51.0821 11.922 609 125.005 49.6847 490.261
1020 0 54.0906 12.7194 688 112.741 48.1206 489.029
1021 0 55.0739 12.692 699 115.698 47.5107 488.818
1022 0 57.0746 12.6676 723 114.584 47.7925 487.968
1023 0 59.0996 13.6549 807 114.178 48.0669 486.798
1024 0 62.0568 14.5995 906 111.26 47.7605 486.279
1025 0 63.073 13.1435 829 115.626 47.8432 485.56
1026 0 66.134 15.1057 999 111.281 47.4985 484.72
1027 0 67.0463 13.5727 910 116.465 47.6835 483.437
1028 0 70.1259 13.5043 947 116.063 47.113 482.66
1029 0 72.1632 13.6081 982 117.473 48.0244 480.811
1030 0 77.1759 15.0436 1161 112.332 48.062 480.152
1031 0 80.1123 14.5296 1164 115.174 48.1289 478.514
1032 0 80.1824 14.467 1160 116.584 48.7612 475.14
1033 0 84.1838 14.3496 1208 115.599 48.9073 474.698
1034 0 84.1743 14.7313 1240 115.998 48.421 475.163
1035 0 87.1523 13.6084 1186 120.234 49.3465 474.185
1036 0 89.2368 13.3353 1190 120.481 49.5622 473.504
1037 0 93.329 13.3292 1244 122.537 49.9349 467.835
1038 0 95.3988 13.4278 1281 120.97 48.5675 465.802
1039 0 98.1173 12.9641 1272 120.226 48.6281 465.182
1040 0 102.118 13.3669 1365 118.171 48.556 465.073
1041 0 104.179 12.9873 1353 119.438 47.8655 463.244
1042 1 52.1692 11.7694 614 119.795 48.4511 483.51
1043 0 56.274 12.8478 723 122.344 48.7828 486.779
1044 0 60.2645 13.1752 794 120.196 49.2028 485.763
1045 0 61.3118 12.1347 744 121.448 49.4556 486.118
1046 0 65.2138 13.5707 885 117.237 49.7446 483.585
1047 0 67.1855 13.9316 936 115.557 49.6699 485.251
1048 0 70.1286 14.1882 995 115.396 49.6704 483.498
1049 0 70.0978 13.524 948 118.554 48.7205 481.136
1050 0 73.1963 13.4296 983 117.931 49 479.923
1051 0 76.1244 13.6093 1036 115.864 49.2674 480.272
1052 0 78.1871 14.0944 1102 115.602 49.5436 478.468
1053 0 80.1822 13.5442 1086 117.212 49.5746 476.779
1054 0 82.1012 13.9706 1147 116.989 50.0218 473.696
1055 0 85.0862 13.6215 1159 117.745 49.6471 473.33
1056 0 88.092 13.554 1194 116.226 48.9146 473.777
1057 0 91.0978 12.4591 1135 118.054 49.007 472.805
1058 1 50.1037 11.0371 553 116.855 49.3002 491.061
1059 0 51.1 13.1115 670 110.493 48.5806 489.979
1060 0 53.1653 12.1132 644 101.222 48.6475 488.635
1061 0 53.2263 10.0514 535 105.454 48.572 487.49
1062 0 54.0983 12.3479 668 100.975 48.9311 488.307
1063 0 56.1617 12.3216 692 102.753 48.6994 486.474
1064 0 58.1039 12.3916 720 102.66 49.1819 485.481
1065 0 60.0864 12.7317 765 103.112 49.3869 484.416
1066 0 62.1692 12.8842 801 102.044 49.1461 485.608
1067 0 64.0826 12.874 825 103.424 49.7939 481.482
1068 0 65.2181 12.9719 846 104.965 49.4681 479.619
1069 0 68.1166 11.7005 797 106.538 48.7152 481.95
1070 0 70.168 12.8264 900 105.548 49.1178 479.237
1071 0 73.1074 13.7469 1005 103.384 48.9373 479.056
1072 0 76.144 13.1855 1004 104.641 48.6624 477.633
1073 0 78.1528 12.514 978 106.056 49.1401 476.086
1074 0 81.1754 12.1219 984 106.708 49.4207 476.391
1075 1 39.0393 10.6047 414 105.097 49.8382 495.889
1076 0 41.0148 10.801 443 105.214 49.6659 494.244
1077 0 44.0553 11.0543 487 105.961 49.9405 492.277
1078 0 47.1148 13.5838 640 113.853 48.4859 494.234
1079 0 47.0412 13.1587 619 116.073 47.8401 493.142
1080 0 49.0598 13.3714 656 114.337 48.0564 492.537
1081 0 50.1457 12.7827 641 116.501 48.1435 492.144
1082 0 51.1218 12.9886 664 116.843 47.8976 491.741
1083 0 53.0644 13.9265 739 114.551 47.4493 490.751
1084 0 55.1382 13.5478 747 114.813 48.2169 489.835
1085 0 57.0983 13.6957 782 114.134 47.0895 489.748
1086 0 57.0943 14.0469 802 115.377 47.9713 488.087
1087 0 58.1067 14.0948 819 115.521 47.7253 486.305
1088 0 63.0366 14.1188 890 113.662 47.3011 487.439
1089 0 63.1096 14.3401 905 115.862 47.7514 485.124
1090 0 65.115 13.4838 878 118.097 47.5273 483.403
1091 0 68.1241 14.2534 971 116.836 48.2276 483.721
1092 0 71.1831 14.9193 1062 116.158 48.1874 481.556
1093 0 72.1588 13.2208 954 121.547 47.8312 481.493
1094 0 75.0994 14.0614 1056 121.188 47.9479 478.392
1095 0 78.2392 14.7752 1156 118.673 47.3192 476.901
1096 0 80.1604 14.0843 1129 120.548 46.7812 477.492
1097 0 85.1257 13.7796 1173 122.111 47.5021 476.18
1098 0 87.1424 13.8394 1206 123.325 48.0738 472.353
1099 0 88.2186 12.9564 1143 126.864 48.0437 471.228
1100 0 91.2979 12.9795 1185 126.862 48.0557 468.014
1101 1 46.1399 10.6632 492 120.73 48.8516 490.831
1102 0 48.0326 12.6789 609 117.273 49.11 489.388
1103 0 49.0504 13.4555 660 117.035 48.6394 486.965
1104 0 52.0603 14.1375 736 114.917 48.9389 488.13
1105 0 53.076 12.2843 652 118.535 48.7761 492.248
1106 0 56.0626 13.0568 732 117.832 49.3374 489.445
1107 0 57.1372 13.6689 781 117.196 49.1946 488.671
1108 0 58.1545 12.8623 748 120.095 49.861 488.063
1109 0 62.0515 14.2623 885 116.044 49.8068 486.931
1110 0 62.1092 13.3475 829 120.685 49.0856 486.302
1111 0 66.1115 12.6453 836 120.92 49.2464 486.17
1112 0 70.1398 13.0311 914 119.504 49.2396 485.66
1113 0 72.0925 13.5798 979 119.747 48.6558 481.151
1114 0 73.2029 12.4995 915 123.503 49.2383 482.251
1115 0 78.067 13.1554 1027 119.821 49.0837 480.495
1116 0 81.087 13.5163 1096 118.257 49.8184 480.287
1117 0 80.1316 13.1159 1051 122.089 50.1332 477.586
1118 0 84.1503 13.571 1142 120.823 49.6357 475.837
1119 1 45.2121 13.0275 589 119.798 48.5603 493.823
1120 0 45.2422 11.9579 541 116.985 48.7634 490.444
1121 0 49.1087 13.4599 661 120.336 48.8472 492.781
1122 0 48.0451 13.5081 649 122.356 47.5855 491.203
1123 0 50.1839 12.4741 626 124.249 47.7843 491.928
1124 0 53.2953 13.4533 717 120.778 47.6318 490.261
1125 0 55.0812 14.76 813 117.437 48.2854 488.86
1126 0 54.0456 13.1 708 115.312 49.7401 491.321
1127 0 56.1381 11.9527 671 118.519 48.9225 490.255
1128 0 58.1196 12.6807 737 118.393 49.5142 488.445
1129 0 59.0664 11.7326 693 120.882 50.0462 488.061
1130 0 63.0345 14.2303 897 113.892 49.5262 487.627
1131 0 63.0756 13.0796 825 119.25 50.1333 485.773
1132 0 67.0667 12.495 838 118.97 49.9403 486.914
1133 0 67.0385 13.6936 918 118.481 49.719 484.416
1134 0 72.0401 13.7979 994 117.494 49.6559 482.378
1135 0 75.1897 13.579 1021 118.348 49.1322 480.725
1136 0 77.2137 13.3396 1030 119.352 49.5087 478.617
1137 0 78.1567 11.72 916 122.822 49.3319 480.828
1138 1 44.0115 12.7012 559 119.478 50.2004 496.694
1139 0 46.0794 13.6937 631 120.829 49.5848 493.818
1140 0 48.1742 14.5514 701 116.67 49.8003 493.71
1141 0 50.0862 13.7164 687 117.378 48.9374 494.486
1142 0 51.1124 14.1257 722 117.022 48.4778 492.801
1143 0 51.2976 12.0084 616 113.516 48.6412 491.852
1144 0 53.1187 12.4438 661 113.088 48.6974 490.939
1145 0 57.1239 13.8821 793 109.905 48.4414 488.726
1146 0 58.1215 12.5771 731 114.54 48.2763 489.171
1147 0 61.1051 14.0577 859 111.261 47.6985 486.607
1148 0 62.0652 13.6792 849 113.556 47.8492 486.958
1149 0 63.1506 14.3625 907 112.771 47.1643 485.367
1150 0 65.0814 13.9671 909 114.759 46.6337 484.031
1151 0 68.1379 13.6194 928 115.6 47.4386 484.722
1152 0 71.1074 13.6413 970 117.114 47.2258 483.027
1153 0 71.1035 13.0655 929 120.288 47.3412 481.292
1154 0 72.0506 13.4628 970 120.354 47.1835 481.474
1155 0 75.0858 13.4779 1012 123.021 47.5593 478.538
1156 0 79.0959 13.5405 1071 123.135 46.634 478.081
1157 0 83.0797 13.3366 1108 124.699 46.7148 478.228
1158 0 84.1686 13.069 1100 127.474 47.3709 475.347
1159 0 89.2248 14.3234 1278 124.077 47.8153 473.428
1160 1 48.0728 12.4187 597 125.853 47.062 494.079
1161 0 48.0364 12.4905 600 124.773 47.5233 491.665
1162 0 51.0197 13.5046 689 123.022 47.9956 491.392
1163 0 51.0423 13.3811 683 126.687 46.8492 491.934
1164 0 53.1084 12.5969 669 127.466 46.8834 491.586
1165 0 56.0653 14.4653 811 122.676 46.9396 489.145
1166 0 55.0558 12.6236 695 130.363 47.4906 490.042
1167 0 58.1703 14.0794 819 126.171 48.5714 487.431
1168 0 60.1234 13.9546 839 126.178 48.5304 485.782
1169 0 65.1851 14.1904 925 123.396 47.0389 486.271
1170 0 66.2574 13.2363 877 126.751 48.4675 486.294
1171 0 68.1259 14.0915 960 124.128 48.174 484.273
1172 0 70.1451 14.47 1015 123.827 48.6956 482.35
1173 0 73.1289 13.2916 972 127.032 48.3786 482.942
1174 0 75.1752 13.2757 998 127.444 48.5972 480.505
1175 0 78.12 13.6201 1064 125.3 48.2105 477.61
1176 0 82.2452 14.3109 1177 123.369 48.5879 478.132
1177 0 85.1487 12.8011 1090 127.586 47.9697 476.614
1178 1 45.1975 12.8989 583 128.76 48.2521 496.509
1179 0 45.0387 11.6566 525 130.474 46.9029 495.389
1180 0 46.1639 12.8672 594 129.872 47.2542 491.97
1181 0 49.0465 13.1508 645 130.349 48.5659 492.907
1182 0 50.0927 14.4931 726 125.052 48.427 493.562
1183 0 51.0433 13.0477 666 131.359 48.3709 492.812
1184 0 53.0401 13.6312 723 129.325 48.2669 490.983
1185 0 56.0311 14.1707 794 128.081 48.7204 490.665
1186 0 57.0283 13.9755 797 128.159 48.857 489.932
1187 0 58.1198 14.4701 841 128.361 49.0987 488.356
1188 0 60.1144 13.441 808 132.08 48.8342 487.396
1189 0 63.0849 13.3154 840 130.661 48.0595 486.951
1190 0 66.1072 13.947 922 129.474 48.0271 486.754
1191 0 64.1175 14.0211 899 133.539 48.7686 484.501
1192 0 68.1357 14.0015 954 132.518 48.8983 483.319
1193 0 72.1887 14.5036 1047 131.117 49.4928 481.726
1194 0 73.1053 14.4586 1057 131.8 49.0445 480.712
1195 0 76.07 13.9082 1058 131.907 48.9754 479.511
1196 0 78.1293 14.22 1111 130.977 49.5941 477.572
1197 0 81.0451 14.0539 1139 131.649 49.4153 474.964
1198 0 83.1986 14.4714 1204 130.584 49.6968 475.478
1199 0 86.0779 13.2787 1143 133.528 49.2922 473.974
1200 0 91.1323 14.6381 1334 130.939 48.8171 472.174
1201 1 49.0401 13.1525 645 135.578 50.1736 492.183
1202 0 49.0125 13.8332 678 135.178 48.6475 492.118
1203 0 48.1846 12.6597 610 131.707 48.3377 492.752
1204 0 50.0562 13.0254 652 129.693 49.112 493.04
1205 0 53.0627 13.2296 702 128.305 48.6125 490.712
1206 0 54.0456 12.7485 689 130.004 49.2366 490.624
1207 0 54.0575 12.3757 669 133.589 49.145 488.834
1208 0 57.1348 13.5994 777 128.501 49.2098 489.351
1209 0 58.086 12.9635 753 130.764 49.3373 487.38
1210 0 60.0651 13.6518 820 128.209 48.5329 486.211
1211 0 63.0679 12.7799 806 128.288 48.3722 486.757
1212 0 65.064 13.1409 855 128.055 48.5673 485.55
1213 0 68.0635 13.3258 907 127.637 48.882 484.904
1214 0 68.1114 12.6411 861 130.577 48.7991 483.905
1215 0 72.094 13.1495 948 129.1 48.6667 481.513
1216 0 75.0673 12.9351 971 128.285 48.9094 480.788
1217 0 75.0891 12.5451 942 129.413 49.0966 479.835
1218 0 80.1199 13.3799 1072 125.541 48.6539 478.954
1219 0 81.1105 12.822 1040 128.976 48.1779 478.178
1220 0 85.1165 14.0161 1193 126.962 48.6245 476.046
1221 0 87.1411 12.7035 1107 131.265 48.804 474.41
1222 0 90.1514 14.3869 1297 128.318 47.6762 473.105
1223 0 94.3857 13.6885 1292 131.022 47.5658 468.98
1224 1 47.1763 11.9551 564 135.566 47.2411 488.365
1225 0 49.1175 13.6 668 129.719 47.0494 485.714
1226 0 51.0414 12.6564 646 133.073 47.1238 486.807
1227 0 54.1163 13.2492 717 120.815 48.1855 490.934
1228 0 55.0592 13.1858 726 120.669 48.6832 491.433
1229 0 56.1006 12.6202 708 122.672 48.096 489.777
1230 0 59.0639 13.3584 789 120.352 48.0951 486.767
1231 0 60.053 13.0884 786 120.851 48.3448 487.094
1232 0 63.0728 14.0473 886 117.783 48.1907 485.553
1233 0 65.0384 13.5458 881 119.571 49.0533 485.048
1234 0 64.0952 12.9963 833 123.449 48.599 483.963
1235 0 68.1001 13.6417 929 121.319 48.1679 483.155
1236 0 69.0841 13.4474 929 122.814 48.4037 482.238
1237 0 72.0732 13.4863 972 123.193 48.4126 481.614
1238 0 75.0674 12.8018 961 125.016 47.5109 481.345
1239 0 78.1338 14.4496 1129 121.491 47.9336 478.032
1240 0 79.1889 13.6004 1077 124.805 48.1003 476.235
1241 0 82.1331 13.7947 1133 123.961 47.8906 474.832
1242 0 87.3071 13.9279 1216 124.169 47.523 471.664
1243 0 90.4203 15.3174 1385 121.682 46.8217 467.344
1244 1 45.303 12.2288 554 122.439 47.5 489.758
1245 0 49.2148 11.3584 559 122.254 47.2415 491.025
1246 0 49.0987 13.2997 653 117.32 46.585 489.332
1247 0 53.1402 13.4173 713 115.833 47.1304 489.857
1248 0 53.0861 12.7529 677 114.684 46.9793 490.03
1249 0 55.0649 12.2946 677 115.459 47.2984 489.093
1250 0 58.0741 13.5 784 111.862 47.4885 486.534
1251 0 61.1197 13.5963 831 110.865 47.0084 486.43
1252 0 61.0232 12.2412 747 113.897 46.8273 486.906
1253 0 66.0471 14.1263 933 109.413 46.9014 483.298
1254 0 66.0697 13.4706 890 112.34 48.3978 482.053
1255 0 69.0626 13.9728 965 109.695 48.7606 482.882
1256 0 72.0735 13.181 950 111.997 48.3684 480.866
1257 0 74.0648 13.5827 1006 111.529 48.4105 479.907
1258 0 76.0768 14.2225 1082 111.158 48.3253 477.483
1259 0 79.1549 13.6441 1080 112.578 47.8454 475.909
1260 0 83.0942 13.6472 1134 111.603 47.8316 476.688
1261 0 85.1019 13.0549 1111 114.662 47.4896 475.096
1262 0 87.112 12.9833 1131 115.866 47.6525 473.643
1263 0 92.1839 13.2453 1221 114.548 47.5389 468.243
1264 1 45.1682 10.7819 487 112.534 47.1581 490.6
1265 0 48.3397 13.5913 657 113.734 47.4444 490.496
1266 0 48.1316 12.2165 588 112.056 46.7262 490.497
1267 0 49.0503 11.2945 554 115.643 47.8971 491.664
1268 0 50.1232 12.4094 622 113.513 47.7235 490.339
1269 0 53.1134 12.5392 666 113.79 48.6471 488.491
1270 0 56.1006 13.9393 782 109.022 47.9859 489.09
1271 0 57.1145 11.8884 679 114.909 48.0059 487.813
1272 0 57.104 12.8537 734 114.135 48.0654 486.011
1273 0 60.0272 12.9608 778 113.434 48.0681 485.31
1274 0 62.0592 12.3592 767 114.475 48.9687 485.351
1275 0 66.0797 13.862 916 110.715 49.1266 483.346
1276 0 67.0756 13.8799 931 111.238 48.7422 481.469
1277 0 68.0819 12.8081 872 114.688 48.2592 480.694
1278 0 72.1201 13.5468 977 112.917 48.6295 480.386
1279 0 75.1588 13.3717 1005 113.257 48.3423 478.801
1280 0 76.0997 12.891 981 115.827 48.2396 475.066
1281 0 78.1684 12.4603 974 119.207 48.885 473.771
1282 0 82.2103 13.3682 1099 120.724 48.6961 471.957
1283 0 84.0822 12.5116 1052 122.859 48.2272 470.849
1284 0 88.1247 12.9476 1141 121.731 48.511 470.599
1285 0 90.0702 13.4562 1212 121.478 47.6634 468.385
1286 1 47.0437 10.6072 499 120.184 48.0882 489.952
1287 0 49.3589 11.7304 579 118.168 47.7427 488.214
1288 0 50.0633 11.066 554 118.877 48.5722 489.872
1289 0 52.0942 12.1127 631 116.317 49.3122 488.897
1290 0 55.0618 11.8049 650 117.575 49.1431 488.677
1291 0 57.1413 12.0228 687 116.817 48.8137 488.677
1292 0 59.1238 12.8882 762 116.311 48.8399 485.681
1293 0 60.1163 11.4778 690 119.091 49.4319 487.046
1294 0 64.1573 12.7967 821 116.496 48.6711 482.38
1295 0 65.1908 12.5938 821 117.272 48.3009 481.968
1296 0 69.132 13.2645 917 115.517 49.0763 481.689
1297 0 69.1943 12.8912 892 94.8307 48.9294 479.707
1298 0 74.2544 12.3494 917 119.806 48.5169 480.461
1299 0 75.303 12.9211 973 120.265 48.0103 477.504
1300 0 77.4164 12.9559 1003 120.371 47.9591 474.3
1301 0 79.2624 13.2219 1048 121.673 46.6374 471.635
1302 0 82.3574 12.1665 1002 124.347 47.2914 470.631
1303 0 85.3602 12.6874 1083 123.251 47.9529 469.286
1304 0 86.4335 11.6853 1010 127.304 47.3842 466.204
1305 0 90.6204 12.3593 1120 125.344 46.7705 465.381
1306 1 44.1407 10.761 475 122.284 47.0779 487.815
1307 0 47.04 11.8622 558 115.631 48.0036 492.272
1308 0 48.0268 10.4317 501 111.709 48.4491 489.958
1309 0 52.0268 12.0323 626 115.275 49.3834 491.684
1310 0 51.0281 11.9346 609 118.414 48.6864 490.949
1311 0 52.0379 11.876 618 118.244 49.6197 488.856
1312 0 54.0777 12.6855 686 115.618 49.3309 488.924
1313 0 55.0571 12.1329 668 116.699 49.3967 487.539
1314 0 58.0445 12.3526 717 114.781 48.3612 487.067
1315 0 60.0485 12.6564 760 115.618 48.4013 485.233
1316 0 61.1061 12.9938 794 114.334 49.4937 485.623
1317 0 63.0286 13.0734 824 115.135 49.0595 484.248
1318 0 65.0546 11.9284 776 118.539 49.6211 484.046
1319 0 68.108 12.4802 850 116.891 49.7459 482.611
1320 0 70.0717 13.9714 979 114.222 48.9377 480.241
1321 0 70.1564 12.6859 890 118.002 49.3067 481.373
1322 0 74.1606 13.1741 977 116.805 48.9928 478.064
1323 0 76.1316 12.0449 917 118.183 49.1145 478.664
1324 0 79.2165 12.611 999 113.785 48.1852 474.148
1325 0 80.1192 11.1958 897 118.979 48.932 472.557
1326 0 82.1151 12.1537 998 119.155 49.2555 471.794
1327 0 86.0812 12.6625 1090 120.278 48.756 473.064
1328 0 88.1504 11.8888 1048 121.925 48.9303 473.182
1329 1 46.0631 10.6593 491 118.206 49.0835 493.342
1330 0 49.0403 12.9281 634 113.696 48.8502 491.997
1331 0 50.0271 11.9935 600 125.395 49.795 489.282
1332 0 50.0274 12.9529 648 113.577 49.1528 490.83
1333 0 52.0393 13.1439 684 112.187 49.0132 488.768
1334 0 52.0762 11.6944 609 116.745 49.5222 489.525
1335 0 55.0364 12.1919 671 115.04 48.8212 488.885
1336 0 56.0515 13.3627 749 113.299 48.6595 486.748
1337 0 58.1122 12.5103 727 116.025 49.4182 486.414
1338 0 59.093 12.6749 749 115.615 49.7744 485.503
1339 0 65.0648 13.2944 865 112.467 49.3318 484.158
1340 0 64.0816 12.6401 810 115.179 49.1864 483.935
1341 0 68.0296 12.4505 847 114.981 49.1334 483.669
1342 0 69.078 14.2882 987 110.361 49.0091 479.648
1343 0 71.0399 14.0203 996 111.579 49.4799 479.193
1344 0 74.0799 12.7835 947 115.63 49.057 478.415
1345 0 76.0979 13.2855 1011 113.694 49.0168 477.859
1346 0 79.1007 13.3122 1053 114.017 48.9649 476.133
1347 0 82.065 12.9775 1065 117.848 48.3944 474.294
1348 0 84.0929 12.1651 1023 120.618 48.3167 473.649
1349 0 88.0726 15.1012 1330 111.657 48.3338 473.924
1350 0 91.1143 13.7959 1257 116.098 47.1074 471.294
1351 1 46.0192 11.9515 550 121.798 47.2564 492.525
1352 0 48.0149 10.6217 510 118.394 46.1549 490.827
1353 0 50.0215 12.9544 648 119.355 46.8086 491.301
1354 0 49.0638 11.3526 557 126.368 47.0503 490.454
1355 0 53.0231 12.504 663 121.67 46.3695 489.451
1356 0 55.0728 12.2928 677 122.103 46.6071 488.366
1357 0 55.0595 12.1142 667 123.183 46.6717 488.351
1358 0 56.0352 11.4749 643 126.453 46.6672 487.236
1359 0 59.0207 13.724 810 118.816 46.4852 485.363
1360 0 60.0265 12.9776 779 121.368 47.0963 484.757
1361 0 63.0136 13.632 859 117.774 46.2398 484.456
1362 0 64.0345 13.2897 851 119.423 46.3866 484.224
1363 0 66.0541 12.9137 853 120.095 46.5029 483.24
1364 0 68.0834 12.8372 874 119.395 45.889 481.59
1365 0 72.0689 13.1818 950 117.22 46.9137 480.625
1366 0 73.1588 14.3797 1052 114.396 46.4021 478.388
1367 0 76.0813 13.7747 1048 116.434 46.3826 477.513
1368 0 77.0429 14.1739 1092 114.538 46.3901 475.168
1369 0 79.1187 12.7024 1005 118.03 46.6189 475.438
1370 0 82.1525 12.9028 1060 117.497 46.0094 474.555
1371 0 84.164 13.4737 1134 117.049 46.672 475.091
1372 0 88.0723 13.6365 1201 115.689 47.2598 470.948
1373 0 91.0952 13.3487 1216 116.285 46.8857 470.74
1374 0 95.0559 14.886 1415 112.336 45.9484 468.727
1375 1 50.3048 11.3309 570 122.637 47.9281 488.356
1376 0 50.058 11.5666 579 112.66 46.1693 489.611
1377 0 54.0229 12.7724 690 108.633 46.8203 489.041
1378 0 55.0355 11.6834 643 111.701 46.6345 488.4
1379 0 57.0226 12.0303 686 110.461 47.3732 488.347
1380 0 56.1206 11.2971 634 113.942 47.1924 486.632
1381 0 61.1017 12.1109 740 110.619 47.8757 485.855
1382 0 62.0594 12.3591 767 110.733 47.9857 485.164
1383 0 64.0623 11.5825 742 112.257 49.8315 485.869
1384 0 65.0347 11.886 773 113.147 48.9586 481.595
1385 0 69.0626 12.3366 852 109.609 49.1937 485.237
1386 0 70.0303 10.781 755 115.201 49.4993 483.809
1387 0 73.0757 12.2749 897 111.938 49.6087 481.127
1388 0 77.1658 13.6719 1055 108.13 49.0825 478.167
1389 0 78.1035 11.4976 898 115.335 49.0679 478.414
1390 1 43.0843 12.1158 522 115.701 50.6992 496.374
1391 0 43.0256 11.7837 507 118.041 50.0888 494.771
1392 0 46.0296 11.8185 544 117.627 48.9338 494.024
1393 0 46.1008 12.3208 568 111.643 49.2923 494.509
1394 0 48.0127 11.9968 576 112.069 48.9861 495.377
1395 0 49.0893 12.0189 590 113.534 49.3085 492.553
1396 0 50.1129 11.5739 580 114.007 49.2345 493.067
1397 0 51.0809 12.5096 639 112.847 49.4601 490.236
1398 0 53.0757 12.0017 637 113.595 49.7755 491.446
1399 0 55.04 12.2456 674 113.156 49.2671 489.65
1400 0 54.0801 11.2426 608 118.087 49.4589 488.679
1401 0 59.0992 13.5535 801 110.385 49.5506 488.297
1402 0 58.0432 12.1634 706 116.341 50.1501 487.489
1403 0 61.064 14.4275 881 109.225 50.2089 486.999
1404 0 62.0442 13.4904 837 113.063 49.9438 485.259
1405 0 64.0699 13.5633 869 113.295 49.4545 482.747
1406 0 65.094 14.5021 944 112.279 49.6907 482.034
1407 0 66.0583 13.6698 903 115.598 49.6811 481.053
1408 0 70.1188 14.3471 1006 112.923 49.2753 480.079
1409 0 73.0827 13.9431 1019 113.841 48.6173 480.086
1410 0 74.0883 13.3489 989 116.473 48.7614 480.453
1411 0 76.0374 13.4671 1024 116.806 49.1377 478.28
1412 0 79.0762 13.8348 1094 116.346 48.3821 475.104
1413 0 81.0645 14.0505 1139 116.658 48.0711 473.622
1414 0 85.1422 14.7635 1257 114.712 49.031 472.702
1415 0 87.1035 15.1773 1322 114.235 48.7678 471.879
1416 0 87.1332 13.2785 1157 120.19 48.3881 471.169
1417 1 45.1038 11.9945 541 122.497 49.2255 493.222
1418 0 43.0326 12.0606 519 120.235 48.9884 489.451
1419 0 45.053 10.41 469 124.017 48.1919 487.367
1420 0 47.0341 11.8425 557 118.255 48.6984 488.759
1421 0 49.0361 10.686 524 121.813 48.1489 487.279
1422 0 48.1413 11.1547 537 121.264 48.1378 486.015
1423 0 48.2789 12.2414 591 119.25 47.2775 484.839
1424 0 49.3106 12.2083 602 119.116 47.2774 484.51
1425 0 53.2461 12.846 684 116.326 47.7003 484.766
1426 0 52.2161 12.5632 656 119.532 49.247 483.82
1427 0 56.2692 13.6842 770 115.149 49.0519 483.612
1428 0 56.1931 12.5638 706 119.661 48.7323 482.306
1429 0 56.2454 12.89 725 120.222 48.9724 481.622
1430 0 59.2263 12.7815 757 120.119 48.1321 478.881
1431 0 60.1731 13.4113 807 118.343 47.9083 479.83
1432 0 61.0816 11.8039 721 121.878 48.0388 479.907
1433 0 63.2369 14.5959 923 114.213 47.8732 479.496
1434 0 66.1566 13.7099 907 117.325 47.5436 477.366
1435 0 65.1194 13.4676 877 119.395 47.6853 475.993
1436 0 68.1825 13.9479 951 116.362 48.0105 477.757
1437 0 69.1415 14.492 1002 114.991 47.3992 478.459
1438 0 70.15 14.4405 1013 117.064 46.8184 476.118
1439 0 70.2057 15.0842 1059 116.426 47.4466 475.341
1440 0 72.0761 15.2617 1100 116.343 47.51 474.425
1441 0 74.0615 14.8795 1102 117.783 47.0227 473.183
1442 0 72.1709 14.4795 1045 120.567 47.1033 472.842
1443 0 74.0776 14.8223 1098 120.248 47.6803 473.386
1444 0 76.1049 15.5049 1180 120.275 47.4763 473.903
1445 0 78.1132 15.3879 1202 120.691 47.5707 474.987
1446 0 77.2049 15.1804 1172 122.944 48.0171 474.106
1447 0 79.1041 15.4227 1220 122.349 47.332 473.549
1448 0 82.0783 15.6192 1282 122.402 47.7738 471.324
1449 0 83.1157 15.9055 1322 122.986 48.3449 472.017
1450 0 83.1207 15.9888 1329 123.74 48.3168 472.33
1451 0 85.2403 15.4387 1316 124.065 47.6512 472.448
1452 0 86.0939 16.4007 1412 122.372 48.0276 471.661
1453 0 89.1945 16.7723 1496 120.717 48.0929 467.147
1454 0 88.1035 15.2888 1347 125.817 47.1262 468.497
1455 0 92.2134 16.592 1530 121.928 47.2752 467.353
1456 0 91.0987 15.5436 1416 125.819 47.2097 467.543
1457 0 92.1254 15.0881 1390 128.301 47.4561 466
1458 0 96.1596 17.107 1645 121.743 48.0827 465.858
1459 0 96.1083 16.1172 1549 125.138 47.7218 464.612
1460 0 96.2733 15.6014 1502 127.29 47.4328 465.619
1461 0 97.127 15.3099 1487 128.598 47.6375 464.436
1462 0 98.3054 15.8079 1554 127.263 48.0386 462.238
1463 0 101.232 15.2126 1540 128.979 47.9571 461.595
1464 0 103.151 15.6567 1615 127.55 47.8768 461.437
1465 0 105.123 16.1905 1702 126.877 47.5112 460.766
1466 0 107.124 16.3922 1756 126.949 47.3138 456.968
1467 0 107.099 16.1439 1729 128.572 47.823 457.446
1468 0 110.213 15.6607 1726 129.765 47.7312 458.143
1469 0 110.22 16.0134 1765 130.159 47.8317 457.195
1470 0 113.059 16.6727 1885 127.91 47.8361 457.325
1471 0 113.182 16.5397 1872 129.294 48.0881 455.955
1472 0 115.128 15.6086 1797 131.649 47.2643 455.19
1473 0 118.143 17.5381 2072 125.749 47.0912 453.767
1474 0 119.206 16.333 1947 129.107 47.4078 453.159
1475 0 120.254 16.6813 2006 129.463 46.837 451.876
1476 0 121.183 18.4018 2230 125.006 47.2197 451.639
1477 0 121.145 16.9137 2049 130.142 47.0976 449.597
1478 0 121.22 16.9196 2051 131.906 47.2847 451.516
1479 0 120.101 17.1106 2055 133.465 47.7878 446.178
1480 0 119.143 17.3908 2072 134.595 47.556 448.399
1481 0 119.168 16.7831 2000 136.97 47.2945 446.514
1482 0 117.162 18.3507 2150 134.862 47.2326 447.38
1483 0 115.191 17.4927 2015 140.503 47.5896 447.563
1484 0 118.078 18.2507 2155 137.317 47.4942 446.382
1485 0 119.14 17.5256 2088 138.613 47.2471 446.579
1486 0 114.184 17.8222 2035 141.926 47.7022 443.456
1487 0 117.12 17.4095 2039 141.811 47.847 447.219
1488 0 111.106 18.2799 2031 145.963 47.5387 443.596
1489 0 112.227 18.819 2112 144.276 47.8565 444.184
1490 0 105.187 19.6222 2064 147.535 48.2132 441.451
1491 0 108.067 19.0716 2061 148.461 48.2562 444.396
1492 0 105.146 18.4601 1941 156.331 46.798 444.016
1493 0 106.085 19.1922 2036 155.973 47.2451 442.682
1494 0 96.0498 18.4904 1776 168.886 47.5698 444.625
1495 0 103.175 21.3812 2206 153.221 46.981 444.841
1496 0 107.058 19.4101 2078 156.91 46.5982 447.278
1497 0 107.142 18.8348 2018 158.468 47.4574 444.934
1498 0 114.154 17.9845 2053 151.487 47.1705 448.295
1499 0 124.2 16.4653 2045 120.893 47.1423 450.969
1500 0 124.276 17.268 2146 117.029 46.8756 450.861
1501 0 122.249 16.9327 2070 116.72 46.5531 452.672
1502 0 122.428 16.6383 2037 117.395 46.2931 453.97
1503 0 118.248 14.2244 1682 96.2634 47.3294 450.464
1504 0 119.205 14.2863 1703 88.0317 47.3834 449.548
