time division length width area intensity CMx CMy
0 0 33.0125 10.8444 358 146.385 204.844 479.483
1 0 34.0135 11.7012 398 146.103 205.141 478.668
2 0 33.0298 10.5359 348 152.089 205.675 479.741
3 0 37.0176 12.2644 454 142.582 205.722 478.866
4 0 35.0244 11.7918 413 148.966 205.339 478.085
5 0 35.0079 11.3689 398 153.111 205.977 478.196
6 0 36.0273 11.9631 431 150.826 205.849 477.102
7 0 38.0102 12.1546 462 146.79 205.448 478.463
8 0 38.0405 11.2512 428 151.834 205.362 478.152
9 0 39.0532 13.0847 511 145.548 205.403 477.339
10 0 40.0557 11.9084 477 150.535 204.635 476.933
11 0 42.0051 12.4271 522 148.169 205.738 477.897
12 0 44.0277 13.7413 605 140.651 205.111 476.288
13 0 45.0139 12.5739 566 145.694 204.675 476.761
14 0 46.0522 13.5064 622 143.185 204.452 475.553
15 0 47.0433 12.9668 610 144.011 204.321 476.748
16 0 49.0352 13.3985 657 141.928 203.848 475.024
17 0 51.0238 14.3071 730 139.621 203.733 473.801
18 0 52.0302 13.4537 700 143.257 204.187 474.253
19 0 52.0391 14.1624 737 141.712 203.97 474.662
20 0 54.0338 14.3799 777 140.476 202.799 473.393
21 0 56.0314 13.082 733 143.533 202.563 473.539
22 0 57.0448 14.2169 811 141.052 202.926 473.633
23 0 57.0352 14.7277 840 139.483 203.449 474.543
24 0 58.0699 14.1209 820 142.826 202.179 472.022
25 0 61.1129 14.2687 872 140.149 202.151 472.189
26 0 62.0906 14.2695 886 140.555 202.673 472.442
27 0 63.1469 13.0806 826 144.668 202.459 472.447
28 0 66.135 14.3041 946 140.049 201.516 470.625
29 0 68.0961 13.6719 931 142.134 201.783 469.694
30 0 69.1547 14.0844 974 139.045 201.798 469.604
31 0 73.1374 13.6045 995 139.291 201.209 467.655
32 0 74.0708 13.1226 972 140.572 200.673 467.068
33 0 76.2042 13.3457 1017 139.264 200.973 467.207
34 0 81.1657 13.7989 1120 136.359 200.691 465.142
35 1 42.0721 12.9064 543 141.924 201.133 481.937
36 0 44.228 13.3852 592 139.907 201.725 481.377
37 0 44.1054 13.7625 607 132.216 202.01 480.712
38 0 45.1009 13.1483 593 133.887 201.653 480.496
39 0 47.1001 12.8237 604 135.422 201.268 480.56
40 0 49.0981 14.6238 718 128.61 201.045 479.196
41 0 49.0928 14.055 690 130.616 201.409 478.609
42 0 50.0867 14.3152 717 131.335 201.035 479.512
43 0 52.0593 14.1185 735 132.02 201.897 478.091
44 0 53.0383 14.1219 749 132.617 201.466 477.256
45 0 53.0615 13.3053 706 137.075 200.972 477.584
46 0 57.0848 14.3646 820 130.694 201.011 476.337
47 0 58.1423 14.4301 839 131.222 201.113 475.626
48 0 60.1346 13.5197 813 134.45 201.501 474.435
49 0 63.106 13.406 846 134.855 200.82 472.448
50 0 65.1436 13.4012 873 135.218 200.7 472.722
51 0 67.0783 13.9539 936 131.979 200.967 472.618
52 0 69.0946 13.8651 958 134.096 200.811 470.605
53 0 72.0932 14.8974 1074 130.511 200.527 469.98
54 0 75.0938 15.434 1159 129.395 200.632 468.259
55 0 76.0972 15.3619 1169 131.639 200.623 466.15
56 0 79.2018 14.4946 1148 133.541 200.971 467.113
57 0 82.0367 15.3712 1261 131.324 199.927 464.362
58 0 85.1168 14.8267 1262 133.54 200.245 462.712
59 0 88.1492 15.712 1385 128.142 200.95 461.012
60 0 90.1265 14.3687 1295 134.886 200.109 459.461
61 0 95.124 15.1697 1443 125.169 199.952 455.141
62 1 46.0912 10.6962 493 130.018 200.339 477.686
63 0 51.1682 12.2342 626 123.348 199.936 477.102
64 0 54.0536 14.0786 761 124.59 200.746 478.393
65 0 56.0726 13.2863 745 127.274 200.583 478.851
66 0 56.0395 13.4726 755 136.211 199.862 477.339
67 0 60.0411 14.1736 851 133.535 199.964 475.55
68 0 60.0499 12.7894 768 138.004 200.569 475.655
69 0 65.0616 15.1395 985 129.674 199.584 474.146
70 0 66.1034 15.0068 992 131.337 200.147 472.332
71 0 69.0885 14.9084 1030 131.456 199.386 471.422
72 0 70.1198 14.6321 1026 133.704 199.269 469.83
73 0 72.0764 15.3864 1109 131.583 200.446 468.003
74 0 75.1428 14.7852 1111 131.203 200.4 467.813
75 0 77.1468 14.6344 1129 130.241 199.193 467.26
76 0 80.194 15.1133 1212 130.009 199.419 467.43
77 0 80.1804 14.2179 1140 135.551 199.171 464.511
78 0 84.1473 14.5697 1226 126.308 199.228 459.93
79 0 87.0986 14.3975 1254 126.355 199.138 460.001
80 0 90.177 13.7286 1238 127.728 199.922 459.143
81 0 92.0802 14.1724 1305 128.428 199.539 455.343
82 0 97.1618 14.3266 1392 128.156 199.847 455.897
83 0 100.119 14.4428 1446 129.523 199.517 456.092
84 1 52.0298 12.07 628 127.398 200.482 481.199
85 0 52.0198 12.3222 641 124.621 200.064 480.694
86 0 56.0338 12.8137 718 123.273 200.033 478.784
87 0 58.0333 12.4067 720 124.497 200.999 478.094
88 0 60.0576 12.9875 780 122.795 200.321 476.637
89 0 62.0527 13.6014 844 121.001 199.783 475.735
90 0 64.1246 14.3782 922 118.921 199.343 475.403
91 0 66.0664 13.3502 882 121.481 199.676 473.875
92 0 67.0473 12.7373 854 123.744 199.145 473.801
93 0 70.118 13.1493 922 123.466 199.287 472.079
94 0 74.1149 12.5751 932 122.981 199.682 472.136
95 0 74.1415 12.7864 948 124.734 199.164 468.58
96 0 76.0757 12.4218 945 127.558 199.232 467.821
97 0 80.1196 13.1553 1054 124.339 199.383 467.073
98 0 84.0946 12.9378 1088 124.746 198.683 463.907
99 0 87.116 13.4648 1173 123.686 199.067 462.911
100 0 89.0647 12.2608 1092 126.3 199.018 462.646
101 1 46.0215 10.9731 505 120.457 198.893 484.737
102 0 48.0187 11.6621 560 118.852 198.961 482.071
103 0 50.0543 11.5874 580 118.797 199.133 481.867
104 0 51.0436 13.2044 674 115.001 198.42 480.62
105 0 52.0648 11.8314 616 119.69 199.455 480.179
106 0 53.0951 11.9785 636 118.019 198.972 480.121
107 0 57.0806 11.3173 646 118.449 199.279 478.822
108 0 60.11 11.662 701 116.194 199.65 478.357
109 0 61.0765 11.6575 712 116.56 199.072 477.173
110 0 63.0642 13.2563 836 113.008 198.537 474.842
111 0 65.0924 12.9662 844 114.583 198.43 473.425
112 0 68.0704 11.7378 799 115.826 198.989 473.592
113 0 70.0872 12.6985 890 114.476 198.643 471.439
114 0 74.1101 13.4395 996 111.15 198.154 471.501
115 0 74.0867 11.4865 851 117.389 198.759 467.584
116 0 76.0366 11.6523 886 118.144 197.325 468.115
117 0 80.108 12.5206 1003 115.621 197.881 466.573
118 0 85.0964 13.2673 1129 112.75 197.407 465.504
119 0 88.1541 12.6596 1116 114.861 197.704 463.271
120 0 91.0466 13.0702 1190 114.093 197.875 461.847
121 0 93.1098 12.8343 1195 117.332 198.027 458.605
122 1 52.0774 12.155 633 116.229 198.411 478.795
123 0 52.0918 10.9422 570 116.916 198.079 479.225
124 0 55.0886 11.5813 638 115.895 197.55 478.083
125 0 57.0277 12.3624 705 110.352 199.196 477.438
126 0 61.1018 12.7165 777 108.042 197.955 477.687
127 0 61.0424 13.2695 810 108.848 197.716 474.251
128 0 63.0365 12.0882 762 112.626 198.476 475.921
129 0 66.1317 12.717 841 122.086 198.488 472.873
130 0 69.206 12.4989 865 120.913 198.541 472.325
131 0 71.2189 12.7213 906 118.553 198.375 470.384
132 0 73.1181 13.3346 975 116.104 197.905 468.985
133 0 76.146 13.0539 994 112.503 198.097 467.542
134 0 77.0841 13.0896 1009 113.862 197.574 467.563
135 0 80.1477 12.7639 1023 118.811 197.628 465.808
136 0 82.1299 12.2854 1009 120.158 197.12 465.452
137 0 84.2222 12.2414 1031 121.265 197.589 465.003
138 0 87.2221 11.5911 1011 124.942 196.951 463.483
139 1 45.1941 11.2183 507 119.012 196.765 484.132
140 0 46.2035 11.471 530 119.175 198.079 483.608
141 0 48.1169 12.054 580 121.345 198.131 481.891
142 0 51.2186 13.2374 678 116.919 197.771 480.155
143 0 52.0846 11.4813 598 118.254 198.07 480.627
144 0 53.054 12.4779 662 117.216 197.855 478.782
145 0 56.0236 12.9945 728 117.085 198.56 477.236
146 0 57.0667 12.4941 713 118.815 198.736 477.553
147 0 58.042 12.3359 716 121.874 197.895 477.138
148 0 61.0126 13.7021 836 117.683 198.66 476.205
149 0 63.066 11.8606 748 129.02 198.612 475.579
150 0 64.0939 12.8249 822 129.06 197.684 473.99
151 0 65.1902 12.3025 802 131.04 198.163 473.127
152 0 67.078 12.8507 862 128.64 198.653 471.09
153 0 69.0554 12.4827 862 124.852 199.053 471.123
154 0 71.0377 12.3878 880 124.598 197.842 470.589
155 0 74.052 13.0719 968 124.175 197.706 468.804
156 0 75.0565 12.1908 915 126.904 198.399 468.116
157 0 78.0815 12.5382 979 126.29 197.908 466.351
158 0 81.1968 13.4365 1091 124.888 198.821 464.503
159 0 83.2259 12.436 1035 129.209 198.832 464.25
160 0 88.2305 13.9748 1233 123.262 198.388 463.58
161 0 89.1568 12.6519 1128 129.144 199.273 461.113
162 0 90.1464 12.6905 1144 128.889 198.273 460.844
163 1 46.026 11.5587 532 124.979 198.859 482.912
164 0 49.0976 12.0372 591 122.57 198.959 480.986
165 0 50.1311 11.8888 596 125.988 199.185 481.628
166 0 51.1276 13.1045 670 122.613 197.933 477.551
167 0 53.0841 12.8287 681 125.814 197.865 478.278
168 0 56.0968 13.9758 784 121.722 197.647 477.227
169 0 57.1178 13.691 782 121.51 197.992 477.097
170 0 60.1513 14.5965 878 118.978 197.697 474.888
171 0 61.1646 13.5863 831 121.375 197.629 473.943
172 0 63.1015 12.7255 803 124.009 197.262 473.932
173 0 64.1435 12.815 822 124.622 197.732 471.714
174 0 67.1912 13.9006 934 122.242 196.828 469.832
175 0 70.1572 13.0421 915 123.254 197.397 471.069
176 0 71.1484 12.9588 922 125.225 197.001 468.963
177 0 74.2042 13.9884 1038 122.64 196.956 467.989
178 0 77.1043 13.8643 1069 123.202 197.101 465.414
179 0 79.1853 13.4874 1068 124.673 198.026 464.478
180 0 81.1932 13.043 1059 82.7309 197.991 457.677
181 0 82.1056 12.2525 1006 124.366 197.645 460.487
182 1 45.1248 11.4571 517 118.644 197.364 479.805
183 0 46.2152 11.0786 512 112.941 198.451 477.266
184 0 47.0505 11.0094 518 120.429 198.214 481.156
185 0 50.0451 12.9283 647 114.864 198.301 479.682
186 0 50.0682 13.1221 657 114.846 198.504 480.015
187 0 53.0875 12.7902 679 116.387 198.32 478.336
188 0 54.0324 11.9558 646 117.881 198.963 478.893
189 0 56.0703 14.0716 789 113.52 198.199 477.417
190 0 58.031 13.2515 769 114.962 198.433 477.419
191 0 59.1125 12.8738 761 116.602 198.486 474.415
192 0 61.0412 12.5325 765 117.464 198.154 475.017
193 0 64.14 12.7534 818 116.136 198.317 475.084
194 0 65.0346 12.0551 784 119.596 198.075 473.718
195 0 68.0515 13.0636 889 118.039 198.537 471.497
196 0 70.0926 13.5535 950 116.782 197.875 469.845
197 0 71.0588 12.9752 922 118.921 198.32 469.774
198 0 75.0425 12.4863 937 120.426 198.07 469.48
199 0 76.072 13.6055 1035 118.71 198.641 466.855
200 0 80.064 13.6516 1093 117.016 198.21 464.987
201 0 82.0323 13.3728 1097 118.911 198.12 463.902
202 0 86.095 13.5548 1167 118.624 197.757 460.991
203 0 91.0482 13.5093 1230 117.992 198.594 460.935
204 1 45.0588 12.2285 551 118.074 198.817 481.719
205 0 45.0455 11.5883 522 122.023 198.849 481.079
206 0 47.0157 10.89 512 126.758 199.277 481.648
207 0 50.096 11.7574 589 123.348 199.594 481.582
208 0 53.0272 12.4653 661 120.427 198.794 479.088
209 0 51.0332 11.3651 580 125.555 199.428 477.829
210 0 54.0427 10.6582 576 125.75 199.158 478.753
211 0 57.028 12.1169 691 120.909 199.605 476.962
212 0 58.0218 12.2885 713 120.731 198.418 475.206
213 0 59.073 11.6974 691 121.645 198.292 474.663
214 0 62.0198 11.4318 709 120.993 198.667 474.526
215 0 63.1373 12.0214 759 120.184 197.676 472.49
216 0 66.0936 12.6033 833 117.695 199.036 472.693
217 0 67.0737 12.5683 843 116.67 198.72 472.526
218 0 70.0401 12.6071 883 117.716 198.615 468.257
219 0 71.1114 12.7546 907 117.456 197.499 468.352
220 0 74.2324 12.8111 951 115.912 196.938 467.973
221 0 76.0667 13.0938 996 115.043 198.017 465.32
222 0 77.2092 11.2292 867 116.17 197.029 464.225
223 0 79.1541 11.1555 883 116.421 196.696 465.555
224 0 83.1358 12.6901 1055 113.483 197.11 462.666
225 0 85.2288 12.2259 1042 115.047 196.925 461.322
226 0 89.2552 12.75 1138 113.522 197.559 458.958
227 1 48.1446 10.7177 516 115.079 197.645 479.384
228 0 51.0469 12.3612 631 111.043 197.525 478.22
229 0 49.0704 10.7397 527 109.218 197.349 480.205
230 0 50.0151 10.8767 544 110.026 197.54 476.8
231 0 53.0559 10.4984 557 109.722 197.329 478.262
232 0 55.0667 11.4407 630 107.032 197.421 477.864
233 0 57.0622 10.7777 615 107.849 197.766 476.756
234 0 59.0775 12.4413 735 104.441 198.21 475.922
235 0 59.0453 11.1779 660 106.979 198.773 475.742
236 0 61.0331 11.1251 679 106.764 197.557 475.791
237 0 64.0804 12.1878 781 105.343 198.588 472.466
238 0 64.0717 11.612 744 105.931 198.573 473.384
239 0 66.084 11.3946 753 107.919 199.129 469.914
240 0 69.214 12.6853 878 105.569 197.999 468.718
241 0 72.0882 12.1518 876 105.385 197.926 471.444
242 0 74.1257 12.5463 930 105.081 198.061 468.152
243 0 75.1127 11.9953 901 106.814 198.047 469.364
244 0 78.0522 12.2482 956 107.488 198.008 463.869
245 0 82.0981 12.0831 992 108.36 197.584 463.028
246 0 85.0997 12.597 1072 109.731 197.291 463.324
247 0 90.1172 12.8277 1156 110.659 197.657 462.308
248 0 92.1066 11.9753 1103 111.732 197.813 458.59
249 0 94.1925 11.519 1085 113.738 197.647 457.845
250 0 98.149 12.9599 1272 111.094 197.862 455.425
251 0 101.088 12.2072 1234 113.021 197.999 454.075
252 0 102.265 11.5876 1185 115.803 197.979 449.88
253 0 108.187 12.5708 1360 113.158 197.665 451.429
254 0 112.147 11.8773 1332 112.32 197.7 446.393
255 0 113.127 12.5965 1425 109.809 197.938 445.552
256 1 56.2203 13.1625 740 107.953 197.127 475.614
257 0 55.0313 12.3566 680 107.694 197.549 474.913
258 0 59.1931 12.9407 766 104.919 197.979 474.56
259 0 59.0899 12.4725 737 106.417 197.788 473.113
260 0 63.0639 14.0651 887 102.097 198.058 472.857
261 0 63.1146 13.1824 832 104.712 197.888 470.361
262 0 66.0321 12.3425 815 105.955 198.076 470.206
263 0 68.0495 12.5644 855 106.388 198.019 470.026
264 0 70.0437 13.4202 940 104.923 198.01 468.462
265 0 71.0747 12.6065 896 107.231 198.084 468.173
266 0 76.0665 12.4628 948 109.393 197.726 468.603
267 0 78.0844 13.383 1045 108.751 198.456 465.878
268 0 80.0482 12.9297 1035 109.228 197.667 465.304
269 0 81.0826 13.4678 1092 111.204 197.977 462.35
270 0 84.0745 13.6546 1148 111.014 197.906 462.071
271 0 86.1298 13.0385 1123 113.872 198.219 460.663
272 0 88.1077 14.1191 1244 112.4 198.636 460.368
273 0 90.1838 13.1731 1188 116.1 198.424 457.673
274 0 94.2245 13.5952 1281 115.736 197.824 457.081
275 0 96.1199 13.3895 1287 117.418 198.559 457.001
276 0 98.3347 14.0642 1383 117.025 198.495 454.358
277 0 99.1464 13.2834 1317 121.008 198.324 452.697
278 0 105.259 13.804 1453 119.499 197.96 450.524
279 0 107.155 14.2598 1528 119.765 198.135 446.66
280 0 113.297 13.6102 1542 120.439 197.898 449.261
281 0 116.291 12.5461 1459 124.986 197.899 443.068
282 0 119.275 13.3557 1593 125.575 197.514 441.422
283 1 63.191 11.9637 756 116.114 199.471 474.316
284 0 64.1062 13.2125 847 118.884 197.857 470.954
285 0 67.0477 12.9908 871 115.743 197.929 472.082
286 0 68.0342 12.7289 866 118.073 198.094 471.976
287 0 70.0688 12.9872 910 119.489 198.238 468.882
288 0 72.0297 11.884 856 121.987 197.62 468.835
289 0 74.0606 12.3007 911 120.845 197.198 468.551
290 0 78.0623 12.0929 944 121.237 198.524 467.137
291 0 80.0824 13.0116 1042 119.389 198.296 466.035
292 0 82.1256 12.9436 1063 120.383 197.702 464.608
293 0 85.1184 13.0054 1107 121.085 197.815 462.831
294 0 88.0804 13.5785 1196 118.028 197.278 462.891
295 0 91.1476 12.189 1111 121.742 197.311 460.38
296 0 95.1536 13.7147 1305 118.196 197.952 459.213
297 0 98.2223 13.2047 1297 120.227 197.64 456.629
298 0 99.1006 12.5529 1244 122.633 198.103 454.866
299 0 104.123 14.2811 1487 118.057 197.503 453.41
300 0 105.168 13.2835 1397 121.205 197.39 451.366
301 0 109.121 12.7015 1386 122.926 197.043 450.485
302 0 113.223 13.6191 1542 119.964 197.748 449.15
303 1 60.0765 11.0692 665 117.211 198.481 476.549
304 0 61.0588 10.9567 669 120.981 198.572 473.72
305 0 65.1877 11.1831 729 122.833 198.728 471.892
306 0 66.078 11.0173 728 113.348 198.731 473.853
307 0 67.0273 12.7262 853 111.041 198.645 470.209
308 0 72.1561 11.1841 807 113.729 198.473 470.543
309 0 73.1268 12.0339 880 111.215 198.147 469.972
310 0 76.0626 11.3591 864 113.043 198.406 468.314
311 0 78.0644 12.605 984 109.621 198.536 466.865
312 0 82.0661 11.6979 960 110.354 198.908 466.518
313 0 84.1132 11.2705 948 111.357 199.003 465.696
314 0 87.0648 12.841 1118 109.487 198.28 461.11
315 0 90.0778 11.7787 1061 112.225 198.416 459.47
316 0 94.1617 11.7457 1106 111.666 198.844 458.264
317 0 97.1228 11.9128 1157 111.559 198.069 458.048
318 1 53.0726 11.098 589 106.533 198.411 479.3
319 0 52.0325 10.8394 564 109.78 198.775 477.287
320 0 56.0703 12.8945 723 103.44 199.373 476.52
321 0 55.1621 11.2577 621 107.304 198.407 476.121
322 0 59.0664 11.4278 675 107.501 198.098 475.487
323 0 61.1322 12.2358 748 106.202 197.938 474.814
324 0 62.0753 11.8082 733 117.776 197.366 473.954
325 0 65.04 12.5769 818 116.038 198.672 471.407
326 0 68.0318 12.8175 872 117.513 197.595 471.21
327 0 72.0397 12.8401 925 114.325 197.674 472.253
328 0 75.1309 13.563 1019 111.369 198.264 471.875
329 0 75.1243 12.8986 969 115.812 198.647 467.457
330 0 78.0677 12.9759 1013 116.884 198.893 467.166
331 0 79.1074 11.6424 921 122.962 198.807 464.459
332 0 82.0653 11.9052 977 122.376 198.817 465.203
333 0 86.1367 13.8385 1192 111.89 198.182 463.354
334 0 88.1582 12.7385 1123 115.957 198.833 462.118
335 1 47.0245 10.6328 500 120.932 198.824 483.892
336 0 45.0767 9.31745 420 125.248 199.85 483.681
337 0 48.0111 11.7265 563 115.368 199.837 480.584
338 0 49.0439 11.7242 575 114.424 198.19 481.918
339 0 48.0354 10.7421 516 117.49 198.769 483.326
340 0 52.073 11.5223 600 114.988 199.063 479.745
341 0 55.1071 12.2126 673 111.746 198.6 478.961
342 0 54.0565 11.488 621 115.601 198.887 477.697
343 0 54.0667 11.2454 608 116.586 198.817 475.859
344 0 61.0437 12.4665 761 109.954 198.891 478.591
345 0 60.1162 11.6441 700 115.82 199.846 475.437
346 0 64.0762 12.9065 827 111.106 199.317 474.482
347 0 65.1388 12.8955 840 112.164 199.182 473.511
348 0 67.0816 12.8947 865 112.503 199.82 471.277
349 0 67.0298 11.9499 801 116 199.665 474.806
350 0 69.0584 12.3519 853 115.914 199.611 473.06
351 0 70.0847 11.8143 828 117.507 199.562 472.008
352 0 74.1136 12.238 907 115.592 200.19 470.834
353 0 77.074 13.2211 1019 114.204 199.803 468.57
354 0 79.1437 12.5721 995 115.932 199.113 468.592
355 0 82.149 12.6478 1039 115.984 198.71 466.129
356 0 85.1465 13.2008 1124 113.069 199.01 465.832
357 0 88.069 12.1382 1069 115.109 198.474 465.036
358 0 91.0831 13.5261 1232 110.124 198.986 462.64
359 0 93.1302 12.3483 1150 112.546 198.968 460.821
360 0 99.122 12.419 1231 111.453 199.213 458.959
361 0 102.144 13.4124 1370 108.854 198.631 458.003
362 1 52.049 9.99058 520 115.683 199.254 482.831
363 0 54.0254 12.4941 675 111.553 198.913 480.332
364 0 56.0503 13.363 749 109.87 199.368 477.949
365 0 58.0949 12.514 727 109.278 199 478.378
366 0 61.1311 12.4159 759 109.619 199.68 476.298
367 0 61.1169 12.6152 771 109.353 199.078 476.952
368 0 65.1566 13.8436 902 105.044 199.421 474.402
369 0 66.1054 14.3559 949 105.201 198.575 472.583
370 0 67.0808 12.9694 870 109.145 199.313 473.69
371 0 69.1558 11.2644 779 112.339 199.243 473.854
372 0 72.1248 12.9636 935 108.026 199.144 471.971
373 0 75.0546 13.0971 983 107.444 198.865 471.394
374 0 77.1314 13.4575 1038 107.273 198.706 469.117
375 0 80.1146 13.6804 1096 106.804 199.699 467.39
376 0 84.1203 13.6947 1152 106.226 199.39 468.117
377 0 83.1125 14.5225 1207 105.467 199.772 465.048
378 0 87.1023 13.8573 1207 106.892 199.669 465.27
379 0 88.1154 13.1192 1156 111.101 199.295 462.32
380 0 90.1536 13.1886 1189 112.682 199.064 462.251
381 0 94.161 13.0946 1233 112.955 199.062 461.177
382 0 95.0903 12.3251 1172 113.739 198.803 461.582
383 0 101.106 15.6766 1585 104.662 199.047 459.728
384 0 103.1 13.3948 1381 110.802 198.568 457.166
385 1 51.0504 11.4201 583 113.009 197.676 478.83
386 0 55.1219 12.5903 694 108.519 197.777 478.957
387 0 55.0675 14.0192 772 104.65 199.123 479.574
388 0 58.0895 13.221 768 104.859 199.637 479.43
389 0 60.0243 13.9943 840 103.867 199.642 477.339
390 0 62.055 14.3743 892 102.545 198.461 477.873
391 0 62.0943 13.8499 860 104.878 199.49 475.688
392 0 67.0993 14.5307 975 101.708 198.802 474.936
393 0 69.0266 14.0091 967 102.826 198.858 473.69
394 0 72.0908 14.7314 1062 101.3 199.137 473.367
395 0 71.0942 13.4188 954 106.681 199.097 471.325
396 0 73.0896 13.7229 1003 107.214 199.273 470.593
397 0 76.1003 12.6412 962 110.636 199.215 469.426
398 0 81.0708 13.8028 1119 107.072 198.567 468.997
399 0 83.1149 13.1745 1095 109.047 199.851 468.485
400 1 46.0399 11.3814 524 111.708 200.206 484.912
401 0 48.0758 12.8131 616 107.929 199.58 483.998
402 0 50.1348 12.5063 627 105.317 199.434 484.892
403 0 48.0423 12.7388 612 104.853 199.234 483.042
404 0 53.0951 13.4664 715 101.821 198.75 482.006
405 0 52.0959 11.594 604 108.063 198.884 482.306
406 0 55.1194 12.1373 669 105.614 199.413 481.411
407 0 56.0564 12.755 715 105.715 198.473 480.997
408 0 57.0815 13.1742 752 105.459 198.98 479.669
409 0 60.0266 14.7268 884 101.939 198.933 477.199
410 0 61.0663 12.9204 789 106.408 199.522 477.847
411 0 64.1009 13.5411 868 105.803 198.903 475.044
412 0 68.1053 13.4938 919 105.485 198.677 474.528
413 0 70.0847 12.9843 910 108.259 198.921 473.903
414 0 69.1084 12.4732 862 111.039 199.209 473.955
415 0 74.1548 13.337 989 109.347 199.236 470.368
416 0 77.0533 12.7574 983 111.566 199.376 469.517
417 0 81.1147 13.2035 1071 106.169 199.252 467.693
418 0 84.1496 13.2978 1119 106.34 199.611 467.175
419 1 42.0524 10.5583 444 105.777 199.914 488.214
420 0 45.1294 10.9685 495 103.554 199.806 487.067
421 0 43.157 12.6978 548 109.609 199.319 486.511
422 0 45.098 12.3065 555 109.105 200.22 486.553
423 0 45.0819 13.1982 595 108.655 199.966 486.521
424 0 48.2142 13.5645 654 106.39 199.983 484.058
425 0 51.0981 13.2882 679 106.576 199.452 483.635
426 0 50.2321 11.5663 581 111.8 199.821 484.372
427 0 53.0776 12.0955 642 110.449 199.539 481.455
428 0 56.1819 13.5275 760 104.886 199.55 483.099
429 0 54.0876 11.4259 618 112.686 199.875 481.562
430 0 57.1275 12.2708 701 109.698 200.197 481.144
431 0 62.0871 12.708 789 107.568 200.202 478.836
432 0 61.2285 11.1549 683 112.612 199.777 478.079
433 0 64.0486 12.3656 792 109.176 199.803 477.17
434 0 66.1195 11.6456 770 111.345 199.203 476.01
435 0 68.0628 11.7245 798 110.901 199.486 475.093
436 0 70.0963 11.8979 834 110.067 199.236 475.044
437 0 72.0796 12.5001 901 109.592 198.66 472.976
438 0 74.1078 11.6857 866 112.73 198.415 470.789
439 0 77.0819 10.5861 816 113.381 198.765 471.632
440 0 81.0727 11.6809 947 111.282 198.326 467.03
441 1 44.0177 11.5408 508 106.878 199.699 487.648
442 0 43.1408 13.3053 574 106.927 198.841 484.301
443 0 46.0526 11.9429 550 108.431 198.673 485.298
444 0 47.0901 12.0407 567 106.229 199.386 483.822
445 0 47.0406 11.4794 540 109.63 199.304 484.28
446 0 48.0435 11.7185 563 108.78 198.975 483.405
447 0 52.0988 12.6491 659 104.578 198.393 481.782
448 0 52.0918 12.9963 677 104.467 198.753 481.164
449 0 53.0857 12.753 677 105.341 198.458 480.284
450 0 57.1662 13.6269 779 102.359 198.986 478.285
451 0 59.1339 12.4294 735 103.789 199.996 478.796
452 0 59.0426 12.3809 731 104.817 198.963 477.601
453 0 61.0832 11.8036 721 106.029 200.184 477.487
454 0 63.0718 12.8584 811 103.73 199.854 474.211
455 0 65.0765 12.5391 816 104.093 199.803 473.174
456 0 68.196 12.772 871 103.08 199.691 473.39
457 0 68.1748 12.1746 830 105.149 199.682 472.07
458 0 71.0885 12.6462 899 104.343 199.856 470.74
459 0 76.0758 13.3025 1012 101.364 199.726 470.509
460 0 79.2418 13.5661 1075 101.126 199.033 468.38
461 0 80.1314 12.804 1026 105.747 199.477 465.031
462 0 80.1314 12.8289 1028 132.804 199.506 464.833
463 0 85.2679 11.8333 1009 108.025 198.877 463.486
464 1 41.2606 11.0517 456 106.98 198.857 481.877
465 0 42.247 11.7168 495 105.24 198.527 480.964
466 0 44.0772 11.8882 524 103.345 199.864 483.637
467 0 45.0901 11.6212 524 104.496 199.113 483.836
468 0 49.0904 12.8131 629 99.806 199.24 483.852
469 0 50.0504 12.6073 631 100.932 198.526 482.035
470 0 51.0348 12.3641 631 101.634 198.662 482.765
471 0 52.0199 12.8605 669 101.127 199.097 481.2
472 0 52.0431 12.6434 658 103.272 198.564 479.831
473 0 55.0416 11.4641 631 104.764 199.19 480.683
474 0 57.1016 13.5198 772 100.947 199.181 478.905
475 0 60.0747 13.5831 816 100.8 199.39 477.991
476 0 58.0698 12.5539 729 104.77 199.251 477.251
477 0 63.0722 13.4925 851 105.894 198.845 476.415
478 0 64.0818 13.0146 834 106.59 199.119 475.574
479 0 65.1093 13.7461 895 105.848 199.306 473.089
480 0 66.0786 12.3489 816 108.701 198.491 474.19
481 0 69.0874 12.998 898 105.261 198.315 472.66
482 0 71.3093 12.8034 913 104.961 198.897 470.636
483 0 73.2049 13.1549 963 104.693 199.896 466.479
484 0 76.2268 14.6668 1118 101.078 199.29 466.73
485 0 79.2789 13.2444 1050 103.316 198.867 466.324
486 0 81.379 13.1852 1073 103.57 198.596 464.821
487 0 85.3596 12.8632 1098 104.555 199.447 463.815
488 0 87.3261 14.2111 1241 102.55 199.221 461.511
489 0 90.2337 12.3457 1114 107.793 199.44 460.384
490 0 93.2309 13.9975 1305 104.982 198.815 457.923
491 0 95.2102 12.5302 1193 107.986 199.177 456.646
492 1 49.1479 12.4115 610 101.848 199.426 481.013
493 0 50.2123 13.0845 657 101.449 199.583 480.962
494 0 51.116 12.6966 649 109.478 198.307 479.059
495 0 57.0665 12.3365 704 107.858 198.97 480.018
496 0 58.2048 12.9027 751 106.023 199.522 478.636
497 0 57.178 12.7846 731 108.301 199.161 476.146
498 0 60.1315 13.1046 788 107.442 198.744 475.133
499 0 62.1624 13.143 817 107.706 199.785 475.645
500 0 62.1499 11.3596 706 117.214 199.824 473.244
501 0 64.1903 11.9956 770 118.719 200.349 473.673
502 0 69.1564 13.7659 952 114.386 199.775 472.411
503 0 70.1261 13.7467 964 112.488 199.885 471.003
504 0 74.104 13.8859 1029 112.239 200.308 471.459
505 0 74.0768 14.107 1045 115.078 199.941 468.542
506 0 76.0995 13.5481 1031 118.02 199.274 468.018
507 0 80.1191 13.9917 1121 116.891 199.979 466.993
508 0 82.1053 13.775 1131 119.112 199.679 464.897
509 0 85.1303 13.7554 1171 120.403 199.48 464.121
510 0 87.0949 14.6048 1272 120.39 199.183 461.356
511 0 92.134 14.7611 1360 119.804 199.337 459.782
512 0 96.1428 14.7697 1420 120.267 198.961 459.558
513 0 97.1354 14.0114 1361 124.535 198.497 455.716
514 0 101.057 14.1307 1428 126.477 199.122 455.784
515 0 105.136 14.6287 1538 125.328 198.475 455.81
516 1 57.0552 12.2513 699 124.494 198.903 478.535
517 0 60.0411 12.9411 777 122.637 199.833 477.124
518 0 61.1344 13.135 803 124.56 198.732 473.578
519 0 63.0526 12.5768 793 125.449 199.289 475.744
520 0 64.0569 13.7846 883 124.675 199.589 473.409
521 0 67.0414 13.6483 915 125.228 198.92 473.467
522 0 67.0629 13.6588 916 119.847 197.749 474.969
523 0 66.0985 11.9216 788 127.857 199.088 473.604
524 0 72.0342 11.911 858 125.96 198.323 473.713
525 0 74.0976 13.2258 980 123.983 198.645 472.199
526 0 77.1558 13.557 1046 124.324 198.573 470.295
527 0 79.1134 13.8409 1095 125.349 198.068 469.035
528 0 82.0983 13.5447 1112 126.101 198.537 466.221
529 0 84.0848 13.5458 1139 127.025 198.585 466.735
530 0 87.1125 14.4411 1258 124.897 198.974 465.264
531 0 90.0314 12.9288 1164 129.329 198.675 461.59
532 0 95.0867 13.4824 1282 125.709 198.66 462.778
533 1 48.0276 12.1388 583 125.923 198.952 482.139
534 0 49.0241 11.8513 581 122.076 197.966 481.224
535 0 51.0951 12.4865 638 117.395 198.124 482.237
536 0 53.0333 11.1817 593 120.11 198 481.116
537 0 55.0819 12.2363 674 116.033 198.312 481.312
538 0 56.1113 12.19 684 118.178 198.49 478.307
539 0 59.0864 12.1009 715 116.569 198.062 479.133
540 0 57.0387 10.8523 619 122.053 198.512 478.187
541 0 61.0193 10.5376 643 121.303 198.453 478.16
542 0 64.0311 10.9166 699 119.419 198.601 477.519
543 0 65.0602 11.5893 754 120.023 198.434 476.012
544 0 68.0254 12.3777 842 119.543 197.98 473.779
545 0 69.1223 12.6443 874 121.4 198.697 472.06
546 0 72.1161 12.7156 917 121.152 197.835 471.418
547 0 74.0194 13.4154 993 121.657 198.269 468.47
548 0 77.1912 12.5921 972 122.844 198.283 468.532
549 0 80.0519 13.4163 1074 120.774 199.538 468.551
550 0 81.0681 12.508 1014 124.945 199.034 468.178
551 0 84.0716 11.7162 985 126.578 198.423 468.802
552 0 87.0547 13.1756 1147 123.666 198.808 465.285
553 0 89.1157 12.6577 1128 126.942 198.407 462.531
554 0 92.1166 12.1151 1116 129.004 198.102 461.957
555 0 94.1297 12.929 1217 127.492 197.353 460.857
556 0 96.2295 11.9922 1154 129.089 198.627 461.679
557 0 101.064 11.9331 1206 128.693 198.24 457.701
558 0 105.172 11.1912 1177 125.035 198.901 451.748
559 1 57.0562 11.55 659 124.31 197.769 480.07
560 0 60.0605 12.4874 750 122.207 198.741 477.565
561 0 60.0522 12.1727 731 122.446 198.8 476.62
562 0 62.1321 12.4412 773 122.978 198.613 477.697
563 0 62.0791 11.131 691 128.172 199.22 475.972
564 0 64.0431 11.3361 726 128.3 199.326 476.05
565 0 67.136 12.1991 819 126.695 198.864 474.435
566 0 71.1285 12.7797 909 124.872 198.86 471.968
567 0 71.1661 11.8736 845 127.899 198.679 472.124
568 0 75.2031 12.6325 950 125.783 199.526 471.026
569 0 77.1288 11.967 923 128.595 198.827 470.47
570 0 80.0802 12.6498 1013 127.003 199.337 467.89
571 0 81.107 12.4157 1007 128.337 199.003 465.836
572 0 84.0996 13.0322 1096 126.45 199.412 465.759
573 0 90.1659 13.0204 1174 125.967 199.467 463.914
574 0 92.1047 13.0504 1202 126.711 199.589 462.817
575 0 94.081 12.7124 1196 127.986 199.987 459.115
576 0 98.0875 13.1821 1293 125.771 200.078 460.08
577 0 100.062 13.8813 1389 124.909 199.12 456.632
578 0 104.043 13.4944 1404 127.189 199.011 456.629
579 0 104.145 12.5114 1303 133.204 199.085 452.145
580 0 109.132 13.4974 1473 129.814 199.314 453.584
581 0 111.074 13.2794 1475 133.458 198.805 450.06
582 0 114.284 13.1952 1508 134.513 199.023 448.663
583 0 119.159 11.9337 1422 137.298 199.021 448.544
584 0 124.216 13.2994 1652 133.221 199.494 445.769
585 0 129.21 13.0873 1691 134.362 199.069 442.48
586 0 132.199 12.6249 1669 136.571 199.165 439.06
587 1 71.0707 11.383 809 129.036 200.1 470.784
588 0 77.1426 13.5982 1049 123.713 198.616 467.918
589 0 77.1899 11.6336 898 123.063 199.866 464.497
590 0 82.1052 12.143 997 119.4 199.006 463.736
591 0 81.0796 11.0509 896 123.987 199.163 461.834
592 0 84.0742 11.1449 937 124.359 199.771 461.08
593 0 88.1371 11.4027 1005 125.077 200.027 460.635
594 0 91.0968 11.7567 1071 124.945 200.009 459.393
595 0 95.0442 11.1211 1057 128.373 199.016 457.495
596 0 97.1057 11.6265 1129 127.587 199.816 456
597 0 100.198 12.625 1265 125.473 198.96 453.422
598 0 103.144 12.8171 1322 124.955 199.011 454.405
599 0 106.144 14.3484 1523 127.806 198.929 455.214
600 0 111.117 13.2203 1469 127.924 199.37 452.703
601 0 111.219 12.2551 1363 131.194 199.637 448.762
602 0 117.185 12.1602 1425 130.277 198.98 448.542
603 0 124.245 13.4814 1675 125.377 198.453 444.429
604 0 126.162 12.3254 1555 129.237 199.238 442.92
605 0 130.159 11.8701 1545 129.755 200 439.353
606 1 72.1434 11.7821 850 123.292 200.126 469.682
607 0 74.0769 12.109 897 123.182 199.456 467.599
608 0 76.0725 12.5144 952 123.149 198.873 468.585
609 0 77.1772 12.4519 961 120.388 198.143 468.768
610 0 77.0575 11.3681 876 122.239 198.143 467.94
611 0 80.0694 12.1645 974 121.236 198.309 465.805
612 0 85.119 12.3827 1054 120.603 198.036 465.416
613 0 87.2183 11.5572 1008 123.772 197.38 463.235
614 0 90.2433 13.1977 1191 119.444 198.109 463.395
615 0 92.0661 12.5779 1158 122.66 198.017 461.09
616 0 93.3068 12.2392 1142 121.065 198.307 461.644
617 0 97.1466 12.3936 1204 116.75 198.206 457.418
618 0 102.072 12.3736 1263 117.907 198.081 457.587
619 0 102.15 11.0035 1124 121.557 197.852 457.019
620 0 108.107 12.8854 1393 115.949 198.063 454.164
621 0 112.161 12.8832 1445 115.622 198.949 450.343
622 0 114.089 12.7269 1452 117.455 198.085 450.447
623 0 119.269 11.7801 1405 122.73 199.009 447.028
624 0 123.232 12.9674 1598 118.482 198.763 443.016
625 0 126.21 12.5268 1581 120.063 198.922 441.665
626 0 131.177 12.5784 1650 120.106 199.082 438.728
627 0 134.152 11.6733 1566 123.127 198.398 439.245
628 1 72.1126 10.8858 785 112.245 198.143 467.224
629 0 75.1139 12.4211 933 110.818 198.121 466.156
630 0 77.1366 11.2139 865 113.341 198.02 467.534
631 0 81.1488 12.9515 1051 110.032 197.051 464.996
632 0 85.1486 12.0025 1022 111.964 197.519 464.516
633 0 85.1402 11.1698 951 115.148 198.791 464.647
634 0 90.1959 12.6502 1141 111.846 198.103 463.118
635 0 93.1335 13.2176 1231 110.345 198.252 463.417
636 0 95.1326 13.0344 1240 113.009 198.702 460.145
637 0 99.1433 12.4971 1239 113.65 198.928 461.619
638 0 101.057 12.9234 1306 114.394 197.616 458.449
639 0 104.234 13.5657 1414 114.045 198.649 457.008
640 0 107.094 12.7365 1364 119.875 198.814 456.668
641 0 111.182 12.7808 1421 118.816 197.828 455.142
642 0 114.265 13.3899 1530 117.71 197.512 449.978
643 0 117.226 12.7104 1490 120.84 197.119 449.119
644 0 121.329 13.1048 1590 119.231 197.855 448.766
645 0 124.195 12.2549 1522 122.112 197.307 443.965
646 0 130.256 13.3123 1734 119.435 197.275 440.969
647 1 69.0792 12.8982 891 115.541 197.65 472.907
648 0 70.2714 12.6083 886 121.186 199.067 470.784
649 0 72.1967 13.4771 973 120.596 198.187 469.948
650 0 74.2597 13.8972 1032 120.982 198.036 469.356
651 0 76.1804 13.4024 1021 123.077 198.25 468.557
652 0 78.1827 13.0208 1018 126.127 197.994 468.01
653 0 79.2378 14.2861 1132 93.2076 199.071 467.216
654 0 83.1661 13.4189 1116 122.112 198.736 463.513
655 0 86.1369 13.049 1124 120.639 198.507 459.35
656 0 88.1871 13.4714 1188 119.578 199.206 459.466
657 0 90.1959 13.26 1196 121.824 198.58 457.494
658 0 94.1907 13.7062 1291 119.727 197.826 457.682
659 0 94.1741 12.6362 1190 124.407 197.934 453.508
660 0 100.16 13.0092 1303 123.472 197.806 450.8
661 0 102.168 13.3995 1369 123.492 198.053 450.216
662 0 105.273 12.7289 1340 126.588 197.664 449.175
663 0 108.215 12.6415 1368 126.018 197.485 448.102
664 0 112.142 13.1886 1479 123.73 198.27 442.535
665 0 119.251 14.2808 1703 117.418 197.49 440.441
666 0 120.514 17.1931 2072 88.805 198.262 444.334
667 1 67.2418 13.1466 884 115.373 197.56 472.486
668 0 71.1787 12.4616 887 110.086 196.65 472.161
669 0 73.0845 13.2313 967 108.723 197.401 468.669
670 0 74.0974 12.0382 892 111.499 196.787 469.778
671 0 78.1913 12.8531 1005 109.76 197.07 468.32
672 0 79.0872 11.481 908 113.291 197.3 466.624
673 0 82.1531 12.0628 991 113.243 198.26 467.171
674 0 83.1103 12.5857 1046 113.351 197.866 464.292
675 0 89.1561 12.7641 1138 112.939 199.279 459.764
676 0 90.1898 12.2963 1109 115.214 198.666 461.758
677 0 94.126 12.3239 1160 116.146 198.024 460.041
678 0 99.1619 13.1502 1304 119.282 197.4 457.642
679 0 102.133 12.3172 1258 117.991 197.832 456.226
680 0 105.12 12.7759 1343 118.997 197.078 456.058
681 0 109.238 12.633 1380 85.9717 197.467 456.333
682 1 55.0155 11.7785 648 113.87 197.738 480.111
683 0 57.0226 11.7322 669 113.339 198.314 479.994
684 0 59.0527 11.295 667 115.207 198.133 478.379
685 0 62.0997 11.8197 734 112.789 197.218 475.926
686 0 64.0873 12.2801 787 113.175 196.429 474.066
687 0 67.0723 13.8358 928 108.977 196.755 473.739
688 0 69.0954 12.6202 872 112.969 196.794 474.362
689 0 71.0759 12.2264 869 118.844 198.009 473.556
690 0 71.106 12.9103 918 120.219 198.291 473.539
691 0 77.1341 13.5089 1042 117.64 198.711 471.799
692 0 79.096 14.4381 1142 116.06 198.283 469.278
693 0 79.2871 13.2682 1052 121.105 198.362 466.16
694 0 84.2429 14.4582 1218 116.652 198.139 466.218
695 0 88.253 13.3027 1174 119.462 197.976 465.179
696 0 91.3015 13.658 1247 118.767 197.564 461.798
697 0 90.1857 13.5276 1220 121.245 197.47 459.473
698 0 92.1422 11.8838 1095 117.234 198.293 456.222
699 0 92.0865 10.6748 983 125.861 198.412 456.179
700 0 98.1401 12.6859 1245 117.043 198.447 452.731
701 0 101.138 12.5472 1269 119.548 199.241 453.756
702 1 54.1476 10.6007 574 117.094 199.488 472.655
703 0 55.0602 9.84377 542 119.801 197.897 481.932
704 0 59.0276 11.4862 678 115.627 198.128 479.615
705 0 62.1056 12.5914 782 112.211 197.198 475.2
706 0 63.1955 12.4376 786 114.411 196.896 476.416
707 0 63.0297 11.328 714 117.025 198.403 478.436
708 0 68.1072 11.9371 813 115.635 199.037 474.032
709 0 70.1322 11.9203 836 114.709 198.62 473.728
710 0 72.0828 11.9723 863 114.16 198.61 471.875
711 0 75.1602 11.9212 896 114.379 199.047 472.713
712 0 75.0338 10.1554 762 118.398 198.909 472.988
713 0 77.1044 10.7517 829 117.834 198.571 470.174
714 0 83.1198 10.8277 900 115.503 199.434 469.107
715 0 86.1311 11.0761 954 114.769 198.645 466.738
716 0 87.1872 10.8617 947 115.967 198.147 466.238
717 0 91.154 11.7274 1069 116.218 198.436 462.488
718 0 94.1233 12.1436 1143 115.213 197.605 461.9
719 0 96.2104 11.3813 1095 116.583 198.245 461.628
720 1 52.0285 12.2241 636 116.16 199.437 481.017
721 0 54.0697 10.8379 586 125.805 198.84 481.246
722 0 56.0377 12.1525 681 121.764 199.759 479.871
723 0 59.0596 13.0546 771 120.239 200.464 477.835
724 0 59.0398 13.1945 779 150.597 201.43 478.006
725 0 63.0286 11.5344 727 122.902 198.939 478.569
726 0 64.0407 11.399 730 125.01 198.897 476.353
727 0 68.085 12.3816 843 120.405 199.369 475.466
728 0 68.0974 12.952 882 120.954 199.224 473.255
729 0 69.0873 12.9402 894 120.333 199.216 473.406
730 0 71.1273 12.9064 918 118.442 199.608 473.032
731 0 75.0547 13.6967 1028 115.371 199.568 471.963
732 0 77.0527 14.211 1095 114.746 198.982 470.037
733 0 79.1444 13.469 1066 116.372 199.237 469.113
734 0 80.0477 12.1927 976 113.581 198.888 469.58
735 0 83.1435 14.2765 1187 108.441 198.896 468.648
736 0 85.1334 13.4495 1145 111.5 198.162 466.968
737 0 88.1691 13.0545 1151 111.405 198.33 466.878
738 0 91.2535 13.2707 1211 111.59 198.558 464.134
739 0 95.1365 12.7396 1212 112.952 198.182 462.817
740 0 98.1237 14.0231 1376 109.57 198.205 461.409
741 0 99.1325 12.7405 1263 113.709 199.005 458.593
742 1 50.072 11.6832 585 117.079 198.797 483.32
743 0 53.019 12.6181 669 113.815 197.924 483.946
744 0 54.1137 12.8064 693 114.961 198.869 482.196
745 0 57.134 13.5646 775 112.982 200.218 477.729
746 0 58.0775 13.5509 787 113.743 198.501 481.398
747 0 59.1198 13.1259 776 116.465 198.046 479.908
748 0 61.1231 12.8429 785 117.581 196.967 478.154
749 0 62.1029 13.6548 848 116.507 197.362 476.988
750 0 64.1604 14.152 908 114.483 197.308 476.933
751 0 64.0689 13.0172 834 118.957 197.336 477.072
752 0 67.0953 13.2945 892 118.849 197.508 475.294
753 0 69.1698 12.6934 878 120.714 197.998 474.886
754 0 72.3366 14.4187 1043 116.903 198.266 473.116
755 0 74.1113 13.6416 1011 119.312 197.475 472.26
756 0 75.2497 14.02 1055 120.25 198.321 471.674
757 0 79.1625 14.325 1134 118.921 197.994 468.638
758 0 80.2802 12.7678 1025 123.358 197.407 469.149
759 0 84.4037 13.7435 1160 119.126 198.456 468.402
760 0 88.2479 13.3148 1175 121.169 198.006 467.364
761 0 89.2574 14.2733 1274 120.429 197.978 463.462
762 0 92.3006 13.5535 1251 123.456 197.675 462.786
763 0 96.2375 13.29 1279 123.551 197.373 461.679
764 0 98.2002 13.7372 1349 122.974 197.577 459.872
765 0 102.245 14.3283 1465 122.178 197.554 456.746
766 0 105.174 13.7202 1443 118.035 197.704 450.78
767 1 53.1826 12.0152 639 119.067 198.196 475.142
768 0 54.1436 11.6727 632 121.366 197.964 475.153
769 0 58.1352 12.0237 699 113.837 198.419 474.831
770 0 60.1164 12.8917 775 112.093 198.52 473.179
771 0 60.1652 12.5488 755 115.454 198.564 473.232
772 0 63.1191 13.831 873 113.781 198.718 471.328
773 0 65.2196 12.4349 811 117.911 198.677 471.213
774 0 68.1713 12.8647 877 118.99 198.637 470.078
775 0 69.187 13.225 915 120.357 198.2 467.845
776 0 72.1042 12.9257 932 120.266 197.736 467.326
777 0 72.3126 12.1141 876 124.001 198.487 464.683
778 0 78.2168 13.3475 1044 119.654 198.645 464.667
779 0 80.0556 13.3033 1065 121.269 198.314 463.131
780 0 82.0863 13.2665 1089 121.078 198.445 461.897
781 0 84.1023 14.0662 1183 120.119 198.343 460.009
782 0 86.1118 14.3186 1233 125.981 198.221 463.592
783 0 88.2129 14.0229 1237 127.429 198.458 459.773
784 0 93.2295 13.6223 1270 123.398 198.284 457.324
785 0 95.3064 13.0212 1241 125.417 198.885 456.434
786 0 96.1312 12.6702 1218 123.746 198.81 450.671
787 0 101.114 12.4711 1261 127.607 197.379 452.694
788 0 108.119 13.7812 1490 118.828 197.893 449.709
789 1 55.0766 10.1495 559 116.934 198.962 475.955
790 0 58.0199 11.6856 678 111.773 198.966 473.482
791 0 60.0763 12.1179 728 105.802 198.945 474.841
792 0 62.0623 11.714 727 107.508 198.816 473.897
793 0 65.0701 12.233 796 106.073 198.333 473.124
794 0 65.1373 12.773 832 105.611 198.332 471.51
795 0 69.0386 13.3548 922 104.675 199.253 470.227
796 0 69.0656 11.8583 819 108.49 198.446 468.339
797 0 73.1485 12.9326 946 105.952 197.94 467.617
798 0 74.192 11.632 863 110.123 198.088 464.905
799 0 78.1834 11.8184 924 109.695 197.902 464.08
800 0 81.2477 11.9019 967 111.168 198.097 461.903
801 0 83.338 11.7353 978 112.541 197.871 462.116
802 0 87.149 12.7712 1113 109.959 197.735 460.931
803 0 90.2116 13.3131 1201 111.252 198.145 456.66
804 0 92.302 11.8957 1098 114.512 198.324 457.336
805 0 95.206 12.2156 1163 113.527 197.513 457.177
806 0 97.2168 11.9835 1165 118.831 197.532 457.899
807 1 53.0773 10.7202 569 112 198.473 475.854
808 0 55.1609 11.548 637 113.069 197.819 474.675
809 0 58.0751 11.554 671 114.288 199.133 473.906
810 0 59.2104 10.6062 628 116.93 198.283 473.487
811 0 62.0899 10.6942 664 116.622 199.116 472.959
812 0 64.2028 11.8686 762 114.399 198.169 472.441
813 0 66.1424 10.9461 724 115.805 197.653 472.457
814 0 67.2795 11.965 805 115.076 198.957 474.838
815 0 71.1524 12.4662 887 115.058 198.727 470.798
816 0 73.1792 12.4352 910 115.093 199.052 471.512
817 0 75.1608 12.7593 959 116.444 197.891 470.667
818 0 79.254 11.8101 936 118.847 198.16 471.657
819 0 82.257 13.4092 1103 115.176 198.411 468.41
820 0 85.1448 12.2615 1044 122.502 198.287 466.617
821 0 85.0894 11.8111 1005 123.114 198.549 467.518
822 0 89.1252 12.6564 1128 122.809 198.548 461.84
823 0 92.1684 12.0757 1113 122.863 198.799 463.184
824 1 48.0214 11.7031 562 116.698 199.258 485.491
825 0 49.1202 10.2809 505 120.992 199.848 484.76
826 0 52.0718 12.5788 655 117.258 199.252 482.325
827 0 54.127 12.3968 671 117.909 199.295 482.213
828 0 54.0227 12.8835 696 120.731 197.884 482.345
829 0 55.0282 11.8121 650 124.691 197.665 481.225
830 0 58.0722 12.6567 735 123.023 197.167 479.107
831 0 60.0513 12.8557 772 126.293 196.653 479.049
832 0 63.0225 13.392 844 124.646 195.929 477.647
833 0 64.1707 13.355 857 125.743 197.237 477.897
834 0 66.1501 13.031 862 127.439 196.434 475.354
835 0 69.1104 14.0934 974 123.195 197.498 474.998
836 0 71.2366 12.4795 889 125.983 197.534 475.852
837 0 72.3206 12.97 938 125.8 197.402 472.742
838 0 76.368 14.7313 1125 121.604 197.108 471.201
839 0 79.443 13.1415 1044 125.918 197.404 470.517
840 0 81.2685 14.8643 1208 117.818 198.024 469.759
841 0 83.3289 14.1248 1177 120.325 197.477 465.066
842 0 86.3251 13.4839 1164 121.044 197.674 462.718
843 0 88.1457 13.0693 1152 121.668 197.352 464.332
844 0 91.167 14.5118 1323 116.967 197.574 460.859
845 1 49.2078 11.1974 551 124.668 197.172 481.209
846 0 51.1502 12.1212 620 120.148 196.926 481.263
847 0 51.1668 12.4299 636 120.697 197.752 476.465
848 0 53.0787 11.4547 608 113.094 196.852 476.949
849 0 56.09 11.018 618 118.638 196.927 478.371
850 0 57.2804 10.6668 611 118.653 198.637 478.277
851 0 61.0577 12.8567 785 113.299 198.159 475.885
852 0 62.2456 11.5671 720 117.162 198.036 476.99
853 0 63.0611 11.6871 737 118.068 197.901 476.205
854 0 66.1178 11.3585 751 118.843 198.446 474.799
855 0 66.1246 13.157 870 114.205 197.654 472.784
856 0 68.1553 12.2514 835 116.181 197.889 472.487
857 0 73.1972 11.995 878 115.879 198.189 472.506
858 0 75.2432 12.7852 962 116.093 197.93 472.1
859 0 76.205 12.3089 938 119.351 197.647 470.998
860 0 79.1925 13.3725 1059 117.546 197.865 469.806
861 0 81.101 13.0825 1061 119.88 198.121 469.059
862 0 84.1472 12.4187 1045 122.217 198.699 468.379
863 0 84.1681 12.6295 1063 123.562 197.559 463.748
864 0 89.1956 12.9715 1157 123.501 197.891 463.745
865 0 90.243 12.8874 1163 123.79 198.219 463.773
866 0 95.182 13.2168 1258 123.438 198.158 462.798
867 0 96.2082 11.1529 1073 129.468 198.281 463.423
868 0 100.211 11.4159 1144 129.42 197.533 459.632
869 1 52.0913 12.5357 653 127.452 198.894 481.184
870 0 52.0195 12.5914 655 131.15 198.244 481.611
871 0 55.2167 12.9309 714 132.592 198.318 477.712
872 0 56.0822 12.8026 718 133.689 198.57 479.256
873 0 59.0449 12.5159 739 132.916 198.938 479.379
874 0 62.0599 14.8244 920 125.217 199.604 476.38
875 0 63.0673 13.7472 867 128.16 199.211 476.355
876 0 63.1112 12.9296 816 132 199.473 476.288
877 0 66.066 13.3806 884 129.934 199.114 474.862
878 0 71.0584 13.6507 970 128.327 199.397 473.746
879 0 73.0248 13.9131 1016 127.362 198.379 473.05
880 0 75.048 14.5773 1094 125.959 198.721 470.218
881 0 77.0459 13.0831 1008 117.29 198.095 469.003
882 0 80.1486 13.2379 1061 118.497 197.592 466.781
883 0 82.0524 12.7967 1050 120.051 197.633 466.122
884 0 85.1457 12.0499 1026 121.837 198.379 462.905
885 0 87.146 13.8388 1206 118.642 197.78 462.247
886 0 91.1607 13.8766 1265 119.988 197.521 460.85
887 0 94.1946 12.0708 1137 124.301 197.415 459.846
888 0 99.3137 13.6436 1355 122.613 197.914 457.412
889 1 53.1779 12.9565 689 120.206 197.821 481.096
890 0 56.2734 13.0435 734 119.549 197.512 480.947
891 0 57.1022 14.01 800 114.021 198.742 480.061
892 0 56.1059 12.8685 722 119.004 198.298 479.235
893 0 59.0923 13.5889 803 116.748 198.218 478.209
894 0 63.0453 14.1168 890 112.826 198.996 475.684
895 0 61.0811 12.9664 792 119.508 198.66 476.375
896 0 66.0784 13.9683 923 115.577 198.594 476.013
897 0 67.1442 12.6593 850 119.831 198.801 474.9
898 0 68.1606 13.0721 891 120.979 198.828 472.604
899 0 73.1626 13.9415 1020 118.259 198.582 471.209
900 0 74.1341 13.7454 1019 120.706 198.49 469.508
901 0 77.1508 14.4263 1113 119.636 198.665 469.142
902 0 81.1895 13.6964 1112 121.956 198.743 468.123
903 0 83.1998 14.0144 1166 121.742 198.597 467.715
904 0 85.1653 13.8319 1178 123.603 198.995 466.287
905 0 89.1819 14.7788 1318 121.689 198.847 464.106
906 0 91.1938 13.5755 1238 126.822 198.763 461.641
907 0 93.1611 13.804 1286 126.663 198.55 461.144
908 0 97.2061 14.8242 1441 125.169 198.227 460.322
909 0 99.2079 14.394 1428 128.256 198.188 458.408
910 0 104.155 15.1601 1579 125.97 199.322 454.56
911 0 108.178 15.1879 1643 125.766 199.029 452.061
912 0 109.107 14.0595 1534 133.351 198.164 452.425
913 0 117.11 14.2088 1664 130.332 197.44 451.365
914 0 121.209 15.2959 1854 126.55 197.468 448.044
915 0 125.194 13.8106 1729 133.871 198.123 444.552
916 1 65.0586 12.2966 800 126.998 197.971 475.822
917 0 67.0534 11.0807 743 126.826 197.701 473.69
918 0 71.1686 13.5172 962 124.567 197.576 472.347
919 0 74.3176 13.0924 973 124.431 198.815 469.989
920 0 76.0489 13.3861 1018 124.829 197.429 470.781
921 0 80.1518 13.2873 1065 126.207 197.621 470.278
922 0 80.0452 12.8677 1030 130.043 197.769 468.69
923 0 84.0687 13.0608 1098 129.301 197.718 468.274
924 0 89.1314 13.8223 1232 126.097 198.242 462.95
925 0 91.045 12.2137 1112 137.069 198.317 462.819
926 0 96.0714 12.5532 1206 134.282 197.293 462.529
927 0 98.1307 13.1152 1287 131.611 198.096 457.269
928 0 103.087 13.8233 1425 129.858 197.452 457.225
929 1 54.067 11.5042 622 129.082 197.392 482.838
930 0 55.1454 11.3699 627 128.47 199.207 478.847
931 0 57.0489 11.7969 673 123.666 197.883 480.633
932 0 60.051 12.9057 775 122.026 198.237 478.463
933 0 62.0495 13.1347 815 120.545 198.902 477.485
934 0 63.0781 12.5876 794 122.038 198.562 475.951
935 0 66.0451 13.5514 895 116.534 198.687 475.235
936 0 69.0909 12.2737 848 120.574 199.343 474.245
937 0 72.0471 13.5744 978 115.962 199.167 472.356
938 0 74.1639 12.4724 925 119.17 198.96 470.292
939 0 77.0668 12.1064 933 119.193 198.89 469.765
940 0 79.1545 12.8104 1014 116.763 199.122 469.589
941 0 83.0638 12.6529 1051 115.524 198.764 467.091
942 0 85.1359 11.9808 1020 116.437 198.325 466.586
943 1 43.0455 11.7782 507 114.25 199.037 485.31
944 0 45.0657 11.8272 533 110.711 199.156 484.944
945 0 45.1059 11.0629 499 114.114 198.798 481.441
946 0 47.0851 10.704 504 112.843 198.657 483
947 0 49.0433 11.969 587 108.346 199.099 482.668
948 0 49.0222 11.199 549 111.224 198.805 482.291
949 0 51.08 12.4511 636 106.827 198.906 483.124
950 0 53.1934 11.9752 637 107.892 199.151 478.548
951 0 53.0971 10.5655 561 110.012 199.381 479.109
952 0 55.0469 12.1533 669 106.12 198.601 478.117
953 0 57.0475 11.3765 649 107.26 198.553 478.653
954 0 60.0413 10.9092 655 108.791 199.113 477.431
955 0 58.0378 10.5965 615 110.546 198.865 477.101
956 0 62.1008 11.433 710 107.932 198.994 474.654
957 0 62.1018 11.1913 695 109.954 198.445 474.255
958 0 65.0428 11.3464 738 109.432 198.676 474.718
959 0 65.108 10.2292 666 112.838 198.68 472.961
960 0 70.1903 11.4831 806 109.479 198.021 471.784
961 0 70.1969 11.1259 781 111.341 198.257 469.506
962 0 74.0651 9.45114 700 112.559 198.044 469.126
963 0 78.1004 11.5364 901 107.559 198.388 468.049
964 0 81.2111 11.661 947 107.908 198.852 464.731
965 1 42.0459 10.8215 455 109.316 198.398 484.31
966 0 43.2192 11.1062 480 108.973 198.775 481.915
967 0 45.0732 11.3593 512 107.584 198.969 483.006
968 0 45.1076 11.6388 525 113.47 196.333 483.244
969 0 45.0615 12.0946 545 109.892 196.059 483.877
970 0 49.0416 12.3161 604 108.866 197.142 482.854
971 0 48.0913 12.705 611 110.809 196.27 481.57
972 0 51.0774 12.4321 635 109.524 196.293 480.192
973 0 51.0639 13.0817 668 110.57 196.966 480.04
974 0 54.174 13.7889 747 108.336 196.953 478.905
975 0 54.1714 13.0327 706 111.779 197.5 478.068
976 0 56.1914 13.632 766 109.734 197.5 477.695
977 0 59.2698 14.5268 861 107.005 197.677 476.77
978 0 59.1936 13.8359 819 110.791 197.812 474.797
979 0 63.2687 13.5454 857 109.681 197.991 476.281
980 0 61.2447 12.6215 773 114.499 197.595 475.299
981 0 63.1997 13.2912 840 114.211 197.871 472.165
982 0 65.2537 12.3671 807 116.078 197.905 472.682
983 0 68.2232 13.192 900 114.046 197.01 472.123
984 0 71.2934 13.732 979 113.244 197.57 468.842
985 0 72.2466 13.1771 952 115.667 197.081 468.987
986 0 76.3397 13.3613 1020 115.063 197.613 467.438
987 0 78.0951 12.6 984 117.186 197.52 467.055
988 0 80.1956 12.9808 1041 116.951 197.362 464.431
989 0 81.1616 12.4197 1008 117.146 197.633 462.12
990 1 44.1561 10.9838 485 119.045 197.864 479.571
991 0 46.0455 11.5538 532 119.254 198.645 478
992 0 48.1097 12.035 579 118.173 199.339 477.126
993 0 50.0259 12.8334 642 115.945 199.836 476.724
994 0 52.1711 13.2065 689 115.595 198.81 475.549
995 0 51.0579 12.6131 644 116.935 199.039 476.329
996 0 52.0846 12.1341 632 119.834 198.967 472.685
997 0 56.1228 12.7756 717 116.555 199.081 474.476
998 0 57.1717 13.4857 771 115.441 198.337 472.645
999 0 58.1092 14.7137 855 113.737 198.45 470.04
1000 0 63.1467 13.4924 852 114.779 199.187 470.478
1001 0 63.1589 13.5531 856 115.217 198.69 469.231
1002 0 66.3094 15.5483 1031 110.348 198.622 469.891
1003 0 67.1971 13.6018 914 116.277 198.73 469.128
1004 0 70.1643 13.4114 941 117.555 198.045 467.879
1005 0 73.288 14.4908 1062 115.298 198.732 465.867
1006 0 75.336 13.0349 982 120.484 198.403 466.265
1007 0 78.129 14.2201 1111 118.266 198.51 463.971
1008 0 81.1202 14.0779 1142 119.928 196.75 468.327
1009 0 81.2188 12.9527 1052 120.767 198.393 464.96
1010 0 87.4964 13.132 1149 114.663 196.976 459.799
1011 0 87.1446 13.0014 1133 117.025 197.264 458.986
1012 0 90.1064 12.5962 1135 118.344 197.041 460.031
1013 1 50.3128 10.6136 534 116.94 197.551 474.255
1014 0 51.2493 12.2733 629 118.975 196.722 469.232
1015 0 55.2361 12.3108 680 108.612 198.049 478.781
1016 0 54.2043 11.9179 646 111.181 197.381 476.402
1017 0 57.2847 13.1798 755 107.808 198.175 476.139
1018 0 59.2235 14.1835 840 105.242 197.515 475.02
1019 0 58.2041 12.439 724 111.587 197.989 474.18
1020 0 62.2555 13.1073 816 110.548 197.952 472.184
1021 0 63.6331 12.0221 765 114.929 197.907 470.833
1022 0 65.3198 13.2885 868 113.032 197.524 469.755
1023 0 67.4416 13.8639 935 113.722 197.367 469.165
1024 0 69.1682 13.9515 965 123.491 196.816 470.911
1025 0 73.2761 13.9063 1019 122.651 197.686 468.554
1026 0 74.4426 12.869 958 126.018 197.219 469.008
1027 0 78.2899 15.4554 1210 118.712 197.343 464.522
1028 0 82.3177 14.3347 1180 119.692 196.839 462.97
1029 0 84.2456 14.2559 1201 119.471 197.217 459.228
1030 0 87.2264 13.4248 1171 121.588 197.398 460.36
1031 1 44.048 10.7383 473 122.584 197.569 480.765
1032 0 47.0673 13.3851 630 117.092 198.168 480.192
1033 0 45.0664 12.1155 546 120.383 197.445 477.742
1034 0 50.0438 12.4291 622 119.505 198.336 476.965
1035 0 52.0621 12.7156 662 119.681 197.81 474.804
1036 0 54.3764 12.9468 704 114.599 198.29 476.277
1037 0 55.0982 13.5032 744 114.496 198.747 475.462
1038 0 58.3771 12.8989 753 113.045 198.753 476.084
1039 0 58.1295 11.4056 663 116.621 198.382 476.706
1040 0 61.2007 11.8136 723 117.028 197.824 474.909
1041 0 63.1934 13.3716 845 116.964 198.673 476.828
1042 0 65.2208 13.6 887 117.281 198.001 473.676
1043 0 67.1928 13.6026 914 117.487 198.479 472.71
1044 0 68.2632 13.3454 911 118.411 197.945 472.538
1045 0 72.4744 14.1981 1029 116.365 198.236 469.938
1046 0 74.2932 13.3256 990 115.871 197.802 470.346
1047 0 79.374 14.2616 1132 113.926 198.342 467.922
1048 0 80.2638 13.2812 1066 116.354 197.913 469.33
1049 0 84.2414 14.1854 1195 112.789 198.138 465.777
1050 0 86.2387 14.4251 1244 112.044 197.809 465.742
1051 0 88.3858 13.475 1191 115.322 197.329 462.457
1052 1 47.1054 11.2089 528 112.545 198.14 485.144
1053 0 48.108 11.9731 576 110.536 198.342 485.417
1054 0 47.2186 12.5374 592 112.863 198.258 481.904
1055 0 51.0315 11.8358 604 111.586 198.366 481.891
1056 0 51.1819 12.4067 635 111.706 197.723 482.227
1057 0 56.0446 13.0432 731 107.233 198.259 480.049
1058 0 57.1077 12.3451 705 108.006 197.877 479.916
1059 0 57.1236 11.9215 681 109.809 198.257 478.574
1060 0 61.1454 12.9527 792 106.612 198.462 477.707
1061 0 62.1357 13.0682 812 106.723 197.9 475.861
1062 0 62.292 12.329 768 108.124 198.066 475.596
1063 0 65.1773 13.3329 869 107.382 198.102 473.281
1064 0 69.2966 13.1175 909 106.352 198.432 473.337
1065 0 70.2487 12.3419 867 109.125 197.672 471.164
1066 0 73.2371 13.8181 1012 105.508 197.992 470.925
1067 0 74.2163 12.4501 924 108.617 197.991 468.684
1068 0 79.196 13.2582 1050 107.775 198.068 467.718
1069 0 81.3057 13.0495 1061 109.199 198.161 467.094
1070 0 83.5509 13.0938 1094 107.143 197.776 465.674
1071 0 86.2147 13.536 1167 106.166 198.683 464.22
1072 0 89.187 12.8718 1148 107.893 198.358 462.041
1073 0 92.2813 11.8659 1095 109.537 198.309 460.285
1074 1 43.1133 9.81135 423 107.135 198.683 484.208
1075 0 47.1875 12.8212 605 100.41 198.362 483.974
1076 0 48.0618 12.4631 599 100.543 198.711 483.554
1077 0 51.1652 11.8049 604 101.636 197.945 482.336
1078 0 51.0847 11.4516 585 103.99 197.858 479.985
1079 0 53.245 11.1935 596 104.799 198.483 480.153
1080 0 53.1472 11.0824 589 105.586 198.74 479.209
1081 0 56.1784 12.7273 715 102.517 198.341 479.252
1082 0 57.3255 11.9493 685 106.599 198.488 476.492
1083 0 60.2922 12.1906 735 107.586 198.463 475.401
1084 0 61.1097 11.4384 699 111.289 197.555 475.664
1085 0 65.1756 12.7655 832 109.907 198.156 473.568
1086 0 66.1954 13.7472 910 108.384 198.175 475.444
1087 0 68.1564 12.1485 828 112.998 198.28 472.669
1088 0 71.1623 13.5184 962 109.937 197.734 470.133
1089 0 74.1668 12.4988 927 112.581 198.452 471.084
1090 0 77.175 13.0223 1005 110.988 198.592 469.502
1091 0 80.2583 12.7588 1024 111.959 198.37 468.062
1092 0 83.2472 13.8383 1152 110.231 198.108 465.83
1093 0 85.1691 13.5025 1150 111.936 197.403 465.101
1094 1 42.0199 11.3994 479 109.823 197.685 485.605
1095 0 43.1004 11.6704 503 110.634 196.604 476.032
1096 0 44.0757 11.3895 502 109.908 197.291 478.596
1097 0 47.0886 13.3366 628 105.111 198.567 484.554
1098 0 47.0479 12.8167 603 107.242 198.433 482.823
1099 0 49.0747 12.8987 633 106.989 198.645 483.109
1100 0 51.0529 12.634 645 106.302 198.462 482.504
1101 0 51.0616 11.9463 610 106.702 198.949 482.974
1102 0 53.0343 11.9545 634 106.836 198.117 481.855
1103 0 54.08 11.7603 636 108.135 198.418 480.742
1104 0 56.0947 13.192 740 104.997 197.68 479.869
1105 0 57.1332 12.4621 712 107.268 198.355 477.886
1106 0 59.128 11.9064 704 115.143 198.061 478.32
1107 0 61.2471 11.8536 726 109.955 198.952 478.551
1108 0 63.1525 11.7968 745 111.487 198.742 476.654
1109 0 66.116 11.5706 765 114.153 198.775 476.224
1110 0 66.132 11.0688 732 115.574 198.676 473.675
1111 0 70.1263 12.3206 864 111.338 198.027 475.48
1112 0 72.3178 11.242 813 113.838 198.298 472.93
1113 0 75.1239 11.4078 857 114.757 198.006 468.036
1114 0 76.1744 11.4737 874 115.589 198.291 468.723
1115 1 42.1319 10.3485 436 113.984 198.472 486.553
1116 0 43.0484 12.3814 533 108.06 197.437 486.568
1117 0 45.0437 11.8774 535 105.759 198.421 486.071
1118 0 47.1246 12.2441 577 104.856 198.416 484.286
1119 0 48.0781 12.8749 619 105.267 198.824 482.79
1120 0 50.1284 12.7473 639 105.681 198.412 482.443
1121 0 50.1957 13.3677 671 105.237 198.681 481.569
1122 0 54.0542 12.691 686 108.227 198.437 482.669
1123 0 55.1483 13.1101 723 108.314 198.237 480.664
1124 0 55.1029 11.5783 638 113.323 197.983 480.776
1125 0 59.1248 12.2453 724 113.138 198.004 479.395
1126 0 61.0826 13.8665 847 112.442 197.974 477.562
1127 0 63.0832 13.3316 841 114.944 197.606 476.165
1128 0 66.0701 13.7732 910 113.862 197.497 476.396
1129 0 67.0955 13.5926 912 116.505 197.821 474.876
1130 0 69.2132 12.8733 891 118.395 197.505 474.416
1131 0 69.5718 12.6919 883 121.262 197.146 472.052
1132 0 72.2464 12.6788 916 120.76 197.479 471.23
1133 0 76.2014 12.3226 939 120.974 197.315 470.94
1134 0 78.331 13.7621 1078 118.736 197.651 466.52
1135 0 81.1934 13.4494 1092 118.157 198.044 468.159
1136 0 84.1949 13.73 1156 117.115 197.875 466.066
1137 0 86.1413 13.118 1130 119.611 198.134 465.153
1138 0 87.2796 12.6948 1108 119.544 197.911 464.783
1139 1 49.0922 10.6942 525 120.516 197.869 483.501
1140 0 54.2153 13.3357 723 115.602 198.516 480.462
1141 0 55.1193 13.0989 722 115.675 198.597 481.425
1142 0 56.1555 12.875 723 117.556 198.385 479.609
1143 0 57.1394 13.0908 748 117.38 197.626 478.385
1144 0 61.1634 13.0961 801 117.206 197.702 477.604
1145 0 63.0667 13.9376 879 116.67 197.076 475.196
1146 0 62.237 11.7936 734 123.031 196.416 474.883
1147 0 68.2049 13.782 940 116.628 196.907 471.669
1148 0 68.0972 13.5101 920 116.8 196.367 471.628
1149 0 71.27 12.2772 875 119.65 196.379 471.147
1150 0 73.2988 12.5786 922 119.627 195.74 464.217
1151 0 76.3521 11.8399 904 121.627 195.865 462.658
1152 0 79.3949 12.6457 1004 119.529 196.317 463.574
1153 0 82.3471 12.8723 1060 118.469 196.121 461.885
1154 0 87.2739 13.7269 1198 115.575 196.018 461.224
1155 0 91.4116 13.8713 1268 115.633 195.591 458.74
1156 0 93.2946 13.3234 1243 117.527 196.583 456.114
1157 1 46.2792 11.6467 539 112.371 195.093 479.39
1158 0 47.206 12.6043 595 109.887 195.286 479.85
1159 0 49.16 12.022 591 111.371 195.377 478.983
1160 0 50.1915 12.0738 606 113.568 195.507 477.173
1161 0 52.122 12.6626 660 114.303 195.292 478.071
1162 0 53.1309 11.5752 615 117.855 195.299 476.582
1163 0 52.2979 10.8417 567 120.444 195.608 476.594
1164 0 55.1977 12.1925 673 116.262 195.617 476.967
1165 0 58.1655 12.1722 708 116.903 196.27 473.85
1166 0 59.1192 10.7579 636 121.692 195.34 473.197
1167 0 63.075 13.0638 824 115.068 195.805 472.813
1168 0 63.075 13.0638 824 125.767 196.806 472.742
1169 0 63.1031 12.0596 761 122.093 195.067 470.089
1170 0 68.1931 12.0247 820 122.38 195.441 469.04
1171 0 71.095 12.8138 911 120.282 196.408 469.514
1172 0 73.1125 12.8979 943 120.282 195.796 468.561
1173 0 76.1024 13.6001 1035 119.562 195.326 465.134
1174 0 77.138 12.2119 942 124.116 195.959 466.134
1175 0 82.0442 12.4811 1024 121.96 195.834 465.65
1176 0 83.1112 13.0307 1083 123.323 196.139 464.259
1177 0 86.1871 14.3873 1240 120.29 196.231 460.937
1178 0 89.1058 13.8487 1234 121.746 195.987 460.021
1179 0 93.1525 13.0861 1219 124.721 195.569 456.905
1180 0 95.0862 12.7674 1214 126.881 196.042 458.33
1181 0 98.1648 12.4892 1226 127.902 195.905 456.475
1182 1 54.0238 9.92155 536 124.295 195.707 478.685
1183 0 58.0307 11.7869 684 121.728 195.604 478.681
1184 0 60.0962 13.3785 804 122.017 195.612 476.43
1185 0 63.0488 12.9106 814 131.17 195.115 475.011
1186 0 64.1272 13.3641 857 131.083 195.124 472.61
1187 0 65.0676 13.2324 861 132.129 195.199 471.547
1188 0 69.1229 13.0492 902 131.967 195.302 471.04
1189 0 70.0837 12.5564 880 131.506 195.703 469.762
1190 0 74.0998 12.4022 919 130.703 195.601 469.567
1191 0 75.115 13.6324 1024 129.471 196.751 465.896
1192 0 79.1278 13.9142 1101 126.579 196.649 466.801
1193 0 79.1517 12.6466 1001 124.849 195.727 467.715
1194 0 83.2012 13.9662 1162 120.812 196.545 465.318
1195 0 83.1531 12.1463 1010 125.344 196.686 465.038
1196 0 88.2407 13.9505 1231 126.029 196.597 462.878
1197 0 92.1982 15.0979 1392 123.368 195.991 457.631
1198 0 93.1548 13.3112 1240 129.774 195.917 457.402
1199 0 97.1392 12.9505 1258 129.603 195.941 458.083
1200 0 99.118 14.518 1439 125.783 195.804 456.174
1201 0 101.126 13.053 1320 123.345 195.886 455.608
1202 0 103.111 13.1703 1358 123.002 196.546 452.39
1203 0 108.216 13.1681 1425 121.867 196.695 450.476
1204 0 111.133 12.8585 1429 122.896 196.315 447.988
1205 0 115.3 12.758 1471 122.42 196.133 449.129
1206 1 63.106 10.1417 640 122.088 197.102 474.798
1207 0 67.1391 12.9135 867 115.734 196.788 472.932
1208 0 68.0972 11.9829 816 118.523 197.453 472.319
1209 0 69.2015 12.991 899 114.424 197.157 469.194
1210 0 71.208 13.2429 943 115.011 196.536 467.739
1211 0 74.1099 13.372 991 115.587 196.683 468.467
1212 0 77.1711 13.0748 1009 115.16 197.512 468.788
1213 0 79.1788 12.4528 986 119.145 196.633 463.556
1214 0 81.1453 12.9767 1053 117.25 196.75 466.01
1215 0 84.1345 12.4444 1047 119.385 196.546 463.166
1216 0 84.1121 12.0316 1012 119.922 197.254 464.64
1217 0 85.0932 11.1642 950 123.46 197.708 463.627
1218 0 89.1725 11.6628 1040 122.231 197.419 462.043
1219 0 91.2204 11.7956 1076 122.741 196.422 461.1
1220 0 93.1072 12.1366 1130 123.804 197.173 459.111
1221 0 96.19 11.9035 1145 124.293 197.41 456.871
1222 0 99.1751 11.4545 1136 127.624 196.99 456.702
1223 0 102.128 11.3387 1158 126.999 196.719 456.45
1224 0 106.12 11.9864 1272 125.667 196.921 455.586
1225 0 110.171 12.2083 1345 126.694 197.981 450.934
1226 1 60.0807 10.1364 609 127.714 198.593 474.91
1227 0 61.0782 12.1975 745 121.961 198.201 474.863
1228 0 64.0594 12.5821 806 123.878 198.105 472.664
1229 0 65.0669 12.3104 801 119.772 198.195 472.582
1230 0 68.126 13.0347 888 116.315 197.891 469.877
1231 0 69.0802 11.6676 806 119.597 197.885 471.004
1232 0 71.095 12.5185 890 117.334 197.904 470.566
1233 0 73.0751 12.7951 935 117.185 197.677 469.292
1234 0 77.1934 12.8767 994 114.452 198.495 470.058
1235 0 78.1254 13.6447 1066 114.795 197.833 465.101
1236 0 80.058 12.4785 999 118.1 197.723 464.953
1237 0 82.0529 12.9429 1062 117.326 197.157 464.334
1238 0 86.2306 12.7565 1100 117.557 197.38 463.355
1239 0 88.107 11.9514 1053 119.718 197.561 462.491
1240 0 89.1094 12.1087 1079 120.166 196.729 459.267
1241 0 90.1707 11.9662 1079 120.223 197.109 458.715
1242 0 96.0852 12.926 1242 116.99 197.089 459.238
1243 0 100.079 13.2495 1326 117.775 196.503 457.424
1244 0 102.119 12.8576 1313 119.491 196.599 457.722
1245 0 105.094 12.3699 1300 119.229 196.585 454.662
1246 0 106.162 10.9549 1163 121.891 196.888 454.639
1247 1 59.079 12.5425 741 116.501 196.68 477.583
1248 0 59.0245 11.2835 666 118.665 198.08 475.914
1249 0 64.0678 13.3452 855 110.457 197.869 475.529
1250 0 61.0422 11.7296 716 117.897 197.222 473.475
1251 0 66.1448 12.1552 804 115.792 196.532 472.764
1252 0 66.0906 12.0441 796 116.897 197.443 472.239
1253 0 71.1187 13.7517 978 111.119 197.607 471.584
1254 0 71.0787 13.5906 966 113.325 197.39 470.407
1255 0 74.0538 13.7063 1015 112.62 197.615 468.905
1256 0 76.0647 12.6077 959 116.68 197.26 467.986
1257 0 79.1158 13.4234 1062 114.309 197.131 464.503
1258 0 82.0987 13.0087 1068 115.938 197.429 464.395
1259 0 83.1616 13.3355 1109 116.682 197.234 460.805
1260 0 87.0933 15.0758 1313 111.812 195.675 464.068
1261 0 88.1334 12.6286 1113 118.247 195.14 463.616
1262 0 91.1968 13.7505 1254 116.711 195.129 458.431
1263 0 94.0251 14.0814 1324 115.421 195.816 457.097
1264 1 51.0793 11.6094 593 118.715 195.614 479.791
1265 0 51.0241 12.3863 632 116.921 194.843 480.097
1266 0 54.1324 11.9152 645 110.676 196.143 481.022
1267 0 54.1225 11.7881 638 116.86 195.398 477.986
1268 0 55.0214 12.268 675 116.735 195.267 476.957
1269 0 58.0505 12.6958 737 115.183 195.313 475.913
1270 0 59.0828 13.7603 813 112.556 194.99 475.959
1271 0 62.0324 13.0738 811 113.832 195.192 474.398
1272 0 62.0835 12.6282 784 116.273 195.606 471.907
1273 0 66.0453 14.0964 931 111.35 196.108 472.665
1274 0 68.0634 13.5462 922 113.018 196.286 471.93
1275 0 69.0662 12.669 875 116.511 195.992 469.646
1276 0 72.0614 13.3775 964 114.6 196.229 469.278
1277 0 75.125 14.1364 1062 113.766 196.01 466.584
1278 0 77.0748 14.0772 1085 114.018 196.657 467.134
1279 0 80.147 13.1633 1055 117.13 196.336 464.788
1280 0 82.1395 14.171 1164 114.39 195.715 464.168
1281 0 87.154 13.9064 1212 111.67 196.204 463.022
1282 0 88.0674 13.0809 1152 115.894 196.044 459.706
1283 0 91.1017 12.7989 1166 115.843 196.604 459.706
1284 0 94.1797 12.3912 1167 117.055 196.181 460.84
1285 1 55.0684 12.8023 705 119.285 196.13 475.689
1286 0 56.0972 13.031 731 120.213 195.539 474.733
1287 0 60.1512 13.1834 793 122.347 196.928 474.467
1288 0 61.1653 12.6379 773 124.859 197.269 473.741
1289 0 63.1155 14.1804 895 120.877 196.594 473.102
1290 0 65.1955 12.5469 818 125.424 197.156 472.216
1291 0 67.131 12.8406 862 118.585 197.914 473.949
1292 0 70.049 13.7333 962 116.127 197.8 471.698
1293 0 73.1357 13.3587 977 115.397 198.512 472.973
1294 0 75.1062 13.208 992 117.246 197.401 468.734
1295 0 77.1229 13.3294 1028 116.646 198.146 469.569
1296 0 80.2086 12.8914 1034 118.63 197.436 466.052
1297 0 84.1479 12.4067 1044 118.732 197.476 466.939
1298 0 85.1289 12.8276 1092 119.009 197.022 464.184
1299 0 90.1383 13.8676 1250 115.701 197.218 461.176
1300 0 91.1772 12.1741 1110 118.757 197.009 464.232
1301 0 96.1323 12.8885 1239 116.39 197.715 462.376
1302 1 54.0607 12.2085 660 117.353 197.332 479.255
1303 0 54.0286 11.4754 620 120.352 197.398 476.411
1304 0 55.0787 10.131 558 109.401 198.077 472.891
1305 0 55.1778 12.7406 703 100.923 197.34 473.994
1306 0 60.1299 12.6227 759 108.585 197.314 476.762
1307 0 60.0848 12.0996 727 111.468 197.03 476.124
1308 0 62.0146 11.7876 731 111.245 197.294 477.338
1309 0 66.1496 13.9683 924 105.697 197.702 470.433
1310 0 65.1247 11.9156 776 113.727 196.942 473.227
1311 0 68.0824 12.3086 838 112.187 196.874 471.678
1312 0 69.244 12.131 840 112.531 197.577 469.299
1313 0 73.1458 12.4682 912 110.794 197.78 468.713
1314 0 74.1317 13.0983 971 110.597 197.389 467.99
1315 0 79.1758 12.3649 979 112.189 197.39 467.487
1316 0 81.1213 13.3381 1082 111.003 197.505 465.646
1317 0 83.1115 12.5253 1041 114.398 197.158 464.503
1318 0 85.1438 13.2951 1132 112.972 197.704 463.739
1319 0 90.0913 12.5539 1131 115.379 197.477 462.795
1320 0 92.12 12.7334 1173 116.182 197.835 461.197
1321 0 96.0956 13.3201 1280 114.816 196.759 460.701
1322 0 98.1825 12.2832 1206 118.423 196.889 458.27
1323 0 103.124 12.3541 1274 117.36 197.166 457.665
1324 0 106.201 12.9001 1370 118.509 196.782 451.283
1325 0 110.09 13.598 1497 117.345 196.357 449.407
1326 1 60.0246 12.0617 724 120.843 197.269 475.37
1327 0 62.0653 12.5191 777 117.653 197.082 476.972
1328 0 64.1709 13.6978 879 116.215 197.251 473.922
1329 0 66.1045 12.9492 856 119.711 197.558 471.397
1330 0 70.0924 13.4822 945 117.463 197.971 472.319
1331 0 73.0867 14.1886 1037 114.182 197.258 471.462
1332 0 75.1278 13.6035 1022 116.337 197.641 471.018
1333 0 76.2199 13.0937 998 119.007 196.883 469.948
1334 0 78.1138 13.1475 1027 116.931 197.104 468.547
1335 0 84.141 13.513 1137 114.908 196.684 466.739
1336 0 84.1875 13.2918 1119 115.885 196.621 466.445
1337 0 90.1566 12.8443 1158 115.821 196.991 464.677
1338 0 91.1684 12.8115 1168 115.358 196.848 462.914
1339 0 94.165 13.6994 1290 112.327 196.005 462.404
1340 0 96.3135 12.7604 1229 115.346 196.801 459.267
1341 0 102.227 13.0005 1329 114.603 197.701 457.384
1342 1 51.0839 11.7062 598 116.704 197.497 482.289
1343 0 54.1337 13.4482 728 111.151 197.662 479.473
1344 0 55.0744 12.3651 681 114.253 197.333 479.703
1345 0 59.129 13.4452 795 109.98 197.836 478.351
1346 0 61.085 13.7841 842 108.534 197.492 477.907
1347 0 62.1038 13.6063 845 108.085 197.366 476.712
1348 0 64.1328 13.5968 872 108.443 198.409 474.385
1349 0 66.145 12.3063 814 110.06 198.107 475.33
1350 0 69.1431 13.4359 929 106.723 196.984 471.574
1351 0 70.2365 12.2016 857 109.17 197.895 471.107
1352 0 72.1124 12.3696 892 108.864 197.988 470.322
1353 0 75.1268 12.3258 926 108.521 197.919 467.637
1354 0 78.1458 12.9246 1010 106.835 198.055 467.438
1355 0 80.2745 13.4912 1083 105.33 197.547 466.524
1356 0 83.1934 12.9938 1081 107.099 196.989 462.58
1357 0 83.135 12.4617 1036 109.672 197.604 460.406
1358 0 87.1598 13.0335 1136 107.952 197.391 459.11
1359 0 90.1092 13.6279 1228 107.295 197.413 458.044
1360 0 92.1775 13.2353 1220 108.765 196.862 457.58
1361 0 96.0782 13.8845 1334 105.263 196.814 455.63
1362 0 95.1856 13.3108 1267 106.391 195.764 454.631
1363 0 93.2503 10.6273 991 110.119 195.955 446.927
1364 0 98.2359 11.0754 1088 108.88 196.254 448.344
1365 0 103.149 12.7582 1316 105.929 196.024 447.845
1366 0 108.321 13.0722 1416 108.604 196.656 448.499
1367 0 112.24 13.2751 1490 109.231 196.661 444.848
1368 0 117.301 13.0349 1529 110.697 196.146 443.214
1369 0 124.412 13.3669 1663 109.156 196.023 441.07
1370 1 65.1101 11.8568 772 106.054 196.856 475.821
1371 0 67.1621 12.5815 845 104.507 197.334 470.996
1372 0 70.1246 11.8503 831 102.438 196.477 467.848
1373 0 72.2852 12.5614 908 101.207 197.192 468.226
1374 0 73.1627 11.5769 847 105.706 196.787 464.14
1375 0 76.248 11.8561 904 104.539 196.867 465.091
1376 0 81.1357 12.6455 1026 102.214 196.517 465.195
1377 0 81.208 12.4495 1011 104.879 196.799 463.211
1378 0 87.2176 13.4033 1169 102.646 195.996 460.848
1379 0 88.1008 12.5765 1108 106.983 196.32 459.346
1380 0 92.0724 12.9789 1195 105.987 196.008 458.591
1381 0 93.2223 13.2586 1236 106.883 196.372 456.152
1382 0 96.225 13.0631 1257 107.068 196.605 458.509
1383 0 100.164 13.8873 1391 113.144 196.056 457.538
1384 0 105.124 13.2319 1391 112.038 197.127 456.305
1385 0 108.164 13.5627 1467 111.995 196.768 454.148
1386 0 110.168 14.0059 1543 111.422 197.247 453.152
1387 0 115.166 13.9625 1608 110.466 197.16 450.149
1388 1 60.1527 11.5041 692 114.983 198.168 476.618
1389 0 64.0966 13.9165 892 109.895 198.322 475.647
1390 0 65.1196 12.2083 795 114.351 198.045 474.974
1391 0 66.1589 12.4095 821 114.593 197.831 473.252
1392 0 69.139 13.8851 960 110.397 197.77 472.32
1393 0 72.1838 14.0475 1014 109.59 197.86 470.006
1394 0 75.1988 13.4577 1012 111.561 197.288 470.103
1395 0 77.1851 13.6166 1051 111.142 197.535 468.673
1396 0 79.2201 13.8096 1094 111.122 197.267 467.98
1397 0 81.1811 13.1311 1066 113.561 196.9 464.816
1398 0 87.1886 14.0156 1222 110.719 197.574 462.57
1399 0 88.2196 13.8405 1221 112.328 195.952 462.921
1400 0 91.2418 13.9848 1276 111.689 196.347 461.479
1401 0 93.3802 12.9578 1210 114.032 196.498 461.527
1402 0 96.3661 14.2789 1376 111.988 196.908 454.189
1403 0 98.4134 14.6626 1443 115.404 196.695 452.721
1404 1 52.3263 11.9252 624 113.192 196.111 473.463
1405 0 54.228 11.6729 633 115.414 196.246 470.232
1406 0 54.1811 11.683 633 114.678 196.45 471.712
1407 0 56.0664 12.3068 690 118.22 197.48 475.814
1408 0 58.0276 12.8387 745 116.345 198.165 475.028
1409 0 59.067 12.7652 754 117.29 197.562 473.32
1410 0 62.0281 13.1553 816 116.245 196.957 472.228
1411 0 64.023 13.0109 833 114.423 197.259 474.354
1412 0 65.0452 13.2831 864 115.76 197.743 471.578
1413 0 69.0514 13.1931 911 115.362 197.176 469.184
1414 0 71.0553 13.0743 929 115.632 196.665 468.143
1415 0 72.0473 13.9492 1005 112.649 196.893 467.86
1416 0 73.0629 13.3173 973 115.032 196.904 465.524
1417 0 78.0699 12.8603 1004 115.29 197.664 464.697
1418 0 81.0721 14.3206 1161 111.197 197.102 460.22
1419 0 83.1335 14.603 1214 109.941 197.092 458.797
1420 0 84.1636 13.2836 1118 111.517 196.525 459.65
1421 0 88.106 14.1307 1245 109.532 196.165 458.059
1422 0 91.1063 14.8398 1352 107.82 196.713 455.268
1423 0 92.1726 12.9323 1192 111.347 196.95 455.093
1424 0 97.1107 15.0447 1461 104.857 196.641 451.576
1425 1 51.0681 11.0049 562 110.765 197.964 474.838
1426 0 50.1177 11.912 597 109.576 198.343 474.342
1427 0 54.0806 13.4429 727 104.751 197.477 476.197
1428 0 55.0908 13.6865 754 104.886 198.113 474.67
1429 0 56.0815 13.9083 780 104.097 197.995 477.197
1430 0 56.0423 12.8117 718 107.872 197.94 473.943
1431 0 58.0514 13.0574 758 107.898 197.991 472.789
1432 0 61.107 12.6172 771 107.835 197.921 471.576
1433 0 61.0891 11.9825 732 110.434 197.16 469.096
1434 0 64.0698 12.939 829 108.608 197.601 468.665
1435 0 67.1257 12.8416 862 107.928 197.638 467.918
1436 0 69.0914 13.8078 954 106.288 197.183 465.305
1437 0 71.1062 13.2197 940 108.238 196.871 464.617
1438 0 75.1715 13.6488 1026 107.366 197.386 462.531
1439 0 76.1718 12.5243 954 109.952 196.952 461.726
1440 0 80.1215 13.7791 1104 106.582 197.208 459.61
1441 0 81.111 12.6123 1023 111.152 197.459 458.854
1442 0 83.1538 12.0259 1000 112.813 197.062 459.09
1443 0 85.2038 12.3351 1051 112.222 197.652 457.771
1444 1 45.0672 11.8268 533 111.334 196.505 473.015
1445 0 45.1175 11.7914 532 113.746 197.293 471.201
1446 0 50.1227 12.4495 624 114.438 197.099 476.736
1447 0 50.1561 11.8032 592 115.534 196.736 477.755
1448 0 54.2149 12.1369 658 113.843 196.377 477.737
1449 0 52.0975 11.9008 620 117.042 196.256 476.616
1450 0 56.1191 12.5982 707 114.426 196.894 475.399
1451 0 57.1873 12.3979 709 113.367 196.745 477.243
1452 0 59.2241 13.6938 811 111.413 196.292 474.011
1453 0 58.2123 12.6777 738 114.776 196.497 474.26
1454 0 62.1668 12.5952 783 112.672 196.447 474.234
1455 0 63.0912 11.9351 753 110.548 196.332 472.102
1456 0 68.1385 12.592 858 106.783 197.038 469.744
1457 0 67.0972 12.8619 863 108.01 196.594 471.717
1458 0 70.0915 12.5835 882 109.219 196.74 468.103
1459 0 74.1425 13.555 1005 106.132 196.567 467.933
1460 0 76.1763 13.39 1020 108.125 196.621 466.765
1461 0 78.1787 12.3819 968 109.854 196.908 464.68
1462 0 79.1636 12.2278 968 111.405 197.784 463.443
1463 0 83.2472 12.9734 1080 108.55 197.14 463.514
1464 0 88.2973 12.2314 1080 111.447 196.448 460.272
1465 0 92.1461 13.3918 1234 109.589 196.321 458.589
1466 1 50.0964 11.5178 577 105.374 196.674 479.728
1467 0 51.1614 14.0145 717 107.45 195.711 477.897
1468 0 53.1746 13.371 711 108.097 196.174 475.689
1469 0 54.1228 11.9358 646 106.622 196.067 480.602
1470 0 58.1056 12.3224 716 105.539 196.718 479.324
1471 0 57.0968 12.6977 725 107.019 196.868 478.194
1472 0 57.0545 12.8824 735 108.577 196.506 475.879
1473 0 62.0666 12.9377 803 106.423 196.345 476.093
1474 0 64.1081 12.5257 803 107.342 196.653 475.781
1475 0 64.1496 11.7694 755 111.223 196.223 473.223
1476 0 67.0805 12.4477 835 109.764 196.303 472.302
1477 0 70.1486 14.1272 991 106.138 196.011 471.438
1478 0 71.1503 13.0428 928 108.071 196.307 470.415
1479 0 75.1449 13.1746 990 107.958 196.877 467.761
1480 0 77.1512 14.1281 1090 107.219 196.467 466.816
1481 0 78.1126 13.2757 1037 110.594 196.452 467.005
1482 0 80.1866 12.234 981 114.176 196.959 463.714
1483 0 84.2212 12.2772 1034 113.868 196.6 464.28
1484 0 87.2928 11.3068 987 117.507 196.925 462.457
1485 0 93.243 13.4058 1250 111.903 196.53 461.557
1486 1 49.1025 11.5065 565 108.738 196.878 482.915
1487 0 49.1981 12.6021 620 111.994 196.027 477.205
1488 0 52.1315 12.7562 665 106.448 195.457 479.463
1489 0 54.1489 12.5026 677 106.192 195.815 479.962
1490 0 55.0998 11.9964 661 108.525 196.065 478.377
1491 0 57.1025 12.6965 725 107.721 196.443 478.023
1492 0 59.1175 12.805 757 115.832 196.09 478.144
1493 0 62.3509 11.6117 724 116.934 195.862 474.026
1494 0 62.4181 11.7274 732 116.917 195.996 473.881
1495 0 64.2353 12.2674 788 116.444 195.973 474.513
1496 0 67.2185 12.1098 814 116.677 195.547 472.02
1497 0 70.0768 12.258 859 114.792 195.098 474.289
1498 0 70.199 12.4788 876 114.176 195.049 469.737
1499 0 73.1598 13.3817 979 111.608 195.393 466.593
1500 0 74.2742 12.7635 948 114.787 195.057 462.94
1501 0 78.3212 12.3594 968 114.358 194.362 463.455
1502 0 82.347 13.7831 1135 110.101 194.835 462.431
1503 0 83.108 12.3213 1024 108.814 195.61 458.862
1504 0 85.5115 13.3081 1138 107.28 196.127 457.408
1505 0 85.4007 12.5409 1071 110.662 195.291 459.079
1506 0 86.3423 14.2572 1231 108.246 195.113 456.901
1507 0 88.4225 12.7796 1130 114.304 195.36 458.111
1508 0 88.3199 12.5227 1106 115.971 195.224 457.454
1509 0 92.2399 13.66 1260 113.642 194.463 458.058
1510 0 92.5017 12.1619 1125 117.313 194.458 455.812
1511 0 97.3236 12.7718 1243 113.803 194.56 453.292
1512 0 99.3008 13.8972 1380 109.49 194.514 454.199
1513 0 103.422 12.2894 1271 112.43 194.775 450.054
1514 0 108.402 11.1161 1205 112.422 194.9 451.076
1515 0 110.511 13.51 1493 109.036 195.082 444.864
1516 1 62.3386 13.1379 819 103.586 195.537 469.894
1517 0 64.3244 11.3643 731 107.978 195.517 472.26
1518 0 64.1844 11.7474 754 109.243 195.912 472.007
1519 0 69.2096 12.296 851 108.59 195.478 471.955
1520 0 71.1609 12.9144 919 107.403 195.738 471.338
1521 0 73.1168 11.9261 872 110.547 195.276 470.808
1522 0 75.1943 11.9823 901 111.86 195.61 469.434
1523 0 78.2633 13.7229 1074 111.911 194.122 460.008
1524 0 80.3413 12.7705 1026 116.268 194.71 460.556
1525 0 82.4301 12.9807 1070 116.82 194.631 460.94
1526 0 84.3204 12.6423 1066 120.083 194.697 459.303
1527 0 88.259 13.0978 1156 120.253 195.067 457.395
1528 0 90.2706 12.4514 1124 123.888 195.174 456.915
1529 0 92.4588 13.0653 1208 123.927 195.113 458.123
1530 1 48.2137 11.0342 532 123.293 194.968 477.47
1531 0 50.1772 11.9377 599 120.501 194.494 478.937
1532 0 51.1566 10.634 544 124.965 194.164 478.154
1533 0 52.1404 10.7019 558 125.461 194.491 480.129
1534 0 55.1028 12.6672 698 120.426 194.401 478.881
1535 0 56.174 11.5178 647 125.637 193.881 478.128
1536 0 58.1239 12.8002 744 123.81 194.09 477.918
1537 0 59.1128 12.7214 752 125.12 194.11 475.488
1538 0 60.0392 11.6424 699 129.684 194.05 475.262
1539 0 62.1029 12.5759 781 127.681 193.972 475.446
1540 0 64.1668 12.6545 812 128.298 194.686 473.732
1541 0 66.0761 11.7894 779 131.091 194.474 474.285
1542 0 69.14 12.6555 875 129.754 193.694 471.825
1543 0 71.0526 13.7222 975 126.663 194.808 471.232
1544 0 74.1045 13.292 985 127.235 195.736 473.556
1545 0 76.2424 13.0505 995 128.429 195.227 471.16
1546 0 77.083 12.1946 940 133.882 194.617 463.501
1547 0 79.2638 12.389 982 132.518 193.912 464.889
1548 0 82.3382 13.1045 1079 132.572 193.442 461.185
1549 0 85.3661 12.7568 1089 134.47 193.583 459.33
1550 0 90.4667 13.4304 1215 129.909 193.331 458.658
1551 0 89.4603 12.8772 1152 132.76 193.701 457.135
1552 0 95.2826 13.1923 1257 131.235 193.435 454.967
1553 0 98.2982 14.6086 1436 127.655 192.861 452.308
1554 1 51.2421 12.0018 615 129.34 193.912 475.164
1555 0 58.3156 13.084 763 123.211 193.301 475.046
1556 0 55.147 12.0768 666 126.755 193.168 474.713
1557 0 58.2075 12.61 734 131.899 193.813 476.557
1558 0 58.1771 12.2557 713 128.547 193.759 473.36
1559 0 58.1442 12.4174 722 131.073 194.273 474.787
1560 0 58.0672 12.4511 723 131.817 194.285 473.616
1561 0 62.078 12.3071 764 130.767 194.322 472.843
1562 0 64.0913 12.5602 805 128.33 194.678 473.307
1563 0 69.0989 13.2419 915 125.949 194.497 470.762
1564 0 68.1529 13.1616 897 127.536 195.167 470.557
1565 0 70.1685 13.3821 939 128.027 194.673 467.799
1566 0 74.1301 12.9637 961 128.077 195.288 467.135
1567 0 77.0976 14.1379 1090 124.121 195.132 466.511
1568 0 77.0907 13.6722 1054 126.686 195.154 464.026
1569 0 80.1799 13.3699 1072 128.155 194.669 462.052
1570 0 82.0932 13.3385 1095 125.879 194.516 462.582
1571 0 83.0618 13.6766 1136 126.551 194.45 459.673
1572 0 86.0542 13.6658 1176 126.378 193.662 458.899
1573 0 89.0864 12.6282 1125 128.109 193.948 456.888
1574 0 92.1484 13.5108 1245 126.187 193.377 451.251
1575 0 97.0984 14.1712 1376 122.704 192.778 451.81
1576 0 99.0433 13.3982 1327 126.761 193.252 447.307
1577 0 104.148 13.7976 1437 125.028 193.285 447.64
1578 0 107.132 14.5708 1561 124.99 193.329 443.628
1579 0 110.161 13.2987 1465 128.63 192.612 445.655
1580 0 114.095 13.5413 1545 128.172 192.041 443.01
1581 1 63.0352 11.089 699 124.89 192.177 472.413
1582 0 62.0938 11.6598 724 124.844 192.873 470.997
1583 0 67.3352 13.4254 904 120.002 194.31 470.028
1584 0 69.2838 14.2313 986 118.586 193.764 468.077
1585 0 73.377 13.4374 986 122.746 193.647 467.083
1586 0 74.2048 12.3038 913 117.377 194.884 470.562
1587 0 77.178 13.7863 1064 114.278 194.595 467.442
1588 0 78.1603 12.5895 984 119.089 193.561 465.933
1589 0 81.1988 12.4756 1013 118.59 193.702 465.984
1590 0 85.2197 12.4736 1063 118.233 193.434 464.452
1591 0 86.2387 11.9088 1027 120.101 192.951 463.907
1592 0 90.1707 12.2102 1101 119.711 193.891 461.561
1593 0 94.2066 12.929 1218 117.302 194.08 460.699
1594 0 97.1363 12.745 1238 118.318 194.343 458.042
1595 0 99.157 11.7188 1162 119.714 194.458 458.973
1596 0 103.141 11.7896 1216 119.63 194.484 456.729
1597 0 107.277 12.752 1368 117.569 194.213 453.651
1598 0 109.398 12.9801 1420 118.506 194.238 450.399
1599 0 114.326 11.1436 1274 121.153 194.526 450.381
1600 0 119.387 12.8071 1529 117.202 194.542 448.572
1601 0 123.177 11.8366 1458 120.026 193.818 444.59
1602 0 129.229 12.977 1677 116.191 194.061 442.226
1603 0 132.135 11.685 1544 119.166 193.769 439.362
1604 1 72.154 11.9051 859 111.243 194.62 472.583
1605 0 74.1286 11.9657 887 113.149 194.952 470.488
1606 0 75.1686 11.9997 902 112.361 195.778 466.195
1607 0 78.1369 12.1454 949 111.139 195.335 468.188
1608 0 81.3444 12.8097 1042 110.92 195.484 464.714
1609 0 82.1925 12.3004 1011 113.227 195.342 462.406
1610 0 86.206 12.5397 1081 112.555 195.727 464.208
1611 0 87.2579 13.1908 1151 112.949 195.274 460.884
1612 0 91.2071 12.7293 1161 113.877 195.233 459.617
1613 0 98.2159 16.0259 1574 105.292 194.226 456.988
1614 0 97.1858 13.3764 1300 113.995 193.515 457.328
1615 0 98.2823 13.217 1299 115.794 194.376 455.455
1616 0 103.194 12.8399 1325 116.202 193.833 454.395
1617 0 107.389 13.1206 1409 114.752 193.736 453.03
1618 0 109.138 12.9102 1409 115.505 193.923 452.458
1619 0 111.141 13.0195 1447 117.335 194.182 448.359
1620 0 115.326 12.0875 1394 119.235 192.834 448.641
1621 0 117.146 12.7362 1492 119.056 193.513 445.501
1622 0 122.239 12.7946 1564 118.779 193.645 444.123
1623 0 124.45 12.3986 1543 121.629 193.783 441.985
1624 1 67.1864 10.2699 690 112.62 193.103 462.394
1625 0 67.075 9.63101 646 109.443 193.249 462.876
1626 0 70.0988 9.94311 697 108.653 193.313 463.667
1627 0 71.058 10.0763 716 109.973 193.933 463.408
1628 0 73.1243 10.2292 748 110.194 193.48 460.977
1629 0 78.1568 9.78802 765 109.059 192.707 461.885
1630 0 81.1716 10.9891 892 112.61 192.204 466.018
1631 0 84.2308 11.4448 964 111.019 191.895 463.007
1632 0 85.072 11.8841 1011 111.483 192.292 461.109
1633 0 88.1306 11.3922 1004 113.177 192.572 459.86
1634 0 91.2398 10.9382 998 114.109 192.673 458.883
1635 0 93.186 10.0659 938 115.279 192.37 461.869
1636 0 96.1442 11.6284 1118 114.147 192.618 455.971
1637 0 99.2101 12.2971 1220 112.664 192.562 455.607
1638 0 103.121 12.0538 1243 114.22 192.714 452.944
1639 1 58.0704 10.1256 588 113.257 193.019 477.981
1640 0 61.187 11.7345 718 112.128 192.684 475.482
1641 0 62.1372 12.746 792 109.6 192.058 473.688
1642 0 63.0632 12.6381 797 111.008 191.626 473.296
1643 0 67.0768 12.2844 824 110.731 193.041 473.834
1644 0 68.0577 11.9458 813 112.975 192.16 471.127
1645 0 70.1072 11.568 811 113.379 192.413 469.884
1646 0 73.1733 13.1059 959 109.962 192.504 470.009
1647 0 75.053 12.9375 971 111.042 192.21 468.86
1648 0 76.0576 12.9376 984 112.113 192.611 468.53
1649 0 78.063 13.2201 1032 111.486 193.127 467.123
1650 0 81.1324 13.3609 1084 110.484 192.61 466.245
1651 0 84.0674 12.1331 1020 111.183 193.422 463.032
1652 0 84.1569 11.4073 960 111.079 192.864 456.364
1653 0 87.3572 12.9926 1135 107.693 193.018 455.226
1654 0 91.0769 12.1216 1104 110.62 193.057 451.289
1655 0 93.302 13.2687 1238 108.111 192.977 451.221
1656 0 95.1136 13.4155 1276 108.72 193.382 451.235
1657 0 98.4038 12.9873 1278 111.901 192.663 446.916
1658 0 100.33 12.748 1279 112.829 193.224 445.023
1659 0 104.166 13.0945 1364 112.501 192.821 446.043
1660 0 107.285 13.6366 1463 111.91 192.748 443.324
1661 0 109.247 12.2474 1338 115.908 192.484 440.459
1662 0 115.497 12.4939 1443 114.791 193.011 439.496
1663 1 67.1009 10.9536 735 111.97 192.177 467.969
1664 0 71.0904 11.9003 846 108.067 192.613 469.411
1665 0 71.1038 12.0106 854 110.765 192.809 467.555
1666 0 73.0208 11.3118 826 112.752 193.218 467.09
1667 0 77.0806 11.8318 912 111.025 192.791 466.34
1668 0 79.2 11.2626 892 112.862 193.351 462.166
1669 0 80.2273 12.5269 1005 92.2149 193.492 457.922
1670 0 85.2272 10.384 885 116.286 193.286 459.482
1671 0 87.2878 13.0832 1142 110.442 192.604 458.13
1672 0 89.2176 11.0965 990 115.333 193.521 455.713
1673 0 94.186 12.1356 1143 114.075 193.197 455.703
1674 0 95.2315 11.5508 1100 116.286 193.642 455.842
1675 0 98.2032 11.9446 1173 116.402 193.175 454.54
1676 0 103.337 12.4448 1286 113.559 194.07 454.837
1677 0 106.219 12.7661 1356 115.346 193.614 452.571
1678 0 104.221 12.2144 1273 120.052 193.639 450.808
1679 0 114.412 13.6612 1563 97.5298 194.419 445.054
1680 0 116.456 12.7688 1487 117.82 193.82 441.047
1681 0 120.536 12.6685 1527 117.158 194.153 442.661
1682 0 124.466 12.2443 1524 117.717 194.218 442.917
1683 1 67.1676 10.8088 726 114.311 194.741 466.675
1684 0 70.2148 11.2797 792 111.878 194.596 468.343
1685 0 71.0852 11.0712 787 112.747 193.292 470.376
1686 0 74.0833 11.3521 841 110.863 193.124 470.949
1687 0 77.0944 12.8933 994 107.657 192.634 466.669
1688 0 80.1474 12.7141 1019 108.194 192.969 464.69
1689 0 81.1486 11.1524 905 111.94 193.213 462.083
1690 0 87.1962 12.2138 1065 108.579 193.058 463.528
1691 0 86.0994 10.7318 924 114.295 193.121 461.93
1692 0 91.1908 11.5253 1051 114.466 193.196 458.843
1693 0 93.0777 11.0983 1033 116.712 192.813 457.768
1694 0 98.1434 12.3493 1212 112.865 192.363 455.753
1695 0 101.174 12.009 1215 113.672 193.046 455.519
1696 0 103.176 13.3074 1373 112.659 191.883 450.723
1697 0 107.317 12.3373 1324 114.542 191.911 451.363
1698 1 62.1644 9.07272 564 110.314 191.871 473.697
1699 0 63.2641 10.1479 642 110.995 192.212 469.712
1700 0 65.1899 11.2287 732 109.157 192.149 471.253
1701 0 68.1084 10.8797 741 109.544 192.482 471.474
1702 0 70.1679 11.5295 809 107.905 192.35 470.567
1703 0 72.1206 12.4236 896 104.975 192.1 469.283
1704 0 73.2025 10.8603 795 105.972 191.46 468.951
1705 0 76.1437 11.15 849 105.273 192.064 464.836
1706 0 78.1289 11.2506 879 104.286 192.59 465.82
1707 0 82.1168 11.3619 933 104.625 192.092 462.951
1708 0 85.209 11.6889 996 103.944 191.675 461.141
1709 0 88.1509 12.1042 1067 103.494 191.221 459.386
1710 0 89.2617 11.2142 1001 107.329 191.532 456.213
1711 0 92.187 11.8997 1097 105.967 191.997 457.284
1712 0 95.0909 12.4407 1183 103.249 192.159 453.112
1713 0 97.2032 12.0366 1170 106.491 192.69 449.874
1714 0 100.104 11.6179 1163 107.608 192.944 446.003
1715 0 102.114 11.5361 1178 108.336 191.773 446.278
1716 0 105.185 11.1708 1175 110.943 192.351 443.862
1717 0 109.129 11.326 1236 110.328 191.964 443.18
1718 0 111.093 10.0636 1118 114.049 191.751 442.85
1719 0 116.084 12.2928 1427 110.655 191.959 441.209
1720 0 119.119 12.0468 1435 111.284 191.845 440.579
1721 1 63.1089 12.4071 783 100.665 191.774 467.3
1722 0 65.1214 12.1312 790 101.533 191.608 468.234
1723 0 68.1297 11.9184 812 101.222 192.654 471.01
1724 0 70.1495 11.9031 835 100.854 192.107 469.486
1725 0 72.1143 12.3277 889 101.034 192.439 466.994
1726 0 72.1082 10.7755 777 105.82 191.837 465.466
1727 0 76.1855 12.8502 979 101.223 192.245 468.368
1728 0 77.153 11.0559 853 105.6 192.156 468.109
1729 0 81.1808 12.1457 986 104.196 192.519 463.787
1730 0 81.0985 10.999 892 107.123 193.414 463.898
1731 0 86.0997 12.2881 1058 104.506 193.2 461.756
1732 0 88.1146 11.939 1052 104.911 192.878 462.74
1733 0 93.1324 12.1655 1133 104.427 192.621 458.827
1734 0 94.1206 11.4853 1081 106.058 192.304 457.393
1735 0 97.1223 11.0582 1074 107.78 192.582 456.17
1736 0 100.086 10.5009 1051 108.907 192.498 452.716
1737 0 102.079 11.1679 1140 108.657 192.243 452.272
1738 1 59.0402 11.6192 686 101.227 192.879 474.283
1739 0 63.1252 11.5168 727 101.051 194.333 473.884
1740 0 64.0694 11.0193 706 99.4193 194.508 472.326
1741 0 62.0461 10.2988 639 105.135 193.764 474.534
1742 0 65.094 10.938 712 103.17 194.271 474.996
1743 0 66.1494 9.69019 641 107.423 194.069 471.051
1744 0 68.1088 12.2158 832 102.102 193.865 467.802
1745 0 73.0814 10.6046 775 102.676 194.254 470.822
1746 0 73.11 11.0655 809 103.336 193.541 468.904
1747 0 77.2586 11.1444 861 103.482 193.727 464.805
1748 0 78.1959 11.1387 871 102.844 193.829 466.002
1749 0 82.1126 11.7887 968 102.247 193.861 463.951
1750 0 86.1582 11.4905 990 103.653 193.085 461.018
1751 0 87.0879 11.2071 976 105.299 192.676 459.784
1752 0 89.1624 11.5183 1027 107.501 193.186 459.029
1753 0 92.1413 11.8297 1090 106.175 193.017 459.143
1754 0 96.17 12.3947 1192 105.685 193.003 455.484
1755 0 99.1609 11.4561 1136 107.379 193.751 455.636
1756 0 101.276 11.7698 1192 107.347 194.181 453.278
1757 0 105.164 11.5344 1213 108.464 194.425 452.416
1758 0 105.178 11.5138 1211 109.472 194.116 451.979
1759 0 112.307 11.9049 1337 89.7472 194.586 451.693
1760 0 115.155 12.6091 1452 108.26 193.764 448.127
1761 0 117.208 11.9616 1402 110.486 193.697 446.863
1762 0 120.115 13.2041 1586 109.381 194.032 444.212
1763 1 69.0868 11.0296 762 112.699 195.714 468.899
1764 0 71.2 12.5421 893 109.997 194.307 467.721
1765 0 73.0905 12.3409 902 110.757 195.312 467.222
1766 0 75.1436 12.1368 912 111.581 195.606 467.696
1767 0 79.0683 12.3185 974 110.846 195.017 466.233
1768 0 81.0588 12.8425 1041 108.995 195.148 466.229
1769 0 83.0647 13.2908 1104 110.005 194.965 462.37
1770 0 81.0798 12.7159 1031 112.999 195.14 461.103
1771 0 87.0817 12.8844 1122 111.676 194.632 461.546
1772 0 88.1088 13.4493 1185 110.959 194.692 458.479
1773 0 89.0646 12.519 1115 111.24 195.267 458.948
1774 0 92.1347 12.0042 1106 113.444 194.082 459.099
1775 0 95.0914 13.2399 1259 110.974 194.085 458.396
1776 0 97.0824 13.3495 1296 112.922 194.763 455.598
1777 0 98.1712 11.9893 1177 116.934 193.41 454.387
1778 0 103.148 12.1573 1254 114.821 193.939 457.282
1779 0 107.146 12.9262 1385 114.025 194.557 453.257
1780 0 109.185 12.4468 1359 116.795 193.862 448.873
1781 0 112.21 12.0934 1357 119.34 193.307 444.656
1782 1 66.1799 12.6322 836 110.81 191.961 470.443
1783 0 65.2561 10.9415 714 105.265 192.717 470.179
1784 0 70.2391 12.3578 868 101.32 192.144 469.431
1785 0 71.1446 12.1583 865 103.964 191.304 470.11
1786 0 73.0885 12.1907 891 104.421 191.528 468.514
1787 0 75.1106 13.3403 1002 101.577 191.752 467.834
1788 0 78.1746 13.0989 1024 101.609 191.405 466.986
1789 0 79.1178 14.1435 1119 98.9634 191.702 465.126
1790 0 82.1252 13.3455 1096 100.161 191.642 463.334
1791 0 84.21 12.2788 1034 102.762 191.858 463.423
1792 0 87.1926 14.1067 1230 98.6154 191.007 462.096
1793 0 89.1979 13.8008 1231 100.527 191.649 459.806
1794 0 92.2383 12.5544 1158 103.562 191.325 460.749
1795 0 93.1578 12.0763 1125 105.854 191.963 458.915
1796 0 98.1885 13.7593 1351 102.252 192.141 456.882
1797 0 98.2304 13.3767 1314 104.591 192.536 455.145
1798 0 102.126 13.689 1398 104.747 192.908 456.029
1799 0 106.269 13.5505 1440 105.05 192.831 452.847
1800 0 110.24 13.9151 1534 103.511 193.069 449.839
1801 0 111.181 13.6084 1513 106.89 193.036 449.829
1802 1 62.1878 11.2723 701 110.635 193.021 473.847
1803 0 64.2455 12.1565 781 109.904 192.361 472.819
1804 0 65.414 12.6578 828 104.402 192.708 471.274
1805 0 66.0656 13.1384 868 102.571 192.809 471.506
1806 0 66.2049 12.7634 845 104.854 192.987 471.32
1807 0 67.2016 12.217 821 107.066 193.3 470.724
1808 0 72.2025 12.7004 917 105.173 193.356 469.811
1809 0 73.2236 11.8814 870 108.351 193.228 469.761
1810 0 77.2352 12.3778 956 107.351 192.859 466.871
1811 0 79.1923 13.5745 1075 104.325 193.06 467.015
1812 0 81.1432 12.8415 1042 107.064 193.162 466.495
1813 0 83.0962 13.9597 1160 105.641 192.448 464.018
1814 0 87.327 13.73 1199 105.518 193.21 463.529
1815 0 87.2331 13.7333 1198 106.742 193.315 462.734
1816 0 91.271 13.6407 1245 107.361 192.886 460.752
1817 0 92.2919 13.3381 1231 108.916 192.728 459.421
1818 0 94.2768 13.4922 1272 109.652 192.785 460.528
1819 0 97.3113 12.5371 1220 112.978 192.848 457.239
1820 0 99.2254 12.9201 1282 112.807 193.2 457.251
1821 0 103.339 13.4315 1388 111.004 193.204 457.277
1822 0 104.291 12.8582 1341 114.471 192.735 453.515
1823 0 112.379 14.3265 1610 109.885 192.968 448.051
1824 0 117.377 14.6622 1721 109.161 192.687 448.123
1825 1 65.259 12.029 785 115.129 193.409 473.925
1826 0 68.2859 12.6966 867 111.969 193.484 470.672
1827 0 68.151 12.3843 844 105.874 193.891 469.75
1828 0 71.1384 11.9485 850 105.884 194.745 469.176
1829 0 74.1302 13.0716 969 103.271 194.658 469.544
1830 0 76.0689 13.2117 1005 103.938 194.005 467.334
1831 0 80.1606 13.1985 1058 103.909 193.258 466.681
1832 0 81.1178 13.0674 1060 104.817 193.215 465.149
1833 0 84.2276 12.9055 1087 105.59 193.611 464.675
1834 0 87.2303 13.665 1192 104.432 193.033 460.319
1835 0 88.1072 13.302 1172 106.154 192.558 460.298
1836 0 92.1638 13.2265 1219 106.231 193.688 460.067
1837 0 93.1506 12.6891 1182 108.509 193.541 457.988
1838 0 97.2105 12.6735 1232 108.364 193.218 457.029
1839 0 101.27 13.232 1340 107.946 194.009 453.978
1840 1 57.0908 13.172 752 102.52 194.936 477.391
1841 0 58.2344 13.3255 776 105.28 194.061 475.948
1842 0 60.1636 13.0311 784 104.83 194.468 474.985
1843 0 61.1109 12.2237 747 108.582 193.958 475.557
1844 0 60.0735 12.4181 746 109.583 194.751 474.245
1845 0 64.1572 12.6252 810 108.291 194.047 474.573
1846 0 68.0705 14.0002 953 107.045 194.024 471.496
1847 0 70.0506 13.6901 959 108.024 194.462 470.942
1848 0 72.1126 14.1029 1017 107.522 193.823 469.59
1849 0 75.0566 13.4832 1012 109.625 194.393 468.518
1850 0 76.0574 13.3452 1015 111.124 194.305 467.034
1851 0 80.0861 13.6853 1096 110.057 194.599 465.331
1852 0 82.1184 14.1503 1162 109.349 194.702 465.235
1853 0 85.0848 13.8215 1176 110.817 194.794 464.111
1854 0 87.0932 14.1228 1230 111.297 194.66 463.133
1855 0 91.1587 13.9427 1271 112.359 194.399 460.368
1856 0 93.1508 14.1491 1318 112.604 194.2 458.065
1857 0 94.1102 12.3897 1166 118.37 194.634 458.056
1858 0 97.1819 12.7596 1240 107.702 193.119 450.902
1859 0 101.138 13.7238 1388 106.736 192.509 448.44
1860 1 52.129 10.052 524 107.676 193.05 472.29
1861 0 56.0808 12.7851 717 101.53 193.65 473.498
1862 0 58.109 12.3045 715 101.955 193.915 474.765
1863 0 59.1399 11.9885 709 104.228 193.865 471.81
1864 0 59.1801 11.3552 672 107.379 193.799 469.655
1865 0 62.0939 11.1927 695 107.944 193.33 469.673
1866 0 64.0468 12.5845 806 104.653 194.218 465.893
1867 0 65.0499 11.7448 764 107.544 193.809 465.58
1868 0 67.0512 13.0646 876 105.221 193.447 465.091
1869 0 70.0703 13.2581 929 105.865 193.91 462.813
1870 0 72.1357 11.3952 822 110.182 193.839 464.23
1871 0 73.0719 13.5894 993 107.776 193.634 461.794
1872 0 77.1386 11.9655 923 110.34 193.408 461.415
1873 0 78.0577 12.8367 1002 109.105 192.773 460.552
1874 0 81.2466 12.5913 1023 110.518 193.419 460.004
1875 0 83.0603 12.5451 1042 111.681 193.44 459.274
1876 0 86.1116 12.5999 1085 111.912 192.948 457.616
1877 0 89.1234 12.5781 1121 112.047 192.538 455.938
1878 0 91.156 12.7693 1164 112.68 192.936 455.168
1879 0 93.1905 12.4691 1162 113.806 193.623 451.732
1880 0 95.2062 13.1399 1251 115.07 193.231 452.994
1881 1 52.2461 11.3501 593 117.024 193.74 470.863
1882 0 52.1214 11.4732 598 121.236 194.064 468.375
1883 0 54.1253 12.2863 665 118.962 193.986 470.344
1884 0 56.1679 11.5724 650 119.525 193.974 471.228
1885 0 59.0956 12.2852 726 118.501 193.66 468.43
1886 0 59.0952 13.5036 798 116.3 193.536 466.896
1887 0 64.1413 11.5526 741 112.36 193.348 468.852
1888 0 66.0815 11.9247 788 110.055 193.986 469.739
1889 0 67.0807 11.2849 757 111.853 194.098 468.539
1890 0 68.0388 11.8903 809 110.753 193.995 466.923
1891 0 73.0884 13.3811 978 107.179 193.434 465.316
1892 0 77.1199 12.7334 982 106.922 193.554 466.593
1893 0 79.05 11.5243 911 111.404 193.637 462.371
1894 0 81.0904 12.5169 1015 109.207 193.048 463.464
1895 0 83.1947 12.5849 1047 110.16 194.041 460.805
1896 0 84.0921 13.176 1108 108.921 193.319 460.342
1897 0 87.0843 12.8267 1117 110.07 193.621 460.528
1898 0 90.0936 12.1096 1091 112.072 193.612 458.457
1899 0 93.1042 12.2336 1139 112.662 193.408 455.78
1900 0 95.1323 13.4444 1279 110.974 193.732 453.441
1901 1 52.0842 11.059 576 111.191 193.99 475.189
1902 0 56.0828 12.8916 723 113.214 193.45 476.864
1903 0 58.0544 12.3849 719 113.669 193.63 476.166
1904 0 58.0973 13.0815 760 111.926 193.936 475.751
1905 0 61.0845 11.525 704 114.979 194.027 473.643
1906 0 65.1204 12.5921 820 111.782 193.75 472.977
1907 0 65.1029 12.0118 782 109.471 193.211 466.848
1908 0 66.1439 12.3367 816 111.033 193.474 467.645
1909 0 69.1229 13.3675 924 112.519 193.281 469.531
1910 0 72.1039 13.1061 945 113.021 193.222 469.105
1911 0 74.1148 13.1553 975 113.711 193.752 466.528
1912 0 77.2573 12.8014 989 114.578 194.255 466.192
1913 0 80.2384 13.0486 1047 115.041 193.879 465.01
1914 0 82.3171 13.2415 1090 116.132 193.388 461.48
1915 0 85.3606 13.6011 1161 115.337 191.728 460.774
1916 0 87.266 13.201 1152 118.139 192.829 456.979
1917 0 89.3463 12.9944 1161 119.121 192.504 457.392
1918 0 93.281 11.7923 1100 122.428 192.449 456.832
1919 0 97.4041 13.2335 1289 119.501 192.834 453.531
1920 0 100.492 13.215 1328 121.495 192.878 452.2
1921 1 55.133 10.8465 598 124.754 192.468 474.751
1922 0 56.1149 11.2091 629 126.134 192.466 472.679
1923 0 57.2422 10.6739 611 129.475 192.668 471.291
1924 0 60.1177 14.0391 844 119.9 193.166 475.03
1925 0 60.3276 11.5536 697 128.419 193.265 469.36
1926 0 62.3177 12.34 769 126.823 193.346 470.492
1927 0 66.3479 12.9771 861 121.667 192.576 471.556
1928 0 65.1354 12.712 828 126.208 192.296 470.333
1929 0 68.1393 11.8287 806 127.736 192.586 469.61
1930 0 71.1634 12.7032 904 124.959 193.367 470.196
1931 0 74.2503 12.6734 941 127.342 193.106 466.702
1932 0 78.3083 13.0765 1024 127.48 192.914 465.952
1933 0 80.2354 12.9619 1040 128.797 192.823 464.473
1934 0 84.3654 13.5719 1145 127.443 192.526 461.899
1935 0 86.3619 12.4824 1078 131.945 192.284 460.743
1936 0 87.2908 12.5557 1096 133.986 193.356 460.006
1937 0 91.448 12.9691 1186 133.658 193.083 457.069
1938 0 96.3725 13.0743 1260 133.224 192.907 456.46
1939 0 97.1987 12.0783 1174 135.757 192.663 451.45
1940 0 101.118 13.3507 1350 131.449 192.427 450.919
1941 0 105.192 12.2538 1289 135.269 191.607 449.571
1942 0 108.207 12.9843 1405 134.622 192.11 445.915
1943 1 57.0719 9.79466 559 141.658 193.415 465.828
1944 0 62.1489 10.6679 663 128.917 193.1 463.704
1945 0 68.0884 10.0164 682 125.001 193.642 465.664
1946 0 66.1166 9.05976 599 129.654 194.062 461.684
1947 0 70.2258 10.7226 753 125.035 193.647 463.527
1948 0 71.094 12.1951 867 123.198 193.015 463.232
1949 0 72.1619 10.7813 778 129.397 193.294 463.08
1950 0 75.1787 11.7054 880 127.882 193.012 467.311
1951 0 75.1155 11.5955 871 129.751 193.992 465.045
1952 0 79.1453 12.4202 983 127.134 192.873 463.802
1953 0 83.169 11.9876 997 127.743 193.8 463.732
1954 0 83.1238 12.5235 1041 128.935 194.154 460.605
1955 0 88.1346 13.2978 1172 126.282 193.299 461.3
1956 0 90.216 13.0354 1176 128.901 193.747 459.51
1957 0 92.1375 12.579 1159 130.902 193.799 458.249
1958 0 96.1757 13.2882 1278 128.296 193.738 455.916
1959 0 99.0915 12.443 1233 130.002 194.179 457.049
1960 0 101.192 12.7085 1286 130.97 193.198 451.964
1961 0 106.102 13.11 1391 129.8 193.889 451.283
1962 1 57.2225 11.7961 675 126.818 195.024 474.584
1963 0 60.1267 13.2886 799 116.008 194.847 477.205
1964 0 59.1096 11.2672 666 124.108 195.023 475.914
1965 0 61.1133 11.0941 678 125.062 195.027 474.245
1966 0 62.082 11.0016 683 124.777 195.029 474.783
1967 0 64.072 11.5495 740 123.211 194.708 473.023
1968 0 65.0781 12.17 792 121.635 194.852 473.139
1969 0 68.1478 12.7077 866 119.649 194.309 471.7
1970 0 71.1205 11.7969 839 122.049 194.4 470.274
1971 0 72.0905 11.2359 810 122.804 193.919 469.015
1972 0 75.0759 13.3332 1001 116.383 194.209 465.94
1973 0 77.2022 13.1862 1018 117.207 194.87 465.793
1974 0 80.2179 13.401 1075 114.906 194.847 463.582
1975 0 85.1436 13.3539 1137 114.002 194.026 463.058
1976 0 86.1671 13.4622 1160 114.147 195.113 461.913
1977 0 88.121 12.4601 1098 115.62 195.211 460.516
1978 0 90.0855 11.7777 1061 118.168 194.583 457.32
1979 0 95.2554 13.4166 1278 113.576 194.546 455.658
1980 0 99.2782 12.5808 1249 114.629 193.582 454.667
1981 0 101.254 12.4538 1261 114.782 194.366 453.856
1982 0 103.151 12.6126 1301 114.962 193.917 452.686
1983 0 105.211 11.1585 1174 117.792 193.456 454.037
1984 0 111.238 12.1272 1349 112.878 194.159 450.795
1985 0 114.126 11.4435 1306 113.458 194.152 446.665
1986 0 119.234 12.3119 1468 112.193 193.92 448.495
1987 1 66.1361 10.3272 683 108.839 194.824 473.407
1988 0 68.1495 11.0346 752 107.211 194.441 468.672
1989 0 71.1169 11.7553 836 105.429 193.945 467.197
1990 0 72.1389 11.8244 853 105.787 193.996 463.631
1991 0 74.201 10.8489 805 108.709 194.396 463.127
1992 0 78.1949 13.185 1031 102.29 194.263 464.695
1993 0 78.1274 11.4428 894 107.191 193.946 462.888
1994 0 83.1693 12.5046 1040 103.713 193.416 463.284
1995 0 85.1769 13.0669 1113 103.887 193.978 460.226
1996 0 86.1929 12.1588 1048 106.684 194.831 459.406
1997 0 91.1587 12.2643 1118 106.394 194.264 458.441
1998 0 94.1512 13.1597 1239 105.01 193.04 456.941
1999 0 96.2932 12.5866 1212 107.739 193.039 457.622
2000 0 97.2338 11.6215 1130 112.563 193.283 452.044
2001 0 101.275 10.8812 1102 114.767 194.049 453.793
2002 0 104.363 12.1307 1266 112.961 193.527 450.166
2003 0 106.415 11.7653 1252 114.629 193.819 449.272
2004 1 59.1367 9.90924 586 109.969 193.677 472.672
2005 0 62.2122 11.0107 685 106.435 193.825 473.279
2006 0 64.2192 11.8656 762 105.934 193.732 470.532
2007 0 65.2071 12.2533 799 106.891 193.522 468.222
2008 0 68.1493 12.3699 843 108.416 192.535 467.017
2009 0 67.2043 11.8296 795 111.102 192.981 465.873
2010 0 71.1095 12.8112 911 108.009 192.685 465.386
2011 0 71.2442 12.9554 923 108.961 192.702 464.244
2012 0 76.1809 13.5204 1030 106.599 192.544 464.898
2013 0 76.2767 12.6775 967 109.463 192.408 462.224
2014 0 80.2345 13.8968 1115 106.394 192.55 461.861
2015 0 81.2641 12.9578 1053 108.349 192.747 460.571
2016 0 86.2009 12.9001 1112 107.62 192.921 460.784
2017 0 88.2441 13.882 1225 106.687 192.162 460.522
2018 0 91.1563 14.327 1306 106.083 192.734 459.383
2019 0 93.3133 14.1352 1319 107.967 192.538 455.652
2020 0 94.1793 14.0477 1323 107.485 193.215 457.726
2021 0 98.324 13.5064 1328 107.123 192.937 453.519
2022 0 101.176 13.4914 1365 107.964 191.782 451.566
2023 0 103.244 13.0661 1349 109.606 192.684 443.469
2024 0 107.092 13.7825 1476 107.879 192.631 444.655
2025 0 109.178 14.1146 1541 108.174 192.682 443.525
2026 0 113.1 14.3855 1627 107.549 193.238 441.116
2027 0 114.152 13.2016 1507 111.135 193.709 438.417
2028 0 120.306 13.873 1669 108.995 193.041 443.038
2029 0 121.203 14.6613 1777 109.911 192.896 439.1
2030 0 127.145 13.7009 1742 110.801 193.006 441.241
2031 0 131.291 13.5577 1780 111.637 194.702 436.954
2032 0 135.255 14.0254 1897 111.722 194.574 433.162
2033 1 74.1701 10.8265 803 112.212 194.796 465.521
2034 0 77.2286 13.8679 1071 107.419 194.653 462.098
2035 0 80.1251 13.2293 1060 105.042 194.201 464.211
2036 0 80.1536 13.0624 1047 106.298 193.883 462.293
2037 0 82.1218 12.9929 1067 107.138 194.798 462.352
2038 0 87.1761 12.9393 1128 106.338 194.242 461.078
2039 0 88.1225 12.6982 1119 108.034 194.053 458.948
2040 0 91.1406 12.8154 1168 107.711 194.109 459.016
2041 0 93.1542 12.7423 1187 109.527 194.22 455.249
2042 0 96.2643 13.7953 1328 106.639 194.611 456.724
2043 0 97.2623 12.9238 1257 109.765 194.19 451.957
2044 0 101.115 12.3721 1251 110.699 194.345 453.97
2045 0 102.227 12.9418 1323 110.31 194.342 451.151
2046 0 106.17 12.8661 1366 109.747 194.449 448.742
2047 0 109.155 11.9189 1301 111.737 195.09 447.281
2048 0 113.172 13.7932 1561 107.973 194.819 445.078
2049 0 117.133 13.1389 1539 109.416 194.343 444.246
2050 0 120.15 12.6675 1522 110.08 193.895 442.727
2051 1 68.0471 12.0652 821 107.957 194.334 468.982
2052 0 69.1563 11.1776 773 111.376 194.581 468.567
2053 0 72.1763 11.943 862 110.022 194.195 465.722
2054 0 75.0975 12.9032 969 106.921 194.696 466.516
2055 0 76.0574 12.6484 962 109.172 195.131 463.284
2056 0 77.1114 11.9438 921 111.673 194.831 462.769
2057 0 81.1516 12.6184 1024 110.398 195.007 461.104
2058 0 82.1859 12.3379 1014 111.225 194.902 461.131
2059 0 87.0886 13.1016 1141 108.521 194.899 461.07
2060 0 88.1679 12.9866 1145 109.655 194.585 459.313
2061 0 91.1555 13.1314 1197 111.223 194.563 457.978
2062 0 92.1008 12.6709 1167 111.731 194.672 455.219
2063 0 95.095 12.6821 1206 111.609 194.583 451.1
2064 0 98.1315 11.8616 1164 114.198 193.957 452.344
2065 0 99.1443 10.7218 1063 117.209 193.633 451.944
2066 0 102.133 10.9466 1118 114.006 193.724 439.825
2067 0 109.262 10.8729 1188 113.563 194.224 443.588
2068 0 107.213 12.4052 1330 113.659 193.595 437.766
2069 0 112.135 11.8072 1324 114.403 193.629 440.146
2070 0 115.218 12.6629 1459 115.276 193.401 435.19
2071 0 121.233 12.1584 1474 115.625 193.464 433.746
2072 0 123.155 12.2935 1514 117.044 192.579 428.223
2073 0 129.232 12.876 1664 115.542 193.155 427.944
2074 0 133.14 13.3394 1776 116.899 192.893 422.814
2075 1 77.0955 9.66334 745 117.842 193.097 453.412
2076 0 78.1782 11.0645 865 116.424 193.584 449.935
2077 0 80.2454 11.0287 885 113.515 194.089 451.829
2078 0 84.2046 10.7358 904 113.791 193.975 454.079
2079 0 85.0882 10.8946 927 108.068 192.675 450.645
2080 0 89.0845 9.88949 881 109.336 192.319 452.53
2081 0 94.1448 10.9725 1033 107.823 192.492 452.058
2082 0 96.1611 10.8152 1040 110.982 192.662 447.776
2083 0 95.1017 9.97879 949 116.195 192.649 444.64
2084 0 101.265 11.5736 1172 110.422 193.333 446.182
2085 0 102.232 11.1119 1136 113.023 193.232 441.658
2086 0 106.237 10.2883 1093 115.746 193.667 440.362
2087 0 111.159 10.9123 1213 112.598 193.34 441.045
2088 1 64.2176 8.8605 569 108.095 193.258 466.174
2089 0 68.0448 11.2573 766 108.586 191.516 467.757
2090 0 66.0402 10.433 689 113.782 192.208 469.746
2091 0 68.1073 10.5716 720 113.539 192.536 471.044
2092 0 69.078 10.8139 747 113.145 192.431 468.384
2093 0 74.173 10.1789 755 111.107 191.494 468.968
2094 0 75.0714 9.57754 719 113.338 191.726 465.588
2095 0 78.1409 12.1063 946 107.351 191.68 462.003
2096 0 83.1866 12.0933 1006 107.199 191.603 462.2
2097 0 82.119 12.1287 996 107.819 191.715 461.05
2098 0 86.1038 12.5778 1083 107.227 192.343 459.017
2099 0 89.1544 11.9792 1068 107.865 192.156 457.435
2100 0 91.0848 11.9998 1093 109.07 192.747 455.799
2101 0 94.2354 11.917 1123 108.303 191.927 457.608
2102 0 95.1321 11.1109 1057 110.9 192.693 455.972
2103 0 98.0933 11.9376 1171 110.611 192.348 454.652
2104 0 102.181 12.3017 1257 110.055 192.478 451.663
2105 0 103.162 11.5837 1195 112.008 192.762 453.131
2106 0 106.307 10.8648 1155 116.017 191.812 447.642
2107 0 110.2 11.8966 1311 113.654 191.822 447.12
2108 0 113.165 12.0267 1361 113.635 192.351 446.904
2109 0 116.214 12.5975 1464 111.526 192.492 445.138
2110 0 118.194 12.378 1463 112.749 193.185 444.307
2111 0 122.292 11.9141 1457 115.6 192.764 442.086
2112 0 124.265 11.902 1479 116.669 192.826 440.444
2113 0 127.291 11.5719 1473 119.115 192.031 436.236
2114 0 132.341 12.8834 1705 115.935 192.373 434.842
2115 0 133.285 10.9915 1465 120.977 192.115 433.672
2116 0 139.373 12.1186 1689 122.407 192.764 429.419
2117 0 143.346 12.3338 1768 121.108 193.307 423.105
2118 1 79.2332 11.0181 873 116.708 193.37 456.882
2119 0 84.2207 9.67696 815 118.632 193.95 456.302
2120 0 86.3284 11.2478 971 115.178 193.53 456.294
2121 0 88.2319 11.6965 1032 114.49 193.159 454.697
2122 0 93.2212 11.1777 1042 113.225 193.099 458.937
2123 0 94.223 10.7935 1017 114.454 193.616 455.566
2124 0 98.227 10.2925 1011 115.269 193.678 453.924
2125 0 100.112 10.9777 1099 115.167 193.975 451.302
2126 0 103.204 11.5209 1189 114.633 193.942 452.023
2127 0 108.201 11.34 1227 114.829 193.355 449.251
2128 0 113.207 13.7625 1558 109.114 193.012 447.861
2129 0 114.293 12.3104 1407 113.932 193.096 448.656
2130 0 119.218 12.8755 1535 113.76 193.008 445.137
2131 0 123.233 13.9492 1719 113.457 192.823 440.426
2132 0 126.28 12.8128 1618 116.549 192.978 440.987
2133 0 130.216 12.533 1632 119.045 193.07 439.887
2134 0 132.311 12.7729 1690 119.699 192.901 433.815
2135 0 140.266 12.9753 1820 117.692 192.996 434.961
2136 1 75.1689 11.5872 871 113.874 192.279 464.767
2137 0 79.3018 12.0174 953 117.263 192.422 460.795
2138 0 81.1366 12.5714 1020 116.985 191.935 460.127
2139 0 84.1711 12.3439 1039 117.01 191.942 458.381
2140 0 87.1182 13.2349 1153 114.01 192.315 459.388
2141 0 90.1517 15.1855 1369 108.879 191.63 457.538
2142 0 93.2103 12.8634 1199 114.233 192.201 456.43
2143 0 96.2095 14.3021 1376 111.209 192.138 454.835
2144 0 97.1514 12.8871 1252 115.714 192.072 452.306
2145 0 101.116 13.8257 1398 113.723 192.18 450.874
2146 0 106.181 14.447 1534 111.016 192.013 449.851
2147 0 106.147 12.6993 1348 116.599 192.48 448.079
2148 0 111.125 12.6884 1410 116.859 191.399 447.712
2149 0 113.099 13.3777 1513 115.58 192.51 446.471
2150 0 117.193 14.1817 1662 113.801 192.979 443.783
2151 0 121.371 14.4103 1749 112.786 192.483 441.896
2152 0 123.327 11.7655 1451 113.87 193.019 436.876
2153 1 74.1738 11.0821 822 106.964 193.373 461.305
2154 0 77.1474 11.2771 870 103.354 193.455 463.215
2155 0 77.188 11.2582 869 102.016 193.338 460.45
2156 0 78.1393 10.4813 819 106.045 192.085 456.904
2157 0 81.2752 11.8117 960 102.595 193.164 458.202
2158 0 81.1398 9.8472 799 108.573 192.62 455.29
2159 0 86.0926 11.1159 957 105.644 192.811 456.008
2160 0 89.2652 10.8777 971 106.664 193.485 454.387
2161 0 91.3402 10.7072 978 109.006 193.46 450.123
2162 0 94.2842 11.3274 1068 108.085 193.697 449.733
2163 0 96.299 12.5027 1204 107.262 193.024 447.556
2164 0 99.3036 10.7851 1071 112.22 192.583 445.455
2165 0 103.193 11.212 1157 112.765 192.271 443.034
2166 0 108.26 12.3499 1337 110.328 191.592 443.229
2167 0 109.169 10.7265 1171 114.828 191.703 439.254
2168 0 114.146 11.7394 1340 111.778 192.741 438.509
2169 0 117.25 11.4712 1345 113.877 192.64 437.845
2170 0 121.241 12.8339 1556 111.573 192.134 436.328
2171 0 125.255 11.8319 1482 115.849 192.183 438.722
2172 0 127.154 11.9383 1518 116.266 192.314 434.684
2173 0 132.19 11.6196 1536 118.283 192.533 434.637
2174 0 139.152 12.5474 1746 118.828 192.123 432.65
2175 0 142.17 13.6386 1939 115.944 193.404 431.635
2176 0 148.22 12.8053 1898 117.152 193.107 431.202
2177 0 151.363 12.9754 1964 118.615 192.786 422.911
2178 0 157.233 11.7914 1854 121.018 193.001 423.695
2179 0 163.192 12.3658 2018 119.08 192.723 423.157
2180 1 93.1955 11.213 1045 116.08 192.083 454.522
2181 0 97.2409 12.8958 1254 113.344 191.966 454.045
2182 0 99.1681 11.9998 1190 116.613 192.015 452.607
2183 0 101.134 11.2128 1134 111.42 191.913 454.402
2184 0 105.089 13.0366 1370 106.375 192.027 451.593
2185 0 109.169 11.6333 1270 110.025 191.633 449.365
2186 0 111.127 11.1405 1238 110.481 191.954 449.394
2187 0 114.108 11.9974 1369 109.546 190.958 445.454
2188 0 117.159 12.2569 1436 109.133 192.481 443.139
2189 0 121.127 10.749 1302 112.915 191.647 445.786
2190 0 124.055 11.777 1461 114.374 191.786 443.294
2191 0 131.126 11.2411 1474 112.767 191.596 442.018
2192 0 134.116 11.244 1508 112.001 191.512 438.536
2193 1 78.167 11.1684 873 107.656 191.215 464.214
2194 0 81.2122 13.3724 1086 103.192 191.421 461.973
2195 0 82.1235 11.6897 960 106.248 191.169 462.923
2196 0 86.1314 11.5289 993 106.483 191.575 462.276
2197 0 87.0625 11.7387 1022 106.728 192.033 458.764
2198 0 91.0787 12.4727 1136 104.577 191.123 458.161
2199 0 94.1433 11.2807 1062 107.869 191.082 458.175
2200 0 94.0931 10.5427 992 109.506 191.676 452.814
2201 0 98.1166 10.936 1073 109.397 190.979 452.168
2202 0 100.12 11.0967 1111 109.602 190.293 450.525
2203 0 104.133 13.4732 1403 104.061 191.13 447.336
2204 0 107.099 11.2606 1206 109.084 191.114 447.776
2205 0 109.19 9.07591 991 114.232 190.595 447.944
2206 0 114.104 11.7524 1341 107.852 191.358 443.804
2207 0 114.127 10.5321 1202 111.517 191.552 440.329
2208 0 120.121 12.1461 1459 107.127 191.032 441.018
2209 0 125.146 13.3844 1675 105.462 191.183 438.95
2210 0 127.201 12.6808 1613 109.11 191.389 438.226
2211 0 128.302 12.6265 1620 103.754 191.943 430.014
2212 1 69.1399 9.29999 643 109.03 192.476 457.364
2213 0 71.1536 11.0184 784 106.195 191.514 457.077
2214 0 76.1992 10.3019 785 103.144 192.396 455.613
2215 0 76.2332 9.03806 689 106.758 192.791 455.681
2216 0 83.2816 11.1549 929 102.747 192.266 455.097
2217 0 86.181 11.6035 1000 101.48 192.477 455.99
2218 0 84.2638 10.2891 867 106.428 192.232 453.522
2219 0 89.2211 11.1409 994 104.725 192.1 452.678
2220 0 92.2308 11.2869 1041 106.656 191.944 449.515
2221 0 95.2527 10.4039 991 108.203 193.342 448.935
2222 0 98.2289 10.4654 1028 108.353 193.193 450.488
2223 0 104.267 12.2378 1276 104.915 193.492 448.205
2224 0 104.203 11.8038 1230 106.967 193.328 447.591
2225 0 110.208 10.9338 1205 107.469 193.878 445.248
2226 0 112.175 11.7584 1319 107.853 193.466 440.348
2227 0 117.262 13.2695 1556 106.125 193.614 438.195
2228 1 67.1366 9.14553 614 105.059 193.837 462.3
2229 0 70.2097 11.4229 802 104.197 192.906 461.009
2230 0 71.2001 12.0084 855 99.9953 192.789 459.994
2231 0 72.103 11.7887 850 101.24 193.564 460.126
2232 0 76.262 9.6116 733 105.482 193.138 461.488
2233 0 77.112 9.75205 752 107.008 192.766 456.473
2234 0 81.247 10.6589 866 104.232 192.947 458.45
2235 0 83.2232 11.6794 972 101.327 193.027 457.8
2236 0 83.2181 8.97641 747 109.685 192.905 452.244
2237 0 88.2771 10.6143 937 104.847 192.807 455.74
2238 0 90.1815 11.2994 1019 104.397 192.681 453.846
2239 0 92.385 11.333 1047 105.33 192.814 451.559
2240 0 97.3607 12.0582 1174 104.268 192.609 450.565
2241 0 98.1686 10.757 1056 107.46 193.234 449.571
2242 0 103.254 13.5395 1398 102.368 192.957 449.05
2243 0 106.218 12.1354 1289 106.08 192.476 447.974
2244 0 105.217 11.0629 1164 110.614 192.584 444.094
2245 0 110.258 11.5819 1277 109.446 193.486 442.377
2246 0 112.357 11.2765 1267 110.955 193.25 439.747
2247 0 117.353 12.0491 1414 109.338 192.901 441.412
2248 0 120.203 13.8766 1668 106.637 192.594 440.173
2249 0 123.117 11.7531 1447 112.004 192.71 438.399
2250 0 125.2 11.5735 1449 113.042 192.56 432.992
2251 0 133.199 12.0721 1608 110.076 192.026 434.468
2252 0 136.172 13.3728 1821 108.745 192.163 430.69
2253 1 79.1335 10.2864 814 102.698 192.244 458.866
2254 0 77.0404 8.19051 631 110.517 193.158 448.77
2255 0 87.1198 10.675 930 100.555 192.203 454.367
2256 0 90.1736 10.757 970 100.453 193.341 455.329
2257 0 91.1846 12.0634 1100 98.9164 192.299 454.034
2258 0 93.1222 10.5668 984 102.842 192.763 451.363
2259 0 97.1593 11.8362 1150 101.681 192.422 451.838
2260 0 99.1526 11.0234 1093 105.264 192.332 450.509
2261 0 102.194 10.304 1053 108.541 191.8 448.671
2262 0 103.2 10.2713 1060 109.56 191.512 447.394
2263 0 108.27 11.5175 1247 106.932 191.619 447.224
2264 0 112.225 12.4571 1398 106.029 191.077 449.578
2265 0 113.318 10.5897 1200 112.004 191.465 446.879
2266 0 118.18 11.6855 1381 110.579 190.637 446.723
2267 0 121.166 11.2243 1360 111.957 190.545 447.51
2268 0 124.179 11.1532 1385 113.567 190.11 446.008
2269 0 130.148 12.9929 1691 109.095 189.722 447.135
2270 0 135.151 12.6007 1703 111.072 189.236 447.791
2271 0 139.121 12.6221 1756 111.938 189.416 444.963
2272 0 144.305 12.5498 1811 113.359 188.635 442.238
2273 0 148.162 13.573 2011 111.427 188.669 439.73
2274 0 153.227 12.8307 1966 113.666 188.739 437.794
2275 0 159.187 12.6894 2020 113.482 188.372 436.963
2276 1 91.1529 10.6853 974 108.544 187.437 471.225
2277 0 94.1127 10.2962 969 106.914 187.212 467.4
2278 0 95.1179 10.3451 984 102.712 188.28 459.058
2279 0 101.098 10.8608 1098 101.348 187.93 460.875
2280 0 101.159 11.0025 1113 102.359 187.089 458.696
2281 0 105.388 11.4529 1207 101.318 187.273 455.939
2282 0 109.116 11.1532 1217 102.285 186.743 452.488
2283 0 113.072 10.7896 1220 102.004 187.054 453.84
2284 0 115.145 12.3496 1422 99.7293 186.583 449.658
2285 0 119.179 11.101 1323 102.917 185.924 444.078
2286 0 121.144 10.6072 1285 109.369 185.89 447.208
2287 0 126.135 10.679 1347 114.82 186.575 447.757
2288 0 132.229 12.8792 1703 109.14 186.213 448.226
2289 0 136.266 11.3088 1541 113.85 186.238 443.958
2290 0 141.35 11.3831 1609 112.648 186.084 443.457
2291 0 143.325 11.0239 1580 114.661 186.146 440.863
2292 0 150.306 12.1086 1820 109.127 186.4 427.535
2293 1 85.1563 8.59596 732 101.551 186.117 468.29
2294 0 90.2295 8.99927 812 100.548 187.873 466.6
2295 0 90.1787 9.79167 883 102.701 187.607 462.334
2296 0 95.1596 11.0236 1049 98.6139 188.166 465.326
2297 0 96.2057 8.99115 865 104.14 188.343 460.691
2298 0 102.255 10.9726 1122 99.4822 188.514 462.843
2299 0 104.141 10.4474 1088 101.581 188.49 461.524
2300 0 106.209 9.72611 1033 103.905 188.647 455.771
2301 0 110.189 10.364 1142 102.862 187.552 454.001
2302 0 112.264 9.38859 1054 105.285 187.306 453.361
2303 0 120.156 12.9082 1551 98.4616 186.712 452.469
2304 0 123.253 11.6509 1436 101.814 187.125 448.848
2305 0 125.269 11.615 1455 102.159 186.375 447.324
2306 0 128.266 11.6087 1489 102.604 186.734 450.019
2307 0 132.483 10.9976 1457 104.152 186.839 448.017
2308 0 136.41 10.6957 1459 107.827 185.612 450.836
2309 0 141.437 12.1679 1721 107.323 185.422 441.875
2310 0 147.362 13.5177 1992 104.629 185.904 437.547
2311 1 84.1206 11.7926 992 99.6159 187.655 462.363
2312 0 84.2719 11.7121 987 103.495 186.616 462.085
2313 0 87.1879 11.1369 971 96.7817 186.96 468.733
2314 0 89.148 10.6789 952 97.6943 187.878 466.618
2315 0 92.1961 12.1806 1123 95.2769 187.248 469.682
2316 0 92.1877 11.8888 1096 97.6058 187.439 467.894
2317 0 95.2259 11.3519 1081 98.8677 187.534 469.159
2318 0 98.1679 10.7775 1058 100.594 186.526 465.847
2319 0 102.17 10.9034 1114 100.066 186.399 464.367
2320 0 103.149 10.3055 1063 102.362 187.111 463.198
2321 0 107.158 11.1331 1193 101.378 186.861 461.656
2322 0 109.195 11.5115 1257 102.311 186.944 457.413
2323 0 114.208 12.2408 1398 101.333 187.385 456.351
2324 0 116.23 12.7334 1480 100.639 188.253 457.015
2325 0 119.205 11.6019 1383 104.044 187.473 456.072
2326 0 123.246 12.8442 1583 107.881 187.23 453.065
2327 0 125.233 11.6502 1459 110.271 188.262 451.638
2328 0 127.398 10.8872 1387 113.234 187.699 448.714
2329 0 133.173 12.4199 1654 109.703 187.576 447.046
2330 0 135.275 11.059 1496 107.951 187.294 439.281
2331 0 140.18 11.8847 1666 107.681 187.934 438.423
2332 1 83.1595 11.0871 922 99.8764 188.396 473.91
2333 0 86.1742 11.6276 1002 98.6587 188.328 471.176
2334 0 88.1563 11.4569 1010 98.7881 187.696 473.243
2335 0 88.1449 9.94953 877 98.8598 187.812 462.296
2336 0 95.2946 12.1728 1160 93.7483 187.409 464.248
2337 0 96.1858 11.2802 1085 96.671 187.727 460.58
2338 0 99.1275 10.9657 1087 97.5446 188.342 461.878
2339 0 105.209 12.9741 1365 94.6161 188.442 458.914
2340 0 107.165 11.6736 1251 97.8665 188.18 458.365
2341 0 109.229 11.1509 1218 100.993 188.029 456.286
2342 0 112.246 11.1897 1256 101.981 187.689 455.646
2343 0 116.177 12.1539 1412 101.637 187.484 448.87
2344 0 120.27 12.3639 1487 102.743 187.476 447.548
2345 0 122.182 12.4977 1527 103.561 188.129 446.992
2346 0 127.334 12.2826 1564 103.911 188.182 446.946
2347 0 131.225 13.1606 1727 102.851 188.819 441.318
2348 0 134.249 13.3409 1791 103.657 188.193 438.028
2349 0 137.305 13.1823 1810 105.032 188.748 438.252
2350 0 140.279 12.7603 1790 112.512 188.281 434.477
2351 0 146.243 13.4502 1967 111.011 189.209 432.344
2352 0 150.302 12.4948 1878 113.986 188.856 429.863
2353 0 154.33 13.3805 2065 113.536 188.617 425.277
2354 0 157.29 11.9778 1884 117.56 188.441 422.327
2355 0 162.279 12.6387 2051 115.855 188.978 418.687
2356 0 169.368 12.2278 2071 116.096 189 416.614
2357 0 174.467 12.5755 2194 112.139 189.252 417.37
2358 1 103.258 10.8272 1118 106.714 190.027 452.917
2359 0 106.14 11.8429 1257 105.51 189.916 450.286
2360 0 110.151 13.2273 1457 103.544 189.953 448.796
2361 0 110.219 12.0487 1328 106.605 190.376 449.337
2362 0 114.179 11.6659 1332 108.318 190.223 446.193
2363 0 120.296 11.4301 1375 108.188 190.165 443.607
2364 0 124.191 12.215 1517 106.587 190.5 442.081
2365 0 126.2 11.6323 1468 108.342 190.373 440.732
2366 0 130.398 9.70108 1265 111.058 189.394 439.517
2367 0 134.424 11.4935 1545 108.851 189.157 431.007
2368 0 139.358 11.4597 1597 108.818 189.425 431.47
2369 0 141.382 10.7935 1526 110.773 189.145 427.381
2370 0 149.291 11.8628 1771 107.529 189.822 428.882
2371 0 154.345 10.8782 1679 107.391 190.139 426.139
2372 1 89.1675 10.1943 909 107.77 189.576 456.542
2373 0 94.1813 13.0387 1228 97.4617 190.209 459.142
2374 0 96.0549 13.9399 1339 97.832 189.69 457.908
2375 0 100.161 13.9576 1398 97.1044 190.114 458.322
2376 0 101.157 13.138 1329 99.9428 190.713 456.786
2377 0 105.335 12.6738 1335 101.405 190.027 454.341
2378 0 109.141 12.9558 1414 100.019 190.583 454.356
2379 0 111.159 12.4507 1384 103.377 191.117 450.236
2380 0 117.146 14.3069 1676 98.7058 191.156 450.016
2381 0 119.14 12.4643 1485 103.76 191.201 448.427
2382 0 125.174 14.356 1797 99.7679 190.939 442.461
2383 0 128.206 13.0883 1678 102.559 190.916 444.514
2384 0 130.223 12.7781 1664 105.274 190.639 439.066
2385 0 135.189 13.3812 1809 104.107 190.765 437.53
2386 0 139.131 13.1603 1831 104.691 190.384 437.264
2387 1 78.0656 11.9899 936 105.892 189.901 465.184
2388 0 82.104 12.1675 999 105.383 190.086 463.605
2389 0 85.1183 12.5472 1068 104.227 189.83 462.619
2390 0 87.1743 13.4099 1169 102.964 190.578 459.689
2391 0 88.1021 11.9861 1056 107.517 190.689 458.426
2392 0 92.1166 12.6145 1162 106.114 190.741 458.126
2393 0 96.1229 12.9522 1245 105.169 190.514 458.84
2394 0 96.1489 12.1478 1168 109.617 189.999 456.673
2395 0 100.066 14.0407 1405 106.939 190.432 453.509
2396 0 102.117 13.4846 1377 109.356 189.97 451.891
2397 0 105.081 13.0756 1374 109.356 189.98 453.558
2398 0 110.172 13.5061 1488 107.747 189.603 450.758
2399 0 112.11 13.7366 1540 107.692 189.834 449.144
2400 0 116.114 14.4513 1678 106.964 189.423 446.291
2401 0 117.123 13.4303 1573 110.996 189.317 443.76
2402 0 120.144 13.5921 1633 111.434 189.852 441.052
2403 0 122.139 11.8144 1443 106.661 191.315 439.814
2404 0 126.149 12.9609 1635 103.51 190.677 440.582
2405 0 129.15 13.0314 1683 104.846 190.862 434.061
2406 0 133.186 13.102 1745 105.309 190.566 434.473
2407 0 134.169 11.6122 1558 109.589 191.362 427.813
2408 0 142.169 12.4007 1763 107.529 191.393 427.37
2409 0 146.17 12.4855 1825 109.497 191.06 426.873
2410 0 152.203 12.8053 1949 107.545 191.349 424.462
2411 0 156.112 12.5935 1966 107.373 191.731 422.387
2412 1 90.0707 11.8574 1068 113.139 191.611 455.552
2413 0 93.1678 11.3236 1055 115.299 190.67 452.275
2414 0 98.2486 12.8653 1264 111.784 190.506 449.413
2415 0 100.239 12.9989 1303 112.289 190.599 447.596
2416 0 103.169 12.6104 1301 115.047 189.936 445.023
2417 0 106.273 13.1266 1395 112.411 190.824 444.599
2418 0 110.2 12.7132 1401 114.204 190.617 445.321
2419 0 113.28 12.5441 1421 115.546 190.428 444.596
2420 0 119.278 13.6823 1632 113.811 190.245 445.012
2421 0 121.246 13.3118 1614 115.976 190.591 442.065
2422 0 125.278 14.6075 1830 110.35 191.167 440.185
2423 1 69.2388 11.1643 773 109.781 191.913 470.177
2424 0 69.1996 11.1995 775 110.626 191.462 465.892
2425 0 71.1674 11.8031 840 101.765 191.992 463.782
2426 0 72.2793 11.331 819 103.518 191.259 463.763
2427 0 76.135 11.519 877 102.954 191.179 461.556
2428 0 78.1427 11.9141 931 102.712 191.377 460.843
2429 0 80.0994 12.085 968 103.195 192.224 460.139
2430 0 82.1511 11.9536 982 104.159 191.442 459.154
2431 0 83.1791 11.9141 991 106.09 191.256 458.388
2432 0 88.2551 13.2004 1165 102.743 191.77 456.308
2433 0 87.164 12.0463 1050 107.709 191.294 453.104
2434 0 94.2957 12.1321 1144 106.381 191.369 452.435
2435 0 96.3441 12.7356 1227 106.295 191.728 451.345
2436 0 99.3489 13.0953 1301 106.144 191.515 449.833
2437 0 100.254 13.0868 1312 107.366 192.101 449.492
2438 0 102.275 11.8895 1216 112.618 192.428 450.1
2439 0 106.184 12.629 1341 112.963 191.885 448.839
2440 0 109.118 12.9127 1409 113.564 192.198 446.089
2441 0 111.307 12.506 1392 114.886 191.529 446.933
2442 0 115.217 14.0084 1614 112.459 191.527 442.683
2443 0 117.191 12.0743 1415 118.296 191.423 443.18
2444 0 120.277 12.2052 1468 119.611 191.85 441.862
2445 0 125.359 12.3645 1550 120.506 191.208 436.831
2446 0 128.362 12.5426 1610 120.578 191.672 433.15
2447 0 132.3 13.8851 1837 117.389 191.653 434.007
2448 0 137.253 12.9687 1780 119.637 191.087 431.289
2449 0 142.264 13.2219 1881 117.779 191.483 430.246
2450 0 146.155 12.1651 1778 121.089 190.939 428.773
2451 0 154.368 12.982 2004 119.122 191.167 425.061
2452 1 87.1372 10.8679 947 117.2 191.749 458.365
2453 0 89.2046 12.3648 1103 116.008 191.545 453.964
2454 0 92.1336 12.1888 1123 111.593 192.241 454.581
2455 0 95.0892 12.6197 1200 111.849 192 452.709
2456 0 97.0821 11.8456 1150 115.592 191.59 451.828
2457 0 100.101 11.7781 1179 115.252 191.997 450.859
2458 0 106.114 13.2688 1408 111.616 192.511 450.095
2459 0 107.162 12.7563 1367 114.397 191.701 445.652
2460 0 111.147 12.398 1378 117.279 192.126 445.833
2461 0 112.142 12.6536 1419 117.677 192.205 441.691
2462 0 116.184 13.3753 1554 116.362 191.506 440.368
2463 0 121.134 14.4056 1745 113.33 191.535 436.279
2464 0 124.162 12.83 1593 117.836 192.129 436.073
2465 0 129.28 13.4127 1734 115.526 192.082 430.641
2466 0 131.173 12.6551 1660 119.038 191.887 432.994
2467 0 138.189 12.1862 1684 119.096 191.938 431.9
2468 1 82.1317 10.471 860 116.335 191.923 457.52
2469 0 86.1152 12.042 1037 105.428 191.605 459.538
2470 0 89.0791 12.6629 1128 105.6 191.312 457.729
2471 0 91.0802 12.1102 1103 105.762 191.827 458.489
2472 0 96.0847 13.3424 1282 102.244 192.023 457.122
2473 0 99.0943 12.695 1258 104.959 191.96 453.841
2474 0 103.15 12.6805 1308 103.33 192.519 454.476
2475 0 107.198 12.7707 1369 104.728 192.249 449.58
2476 0 108.181 12.2203 1322 106.251 192.136 449.481
2477 0 110.179 11.082 1221 109.516 192.201 447.439
2478 0 116.21 13.794 1603 104.296 191.943 443.616
2479 0 120.158 12.8247 1541 105.423 192.587 441.286
2480 0 123.152 11.7416 1446 108.436 192.008 441
2481 0 127.256 12.0073 1528 107.637 192.433 439.283
2482 1 73.0662 11.1269 813 103.811 192.722 468.72
2483 0 76.1688 12.4854 951 100.272 192.719 467.375
2484 0 78.1713 9.65827 755 107.396 191.951 464.049
2485 0 80.1285 12.4175 995 101.557 192.993 464.916
2486 0 85.1046 12.373 1053 100.702 192.933 460.274
2487 0 88.1817 12.2815 1083 100.325 192.658 461.792
2488 0 90.1372 12.2258 1102 101.434 192.378 458.063
2489 0 90.1805 11.8096 1065 102.663 192.512 458.938
2490 0 93.29 11.4375 1067 104.303 191.686 455.057
2491 0 96.2302 11.8986 1145 103.083 192.045 456.15
2492 0 100.182 12.3975 1242 102.594 191.804 454.203
2493 0 104.176 13.2564 1381 101.755 191.434 450.732
2494 0 105.153 12.5817 1323 104.849 191.714 449.648
2495 0 109.207 11.9772 1308 108.056 190.839 450.073
2496 1 60.0624 10.1394 609 100.246 193.133 477.069
2497 0 60.0742 10.3372 621 104.979 193.184 473.243
2498 0 62.1415 12.5359 779 100.656 192.59 473.271
2499 0 66.051 12.6872 838 100.773 192.851 470.599
2500 0 66.0817 10.8048 714 105.189 192.679 468.151
2501 0 68.112 12.0977 824 103.047 192.972 470.138
2502 0 71.1247 12.3164 876 103.87 191.994 466.277
2503 0 71.1282 12.358 879 105.246 192.67 467.868
2504 0 75.1331 13.8953 1044 101.762 192.001 466.691
2505 0 77.1354 11.7197 904 109.904 191.945 467.204
2506 0 79.1184 12.0073 950 108.007 192.506 462.238
2507 0 82.1644 11.7082 962 108.78 192.861 462.048
2508 0 86.0743 13.4883 1161 105.571 192.812 459.998
2509 0 88.1249 12.0397 1061 109.347 192.566 459.969
2510 0 92.0847 13.4224 1236 106.312 193.163 460.052
2511 0 92.092 13.5517 1248 139.328 194.179 460.119
2512 0 96.0952 12.5188 1203 110.308 192.825 457.852
2513 0 99.1146 13.2876 1317 110.359 193.221 453.248
2514 0 103.121 13.3824 1380 109.614 193.343 455.241
2515 0 103.141 13.2247 1364 112.044 193.12 452.966
2516 0 107.279 12.9941 1394 112.499 192.964 451.077
2517 0 109.097 13.3643 1458 113.291 192.49 448.763
2518 0 113.139 13.5762 1536 113.709 192.52 450.188
2519 0 116.172 13.1701 1530 114.714 193.318 448.27
2520 0 120.217 13.0348 1567 115.543 193.329 446.582
2521 0 124.14 14.1856 1761 112.766 193.419 444.629
2522 0 127.193 13.4756 1714 115.319 193.043 441.707
2523 0 133.218 14.6227 1948 112.137 193.204 438.413
2524 1 75.1173 11.4621 861 115.331 193.878 467.461
2525 0 77.0971 11.1937 863 119.01 192.833 458.467
2526 0 81.1123 13.3642 1084 116.553 193.423 458.657
2527 0 82.0706 12.5502 1030 112.364 194.74 465.083
2528 0 86.0806 12.4651 1073 113.062 194.226 462.813
2529 0 87.1009 11.9861 1044 115.429 194.063 462.407
2530 0 92.0422 13.1136 1207 112.733 194.053 459.874
2531 0 94.0768 12.9681 1220 113.221 193.841 459.325
2532 0 98.1066 13.2611 1301 114.142 192.423 454.038
2533 0 100.128 12.6937 1271 115.057 193.767 454.541
2534 0 105.255 12.199 1284 115.872 194.005 451.783
2535 0 108.172 13.0717 1414 113.176 193.43 451.004
2536 0 111.179 12.4933 1389 114.726 193.048 447.408
2537 1 61.0907 11.2128 685 110.73 194.093 471.78
2538 0 66.0801 13.4231 887 104.601 194.122 471.188
2539 0 68.1818 12.364 843 106.728 192.843 467.335
2540 0 70.1125 13.1503 922 105.553 193.332 468.377
2541 0 72.0878 13.539 976 104.762 193.57 468.967
2542 0 75.0711 13.2674 996 105.859 193.431 466.449
2543 0 77.1939 12.7342 983 106.288 193.591 463.077
2544 0 81.1008 12.4906 1013 107.122 193.713 464.615
2545 0 82.0471 12.7122 1043 108.305 193.569 460.997
2546 0 83.0996 12.4309 1033 109.101 193.28 461.811
2547 0 91.1386 14.0555 1281 105.133 193.644 460.975
2548 0 91.0444 13.0815 1191 109.906 193.897 453.207
2549 0 93.1418 13.7747 1283 107.18 193.719 457.672
2550 0 97.1853 13.5 1312 109.118 193.648 454.095
2551 0 99.1379 13.1534 1304 109.873 193.535 454.267
2552 0 101.255 13.2734 1344 111.095 192.553 449.803
2553 0 106.298 12.9918 1381 112.513 192.828 447.255
2554 0 109.247 13.8859 1517 110.852 192.537 445.075
2555 0 113.291 13.9376 1579 111.378 193.208 441.397
2556 0 116.211 12.6752 1473 113.025 193.023 440.456
2557 0 121.337 13.4255 1629 111.746 193.772 437.071
2558 0 126.248 13.1804 1664 110.991 193.332 435.987
2559 1 68.2049 12.1106 826 112.984 192.662 463.333
2560 0 72.4637 14.4624 1048 109.52 193.449 460.878
2561 0 75.08 13.5855 1020 107.566 193.707 461.147
2562 0 78.288 14.5999 1143 104.503 193.641 462.907
2563 0 79.1774 14.0065 1109 108.779 193.214 457.602
2564 0 83.1806 13.7652 1145 108.259 193.623 462.578
2565 0 84.1188 13.7306 1155 110.673 194.443 460.991
2566 0 90.183 15.1802 1369 107.109 193.208 456.66
2567 0 92.147 14.9218 1375 109.883 192.585 452.655
2568 0 95.3245 14.2985 1363 111.882 192.784 453.699
2569 0 98.2208 13.5104 1327 115.17 192.975 450.509
2570 0 101.218 14.4935 1467 113.134 192.755 451.127
2571 0 104.273 14.721 1535 113.405 193.106 448.736
2572 0 108.207 13.9086 1505 115.294 192.951 450.175
2573 0 112.196 14.9292 1675 114.428 192.759 445.669
2574 0 114.095 13.8569 1581 117.596 193.005 446.488
2575 0 118.291 13.9064 1645 118.035 193.454 444.401
2576 0 122.292 14.8416 1815 113.959 193.504 438.28
2577 0 127.356 14.8874 1896 113.498 192.844 437.074
2578 1 69.0719 12.7838 883 113.428 193.105 466.384
2579 0 73.0716 13.042 953 117.467 192.438 459.09
2580 0 77.0419 13.4342 1035 114.688 192.845 460.017
2581 0 78.1984 13.3251 1042 113.808 193.163 458.627
2582 0 83.1868 14.0768 1171 111.732 192.781 450.593
2583 0 82.2449 13.0099 1070 117.027 192.573 448.885
2584 0 87.2763 13.5547 1183 116.093 193.114 448.737
2585 0 87.2221 13.3108 1161 118.273 192.649 448.183
2586 0 91.364 13.9114 1271 116.637 192.847 447.707
2587 0 93.2154 12.8734 1200 119.982 192.609 446.612
2588 0 96.1966 13.7427 1322 119.979 193.666 446.192
2589 0 100.257 13.8344 1387 120.527 193.354 445.588
2590 0 103.197 13.6923 1413 121.93 193.032 446.34
2591 0 106.17 14.4767 1537 121.126 193.245 446.536
2592 0 109.184 14.7091 1606 121.631 193.594 444.498
2593 0 113.364 14.6784 1664 123.072 192.688 444.001
2594 0 117.267 15.4605 1813 121.903 192.849 443.316
2595 0 121.186 15.2328 1846 123.361 193.128 441.282
2596 0 125.258 15.7116 1968 122.793 193.283 442.779
2597 0 127.271 14.1588 1802 127.353 193.648 441.361
2598 0 132.218 14.2189 1880 128.861 193.156 437.36
2599 0 139.293 15.1767 2114 126.368 193.664 433.843
2600 0 144.25 15.3692 2217 126.347 193.79 430.061
2601 1 82.1891 13.907 1143 126.98 193.859 462.521
2602 0 84.1398 14.5948 1228 127.624 193.812 458.838
2603 0 87.1025 14.5576 1268 127.379 194.278 460.076
2604 0 90.1239 14.7242 1327 127.853 194.189 458.323
2605 0 94.1981 16.0831 1515 124.776 194.127 457.079
2606 0 94.1785 15.014 1414 130.888 193.975 455.206
2607 0 98.117 14.8292 1455 131.211 194.098 452.865
2608 0 102.096 15.2504 1557 130.243 194.396 451.383
2609 0 106.221 16.8235 1787 125.433 193.575 450.632
2610 0 109.166 16.1773 1766 128.455 193.421 449.014
2611 0 112.213 15.9339 1788 129.295 193.631 447.832
2612 0 115.156 16.8294 1938 128.792 193.085 444.81
2613 0 119.218 15.1823 1810 133.442 193.827 445.932
2614 0 124.363 16.4438 2045 131.597 193.777 442.421
2615 0 128.327 15.4059 1977 134.276 194.17 439.968
2616 0 133.188 15.3092 2039 134.307 194.167 439.039
2617 0 144.308 22.0778 3186 113.957 193.204 427.254
2618 0 143.327 14.596 2092 140.428 192.937 432.173
2619 1 81.1962 13.5844 1103 140.508 193.844 463.777
2620 0 83.1312 14.7718 1228 138.853 193.648 459.971
2621 0 86.0878 13.8928 1196 142.131 192.957 460.718
2622 0 89.1893 14.5533 1298 141.805 193.008 459.357
2623 0 90.061 14.3347 1291 144.123 193.285 457.932
2624 0 94.0884 14.869 1399 141.327 193.209 458.989
2625 0 97.1543 15.0482 1462 142.274 192.504 454.986
2626 0 98.1542 14.681 1441 144.487 192.568 452.675
2627 0 102.105 14.5634 1487 145.071 192.407 452.764
2628 0 106.106 14.985 1590 143.616 192.018 451.874
2629 0 109.124 15.2578 1665 143.238 192.363 450.185
2630 0 112.156 14.8187 1662 143.922 192.03 447.119
2631 0 117.157 15.2957 1792 141.877 192.777 445.761
2632 0 120.101 14.4712 1738 144.846 192.032 443.24
2633 0 124.212 15.4333 1917 142.585 191.532 440.635
2634 0 129.107 15.1193 1952 143.145 191.473 439.717
2635 0 134.336 16.5406 2222 138.477 191.126 437.903
2636 0 137.142 15.6553 2147 142.095 191.883 433.887
2637 0 142.219 16.9176 2406 137.429 192.245 433.671
2638 0 145.208 15.2815 2219 144.145 191.647 432.333
2639 0 150.125 14.408 2163 148.265 191.041 427.943
2640 0 155.225 15.9381 2474 143.72 191.123 426.947
2641 0 160.226 16.1897 2594 142.91 191.307 421.58
2642 0 165.172 15.8925 2625 143.833 190.539 419.012
2643 0 171.271 16.6111 2845 142.306 190.865 418.004
2644 0 173.212 15.1953 2632 149.837 190.766 416.998
2645 0 179.159 16.1365 2891 146.862 190.899 411.929
2646 0 184.249 15.6582 2885 147.697 190.277 408.356
2647 0 190.234 16.9843 3231 144.719 190.123 404.908
2648 0 197.286 16.7523 3305 144.122 189.796 403.589
2649 0 204.281 16.071 3283 146.74 189.759 398.263
2650 0 210.467 16.3446 3440 146.059 189.816 392.529
2651 0 215.151 15.603 3357 149.505 190.105 389.738
2652 0 225.257 16.2881 3669 147.794 190.225 388.499
2653 1 60.1528 10.224 615 125.86 189.254 471.158
2654 0 62.101 9.32352 579 129.447 189.888 472.074
2655 0 64.0415 11.4925 736 114.507 190.655 474.743
2656 0 63.046 7.45488 470 122.364 190.081 475.366
2657 0 67.1197 9.46071 635 120.466 190.545 471.482
2658 0 68.0842 9.45887 644 120.264 190.455 471.311
2659 0 71.0439 9.31818 662 122.06 190.921 469.187
2660 0 74.0693 10.0176 742 120.53 190.993 467.821
2661 0 75.069 9.71107 729 122.449 190.001 468.233
2662 0 79.1065 9.99918 791 119.891 189.991 467.047
2663 0 79.1146 8.89848 704 124.482 189.99 464.195
2664 0 83.0716 11.5202 957 118.647 190.162 463.071
2665 0 84.0504 9.86313 829 123.667 190.069 461.784
2666 0 88.154 11.3778 1003 119.489 190.628 461.98
2667 1 15.0329 4.52342 68 105.088 190.912 498.897
2668 0 15.0018 6.26593 94 104.383 191.468 497.192
2669 0 16.0144 6.61904 106 102.142 191.604 497.585
2670 0 14.0005 4.28558 60 106.733 191.35 497.25
2671 0 16.001 8.31198 133 100.895 191.887 496.556
2672 0 17.016 7.34604 125 101.656 192.336 496.672
2673 0 16.001 5.37467 86 103.326 192.233 498.279
2674 0 17.0142 6.64152 113 101.947 191.965 497.478
2675 0 17.0148 5.75969 98 107.224 191.582 494.612
2676 0 18.0053 5.33176 96 105.75 191.365 496.844
2677 0 17.0024 7.46953 127 101.575 192.102 496.189
2678 0 19.001 6.21021 118 104.093 191.449 496.39
2679 0 17.0026 4.64636 79 103.696 191.785 497.367
2680 0 18.0014 7.22167 130 103.615 192.408 495.638
2681 0 17.0051 6.29224 107 103.168 191.991 497.234
2682 0 17.0028 6.58715 112 103.321 192.67 497.366
2683 0 19.0056 6.78748 129 102.512 192.349 496.233
2684 0 18.0065 7.33067 132 105.144 192.659 493.841
2685 0 17.0032 6.76345 115 102.33 193.157 496.748
2686 0 19.0041 7.52468 143 101.406 193.49 494.294
2687 0 18.0083 6.94125 125 104.432 192.536 494.728
2688 0 19.0313 5.67487 108 103.787 192.167 497.463
2689 0 17.0034 6.76337 115 105.026 193.539 495.209
2690 0 14.0134 4.63841 65 107.169 192.338 496.631
2691 0 17.0206 6.63902 113 104.549 192.566 496.425
2692 0 15.0036 7.33156 110 102.245 192.373 497.082
2693 0 15.0008 6.19966 93 105.097 192.226 495.882
2694 0 17.0201 6.16919 105 101.133 191.952 497.248
2695 0 16.0005 7.37478 118 102.119 192.466 496.483
2696 0 15.003 4.39911 66 105.394 192.182 496.288
2697 0 15.037 4.65518 70 106.071 192.971 496.314
2698 0 13.0037 4.38335 57 104.596 192.737 498.123
2699 0 16.0035 3.31177 53 111.113 192.585 494.943
2700 0 12.0008 4.2497 51 110.49 192.765 495.02
2701 1 85.2303 9.96125 849 115.945 192.594 465.355
2702 0 86.1581 9.7147 837 117.302 192.051 461.984
2703 0 88.1582 10.4358 920 115.463 193.024 461.411
2704 0 90.2152 10.1092 912 118.34 193.056 459.276
2705 0 94.3032 11.8236 1115 115.122 192.187 456.619
2706 0 94.4212 11.3746 1074 117.447 192.046 458.315
2707 0 98.2088 11.6792 1147 119.584 192.316 455.406
2708 0 100.325 11.5724 1161 119.846 192.177 455.188
2709 0 101.24 11.8234 1197 120.662 192.534 451.196
2710 0 105.191 11.8642 1248 119.946 192.413 449.252
2711 0 106.125 11.722 1244 120.402 192.412 449.162
2712 0 110.154 12.0741 1330 119.813 192.579 446.345
2713 0 112.167 12.9985 1458 117.477 192.578 446.552
2714 0 114.171 12.4025 1416 120.108 192.523 444.202
2715 0 115.138 12.4373 1432 120.647 192.851 440.995
2716 0 121.139 12.0935 1465 119.823 192.326 435.636
2717 0 122.222 12.4609 1523 121.102 192.41 436.217
2718 0 123.165 10.5875 1304 125.381 192.366 435.252
2719 0 129.198 12.9646 1675 119.685 192.931 430.979
2720 0 134.167 11.7689 1579 122.399 192.54 429.841
2721 0 138.234 10.5111 1453 125.244 192.597 431.055
2722 0 141.211 10.9411 1545 126.386 192.405 425.755
2723 1 87.121 10.0091 872 120.101 192.807 453.303
2724 0 91.1557 11.1787 1019 116.053 192.839 450.6
2725 0 94.1151 12.0916 1138 109.203 192.569 453.021
2726 0 95.1738 10.8223 1030 111.659 193.06 450.754
2727 0 95.072 11.3283 1077 111.861 192.889 444.832
2728 0 103.096 12.4642 1285 108.082 193.113 448.607
2729 0 103.127 11.8495 1222 111.115 192.785 445.95
2730 0 108.095 12.9516 1400 115.164 193.343 448.791
2731 0 112.112 13.8255 1550 114.011 193.858 447.297
2732 0 113.123 12.1284 1372 120.436 193.847 444.175
2733 0 119.174 13.2915 1584 116.815 193.322 443.376
2734 0 121.146 14.0492 1702 115.572 193.633 442.85
2735 0 122.185 13.0458 1594 119.828 193.73 436.701
2736 0 127.145 14.1413 1798 116.794 193.37 436.004
2737 0 130.165 13.383 1742 118.788 192.734 435.045
2738 0 132.15 13.2123 1746 120.986 192.411 436.699
2739 0 137.097 13.6181 1867 120.377 191.792 431.927
2740 0 138.18 12.737 1760 124.14 192.57 428.435
2741 0 145.202 13.8428 2010 120.779 192.042 428.97
2742 0 147.234 12.9997 1914 122.395 192.377 426.374
2743 0 154.242 13.0055 2006 119.995 192.166 420.782
2744 0 158.15 12.8485 2032 120.512 191.486 414.812
2745 0 163.246 13.6052 2221 117.495 191.121 414.523
2746 0 168.164 14.2123 2390 114.416 191.375 411.669
2747 0 173.43 11.5378 2001 118.938 190.964 407.686
2748 0 180.209 12.3523 2226 127.671 191.416 408.391
2749 0 186.24 13.2732 2472 122.763 191.341 400.522
2750 1 104.194 11.1906 1166 117.533 191.935 442.991
2751 0 107.077 11.6832 1251 116.991 191.762 440.356
2752 0 110.278 11.9879 1322 118.21 192.553 436.679
2753 0 114.23 11.9233 1362 114.068 191.452 436.882
2754 0 114.176 11.7889 1346 115.666 192.311 436.193
2755 0 120.238 11.261 1354 116.55 192.427 434.827
2756 0 124.342 12.916 1606 112.879 191.928 434.375
2757 0 129.322 12.4264 1607 113.735 192.162 428.58
2758 0 131.174 12.472 1636 113.443 191.666 428.397
2759 0 137.151 11.7535 1612 115.131 191.848 425.986
2760 0 140.17 12.8416 1800 113.645 191.906 423.434
2761 0 145.223 13.4965 1960 111.519 192.62 422.656
2762 0 149.27 13.5862 2028 111.768 192.326 420.458
2763 0 155.33 13.2364 2056 112.281 192.184 416.607
2764 0 162.27 13.9952 2271 110.58 191.547 409.456
2765 0 165.328 14.5287 2402 111.398 191.4 409.622
2766 0 169.298 13.1307 2223 115.142 191.686 412.899
2767 0 175.237 14.3577 2516 115.211 191.754 404.92
2768 0 181.306 13.6399 2473 117.674 191.724 403.349
2769 0 185.271 13.4236 2487 119.47 192.041 401.09
2770 0 191.164 14.3699 2747 118.281 192.324 398.716
2771 0 198.305 14.2003 2816 119.166 191.764 397.75
2772 0 197.266 12.6935 2504 125.159 191.268 389.728
2773 0 208.328 14.2276 2964 121.603 191.189 387.341
2774 0 215.447 15.9946 3446 117.651 191.692 386.119
2775 0 219.49 14.8799 3266 122.507 191.709 384.009
2776 0 228.58 14.3057 3270 123.673 191.178 380.964
2777 0 234.514 14.3445 3364 124.092 191.4 374.16
2778 0 242.551 15.2545 3700 121.478 192.255 373.196
2779 0 242.551 15.2463 3698 162.104 193.261 373.368
2780 0 243.549 10.4702 2550 129.988 191.298 385.12
2781 1 65.2413 10.3155 673 95.2585 192.337 466.062
2782 0 66.1735 9.27864 614 99.3583 192.205 469.976
2783 0 68.1668 12.2934 838 96.9165 191.816 471.499
2784 0 70.1553 10.7476 754 100.881 191.745 470.275
2785 0 71.1266 11.5287 820 100.488 190.893 467.761
2786 0 74.1506 10.6675 791 101.554 191.551 470.559
2787 0 76.1389 11.3871 867 102.14 190.539 465.159
2788 0 78.1791 11.5248 901 102.981 191.184 463.951
2789 0 84.2344 12.3346 1039 98.8296 190.755 463.541
2790 0 83.1878 12.3335 1026 102.067 190.968 463.806
2791 0 83.0935 10.5303 875 115.654 192.314 461.392
2792 0 86.0668 10.608 913 116.21 192.597 459.157
2793 0 90.1351 10.3511 933 115.502 193.184 457.886
2794 0 94.0899 15.4639 1455 102.357 193.377 452.044
2795 0 94.042 10.1976 959 117.176 192.899 453.373
2796 0 96.0701 10.4299 1002 116.904 193.295 456.451
2797 0 98.1615 11.1958 1099 118.308 190.806 453.328
2798 0 104.19 10.98 1144 119.139 190.914 454.298
2799 0 106.261 12.2905 1306 116.943 191.077 450.809
2800 0 108.203 11.007 1191 119.222 191.992 447.756
2801 0 113.138 12.772 1445 113.255 192.368 447.034
2802 1 72.0926 11.8181 852 102.018 192.477 445.491
2803 0 73.2181 11.0492 809 103.462 193.125 446.596
2804 0 74.1951 11.955 887 103.558 193.412 446.498
2805 0 75.3232 10.6076 799 105.523 191.93 435.885
2806 0 75.2268 10.4617 787 109.103 191.516 433.783
2807 0 78.1938 11.3692 889 107.177 191.768 436.811
2808 0 79.3561 10.3332 820 109.995 191.461 438.604
2809 0 81.2473 10.8311 880 110.914 191.715 437.139
2810 0 83.2691 12.0693 1005 109.78 191.508 433.46
2811 0 86.166 11.2689 971 112.18 191.551 437.31
2812 0 87.1903 11.0104 960 113.153 191.247 434.406
2813 0 91.1466 11.6406 1061 111.161 191.23 438.405
2814 0 93.3286 11.8399 1105 111.443 191.033 437.31
2815 0 94.2216 12.5024 1178 111.252 191.07 438.095
2816 0 99.3775 12.3469 1227 110.538 190.677 439.082
2817 0 100.309 12.302 1234 112.222 191.174 440.521
2818 0 102.292 12.8358 1313 111.874 191.117 441.114
2819 0 106.227 12.1344 1289 113.479 191.042 436.603
2820 0 110.26 13.0691 1441 111.045 190.285 437.779
2821 0 114.381 12.9654 1483 109.865 191.028 444.409
2822 0 116.342 13.469 1567 111.146 189.792 441.205
2823 0 121.398 13.5752 1648 110.048 190.786 440.246
2824 0 124.308 13.1287 1632 111.152 191.03 437.522
2825 0 128.297 12.6425 1622 111.806 190.581 438.272
2826 0 128.212 11.7384 1505 116.856 190.468 434.307
2827 0 134.304 12.6579 1700 113.702 191.409 431.854
2828 0 139.355 13.706 1910 112.487 190.093 428.095
2829 0 143.274 13.5684 1944 113.534 190.561 428.408
2830 0 145.294 13.1595 1912 115.859 189.951 426.204
2831 0 150.367 14.1587 2129 113.087 190.158 423.974
2832 0 154.382 12.3783 1911 118.184 189.763 420.514
2833 0 163.407 14.5343 2375 112.008 189.658 416.998
2834 0 168.538 13.4569 2268 114.339 189.928 413.84
2835 1 99.3481 12.3807 1230 107.201 190.799 450.446
2836 0 101.265 12.3734 1253 107.403 190.399 450.543
2837 0 103.339 11.4575 1184 108.776 191.033 448.479
2838 0 107.217 11.7798 1263 108.41 191.089 447.024
2839 0 109.107 12.2632 1338 108.864 190.848 445.132
2840 0 112.151 10.9941 1233 111.86 190.835 445.882
2841 0 114.141 10.8024 1233 113.741 190.534 442.56
2842 0 118.306 11.1321 1317 113.234 191.027 440.893
2843 0 122.11 11.7435 1434 110.591 190.762 440.591
2844 0 126.169 10.9773 1385 113.005 190.594 434.551
2845 0 132.16 12.1519 1606 109.541 191.328 432.524
2846 0 136.175 11.4632 1561 117.286 191.759 439.61
2847 0 142.371 13.1136 1867 113.772 191.407 435.046
2848 0 143.233 11.6105 1663 115.014 190.77 425.001
2849 0 150.308 11.9155 1791 113.714 190.132 422.209
2850 0 154.352 12.1735 1879 111.004 190.089 426.394
2851 0 163.314 12.8158 2093 110.109 190.199 418.365
2852 0 171.297 13.8765 2377 108.705 190.59 412.211
2853 1 100.171 8.93468 895 107.763 190.423 449.854
2854 0 103.191 10.1366 1046 105.077 190.651 451.13
2855 0 107.165 12.4014 1329 108.236 190.567 449.725
2856 0 108.136 11.1249 1203 110.618 191.101 448.16
2857 0 111.169 10.8484 1206 113.056 190.757 446.324
2858 0 116.166 11.5525 1342 110.556 190.302 445.953
2859 0 118.125 11.2593 1330 113.968 190.257 443.924
2860 0 122.181 11.7694 1438 112.138 189.857 443.058
2861 0 124.172 10.9284 1357 110.138 189.342 438.867
2862 0 128.182 11.5149 1476 108.32 189.533 432.963
2863 0 133.337 12.2472 1633 107.818 189.469 429.632
2864 0 137.206 12.4412 1707 113.373 189.091 434.987
2865 0 141.297 13.8432 1956 110.781 188.679 434.81
2866 0 145.181 12.9149 1875 115.683 189.335 430.158
2867 0 150.33 13.6434 2051 115.155 189.974 426.662
2868 0 154.241 12.9927 2004 117.746 189.522 424.494
2869 0 159.466 13.401 2137 115.819 190.093 418.303
2870 0 163.426 13.3088 2175 113.428 189.72 415.224
2871 0 166.482 12.8723 2143 115.913 189.96 413.931
2872 0 171.214 12.5574 2150 117.663 189.385 406.704
2873 0 177.3 12.3576 2191 118.864 189.329 405.646
2874 0 182.366 11.8827 2167 121.187 189.936 401.738
2875 0 189.493 13.3567 2531 117.224 189.86 406.46
2876 0 196.457 13.3464 2622 120.543 189.908 399.784
2877 0 199.226 11.9061 2372 125.378 190.068 397.648
2878 1 13.0031 5.53714 72 83.4167 191.333 494.097
2879 0 12.0004 3.49989 42 85.6905 190.333 496.19
2880 0 17.0033 6.64575 113 84.2566 189.566 493.681
2881 0 9.00889 4.88407 44 88.0227 190.045 495
2882 0 17.0201 6.4042 109 88.1101 188.752 491.752
2883 0 19.0015 5.05224 96 88.625 188.865 494.469
2884 1 174.297 11.1419 1942 127.524 189.941 407.027
2885 0 181.351 12.7598 2314 126.242 189.966 409.332
2886 0 184.33 11.3926 2100 129.692 190.804 409.645
2887 0 193.372 11.3253 2190 128.822 191.091 404.341
2888 0 198.348 12.1352 2407 127.397 191.429 403.15
2889 0 205.332 12.6722 2602 126.899 191.153 403.396
2890 0 210.349 12.8691 2707 127.782 191.386 395.208
2891 0 219.364 15.8777 3483 119.413 190.714 385.63
2892 0 220.487 12.0461 2656 130.666 190.208 392.069
2893 0 229.451 13.8112 3169 126.881 190.823 389.128
2894 0 236.424 12.854 3039 130.549 190.458 384.472
2895 0 243.488 14.0376 3418 129.207 190.121 380.384
2896 0 252.356 15.6049 3938 127.039 190.474 370.184
2897 0 261.507 18.2825 4781 117.843 189.517 353.432
2898 0 268.436 16.3577 4391 123.269 189.437 356.473
2899 0 272.344 15.3005 4167 128.181 190.67 358.671
2900 1 23.0427 6.46624 149 90.5906 188.57 486.456
2901 0 27.0534 8.0951 219 92.6027 188.151 489.598
2902 0 30.0396 6.65788 200 99.395 191.77 490.195
2903 0 26.0369 5.06973 132 102.205 189.303 488.402
2904 0 17.0745 4.91961 84 94.0714 188.274 483.226
2905 0 20.0661 6.37891 128 92.8281 188.664 488.328
2906 0 15.0138 4.19613 63 90.9524 189.683 489.936
2907 0 18.0143 4.16337 75 92.3067 190.707 492.787
2908 0 18.0322 6.37748 115 89.7739 191.061 491.73
2909 0 21.0191 5.32849 112 88.9732 189.562 491.089
2910 0 15.0017 3.79956 57 86.9649 189.456 492.263
2911 0 15.011 3.13103 47 89.8936 189.383 489.872
2912 0 17.0037 6.41037 109 85.2018 189.477 486.578
2913 0 20.0332 5.39105 108 87 190.241 481.981
2914 0 27.138 1.17916 32 85.2188 191.156 490.938
2915 1 214.356 11.5555 2477 129.058 189.576 384.207
2916 0 222.358 14.018 3117 122.646 189.487 386.307
2917 0 226.264 12.1363 2746 124.753 190.034 377.717
2918 0 232.35 13.9402 3239 120.473 189.751 375.647
2919 0 241.601 12.2226 2953 125.394 190.307 371.884
2920 0 248.704 12.7983 3183 124.737 189.719 365.326
2921 0 254.568 12.3032 3132 126.117 190.138 365.221
2922 0 255.425 9.68192 2473 130.548 189.953 365.584
2923 1 62.2002 6.36654 396 101.48 191.525 458.823
2924 0 68.2808 8.69938 594 98.1279 190.315 463.756
2925 0 72.0849 11.6668 841 93.9905 190.188 467.287
2926 0 72.2297 10.7573 777 98.6988 190.413 465.837
2927 0 76.1171 12.1786 927 101.195 189.858 465.971
2928 0 81.2306 15.0313 1221 93.2072 189.993 460.609
2929 0 78.2849 11.9691 937 103.97 189.816 463.175
2930 0 80.2763 11.9089 956 104.584 189.548 462.682
2931 0 82.1686 10.9166 897 108.096 189.305 460.379
2932 0 84.2181 12.147 1023 105.77 189.491 462.552
2933 0 86.1875 12.5888 1085 105.822 189.568 459.27
2934 0 87.3261 11.3597 992 108.809 189.421 459.083
2935 0 88.2503 12.1473 1072 108.747 189.798 456.6
2936 0 83.2414 10.3554 862 113.064 189.701 454.075
2937 0 93.1484 11.487 1070 112.916 189.408 455.263
2938 0 96.325 11.6273 1120 111.704 189.492 457.084
2939 0 97.2081 10.8119 1051 114.432 189.372 454.34
2940 0 99.2778 11.5837 1150 112.928 189.243 452.758
2941 0 104.286 11.2767 1176 112.299 189.594 451.608
2942 0 108.26 11.0568 1197 107.838 190.358 441.118
2943 0 108.24 11.5853 1254 111.755 189.444 441.797
2944 0 113.212 12.9314 1464 104.696 190.137 439.424
2945 1 19.0523 5.45865 104 84.2692 191.308 486.99
2946 0 19.0242 4.88852 93 83.2366 190.849 487.882
2947 0 21.0503 7.1733 151 79.5298 192.583 488.927
2948 0 18.103 8.1202 147 81.381 190.633 492.571
2949 1 40.0304 3.44738 138 80.8768 190.558 490.246
2950 0 39.0375 2.48479 97 86.2887 189.495 490.196
2951 1 21.003 5.61824 118 86.2712 190.229 470.627
2952 0 15.0029 5.46561 82 85.1585 190.78 468.902
2953 0 22.0376 4.76459 105 87.1238 189.886 473.733
2954 0 21.0069 5.6648 119 83.4034 189.555 484.521
2955 0 18.011 3.88652 70 85.7143 189.686 490.957
2956 0 19.0033 6.63043 126 81.1429 190.214 490.96
2957 0 21.0173 7.13698 150 81.0867 190.373 491.773
2958 0 21.0018 7.14225 150 83.76 189.567 489.687
2959 0 16.0069 2.93624 47 84.6596 189.957 489.17
2960 0 17.0494 4.39899 75 84.7067 190.067 489.693
2961 0 18.0156 6.66089 120 85.7417 190.525 487.675
2962 0 21.0121 7.3767 155 82.6774 190.368 489.748
2963 0 21.0134 6.71 141 85.4184 190.809 491.184
2964 0 21.0443 6.46256 136 84.5735 190.691 492.257
2965 0 26.0136 4.19012 109 88.2569 191.486 491.349
2966 0 28.0183 7.03112 197 86.6853 190.513 489.487
2967 0 23.0384 5.99001 138 88.8986 189.406 488.391
2968 0 21.0093 7.13971 150 85.1333 190.147 486.46
2969 0 19.0471 5.82766 111 84.991 189.73 488.369
2970 0 20.0944 5.92205 119 83.4202 191.067 489.563
2971 0 19.0293 7.40964 141 82.6099 190.362 489.014
2972 0 15.0036 5.59866 84 83.75 190.988 488.024
2973 0 19.0676 6.34584 121 81.9008 190.545 488.603
2974 0 17.0679 4.80435 82 84.061 190.866 490.134
2975 0 20.0133 3.94738 79 87.1392 190.544 486.405
2976 0 18.0522 3.87765 70 86.1143 189.571 488.8
2977 0 20.0226 6.24295 125 81.864 190.488 490.368
2978 0 19.0036 5.89363 112 84.7143 191.161 488.5
2979 0 24.0347 3.8278 92 88.8913 192.13 486.891
2980 0 26.0208 4.22739 110 88.7909 192.755 487.109
2981 0 23.0022 2.5215 58 90.9655 192.224 487.345
2982 0 23.0041 4.17316 96 87.6042 192.906 488.01
2983 0 26.0338 7.52866 196 84.5459 191.801 484.388
2984 0 24.0717 6.0652 146 85.8219 192.527 486.63
2985 0 26.1328 5.89298 154 84.9026 191.909 484.019
2986 0 27.0964 5.94176 161 83.2484 192.137 485.814
2987 0 35.1422 5.26432 185 85.1135 191.422 484.184
2988 0 31.1923 5.48212 171 85.2924 191.064 481.947
2989 0 32.1411 6.09812 196 85.3112 191.867 483.173
2990 0 31.1519 7.03008 219 84.8174 191.699 484.685
2991 0 30.3242 7.7166 234 86.1838 191.47 481.432
2992 0 31.1788 5.64486 176 87.2614 192.062 485.574
2993 0 39.1354 8.3045 325 87.1908 192.046 481.123
2994 0 41.0532 8.37936 344 89.1192 192.125 481.392
2995 0 40.1076 8.15306 327 90.5658 192.281 482.15
2996 0 39.0744 7.93358 310 92.829 192.39 482.632
2997 0 39.0789 7.72796 302 117.437 192.401 482.676
2998 0 43.1506 7.16097 309 93.4369 192.12 483.893
2999 0 46.2036 9.67458 447 88.2036 191.964 480.727
3000 0 44.0898 7.68885 339 92.0384 192.251 484.404
3001 0 43.0641 8.08097 348 92.658 191.595 482.264
3002 0 44.0564 10.4866 462 88.6883 190.868 483.753
3003 0 43.0253 10.947 471 88.1316 191.085 481.76
3004 0 44.0345 9.22005 406 90.3448 190.512 481.384
3005 0 43.1937 9.33007 403 90.134 188.31 485.181
3006 0 43.1452 6.35065 274 95.5584 188.489 484.026
3007 0 48.1605 5.25326 253 96.4427 188.957 483.68
3008 0 51.2139 7.86896 403 92.3995 188.814 481.263
3009 0 53.1688 8.2191 437 93.4348 189.847 480
3010 0 48.069 7.30201 351 93.4131 192.718 478.339
3011 0 50.0464 8.65197 433 92.0393 191.192 480.534
3012 1 281.244 13.7461 3866 125.718 189.156 354.055
3013 1 308.986 21.5738 6666 102.789 189.309 323.236
3014 0 313.561 20.9209 6560 105.512 189.316 323.91
3015 0 315.552 20.5893 6497 109.045 189.596 331.395
3016 0 320.481 15.458 4954 125.403 189.314 324.252
3017 0 329.657 16.1168 5313 123.724 189.288 320.012
3018 1 30.0164 11.0273 331 91.8792 188.181 489.668
3019 0 29.0944 8.59271 250 99.088 190.36 491.508
3020 0 30.0739 10.1417 305 96.8426 192.036 491.826
3021 0 30.0211 8.99367 270 100.43 191.722 492.678
3022 0 31.2005 10.2242 319 99.1254 192.047 491.047
3023 0 33.0055 10.9376 361 98.2216 192.56 488.673
3024 0 33.0041 11.241 371 98.3585 192.515 489.892
3025 0 32.0183 11.8057 378 98.7064 189.667 492.032
3026 0 32.0452 11.6086 372 100.185 190.266 491.438
3027 0 32.0348 10.6447 341 102.971 192.402 488.238
3028 0 35.0279 11.0483 387 101.628 192.956 488.76
3029 0 34.0997 12.2875 419 100.597 192.322 490.081
3030 0 30.0028 10.0324 301 110.774 191.917 493.166
3031 0 31.0062 10.6753 331 109.015 191.84 492.924
3032 0 36.0378 13.7078 494 95.7389 192.14 488.569
3033 0 30.0238 11.5908 348 107.914 192.848 491.819
3034 0 34.0052 13.4391 457 100.009 192.589 492.488
3035 0 32.0726 11.5363 370 108.035 193.162 492.149
3036 0 34.1076 12.226 417 105.07 192.444 491.619
3037 0 35.043 11.9567 419 105.68 192.253 491.107
3038 0 33.0133 11.9346 394 106.647 192.086 494.266
3039 0 34.056 11.5986 395 107.916 191.476 491.729
