time division length width area intensity CMx CMy
0 0 49.0305 13.1347 644 125.461 961.919 469.573
1 0 49.0178 10.3432 507 132.45 962.333 469.26
2 0 51.0413 10.8931 556 130.248 962.527 469.529
3 0 52.037 11.0114 573 131.447 962.906 468.609
4 0 53.0285 11.9558 634 130.036 962.442 466.779
5 0 53.0318 11.7099 621 132.13 963.024 466.961
6 0 54.0991 11.9595 647 132.27 962.889 466.087
7 0 56.0397 12.0807 677 131.164 962.53 466.437
8 0 57.1118 10.8034 617 134.224 962.321 467.83
9 0 60.0721 12.8512 772 127.614 962.351 466.606
10 0 60.1387 12.5876 757 130.1 961.456 466.059
11 0 62.1344 12.0706 750 132.215 962.752 465.212
12 0 63.029 12.0262 758 131.796 962.041 464.413
13 0 66.0975 12.5723 831 131.371 961.378 463.557
14 0 66.1303 12.2032 807 133.636 961.31 462.98
15 0 69.0822 12.7384 880 132.043 961.039 460.141
16 0 72.0787 12.0285 867 132.479 960.884 462.888
17 0 75.0661 13.2683 996 130.264 960.738 460.2
18 0 77.0842 13.4399 1036 130.102 961.024 458.415
19 0 79.1329 12.6243 999 133.506 960.976 456.916
20 0 82.2272 12.5506 1032 132.811 959.709 457.71
21 0 84.0806 12.3334 1037 139.267 959.309 454.316
22 0 89.1498 13.4156 1196 134.616 960.012 453.383
23 0 90.1284 12.8594 1159 135.909 960.561 453.658
24 1 46.0563 11.0517 509 136.485 959.894 475.444
25 0 48.0394 11.3449 545 135.204 959.525 474.683
26 0 50.0483 11.6488 583 133.926 959.086 473.271
27 0 52.0334 12.1653 633 132.796 959.073 473.224
28 0 52.0536 12.66 659 129.789 958.998 473.803
29 0 52.0487 12.7381 663 130.104 959.063 474.519
30 0 55.0659 12.8573 708 129.014 959.357 472.733
31 0 57.0375 12.9739 740 128.972 958.828 472.204
32 0 57.0253 12.9066 736 128.711 958.397 471.823
33 0 58.0314 12.7517 740 130.53 958.649 468.845
34 0 62.0397 12.5404 778 129.307 958.428 469.384
35 0 64.0404 14.3035 916 124.088 958.712 468.221
36 0 66.0458 12.5973 832 127.934 959.463 468.046
37 0 68.0867 12.9541 882 127.746 959.305 467.341
38 0 71.0728 15.5193 1103 120.376 958.711 465.537
39 0 74.0635 12.5838 932 127.461 958.283 464.817
40 0 76.0586 13.4239 1021 125.212 958.027 462.2
41 0 79.0423 13.4485 1063 124.139 958.536 461.421
42 0 82.0619 13.4167 1101 123.475 958.152 460.036
43 0 85.0922 13.4207 1142 123.736 959.086 458.725
44 0 88.0813 13.3059 1172 123.689 958.483 457.324
45 0 92.0744 12.403 1142 124.36 958.092 458.13
46 0 95.0484 12.9092 1227 123.372 958.172 453.853
47 0 97.1773 12.6676 1231 123.224 958.007 452.225
48 1 50.0556 12.0666 604 121.56 958.421 477.23
49 0 52.08 12.8456 669 118 957.52 475.063
50 0 52.0684 11.6385 606 117.221 957.909 476.398
51 0 53.0608 12.7024 674 113.795 958.364 473.846
52 0 57.0511 11.2531 642 115.726 957.818 473.545
53 0 59.0275 12.6212 745 112.011 957.773 473.941
54 0 61.1734 11.214 686 117.294 957.315 471.824
55 0 63.1008 13.2011 833 111.133 957.335 472.495
56 0 67.0921 12.3412 828 112.178 957.644 469.633
57 0 68.094 12.424 846 111.778 956.833 469.631
58 0 71.0383 13.6828 972 109.134 957.208 466.715
59 0 74.136 13.111 972 109.531 957.994 466.971
60 0 76.061 12.6609 963 111.698 957.151 464.958
61 0 80.1358 12.4539 998 113.905 956.916 465.086
62 0 82.0851 13.6444 1120 111.607 956.999 463.651
63 0 83.113 12.2003 1014 115.98 956.393 461.03
64 0 86.2461 12.6151 1088 115.075 957.404 458.258
65 0 92.3469 12.648 1168 114.184 957.226 458.826
66 0 94.2749 12.6545 1193 115.565 956.62 455.106
67 0 97.2404 13.1941 1283 113.825 956.719 453.395
68 1 48.093 11.2906 543 110.797 957.801 477.608
69 0 53.1085 11.806 627 107.895 957.112 476.445
70 0 54.0536 12.4691 674 107.994 957.24 477.295
71 0 56.0767 11.8588 665 109.644 956.245 476.567
72 0 58.0629 11.8837 690 109.843 956.235 475.312
73 0 59.0374 12.5175 739 110.754 957.291 473.172
74 0 62.0651 12.1646 755 111.462 957.275 472.613
75 0 63.0553 11.3868 718 113.507 956.536 471.563
76 0 67.0441 12.5589 842 112.137 956.926 471.433
77 0 69.0554 12.3669 854 112.775 957.096 469.957
78 0 71.0563 11.4416 813 116.274 956.974 468.595
79 0 75.255 12.4244 935 114.856 957.02 467.185
80 0 77.0753 12.0661 930 117.219 957.62 465.932
81 0 81.105 13.2544 1075 113.59 957.089 464.957
82 0 83.1104 12.2969 1022 115.404 957.659 463.463
83 0 85.0508 12.7453 1084 115.721 956.952 462.8
84 0 88.0878 11.568 1019 120.606 956.983 461.785
85 1 46.0308 10.3626 477 121.073 956.744 481.117
86 0 52.0951 12.6691 660 112.605 957.65 479.682
87 0 51.138 12.3392 631 111.862 958.41 479.033
88 0 51.0748 10.7489 549 114.348 957.798 480.444
89 0 54.0521 12.1364 656 111.913 957.363 478.441
90 0 55.0853 12.0359 663 111.345 957.063 480.183
91 0 56.0273 12.9401 725 111.172 957.166 477.607
92 0 55.2089 11.7553 649 114.98 956.615 476.747
93 0 59.0857 12.118 716 113.32 956.74 476.613
94 0 62.1109 11.6244 722 113.511 957.119 475.476
95 0 62.0834 12.2255 759 113.007 956.628 474.615
96 0 67.0843 12.775 857 111.361 956.63 474.117
97 0 66.0403 11.6595 770 115.366 956.99 472.058
98 0 69.1313 11.9338 825 114.182 956.122 470.599
99 0 73.0511 11.8547 866 113.844 956.074 470.58
100 0 74.0233 11.9557 885 113.364 956.125 470.55
101 0 78.0622 13.0409 1018 110.482 955.955 469.341
102 0 79.0564 12.4215 982 114.331 955.599 466.59
103 0 84.0595 13.3477 1122 111.766 956.197 465.241
104 0 86.079 13.2204 1138 111.364 955.944 464.636
105 0 89.0674 13.3944 1193 110.465 956.031 463.584
106 0 92.1253 11.7991 1087 114.75 955.448 461.029
107 1 49.0372 12.1948 598 110.993 956.007 482.684
108 0 50.0164 10.8764 544 114.057 956.831 481.868
109 0 50.0465 10.6701 534 114.71 955.893 480.732
110 0 52.0725 12.3482 643 110.907 956.148 477.972
111 0 54.0517 11.822 639 111.266 954.854 478.883
112 0 56.0572 12.2375 686 109.692 955.464 477.615
113 0 56.085 11.6609 654 112.339 955.09 477.549
114 0 57.0274 11.7137 668 110.555 954.778 478.136
115 0 61.0517 12.5467 766 109.717 955.303 474.111
116 0 63.046 12.023 758 109.807 954.875 473.499
117 0 65.0694 12.4944 813 107.83 955.47 473.087
118 0 66.0335 11.0701 731 110.62 954.988 472.834
119 0 68.0538 12.0493 820 109.833 955.35 470.385
120 0 71.0461 11.5699 822 110.088 955.491 469.721
121 0 75.0764 11.6681 876 110.958 955.721 467.813
122 0 78.0754 11.0918 866 112.42 955.067 465.333
123 0 81.1554 12.7533 1035 107.949 956.121 467.367
124 0 83.1655 11.904 990 110.806 955.735 463.635
125 0 87.1941 11.526 1005 111.944 956.493 461.076
126 0 89.1888 12.9837 1158 110.282 955.21 458.895
127 0 93.3072 12.9893 1212 110.641 955.11 458.552
128 1 50.1082 10.8366 543 114.665 956.436 478.208
129 0 53.1337 12.4215 660 108.597 956.135 479.139
130 0 54.0668 11.8927 643 109.384 956.631 478.449
131 0 57.0865 12.1044 691 113.158 954.524 475.795
132 0 57.0179 11.891 678 115.14 954.344 475.037
133 0 60.0488 13.0394 783 111.658 954.89 474.724
134 0 61.0493 12.3343 753 112.404 954.728 475.454
135 0 62.1227 12.7007 789 112.345 954.806 472.681
136 0 66.0297 12.5852 831 112.688 954.126 471.578
137 0 66.071 11.7601 777 115.569 954.559 470.009
138 0 71.0721 13.029 926 110.771 954.112 471.218
139 0 71.1127 13.556 964 111.474 953.687 469.654
140 0 73.1625 12.3834 906 108.862 956.093 468.742
141 0 74.1532 10.9908 815 111.962 956.321 467.961
142 0 78.1693 11.8845 929 109.16 955.798 468.842
143 0 79.1603 10.384 822 114.089 955.959 464.86
144 0 83.2014 11.7426 977 111.181 955.651 462.583
145 0 87.1385 11.1891 975 112.466 956.201 462.683
146 0 92.1633 11.5339 1063 111.371 955.467 460.32
147 0 93.1634 11.2276 1046 114.121 954.747 460.241
148 1 47.0485 10.4785 493 110.254 956.31 481.951
149 0 49.22 10.9102 537 107.937 955.845 480.924
150 0 49.0464 12.1925 598 104.612 956.232 478.957
151 0 51.0335 12.0705 616 103.885 955.506 479.807
152 0 53.0899 12.3564 656 103.305 955.279 479.855
153 0 52.0298 11.2243 584 106.724 955.586 479.428
154 0 55.0284 12.5572 691 103.219 954.507 477.941
155 0 54.0685 11.6889 632 106.35 954.318 477.38
156 0 57.0336 11.3792 649 105.924 954.749 476.948
157 0 61.0365 12.8284 783 102.63 954.572 474.255
158 0 61.046 11.0409 674 108.105 955.286 473.26
159 0 61.0448 11.0411 674 132.651 956.283 473.082
160 0 66.0627 11.8372 782 106.606 955.238 470.863
161 0 69.0451 11.9487 825 106.433 956.161 469.55
162 0 71.0679 12.5654 893 105.194 955.133 468.011
163 0 73.0747 11.4951 840 107.242 955.404 468.118
164 0 75.055 12.5641 943 105.359 955.893 465.243
165 0 78.0882 12.8701 1005 105.158 955.831 464.33
166 0 81.0935 12.0478 977 107.05 955.024 461.98
167 0 85.0625 11.9794 1019 107.287 955.473 462.938
168 0 87.077 12.7244 1108 106.503 955.56 457.455
169 0 90.0981 11.8315 1066 109.852 955.43 458.588
170 1 45.0549 10.6315 479 105.699 956.144 480.211
171 0 48.0791 10.3995 500 103.206 955.874 480.43
172 0 48.1404 12.2558 590 100.088 955.717 479.88
173 0 49.0386 11.5011 564 103.418 955.47 478.441
174 0 53.08 11.7747 625 101.662 954.53 478.456
175 0 53.0338 11.6341 617 102.504 955.016 478.178
176 0 54.0486 11.1751 604 104.171 954.788 476.935
177 0 55.0747 9.85934 543 107.341 954.808 476.273
178 0 59.0962 13.1988 780 99.6192 955.138 475.14
179 0 60.0804 12.7995 769 102.163 955.783 473.205
180 0 65.0675 11.2806 734 77.0054 955.059 474.446
181 0 61.1059 11.3901 696 108.77 955.319 468.634
182 0 65.0938 11.9981 781 107.859 955.334 468.499
183 0 67.0572 11.0055 738 109.584 955.168 469.077
184 0 69.113 11.3727 786 108.994 955.069 467.055
185 0 72.1144 12.1335 875 108.837 955.205 466.978
186 0 75.0357 13.3003 998 105.935 955.503 465.064
187 0 78.1173 10.5738 826 111.791 955.194 465.663
188 1 40.0314 11.0913 444 103.155 955.642 484.086
189 0 41.0879 11.0008 452 102.77 955.075 483.865
190 0 43.0536 10.6844 460 104.022 956.67 480.963
191 0 43.0213 11.5989 499 102.114 956.635 480.122
192 0 44.0474 12.1006 533 102.295 955.197 480.657
193 0 45.075 11.2701 508 103.876 955.38 481.187
194 0 45.0594 11.3628 512 104.457 955.252 478.916
195 0 48.0297 12.2008 586 101.729 955.732 477.867
196 0 51.1003 12.3874 633 99.5213 955.385 477.498
197 0 51.125 11.3447 580 101.672 955.979 476.033
198 0 52.1107 10.708 558 103.097 955.728 475.233
199 0 56.0432 12.3655 693 98 956.326 476.205
200 0 56.0565 11.1495 625 100.688 955.957 474.262
201 0 58.0492 10.9218 634 101.475 955.956 472.131
202 0 60.1079 11.2132 674 101.42 955.507 470.835
203 0 62.0794 12.3068 764 99.8848 956.342 470.605
204 0 65.0948 11.6906 761 100.372 955.886 468.953
205 0 66.0463 10.962 724 103.079 955.881 469.192
206 0 70.1377 12.7178 892 99.0123 955.698 469.641
207 0 71.0258 12.1083 860 101.353 956.284 465.828
208 0 74.1603 11.3268 840 101.56 956.05 466.358
209 0 77.0809 11.5723 892 101.173 956.833 463.374
210 0 80.0649 12.4899 1000 99.912 956.657 462.24
211 0 81.123 12.0804 980 101.468 956.757 460.935
212 0 84.1511 13.9986 1178 98.4287 955.766 458.004
213 0 87.1311 11.7409 1023 102.673 955.633 457.536
214 0 91.139 11.2466 1025 103.598 956.128 457.128
215 1 46.0534 9.55412 440 100.009 956.023 480.352
216 0 50.1567 11.6834 586 97.0051 957.198 478.222
217 0 48.0176 11.2042 538 101.612 956.998 475.809
218 0 48.1274 10.0359 483 102.145 956.828 476.087
219 0 51.074 11.5519 590 97.8678 955.932 478.866
220 0 53.0761 11.3234 601 98.9468 955.73 476.313
221 0 54.0686 11.9848 648 98.9722 956.693 473.617
222 0 57.0671 11.4427 653 98.634 956.087 475.211
223 0 57.102 10.8227 618 100.686 955.791 474.638
224 0 60.0824 10.6853 642 101.131 956.234 472.569
225 0 62.0311 11.4459 710 99.669 956.045 472.572
226 0 65.1205 10.6725 695 100.702 956.702 473.037
227 0 66.1682 11.5614 765 100.854 956.567 470.456
228 0 68.126 11.5228 785 101.275 956.01 469.084
229 0 70.1135 11.5527 810 101.86 955.933 467.889
230 0 73.1688 12.765 934 100.151 955.89 465.814
231 0 75.0785 12.1473 912 102.077 955.583 462.543
232 0 80.1164 13.7175 1099 97.9709 955.617 463.541
233 0 81.1007 12.503 1014 102.268 956.158 460.936
234 0 85.0803 13.3991 1140 100.111 956.435 460.698
235 0 89.072 12.9446 1153 101.618 956.438 459.727
236 0 90.1507 12.8008 1154 103.536 955.627 457.913
237 1 48.1339 10.8032 520 104.408 956.31 478.308
238 0 50.0365 12.8306 642 100.846 956.559 476.249
239 0 51.157 12.4519 637 104.107 957.013 475.21
240 0 53.138 13.1544 699 99.5594 956.339 475.445
241 0 56.0533 11.4355 641 105.109 956.267 475.066
242 0 55.1723 10.8932 601 107.223 955.962 474.363
243 0 59.0756 12.3232 728 103.735 955.793 474.157
244 0 60.0512 12.7058 763 102.911 955.988 473.843
245 0 62.0613 11.7465 729 106.697 955.811 471.734
246 0 64.1655 12.3431 792 104.915 955.774 471.402
247 0 66.0849 11.0313 729 108.907 956.27 470.417
248 0 70.0678 11.7886 826 107.223 955.832 468.253
249 0 72.0658 12.4331 896 106.206 955.896 468.419
250 0 74.0591 13.3677 990 104.794 955.906 465.31
251 0 75.0939 11.8651 891 108.822 955.456 464.782
252 0 79.0537 12.9785 1026 106.25 955.528 462.078
253 0 83.0638 14.3384 1191 103.957 955.327 461.939
254 0 83.0607 14.3871 1195 131.423 955.326 462.041
255 0 86.197 11.6593 1005 111.579 955.409 460.519
256 0 90.1519 13.1667 1187 107.8 954.463 458.181
257 0 92.0965 12.8887 1187 110.91 954.689 455.939
258 0 97.0749 13.0518 1267 108.946 955.349 455.284
259 0 100.131 12.7733 1279 111.179 954.99 452.692
260 1 55.0549 12.6601 697 108.133 955.702 474.357
261 0 57.1787 12.9594 741 106.719 955.011 473.193
262 0 55.0285 12.7752 703 109.587 954.546 472.755
263 0 58.0863 12.3093 715 110.008 954.46 475.354
264 0 58.0481 11.7661 683 112.3 954.769 473.493
265 0 60.1059 11.2967 679 112.887 954.56 473.024
266 0 63.0962 11.6647 736 112.772 954.572 470.319
267 0 67.1994 12.4703 838 110.887 955.412 470.123
268 0 67.1805 12.6674 851 111.615 954.604 468.231
269 0 72.0568 13.1979 951 110.104 954.804 466.659
270 0 74.137 12.7737 947 111.892 955.048 467.27
271 0 77.1982 13.1998 1019 112.24 955.15 464.389
272 0 78.0797 12.7178 993 113.083 955.466 465.423
273 0 82.1182 13.2492 1088 112.199 954.997 462.426
274 0 84.1647 13.3429 1123 112.011 955.015 463.782
275 0 87.1287 13.3136 1160 114.134 955.332 459.072
276 0 91.3041 13.5591 1238 112.841 955.122 459.516
277 0 92.2219 13.2398 1221 114.656 955.092 458.211
278 0 95.2439 12.7357 1213 116.772 954.657 455.523
279 1 53.0848 12.3576 656 111.165 955.073 476.953
280 0 54.1139 11.1801 605 112.671 954.831 476.013
281 0 54.0474 11.1014 600 112.515 954.563 473.558
282 0 56.0138 13.8894 778 103.871 955.252 474.729
283 0 59.0894 12.7265 752 106.008 956.259 476.174
284 0 60.0634 13.6522 820 105.126 954.426 474.016
285 0 59.0375 12.7038 750 111.291 954.401 472.675
286 0 62.0562 12.1019 751 111.823 954.876 473.991
287 0 64.0591 11.6767 748 114.737 954.862 472.378
288 0 65.0313 13.6396 887 111.113 954.2 471.756
289 0 68.0747 12.5157 852 114.65 953.827 469.945
290 0 71.1097 13.6409 970 112.444 954.843 468.901
291 0 72.1282 12.7135 917 115.105 954.937 468.662
292 0 75.1109 13.2471 995 115.324 954.294 465.928
293 0 77.0933 13.0102 1003 116.999 954.334 465.993
294 0 79.1106 12.5268 991 118.391 953.706 465.092
295 0 82.1395 12.5762 1033 119.067 953.711 462.627
296 0 83.0649 13.4955 1121 119.318 954.421 460.693
297 0 86.073 12.9774 1117 120.993 954.065 459.604
298 0 90.1093 13.3061 1199 119.763 954.618 459.298
299 0 91.1038 12.6888 1156 122.338 953.967 458.279
300 0 95.1078 13.9841 1330 117.897 953.92 457.188
301 0 98.2093 13.9905 1374 118.336 954.34 454.932
302 0 101.176 14.0152 1418 118.819 954.839 453.413
303 0 103.143 13.6897 1412 116.555 954.935 449.428
304 0 106.173 13.6099 1445 119.322 955.017 446.86
305 0 109.208 13.4057 1464 119.88 955.442 449.075
306 1 58.1889 11.1361 648 118.9 955.89 470.684
307 0 64.0881 12.7169 815 107.95 956.26 472.133
308 0 65.1935 12.7007 828 110.182 956.068 471.61
309 0 66.2396 11.7603 779 112.153 955.673 471.082
310 0 66.086 12.5594 830 112.547 955.967 469.178
311 0 68.1771 10.8541 740 114.35 956.457 468.823
312 0 71.1917 11.5182 820 112.665 956.746 467.565
313 0 74.09 11.702 867 113.407 956.603 463.785
314 0 78.1159 12.3022 961 112.128 956.053 463.194
315 0 81.1737 11.112 902 114.317 956.273 465.415
316 0 84.0916 12.5102 1052 111.933 956.529 461.555
317 0 85.1042 12.2908 1046 115.841 954.459 459.4
318 0 89.0773 12.6295 1125 115.092 954.58 458.669
319 0 91.0331 10.6445 969 120.291 954.626 458.386
320 0 95.0642 12.8334 1220 116.483 954.891 454.54
321 0 96.0862 11.4897 1104 118.493 954.966 454.768
322 1 51.0477 11.6558 595 110.111 954.346 477.269
323 0 53.1394 13.3046 707 105.911 954.496 477.29
324 0 53.06 11.7414 623 102.329 955.632 478.441
325 0 52.1051 9.97982 520 106.185 955.765 476.467
326 0 56.092 10.5006 589 105.014 955.102 474.351
327 0 58.104 11.0147 640 104.267 955.43 474.023
328 0 59.1182 10.8427 641 104.777 955.945 472.761
329 0 63.214 11.1842 707 104.132 956.085 471.635
330 0 64.1253 10.2144 655 106.823 956.374 471.026
331 0 70.0767 11.1307 780 105.272 956.023 469.103
332 0 69.1238 11.342 784 105.989 955.515 469.374
333 0 72.1179 10.3996 750 108.288 955.611 468.251
334 0 75.1354 11.446 860 107.751 956.14 464.437
335 0 78.1597 11.2718 881 107.354 955.135 465.538
336 0 81.1808 11.2465 913 108.641 956.239 462.478
337 0 86.1627 10.898 939 108.104 956.258 463.297
338 1 44.0669 12.1179 534 100.861 956.41 481.577
339 0 44.0443 10.4894 462 104.706 956.543 482.608
340 0 46.0474 11.8139 544 102.228 956.526 480.55
341 0 48.0367 12.0949 581 102.062 956.012 479.558
342 0 48.0558 10.4046 500 106.664 956.314 478.786
343 0 51.0729 11.6304 594 103.184 955.175 479.163
344 0 53.0531 11.5356 612 103.142 955.471 478.557
345 0 52.0432 10.8756 566 106.991 956.617 477.159
346 0 54.0204 11.0884 599 107.063 956.564 475.988
347 0 57.0399 10.4313 595 115.694 957.175 475.022
348 0 59.0588 11.988 708 113.018 957.821 473.398
349 0 61.0636 11.0377 674 115.073 957.371 473.322
350 0 62.0787 11.0344 685 116.769 957.309 471.921
351 0 65.0343 11.6554 758 114.376 957.265 472.208
352 0 67.0527 12.2292 820 113.539 957.849 470.574
353 0 67.0419 10.2921 690 119.684 957.672 467.761
354 0 71.0577 12.3139 875 115.341 956.88 467.701
355 0 74.1631 10.9758 814 117.77 956.467 466.974
356 0 78.0716 11.7072 914 116.176 957.036 465.795
357 0 78.0589 11.4016 890 117.438 956.244 465.757
358 0 83.1111 12.5374 1042 113.734 956.866 464.357
359 0 84.0445 11.7438 987 116.76 956.627 463.317
360 1 45.0354 10.7471 484 112.965 956.876 482.488
361 0 45.0486 11.2545 507 111.996 956.424 481.617
362 0 48.0413 11.9481 574 111.686 956.983 481.105
363 0 48.1007 10.582 509 115.878 955.016 479.955
364 0 51.0499 12.3017 628 111.731 955.266 480.049
365 0 52.0808 11.9046 620 113.69 954.416 476.992
366 0 55.0648 11.8406 652 113.213 955.225 477.66
367 0 54.052 11.9885 648 114.296 954.613 475.022
368 0 58.0455 12.2835 713 111.718 954.805 475.798
369 0 58.0731 11.7955 685 114.172 954.124 472.994
370 0 60.0179 12.213 733 112.299 954.907 474.738
371 0 62.0617 11.7625 730 114.677 954.959 472.701
372 0 63.1344 11.6893 738 115 954.897 472.401
373 0 64.033 11.8064 756 115.095 954.321 470.25
374 0 67.0446 11.9324 800 113.757 954.204 470.812
375 0 69.0818 11.0449 763 117.355 955.308 468.756
376 0 72.0806 13.2213 953 111.307 954.91 467.327
377 0 73.0609 10.9908 803 116.394 955.405 468.253
378 0 78.1203 12.2887 960 112.05 955.224 466.056
379 0 79.0594 12.9017 1020 111.838 955.01 465.367
380 0 81.0549 12.3867 1004 112.749 954.634 463.265
381 0 85.1044 11.245 957 114.005 954.664 463.301
382 0 88.0736 13.4547 1185 108.388 954.57 461.858
383 0 90.0401 12.6832 1142 109.95 955.07 457.598
384 0 93.0813 12.3118 1146 111.136 954.822 457.168
385 0 95.1076 11.5658 1100 112.672 955.426 453.993
386 1 51.0279 9.95533 508 106.87 955.03 479.455
387 0 52.0396 10.665 555 104.91 956.112 479.178
388 0 54.1636 10.4129 564 105.452 955.397 478.408
389 0 57.0411 11.7284 669 104.765 955.1 474.843
390 0 60.0683 13.3182 800 98.5687 954.464 475.59
391 0 60.1722 11.9158 717 102.238 956.969 475.191
392 0 61.0531 10.4991 641 105.56 956.253 474.265
393 0 63.1054 12.7089 802 101.852 956.219 473.091
394 0 66.0565 12.3228 814 102.21 955.054 470.781
395 0 69.0533 13.8444 956 99.4299 955.037 470.278
396 0 68.0933 11.5577 787 106.212 955.252 470.699
397 0 72.0532 12.3936 893 104.979 955.104 467.821
398 0 73.0746 12.0972 884 106.67 954.71 467.553
399 0 77.1917 12.9677 1001 104.73 956.09 467.158
400 0 80.0904 12.411 994 106.82 955.577 465.964
401 0 82.1863 12.8854 1059 106.503 955.489 463.977
402 0 84.344 12.0103 1013 109.73 955.346 463.221
403 0 88.2145 11.4607 1011 110.327 955.089 460.59
404 0 93.197 12.8438 1197 107.078 954.702 459.485
405 0 97.1906 11.8118 1148 109.284 954.986 455.376
406 1 51.1134 10.7408 549 110.721 954.845 475.872
407 0 54.1165 10.9763 594 108.65 954.246 478.12
408 0 56.0716 12.27 688 101.914 954.754 476.637
409 0 58.0469 12.7483 740 100.701 954.773 475.605
410 0 59.0596 12.6482 747 100.538 955.969 473.538
411 0 60.0874 11.4334 687 102.745 955.437 473.936
412 0 64.0209 11.9648 766 100.83 955.114 472.577
413 0 65.1254 11.0402 719 101.452 955.453 474.587
414 0 66.0996 11.0137 728 102.538 955.488 470.534
415 0 67.0858 10.7921 724 104.066 955.619 470.765
416 0 71.0817 11.2547 800 102.963 955.639 467.206
417 0 74.1452 11.3426 841 102.71 955.815 468.415
418 0 78.1474 11.6703 912 102.226 956.217 466.357
419 0 79.0637 12.1421 960 102.985 955.953 465.115
420 0 80.0878 12.0243 963 104.774 956.209 462.087
421 0 86.042 12.7031 1093 102.16 955.145 462.407
422 0 91.0694 12.7815 1164 102.786 955.785 460.362
423 0 90.2147 12.0047 1083 112.939 955.581 458.179
424 0 95.1165 12.9525 1232 109.985 955.63 459.365
425 0 96.1014 11.8729 1141 112.993 955.385 455.437
426 1 51.0219 10.7013 546 107.575 955.271 478.163
427 0 52.0917 10.8655 566 105.375 955.479 478.657
428 0 54.0351 12.751 689 101.004 955.566 476.36
429 0 51.0433 10.7164 547 108.254 955.916 477.885
430 0 56.0631 11.1838 627 105.689 956.211 477.474
431 0 57.0732 11.0385 630 106.475 956.294 478.303
432 0 58.0202 10.0482 583 109.54 955.743 475.847
433 0 61.1037 10.7358 656 109.078 955.846 473.328
434 0 62.0407 11.6214 721 106.94 956.791 476.551
435 0 65.0372 12.3314 802 106.256 957.002 474.64
436 0 67.0396 12.6492 848 105.882 957.348 473.252
437 0 68.0263 11.8778 808 109.339 955.993 472.109
438 0 71.0989 11.8849 845 110.16 955.787 470.012
439 0 73.1233 12.2806 898 109.058 955.89 467.043
440 0 77.0596 12.7953 986 107.686 955.232 467.099
441 0 79.0968 11.4923 909 110.783 955.539 465.919
442 0 81.1533 11.4228 927 111.351 955.342 464.899
443 0 85.0707 13.6005 1157 107.405 955.794 463.128
444 0 87.0867 11.4828 1000 110.902 955.118 461.03
445 0 91.1541 12.2759 1119 109.825 955.496 458.605
446 0 91.2443 11.2226 1024 114.104 955.643 458.724
447 1 50.1393 11.6476 584 108.113 955.805 479.95
448 0 49.0701 10.9028 535 107.57 956.213 480.084
449 0 51.1124 12.404 634 102.907 956.077 478.538
450 0 53.0827 11.435 607 107.787 956.237 477.381
451 0 54.0695 10.8934 589 108.244 956.513 478.357
452 0 57.065 12.0039 685 105.207 955.542 477.177
453 0 57.0596 11.9174 680 106.737 956.707 476.106
454 0 59.0154 12.9458 764 104.927 956.258 473.479
455 0 61.0692 11.4297 698 109.235 957.158 474.871
456 0 63.0438 13.1179 827 105.589 956.861 473.728
457 0 63.1278 12.4984 789 108.74 956.835 472.544
458 0 65.0527 13.2508 862 110.319 956.023 470.623
459 0 66.0632 12.8211 847 113.228 955.916 471.022
460 0 69.1125 12.8486 888 113.045 955.365 470.833
461 0 71.0832 13.5053 960 112.91 956.125 467.927
462 0 71.0832 13.5756 965 134.893 957.103 467.927
463 0 76.1266 13.6483 1039 114.054 955.722 465.445
464 0 78.0472 13.2356 1033 115.264 956.057 464.803
465 0 80.0796 12.7623 1022 117.054 955.665 463.292
466 0 82.0461 12.4198 1019 119.018 956.126 463.129
467 0 85.0996 13.6076 1158 115.389 955.769 462.786
468 0 89.0628 13.7656 1226 116.014 955.75 460.597
469 0 89.0644 13.3387 1188 118.209 955.172 460.769
470 0 93.124 12.9075 1202 119.035 955.405 459.79
471 1 47.2693 11.9528 565 113.658 955.719 481.981
472 0 47.0457 10.3091 485 118.623 955.043 479.812
473 0 49.093 11.3662 558 115.403 955.392 480.097
474 0 51.0667 12.2585 626 112.66 955.76 480.764
475 0 51.0295 12.3066 628 114.666 955.992 479.264
476 0 52.0451 11.1442 580 117.105 956.072 479.522
477 0 55.1569 12.129 669 114.886 955.262 478.018
478 0 56.0869 12.8907 723 114.941 955.592 476.445
479 0 57.0723 12.1775 695 116.446 955.788 478.184
480 0 58.0383 12.3367 716 119.225 955.088 474.538
481 0 60.088 13.164 791 117.504 954.736 475.434
482 0 63.1439 13.2713 838 117.974 955.129 474.021
483 0 64.0983 12.2312 784 122.616 955.875 471.714
484 0 65.0349 11.5784 753 125.438 955.319 472.801
485 0 69.1039 13.1252 907 120.776 955.085 471.162
486 0 72.1188 13.145 948 120.948 954.672 470.936
487 0 74.0663 14.0145 1038 120.921 955.532 469.663
488 0 75.2345 11.8828 894 127.781 955.471 468.115
489 0 78.086 12.896 1007 125.956 956.092 466.891
490 0 81.0741 13.9009 1127 123.429 955.534 464.382
491 0 82.1399 12.3204 1012 128.553 956.024 462.742
492 0 85.0791 11.601 987 130.714 955.281 461.061
493 0 90.039 13.8273 1245 123.54 955.355 458.533
494 0 91.1377 14.1105 1286 123.358 955.33 455.521
495 0 92.1001 12.7687 1176 128.486 955.745 453.68
496 1 50.0441 12.529 627 119.587 956.984 479.636
497 0 51.0602 11.9271 609 121.47 956.608 478.783
498 0 52.039 12.4906 650 115.091 955.797 480.206
499 0 54.047 12.3041 665 115.934 956.665 478.038
500 0 53.0694 11.7393 623 122.148 957.533 478.01
501 0 56.0199 12.2099 684 125.076 957.545 476.339
502 0 58.0497 11.7658 683 126.384 956.777 477.602
503 0 60.0677 13.0353 783 123.452 956.602 475.939
504 0 63.0801 11.3665 717 128.117 957.082 475.166
505 0 63.0502 12.5614 792 128.029 956.927 472.481
506 0 64.0658 12.4091 795 128.976 956.186 471.864
507 0 68.0703 12.7809 870 126.675 956.768 472.311
508 0 70.067 12.7449 893 128.305 956.517 470.739
509 0 70.0352 11.6798 818 132.917 956.268 468.954
510 0 73.0457 12.7044 928 130.043 956.348 468.162
511 0 76.1535 12.7506 971 129.925 956.692 467.658
512 0 78.0516 12.4021 968 133.567 956.137 464.73
513 0 79.0538 12.3081 973 134.67 955.585 464.714
514 0 84.0714 12.8581 1081 134.198 956.238 463.143
515 0 86.0555 12.4803 1074 136.914 955.721 461.711
516 0 91.0487 12.4988 1138 134.27 954.916 459.633
517 0 94.0761 12.9895 1222 133.543 955.803 457.173
518 0 97.0696 13.3306 1294 130.996 954.827 453.638
519 0 98.208 11.9644 1175 137.18 955.329 454.525
520 1 50.0457 10.3505 518 130.033 956.633 480.124
521 0 49.1146 8.53106 419 127.012 955.585 474.337
522 0 50.0391 11.1113 556 127.71 954.428 477.917
523 0 52.0523 11.2387 585 127.344 956.154 478.217
524 0 56.0579 12.3622 693 123.427 955.481 476.782
525 0 57.1411 11.2703 644 125.102 955.648 477.789
526 0 59.0861 11.3902 673 124.814 955.227 475.426
527 0 61.0341 11.6656 712 119.662 954.469 475.482
528 0 62.0945 11.4503 711 120.083 955.107 474.18
529 0 66.1098 11.1179 735 120.374 955.235 473.101
530 0 67.1284 12.1707 817 119.234 955.752 471.808
531 0 70.0485 11.0209 772 121.321 955.501 471.241
532 0 71.0734 11.2138 797 121.413 955.6 469.561
533 0 73.09 11.6979 855 120.964 955.775 467.957
534 0 77.0256 12.6062 971 117.689 955.635 468.254
535 0 77.1236 10.8268 835 122.193 956.643 467.128
536 0 81.0626 12.0401 976 118.958 956.372 464.627
537 0 84.1408 12.9545 1090 116.916 956.726 460.607
538 0 86.12 11.3679 979 120.809 956.946 461.717
539 0 90.1504 11.5474 1041 120.532 956.377 458.539
540 1 47.0534 10.0312 472 118.922 956.186 479.068
541 0 51.1898 10.4904 537 116.222 955.577 477.54
542 0 52.1258 10.4938 547 117.461 956.186 477.461
543 0 53.0557 11.7989 626 114.064 956.931 477.95
544 0 55.0612 11.4236 629 120.016 954.777 476.359
545 0 57.2329 11.8289 677 118.996 955.547 476.037
546 0 58.0751 12.2944 714 118.298 955.003 475.85
547 0 62.14 11.9086 740 118.83 955.361 474.428
548 0 63.1577 13.5217 854 116.204 955.46 473.609
549 0 66.1789 12.8742 852 118.35 956.48 473.183
550 0 68.1339 12.9011 879 119.548 955.939 472.862
551 0 69.1234 13.3529 923 119.414 955.443 470.325
552 0 70.069 13.4582 943 119.702 955.891 470.818
553 0 73.0621 13.4817 985 120.716 955.448 469.571
554 0 75.0536 13.0573 980 123.413 955.129 468.042
555 0 80.0597 12.3408 988 124.527 954.567 467.388
556 0 82.0614 12.9293 1061 124.648 955.908 464.43
557 0 82.15 12.3189 1012 128.135 955.41 465.47
558 0 87.1621 13.1594 1147 125.758 955.33 462.936
559 0 90.0877 13.6423 1229 125.294 955.247 461.448
560 0 91.1316 12.9593 1181 129.075 956.208 460.511
561 1 47.1443 11.03 520 132.788 956.065 481.175
562 0 49.1769 11.5908 570 130.549 956.147 479.886
563 0 49.1896 10.5917 521 120.649 955.935 476.355
564 0 50.038 11.791 590 123.485 957.334 481.585
565 0 50.0345 11.0324 552 126.645 956.813 481.353
566 0 51.0337 11.2475 574 126.878 956.819 480.2
567 0 53.0523 11.7431 623 124.891 956.602 479.799
568 0 56.0573 12.737 714 121.922 957.444 479.825
569 0 58.1294 12.0077 698 124.107 956.57 478.223
570 0 60.0864 11.7664 707 125.293 957.132 477.038
571 0 64.133 13.55 869 120.124 956.687 474.986
572 0 64.074 11.6584 747 126.187 957.118 473.714
573 0 67.1057 12.2344 821 125.114 957.374 473.095
574 0 71.1274 12.4284 884 124.133 957.397 472.613
575 0 72.1306 13.7667 993 119.827 957.705 473.244
576 0 74.3183 12.6483 940 124.764 957.676 467.981
577 0 79.1132 13.0067 1029 123.21 956.85 466.903
578 0 80.107 12.5832 1008 125.32 956.503 467.286
579 0 85.1754 12.4919 1064 125.804 956.477 464.14
580 1 44.025 11.9705 527 126.283 957.395 483.142
581 0 49.0287 11.8502 581 125.038 957.616 481.718
582 0 50.0514 12.1475 608 123.997 957.632 481.681
583 0 48.0104 11.5392 554 122.224 957.39 482.825
584 0 50.0294 12.4527 623 118.7 957.835 481.018
585 0 54.0505 12.2663 663 117.534 957.421 480.813
586 0 55.0381 13.1182 722 115.727 957.729 479.712
587 0 56.0233 13.2088 740 117.227 957.882 479.269
588 0 57.0692 12.5812 718 117.836 957.017 477.237
589 0 57.0972 12.8728 735 117.299 957.88 477.14
590 0 60.0305 12.6436 759 118.295 957.05 476.009
591 0 62.0591 12.6976 788 117.255 957.335 475.433
592 0 65.1255 12.4682 812 117.693 957.682 473.788
593 0 66.0738 13.2276 874 115.64 957.983 473.251
594 0 68.0407 12.6248 859 116.969 957.851 470.764
595 0 70.0324 12.1801 853 116.741 957.273 472.088
596 0 71.0668 12.2983 874 118.214 957.752 468.78
597 0 75.1233 12.9654 974 115.618 956.838 469.375
598 0 81.0784 13.3698 1084 113.411 956.842 468.018
599 0 81.0686 13.2604 1075 115.337 956.93 465.91
600 0 81.0281 11.4898 931 121.973 957.224 465.847
601 0 87.1251 11.4663 999 120.652 957.363 464.42
602 0 88.0961 11.4534 1009 121.281 956.553 463.2
603 0 91.0993 11.2954 1029 120.695 954.618 462.63
604 0 95.1206 12.1109 1152 119.126 955.247 458.082
605 1 50.0349 10.7925 540 120.68 955.993 481.157
606 0 50.1118 11.5542 579 117.95 955.484 480.468
607 0 53.0483 12.7808 678 113.286 954.932 480.252
608 0 53.0156 12.1285 643 114.709 954.815 480.151
609 0 54.0169 12.2925 664 114.898 955.61 479.199
610 0 57.0151 12.7685 728 113.122 954.636 478.413
611 0 60.0674 12.5526 754 113.444 955.076 475.554
612 0 60.0405 12.5415 753 114.788 957.336 475.044
613 0 64.0788 13.2493 849 112.238 956.391 474.808
614 0 65.0538 13.1891 858 112.985 957.42 474.057
615 0 67.0741 12.6875 851 114.935 957.122 472.597
616 0 70.0547 12.5188 877 114.188 957.268 473.366
617 0 72.1446 13.0571 942 113.638 957.055 471.709
618 0 75.0349 13.4338 1008 111.498 956.795 470.715
619 0 77.0653 12.963 999 113.08 956.359 470.002
620 0 79.176 13.2111 1046 113.964 956.543 469.093
621 0 82.0924 12.7417 1046 114.881 957.241 467.396
622 0 86.1552 13.1971 1137 113.304 956.35 464.611
623 0 89.1231 13.8797 1237 112.821 957.218 465.347
624 0 92.0592 13.7737 1268 112.933 956.308 462.763
625 1 47.079 10.7691 507 118.913 956.771 485.296
626 0 49.0455 11.3976 559 116.254 957.089 485.428
627 0 49.017 12.2407 600 116.04 956.912 482.643
628 0 50.0975 12.7352 638 114.732 956.754 482.749
629 0 53.0155 12.5058 663 116.465 957.128 481.529
630 0 53.0186 12.3919 657 117.932 956.976 481.381
631 0 55.0357 11.8832 654 118.639 955.885 480.901
632 0 55.0214 12.5224 689 119.116 956.298 479.435
633 0 57.0802 12.754 728 118.922 956.635 478.876
634 0 60.0745 13.9494 838 114.279 956.109 476.949
635 0 63.0257 12.5346 790 116.638 956.242 477.251
636 0 63.0478 13.5453 854 114.965 956.924 476.781
637 0 64.1104 12.6501 811 118.621 956.732 473.577
638 0 68.0529 13.9891 952 113.901 955.91 472.456
639 0 69.0919 13.4024 926 117.753 955.657 470.977
640 0 71.0851 13.0548 928 118.129 955.726 472.167
641 0 74.06 14.3532 1063 115.987 954.741 469.798
642 0 76.1466 14.2094 1082 117.28 954.77 468.377
643 0 79.0406 13.9422 1102 118.33 954.371 467.532
644 0 80.0416 12.6684 1014 122.556 955.306 466.29
645 0 83.0883 12.6251 1049 124.859 955.216 462.589
646 0 86.0333 12.6928 1092 125.284 955.005 461.628
647 0 89.1028 12.8503 1145 124.623 954.99 460.348
648 0 92.0621 12.7414 1173 124.999 954.694 462.921
649 0 97.0978 13.0384 1266 125.047 953.882 458.455
650 1 48.0164 11.4336 549 121.455 954.807 482.902
651 0 47.0694 10.3252 486 125.473 955.072 482.634
652 0 49.0411 12.5609 616 114.802 956.112 482.157
653 0 51.0904 11.5286 589 88.5382 956.919 482.292
654 0 52.0191 11.8418 616 118.33 956.987 481.164
655 0 54.0372 12.3063 665 118.093 956.737 478.911
656 0 55.0724 13.1645 725 117.065 957.164 478.908
657 0 58.045 11.8701 689 120.277 956.791 477.697
658 0 59.0435 12.6517 747 120.041 955.858 475.917
659 0 61.0703 13.247 809 118.625 955.886 475.377
660 0 63.1024 13.4226 847 117.876 955.867 475.961
661 0 67.0665 14.3141 960 116.089 956.171 473.515
662 0 68.1284 12.6526 862 122.066 955.725 472.787
663 0 68.0258 12.6864 863 123.224 955.606 471.735
664 0 71.149 13.8864 988 119.32 956.256 469.816
665 0 75.101 13.7548 1033 116.682 955.545 469.335
666 0 81.12 13.7944 1119 88.2636 956.35 469.751
667 0 79.0425 12.8285 1014 122.856 955.559 468.497
668 0 84.1124 13.2799 1117 122.087 955.476 466.146
669 0 87.0941 11.9985 1045 124.314 956.058 465.252
670 0 89.0988 12.5928 1122 119.19 955.375 460.772
671 0 93.0641 11.9058 1108 126.939 955.73 460.781
672 1 48.063 12.5877 605 117.792 956.34 483.41
673 0 50.0679 13.3019 666 117.8 956.015 480.725
674 0 50.048 12.8077 641 120.509 956.002 481.488
675 0 53.0809 12.5846 668 120.049 956.874 480.207
676 0 54.0451 13.0447 705 120.133 956.418 479.464
677 0 58.0336 14.8018 859 114.593 955.945 478.607
678 0 58.0211 13.0642 758 120.373 955.972 477.252
679 0 60.0581 14.9522 898 114.852 956.081 478.53
680 0 63.086 12.9347 816 119.931 955.507 475.974
681 0 65.1037 14.1467 921 85.645 955.189 475.394
682 0 65.0361 12.7314 828 121.832 955.232 474.292
683 0 70.0543 14.0034 981 117.255 955.811 473.108
684 0 72.1186 14.185 1023 117.479 955.704 471.174
685 0 71.0795 12.3242 876 121.937 955.927 468.261
686 0 75.0642 12.6025 946 121.728 955.133 465.457
687 0 77.0992 13.2297 1020 121.096 955.515 464.898
688 0 81.2617 13.1427 1068 120.256 954.87 464.64
689 0 85.1222 13.1928 1123 120.33 954.909 462.501
690 0 85.0712 12.4602 1060 123.781 955.012 461.121
691 0 90.06 12.4584 1122 123.366 955.527 459.545
692 0 92.1823 12.5187 1154 124.217 955.307 458.328
693 0 96.1387 13.2517 1274 122.199 955.443 457.088
694 0 99.0981 12.9871 1287 122.053 955.428 456.384
695 1 50.0204 10.5957 530 117.232 955.881 480.136
696 0 53.0895 12.1493 645 119.16 955.96 478.33
697 0 56.0721 13.4113 752 116.005 955.723 477.91
698 0 57.1269 12.481 713 120.101 955.945 476.687
699 0 59.0293 12.4345 734 121.403 955.662 476.568
700 0 63.086 12.2531 773 120.45 956.144 474.922
701 0 65.1699 13.3497 870 115.889 956.566 474.59
702 0 66.1266 13.1566 870 118.418 956.64 472.968
703 0 69.0789 12.1166 837 121.284 955.896 471.884
704 0 71.0652 13.1429 934 116.592 956.13 470.896
705 0 74.1548 13.2426 982 117.975 956.39 468.616
706 0 77.1753 13.4888 1041 116.881 955.342 468.537
707 0 77.1267 11.9544 922 122.125 955.86 467.027
708 0 82.1106 13.9324 1144 115.77 955.712 464.583
709 0 84.1858 13.684 1152 115.192 955.078 464.439
710 0 85.2443 13.2091 1126 117.238 955.081 461.079
711 0 89.0906 13.1327 1170 116.522 955.521 458.53
712 0 90.2701 12.2743 1108 118.461 955.307 456.298
713 0 96.1073 12.1011 1163 114.558 954.743 457.973
714 1 50.0512 10.1496 508 108.124 955.307 482.431
715 0 52.0899 12.0945 630 105.348 954.944 478.397
716 0 53.1248 11.4071 606 107.223 954.665 478.396
717 0 55.0754 12.3649 681 105.053 955.468 477.458
718 0 57.0427 12.8325 732 103.139 954.593 475.73
719 0 58.1155 11.8901 691 104.227 954.818 476.854
720 0 60.117 12.2262 735 104.219 955.307 473.224
721 0 64.0437 11.2579 721 106.122 955.601 471.143
722 0 62.0965 11.0956 689 106.823 955.406 473.512
723 0 66.0733 13.0007 859 103.115 956.237 469.459
724 0 66.0562 11.4599 757 106.894 955.299 471.727
725 0 70.0628 12.6315 885 103.65 954.677 471.89
726 0 72.0693 11.6138 837 107.514 954.816 467.1
727 0 75.0593 13.5759 1019 103.03 955.432 467.782
728 0 78.0732 13.0262 1017 105.488 955.331 464.721
729 0 81.1232 12.142 985 107.801 955.307 459.839
730 0 84.0562 12.4441 1046 106.38 956.427 463.491
731 0 87.0844 12.7118 1107 106.996 956.388 462.057
732 0 88.2359 12.2739 1083 108.885 955.579 459.413
733 0 92.0282 12.1267 1116 109.354 955.621 457.989
734 0 97.1326 12.7043 1234 108.489 955.754 456.696
735 1 53.1442 12.0804 642 105.98 955.089 478.562
736 0 55.1435 12.6398 697 105.98 954.547 476.963
737 0 56.0642 12.5035 701 107.25 955.803 476.183
738 0 57.0326 13.203 753 108.09 954.501 475.916
739 0 60.0403 11.3757 683 112.124 954.306 475.874
740 0 62.1218 11.3648 706 113.494 954.2 473.999
741 0 65.0819 13.3524 869 109.505 955.28 473.586
742 0 66.0554 12.5198 827 111.78 954.7 473.108
743 0 69.1279 12.73 880 112.299 954.94 470.903
744 0 71.1135 12.9933 924 113.443 955.856 470.077
745 0 73.1989 13.5521 992 113.246 956.083 469.155
746 0 75.1686 13.2236 994 113.923 955.927 469.617
747 0 78.2035 13.516 1057 115.009 955.797 466.441
748 0 80.223 12.4777 1001 117.648 954.565 466.018
749 0 82.1441 12.9772 1066 117.894 955.171 461.393
750 0 85.121 12.4176 1057 110.407 955.069 463.273
751 0 89.0676 12.2379 1090 112.256 955.41 460.433
752 0 92.1698 11.8803 1095 112.871 955.523 457.241
753 1 49.0427 10.0321 492 106.886 956.992 481.48
754 0 49.0399 10.7056 525 104.526 956.979 479.099
755 0 50.0286 11.7733 589 108.27 956.071 479.862
756 0 52.0883 10.847 565 111.074 956.899 479.935
757 0 54.121 11.6775 632 109.293 956.494 480.18
758 0 55.1235 12.6806 699 108.279 955.878 477.984
759 0 56.2149 11.7051 658 113.544 956.611 477.965
760 0 58.0426 12.0084 697 113.316 956.336 477.383
761 0 62.0802 12.661 786 111.178 956.452 475.34
762 0 65.073 12.2478 797 113.542 956.014 475.523
763 0 64.0319 11.9784 767 115.107 955.956 475.433
764 0 69.063 12.4669 861 113.236 956.001 474.616
765 0 70.0571 13.9172 975 111.989 955.909 471.428
766 0 72.06 13.1279 946 115.023 955.53 471.164
767 0 74.0982 11.7952 874 116.222 955.878 468.563
768 0 77.1716 12.7508 984 117.05 955.88 468.478
769 0 79.0832 12.3667 978 117.656 956.303 468.423
770 0 82.1791 14.0547 1155 115.432 956.385 466.466
771 0 84.2375 13.5213 1139 118.423 956.349 464.144
772 0 87.1244 13.8767 1209 118.332 956.336 462.157
773 0 89.1745 13.5465 1208 119.45 955.916 462.2
774 0 93.1016 14.0169 1305 118.815 955.143 460.915
775 1 51.0331 10.7185 547 122.351 954.556 481.717
776 0 52.0346 11.377 592 119.277 953.927 478.811
777 0 53.0408 12.2736 651 116.914 954.873 476.951
778 0 55.0716 10.8586 598 112.799 955.331 475.211
779 0 55.0473 10.3366 569 109.645 956.026 474.262
780 0 56.036 10.5289 590 110.071 956.812 472.393
781 0 58.0336 11.6484 676 116.706 956.926 478.701
782 0 61.0821 11.3126 691 117.219 956.787 477.14
783 0 65.0831 12.2459 797 114.314 956.708 476.189
784 0 65.0325 11.6711 759 115.769 956.881 474.308
785 0 66.0407 12.0532 796 115.582 957.32 474.461
786 0 71.0778 12.226 869 114.349 957.763 473.129
787 0 73.0597 12.1681 889 115.154 956.18 471.467
788 0 75.0448 13.4187 1007 112.595 956.747 468.707
789 0 77.0502 11.5509 890 117.375 957.022 468.97
790 0 81.0501 12.5971 1021 113.666 956.593 468.393
791 0 83.0882 12.0595 1002 115.229 956.585 466.781
792 0 85.06 12.5794 1070 114.368 956.618 464.705
793 0 89.1016 12.3904 1104 115.309 956.197 463.885
794 0 93.0538 13.5943 1265 112.851 956.232 462.504
795 0 95.1338 13.4442 1279 113.941 957.125 459.627
796 0 100.106 12.9163 1293 112.098 956.426 460.886
797 0 101.182 12.3243 1247 114.337 955.831 457.028
798 0 105.244 12.6468 1331 113.122 956.01 454.712
799 1 55.0929 11.0904 611 116.09 954.676 479.218
800 0 56.0505 12.7742 716 111.948 956.256 479.472
801 0 58.1255 11.2859 656 113.192 956.392 478.262
802 0 62.1648 12.6921 789 109.229 955.885 476.703
803 0 63.1272 13.0055 821 110.274 956.052 476.132
804 0 65.0579 12.5273 815 112.863 954.805 474.755
805 0 68.0944 12.7911 871 112.021 953.986 471.676
806 0 71.0281 13.6706 971 109.185 953.692 471.833
807 0 71.0862 12.942 920 112.363 954.242 467.938
808 0 74.0492 12.5187 927 112.102 953.756 469.778
809 0 76.0464 12.374 941 113.739 954.957 466.774
810 0 78.074 13.4103 1047 112.196 954.274 465.308
811 0 80.0461 12.3679 990 114.542 955.056 465.853
812 0 83.0749 12.4466 1034 114.103 954.391 465.047
813 0 86.0603 12.7469 1097 112.686 953.692 464.153
814 0 87.0934 11.5853 1009 116.775 954.476 461.096
815 0 92.067 13.0774 1204 113.297 954.518 460.884
816 0 92.1022 13.2027 1216 114.09 954.839 459.148
817 0 95.1326 11.7941 1122 116.941 954.267 457.872
818 1 49.0196 9.38401 460 120.82 954.515 479.093
819 0 52.1918 11.4386 597 115.982 955.956 478.121
820 0 51.1699 10.1818 521 112.486 956.052 478.466
821 0 52.0625 10.0648 524 113.786 956.326 477.555
822 0 54.0687 10.986 594 112.808 956.62 478.056
823 0 60.0866 12.1991 733 108.348 956.87 477.248
824 0 60.0516 12.839 771 107.464 956.213 476.593
825 0 62.1957 11.3673 707 111.987 956.945 474.228
826 0 66.116 12.0394 796 109.163 956.348 475.987
827 0 65.0981 11.4596 746 112.31 956.268 473.859
828 0 70.1294 12.3058 863 110.556 956.728 473.928
829 0 71.1449 13.4092 954 109.696 956.659 472.703
830 0 73.0775 12.6578 925 111.874 956.165 472.133
831 0 76.1671 11.698 891 113.443 955.818 471.467
832 0 79.1325 14.5073 1148 108.989 954.996 467.264
833 0 82.1376 13.6722 1123 111.022 956.461 469.037
834 0 85.1247 14.7431 1255 109.43 955.515 465.837
835 0 87.1898 14.7036 1282 109.479 956.46 465.464
836 0 89.0927 12.5038 1114 113.519 955.689 462.371
837 0 95.1397 14.074 1339 113.899 954.876 461.131
838 1 52.0469 11.6433 606 114.342 954.884 483.538
839 0 53.0398 11.3688 603 110.886 955.333 483.269
840 0 54.0302 11.9563 646 109.452 956.311 481.707
841 0 56.0645 12.0754 677 108.671 955.464 479.845
842 0 57.1179 12.588 719 108.082 956.484 477.918
843 0 61.076 12.5581 767 107.419 956.27 477.514
844 0 62.0616 12.3104 764 108.795 955.771 475.088
845 0 65.1319 13.1733 858 106.049 955.29 474.957
846 0 66.1485 12.5778 832 107.799 954.893 473.939
847 0 70.061 12.7175 891 106.623 955.705 474.128
848 0 70.0908 12.7691 895 108.39 955.152 472.391
849 0 74.1904 12.6701 940 108.336 954.673 468.305
850 0 77.0901 12.4789 962 108.054 955.67 470.342
851 0 79.1085 12.3628 978 110.519 955.11 466.237
852 0 81.1246 13.4115 1088 110.209 955.111 463.335
853 0 85.1734 12.5509 1069 112.437 955.186 464.811
854 0 89.1476 12.9112 1151 111.613 955.68 462.927
855 0 91.1382 12.8815 1174 113.523 954.999 460.262
856 0 96.2141 13.761 1324 110.542 955.413 460.359
857 1 47.1232 11.4805 541 113.059 956.196 482.466
858 0 50.0726 12.5218 627 109.711 955.952 481.263
859 0 53.1687 14.0684 748 103.378 955.509 480.088
860 0 52.082 12.0771 629 110.34 955.59 479.672
861 0 55.1733 12.3248 680 110.194 955.787 479.013
862 0 57.1341 12.952 740 108.885 956.407 479.2
863 0 58.1089 13.0101 756 109.341 955.329 478.698
864 0 59.1261 12.7186 752 110.981 955.948 476.798
865 0 62.1988 12.2832 764 112.013 955.819 475.478
866 0 63.1855 12.218 772 112.762 955.974 476.772
867 0 66.1566 13.6343 902 110.575 955.983 473.525
868 0 65.0498 13.0823 851 114.85 955.316 473.49
869 0 68.0661 12.2528 834 117.964 956.317 472.182
870 0 72.1216 13.3247 961 116.082 955.453 469.525
871 0 74.0719 13.3249 987 117.015 955.676 469.343
872 0 76.2391 12.6707 966 122.417 955.316 466.812
873 0 81.1344 13.0278 1057 122.432 955.605 465.491
874 0 83.2168 13.2906 1106 122.107 956.398 464.999
875 0 85.2267 13.2353 1128 123.263 956.013 462.764
876 0 88.2043 13.2987 1173 123.205 956.149 463.211
877 0 88.1348 13.207 1164 124.978 956.126 460.14
878 0 93.2184 13.6132 1269 123.947 956.106 458.879
879 0 95.1334 12.5928 1198 121.804 955.465 458.812
880 0 99.1657 12.585 1248 122.955 955.826 456.62
881 0 103.162 13.6679 1410 119.443 955.548 452.932
882 0 106.161 11.8028 1253 120.374 954.992 451.955
883 1 57.0336 10.1519 579 119.568 954.026 477.689
884 0 60.1044 9.86617 593 115.813 955.331 473.56
885 0 62.1297 10.8 671 113.724 955.556 475.274
886 0 62.1297 10.8161 672 123.875 955.555 475.153
887 0 65.0544 9.93016 646 116.04 955.036 474.368
888 0 68.1223 11.4793 782 113.537 955.385 472.44
889 0 70.0961 12.2831 861 111.911 954.597 468.3
890 0 75.076 12.121 910 111.953 954.703 469.533
891 0 77.0726 12.7283 981 112.292 955.248 466.724
892 0 79.0276 11.4011 901 115.574 955.028 467.188
893 0 81.0346 12.1923 988 115.591 955.063 463.8
894 0 84.1041 10.7367 903 120.604 955.193 464.153
895 0 89.2709 11.2467 1004 120.348 954.872 460.291
896 0 94.2241 12.6401 1191 116.881 955.102 459.978
897 1 46.1597 9.44546 436 116.239 954.778 480.264
898 0 47.1435 10.0332 473 116.782 954.812 477.937
899 0 51.0793 11.1004 567 112.485 954.653 479.222
900 0 52.0814 11.9236 621 111.412 954.523 477.763
901 0 53.1133 12.1439 645 112.946 954.84 476.005
902 0 55.1009 13.0125 717 110.636 954.792 477.148
903 0 56.0776 11.8942 667 114.103 954.585 477.061
904 0 57.0858 12.5951 719 116.345 955.702 474.394
905 0 61.1935 10.9979 673 121.761 956.097 475.077
906 0 61.1189 11.5513 706 120.307 955.848 476.384
907 0 63.0949 12.6159 796 118.148 955.104 473.776
908 0 66.1267 12.219 808 119.411 954.597 470.783
909 0 70.1495 11.6751 819 119.867 954.368 471.502
910 0 69.2386 10.9621 759 124.112 955.17 468.702
911 0 72.1999 12.59 909 119.309 955.019 468.953
912 0 74.3029 11.6146 863 122.225 954.555 468.501
913 0 79.1294 13.598 1076 117.473 953.933 466.086
914 0 79.1779 12.4656 987 122.943 954.275 464.058
915 0 81.1055 12.305 998 124.029 954.788 462.663
916 0 85.2019 12.934 1102 123.499 953.958 461.626
917 0 88.1214 13.5268 1192 121.96 954.308 460.938
918 0 90.143 13.7004 1235 123.5 953.971 457.597
919 0 95.1567 14.1556 1347 121.65 954.656 458.727
920 0 98.2019 13.1464 1291 125.024 953.8 456.264
921 0 100.327 12.5091 1255 127.827 954.234 454.46
922 0 103.284 13.2451 1368 127.895 954.572 452.67
923 0 105.069 13.3246 1400 128.732 954.465 450.564
924 0 109.204 12.3805 1352 131.82 954.207 448.093
925 1 57.1429 10.5175 601 125.446 954.542 476.689
926 0 59.0899 11.6263 687 124.789 953.814 476.354
927 0 61.2024 11.9767 733 123.72 954.087 475.319
928 0 63.0647 11.1631 704 118.726 954.351 473.736
929 0 65.0762 11.8784 773 117.379 954.704 473.11
930 0 67.0776 13.134 881 113.82 954.418 470.646
931 0 70.1375 11.8054 828 116.918 954.263 469.629
932 0 73.092 12.5595 918 112.859 954.036 470.773
933 0 75.1033 12.6759 952 114.303 954.533 466.891
934 0 78.1396 12.772 998 112.894 954.392 465.79
935 0 82.1278 12.8945 1059 112.252 954.491 464.533
936 0 83.2009 12.3797 1030 113.871 955.142 464.114
937 0 88.1527 12.9434 1141 112.864 954.958 462.03
938 0 90.0602 12.3806 1115 116.693 954.755 461.345
939 0 94.1413 12.8318 1208 115.374 954.776 460.252
940 0 97.1562 13.2467 1287 115.162 955.014 459.021
941 1 51.0416 11.6767 596 111.629 954.495 480.242
942 0 52.025 11.8212 615 113.072 953.836 481.504
943 0 55.1229 11.9188 657 113.682 953.709 477.289
944 0 57.1083 12.4325 710 113.669 954.3 477.78
945 0 58.1008 11.7382 682 115.815 954.081 477.925
946 0 58.0139 12.5832 730 115.36 953.747 475.927
947 0 61.0423 12.0244 734 115.086 954.249 476.924
948 0 62.0328 12.4773 774 114.576 953.669 473.23
949 0 66.0613 12.549 829 113.323 954.035 472.93
950 0 67.0411 12.5147 839 113.586 953.969 471.173
951 0 67.0211 12.7423 854 112.738 954.078 472.751
952 0 69.0734 11.3792 786 117.408 953.55 470.533
953 0 73.0883 12.8885 942 112.833 953.361 470.128
954 0 75.0687 13.6675 1026 112.221 953.997 467.72
955 0 76.029 13.3239 1013 114.613 953.81 464.689
956 0 79.0256 12.5656 993 116.823 954.051 466.039
957 0 82.0935 13.2654 1089 116.591 953.458 462.86
958 0 84.0626 12.9784 1091 109.794 955.434 466.379
959 0 85.1759 12.3392 1051 112.806 955.582 462.895
960 0 88.0805 12.0344 1060 114.422 954.826 460.9
961 0 91.0973 11.9872 1092 114.719 955.099 458.184
962 0 95.0626 12.3287 1172 113.466 954.791 457.466
963 0 99.1787 13.2387 1313 112.266 955.081 454.551
964 0 103.175 12.9682 1338 112.539 955.863 453.971
965 1 50.0345 10.4728 524 117.924 955.441 478.634
966 0 53.1118 11.1463 592 116.625 954.883 476.412
967 0 55.0731 11.9114 656 110.896 955.537 472.616
968 0 56.0557 10.5252 590 108.32 955.086 473.944
969 0 58.1051 12.4774 725 112.219 955.24 476.857
970 0 60.0337 11.9933 720 113.947 956.094 475.824
971 0 62.05 13.2151 820 111.505 955.487 474.183
972 0 65.0612 12.9109 840 109.91 955.324 475.396
973 0 67.1057 14.3207 961 107.915 956.098 472.888
974 0 67.0784 12.8357 861 113.141 955.914 471.373
975 0 70.0739 12.5011 876 113.937 956.088 471.037
976 0 70.1328 13.175 924 113.285 956.17 471.694
977 0 73.0855 13.1079 958 113.524 956.125 471.346
978 0 76.091 12.6822 965 114.987 955.404 470.081
979 0 76.0313 11.6794 888 117.538 955.276 470.5
980 0 79.1599 13.7191 1086 114.555 955.194 467.064
981 0 82.0975 13.2282 1086 115.748 955.233 465.144
982 0 86.2353 12.5471 1082 117.773 955.563 463.557
983 1 46.0218 11.2773 519 116.087 954.879 483.173
984 0 44.0412 11.4892 506 117.368 954.866 480.743
985 0 46.0628 11.5712 533 112.049 954.422 479.555
986 0 49.0802 11.471 563 104.984 955.321 477.89
987 0 50.2399 11.3257 569 102.928 956.12 477.429
988 0 49.1659 11.0036 541 105.414 955.896 476.911
989 0 52.0905 11.672 608 103.572 956.327 476.903
990 0 54.02 12.9582 700 101.497 956.35 475.234
991 0 55.0933 12.5242 690 103.312 956.399 475.629
992 0 55.1127 11.8485 653 106.536 956.334 474.949
993 0 57.032 11.362 648 108.474 956.861 473.662
994 0 58.0582 13.2798 771 104.821 955.774 473.785
995 0 60.0852 12.5156 752 106.711 955.327 472.928
996 0 65.031 13.3936 871 104.262 955.471 473.467
997 0 65.0588 13.3264 867 106.528 955.746 472.261
998 0 67.1462 12.4207 834 109.711 955.376 470.158
999 0 69.0838 12.9553 895 109.282 955.608 468.421
1000 0 73.0706 14.1917 1037 106.834 955.961 467.559
1001 0 73.0945 12.9969 950 111.475 955.378 465.241
1002 0 75.099 13.3957 1006 111.456 955.037 464.205
1003 0 79.1276 14.1417 1119 110.459 955.132 465.12
1004 0 81.0664 12.1875 988 118.3 954.425 461.56
1005 0 85.1488 12.2022 1039 118.294 955.15 461.304
1006 0 86.2305 12.3506 1065 119.66 955.056 458.985
1007 1 43.1222 13.0791 564 118.755 954.874 481.362
1008 0 45.1856 13.854 626 115.752 954.142 482.89
1009 0 47.0509 13.7511 647 111.406 955.845 482.594
1010 0 46.0334 11.7089 539 117.395 954.256 483.15
1011 0 48.0296 12.5548 603 114.97 954.552 481.206
1012 0 50.0914 12.577 630 114.016 954.383 482.441
1013 0 52.078 13.5758 707 111.359 954.987 479.741
1014 0 54.0331 14.9353 807 106.741 954.289 478.555
1015 0 55.0565 13.9856 770 109.8 954.853 478.962
1016 0 57.081 14.9262 852 107.137 954.346 477.803
1017 0 58.148 13.586 790 110.496 955.054 476.586
1018 0 60.0597 13.8362 831 109.303 954.539 475.226
1019 0 64.0651 13.6736 876 107.936 955.25 475.524
1020 0 64.0476 12.9279 828 111.409 955.181 473.606
1021 0 66.1004 12.5718 831 110.934 955.389 472.242
1022 0 69.0814 12.4201 858 111.174 955.013 471.235
1023 0 71.1299 13.5386 963 109.388 954.853 470.236
1024 0 73.0915 13.0521 954 111.813 954.867 470.208
1025 0 75.0406 12.8464 964 112.435 955.744 468.373
1026 0 80.0622 14.0516 1125 109.914 955.174 466.751
1027 0 83.0908 14.1291 1174 110.94 955.007 464.336
1028 1 42.1074 13.7743 580 110.509 955.129 482.126
1029 0 45.1963 12.0143 543 112.076 954.635 483.085
1030 0 47.0185 12.7184 598 110.758 954.798 481.559
1031 0 49.0965 14.4206 708 106.997 955.775 481.823
1032 0 50.0799 12.7596 639 111.063 955.989 480.142
1033 0 53.0506 12.9499 687 109.572 955.456 480.163
1034 0 54.125 13.8383 749 108.188 955.653 479.506
1035 0 54.0874 13.5706 734 110.918 955.217 478.68
1036 0 59.0484 13.074 772 109.343 955.205 479.734
1037 0 58.0425 13.0766 759 112.964 955.754 476.207
1038 0 63.0535 14.8128 934 107.226 955.876 475.412
1039 0 65.0612 13.6794 890 110.224 955.471 475.28
1040 0 66.0486 13.0056 859 112.151 955.071 472.619
1041 0 70.0319 13.7651 964 110.861 955.878 473.068
1042 0 71.0547 13.1589 935 113.081 955.271 470.972
1043 0 75.1442 13.6404 1025 112.813 955.806 468.987
1044 0 79.1247 14.4961 1147 110.983 955.396 468.243
1045 1 37.0263 11.0192 408 116.816 955.838 488.586
1046 0 40.0788 12.7998 513 113.713 955.889 485.947
1047 0 43.1336 13.2843 573 113.021 956.372 485.981
1048 0 43.0453 13.4509 579 113.623 955.946 484.516
1049 0 45.0502 13.4961 608 112.401 955.525 484.113
1050 0 45.0384 13.2775 598 113.826 954.761 482.916
1051 0 49.0499 14.0877 691 110.311 954.392 483.281
1052 0 49.0311 14.4398 708 110.675 954.395 482.626
1053 0 52.0423 14.6227 761 109.356 954.708 481.476
1054 0 53.0909 14.2021 754 110.942 954.601 480.109
1055 0 55.0202 14.3765 791 110.552 954.627 477.976
1056 0 57.038 14.1134 805 110.303 954.606 477.929
1057 0 58.0251 13.7699 799 111.652 954.703 477.472
1058 0 61.0308 14.206 867 110.232 954.482 474.604
1059 0 62.0544 13.6654 848 112.182 954.856 474.572
1060 0 65.0566 13.6804 890 112.571 954.997 474.1
1061 0 68.0931 14.3333 976 111.101 954.56 472.195
1062 0 70.0514 14.832 1039 109.633 954.784 471.244
1063 0 71.0436 13.2595 942 113.971 954.788 472.222
1064 0 74.1105 15.18 1125 110.366 955.19 469.304
1065 0 75.0562 14.3093 1074 114.229 954.607 469.359
1066 0 78.036 14.237 1111 114.653 954.932 466.847
1067 0 82.1951 14.5629 1197 112.799 955.192 465.911
1068 0 84.0735 13.2979 1118 117.05 955.36 465.575
1069 0 86.1371 13.7223 1182 116.763 955.448 463.866
1070 0 90.2025 14.157 1277 114.799 954.892 462.497
1071 0 93.1538 13.4079 1249 116.857 956.031 458.379
1072 0 96.0815 13.9361 1339 116.845 955.601 456.21
1073 1 50.0892 11.7391 588 116.648 955.117 478.512
1074 0 52.1199 11.8957 620 116.984 955.305 477.14
1075 0 56.0595 13.1646 738 116.255 954.474 476.917
1076 0 58.0795 13.0511 758 113.061 955.257 474.999
1077 0 59.0971 11.3542 671 110.851 954.766 474.261
1078 0 62.0507 12.1352 753 111.056 954.801 472.096
1079 0 65.1458 14.0915 918 106.093 955.175 472.418
1080 0 64.0503 11.8345 758 112.9 955.487 470.501
1081 0 68.0491 12.0354 819 112.983 954.977 468.851
1082 0 71.0633 12.8477 913 113.494 954.9 468.742
1083 0 74.0403 13.0064 963 115.611 955.151 464.523
1084 0 74.0831 12.216 905 118.143 954.251 464.78
1085 0 80.2272 13.3745 1073 114.321 954.976 464.612
1086 0 81.0997 12.9594 1051 117.193 954.944 463.054
1087 0 85.078 12.1771 1036 117.611 954.988 464.194
1088 0 89.1068 14.0506 1252 113.72 954.503 460.752
1089 1 44.011 11.5198 507 112.46 955.393 482.402
1090 0 46.0241 11.8633 546 110.346 955.683 481.548
1091 0 49.047 13.7827 676 113.129 955.612 482.765
1092 0 50.0283 13.2325 662 114.216 955.352 482.382
1093 0 52.03 13.7036 713 112.95 954.735 481.875
1094 0 53.0871 13.2424 703 114.607 954.684 481.225
1095 0 55.0156 12.8873 709 115.986 954.533 476.728
1096 0 57.0482 13.0241 743 113.513 955.401 477.433
1097 0 59.0662 14.2383 841 111.627 955.583 477.039
1098 0 60.054 13.8875 834 112.752 955.531 476.812
1099 0 62.0877 13.642 847 113.57 955.732 476.462
1100 0 66.0541 14.2762 943 111.142 955.461 472.514
1101 0 67.0514 13.7059 919 112.863 956.126 472.694
1102 0 69.1056 13.559 937 113.243 955.331 474.217
1103 0 72.1726 13.5924 981 113.804 955.615 470.714
1104 0 74.0658 13.7445 1018 114.112 954.974 468.926
1105 0 78.1002 13.1626 1028 115.022 955.485 469.613
1106 0 80.1507 14.2731 1144 113.311 955.597 467.754
1107 0 82.0734 13.1346 1078 117.749 955.736 465.394
1108 0 85.181 13.2072 1125 118.089 955.529 463.59
1109 1 43.0646 12.0981 521 120.397 955.756 485.09
1110 0 42.1648 12.2377 516 117.132 955.49 483.917
1111 0 45.1964 12.3461 558 113.41 954.898 481.038
1112 0 47.0285 12.3755 582 110.893 955.175 481.481
1113 0 48.0705 12.1696 585 113.227 955.238 480.034
1114 0 48.0108 11.9973 576 115.46 955.413 479.134
1115 0 49.0338 12.2976 603 115.881 955.444 478.088
1116 0 52.0574 11.9099 620 114.953 954.658 477.41
1117 0 54.06 12.3566 668 114.46 954.722 476.97
1118 0 53.06 12.0053 637 116.954 954.997 474.92
1119 0 58.0767 12.8967 749 114.16 955.752 474.437
1120 0 60.0594 12.5376 753 116.015 955.208 470.89
1121 0 61.0455 12.3514 754 117.475 955.594 472.021
1122 0 64.0507 13.6298 873 113.69 955.322 472.26
1123 0 66.1896 12.4793 826 118.034 955.114 470.766
1124 0 69.0689 13.3345 921 116.107 954.856 469.349
1125 0 70.0683 12.9873 910 118.777 955.001 468.346
1126 0 73.0819 12.5612 918 119.73 955.059 466.463
1127 0 77.1632 12.5967 972 119.508 954.891 465.85
1128 0 79.1187 13.9158 1101 117.955 954.704 463.653
1129 0 81.0528 12.3993 1005 122.291 954.939 463.935
1130 0 84.0734 12.3226 1036 121.921 954.614 462.831
1131 0 88.0371 12.8809 1134 120.891 954.257 459.972
1132 0 91.159 14.2608 1300 120.244 954.422 459.896
1133 1 48.1409 13.3358 642 118.569 953.812 483.241
1134 0 47.1551 13.4874 636 121.366 954.159 481.764
1135 0 51.0326 13.6971 699 119.449 954.499 481.649
1136 0 53.1558 13.5263 719 116.331 954.374 479.793
1137 0 56.0619 14.2343 798 114.079 954.747 479.519
1138 0 58.1536 14.2725 830 113.643 954.508 478.576
1139 0 58.0574 13.1938 766 118.103 954.415 477.319
1140 0 62.0703 14.2097 882 114.787 955.08 476.986
1141 0 64.0553 13.5664 869 116.281 955.209 476.29
1142 0 66.0462 14.3687 949 115.389 955.259 473.943
1143 0 68.0748 14.1609 964 115.831 954.513 473.176
1144 0 73.0893 14.2702 1043 114.942 954.696 471.85
1145 0 72.0823 13.1655 949 120.124 953.938 469.633
1146 0 76.0714 13.7765 1048 118.624 953.813 468.135
1147 0 78.0614 13.6815 1068 118.537 954.103 467.714
1148 0 81.1141 14.9173 1210 117.195 953.579 464.34
1149 0 83.0474 13.691 1137 121.124 953.673 463.88
1150 0 88.0801 14.5549 1282 118.302 953.923 464.445
1151 1 42.0339 12.2282 514 126.064 953.481 483.529
1152 0 47.0673 12.3653 582 121.239 953.271 482.682
1153 0 47.0994 13.1849 621 118.655 953.61 483.216
1154 0 49.046 13.4568 660 117.406 953.508 481.867
1155 0 49.043 12.4381 610 121.054 953.082 481.405
1156 0 48.0562 12.1733 585 123.732 953.944 481.159
1157 0 51.0523 12.2619 626 123.053 952.535 479.348
1158 0 54.0936 12.8481 695 120.715 952.744 479.142
1159 0 57.1282 12.7083 726 120.477 952.667 477.722
1160 0 60.1096 12.3608 743 122.748 953.112 476.501
1161 0 61.1288 13.3325 815 122.418 952.74 475.436
1162 0 63.0303 12.9144 814 123.65 952.956 473.399
1163 0 64.0548 11.6463 746 124.48 953.696 474.306
1164 0 69.0578 12.9602 895 119.806 954.419 472.594
1165 0 71.1647 12.169 866 122.566 954.928 470.762
1166 0 73.1159 13.0478 954 121.762 954.04 468.904
1167 0 75.2351 11.5903 872 126.838 954.745 466.93
1168 0 79.0493 12.5744 994 124.144 954.532 466.167
1169 0 81.1196 12.7466 1034 125.065 953.673 464.311
1170 0 85.0859 13.0104 1107 123.365 953.973 463.46
1171 0 87.1235 12.0404 1049 125.545 954.829 462.595
1172 0 91.2103 12.3122 1123 128.293 954.338 461.621
1173 1 49.0291 12.4212 609 120.059 954.264 482.585
1174 0 47.0324 11.0562 520 125.631 954.221 482.337
1175 0 48.0372 10.9915 528 126.002 953.917 481.322
1176 0 50.0542 11.1279 557 126.961 954.404 478.72
1177 0 53.0299 12.3138 653 122.342 954.972 478.453
1178 0 57.0546 11.3926 650 121.758 955.298 478.537
1179 0 60.0592 11.9216 716 120.387 954.909 477.451
1180 0 60.2056 11.4441 689 123.563 954.8 474.511
1181 0 63.1093 12.6606 799 120.11 955.045 473.175
1182 0 64.214 12.5674 807 119.891 955.089 474.202
1183 0 66.117 12.735 842 120.343 954.738 473.447
1184 0 68.1855 11.9527 815 122.172 954.546 471.431
1185 0 72.1811 12.621 911 120.788 954.09 470.302
1186 0 72.1232 11.8686 856 124.004 954.289 469.366
1187 0 73.083 11.4801 839 124.423 953.855 470.284
1188 0 77.0782 12.403 956 121.553 953.994 467.429
1189 0 79.0513 12.0302 951 121.678 954.07 467.891
1190 0 83.1007 11.3838 946 123.99 954.029 466.208
1191 0 84.0735 11.2283 944 124.505 954.245 464.878
1192 0 87.1735 10.806 942 126.014 954.252 464.111
1193 0 89.1376 11.5776 1032 131.361 953.318 461.646
1194 0 93.1281 12.2305 1139 129.298 953.804 460.193
1195 1 53.0929 10.5287 559 131.919 954.02 479.379
1196 0 56.1035 11.9244 669 129.269 953.985 475.776
1197 0 57.0799 12.4387 710 129.12 953.418 474.706
1198 0 60.0935 11.582 696 132.095 953.434 474.693
1199 0 57.0323 11.8003 673 126.774 952.982 475.734
1200 0 60.0464 10.5585 634 130.076 952.584 476.298
1201 0 64.1647 11.9536 767 125.724 952.462 475.6
1202 0 65.0707 12.3558 804 125.639 953.22 472.674
1203 0 68.0825 11.8533 807 126.564 952.871 472.164
1204 0 71.055 11.9063 846 126.089 952.638 471.449
1205 0 71.147 11.9752 852 128.432 952.658 466.988
1206 0 75.136 12.7369 957 124.614 952.584 467.939
1207 0 77.17 12.1161 935 127.042 952.375 467.077
1208 0 80.1594 13.6229 1092 123.212 953.074 466.047
1209 0 82.1463 11.9299 980 127.539 952.72 463.737
1210 0 85.1221 12.4879 1063 125.26 952.34 462.994
1211 0 90.1758 12.4313 1121 124.992 952.843 463.161
1212 0 89.1243 11.8935 1060 128.996 953.287 461.651
1213 0 92.1951 12.8966 1189 127.827 952.532 458.415
1214 0 96.26 11.8741 1143 130.068 952.703 459.792
1215 0 98.2107 11.6382 1143 132.264 952.563 456.057
1216 0 99.1153 10.8762 1078 135.625 952.357 453.461
1217 0 104.185 12.497 1302 130.77 953.042 449.257
1218 0 109.218 12.6079 1377 130.294 953.007 446.159
1219 0 112.183 12.2389 1373 127.763 952.303 442.81
1220 0 114.237 10.7496 1228 133.352 953.143 441.705
1221 1 58.1659 9.74798 567 122.896 953.372 470.199
1222 0 62.1006 11.4814 713 117.985 953.924 470.704
1223 0 62.1813 10.9197 679 124.215 953.028 466.761
1224 0 67.2525 11.4048 767 122.064 953.421 466.375
1225 0 66.1075 10.5888 700 126.361 953.82 466.183
1226 0 71.0478 11.3867 809 127.999 953.337 465.665
1227 0 73.1288 11.9242 872 128.255 953.252 464.835
1228 0 76.0677 12.4363 946 126.187 953.307 466.153
1229 0 78.0838 12.2176 954 128.167 953.545 463.657
1230 0 79.2192 11.5628 916 131.828 953.796 463.679
1231 0 82.1486 12.0148 987 127.371 954.586 464.152
1232 0 85.1813 12.0684 1028 126.973 954.745 463.156
1233 0 87.2009 11.6627 1017 127.836 954.312 462.956
1234 0 90.1204 12.2614 1105 125.87 955.048 460.583
1235 0 93.1799 12.2666 1143 124.781 954.196 459.244
1236 0 96.2028 12.7855 1230 122.284 954.183 460.222
1237 0 100.157 12.4705 1249 124.055 953.748 456.667
1238 0 102.202 11.8686 1213 124.775 953.744 455.149
1239 0 106.175 12.5924 1337 120.68 954.181 453.53
1240 0 107.146 12.1703 1304 122.872 953.205 450.534
1241 0 111.223 12.5154 1392 122.394 953.7 449.721
1242 0 114.138 11.3459 1295 126.141 953.805 445.537
1243 0 118.111 11.6839 1380 124.07 953.608 448.216
1244 0 123.331 12.3732 1526 121.589 954.155 442.502
1245 0 126.125 12.4004 1564 122.449 954.28 440.152
1246 0 132.182 11.7262 1550 124.002 954.458 441.373
1247 0 135.387 10.6953 1448 129.624 953.066 437.548
1248 1 69.1537 13 899 120.241 953.905 468.774
1249 0 70.1012 11.7687 825 124.338 953.647 467.896
1250 0 73.1488 13.37 978 119.373 953.297 466.33
1251 0 75.169 11.6271 874 124.423 952.612 463.042
1252 0 78.1907 12.9299 1011 120.563 953.508 464.439
1253 0 80.1293 12.1054 970 122.446 953.072 460.956
1254 0 81.0367 13.0681 1059 121.147 952.833 460.754
1255 0 84.1198 12.9577 1090 121.479 953.268 460.052
1256 0 87.0837 12.4133 1081 122.809 952.869 457.978
1257 0 90.1295 12.4931 1126 122.451 952.857 455.588
1258 0 93.0697 12.4638 1160 123.014 953.078 453.101
1259 0 95.1491 12.3701 1177 123.067 953.102 449.4
1260 0 99.0789 12.707 1259 121.76 952.926 449.705
1261 0 100.16 12.9991 1302 122.405 952.932 444.21
1262 0 104.232 12.5969 1313 124.577 952.899 443.032
1263 0 108.289 12.2635 1328 124.152 953.557 442.28
1264 0 112.202 11.5863 1300 126.675 953.707 440.21
1265 0 117.292 12.2685 1439 124.964 953.015 438.13
1266 1 50.2467 10.6873 537 117.061 953.957 474.335
1267 0 53.0433 11.6886 620 116.866 952.735 475.929
1268 0 54.1296 11.417 618 119.322 952.547 477.4
1269 0 57.1758 12.8376 734 115.752 952.753 475.625
1270 0 60.1192 12.0594 725 117.552 952.441 475.775
1271 0 61.2625 12.7647 782 116.434 952.613 474.226
1272 0 62.3073 12.5346 781 117.315 953.117 473.647
1273 0 62.2375 11.3115 704 121.303 953.509 472.558
1274 0 67.1243 13.3782 898 114.732 953.81 471.835
1275 0 66.1459 11.0816 733 121.394 953.381 471.139
1276 0 69.1736 11.9699 828 119.283 953.588 468.886
1277 0 72.1571 12.6252 911 117.126 953.449 466.765
1278 0 74.1662 11.7574 872 118.651 953.561 465.766
1279 0 77.095 11.3496 875 119.457 953.346 466.129
1280 1 39.149 10.1663 398 114.935 952.925 484.387
1281 0 41.322 10.1641 420 113.636 954.605 478.505
1282 0 41.0823 10.5885 435 107.556 955.694 481.315
1283 0 43.0711 10.0067 431 106.847 956.977 483.84
1284 0 43.0606 9.38213 404 109.619 956.408 482.851
1285 0 45.072 10.1837 459 106.965 957.026 483.412
1286 0 47.0327 9.97178 469 108.318 956.128 481.454
1287 0 50.0774 11.3025 566 104.92 955.668 479.761
1288 0 51.2205 11.2845 578 105.787 955.891 477.057
1289 0 53.0591 11.1008 589 105.092 955.277 479.944
1290 0 55.0611 11.3329 624 106.386 955.689 476.598
1291 0 56.0511 11.5252 646 106.178 955.548 476.378
1292 0 58.0768 11.1749 649 107.741 955.47 475.777
1293 0 59.1346 10.958 648 108.378 956.12 474.5
1294 0 59.0681 9.76839 577 111.527 955.159 473.605
1295 0 62.1563 10.5862 658 109.339 955.848 473.582
1296 0 63.0584 10.2603 647 111.198 954.74 470.011
1297 0 67.0668 10.9592 735 109.279 955.042 471.238
1298 0 71.045 12.3443 877 105.731 954.454 469.705
1299 0 72.1363 11.4367 825 108.577 954.777 469.749
1300 0 73.0905 10.3981 760 110.578 954.42 468.887
1301 0 80.1432 11.1426 893 107.54 955.024 466.561
1302 1 39.0834 10.8742 425 109.882 954.798 483.991
1303 0 42.0116 11.1636 469 108.475 954.91 482.736
1304 0 42.0367 10.1816 428 110.474 955.68 482.241
1305 0 44.0773 11.2303 495 106.776 955.295 482.091
1306 0 45.0513 12.0529 543 105.311 954.943 481.378
1307 0 47.0719 12.3853 583 104.386 954.739 480.103
1308 0 49.0796 12.6733 622 103.35 955.064 480.304
1309 0 47.1835 11.9957 566 107.11 955.371 479.233
1310 0 52.1183 12.0687 629 105.887 954.734 478.006
1311 0 54.1575 12.8514 696 102.793 954.682 477.843
1312 0 52.1186 12.7018 662 105.011 955.08 476.758
1313 0 57.1789 12.7844 731 103.346 955.183 475.524
1314 0 59.1821 12.6896 751 104.747 954.864 475.024
1315 0 58.1583 11.8298 688 108.263 954.741 474.802
1316 0 63.0827 12.5391 791 104.965 954.986 474.349
1317 0 65.1183 12.1164 789 106.523 954.689 471.71
1318 0 66.1256 12.5972 833 106.289 955.15 469.103
1319 0 69.0818 13.4189 927 104.515 955.006 469.933
1320 0 71.1444 13.831 984 104.444 955.464 468.609
1321 0 75.148 13.4934 1014 104.929 954.393 467.208
1322 0 77.2133 13.3656 1032 105.691 954.195 464.786
1323 0 79.1003 13.3249 1054 105.788 954.309 465.119
1324 0 83.1802 13.3926 1114 105.602 953.926 461.446
1325 1 42.2668 11.4747 485 109.548 953.184 480.998
1326 0 46.3009 12.9371 599 105.77 953.25 479.155
1327 0 46.2451 11.7202 542 109.673 953.258 477.068
1328 0 45.3027 10.2864 466 114.26 953.2 476.483
1329 0 49.1266 12.3558 607 102.636 952.878 479.568
1330 0 51.0624 12.4358 635 103.083 953.167 477.934
1331 0 52.1595 12.3851 646 104.58 952.692 478.918
1332 0 53.0497 12.1961 647 105.403 953.15 478.92
1333 0 56.0707 13.1976 740 103.505 952.528 477.086
1334 0 56.0996 12.8878 723 105.542 952.905 476.828
1335 0 58.0513 12.4889 725 105.829 952.566 476.705
1336 0 59.0595 13.5626 801 103.901 952.531 473.849
1337 0 62.0821 11.6459 723 109.492 952.939 472.773
1338 0 63.1148 13.8478 874 103.259 952.824 473.244
1339 0 65.0482 12.6522 823 106.429 952.086 471.735
1340 0 65.0441 12.7913 832 107.177 952.746 472.208
1341 0 69.0804 13.5929 939 104.973 953.58 469.776
1342 0 72.1373 14.2229 1026 102.773 952.839 470.558
1343 0 75.0634 13.4553 1010 105.334 953.245 468.697
1344 0 77.0592 13.2106 1018 106.332 952.801 466.5
1345 0 79.0972 13.0346 1031 107.18 953.221 465.122
1346 0 82.1125 12.8482 1055 108.191 952.854 461.614
1347 0 85.0673 12.8839 1096 108.221 952.86 462.728
1348 1 43.054 10.4752 451 111.029 953.82 483.33
1349 0 43.0231 9.57625 412 113.995 953.345 482.466
1350 0 48.0991 11.8713 571 107.464 952.68 481.697
1351 0 48.0515 11.2171 539 110.657 953.143 481.384
1352 0 50.052 10.9087 546 112.458 953.179 480.436
1353 0 52.0995 11.5164 600 111.472 953.542 478.278
1354 0 54.0444 13.1003 708 108.345 953.484 478.373
1355 0 54.1261 11.658 631 112.41 952.956 476.561
1356 0 57.0515 12.7078 725 109.932 952.619 475.543
1357 0 56.0877 11.7673 660 112.958 953.08 476.352
1358 0 58.1081 13.0963 761 109.551 952.825 474.673
1359 0 61.1036 13.6489 834 109.145 953.108 473.807
1360 0 63.0318 12.8824 812 110.85 952.879 472.171
1361 0 64.1199 13.0693 838 110.621 952.963 470.427
1362 0 65.1532 12.8466 837 111.41 952.6 469.723
1363 0 68.0544 13.357 909 110.16 952.285 469.369
1364 0 73.0423 13.3074 972 109.408 952.553 469.996
1365 0 72.0622 12.3782 892 112.998 952.147 467.6
1366 0 75.1368 11.5256 866 115.318 952.953 468.35
1367 0 78.2005 12.6086 986 113.519 952.812 466.421
1368 0 80.2762 13.466 1081 110.182 952.456 464.675
1369 0 83.0833 13.1675 1094 111.836 952.33 462.68
1370 0 86.1543 12.2106 1052 114.825 952.904 461.001
1371 1 43.1495 11.1936 483 115.137 952.938 483.826
1372 0 45.3137 13.0866 593 112.094 953.585 480.636
1373 0 46.0889 12.1287 559 115.095 953.127 481.635
1374 0 47.133 11.6055 547 117.941 952.815 481.583
1375 0 49.0769 12.7963 628 115.304 952.756 480.151
1376 0 50.154 12.661 635 116.118 952.715 479.702
1377 0 51.1592 13.1355 672 115.985 953.027 481.918
1378 0 51.0973 14.2473 728 115.677 952.228 479.08
1379 0 55.1535 12.9276 713 118.473 952.424 479.376
1380 0 56.0873 13.2472 743 118.627 952.289 478.798
1381 0 58.049 13.0235 756 119.952 952.567 475.022
1382 0 58.1136 12.6821 737 121.912 952.729 475.212
1383 0 61.0355 13.1563 803 121.141 952.837 475.463
1384 0 64.098 13.417 860 120.566 953.255 474.402
1385 0 65.0527 12.8819 838 123.186 952.791 474.011
1386 0 68.0918 12.5419 854 123.722 953.167 473.263
1387 0 71.0876 13.9406 991 120.31 953.164 471.454
1388 0 72.1396 13.7788 994 121.916 953.582 469.413
1389 0 76.2472 13.5349 1032 122.308 953.997 470.64
1390 0 77.2308 13.9193 1075 123.658 954.583 469.876
1391 0 80.1625 14.9571 1199 120.351 954.401 469.456
1392 0 83.2221 13.5541 1128 125.028 954.222 465.928
1393 0 86.0977 13.0549 1124 124.88 954.295 464.311
1394 0 87.2223 13.0586 1139 127.879 953.606 464.499
1395 0 90.1186 13.1937 1189 128.465 953.933 461.826
1396 0 94.1787 13.7398 1294 126.469 953.898 459.815
1397 1 50.0387 11.9507 598 125.816 953.247 480.913
1398 0 51.3607 12.9282 664 123.747 954.211 474.723
1399 0 54.0883 13.0712 707 112.593 954.801 478.467
1400 0 54.056 12.3946 670 115.879 954.893 477.93
1401 0 57.1572 11.5821 662 116.085 955.074 479.183
1402 0 59.1256 12.1944 721 115.065 955.155 477.026
1403 0 59.0749 12.0017 709 116.346 955.189 475.939
1404 0 64.1396 12.6599 812 113.443 954.272 473.234
1405 0 65.0725 12.586 819 113.646 954.864 471.365
1406 0 67.1458 12.7484 856 113.195 954.893 470.659
1407 0 69.2126 11.8476 820 114.578 954.027 468.6
1408 0 73.1206 11.9255 872 113.844 954.794 468.126
1409 0 73.1135 12.1045 885 114.241 954.073 466.395
1410 0 76.1377 11.4923 875 114.934 953.438 465.754
1411 0 79.1061 12.2367 968 112.661 953.737 462.919
1412 0 82.1821 12.0221 988 112.982 954.229 462.457
1413 0 84.1415 12.1462 1022 113.934 953.583 459.369
1414 1 46.0674 10.832 499 111.611 953.866 481.501
1415 0 45.0582 11.5184 519 111.536 953.992 479.085
1416 0 45.0501 11.0544 498 112.884 954.46 477.739
1417 0 48.0977 11.1648 537 108.583 954.702 477.171
1418 0 51.0455 12.9492 661 103.622 954.154 475.95
1419 0 52.0616 12.4276 647 105.371 954.122 475.014
1420 0 53.1026 11.8827 631 107.011 954.057 476.076
1421 0 54.0908 11.9614 647 107.592 953.757 474.815
1422 0 55.1065 12.866 709 106.74 954.319 473.13
1423 0 58.2748 12.2523 714 106.413 954.608 473.819
1424 0 60.1692 12.3651 744 105.876 954.128 471.41
1425 0 60.0921 12.4642 749 106.53 954.853 470.215
1426 0 64.0908 12.5759 806 105.361 955.612 470.861
1427 0 66.1943 12.1763 806 106.728 954.376 467.007
1428 0 69.1995 11.3874 788 108.506 955.201 468.332
1429 0 71.0928 12.8283 912 105.792 955.057 466.343
1430 0 74.1524 13.1486 975 105.581 955.019 464.462
1431 0 76.1305 12.8201 976 107.384 955.114 464.639
1432 0 79.1134 12.7791 1011 108.333 954.811 461.042
1433 0 79.2461 12.6189 1000 110.705 954.176 459.591
1434 1 37.0078 9.99788 370 110.068 953.732 474.011
1435 0 40.0316 10.4917 420 107.069 953.095 474.55
1436 0 41.0562 11.5208 473 98.1966 954.07 475.856
1437 0 43.0497 10.5227 453 101.583 953.691 473.87
1438 0 43.0441 11.8483 510 100.135 954.133 474.478
1439 0 45.1325 10.9677 495 102.16 953.887 474.085
1440 0 46.0918 11.2167 517 103.133 954.139 472.478
1441 0 48.0131 12.0384 578 101.358 954.356 473.869
1442 0 48.0525 10.9047 524 105.469 953.668 473.754
1443 0 49.0267 11.2184 550 106.104 954.604 471.996
1444 0 50.0861 11.7997 591 105.892 953.682 471.146
1445 0 51.0733 10.8667 555 108.494 953.895 470.782
1446 0 55.0509 12.5883 693 104.538 953.915 470.287
1447 0 57.0358 11.8873 678 107.661 953.733 467.76
1448 0 57.0469 12.3582 705 108.087 953.562 467.119
1449 0 60.1221 12.5744 756 107.944 953.335 467.447
1450 0 63.1357 11.99 757 108.785 954.02 468.164
1451 0 63.0601 12.3057 776 110.54 953.809 466.771
1452 0 67.2683 12.1157 815 111.183 953.517 466.328
1453 0 68.1191 11.8175 805 113.819 953.533 465.589
1454 0 69.0717 11.9875 828 115.96 953.6 463.312
1455 0 73.1484 12.4815 913 113.634 953.502 464.278
1456 0 76.0998 11.4849 874 116.569 953.601 463.182
1457 0 79.1283 12.4861 988 114.376 953.37 459.755
1458 0 80.1953 11.7338 941 118.079 953.522 459.766
1459 0 83.2208 12.1244 1009 118.252 953.363 457.381
1460 0 87.164 12.6887 1106 117.037 953.466 457.284
1461 1 46.1107 12.3182 568 112.014 953.951 476.912
1462 0 47.1309 12.4122 585 116.491 954.648 475.703
1463 0 49.0587 12.4545 611 119.29 953.867 474.925
1464 0 49.027 11.8302 580 113.457 953.479 474.66
1465 0 52.0638 11.8124 615 112.345 953.61 474.563
1466 0 52.0981 11.9966 625 112.888 953.699 473.52
1467 0 55.0615 12.5133 689 112.271 953.496 471.221
1468 0 57.0742 12.2647 700 112.593 953.79 470.414
1469 0 60.1004 13.1447 790 110.691 952.939 470.189
1470 0 61.0584 12.7419 778 112.577 953.765 470.263
1471 0 62.0603 12.5845 781 114.371 953.849 468.944
1472 0 65.0651 13.3559 869 112.297 953.677 468.213
1473 0 67.038 13.4252 900 113.324 953.444 465.952
1474 0 69.1588 12.5219 866 116.767 953.716 466.41
1475 0 69.0385 12.2685 847 119.208 953.619 467.251
1476 0 72.0315 13.4386 968 117.085 953.687 465.94
1477 0 77.0789 14.8549 1145 122.295 952.584 467.636
1478 0 77.1238 13.2514 1022 128.063 952.595 468.452
1479 0 79.0582 14.5463 1150 126.195 953.271 464.692
1480 0 83.0289 13.4531 1117 129.606 952.859 464.52
1481 0 86.0347 14.6104 1257 126.982 952.991 463.096
1482 0 88.1365 13.3543 1177 132.305 953.566 462.777
1483 0 92.1366 14.218 1310 130.155 953.295 459.457
1484 0 94.0874 13.8276 1301 132.441 953.753 458.483
1485 0 95.1048 13.0803 1244 135.77 953.556 455.483
1486 0 99.2416 13.0187 1292 131.502 953.647 452.443
1487 0 102.245 12.8711 1316 135.122 953.375 450.479
1488 0 107.188 13.1078 1405 133.414 952.766 449.698
1489 1 62.127 11.8789 738 130.203 953.098 471.973
1490 0 63.0875 12.8869 813 129.296 953.405 469.892
1491 0 65.1007 12.8724 838 129.567 953.796 469.172
1492 0 68.0959 12.8936 878 131.472 954.034 468.441
1493 0 70.1544 12.9856 911 134.263 953.56 464.28
1494 0 71.1393 11.4564 815 140.191 953.655 464.207
1495 0 71.1393 11.4986 818 166.275 953.663 464.258
1496 0 77.1218 13.174 1016 136.271 953.437 462.855
1497 0 80.2281 12.6764 1017 138.408 952.837 460.629
1498 0 84.1898 12.8282 1080 137.33 953.218 460.041
1499 0 87.0907 12.332 1074 136.155 953.901 461.304
1500 0 91.1521 13.2526 1208 136.567 953.349 461.57
1501 0 94.1505 12.4057 1168 139.234 952.854 461.484
1502 0 98.1583 13.03 1279 136.848 953.243 458.512
1503 0 102.241 13.9279 1424 129.122 953.492 455.789
1504 0 103.165 13.6771 1411 134.274 954.159 455.1
1505 0 103.193 13.0628 1348 135.941 953.239 454.493
1506 0 105.123 13.7838 1449 135.85 953.101 452.955
1507 0 106.203 14.105 1498 140.493 953.232 451.107
1508 0 106.272 14.1618 1505 141.885 953.129 449.746
1509 0 109.243 13.7125 1498 144.061 952.382 450.004
1510 0 111.153 13.5399 1505 145.815 952.308 447.86
1511 0 115.225 13.0701 1506 145.368 952.507 445.908
1512 1 64.1548 11.4878 737 141.179 952.389 472.075
1513 0 66.1269 12.0072 794 141.322 952.632 470.615
1514 0 68.1424 12.5326 854 140.238 952.836 466.212
1515 0 71.0993 13.0803 930 135.825 953.053 466.558
1516 0 73.1044 14.3767 1051 131.249 952.441 468.672
1517 0 75.0782 13.1996 991 134.047 952.268 467.783
1518 0 77.0682 13.235 1020 133.247 952.506 465.292
1519 0 79.0424 13.3473 1055 129.324 952.031 466.003
1520 0 83.0822 13.3482 1109 129.445 952.245 465.575
1521 0 85.0748 13.7291 1168 130.569 951.783 464.295
1522 0 87.0367 13.029 1134 133.042 952.187 461.392
1523 0 90.2062 13.3139 1201 132.091 951.446 459.497
1524 0 93.0996 12.7068 1183 133.97 951.984 460.462
1525 0 94.1178 12.75 1200 133.966 952.028 459.663
1526 1 49.0566 11.9658 587 131.237 951.801 480.966
1527 0 51.109 11.9744 612 131.317 952.289 480.876
1528 0 51.1259 12.1465 621 132.599 953.19 479.224
1529 0 52.0857 11.5195 600 129.112 954.593 481.193
1530 0 51.0715 11.6112 593 131.027 954.223 479.914
1531 0 55.041 12.627 695 127.319 953.571 480.181
1532 0 57.0301 11.7833 672 130.801 953.08 478.939
1533 0 56.0562 11.2209 629 134.194 953.803 477.135
1534 0 58.0417 12.9562 752 130.262 953.307 475.802
1535 0 61.0634 12.3969 757 132.038 952.852 477.498
1536 0 64.0394 12.3049 788 133.129 953.018 475.732
1537 0 65.0587 12.1275 789 134.133 952.81 473.939
1538 0 67.0726 11.8528 795 135.56 952.606 473.767
1539 0 70.0333 13.5079 946 131.643 952.642 472.229
1540 0 74.0891 12.2555 908 132.395 953.237 473.882
1541 0 76.043 13.5581 1031 132.124 952.976 468.374
1542 0 79.0932 12.5675 994 134.127 951.953 469.381
1543 1 41.0315 11.4059 468 130.603 952.955 488.38
1544 0 42.0273 12.1826 512 132.916 953.734 486.148
1545 0 44.2022 12.3749 547 133.799 952.91 483.958
1546 0 43.1108 11.598 500 122.942 951.38 481.112
1547 0 47.064 12.3874 583 123.285 951.827 484.744
1548 0 47.0457 11.712 551 127.474 952.334 485.858
1549 0 47.0765 11.6194 547 128.305 952.45 485.183
1550 0 48.0874 11.8534 570 128.532 952.416 485.139
1551 0 49.0635 12.5144 614 127.982 952.64 483.292
1552 0 52.0715 11.9835 624 129.404 952.123 481.095
1553 0 55.149 13.3638 737 123.336 951.832 480.277
1554 0 57.0909 12.8917 736 125.298 952.364 480.156
1555 0 58.0589 12.8318 745 126.634 951.897 479.271
1556 0 59.0715 13.1874 779 126.239 951.802 478.401
1557 0 60.1676 13.3793 805 127.106 952.229 475.645
1558 0 62.0655 12.7768 793 129.354 951.83 476.614
1559 0 64.1141 13.242 849 128.225 951.637 475.605
1560 0 66.1695 12.7551 844 129.256 951.621 475.656
1561 0 66.1078 12.7822 845 131.057 951.606 473.806
1562 0 71.07 13.7048 974 127.283 951.922 472.03
1563 0 73.1128 12.4876 913 129.355 951.829 472.895
1564 0 74.2272 13.6877 1016 127.795 952.199 469.738
1565 0 77.3344 13.4998 1044 125.251 951.824 470.089
1566 0 79.1712 13.5024 1069 126.454 952.286 466.102
1567 0 82.2578 13.1538 1082 126.832 952.067 466.982
1568 0 85.1103 13.1006 1115 123.762 951.803 466.448
1569 0 86.0707 13.8026 1188 123.731 951.33 465.162
1570 0 90.119 13.2492 1194 124.133 951.534 461.925
1571 0 93.1989 13.6697 1274 122.637 951.444 458.68
1572 1 47.0377 11.6928 550 123.244 950.884 483.024
1573 0 47.0628 11.9202 561 124.868 951.005 481.369
1574 0 51.0713 12.9035 659 124.08 950.824 480.337
1575 0 53.137 13.2488 704 120.439 950.439 480.889
1576 0 56.0892 13.8173 775 117.738 951.017 478.676
1577 0 56.1818 14.2751 802 118.201 950.808 479.051
1578 0 58.0858 13.7555 799 119.556 950.854 477.929
1579 0 62.0551 14.2615 885 117.134 950.49 476.365
1580 0 62.0521 12.8279 796 121.548 950.049 475.773
1581 0 64.04 13.554 868 120.43 950.653 474.209
1582 0 67.0555 14.57 977 114.062 950.741 472.054
1583 0 71.155 13.4776 959 115.262 951.323 470.875
1584 0 71.1086 13.5567 964 116.953 950.706 470.615
1585 0 73.1349 13.7417 1005 118.962 950.591 469.93
1586 0 77.115 14.2774 1101 118.269 951.385 469.488
1587 0 77.1174 14.2251 1097 143.687 952.387 469.539
1588 0 81.1182 13.5481 1099 122.666 950.211 466.495
1589 0 84.0818 14.7951 1244 119.926 950.259 465.482
1590 0 85.1343 14.7179 1253 122.106 950.071 463.592
1591 0 88.1435 13.3646 1178 127.244 949.667 463.081
1592 0 92.1029 14.1038 1299 128.454 950.624 461.196
1593 0 94.2325 14.5916 1375 126.513 950.801 460.006
1594 0 98.1585 13.1828 1294 131.219 950.508 457.004
1595 0 101.142 12.8038 1295 131.109 951.072 456.477
1596 0 106.202 13.5778 1442 129.096 951.334 453.166
1597 1 54.1088 11.9943 649 127.73 951.217 479.214
1598 0 57.1394 11.5157 658 132.834 951.166 475.248
1599 0 60.1848 14.5219 874 125.9 951.535 473.392
1600 0 61.1213 13.5468 828 131.156 951.33 473.588
1601 0 65.1021 14.5003 944 128.499 950.961 472.629
1602 0 63.0731 12.4617 786 137.559 951.268 474.014
1603 0 68.176 13.4358 916 133.826 951.028 471.876
1604 0 72.1952 14.2669 1030 132.018 950.903 470.324
1605 0 73.276 14.3703 1053 132.55 951.594 470.613
1606 0 75.2741 14.4273 1086 131.776 952.217 469.052
1607 0 78.2479 15.0036 1174 130.913 951.709 464.932
1608 0 83.2578 13.212 1100 134.262 952.105 464.02
1609 0 84.2451 13.5676 1143 134.361 952.124 462.3
1610 0 87.1811 14.0512 1225 132.814 952.386 462.492
1611 0 89.2571 13.4443 1200 136.123 951.968 458.84
1612 0 92.4127 14.8897 1376 131.592 952.055 455.626
1613 0 96.1619 13.5605 1304 123.894 950.866 461.696
1614 0 99.1957 13.3474 1324 126.621 950.073 456.921
1615 0 102.137 13.4231 1371 128.373 950.838 456.94
1616 0 105.218 12.2887 1293 129.374 950.781 452.334
1617 0 109.299 13.0285 1424 125.964 950.878 451.794
1618 0 114.268 13.5472 1548 124.808 950.966 445.65
1619 0 119.177 13.5932 1620 123.602 951.382 445.098
1620 0 125.314 14.0846 1765 121.318 950.05 442.37
1621 1 65.2608 12.6109 823 118.733 951.31 470.293
1622 0 69.1815 13.6886 947 114.031 951.448 468.833
1623 0 70.2088 13.3317 936 116.909 951.49 467.835
1624 0 74.1216 14.6111 1083 113.046 951.4 469.015
1625 0 73.1307 12.5255 916 120.109 950.929 467.171
1626 0 78.1947 12.9676 1014 118.037 950.884 466.294
1627 0 79.1237 13.5105 1069 117.659 951.063 463.845
1628 0 82.1039 13.6778 1123 117.327 950.664 464.219
1629 0 86.1188 12.5873 1084 119.459 951.048 464.232
1630 0 89.1913 12.6694 1130 118.127 951.209 463.892
1631 0 91.1688 12.4165 1132 119.675 950.691 461.309
1632 0 95.1207 12.6681 1205 119.414 950.944 459.569
1633 0 98.2304 13.0204 1279 119.182 951.219 456.045
1634 0 102.128 13.9727 1427 117.197 951.212 454.266
1635 0 104.114 12.0157 1251 122.153 949.634 449.579
1636 1 54.072 12.1505 657 113.553 949.381 474.659
1637 0 57.0388 12.886 735 112.611 949.62 473.321
1638 0 59.1172 11.9762 708 115.088 950.516 470.886
1639 0 60.0645 11.471 689 117.708 949.971 472.109
1640 0 62.0846 13.4977 838 114.19 949.964 473.303
1641 0 65.0595 12.7422 829 115.379 949.404 472.656
1642 0 66.0792 11.5619 764 117.363 948.925 473.135
1643 0 67.0779 11.5985 778 117.851 950.156 471.934
1644 0 70.0517 13.0332 913 114.625 949.302 469.928
1645 0 74.0672 11.8406 877 116.704 949.612 468.807
1646 0 74.2107 13.2865 986 115.286 949.691 467.174
1647 0 76.1643 12.6568 964 117.56 949.414 466.231
1648 0 80.2713 13.1305 1054 116.578 949.787 463.712
1649 0 82.112 12.8118 1052 119.095 950.24 464.009
1650 0 85.2486 13.443 1146 118.338 949.883 459.67
1651 0 88.2811 13.9328 1230 117.866 950.598 460.411
1652 0 92.193 14.3829 1326 116.09 949.929 460.331
1653 0 94.2771 13.7043 1292 117.471 950.316 457.841
1654 0 95.3494 13.4977 1287 118.643 950.115 454.331
1655 0 98.41 11.7671 1158 123.838 949.989 453.739
1656 0 103.29 12.3342 1274 122.662 950.108 451.842
1657 0 107.287 12.7415 1367 121.199 949.626 449.959
1658 1 56.1591 11.2716 633 119.755 950.185 476.289
1659 0 58.1486 11.8146 687 116.483 949.169 476.862
1660 0 59.129 12.2951 727 113.307 949.256 476.564
1661 0 61.1421 11.1053 679 119.074 948.884 475.951
1662 0 63.0944 12.8855 813 114.466 949.875 471.991
1663 0 68.1327 13.2095 900 112.987 949.376 471.764
1664 0 69.0885 13.0991 905 114.402 949.218 471.107
1665 0 71.2859 13.2144 942 115.333 950.109 470.732
1666 0 69.2482 11.6104 804 122.628 950.332 468.299
1667 0 73.1904 11.9141 872 121.716 950.139 466.013
1668 0 76.1088 12.5872 958 119.977 949.907 466.425
1669 0 78.3228 12.4357 974 101.243 950.314 468.172
1670 0 82.189 12.5929 1035 121.128 949.639 465.052
1671 0 83.2468 12.0365 1002 122.645 948.915 464.853
1672 0 85.2156 12.7559 1087 122.383 949.957 460.388
1673 0 91.094 13.0744 1191 121.359 949.751 462.306
1674 0 93.341 12.9204 1206 122.742 950.272 457.452
1675 0 95.1837 13.0484 1242 123.024 949.657 457.297
1676 0 99.2024 12.9332 1283 124.461 950.198 453.422
1677 0 103.44 12.8384 1328 124.609 950.273 452.09
1678 0 106.287 13.6235 1448 121.117 949.919 453.213
1679 0 106.117 11.8643 1259 104.851 951.222 445.201
1680 1 57.284 10.7534 616 113.94 950.651 468.997
1681 0 60.1051 10.831 651 108.791 951.647 470.074
1682 0 62.1562 11.6803 726 107.006 951.886 468.28
1683 0 64.2302 11.4432 735 106.278 951.641 468.158
1684 0 67.1002 11.1922 751 107.298 951.546 466.238
1685 0 69.1264 11.0956 767 108.7 951.777 463.673
1686 0 72.2446 12.7207 919 104.826 951.257 464.176
1687 0 73.1587 10.1423 742 111.92 950.779 461.512
1688 0 75.1046 10.9714 824 111.328 951.104 458.772
1689 0 81.2098 12.1783 989 107.337 951.342 459.107
1690 0 81.1659 11.2239 911 111.246 951.143 458.878
1691 0 85.3068 10.8784 928 112.794 951.191 457.8
1692 0 88.2994 11.8687 1048 111.155 951.165 456.611
1693 0 90.1915 12.3293 1112 111.192 950.621 454.612
1694 0 95.237 12.8521 1224 111.63 950.357 452.475
1695 0 98.1422 12.7162 1248 111.692 951.063 451.925
1696 1 50.0347 9.85316 493 117 951.661 475.436
1697 0 52.0411 9.89602 515 111.915 951.381 475.911
1698 0 52.0556 11.2956 588 108.328 950.942 474.371
1699 0 53.056 10.6303 564 110.553 951.199 475.128
1700 0 55.0898 11.5085 634 110.756 950.61 473.391
1701 0 56.0442 10.688 599 119.431 950.659 472.96
1702 0 62.0821 11.662 724 125.54 950.51 475.17
1703 0 63.0859 12.6653 799 124.308 950.229 475.274
1704 0 64.0484 12.7091 814 121.375 949.554 473.896
1705 0 66.1828 12.6166 835 120.766 950.697 469.94
1706 0 71.1865 11.9967 854 120.922 951.441 469.032
1707 0 75.1841 14.1652 1065 114.035 950.739 466.088
1708 0 74.1401 11.5727 858 121.358 950.533 469.006
1709 0 77.1628 12.0913 933 119.439 950.171 467.305
1710 0 81.1771 13.1564 1068 115.925 950.514 465.865
1711 0 84.1257 13.0638 1099 111.076 951.034 464.929
1712 0 85.1265 13.0629 1112 110.339 950.823 461.474
1713 0 92.0563 13.3614 1230 109.574 951.278 461.053
1714 1 49.0134 11.5071 564 111.161 951.665 483.516
1715 0 49.0259 12.32 604 108.639 951.189 478.699
1716 0 51.0222 12.7004 648 110.034 951.989 480.173
1717 0 51.0591 11.5552 590 112.563 951.895 477.81
1718 0 51.0329 12.0511 615 111.876 951.756 478.276
1719 0 54.0578 11.9317 645 110.234 951.682 476.699
1720 0 58.0948 12.7722 742 107.313 951.539 474.67
1721 0 58.0857 13.2046 767 107.657 951.432 474.49
1722 0 59.0979 12.1832 720 111.769 951.175 474.619
1723 0 60.0957 12.9627 779 109.66 951.842 474.408
1724 0 63.0742 13.4128 846 107.853 951.191 473.305
1725 0 63.0962 11.7281 740 112.865 951.354 473.715
1726 0 66.0678 12.911 853 110.362 950.781 473.966
1727 0 69.1318 13.6985 947 108.114 951.042 472.03
1728 0 70.1552 13.6982 961 108.607 950.883 470.572
1729 0 74.1301 14.0429 1041 107.325 951.183 469.211
1730 0 75.157 14.2768 1073 108.268 952.144 467.135
1731 0 78.102 13.3031 1039 110.679 952.003 466.397
1732 0 80.1173 13.4428 1077 110.374 951.793 466.314
1733 0 82.1949 12.7502 1048 112.186 951.492 465.087
1734 0 86.1644 13.451 1159 110.205 950.947 464.997
1735 0 90.1736 13.5295 1220 106.9 950.608 461.633
1736 0 91.2132 13.7809 1257 107.403 950.467 458.588
1737 0 94.2352 13.5618 1278 108.574 950.275 458.03
1738 1 51.0331 11.1104 567 109.169 951.455 480.665
1739 0 53.1448 13.9242 740 106.849 950.626 480.201
1740 0 55.1412 14.6896 810 106.478 951.563 476.926
1741 0 56.0864 13.1583 738 109.267 950.804 477.253
1742 0 57.192 12.5717 719 109.928 951.218 477.712
1743 0 59.0648 13.1381 776 109.049 950.616 477.137
1744 0 63.0607 11.6079 732 111.101 950.982 475.384
1745 0 64.1194 13.6152 873 107.77 951.273 472.411
1746 0 66.1723 13.6764 905 107.684 950.549 472.527
1747 0 67.0786 12.7611 856 109.388 951.068 469.694
1748 0 71.1297 13.0325 927 108.442 950.893 469.026
1749 0 73.1164 12.8836 942 109.232 951.153 468.241
1750 0 77.1715 13.0618 1008 108.08 950.648 467.683
1751 0 79.1632 12.5437 993 110.401 950.219 466.306
1752 0 82.0706 12.672 1040 111.284 950.5 464.124
1753 0 83.1083 12.8627 1069 112.95 950.102 461.196
1754 0 88.1898 12.7566 1125 111.568 950.376 463.06
1755 0 90.2045 12.8042 1155 112.223 951.122 461.706
1756 0 93.2303 12.378 1154 114.092 951.33 459.783
1757 0 96.1364 12.9712 1247 112.856 951.458 459.457
1758 1 54.0305 12.9742 701 108.601 951.459 479.812
1759 0 53.1336 11.8757 631 94.2599 951.022 477.496
1760 0 55.0441 13.4983 743 109.719 950.135 478.713
1761 0 55.0564 13.1138 722 113.334 949.665 476.68
1762 0 59.0365 13.0428 770 113.306 950.29 476.826
1763 0 59.0866 12.8117 757 114.952 950.738 476.103
1764 0 62.0336 13.3798 830 113.457 950.457 475.89
1765 0 64.0793 12.9215 828 115.176 950.372 474.891
1766 0 66.0582 14.9111 985 111.885 950.623 473.703
1767 0 69.0351 14.5868 1007 112.88 950.139 473.141
1768 0 70.1817 13.1943 926 117.165 950.433 472.276
1769 0 73.0992 13.4748 985 115.53 950.623 469.921
1770 0 77.0783 14.375 1108 113.255 950.856 468.366
1771 0 78.1001 14.5967 1140 113.77 950.549 466.92
1772 0 82.0735 14.6332 1201 113.593 950.456 465.883
1773 0 85.1049 14.206 1209 114.644 951.227 464.525
1774 0 88.0541 13.628 1200 116.027 949.826 463.194
1775 0 92.0864 13.824 1273 116.335 949.854 460.567
1776 0 95.1205 14.3923 1369 114.912 950.473 459.993
1777 0 96.1866 13.5154 1300 118.438 949.419 457.619
1778 1 52.0534 12.0069 625 121.774 949.696 478.97
1779 0 54.0712 13.7411 743 116.957 950.365 477.295
1780 0 58.1704 13.8215 804 114.8 949.749 477.445
1781 0 57.1168 13.5687 775 116.485 950.063 475.034
1782 0 60.0802 13.8648 833 115.442 949.444 475.229
1783 0 63.134 12.9566 818 116.878 950.615 474.716
1784 0 63.128 13.3855 845 116.624 950.052 473.31
1785 0 68.1129 14.4319 983 113.207 949.976 469.119
1786 0 68.0945 13.3491 909 116.559 950.127 469.999
1787 0 72.199 14.4323 1042 112.559 950.191 469.325
1788 0 74.1396 12.8676 954 116.275 949.833 465.183
1789 0 77.076 13.7527 1060 112.813 950.019 465.35
1790 0 80.1038 12.7335 1020 115.406 949.976 464.108
1791 0 82.205 12.8581 1057 109.978 950.712 464.698
1792 0 86.071 12.2922 1058 111.137 949.668 460.103
1793 0 90.1083 12.5849 1134 110.639 950.391 461.612
1794 0 93.085 12.7196 1184 110.666 949.979 458.489
1795 0 96.1132 13.5153 1299 109.083 950.504 457.781
1796 0 96.0761 12.7503 1225 112.376 950.546 458.178
1797 1 51.1127 11.6018 593 111.862 951.212 479.57
1798 0 52.0942 12.2662 639 111.817 951.432 479.49
1799 0 53.0328 13.0862 694 110.519 951.239 479.736
1800 0 55.0252 13.9391 767 109.21 951.156 478.381
1801 0 56.0445 11.7407 658 113.453 951.524 476.711
1802 0 58.0834 11.1736 649 114.737 951.934 477.276
1803 0 61.079 12.0336 735 113.456 951.537 473.78
1804 0 62.0284 12.5749 780 113.458 951.042 474.254
1805 0 65.1093 12.0874 787 115.184 951.177 472.856
1806 0 66.131 13.1557 870 114.348 951.251 471.266
1807 0 67.093 11.5213 773 118.21 951.42 473.264
1808 0 71.0982 13.84 984 114.978 951.317 468.131
1809 0 74.0812 13.7417 1018 114.628 950.972 466.125
1810 0 78.1203 13.4024 1047 115.86 950.658 463.14
1811 0 82.2454 13.4476 1106 115.672 950.527 463.897
1812 0 83.1969 12.7889 1064 119.392 950.82 462.393
1813 0 84.1591 14.4251 1214 117.574 950.205 458.81
1814 0 87.1812 12.755 1112 121.862 950.836 462.551
1815 0 90.156 13.1106 1182 122.745 950.965 458.285
1816 0 92.329 13.8743 1281 121.709 950.448 456.532
1817 0 93.1747 12.6322 1177 125.608 950.353 456.732
1818 0 100.189 14.2929 1432 119.838 950.277 455.492
1819 0 103.213 14.1068 1456 121.294 950.263 451.514
1820 0 105.148 12.9721 1364 124.646 950.438 452.287
1821 0 110.221 14.0627 1550 121.829 950.408 449.302
1822 0 112.229 13.6595 1533 123.812 949.945 446.275
1823 1 59.1003 10.5922 626 120.609 950.297 476.641
1824 0 60.0861 12.0327 723 119.88 950.194 475.21
1825 0 63.0306 13.1523 829 116.934 950.758 474.789
1826 0 67.0478 13.7514 922 115.662 951.381 472.38
1827 0 66.1016 12.5413 829 121.107 950.946 472.262
1828 0 70.1193 12.4502 873 120.885 951.879 471.082
1829 0 71.1626 13.2092 940 121.061 951.915 466.51
1830 0 75.1354 14.028 1054 118.591 951.343 464.996
1831 0 77.1676 13.1791 1017 120.909 950.754 464.676
1832 0 79.1228 13.0304 1031 121.682 950.716 464.372
1833 0 83.1143 13.7281 1141 118.001 951.238 465.493
1834 0 84.1256 13.8127 1162 120.278 950.643 460.483
1835 0 85.0956 12.7504 1085 125.051 950.072 458.451
1836 0 90.2299 13.2883 1199 122.56 951.349 459.391
1837 0 91.1399 13.3311 1215 124.173 951.252 457.447
1838 0 95.1401 13.8638 1319 122.813 950.871 454.633
1839 0 98.214 14.1629 1391 121.678 951.78 454.756
1840 0 101.202 13.5472 1371 122.07 951.756 455.179
1841 0 104.201 13.7043 1428 123.84 951.306 451.546
1842 0 109.164 14.0247 1531 122.069 951.187 450.98
1843 1 56.0918 11.0533 620 120.506 951.915 478.608
1844 0 58.0239 11.3746 660 119.624 951.774 477.079
1845 0 63.024 11.6146 732 118.572 951.067 473.966
1846 0 64.0394 12.9452 829 113.918 950.949 473.949
1847 0 65.0573 12.097 787 117.61 951.281 471.97
1848 0 66.0603 11.7923 779 119.377 950.553 471.854
1849 0 69.0845 13.0999 905 116.549 951.103 468.294
1850 0 73.1078 11.9686 875 118.67 951.087 466.722
1851 0 77.1097 13.3576 1030 114.697 951.582 465.792
1852 0 80.1336 14.039 1125 113.813 951.603 465.619
1853 0 83.1302 13.0278 1083 117.115 951.921 465.434
1854 0 84.0701 12.8107 1077 118.686 951.663 461.604
1855 0 87.1561 13.298 1159 117.645 951.494 463.052
1856 0 90.0499 12.9373 1165 120.677 951.464 459.202
1857 0 94.2278 13.5098 1273 119.327 951.632 457.724
1858 0 97.1349 12.076 1173 122.89 950.858 457.147
1859 1 52.0755 11.7522 612 112.194 949.998 479.709
1860 0 56.0167 11.6751 654 114.11 951.364 477.96
1861 0 60.0694 13.501 811 107.445 951.321 473.707
1862 0 61.1719 13.9116 851 107.25 951.551 474.516
1863 0 61.0301 13.01 794 112.034 951.509 474.079
1864 0 65.0387 12.2389 796 112.802 951.364 473.124
1865 0 68.0281 12.3919 843 112.87 951.051 472.813
1866 0 68.0787 12.3827 843 116.35 951.87 471.133
1867 0 70.0838 12.5992 883 117.772 951.569 468.92
1868 0 73.1565 12.4664 912 118.181 950.668 465.565
1869 0 75.3078 12.5883 948 118.192 950.722 463.431
1870 0 77.2278 13.3113 1028 117.061 950.055 461.429
1871 0 80.1619 12.4997 1002 119.268 949.807 460.716
1872 0 82.1685 12.2553 1007 118.686 949.865 460.139
1873 0 84.2212 11.6598 982 119.511 949.035 459.257
1874 0 91.3906 13.1852 1205 114.974 949.438 456.988
1875 0 91.3772 12.0927 1105 118.419 949.526 456.948
1876 0 96.3707 12.4208 1197 117.504 949.547 455.482
1877 0 97.2687 11.3192 1101 121.065 949.183 452.348
1878 0 101.425 11.8709 1204 120.877 949.35 450.803
1879 1 50.1047 10.0988 506 116.093 950.047 476.872
1880 0 52.1947 11.0548 577 115.719 949.853 477.44
1881 0 55.2203 13.2741 733 110.318 949.696 474.402
1882 0 56.3288 13.4567 758 111.67 949.971 473.45
1883 0 55.2237 12.2773 678 116.935 949.768 471.743
1884 0 61.2864 12.7761 783 111.939 949.631 471.234
1885 0 61.3016 11.1906 686 116.841 949.628 469.459
1886 0 64.2875 11.1997 720 116.376 949.471 469.653
1887 0 65.2022 12.5609 819 114.662 949.355 468.225
1888 0 67.1403 11.7068 786 116.888 949.933 464.749
1889 0 66.218 11.734 777 117.632 950.246 466.431
1890 0 73.2728 12.7605 935 113.541 950.184 464.567
1891 0 73.231 11.6481 853 116.742 949.851 464.981
1892 0 77.2124 12.6275 975 113.899 949.802 464.225
1893 0 81.1513 11.6942 949 115.24 950.062 463.976
1894 0 84.2956 12.3969 1045 115.035 949.513 460.118
1895 0 88.1341 13.0143 1147 113.482 950.617 458.432
1896 0 89.0861 13.5487 1207 113.367 949.775 455.17
1897 0 92.2052 12.2227 1127 115.936 950.211 456.641
1898 0 95.2066 12.7932 1218 114.908 950.087 455.064
1899 0 99.1338 13.4868 1337 112.674 950.281 454.757
1900 0 100.244 13.2875 1332 114.287 950.488 450.984
1901 0 105.348 12.3211 1298 115.501 950.696 450.951
1902 1 56.0734 11.6276 652 111.406 950.206 473.268
1903 0 57.0284 11.3102 645 112.301 951.848 474.885
1904 0 61.1298 11.9909 733 110.581 949.989 471.704
1905 0 62.1908 11.4647 713 111.059 950.194 469.923
1906 0 64.1065 11.0909 711 110.796 949.931 469.812
1907 0 67.1146 12.7692 857 107.896 949.706 467.484
1908 0 69.1657 13.0701 904 107.02 949.931 466.772
1909 0 72.074 13.3751 964 105.405 951.002 469.232
1910 0 75.098 14.248 1070 103.338 951.038 464.6
1911 0 77.122 12.6942 979 107.81 951.646 462.858
1912 0 79.1048 12.9954 1028 107.499 952.334 462.907
1913 0 82.1046 13.3001 1092 106.505 951.949 462.428
1914 0 84.1258 12.3743 1041 109.869 951.573 460.056
1915 0 86.1794 12.9149 1113 108.384 950.528 459.066
1916 0 90.0723 13.1339 1183 108.11 951.453 455.974
1917 0 92.1044 11.2698 1038 112.846 951.302 456.795
1918 0 95.1045 13.0698 1243 110.094 951.004 452.924
1919 1 50.1624 11.5425 579 106.622 951.278 473.838
1920 0 51.1145 11.7775 602 100.505 951.94 472.244
1921 0 49.0409 10.3179 506 106.296 951.901 471.704
1922 0 52.1874 10.3665 541 106.591 951.697 468.205
1923 0 53.1851 10.8865 579 105.551 951.383 468.408
1924 0 58.1708 11.8616 690 107.67 951.599 474.828
1925 0 57.0864 10.0024 571 109.131 951.412 474.405
1926 0 58.1745 9.93562 578 108.905 951.379 473.498
1927 0 62.1272 11.4443 711 105.864 951.481 471.54
1928 0 64.1266 11.1654 716 104.929 951.644 472.804
1929 0 65.063 11.8347 770 104.688 951.942 470.558
1930 0 72.0914 12.7616 920 100.74 952.603 470.678
1931 0 72.1697 11.2235 810 107.346 952.291 469.056
1932 0 72.1002 10.7628 776 111.995 952.035 466.914
1933 0 78.125 11.904 930 108.354 951.946 466.123
1934 0 79.1563 10.4477 827 111.363 951.45 467.096
1935 0 82.097 11.4864 943 109.571 951.275 464.764
1936 0 83.119 13.0776 1087 107.926 952.358 463.715
1937 0 86.1399 11.8644 1022 111.204 951.914 462.659
1938 0 88.243 12.8395 1133 109.464 951.536 461.01
1939 0 90.0906 12.11 1091 113.14 951.638 456.818
1940 0 94.1861 11.2225 1057 114.282 951.62 457.459
1941 0 97.2872 12.2215 1189 112.78 950.782 456.742
1942 0 100.15 12.2017 1222 114.02 950.777 452.105
1943 0 104.23 13.2015 1376 111.349 951.238 452.294
1944 1 59.2333 12.5099 741 110.13 951.24 474.393
1945 0 63.1486 13.2228 835 107.339 951.544 473.219
1946 0 62.1597 12.0335 748 103.802 952.166 475.539
1947 0 60.1566 10.1734 612 109.141 951.655 473.093
1948 0 65.065 11.3579 739 108.015 951.277 472.367
1949 0 69.1486 12.4659 862 105.291 951.218 473.143
1950 0 66.071 10.852 717 112.523 950.753 468.226
1951 0 69.0231 10.8659 750 113.287 951.42 466.809
1952 0 73.0481 12.4439 909 109.358 950.495 468.33
1953 0 75.051 12.1517 912 111.52 951.103 467.454
1954 0 76.1297 11.3359 863 114.587 951.459 467.082
1955 0 78.1888 11.7024 915 115.569 950.492 464.082
1956 0 82.1072 11.1074 912 117.367 950.894 464.578
1957 0 85.1316 12.6158 1074 115.406 951.02 462.202
1958 0 88.1911 11.6338 1026 118.204 950.706 459.274
1959 0 91.1249 11.7202 1068 121.83 951.467 458.286
1960 0 95.1329 12.5929 1198 119.949 950.879 457.877
1961 0 97.1295 11.9325 1159 122.464 951.425 456.818
1962 0 100.128 12.3043 1232 123.791 951.765 454.381
1963 1 52.1258 8.7097 454 128.839 952.09 477.348
1964 0 56.2716 10.8936 613 126.695 951.892 475.222
1965 0 57.1776 11.578 662 125.35 951.849 473.355
1966 0 58.1495 11.8832 691 125.874 951.77 472.151
1967 0 60.2632 11.4332 689 124.017 951.534 472.74
1968 0 64.2664 12.526 805 120.707 951.565 471.112
1969 0 66.2206 12.0355 797 121.267 951.225 469.407
1970 0 69.1886 13.3837 926 119.253 951.29 469.703
1971 0 71.267 12.8671 917 119.631 951.288 466.578
1972 0 74.2466 13.4148 996 117.989 951.633 465.998
1973 0 75.1637 13.3309 1002 118.034 952.824 463.788
1974 0 77.0407 12.6167 972 119.288 952.698 463.317
1975 0 81.082 13.7762 1117 115.52 951.803 462.26
1976 0 81.1998 13.0788 1062 119.604 952.582 459.163
1977 0 84.1061 13.0193 1095 118.401 952.545 459.698
1978 0 87.2517 13.7419 1199 117.107 951.872 457.491
1979 0 90.1917 14.2918 1289 116.46 951.853 455.746
1980 0 90.1711 12.3432 1113 116.376 950.351 455.385
1981 0 94.1356 13.13 1236 115.442 951.212 450.87
1982 0 96.1944 12.6723 1219 116.866 951.069 453.864
1983 0 99.1292 12.4787 1237 118.405 951.193 454.017
1984 0 101.205 12.8156 1297 116.749 951.747 451.024
1985 0 105.145 12.7348 1339 118.321 951.712 449.633
1986 0 109.132 13.1859 1439 116.774 951.6 446.467
1987 0 113.272 12.7833 1448 117.917 951.731 446.901
1988 1 61.0657 11.1683 682 111.456 951.622 474.872
1989 0 64.1182 11.4944 737 111.483 951.174 470.415
1990 0 66.1199 11.5094 761 111.246 951.619 469.725
1991 0 68.1236 11.3617 774 112.96 952.027 469.248
1992 0 69.0806 12.0584 833 112.467 951.679 467.056
1993 0 73.0783 11.0977 811 113.417 951.506 465.821
1994 0 78.1096 13.353 1043 107.909 950.798 462.351
1995 0 81.143 12.6444 1026 110.527 951.499 462.713
1996 0 80.0954 12.5725 1007 112.938 952.328 462.037
1997 0 86.1622 13.3005 1146 110.374 952.061 462.204
1998 0 86.0492 11.3423 976 115.976 950.79 459.446
1999 0 92.1287 13.2641 1222 117.324 951.162 457.659
2000 0 92.1036 11.8888 1095 121.712 951.315 456.105
2001 0 94.238 13.2961 1253 115.744 951.809 452.928
2002 0 98.1256 12.6776 1244 119.197 951.379 453.616
2003 0 100.241 12.849 1288 118.562 951.675 450.872
2004 0 105.18 13.225 1391 117.201 951.526 447.795
2005 0 108.151 12.3346 1334 119.469 952.13 450.61
2006 0 112.271 12.6569 1421 119.277 952.014 447.322
2007 0 115.157 11.3671 1309 122.482 951.903 445.582
2008 1 63.0827 10.3832 655 118.528 951.982 469.015
2009 0 65.0669 12.1875 793 115.17 951.231 469.884
2010 0 68.1701 12.8795 878 110.74 950.116 465.622
2011 0 70.1089 13.3649 937 111.021 949.995 465.863
2012 0 73.0646 14.453 1056 108.423 950.058 462.804
2013 0 74.1063 12.5091 927 113.752 949.82 462.96
2014 0 75.1235 11.5144 865 117.742 950.203 461.622
2015 0 80.1198 14.1788 1136 111.567 950.146 458.55
2016 0 83.0836 13.2036 1097 114.866 950.308 458.191
2017 0 82.0954 12.4246 1020 117.861 949.464 458.56
2018 0 83.0723 11.7127 973 120.123 950.076 457.128
2019 0 87.0607 12.4281 1082 118.683 949.778 456.252
2020 0 93.0812 13.1498 1224 117.068 950.587 453.304
2021 0 93.2315 12.5494 1170 118.301 950.751 454.144
2022 1 50.1241 10.3543 519 115.79 950.89 474.247
2023 0 52.1105 10.4394 544 110.693 951.393 471.369
2024 0 54.1587 11.891 644 102.657 951.339 472.357
2025 0 54.1017 9.92575 537 108.497 951.417 468.816
2026 0 58.1405 11.3002 657 104.422 951.76 469.061
2027 0 59.2457 10.7012 634 106.481 952.339 468.94
2028 0 61.237 10.9411 670 105.684 951.675 467.29
2029 0 62.2233 10.7677 670 106.003 951.394 467.372
2030 0 67.1327 10.1888 684 107.488 951.577 465.458
2031 0 69.2394 11.2075 776 108.437 952.608 468.125
2032 0 71.1318 10.9093 776 109.04 952.245 465.091
2033 0 74.2511 10.249 761 107.781 951.757 465.145
2034 0 79.1434 12.0035 950 104.576 951.778 462.911
2035 0 83.2907 10.4814 873 107.244 950.997 462.133
2036 1 42.0485 9.08474 382 104.039 951.037 478.212
2037 0 47.0325 11.0987 522 99.113 951.904 475.927
2038 0 47.1063 11.7606 554 108.112 951.594 479.267
2039 0 49.1133 12.7868 628 103.279 951.61 478.543
2040 0 51.0917 11.4891 587 106.392 951.455 476.773
2041 0 54.1381 11.7477 636 105.594 951.593 477.382
2042 0 54.1897 10.8877 590 108.266 952.031 477.161
2043 0 54.1813 11.6461 631 106.746 951.777 474.307
2044 0 57.1424 12.7051 726 104.101 951.763 474.052
2045 0 60.1703 12.2486 737 104.066 951.802 474.554
2046 0 62.0821 12.0808 750 102.332 951.721 471.792
2047 0 62.1494 12.4539 774 101.751 952.333 471.317
2048 0 64.1405 12.3791 794 102.547 952.06 470.407
2049 0 61.0613 9.77705 597 109.494 951.772 469.908
2050 0 67.0505 12.0954 811 103.149 951.475 468.143
2051 0 69.1258 12.6002 871 102.344 951.013 466.963
2052 0 73.2382 11.9746 877 103.16 951.587 467.815
2053 0 75.2159 11.5534 869 104.331 951.48 466.09
2054 0 76.1851 11.9709 912 104.624 951.274 462.854
2055 0 78.1026 11.6129 907 106.374 952.04 463.993
2056 0 82.1186 11.3738 934 107.525 951.57 461.359
2057 0 84.1294 10.7929 908 109.448 951.757 462.296
2058 0 89.2515 12.504 1116 104.763 951.479 460.229
2059 0 90.1701 11.4118 1029 109.361 951.463 458.385
2060 1 49.1417 11.416 561 107.982 951.822 477.784
2061 0 50.064 11.1258 557 107.066 951.711 475.483
2062 0 53.1129 11.3343 602 108.105 952.035 478.037
2063 0 56.0931 11.8553 665 107.517 951.946 474.322
2064 0 58.1019 12.1166 704 106.99 951.388 474.366
2065 0 60.0983 11.6809 702 108.83 951.142 474.09
2066 0 60.1096 11.9615 719 110.476 951.658 472.078
2067 0 63.1303 12.0386 760 110.038 951.909 471.53
2068 0 64.1698 12.4825 801 110.861 951.322 469.834
2069 0 66.142 11.6114 768 112.695 951.305 469.25
2070 0 68.1513 11.9293 813 113.113 951.193 469.894
2071 0 70.1749 11.4713 805 114.202 951.21 467.036
2072 0 75.1419 12.8823 968 110.821 950.355 466.436
2073 0 75.222 11.9912 902 114.122 951.029 464.636
2074 0 79.1452 10.6892 846 117.05 950.871 465.817
2075 0 81.2365 10.7341 872 119.077 949.81 461.672
2076 0 82.1358 10.9209 897 120.494 950.195 459.059
2077 0 86.1257 10.9607 944 120.601 950.942 459.268
2078 0 92.1559 11.8061 1088 118.355 950.725 457.78
2079 0 95.2264 11.6984 1114 119.82 950.054 455.203
2080 0 97.2002 11.3168 1100 121.136 949.869 455.884
2081 1 53.0297 10.6921 567 114.772 951.282 477.245
2082 0 52.0895 9.82924 512 115.641 951.141 478.672
2083 0 53.1859 10.7735 573 111.965 950.297 476.298
2084 0 56.2322 11.7193 659 117.663 951.231 475.269
2085 0 58.0561 11.4372 664 116.886 951.342 474.357
2086 0 61.2558 13.4028 821 110.306 951.57 474.832
2087 0 62.1225 12.5558 780 114.347 951.383 472.732
2088 0 63.1139 12.01 758 116.482 951.425 473.33
2089 0 64.1352 13.1753 845 113.83 951.212 471.427
2090 0 68.2543 12.893 880 113.418 951.434 469.353
2091 0 70.1677 12.8834 904 111.139 950.627 469.418
2092 0 72.1457 11.8372 854 115.238 950.529 466.393
2093 0 75.0916 12.4515 935 112.824 950.692 465.756
2094 0 77.383 12.2378 947 113.906 950.869 464.791
2095 0 81.135 13.2618 1076 111.903 950.602 465.678
2096 0 82.1595 12.9991 1068 113.49 950.917 463.272
2097 0 85.2519 14.1815 1209 111.278 950.723 460.793
2098 0 89.1965 13.5992 1213 112.678 951.252 459.413
2099 0 91.1887 13.2911 1212 114.788 951.065 456.971
2100 0 93.1883 12.4801 1163 118.646 951.089 457.762
2101 0 97.3172 11.1286 1083 120.342 950.398 455.955
2102 0 102.255 12.4982 1278 117.418 951.167 453.811
2103 1 54.1042 11.367 615 116.41 951.463 477.826
2104 0 55.2041 11.5571 638 117.245 951.243 473.049
2105 0 55.104 10.8522 598 110.376 951.179 468.779
2106 0 55.0652 12.2219 673 108.826 950.001 467.532
2107 0 60.1482 11.6545 701 108.542 950.031 469.454
2108 0 64.1996 11.8692 762 106.573 950.667 467.392
2109 0 64.3289 12.3895 797 107.92 949.809 465.282
2110 0 67.1119 12.4419 835 107.087 950.503 465.902
2111 0 68.2219 11.0522 754 111.216 949.922 464.52
2112 0 70.1551 10.8902 764 113.164 950.463 461.999
2113 0 74.1988 11.1323 826 112.488 949.73 462.115
2114 0 78.3344 12.153 952 110.126 949.971 461.214
2115 0 79.2459 10.1456 804 116.239 949.947 460.068
2116 0 82.2964 13.0504 1074 111.414 950.723 457.991
2117 0 85.2285 11.346 967 122.711 951.196 459.893
2118 1 47.0652 10.2836 484 117.638 952.103 476.612
2119 0 51.2361 10.8322 555 108.072 951.638 475.204
2120 0 51.1 11.0959 567 106.815 950.351 475.554
2121 0 52.0733 12.1943 635 106.135 949.794 474.734
2122 0 54.0829 10.9831 594 108.71 949.369 472.766
2123 0 53.0815 11.2092 595 110.116 950.089 471.56
2124 0 58.1303 12.3 715 106.062 950.309 470.632
2125 0 58.0586 11.919 692 108.565 950.698 470.016
2126 0 61.08 12.0498 736 108.273 950.484 469.158
2127 0 63.1838 11.1421 704 110.541 950.01 468.491
2128 0 64.0526 12.1307 777 108.88 949.71 467.876
2129 0 66.0527 11.3848 752 111.577 950.164 465.594
2130 0 66.0843 11.3643 751 111.261 950.258 466.346
2131 0 70.134 12.0484 845 109.331 950.206 466.35
2132 0 73.236 12.2617 898 109.638 950.214 462.528
2133 0 77.1374 12.8213 989 107.913 950.027 462.642
2134 0 77.195 11.8661 916 111.619 950.078 461.358
2135 0 81.2154 12.0297 977 111.833 950.265 458.71
2136 0 84.3314 13.2335 1116 109.197 950.344 457.556
2137 0 87.3379 11.1979 978 116.617 950.759 457.501
2138 0 90.3593 12.2954 1111 123.047 950.41 455.208
2139 1 47.1103 9.61573 453 124.433 950.744 472.854
2140 0 51.0459 10.9313 558 119.228 951.708 474.102
2141 0 51.1263 10.7772 551 120.466 950.272 474.283
2142 0 52.0283 11.5898 603 119.687 949.657 472.282
2143 0 55.0364 11.6105 639 120.205 949.574 470.479
2144 0 56.0129 10.4976 588 123.903 949.454 469.522
2145 0 57.0193 12.4168 708 118.576 949.583 469.446
2146 0 59.0363 11.5353 681 119.994 949.49 470.231
2147 0 61.0428 12.3028 751 118.807 950.085 468.337
2148 0 61.0698 10.8728 664 125.203 948.95 466.027
2149 0 63.0968 12.5363 791 121.133 949.836 465.126
2150 0 68.0402 12.4926 850 119.318 949.622 461.926
2151 0 65.0504 12.3135 801 122.792 948.62 459.669
2152 0 73.0722 13.6577 998 117.615 949.276 460.725
2153 0 76.0709 12.4489 947 120.49 949.439 460.898
2154 0 77.1979 12.7206 982 121.056 949.581 458.502
2155 0 78.119 12.9674 1013 121.307 950.149 457.082
2156 0 80.1262 12.4179 995 123.759 949.537 455.602
2157 0 86.1518 14.1378 1218 117.2 950.011 453.499
2158 0 90.1872 14.0264 1265 117.339 949.296 453.472
2159 0 91.1466 13.001 1185 117.287 949.657 452.138
2160 0 92.1298 12.1133 1116 121.254 950.196 449.328
2161 0 98.1623 12.9276 1269 118.952 950.294 449.445
2162 1 54.0435 9.51085 514 119.405 950.403 472.473
2163 0 56.0781 11.4662 643 117.658 950.412 471.072
2164 0 57.0361 12.1151 691 117.44 949.289 469.124
2165 0 59.0553 11.4808 678 119.587 949.109 467.084
2166 0 61.0881 11.4097 697 120.072 948.399 465.907
2167 0 65.034 11.5017 748 118.199 948.594 467.111
2168 0 67.182 11.1488 749 119.49 949.212 464.031
2169 0 70.0908 12.4267 871 114.625 949.038 463.631
2170 0 71.099 12.4474 885 114.911 948.417 460.911
2171 0 76.1096 10.8396 825 117.474 949.05 461.657
2172 0 78.13 11.6473 910 116.024 949.286 460.042
2173 0 79.0853 12.24 968 114.682 949.684 458.75
2174 0 76.0826 10.5017 799 121.498 949.466 453.173
2175 0 84.0991 10.6065 892 119.707 949.214 454.694
2176 0 89.117 12.0852 1077 115.063 948.766 454.715
2177 1 46.1113 9.23851 426 110.732 949.352 473.735
2178 0 48.0461 10.5524 507 108.144 949.961 474.195
2179 0 52.0773 10.8493 565 110.457 949.494 475.101
2180 0 52.1065 12.6664 660 109.582 949.805 474.508
2181 0 53.1392 12.0438 640 111.391 949.706 474.328
2182 0 57.1359 11.8314 676 110.314 949.781 474.229
2183 0 60.193 11.5794 697 110.108 950.083 473.997
2184 0 60.164 12.9978 782 107.927 950.147 471.11
2185 0 62.1184 12.1059 752 109.87 949.75 471.161
2186 0 64.2028 12.4605 800 108.839 950.27 470.098
2187 0 66.1016 12.3598 817 108.756 949.245 469.696
2188 0 67.1705 11.9546 803 110.051 950.538 469.162
2189 0 69.2168 12.3669 856 110.204 949.856 469
2190 0 72.1159 12.9514 934 109.323 949.481 466.613
2191 0 76.1196 13.0715 995 107.194 949.861 467.059
2192 0 76.0588 12.6876 965 109.95 949.758 465.533
2193 0 78.0714 11.8097 922 111.975 949.281 465.716
2194 0 81.1341 13.7427 1115 107.929 949.514 463.678
2195 0 83.0754 13.8669 1152 108.372 949.597 463.008
2196 0 86.1043 13.8785 1195 109.234 950.035 459.774
2197 0 87.0913 13.3079 1159 111.561 950.456 459.385
2198 0 91.0364 13.5001 1229 110.955 949.669 456.742
2199 0 92.082 13.0862 1205 113.452 949.752 457.061
2200 0 94.1431 12.481 1175 115.547 950.188 456.013
2201 0 98.1211 14.3496 1408 111.196 949.559 453.748
2202 0 103.096 14.0936 1453 111.851 948.723 452.346
2203 0 104.178 13.5345 1410 113.917 949.487 452.894
2204 0 110.289 13.7367 1515 113.066 950.453 448.321
2205 0 112.315 13.48 1514 115.839 949.905 442.02
2206 1 61.1288 12.0729 738 113.955 950.854 467.003
2207 0 65.1287 12.8668 838 111.143 951.073 468.913
2208 0 65.2251 13.0318 850 108.659 950.431 466.904
2209 0 67.0973 12.3999 832 110.198 950.456 464.51
2210 0 70.0811 13.9125 975 106.379 950.891 465.664
2211 0 72.1676 14.1476 1021 107.664 951.051 463.25
2212 0 73.0739 12.8774 941 110.503 951.64 463.457
2213 0 77.1967 12.2674 947 111.923 950.792 461.261
2214 0 78.148 12.6427 988 111.728 950.746 461.822
2215 0 80.1821 12.6337 1013 112.806 950.885 458.519
2216 0 85.184 13.3241 1135 110.641 950.282 455.848
2217 0 87.1171 14.4289 1257 108.134 950.45 454.62
2218 0 90.101 13.9621 1258 109.033 950.27 455.015
2219 0 93.0988 13.8777 1292 109.652 950.085 450.509
2220 0 95.096 14.1436 1345 110.523 950.038 450.777
2221 0 98.2346 12.8773 1265 113.348 951.275 448.966
2222 0 102.117 13.2691 1355 115.863 950.734 436.156
2223 0 107.066 14.6919 1573 111.837 950.827 437.733
2224 0 111.137 14.2977 1589 112.036 950.982 437.42
2225 1 59.0899 9.79863 579 116.491 952.117 465.05
2226 0 56.0612 12.3615 693 109.834 951.349 466.316
2227 0 60.0418 12.3248 740 100.765 951.159 466.399
2228 0 62.092 10.7743 669 104.714 950.761 465.182
2229 0 64.0405 11.1492 714 103.683 950.794 464.258
2230 0 66.0787 13.4234 887 99.92 950.072 462.948
2231 0 69.1228 12.1378 839 102.653 950.492 461.541
2232 0 72.1027 12.7041 916 101.854 949.829 460.924
2233 0 72.0662 10.5875 763 107.716 949.9 459.341
2234 0 77.0806 11.8966 917 105.237 949.759 457.508
2235 0 78.0744 11.9886 936 105.761 950.007 455.434
2236 0 81.1843 11.9481 970 106.749 950.187 456.421
2237 0 84.2848 11.1764 942 109.316 950.458 455.701
2238 0 86.132 10.9019 939 111.012 950.337 453.153
2239 0 88.1651 10.5484 930 112.71 950.629 451.722
2240 0 91.1791 12.9635 1182 108.351 950.097 449.471
2241 0 95.1061 11.9235 1134 111.274 950.373 448.675
2242 0 98.0835 11.7043 1148 113.501 950.021 448.961
2243 0 103.179 12.9581 1337 115.478 949.511 449.325
2244 0 107.162 13.4189 1438 112.596 949.166 444.844
2245 0 107.103 13.2583 1420 114.849 950.406 443.682
2246 0 111.141 11.8768 1320 117.78 950.276 441.73
2247 0 115.222 12.6104 1453 116.327 949.896 440.443
2248 1 60.1009 9.78355 588 110.651 949.457 465.641
2249 0 62.123 10.946 680 108.572 949.772 464.278
2250 0 68.0885 12.5719 856 113.35 949.681 469.861
2251 0 71.0702 12.4665 886 113.997 949.173 466.57
2252 0 70.1037 11.1121 779 117.381 949.558 466.47
2253 0 74.1307 11.7091 868 115.185 949.115 464.73
2254 0 79.1329 11.6639 923 114.151 949.847 465.84
2255 0 80.1259 12.0061 962 115.527 949.31 461.818
2256 0 81.0838 11.0873 899 118.883 950.436 461.201
2257 0 83.1511 12.3751 1029 116.091 949.565 461.97
2258 0 90.153 12.4899 1126 114.004 950.08 460.13
2259 0 91.1599 12.6591 1154 114.912 949.703 461.804
2260 0 93.23 11.4984 1072 118.851 949.586 459.187
2261 0 96.1467 11.9089 1145 116.957 949.324 461.546
2262 0 96.14 12.1073 1164 118.973 948.941 458.586
2263 0 99.0993 12.2402 1213 120.139 948.848 455.098
2264 0 99.1817 11.1714 1108 126.794 947.936 451.967
2265 0 100.153 10.9832 1100 128.115 948.243 448.879
2266 1 110.194 13.1132 1445 119.975 947.478 456.639
2267 0 112.084 11.9286 1337 124.251 947.47 453.85
2268 0 119.119 13.3648 1592 120.279 947.317 452.728
2269 0 122.174 13.1779 1610 117.422 948.14 453.275
2270 1 66.1561 11.5182 762 112.621 948.129 478.241
2271 0 71.0463 13.3434 948 111.893 948.238 479.959
2272 0 71.1072 11.5178 819 118.974 947.57 477.023
2273 0 74.1999 12.4933 927 116.192 946.9 479.862
2274 0 76.1643 11.6853 890 117.79 946.183 480.452
2275 0 79.0602 12.4715 986 115.553 945.647 478.022
2276 0 78.2065 11.8405 926 120.244 945.138 476.035
2277 0 84.0764 13.9635 1174 114.06 945.235 476.083
2278 0 84.071 12.7273 1070 119.981 945.478 473.821
2279 0 85.1192 12.0654 1027 124.068 945.274 472.262
2280 0 88.0595 12.696 1118 122.032 944.288 471.355
2281 0 91.0908 12.1637 1108 124.181 944.415 469.851
2282 0 93.1108 12.8557 1197 122.693 944.022 469.859
2283 0 94.1636 12.1384 1143 125.117 944.409 470.272
2284 0 97.0885 11.7213 1138 127.73 943.957 466.009
2285 0 99.0809 12.0205 1191 128.089 943.406 463.648
2286 0 101.056 11.6174 1174 128.224 944.135 463.813
2287 0 105.234 12.0683 1270 125.579 944.116 461.618
2288 0 108.148 12.2795 1328 124.301 943.385 461.316
2289 0 110.113 11.2884 1243 125.828 943.78 461.352
2290 0 115.143 12.7494 1468 123.033 943.593 458.926
2291 0 119.082 11.9498 1423 124.729 944.101 460.157
2292 0 126.11 12.727 1605 122.655 944.193 456.727
2293 1 68.0403 10.8612 739 123.241 944.398 481.555
2294 0 70.0604 11.747 823 120.707 945.95 481.757
2295 0 75.0232 11.8097 886 120.195 945.446 479.497
2296 0 76.0295 12.0085 913 118.659 945.392 479.542
2297 0 77.0422 10.7474 828 122.704 945.628 477.797
2298 0 82.0563 13.2592 1088 114.805 945.601 476.448
2299 0 86.0455 11.8891 1023 116.654 945.464 475.6
2300 0 87.052 11.6597 1015 117.71 945.833 471.095
2301 0 87.158 11.3702 991 116.836 943.868 471.923
2302 0 89.1103 10.8629 968 118.93 943.786 465.19
2303 0 95.1313 11.3212 1077 116.329 943.702 468.638
2304 0 99.2379 13.1099 1301 111.145 944.65 464.491
2305 0 98.2436 11.0949 1090 115.854 943.706 461.51
2306 0 101.19 11.4932 1163 114.667 944.424 462.362
2307 0 107.185 12.3432 1323 111.344 944.602 464.599
2308 0 108.175 9.99305 1081 117.372 943.653 460.453
2309 0 112.224 11.3167 1270 114.774 943.387 456.287
2310 0 117.235 11.3362 1329 113.964 943.55 458.1
2311 1 64.1467 10.6007 680 104.556 944.704 482.428
2312 0 68.1869 10.8232 738 103.743 944.737 481.237
2313 0 70.1611 10.0768 707 111.43 943.788 480.185
2314 0 75.1603 10.431 784 108.413 944.864 479.917
2315 0 78.1591 9.99243 781 110.059 943.983 476.206
2316 0 80.1143 11.0218 883 108.641 944.345 474.89
2317 0 82.189 11.1937 920 107.404 944.47 474.976
2318 0 82.1783 10.2703 844 109.983 943.483 473.049
2319 0 79.1393 8.09965 641 116.081 943.292 469.07
2320 0 87.1818 7.49009 653 117.364 943.844 466.692
2321 0 92.185 9.53518 879 113.536 943.836 465.896
2322 0 92.2019 9.29482 857 115.084 944.012 465.263
2323 0 96.2501 10.161 978 113.504 944.588 464.651
2324 0 101.134 11.994 1213 110.072 945.434 464.329
2325 0 104.205 11.036 1150 111.846 944.694 464.109
2326 0 108.199 10.1573 1099 112.878 944.895 462.754
2327 0 108.242 10.4765 1134 114.876 945.763 455.801
2328 0 110.214 11.1782 1232 114.011 945.248 457.969
2329 0 115.344 10.8545 1252 116.184 945.09 451.962
2330 0 119.221 10.7783 1285 115.771 944.907 453.574
2331 0 123.31 10.5101 1296 116.22 945.44 454.156
2332 1 66.1341 10.4485 691 110.751 945.912 477.408
2333 0 72.1867 11.6365 840 106.696 946.063 476.693
2334 0 74.097 11.6874 866 108.238 945.423 476.012
2335 0 77.0862 12.285 947 107.609 945.822 472.322
2336 0 73.2317 11.0471 809 110.978 945.056 470.105
2337 0 78.1172 11.3675 888 109.563 945.838 471.902
2338 0 81.2294 10.8212 879 110.542 946.284 471.346
2339 0 85.1947 10.8223 922 111.206 946.349 468.597
2340 0 87.1747 11.0468 963 113.346 945.87 463.222
2341 0 90.3051 10.7414 970 113.759 945.746 466.648
2342 0 92.3212 11.5141 1063 113.937 945.391 463.031
2343 0 95.2177 11.815 1125 114.127 945.116 462.265
2344 0 98.1958 11.9761 1176 115.313 945.191 459.616
2345 0 101.264 10.6356 1077 118.175 945.734 459.698
2346 1 56.0983 10.4281 585 117.036 946.414 478.595
2347 0 56.0871 11.0186 618 117.469 947.061 477.731
2348 0 56.1339 10.279 577 113.135 946.076 477.461
2349 0 60.207 12.1913 734 107.985 946.342 477.668
2350 0 61.1409 10.8929 666 111.851 946.321 476.769
2351 0 60.0974 10.9655 659 113.111 947.214 476.772
2352 0 64.1061 10.3266 662 115.754 946.923 473.412
2353 0 64.1593 10.2713 659 117.967 946.713 471.665
2354 0 68.0754 11.4285 778 112.983 946.334 473.737
2355 0 69.1444 11.8158 817 114.215 946.672 471.082
2356 0 72.0977 12.1779 878 113.05 946.517 470.679
2357 0 74.1045 9.90493 734 120.222 946.871 467.065
2358 0 75.1301 10.8612 816 118.787 947.051 465.902
2359 0 79.1698 11.7469 930 116.181 946.947 465.568
2360 0 82.1286 12.0664 991 116.498 947.324 464.73
2361 0 83.1705 11.6989 973 120.808 947.822 459.41
2362 0 85.1001 11.1986 953 122.232 947.687 458.39
2363 0 88.2277 11.6857 1031 119.606 947.548 458.274
2364 0 91.1265 12.8064 1167 117.436 947.744 456.674
2365 0 93.1216 11.9736 1115 119.12 948.116 456.312
2366 0 96.1292 12.2231 1175 118.287 947.654 454.363
2367 0 96.0981 10.9784 1055 122.844 947.178 450.219
2368 0 101.21 10.9278 1106 121.733 947.36 451.514
2369 0 105.174 11.5713 1217 120.016 947.003 451.906
2370 0 108.142 10.292 1113 122.934 947.677 450.032
2371 0 113.101 11.7151 1325 119.311 947.829 448.722
2372 0 114.188 11.0344 1260 122.15 947.405 448.957
2373 1 68.1096 11.8632 808 116.489 948.032 466.67
2374 0 69.1826 10.6096 734 118.879 947.685 469.429
2375 0 71.1118 11.728 834 117.679 947.339 464.044
2376 0 75.1066 13.3144 1000 110.414 948.256 466.956
2377 0 75.0559 11.2849 847 117.267 947.741 465.084
2378 0 77.0313 12.3067 948 115.366 948.18 465.578
2379 0 81.0566 13.324 1080 114.424 948.782 463.789
2380 0 83.0693 12.0261 999 118.093 948.749 460.886
2381 0 83.0927 11.0238 916 122.413 948.559 457.869
2382 0 88.17 12.5099 1103 118.463 948.824 458.519
2383 0 91.1993 12.215 1114 119.715 949.583 456.892
2384 0 93.0436 12.1878 1134 120.787 949.82 455.826
2385 0 97.0621 12.9917 1261 118.975 949.83 455.738
2386 0 97.0621 12.9711 1259 153.268 948.857 455.584
2387 0 101.142 12.1315 1227 124.414 949.464 451.925
2388 0 106.191 11.8655 1260 124.725 949.362 452.024
2389 0 108.239 13.1468 1423 123.972 949.306 446.927
2390 0 111.114 12.6086 1401 125.732 949.959 447.373
2391 0 114.12 11.742 1340 128.851 950.19 444.021
2392 0 119.199 12.9699 1546 125.314 950.292 445.653
2393 0 121.11 12.2946 1489 127.653 950.112 443.958
2394 1 70.0727 11.2455 788 121.991 949.777 466.735
2395 0 71.1077 11.3208 805 118.062 949.497 468.231
2396 0 75.1347 11.14 837 113.852 949.661 468.867
2397 0 75.1341 10.7009 804 117.524 949.704 464.469
2398 0 76.1102 10.5111 800 116.33 949.329 467.279
2399 0 79.1257 10.3001 815 117.423 949.542 464.587
2400 0 82.1358 9.42342 774 120.252 949.078 462.761
2401 0 86.1292 11.2854 972 115.713 949.002 461.809
2402 0 87.1117 11.5025 1002 116.457 949.653 461.138
2403 0 92.2065 10.368 956 119.994 949.561 458.756
2404 0 94.2621 11.7332 1106 117.547 949.108 455.611
2405 0 95.2148 9.66236 920 121.315 949.339 456.479
2406 0 98.1458 10.0055 982 121.492 949.081 455.738
2407 0 100.241 10.1755 1020 122.24 949.708 452.179
2408 0 105.205 10.9976 1157 121.914 949.609 450.239
2409 0 110.273 10.8276 1194 121.492 949.419 450.949
2410 0 112.307 11.5042 1292 122.046 949.368 447.024
2411 0 114.336 11.2039 1281 124.835 949.808 442.702
2412 0 119.409 11.247 1343 124.441 949.036 443.119
2413 0 123.539 10.1183 1250 126.483 948.681 441.726
2414 0 129.284 10.9913 1421 124.004 948.367 441.621
2415 0 129.341 10.6386 1376 121.458 948.778 439.217
2416 0 132.283 10.984 1453 122.824 948.237 436.361
2417 0 137.293 10.5249 1445 124.419 948.854 429.728
2418 0 139.334 10.0119 1395 127.284 949.175 426.002
2419 0 147.394 11.2013 1651 122.937 949.019 427.917
2420 0 151.396 10.7731 1631 124.876 948.71 425.88
2421 0 154.317 9.96652 1538 126.313 949.036 426.808
2422 1 86.1537 8.22948 709 117.217 949.355 456.677
2423 0 86.2911 8.12367 701 119.17 949.355 449.676
2424 0 91.2189 8.95648 817 117.33 949.442 451.255
2425 0 98.2315 9.70157 953 113.054 949.618 458.059
2426 0 97.1835 10.1046 982 115.019 948.925 451.886
2427 0 99.2004 9.49593 942 116.785 948.965 449.076
2428 0 103.329 9.7552 1008 116.814 948.926 447.449
2429 0 104.271 9.86853 1029 115.208 950.003 452.339
2430 0 108.343 8.90693 965 119.601 948.829 444.861
2431 0 112.257 9.91475 1113 118.11 948.783 445.444
2432 0 116.276 10.0708 1171 118.575 949.319 444.955
2433 0 120.396 9.89239 1191 119.065 948.798 444.834
2434 0 123.38 10.3501 1277 119.005 948.682 441.108
2435 0 120.38 7.79197 938 123.24 948.838 434.884
2436 0 127.384 8.88653 1132 120.902 948.624 433.428
2437 0 131.317 9.88448 1298 118.68 949.219 432.706
2438 0 135.363 9.8254 1330 119.595 949.077 428.303
2439 0 140.192 9.08751 1274 120.742 948.572 430.137
2440 0 143.413 10.3268 1481 120.628 949.652 426.219
2441 0 149.299 10.0938 1507 122.216 949.464 424.658
2442 1 86.1295 9.50894 819 109.696 949.722 461.624
2443 0 89.2058 9.75272 870 110.555 949.385 458.644
2444 0 90.1552 8.05278 726 115.303 949.866 458.045
2445 0 93.3014 8.91734 832 116.03 949.233 454.337
2446 0 97.2637 9.67473 941 113.174 949.807 458.358
2447 0 99.1584 10.7706 1068 114.439 949.76 450.617
2448 0 102.188 10.5003 1073 115.513 949.293 451.076
2449 0 106.298 10.32 1097 116.34 949.576 450.908
2450 0 108.153 10.6701 1154 117.538 948.893 448.419
2451 0 111.247 10.5172 1170 118.571 949.197 446.717
2452 0 114.161 11.0458 1261 120.098 949.3 445.936
2453 1 66.0735 10.5943 700 110.986 949.524 471.019
2454 0 68.1122 11.2608 767 109.205 949.854 471.786
2455 0 68.0969 11.1459 759 111.17 949.46 470.917
2456 0 69.1388 10.2547 709 122.987 948.254 468.798
2457 0 72.2143 10.3442 747 122.216 948.64 468.025
2458 0 77.1517 10.6154 819 120.217 949.3 468.2
2459 0 78.1823 11.3325 886 120.177 948.631 464.516
2460 0 78.2668 11.0903 868 121.202 949.069 463.902
2461 0 82.2398 10.6639 877 121.525 949.619 462.838
2462 0 85.3105 10.8779 928 120.111 948.982 462.994
2463 0 85.3066 10.7377 916 121.745 949.07 460.635
2464 0 88.3287 11.9553 1056 118.562 949.544 459.482
2465 0 89.208 10.6717 952 120.931 949.828 458.996
2466 0 92.2861 11.3668 1049 118.819 949.599 459.485
2467 0 96.2325 10.9319 1052 120.599 949.842 457.49
2468 1 179.488 12.3797 2222 128.731 949.142 413.74
2469 0 184.458 13.6183 2512 126.676 948.412 409.278
2470 0 193.703 12.5811 2437 129.372 948.394 407.005
2471 0 199.597 11.9941 2394 130.106 948.935 405.185
2472 0 203.531 12.3568 2515 128.466 949.083 404.448
2473 0 211.687 13.3688 2830 126.118 948.589 400.219
2474 0 217.826 11.8627 2584 130.059 949.156 394.789
2475 1 172.423 10.944 1887 125.86 949.436 420.52
2476 1 122.245 11.4606 1401 121.207 949.368 443.792
2477 0 126.387 9.92984 1255 128.484 949.415 440.22
2478 0 133.26 11.1962 1492 124.107 949.176 440.434
2479 1 71.0218 11.8978 845 114.982 949.849 467.849
2480 0 73.0948 11.7519 859 114.326 949.26 468.695
2481 0 75.1012 12.0105 902 114.164 949.462 467.17
2482 0 77.0404 11.6043 894 114.6 949.058 464.74
2483 0 81.0341 12.3528 1001 112.759 948.985 464.221
2484 0 79.1505 10.2337 810 118.668 948.942 463.022
2485 0 80.0714 9.76628 782 117.334 949.335 465.991
2486 0 88.1126 12.2117 1076 112.521 949.623 459.012
2487 0 88.1041 10.5216 927 115.587 949.041 462.163
2488 0 93.1154 11.6737 1087 112.83 948.886 458.721
2489 0 94.0682 10.7582 1012 113.488 948.837 459.384
2490 0 92.1699 9.39569 866 117.527 948.152 455.977
2491 0 100.156 10.933 1095 112.909 948.595 452.973
2492 0 104.121 10.7279 1117 111.09 948.564 451.897
2493 1 56.0361 10.172 570 111.702 948.867 473.249
2494 0 58.0252 10.5299 611 113.347 949.414 469.869
2495 0 61.129 13.0216 796 109.951 947.712 468.849
2496 0 61.1318 12.2031 746 112.349 948.933 467.249
2497 0 64.0949 11.1085 712 114.205 948.767 465.119
2498 0 66.0664 11.0646 731 113.936 948.848 466.389
2499 0 66.1433 10.8703 719 111.075 949.901 468.446
2500 0 67.0863 10.8666 729 111.797 950.59 468.033
2501 0 71.0584 11.4694 815 110.958 950.836 467.153
2502 0 72.0801 12.278 885 110.085 949.997 466.132
2503 0 74.0745 9.58494 710 114.875 950.652 467.608
2504 0 83.0934 10.9756 912 112.008 949.897 463.041
2505 0 81.1602 11.237 912 112.629 950.014 462.897
2506 0 84.147 10.7669 906 113.747 950.465 460.954
2507 0 86.1333 12.0163 1035 112.665 950.998 461.08
2508 0 89.1251 11.669 1040 115.514 950.966 458.224
2509 0 91.1133 11.59 1056 115.511 950.82 458.62
2510 1 47.1272 10.1852 480 116.987 951.223 475.004
2511 0 51.0855 10.8837 556 111.897 950.736 475.41
2512 0 52.0508 10.2976 536 112.2 950.653 474.944
2513 0 52.0271 10.8021 562 111.568 950.868 474.591
2514 0 55.0436 12.3357 679 107.847 951.057 474.704
2515 0 54.0839 10.3913 562 112.217 950.936 474.911
2516 0 60.1027 10.6817 642 110.394 950.735 472.315
2517 0 57.0596 10.1999 582 114.586 950.246 470.215
2518 0 60.0322 11.3273 680 111.872 949.971 471.393
2519 0 63.0468 10.4526 659 112.945 950.967 471.385
2520 0 63.0328 10.5659 666 113.024 950.965 468.739
2521 0 65.0168 11.1971 728 111.071 951.184 470.709
2522 0 66.0644 11.398 753 110.708 951.15 469.845
2523 0 69.0516 12.0055 829 110.27 951.375 466.669
2524 0 72.0514 10.3537 746 113.946 951.536 465.535
2525 0 72.064 11.018 794 113.082 951.101 464.435
2526 0 75.0992 11.345 852 114.401 951.114 462.732
2527 0 77.1029 10.3368 797 115.069 951.961 463.375
2528 0 78.118 11.7003 914 112.834 951.443 461.867
2529 0 80.0661 9.57958 767 117.359 951.309 459.03
2530 0 86.0901 11.244 968 112.694 951.232 460.608
2531 0 88.0959 10.8291 954 115.191 951.091 457.633
2532 0 91.1367 11.6089 1058 114.819 949.698 454.325
2533 0 95.0582 11.3825 1082 115.662 951.157 452.774
2534 1 51.0491 10.8523 554 114.197 951.89 472.861
2535 0 56.0893 11.6778 655 113.223 951.041 473.261
2536 0 57.1104 11.9068 680 114.203 950.804 471.854
2537 0 57.0585 11.2867 644 112.098 951.182 472.823
2538 0 58.0574 11.6953 679 111.91 951.364 471.844
2539 0 60.1278 11.4756 690 112.777 950.216 470.961
2540 0 60.1278 11.5255 693 129.54 949.202 470.727
2541 0 65.1053 11.4891 748 113.997 950.372 467.02
2542 0 66.0934 10.7726 712 115.757 950.468 467.086
2543 0 70.046 13.3055 932 109.476 950.486 465.813
2544 0 69.1186 11.5309 797 116.009 950.572 464.322
2545 0 71.1313 12.0903 860 116.502 950.441 463.262
2546 0 76.1716 12.8526 979 115.507 950.249 463.769
2547 0 75.1822 12.2635 922 119.04 950.542 460.992
2548 0 78.161 12.7685 998 116.705 950.823 459.799
2549 0 81.0911 12.6401 1025 117.564 950.833 457.667
2550 0 84.2255 12.4903 1052 117.691 950.548 455.919
2551 0 87.1136 12.0303 1048 118.832 950.948 454.897
2552 0 89.1281 12.4652 1111 117.59 950.019 455.185
2553 0 92.1445 12.0463 1110 118.929 950.329 452.939
2554 0 96.1434 11.5661 1112 119.135 950.031 452.515
2555 0 98.0841 12.0917 1186 118.584 950.726 452.666
2556 0 102.067 12.5408 1280 116.802 950.468 451.283
2557 0 105.174 12.351 1299 118.202 950.851 449.751
2558 0 106.139 12.804 1359 118.177 950.691 447.341
2559 0 108.164 11.8431 1281 121.42 950.208 444.12
2560 0 114.121 12.6708 1446 118.12 951.036 445.991
2561 0 116.193 12.2124 1419 120.517 950.943 442.584
2562 0 123.204 10.3406 1274 123.042 950.929 440.549
2563 0 124.18 11.8457 1471 119.774 950.417 441.424
2564 0 127.209 10.9819 1397 123.078 950.888 437.561
2565 0 132.186 12.0663 1595 121.489 951.327 433.94
2566 0 134.299 9.91075 1331 125.25 950.385 433.744
2567 1 77.148 11.0437 852 114.379 949.835 460.138
2568 0 79.2145 12.2831 973 111.19 950.207 460.239
2569 0 80.0945 11.8111 946 117.059 950.298 458.946
2570 0 82.1347 11.6881 960 118.136 950.103 454.132
2571 0 86.2285 11.5043 992 116.81 950.276 456.372
2572 0 87.1182 11.4672 999 117.765 950.236 453.729
2573 0 91.1231 10.8534 989 118.272 950.212 453.007
2574 0 95.1517 11.0981 1056 117.33 950.466 452.008
2575 0 95.1954 11.1455 1061 118.799 950.889 450.187
2576 0 98.1876 11.1725 1097 115.852 951.114 449.392
2577 0 103.402 12.611 1304 114.183 950.389 444.967
2578 0 106.247 10.9556 1164 117.527 950.619 444.635
2579 0 111.247 10.9756 1221 116.518 949.961 443.971
2580 1 194.357 7.82581 1521 127.028 950.205 413.763
2581 1 118.219 10.9458 1294 118.661 950.204 439.237
2582 0 121.456 10.333 1255 121.086 949.928 435.728
2583 0 126.215 11.6785 1474 119.93 949.868 430.981
2584 0 129.305 12.6136 1631 120.073 950.094 434.104
2585 0 134.349 11.6711 1568 123.029 949.673 431.385
2586 1 54.2741 10.3364 561 108.888 950.037 471.287
2587 0 55.1488 9.28397 512 112.314 949.875 470.035
2588 0 54.098 9.64916 522 113.925 950.96 469.308
2589 0 57.1322 9.1542 523 116.69 950.621 467.637
2590 0 59.1291 9.43698 558 117.254 950.222 465.636
2591 0 61.1581 9.827 601 116.697 950.471 465.013
2592 0 62.2434 11.0695 689 113.804 951.147 466.374
2593 0 64.247 9.93043 638 117.097 950.287 465.915
2594 0 65.2827 10.0486 656 117.787 950.524 464.474
2595 0 66.236 9.43596 625 118.878 950.976 465.058
2596 0 69.1463 10.2102 706 118.095 950.958 463.272
2597 0 73.1538 11.8654 868 113.623 951.312 464.471
2598 0 74.2067 11.0637 821 115.406 950.879 463.904
2599 0 74.1381 11.9372 885 116.076 951.304 462.131
2600 0 73.1107 10.2995 753 120.074 951.457 461.673
2601 0 79.1418 10.8413 858 120.353 951.112 456.096
2602 1 219.44 11.7389 2576 135.358 950.64 380.782
2603 1 87.1536 11.3248 987 119.935 951.321 452.578
2604 0 89.0791 12.5394 1117 116.406 951.422 455.385
2605 1 50.037 10.6121 531 113.386 951.729 471.934
2606 0 51.0261 10.328 527 114.378 951.583 471.326
2607 0 52.0448 11.394 593 112.42 951.877 471.755
2608 0 54.0339 9.82716 531 117.872 952.068 469.458
2609 0 55.0766 10.095 556 116.531 951.39 471.011
2610 0 58.1494 10.903 634 115.256 951.167 468.677
2611 0 61.1104 11.3892 696 113.76 951.603 468.56
2612 0 64.0409 10.6338 681 116.26 951.151 468.888
2613 0 65.0663 11.373 740 115.295 951.758 468.174
2614 0 66.074 12.6525 836 113.428 951.703 466.355
2615 0 68.1053 10.9096 743 117.377 952.252 465.129
2616 0 70.0591 12.047 844 114.791 952.222 466.364
2617 0 73.0795 11.8091 863 116.214 951.385 464.119
2618 0 76.1805 12.8379 978 114.862 951.025 461.848
2619 0 76.0464 13.2551 1008 115.194 951.357 462.037
2620 0 77.146 11.8736 916 119.064 951.233 461.118
2621 0 82.124 12.9438 1063 116.135 950.72 461.452
2622 0 83.1523 12.7718 1062 118.732 950.658 455.675
2623 0 88.1795 13.1323 1158 117.465 950.83 456.745
2624 0 92.1462 12.7406 1174 116.454 950.633 459.254
2625 0 95.1277 13.2454 1260 116.427 949.762 455.799
2626 0 97.1462 11.8584 1152 119.892 949.794 453.876
2627 1 54.0349 11.7517 635 115.076 949.31 476.326
2628 0 57.0332 12.2911 701 112.989 948.486 475.3
2629 0 57.0571 9.83225 561 113.048 949.604 475.718
2630 0 58.0613 11.8668 689 109.341 949.47 475.181
2631 0 59.0909 10.4077 615 112.094 950.19 477.463
2632 0 60.059 11.2556 676 111.808 949.643 473.939
2633 0 62.0884 10.9682 681 111.846 949.424 474.49
2634 0 61.027 11.2737 688 111.718 949.719 475.176
2635 0 67.1482 10.3651 696 114.181 949.391 472.599
2636 0 68.0739 11.6785 795 111.903 950.146 470.706
2637 0 68.0739 11.5757 788 125.03 950.143 470.708
2638 0 71.1526 10.4986 747 115.378 949.948 469.032
2639 0 73.1965 11.0388 808 114.407 949.427 468.989
2640 0 74.1144 10.6322 788 115.673 949.438 468.265
2641 0 76.1789 12.5494 956 112.703 949.615 463.446
2642 0 81.1013 12.1206 983 112.003 948.811 465.226
2643 0 81.24 11.0906 901 115.42 949.236 461.997
2644 0 83.151 10.4148 866 116.136 949.224 464.606
2645 0 88.1067 11.1796 985 115.97 949.356 458.793
2646 0 90.1565 11.0696 998 115.852 948.73 459.072
2647 0 92.2512 12.2708 1132 114.566 948.464 456.175
2648 0 92.2863 12.277 1133 126.394 948.472 456.076
2649 0 98.121 11.761 1154 116.092 948.451 456.938
2650 0 99.2426 11.4165 1133 116.447 948.47 454.104
2651 0 102.196 10.1178 1034 120.187 948.926 452.115
2652 0 102.214 11.4564 1171 118.703 949.127 450.68
2653 1 59.1137 10.2514 606 117.449 948.444 471.282
2654 0 61.0583 12.4963 763 112.882 948.522 469.64
2655 0 65.1447 11.8352 771 114.351 948.335 471.057
2656 0 63.1536 10.8782 687 110.952 948.079 469.01
2657 0 66.138 11.9598 791 108.558 948.504 469.66
2658 0 69.162 10.2802 711 112.485 948.522 466.775
2659 0 72.0529 7.57777 546 115.698 949.11 468.85
2660 0 74.119 8.12207 602 113.568 949.13 468.784
2661 0 76.042 9.28434 706 112.697 948.112 465.834
2662 0 78.1447 12.029 940 108.422 947.971 460.973
2663 0 82.1325 9.77689 803 110.462 947.874 465.518
2664 0 81.1181 9.72656 789 111.034 948.039 463.152
2665 0 85.0972 10.3999 885 111.064 947.901 460.223
2666 0 90.2873 10.7435 970 110.118 948.442 457.351
2667 0 92.1179 8.89078 819 111.962 948.153 459.474
2668 0 95.1605 11.2442 1070 108.8 948.479 455.535
2669 0 100.223 11.0753 1110 109.07 948.732 452.713
2670 0 102.098 9.62804 983 111.837 948.568 451.76
2671 0 105.132 10.1301 1065 111.93 948.767 448.131
2672 0 108.13 10.4967 1135 112.204 949.167 448.352
2673 0 109.251 9.75734 1066 114.45 948.936 446.336
2674 0 116.09 10.6039 1231 112.431 948.571 444.455
2675 1 68.0782 9.40096 640 111.295 948.716 467.506
2676 0 71.1156 11.3055 804 110.483 948.4 465.756
2677 0 75.0571 11.005 826 110.488 948.926 464.168
2678 0 73.0912 9.97384 729 109.874 948.139 463.429
2679 0 77.0394 10.579 815 107.953 948.326 462.553
2680 0 80.0576 11.5917 928 107.233 948.797 462.324
2681 0 82.0644 10.2481 841 111.153 948.572 462.269
2682 0 81.0297 8.28091 671 117.215 949.066 454.841
2683 0 86.0719 9.75928 840 114.394 949.208 455.213
2684 0 88.1029 11.4752 1011 110.82 949.051 454.559
2685 0 90.1398 10.6945 964 113.858 949.509 451.405
2686 0 93.131 10.8235 1008 114.152 948.827 451.751
2687 0 95.0694 10.2767 977 115.91 948.948 453.611
2688 0 99.2106 9.53527 946 117.206 948.875 449.385
2689 0 104.122 11.2848 1175 113.734 948.957 449.306
2690 0 108.18 11.5917 1254 113.384 948.804 451.065
2691 0 108.181 11.5178 1246 130.704 949.782 451.026
2692 0 115.193 11.1552 1285 116.83 948.968 448.06
2693 0 118.185 13.5127 1597 113.788 948.835 443.905
2694 0 120.177 11.5663 1390 121.065 948.87 438.547
2695 0 125.154 11.2901 1413 120.528 949.344 441.085
2696 0 129.203 11.3465 1466 121.761 948.986 435.929
2697 0 136.365 12.2392 1669 118.123 948.94 438.644
2698 0 139.243 12.4962 1740 119.809 948.557 433.438
2699 0 140.295 10.8415 1521 124.178 948.335 432.64
2700 0 146.256 12.0815 1767 121.813 948.624 430.733
2701 0 151.303 11.5728 1751 123.899 948.613 427.68
2702 0 156.483 12.8129 2005 121.42 948.062 423.008
2703 0 160.262 12.3735 1983 124.062 949.102 422.471
2704 0 166.516 12.2271 2036 125.342 949.239 422.061
2705 0 171.412 12.0411 2064 126.361 948.575 416.243
2706 0 176.402 12.069 2129 126.474 948.29 412.566
2707 0 182.381 12.929 2358 123.857 948.779 411.661
2708 0 183.333 11.4437 2098 130.405 948.473 402.415
2709 0 193.251 11.9068 2301 128.651 948.962 404.761
2710 0 199.336 11.3025 2253 130.933 948.897 399.522
2711 0 205.221 11.8019 2422 130.766 948.833 393.018
2712 1 52.057 9.79696 510 107.457 950.457 478.71
2713 0 51.0608 9.89017 505 108.446 950.535 477.525
2714 0 53.1427 10.4624 556 109.052 950.358 475.122
2715 0 52.3073 7.91477 414 115.237 950.8 475.901
2716 0 52.1787 5.90279 308 119.351 950.416 475.205
2717 0 55.1333 8.12576 448 114.54 950.388 473.469
2718 0 58.0495 8.75115 508 113.252 950.079 472.258
2719 0 60.1436 9.69346 583 111.106 950.803 473.314
2720 0 59.1647 8.97495 531 114.606 950.348 469.512
2721 0 64.2436 10.0088 643 112.062 950.431 468.904
2722 0 67.1427 8.38513 563 114.263 950.485 471.481
2723 0 68.1331 9.84837 671 113.553 950.581 467.677
2724 0 70.0784 9.44657 662 114.409 950.716 467.847
2725 0 68.08 8.87192 604 116.72 950.631 468.076
2726 0 73.0514 10.3352 755 113.555 951.35 463.895
2727 0 74.1289 9.48348 703 114.762 950.661 463.761
2728 0 78.2073 9.75612 763 113.906 950.768 464.05
2729 0 77.1445 8.8924 686 116.63 950.379 462.825
2730 0 81.1548 10.0302 814 113.959 950.706 461.985
2731 0 84.2147 10.307 868 114.167 951.159 459.251
2732 0 88.1185 11.303 996 112.245 950.969 454.35
2733 0 93.1517 10.5741 985 112.728 950.527 455.721
2734 0 91.1248 11.6873 1065 112.209 950.801 452.592
2735 0 92.2723 11.5202 1063 113.874 950.94 449.992
2736 0 97.1322 10.4188 1012 115.616 950.43 449.747
2737 0 102.216 13.2759 1357 108.223 949.616 448.669
2738 0 105.207 11.0924 1167 113.523 948.512 447.19
2739 0 110.156 11.5018 1267 112.367 947.748 447.914
2740 0 117.265 10.5658 1239 113.433 948.621 448.856
2741 0 117.23 11.422 1339 113.226 948.236 445.158
2742 0 127.172 8.9013 1132 116.899 948.846 445.246
2743 1 71.1212 10.0392 714 111.944 948.359 465.437
2744 0 70.0304 10.6097 743 112.786 948.553 460.494
2745 0 71.1618 10.7642 766 111.308 948.487 466.235
2746 0 70.1743 9.80416 688 116.334 948.783 462.423
2747 0 75.1186 12.2207 918 110.521 948.096 462.965
2748 0 78.1179 11.7259 916 111.177 948.534 461.425
2749 0 79.17 12.5047 990 110.739 948.853 461.413
2750 0 83.0939 10.9755 912 111.277 949.116 464.202
2751 0 83.1298 11.9933 997 112.52 949.068 456.072
2752 0 85.0774 10.6726 908 116.033 949.499 455.304
2753 0 88.1902 10.9196 963 114.685 949.241 458.102
2754 0 91.1065 11.0091 1003 115.49 949.59 455.693
2755 0 97.1005 10.6694 1036 115.553 949.849 455.864
2756 0 98.0809 11.1031 1089 117.304 949.377 450.347
2757 0 100.183 11.3892 1141 115.7 949.704 452.72
2758 0 105.167 12.3422 1298 113.862 949.274 449.127
2759 0 106.141 10.665 1132 118.167 949.358 447.984
2760 0 110.123 12.4588 1372 115.789 949.512 445.886
2761 0 113.156 11.3118 1280 117.831 950.164 447.178
2762 0 118.217 12.9593 1532 113.553 949.77 446.265
2763 0 120.188 12.2558 1473 117.216 949.798 440.552
2764 0 124.121 10.804 1341 118.321 948.955 445.181
2765 0 128.134 11.1758 1432 118.867 948.897 440.169
2766 0 131.099 11.3045 1482 119.465 949.074 437.807
2767 0 136.125 12.2828 1672 118.364 949.382 435.711
2768 0 139.174 11.8197 1645 118.899 949.435 435.804
2769 0 144.149 13.0906 1887 118.232 949.801 429.226
2770 0 149.261 12.18 1818 120.064 950.115 427.476
2771 0 155.401 12.2264 1900 120.467 949.426 425.253
2772 0 159.142 11.1724 1778 124.197 948.935 420.988
2773 0 160.284 9.97603 1599 129.053 948.737 409.447
2774 1 102.083 11.089 1132 115.637 948.812 451.918
2775 0 102.096 10.9603 1119 118.027 948.959 451.405
2776 0 105.222 11.3474 1194 116.604 948.419 452.484
2777 0 110.183 10.7185 1181 118.045 948.754 449.518
2778 0 111.244 11.704 1302 116.723 949.312 446.836
2779 0 116.231 11.4084 1326 115.944 949.154 446.898
2780 0 119.172 11.7897 1405 116.227 949.011 441.354
2781 0 124.233 11.4141 1418 117.154 949.056 439.569
2782 0 124.16 10.9778 1363 118.569 948.904 439.337
2783 0 129.247 11.2962 1460 116.947 949.486 439.596
2784 0 132.183 10.0543 1329 121.488 949.363 433.01
2785 0 136.202 10.3155 1405 120.436 948.615 429.574
2786 0 139.175 10.6628 1484 118.296 949.511 426.441
2787 0 144.125 9.99129 1440 116.892 948.317 430.36
2788 1 85.1938 9.39035 800 107.081 949.048 460.991
2789 0 88.1179 10.6335 937 105.518 948.507 455.971
2790 0 91.0413 9.33642 850 118.495 947.876 455.921
2791 0 94.1292 11.5692 1089 113.996 948.03 454.255
2792 0 96.0915 10.8959 1047 115.764 948.606 453.213
2793 0 100.225 12.0928 1212 113.555 948.351 451.521
2794 0 107.218 11.8544 1271 112.494 948.921 451.252
2795 0 106.175 11.4716 1218 115.1 948.631 448.61
2796 0 108.123 11.5054 1244 115.176 949.317 449.157
2797 0 109.197 10.8062 1180 116.949 948.881 446.794
2798 0 113.151 10.4728 1185 117.602 949.057 443.801
2799 0 118.209 11.3612 1343 115.112 949.226 444.302
2800 0 119.273 11.4359 1364 114.317 949.061 446.004
2801 0 124.235 11.4702 1425 115.228 949.342 441.347
2802 0 129.208 11.2532 1454 115.894 948.63 437.909
2803 0 133.218 11.59 1544 114.83 949.578 436.815
2804 0 135.377 9.92045 1343 119.306 949.931 433.788
2805 0 141.219 12.378 1748 112.664 949.203 432.654
2806 0 146.294 11.8939 1740 113.86 949.22 432.484
2807 0 150.2 10.7057 1608 116.998 949.169 427.539
2808 0 157.299 11.2651 1772 115.125 948.837 426.965
2809 0 163.285 9.85391 1609 118.3 949.268 424.216
2810 1 231.496 11.9138 2758 117.73 948.822 393.78
2811 0 231.663 11.4563 2654 119.076 948.972 399.408
2812 1 284.63 7.31476 2082 125.512 948.617 393.534
2813 0 283.771 8.34475 2368 124.96 948.656 384.896
2814 1 257.706 11.5869 2986 120.333 948.249 377.872
2815 0 265.772 10.3209 2743 123.86 948.408 370.868
2816 1 103.264 9.8292 1015 112.724 948.106 444.069
2817 0 108.228 10.9583 1186 109.903 948.506 445.594
2818 0 112.269 10.5283 1182 111.279 948.408 444.645
2819 0 115.271 10.098 1164 112.456 948.299 443.706
2820 0 118.115 10.3289 1220 111.264 947.54 444.628
2821 0 119.181 11.7049 1395 109.54 948.111 443.665
2822 0 126.271 9.81222 1239 114.521 946.966 438.016
2823 0 128.245 11.1973 1436 116.42 947.492 437.883
2824 0 131.317 11.0039 1445 116.051 947.797 441.738
2825 0 134.51 11.2408 1512 116.611 947.378 438.493
2826 0 143.323 10.6682 1529 118.179 947.529 435.853
2827 0 142.251 11.4656 1631 117.562 948.514 433.495
2828 0 149.456 11.4683 1714 117.396 947.271 430.879
2829 0 153.466 12.7194 1952 114.513 947.878 429.008
2830 0 159.418 12.5331 1998 114.414 947.506 428.4
2831 0 163.437 11.6681 1907 117.496 947.651 423.704
2832 0 169.217 12.5519 2124 116.047 947.272 421.097
2833 1 92.1427 12.1334 1118 108.21 947.413 459.477
2834 0 95.0909 10.8107 1028 110.835 947.655 457.502
2835 0 97.1722 10.9908 1068 110.095 948.169 456.285
2836 0 100.168 10.5323 1055 110.963 947.866 454.846
2837 0 104.193 10.778 1123 109.308 948.63 455.937
2838 0 106.206 12.0898 1284 108.447 948.712 452.261
2839 0 106.156 9.02445 958 115.58 948.473 449.449
2840 0 112.231 10.2913 1155 113.805 948.515 447.717
2841 0 115.096 9.21841 1061 114.9 948.268 448.872
2842 0 119.115 11.0566 1317 111.642 948.331 447.955
2843 0 122.25 11.411 1395 111.058 948.538 446.45
2844 0 125.314 12.0737 1513 113.441 948.304 443.696
2845 0 127.277 12.1546 1547 113.026 948.983 443.666
2846 0 126.189 9.63637 1216 117.306 949.089 444.155
2847 0 125.25 6.03593 756 113.419 949.312 463.765
2848 0 127.274 7.34638 935 112.221 948.919 459.821
2849 0 127.199 5.21232 663 111.647 948.537 466.839
2850 0 127.306 6.11128 778 111.176 948.158 463.503
2851 0 127.209 9.89711 1259 108.873 948.184 450.575
2852 0 127.292 7.0232 894 109.35 948.894 460.003
2853 1 92.1191 11.0401 1017 103.475 948.794 463.127
2854 0 94.1153 11.8684 1117 103.024 948.889 460.952
2855 0 96.1489 11.3886 1095 102.667 948.204 460.907
2856 0 99.0955 11.0903 1099 104.653 948.146 456.071
2857 0 101.098 11.4245 1155 105.597 948.311 452.857
2858 0 103.18 9.47862 978 107.422 948.154 455.85
2859 0 105.142 11.1944 1177 106.172 948.938 450.124
2860 0 111.116 11.6185 1291 104.363 948.59 450.472
2861 0 114.241 11.3181 1293 105.128 948.094 448.191
2862 0 118.147 11.418 1349 105.199 948.005 445.496
2863 0 118.223 9.38055 1109 109.266 947.769 441.179
2864 0 126.23 9.84709 1243 106.747 947.846 443.405
2865 1 71.0739 10.9604 779 95.534 947.343 468.911
2866 0 74.1 10.5128 779 94.3107 948.177 470.679
2867 0 77.044 10.8899 839 98.6103 948.926 468.329
2868 0 79.2358 10.4498 828 100.874 948.326 464.594
2869 0 84.2648 10.6687 899 98.7397 948.717 463.858
2870 0 87.1972 9.16314 799 100.756 948.21 463.401
2871 0 86.0846 9.69976 835 101.249 948.24 458.634
2872 0 91.2286 8.38553 765 102.481 947.578 459.55
2873 0 94.4481 11.8054 1115 97.3444 947.686 458.534
2874 0 94.4243 9.25609 874 102.622 948.021 453.355
2875 0 103.22 8.75803 904 101.022 948.081 459.396
2876 0 103.277 10.9511 1131 100.913 948.156 455.296
2877 0 105.224 9.60809 1011 103.901 948.303 453.342
2878 0 110.331 9.75246 1076 103.756 948.32 451.435
2879 1 62.1668 11.067 688 95.2863 948.401 473.683
2880 0 64.1609 11.1594 716 95.1564 948.686 472.689
2881 0 64.0823 9.92474 636 98.1698 948.907 472.179
2882 0 67.0953 12.0724 810 95.0321 948.496 468.804
2883 0 67.0319 10.1295 679 100.168 948.573 467.825
2884 0 71.0626 9.89268 703 99.8094 948.644 468.892
2885 0 73.0309 11.6526 851 96.7979 948.922 466.985
2886 0 75.0654 11.1902 840 98.0321 948.833 466.096
2887 0 77.0958 10.9604 845 99.6805 949.191 463.007
2888 0 80.197 11.4343 917 99.7132 949.661 461.629
2889 0 83.0827 10.2187 849 102.83 949.306 463.246
2890 0 84.0866 11.2265 944 102.953 949.752 461.532
2891 0 88.085 11.3073 996 103.342 949.134 461.067
2892 0 89.1733 11.1581 995 104.707 948.329 457.975
2893 0 93.1 12.0623 1123 103.907 948.982 455.301
2894 0 94.1508 10.7275 1010 107.355 948.569 455.374
2895 0 98.1701 10.3086 1012 109.165 948.5 453.042
2896 0 102.105 11.1552 1139 108.256 948.943 450.286
2897 0 106.183 11.7816 1251 106.942 948.016 454.516
2898 0 109.098 12.0168 1311 107.185 947.883 453.943
2899 0 112.096 11.0619 1240 109.194 948.962 454.284
2900 0 116.146 12.3896 1439 107.829 948.593 450.946
2901 0 118.126 12.7407 1505 109.204 948.041 446.925
2902 0 123.131 13.2217 1628 106.193 948.956 445.543
2903 0 126.236 12.1281 1531 108.51 948.278 446.169
2904 0 125.272 10.6089 1329 113.644 947.693 443.667
2905 0 133.282 11.5094 1534 111.598 948.089 444.57
2906 0 137.212 12.2365 1679 112.979 948.087 435.811
2907 0 144.398 12.8465 1855 111.067 948.543 436.019
2908 0 149.163 14.0249 2092 109.862 948.816 432.599
2909 0 153.161 13.4108 2054 112.751 948.938 428.67
2910 0 158.329 13.6361 2159 112.62 948.403 425.213
2911 0 160.207 11.6724 1870 117.157 947.975 426.877
2912 1 78.2129 11.929 933 113.268 948.524 466.823
2913 0 82.0972 12.5583 1031 112.721 948.564 462.378
2914 0 85.1873 12.4432 1060 111.787 948.472 462.927
2915 0 89.1691 12.6277 1126 110.567 948.755 461.899
2916 0 90.2229 13.2893 1199 111.32 948.56 459.575
2917 0 94.0845 13.2222 1244 110.535 949.208 459.141
2918 0 97.1866 13.0162 1265 111.653 948.713 458.659
2919 0 99.1558 12.7678 1266 112.694 949.439 458.562
2920 0 102.218 12.1114 1238 115.922 948.83 455.915
2921 0 106.248 14.2121 1510 112.387 949.239 453.307
2922 0 109.33 13.7291 1501 113.233 948.887 453.719
2923 0 111.324 14.5252 1617 113.457 948.808 451.336
2924 0 116.318 14.2111 1653 115.145 948.344 449.125
2925 0 117.247 13.4332 1575 118.215 948.139 449.044
2926 0 121.222 14.1723 1718 117.387 948.736 447.548
2927 0 127.23 14.124 1797 118.063 948.774 444.546
2928 0 131.191 13.9568 1831 120.342 948.99 441.549
2929 0 135.285 14.1331 1912 122.023 948.592 439.027
2930 0 137.252 14.3968 1976 123.406 948.25 437.284
2931 0 142.319 13.7438 1956 123.857 947.997 439.996
2932 0 149.361 15.7605 2354 120.952 948.15 432.86
2933 0 156.248 12.8898 2014 127.196 948.332 433.945
2934 0 157.309 14.017 2205 126.889 948.082 430.92
2935 1 255.439 14.0856 3598 126.416 948.253 386.976
2936 1 212.414 14.3258 3043 125.59 948.529 407.913
2937 0 218.483 14.3031 3125 127.281 947.943 401.444
2938 0 224.391 13.9979 3141 129.242 947.835 395.656
2939 0 230.475 12.8127 2953 133.208 947.676 401.383
2940 0 238.51 13.3747 3190 132.755 947.443 395.245
2941 0 245.61 14.8854 3656 130.576 947.82 385.577
2942 0 244.619 15.3504 3755 161.999 948.789 384.353
2943 1 262.518 13.74 3607 133.754 947.756 384.884
2944 0 271.525 12.7723 3468 136.677 947.818 379.014
2945 1 178.135 15.1402 2697 133.632 947.648 417.214
2946 0 184.224 15.0252 2768 133.928 947.217 416.923
2947 0 192.225 16.7304 3216 130.144 948.28 412.903
2948 0 198.293 16.284 3229 132.453 947.809 409.673
2949 0 205.31 15.8589 3256 134.095 947.237 407.432
2950 0 210.313 14.7162 3095 138.699 947.989 405.157
2951 0 218.304 15.6845 3424 136.298 948.187 400.699
2952 0 225.451 15.7595 3553 136.32 948.071 395.963
2953 0 233.329 15.296 3569 138.67 947.377 389.77
2954 0 238.378 14.4854 3453 141.947 947.262 389.798
2955 1 194.298 15.6409 3039 139.639 947.553 409.671
2956 0 199.366 14.1649 2824 144.13 947.803 409.827
2957 0 204.235 13.6362 2785 147.274 947.63 406.468
2958 0 212.374 14.8465 3153 145.626 946.924 400.826
2959 0 213.246 14.7576 3147 150.028 947.266 399.122
2960 0 221.327 14.6254 3237 150.472 947.79 394.229
2961 0 214.294 16.4167 3518 152.854 948.582 392.285
2962 1 67.0565 11.9601 802 142.195 949.373 471.582
2963 0 69.1319 12.8739 890 140.411 949.574 469.46
2964 0 72.1315 13.4754 972 136.192 949.091 468.972
2965 0 74.0736 12.8656 953 137.955 948.986 467.119
2966 0 75.1832 12.0905 909 140.738 948.739 465.195
2967 0 79.063 11.9398 944 140.369 948.405 465.76
2968 0 81.1624 11.3969 925 142.841 948.549 463.885
2969 0 84.1097 13.2684 1116 138.326 947.882 460.783
2970 0 86.0772 12.7211 1095 140.236 949.015 460.312
2971 0 91.0631 13.0679 1190 139.444 948.543 458.879
2972 0 94.0689 13.9579 1313 137.08 948.915 458.158
2973 0 97.1953 12.5829 1223 140.383 948.837 456.456
2974 0 101.255 13.6783 1385 138.601 948.649 454.675
2975 0 103.079 12.8057 1320 142.618 948.052 452.627
2976 0 108.12 13.0318 1409 143.148 947.945 450.668
2977 0 111.164 13.5476 1506 141.92 948.514 448.132
2978 1 60.1401 11.6561 701 134.006 949.111 475.956
2979 0 62.051 10.8137 671 138.446 948.908 474.614
2980 0 63.0682 11.5113 726 138.858 948.573 472.583
2981 0 65.1288 11.055 720 140.875 947.967 471.186
2982 0 68.1443 11.8425 807 138.539 948.259 471.667
2983 0 68.0664 12.4143 845 139.118 947.698 469.617
2984 0 71.1191 12.8798 916 137.831 948.313 469.674
2985 0 72.1041 12.6623 913 139.264 948.484 468.239
2986 0 74.0938 11.1885 829 143.546 948.97 468.941
2987 0 76.0718 11.1342 847 146.04 948.022 465.248
2988 0 81.0735 12.3468 1001 142.258 947.882 464.202
2989 0 83.0474 12.7638 1060 142.887 948.467 462.719
2990 0 84.0607 10.9564 921 148.656 947.786 462.169
2991 0 90.1344 11.971 1079 145.06 948.199 459.666
2992 0 92.1641 13.183 1215 143.314 947.965 457.789
2993 0 95.1534 12.4851 1188 146.2 948.098 456.825
2994 1 50.0627 11.5056 576 134.358 948.342 480.997
2995 0 49.0823 11.3687 558 136.776 948.296 480.606
2996 0 52.0547 11.6608 607 136.998 947.881 477.476
2997 0 52.0547 11.7953 614 134.2 947.906 477.621
2998 0 54.0992 12.3107 666 137.207 947.745 477.234
2999 0 55.0756 11.6385 641 139.374 947.566 475.835
3000 0 59.035 11.4 673 136.498 947.658 476.66
3001 0 60.0501 11.5903 696 136.125 947.534 474.691
3002 0 63.0986 12.8212 809 132.587 947.549 474.499
3003 0 65.1441 12.2498 798 133.789 948.534 474.15
3004 0 66.0707 12.6683 837 134.342 947.859 471.826
3005 0 68.0663 13.1049 892 133.185 947.481 469.859
3006 0 72.1162 13.4505 970 131.242 947.893 469.773
3007 0 74.1453 12.3137 913 135.073 948.152 467.888
3008 0 74.1459 13.1093 972 135.064 947.579 467.495
3009 0 77.1529 13.3501 1030 132.929 947.812 467.568
3010 0 80.0666 12.7144 1018 134.878 948.113 466.517
3011 0 81.0717 14.0986 1143 133.237 947.373 465.255
3012 0 84.0749 13.1192 1103 136.236 947.221 463.355
3013 0 86.0756 13.5114 1163 134.643 948.079 461.498
3014 0 87.0382 13.2011 1149 136.328 947.923 462.775
3015 0 91.1013 13.732 1251 134.945 948.269 461.223
3016 0 93.1304 13.5938 1266 136.011 948.028 458.476
3017 0 96.0811 13.9466 1340 134.369 948.094 460.019
3018 0 98.1238 12.7084 1247 138.663 948.31 458.478
3019 0 102.069 14.3628 1466 135.347 948.218 453.509
3020 0 104.078 12.2889 1279 140.521 948.314 452.638
3021 0 109.144 13.4135 1464 137.022 948.015 450.455
3022 0 109.141 14.4767 1580 140.825 948.074 452.366
3023 1 57.0476 12.2003 696 132.003 947.898 474.841
3024 0 59.1457 11.6492 689 132.379 947.862 475.66
3025 0 62.0935 11.6276 722 135.234 947.78 476.154
3026 0 65.0319 13.3781 870 132.26 948.18 472.215
3027 0 67.0504 12.3191 826 133.725 947.891 472.067
3028 0 68.1602 11.9131 812 134.34 948.355 472.466
3029 0 72.2371 13.5803 981 129.188 947.944 470.362
3030 0 74.0865 11.7565 871 132.985 948.753 470.749
3031 0 76.1291 12.3737 942 132.342 948.701 467.841
3032 0 81.1769 12.5652 1020 130.477 947.79 466.846
3033 0 81.11 14.0303 1138 127.896 948.338 464.788
3034 0 85.1678 12.4812 1063 131.812 948.227 464.247
3035 0 85.1572 11.1676 951 135.578 948.645 463.306
3036 0 88.1926 12.8809 1136 132.216 947.89 460.718
3037 1 45.0372 11.4794 517 127.393 948.3 483.145
3038 0 48.0143 12.2047 586 121.823 948.706 485.241
3039 0 48.1006 11.8294 569 124.914 947.501 481.689
3040 0 52.0822 12.6915 661 121.228 947.8 481.787
3041 0 52.109 10.9002 568 126.533 947.53 480.18
3042 0 54.0946 12.4227 672 122.415 948.146 479.946
3043 0 56.146 13.2156 742 120.388 948.685 478.228
3044 0 59.1819 12.8418 760 119.892 948.513 477.567
3045 0 59.0726 12.4592 736 121.121 949.122 477.133
3046 0 62.0597 11.5534 717 118.529 948.688 474.406
3047 0 63.0899 12.6169 796 120.948 949.083 474.256
3048 0 61.1043 12.2414 748 126.771 948.916 473.322
3049 0 62.0678 10.5369 654 121.443 949.479 473.011
3050 0 64.0117 11.9978 768 125.431 950.694 470.655
3051 0 66.0315 11.9337 788 129.791 949.841 471.425
3052 0 67.0967 12.2957 825 129 949.268 470.23
3053 0 67.0985 11.431 767 131.442 949.164 469.344
3054 1 36.0207 11.7155 422 125.671 949.765 487.867
3055 0 35.006 11.4837 402 127.371 949.567 488.179
3056 0 36.0365 9.93437 358 130.916 949.372 486.972
3057 0 37.0354 12.7716 473 123.452 949.827 484.668
3058 0 39.0352 11.4256 446 125.296 949.312 483.818
3059 0 39.015 12.2517 478 123.956 949.322 483.199
3060 0 40.0387 12.3381 494 123.012 949.241 483.482
3061 0 44.0301 14.2857 629 114.351 949.318 483.537
3062 0 43.0146 11.8564 510 122.357 948.947 483.892
3063 0 45.0472 13.4081 604 118.656 949.005 482.8
3064 0 45.0507 12.719 573 122.365 949.075 482.26
3065 0 48.0464 13.1748 633 122.156 948.633 480.03
3066 0 49.0615 14.0028 687 119.633 948.892 480.661
3067 0 49.1023 13.2784 652 124.713 948.015 480.143
3068 0 53.0663 13.1345 697 124.393 948.646 480.314
3069 0 54.048 14.3391 775 122.705 949.252 480.632
3070 0 56.0732 13.9996 785 126.318 948.28 477.646
3071 0 55.0719 13.7638 758 130.536 948.538 478.325
3072 0 56.041 13.3474 748 134.902 948.918 477.586
3073 0 58.0365 13.2503 769 138.248 948.701 475.789
3074 0 60.0814 14.1808 852 137.48 949.123 477.695
3075 0 62.092 14.2853 887 142.348 948.549 475.174
3076 0 63.0333 14.5003 914 147.629 948.455 475.113
3077 0 63.1027 14.0881 889 152.13 948.47 474.631
3078 0 65.1092 14.0533 915 154.896 948.597 473.807
3079 0 65.0547 14.0497 914 158.166 948.084 473.207
3080 0 66.059 13.8664 916 161.307 948.942 472.967
3081 1 35.0894 12.4254 436 164.372 949.356 488.651
3082 0 36.0343 13.6814 493 162.359 949.124 489.028
3083 0 36.058 14.0329 506 166.579 948.654 488.111
3084 0 37.0284 14.0163 519 169.087 948.611 487.763
3085 0 39.1002 14.4756 566 170.028 949.376 484.636
3086 0 40.0376 15.3106 613 167.958 948.977 485.235
3087 0 40.0496 14.3322 574 173.664 948.861 484.672
3088 0 40.0652 14.7509 591 177.873 949.022 483.565
3089 0 44.0618 15.2513 672 171.635 948.909 483.859
3090 0 44.0456 15.6883 691 173.476 949.45 481.968
3091 0 47.0901 15.12 712 172.292 949.681 481.937
3092 0 45.2265 15.1018 683 179.597 949.46 481.296
3093 0 48.1511 17.362 836 168.236 949.51 482.213
3094 0 48.2442 16.4787 795 175.826 949.623 479.482
3095 0 50.1275 16.1388 809 175.816 949.269 480.879
3096 0 52.277 15.6666 819 177.921 948.987 479.973
3097 0 52.191 16.248 848 179.204 949.754 477.573
3098 0 52.0903 16.0299 835 180.774 948.562 477.599
3099 0 55.224 15.0297 830 183.358 949.187 476.68
3100 0 57.1153 16.2829 930 177.241 949.257 477.392
3101 0 59.1462 15.8421 937 179.145 949.371 475.515
3102 0 59.1538 16.026 948 178.944 949.277 475.474
3103 0 64.2022 16.8374 1081 171.56 949.747 474.321
3104 0 65.1637 16.6964 1088 172.127 949.219 474.051
3105 0 64.1542 16.663 1069 175.887 949.218 474.404
3106 0 67.1771 16.9403 1138 174.163 949.608 471.39
3107 0 70.1797 17.4979 1228 168.916 950.162 472.323
3108 0 73.0873 17.3354 1267 169.479 949.751 471.116
3109 0 74.2001 16.6442 1235 172.263 949.372 469.826
3110 0 76.1794 16.7631 1277 171.64 949.196 468.419
3111 0 80.0948 18.3283 1468 163.315 949.035 466.29
3112 0 80.1741 16.9756 1361 169.424 949.276 466.113
3113 0 86.2553 18.5496 1600 160.33 949.046 463.414
3114 0 88.1632 17.6151 1553 164.933 948.196 462.753
3115 0 92.2356 17.9649 1657 162.313 948.62 461.316
3116 0 92.2076 16.0833 1483 170.82 949.435 460.486
3117 0 98.1596 17.6243 1730 163.613 949.217 457.898
3118 0 98.1347 16.5996 1629 168.952 948.344 456.537
3119 0 105.238 17.3132 1822 163.145 949.234 455.928
3120 0 106.14 17.0623 1811 167.494 948.341 451.789
3121 0 110.135 16.8883 1860 166.372 949.051 451.038
3122 1 48.0712 14.4369 694 170.539 948.846 480.941
3123 0 49.0672 15.3055 751 169.625 948.742 479.828
3124 0 53.1306 15.1513 805 167.089 949.371 479.571
3125 0 53.0819 15.2218 808 168.395 950.009 478.598
3126 0 55.1145 16.0212 883 164.64 949.65 478.072
3127 0 57.0861 15.0299 858 168.922 949.451 476.024
3128 0 59.066 14.5938 862 168.126 949.275 476.066
3129 0 61.1741 15.7256 962 166.136 948.688 473.438
3130 0 64.0639 16.4523 1054 162.666 948.882 472.012
3131 0 65.1718 15.5282 1012 165.559 948.763 472.337
3132 0 69.0906 15.6316 1080 163.895 949.117 471.025
3133 0 72.1038 14.9229 1076 166.419 949.399 469.138
3134 0 74.1049 15.5455 1152 165.002 948.873 467.635
3135 1 35.0316 13.0739 458 168.908 949.725 484.421
3136 0 39.0198 14.3517 560 162.289 949.727 484.371
3137 0 42.0217 13.3979 563 164.369 949.803 483.428
3138 0 42.0257 14.2294 598 163.135 949.814 483.104
3139 0 43.0395 13.8245 595 165.748 950.348 482.545
3140 0 46.0832 14.5823 672 160.161 950.003 482.705
3141 0 46.0235 14.4274 664 164.718 950.083 480.461
3142 0 48.0383 14.5925 701 163.22 949.605 480.954
3143 0 49.0345 13.827 678 166.516 949.76 479.947
3144 0 50.0222 13.2541 663 169.196 949.87 478.436
3145 0 53.0569 14.6258 776 162.621 950.509 477.389
3146 0 55.1164 14.2789 787 163.449 950.333 476.978
3147 0 56.1196 14.0058 786 164.056 950.391 475.924
3148 0 59.0359 14.2286 840 163.508 950.045 474.355
3149 0 61.1656 13.7986 844 163.793 950.307 474.472
3150 0 64.0529 13.2859 851 166.585 950.102 471.532
3151 0 67.0462 13.9158 933 162.477 950.363 471.164
3152 0 70.0574 14.4596 1013 160.401 949.493 469.377
3153 1 38.099 11.2601 429 157.765 950.373 485.117
3154 0 40.04 11.5385 462 155.084 949.595 484.6
3155 0 40.0457 13.3348 534 152.348 949.493 483.096
3156 0 41.0525 13.1783 541 150.506 949.102 483.728
3157 0 44.1012 13.8999 613 150.09 950.049 482.643
3158 0 46.0839 13.4971 622 150.693 949.553 481.293
3159 0 46.0181 12.9514 596 154.002 949.654 480.669
3160 0 47.045 13.9653 657 152.256 949.251 477.904
3161 0 48.0528 12.5695 604 156.162 949.187 478.565
3162 0 51.129 13.1432 672 153.138 949.036 477.534
3163 0 53.0751 13.5469 719 150.056 948.687 477.339
3164 0 54.0566 13.0234 704 153.109 949.567 474.455
3165 0 58.1286 12.61 733 151.205 949.33 474.407
3166 0 59.1123 13.2629 784 151.253 949.272 471.509
3167 0 62.1326 12.6021 783 151.738 949.301 472.161
3168 0 64.1077 13.2433 849 148.187 949.344 468.393
3169 0 66.0859 12.2719 811 151.043 948.757 468.665
3170 0 68.1556 11.8552 808 151.66 949.113 466.818
3171 0 73.2277 13.3693 979 145.433 948.253 464.765
3172 0 74.1676 13.3481 990 145.079 948.621 464.189
3173 0 79.2076 13.2816 1052 144.508 948.529 462.233
3174 1 42.047 11.9866 504 139.268 949.359 479.784
3175 0 41.0349 11.3805 467 140.925 949.749 478.857
3176 0 40.0136 10.6214 425 143.122 948.958 477.868
3177 0 41.0184 12.4822 512 138.625 949.5 480.9
3178 0 44.0134 11.8827 523 139.319 949.379 480.09
3179 0 45.0376 12.7227 573 137.653 949.058 477.508
3180 0 47.085 11.5748 545 140.228 949.106 477.506
3181 0 48.0892 12.5184 602 137.018 948.821 478.153
3182 0 51.0437 11.4216 583 140.353 948.223 476.247
3183 0 51.0656 12.3175 629 138.82 948.238 474.808
3184 0 55.0379 11.7374 646 138.545 948.365 475.053
3185 0 55.0411 12.4452 685 138.566 949.21 471.806
3186 0 57.0808 12.4385 710 137.2 948.682 472.213
3187 0 59.0232 12.385 731 137.363 948.731 471.111
3188 0 63.0531 12.5767 793 135.358 948.687 471.392
3189 0 65.0794 13.5373 881 132.689 948.721 469.841
3190 0 67.133 12.87 864 135.463 949.102 467.48
3191 0 68.1153 11.6273 792 139.057 949.206 466.903
3192 0 71.0772 12.4512 885 137.58 948.287 464.392
3193 0 73.051 12.8814 941 136.684 949.033 462.687
3194 0 76.0441 11.4802 873 139.582 948.349 461.655
3195 0 80.1297 13.3409 1069 132.553 947.666 461.863
3196 0 82.0839 12.6334 1037 135.043 947.058 459.785
3197 0 86.1585 12.2913 1059 135.184 947.008 457.721
3198 1 42.0617 10.6272 447 125.056 946.519 479.562
3199 0 43.0333 11.0147 474 121.639 947.401 479.43
3200 0 44.0277 10.9477 482 121.102 948.044 478.795
3201 0 45.0219 12.8382 578 116.747 947.73 476.86
3202 0 47.029 11.376 535 119.791 947.226 476.865
3203 0 51.0501 12.38 632 116.198 947.845 475.747
3204 0 51.0266 11.3666 580 120.062 946.712 473.666
3205 0 51.0637 11.7109 598 118.952 947.318 473.938
3206 0 55.0602 11.4783 632 118.413 946.991 473.432
3207 0 55.0912 12.0346 663 117.647 947.118 472.172
3208 0 57.0355 12.1328 692 117.646 947.221 470.49
3209 0 57.0442 12.1134 691 115.585 947.211 470.479
3210 0 60.0615 11.1386 669 120.263 946.862 469.209
3211 0 62.0959 11.9493 742 118.716 947.193 468.155
3212 0 62.0692 10.5527 655 121.611 946.275 468.495
3213 0 66.0833 11.7276 775 118.978 946.481 467.685
3214 0 68.0825 11.4126 777 120.239 946.604 466.088
3215 0 72.129 13.767 993 113.925 946.584 465.128
3216 0 74.0928 12.4574 923 117.207 946.745 463.744
3217 0 75.1156 11.3425 852 120.457 947.066 460.17
3218 1 38.0835 9.84679 375 117.64 947.133 481.832
3219 0 39.0318 11.0679 432 115.519 947.222 479.09
3220 0 40.0286 11.117 445 112.353 947.804 479.53
3221 0 39.0219 9.37935 366 118.577 946.984 479.893
3222 0 40.0197 9.32041 373 118.619 947.48 478.799
3223 0 43.0396 9.99081 430 115.456 947.305 479.291
3224 0 42.0498 9.9406 418 115.993 947.024 477.533
3225 0 45.0464 10.1007 455 115.143 947.813 479.015
3226 0 48.0377 10.2836 494 113.253 946.755 476.921
3227 0 48.0107 10.8934 523 112.597 947.719 477.681
3228 0 51.0291 10.9153 557 112.706 947.698 476.144
3229 0 50.0513 10.8289 542 114.459 947.186 474.212
3230 0 52.0944 11.4792 598 112.911 947.477 475.279
3231 0 53.0155 11.7701 624 112.958 947.609 474.71
3232 0 55.0443 10.428 574 116.028 946.892 474.007
3233 0 58.0943 11.5502 671 114.56 947.867 471.738
3234 0 57.1218 9.69857 554 117.776 947.44 471.96
3235 0 62.0551 10.8452 673 113.41 946.759 470.886
3236 0 63.0707 10.4803 661 114.716 947.629 470.992
3237 0 67.1162 10.8022 725 113.257 946.935 468.481
3238 0 69.1018 11.664 806 112.263 947.412 466.376
3239 0 70.1609 10.5187 738 115.95 947.85 466.023
3240 0 73.0859 11.4249 835 113.722 947.578 465.15
3241 0 75.1082 10.3717 779 116.46 947.628 463.724
3242 1 40.0444 10.2386 410 113.661 946.841 478.468
3243 0 42.043 9.58542 403 115.548 946.685 478.638
3244 0 42.0356 9.23026 388 118.747 947.044 480.43
3245 0 44.0713 10.6872 471 118.008 947.425 481.548
3246 0 44.0409 10.2859 453 120.064 947.64 480.046
3247 0 45.0436 11.6332 524 116.851 947.162 480.294
3248 0 49.0464 12.1314 595 115.131 947.355 476.459
3249 0 49.046 10.1334 497 120.286 947.29 475.831
3250 0 51.0701 10.7695 550 119.482 947.702 475.851
3251 0 54.0428 12.7491 689 114.666 947.579 474.665
3252 0 54.038 11.3624 614 117.629 947.484 473.656
3253 0 56.0435 11.5625 648 116.795 947.716 470.909
3254 0 59.0302 12.0616 712 114.788 947.871 469.114
3255 0 60.114 11.5447 694 115.95 948.079 468.836
3256 0 63.0281 11.4552 722 117.053 947.819 467.86
3257 0 64.0327 10.5571 676 116.605 948.297 468.487
3258 0 67.1146 12.1881 818 114.097 948.056 468.605
3259 0 67.0262 10.2348 686 118.606 948.754 466.147
3260 0 71.0551 11.1885 795 115.932 948.561 464.936
3261 0 74.0746 11.4344 847 115.153 948.627 462.098
3262 0 78.0772 12.462 973 111.717 948.552 463.556
3263 0 80.1199 9.96007 798 118.843 949.049 463.016
3264 1 39.0491 11.191 437 117.416 949.762 479.783
3265 0 40.0494 10.8117 433 118.82 949.293 479.686
3266 0 39.041 11.1677 436 117.461 948.592 480.397
3267 0 42.0732 12.8586 541 112.817 948.102 479.654
3268 0 44.0518 12.7804 563 112.899 948.149 479.076
3269 0 45.0129 11.9743 539 114.803 948.822 479.091
3270 0 45.0382 11.79 531 116.629 949.045 478.326
3271 0 45.0157 9.6855 436 121.193 949.573 478.729
3272 0 49.0273 10.6267 521 118.033 948.489 476.167
3273 0 50.0314 10.8132 541 117.634 949.481 474.8
3274 0 51.0253 12.4056 633 114.564 949.005 473.262
3275 0 54.0489 12.2297 661 112.507 949.454 475.498
3276 0 56.0325 11.3149 634 115.445 949.273 472.751
3277 0 58.0809 13.2746 771 111.18 949.577 471.764
3278 0 58.0809 12.2071 709 131.504 950.681 472.953
3279 0 62.1222 11.912 740 114.389 948.87 468.191
3280 0 65.0548 13.9267 906 108.611 948.967 467.623
3281 0 67.1535 14.5041 974 107.352 949.03 467.517
3282 0 71.0818 13.1398 934 110.307 949.158 468.88
3283 0 71.0933 12.153 864 112.203 949.554 466.69
3284 0 73.1257 11.405 834 114.681 948.952 462.146
3285 0 77.0971 12.1146 934 111.816 949.288 462.11
3286 0 80.0408 12.6435 1012 111.079 949.276 461.458
3287 0 83.1083 13.717 1140 109.977 948.925 457.878
3288 0 87.1253 13.0272 1135 110.567 949.324 458.939
3289 1 45.0445 11.9659 539 110.74 948.874 477.514
3290 0 46.0368 10.8609 500 111.128 949.06 477.174
3291 0 49.1243 12.2343 601 106.116 948.141 474.83
3292 0 49.1015 12.1992 599 107.124 948.219 472.339
3293 0 51.0272 12.9539 661 104.935 948.263 474.126
3294 0 52.0365 10.9539 570 110.079 947.826 472.518
3295 0 56.1392 12.4156 697 105.815 948.36 469.917
3296 0 58.0726 12.1572 706 106.163 948.711 468.582
3297 0 59.1179 11.8915 703 107.351 948.514 467.137
3298 0 61.067 11.6593 712 108.104 948.743 468.531
3299 0 64.0442 12.9129 827 105.742 949.245 467.051
3300 0 67.0884 12.8338 861 108.426 948.893 466.12
3301 0 68.1411 12.9437 882 110.711 949.644 463.171
3302 0 70.1675 12.8407 901 110.466 950.384 463.497
3303 0 70.0835 11.8858 833 114.794 950.006 459.923
3304 0 76.1645 12.0923 921 113.248 950.228 460.333
3305 0 77.2339 12.1967 942 113.197 950.403 460.3
3306 0 79.1498 13.1649 1042 111.539 949.787 458.86
3307 0 81.2203 12.6939 1031 112.761 949.515 458.758
3308 0 84.1017 12.901 1085 111.531 949.668 455.583
3309 0 88.1787 12.2252 1078 113.375 948.984 453.032
3310 0 91.1824 12.7766 1165 111.87 949.272 452.956
3311 0 92.1994 13.1454 1212 112.795 949.294 450.993
3312 0 97.2117 13.2186 1285 115.119 948.651 447.87
3313 1 51.0578 11.4968 587 113.859 949.652 471.809
3314 0 53.078 12.5287 665 116.274 949.141 474.611
3315 0 52.0216 12.6678 659 110.431 950.307 474.059
3316 0 53.01 10.9413 580 114.61 949.855 471.464
3317 0 57.094 11.8927 679 111.424 949.549 468.682
3318 0 59.1231 11.586 685 111.847 949.874 469.064
3319 0 63.1035 11.7426 741 110.375 949.229 468.984
3320 0 63.0451 12.1659 767 110.836 949.331 468.481
3321 0 65.1159 11.349 739 112.413 949.375 468.694
3322 0 68.0643 11.1953 762 112.858 949.361 466.441
3323 0 68.0779 10.4586 712 114.955 949.798 465.876
3324 0 72.1217 10.8428 782 113.803 949.473 466.147
3325 0 74.1328 11.3985 845 114.163 949.315 462.125
3326 0 79.0918 11.9734 947 112.758 949.321 458.605
3327 0 84.1258 12.9211 1087 110.919 948.498 457.449
3328 0 84.1352 11.4934 967 115.479 948.953 455.354
3329 0 87.1153 11.4331 996 116.158 948.775 453.529
3330 0 91.1532 10.8389 988 124.162 948.093 452.888
3331 1 44.0427 11.1256 490 113.806 948.769 474.257
3332 0 48.0776 11.4191 549 113.137 948.37 475.922
3333 0 50.0935 11.4586 574 113.328 948.237 474.775
3334 0 52.0268 12.2821 639 112.017 949.424 475.091
3335 0 51.0347 13.1479 671 112.802 948.382 473.461
3336 0 54.0751 11.8354 640 115.831 948.627 475.48
3337 0 55.0675 13.2746 731 114.328 948.094 473.234
3338 0 55.0729 10.4044 573 122.63 948.375 474.288
3339 0 55.0935 11.2899 622 122.1 948.376 472
3340 0 58.1846 11.6526 678 121.954 948.047 471.327
3341 0 60.0488 11.9569 718 122.07 948.418 469.16
3342 0 64.1303 12.8176 822 119.603 948.588 470.574
3343 0 65.1253 12.3147 802 122.496 949.237 470.737
3344 0 66.1625 11.774 779 126.087 948.392 468.914
3345 0 68.145 10.6831 728 129.578 949.073 468.654
3346 0 71.2115 11.8801 846 126.527 948.904 468.604
3347 0 73.1532 12.3576 904 125.939 949.556 465.919
3348 0 73.1416 11.84 866 129.106 948.427 464.176
3349 0 77.1883 12.6055 973 126.032 948.47 461.411
3350 0 81.1916 12.8831 1046 124.319 948.185 462.558
3351 0 80.1847 11.0246 884 131.6 949.741 458.904
3352 0 86.2024 12.8303 1106 125.407 948.803 456.868
3353 0 88.1037 11.6794 1029 128.252 948.259 453.92
3354 0 91.1663 11.9452 1089 126.546 948.777 451.4
3355 0 93.1348 11.6498 1085 126.745 948.496 451.681
3356 1 50.1111 10.7162 537 118.616 949.164 474.49
3357 0 50.1499 11.0469 554 122.531 949.551 472.839
3358 0 51.1225 11.4627 586 116.797 948.751 473.838
3359 0 54.1235 11.4738 621 116.829 948.797 471.778
3360 0 53.0577 10.0268 532 120.914 948.558 471.241
3361 0 55.1117 10.8144 596 119.945 948.69 469.403
3362 0 58.1152 11.8041 686 117.707 948.469 470.208
3363 0 60.087 11.3669 683 118.754 948.164 470.02
3364 0 62.1651 11.9842 745 117.655 948.236 466.977
3365 0 63.1164 11.6768 737 118.558 947.989 468.421
3366 0 66.1175 12.1753 805 117.347 948.742 466.712
3367 0 68.155 11.5472 787 120.151 947.983 463.53
3368 0 70.1702 11.1728 784 120.418 948.066 465.099
3369 0 73.1998 11.7897 863 118.401 948.439 463.038
3370 0 74.1239 11.3189 839 121.128 947.479 459.02
3371 0 78.0867 11.6025 906 120.26 946.823 458.558
3372 0 80.163 11.7635 943 121.021 948.305 457.492
3373 0 83.1994 10.9616 912 123.798 947.821 458.191
3374 0 85.3505 12.3022 1050 121.645 947.668 455.139
3375 0 89.1999 12.231 1091 123.386 947.452 453.804
3376 0 91.2004 11.6776 1065 125.469 947.205 451.505
3377 1 46.156 9.25123 427 116.457 947.89 476.187
3378 0 48.1169 9.93415 478 115.669 947.54 475.594
3379 0 50.0927 10.9397 548 114.613 948.115 474.401
3380 0 52.0991 9.84662 513 114.797 948.168 471.947
3381 0 53.1428 10.8199 575 112.433 948.169 472.17
3382 0 54.0646 10.432 564 112.755 947.599 470.645
3383 0 57.0649 11.1627 637 109.889 947.355 470.166
3384 0 57.0408 10.0279 572 112.509 947.469 470.14
3385 0 61.06 10.9073 666 108.604 947.014 471.901
3386 0 64.0832 11.4539 734 108.031 947.267 469.296
3387 0 65.0549 10.6987 696 110.76 947.846 466.967
3388 0 65.053 10.5145 684 111.985 947.864 465.534
3389 0 70.0374 12.0079 841 107.92 947.571 463.521
3390 0 72.0384 9.85586 710 112.144 947.492 461.555
3391 0 73.0558 10.3209 754 111.605 947.042 460.743
3392 0 79.0784 11.0017 870 108.987 946.907 461.709
3393 0 81.0245 11.441 927 108.655 946.776 458.437
3394 0 84.1901 9.53794 803 113.186 947.686 457.215
3395 1 39.0177 7.53505 294 111.932 947.452 479.48
3396 0 42.0405 10.7277 451 103.707 947.792 475.98
3397 0 43.019 10.693 460 103.748 947.893 477.352
3398 0 44.0539 10.2829 453 105.13 948.024 477.106
3399 0 47.0236 10.1226 476 106.263 947.525 475.63
3400 0 48.0439 10.7194 515 105.755 947.806 476.06
3401 0 47.0435 9.07671 427 110.276 947.583 474.499
3402 0 51.0665 10.2807 525 107.291 948.15 475.171
3403 0 53.0663 10.3267 548 106.449 947.973 472.179
3404 0 55.0285 9.48599 522 113.45 947.983 474.839
3405 0 55.0833 11.1649 615 109.574 948.241 473.941
3406 0 56.0386 9.49346 532 112.367 947.724 473.081
3407 0 57.0172 9.38313 535 112.389 947.093 473.699
3408 0 59.049 9.21268 544 113.04 947.202 472.851
3409 0 62.0844 10.0186 622 111.077 947.965 469.757
3410 0 64.0551 10.4441 669 110.581 948.384 470.555
3411 0 65.091 10.4008 677 110.239 948.486 470.436
3412 0 65.0594 9.51438 619 113.877 948.296 469.071
3413 0 68.0688 9.72545 662 114.899 947.612 466.437
3414 0 71.0667 10.0469 714 114.952 947.888 466.277
3415 0 77.0531 12.0177 926 110.528 948.836 465.219
3416 0 79.0657 11.3576 898 113.928 948.759 462.258
3417 0 83.0673 11.9421 992 113.119 947.902 462.581
3418 0 82.0541 11.0293 905 117.202 948.526 459.316
3419 1 47.0825 10.3011 485 114.738 948.179 479.584
3420 0 47.0426 11.479 540 113.924 948.272 479.389
3421 0 48.0531 10.0306 482 117.842 948.427 478.888
3422 0 52.0215 11.3415 590 114.854 948.62 477.214
3423 0 54.0642 11.4308 618 116.689 947.736 476.599
3424 0 57.0303 12.8879 735 111.482 947.882 473.616
3425 0 55.0268 9.26822 510 121.663 947.914 476.245
3426 0 58.0698 10.7285 623 119.329 948.022 474.799
3427 0 57.0241 10.0659 574 123.533 948.2 472.078
3428 0 61.0383 11.0259 673 121.53 948.579 471.244
3429 0 64.0277 11.7293 751 120.029 948.679 469.985
3430 0 66.0571 11.6869 772 119.443 947.662 471.646
3431 0 69.0327 11.7915 814 119.829 948.715 469.018
3432 0 71.0551 12.2299 869 119.351 948.906 468.525
3433 0 75.0603 13.0162 977 117.407 948.361 466.184
3434 0 77.1049 11.9318 920 121.418 948.434 465.247
3435 0 80.0834 11.8377 948 121.422 948.472 464.431
3436 0 82.1119 11.1433 915 123.52 948.718 460.984
3437 0 83.1151 12.2842 1021 122.598 949.329 461.12
3438 0 88.1283 12.1981 1075 122.3 949.045 459.557
3439 0 91.1387 12.9363 1179 118.66 949.245 459.046
3440 1 46.044 11.5542 532 115.949 949.59 480.244
3441 0 45.0235 12.0826 544 115.893 949.077 478.388
3442 0 48.0182 11.808 567 115.474 948.792 477.277
3443 0 50.0612 12.3649 619 112.063 948.977 477.215
3444 0 50.1135 11.9728 600 114.877 948.8 477.738
3445 0 52.0918 12.7275 663 112.955 949.371 476.101
3446 0 54.0646 12.3371 667 114.321 948.676 475.574
3447 0 55.022 13.3765 736 112.452 948.542 475.999
3448 0 56.0488 12.3285 691 116.084 949.195 474.181
3449 0 57.0713 11.4769 655 117.802 948.04 475.308
3450 0 60.1313 12.4228 747 114.439 947.718 474.853
3451 0 61.0271 11.6506 711 117.662 947.155 474.219
3452 0 64.0477 13.2089 846 113.702 949.006 470.572
3453 0 66.0757 12.4554 823 114.632 948.552 469.885
3454 0 69.1292 12.6141 872 113.799 948.212 468.992
3455 0 71.0571 13.1443 934 112.612 948.258 467.263
3456 0 72.0723 12.7372 918 114.395 948.086 466.058
3457 0 76.1118 12.0743 919 115.279 947.716 466.022
3458 1 38.0056 11.7877 448 116.058 947.754 484.031
3459 0 42.0669 11.9096 501 118.613 947.477 482.663
3460 0 42.1026 12.2795 517 119.456 947.723 481.24
3461 0 45.1474 14.065 635 113.359 947.304 480.981
3462 0 44.0352 11.6044 511 119.38 947.62 479.847
3463 0 45.0182 11.2399 506 119.057 947.059 478.443
3464 0 48.0166 12.7664 613 113.463 946.799 478.411
3465 0 49.0722 11.4525 562 116.263 946.804 476.849
3466 0 50.0505 11.4484 573 116.663 946.579 475.311
3467 0 53.1298 13.3259 708 111.089 946.9 476.435
3468 0 54.0198 13.0693 706 112.351 946.55 474.708
3469 0 56.0464 12.7394 714 112.239 946.664 473.225
3470 0 58.05 13.006 755 112.056 947.502 473.869
3471 0 59.0361 12.467 736 116.534 947.171 472.943
3472 0 61.0765 13.0328 796 113.774 947.198 469.862
3473 0 62.047 12.0715 749 114.555 947.354 468.81
3474 0 64.0757 12.8598 824 111.703 947.717 466.796
3475 0 68.0736 12.9272 880 110.233 947.655 466.309
3476 0 71.0761 12.353 878 111.677 947.95 465.953
3477 0 72.0891 13.3585 963 110.086 948.145 463.435
3478 0 76.0597 12.4902 950 111.236 948.031 462.958
3479 0 78.1068 12.7006 992 112.752 947.299 460.719
3480 1 38.2474 10.955 419 107.356 947.411 481.618
3481 0 39.0861 11.3595 444 108.227 948.232 480.507
3482 0 41.0141 12.1909 500 104.45 947.73 481.28
3483 0 40.0561 11.2093 449 109.227 947.434 480.356
3484 0 40.1207 10.5432 423 113.069 947.173 479.13
3485 0 45.0515 11.1872 504 109.073 948.264 478.782
3486 0 46.0704 11.6561 537 110.197 947.905 477.795
3487 0 45.0116 13.0411 587 108.649 947.421 476.097
3488 0 45.0116 12.9966 585 112.957 947.398 476.108
3489 0 49.0367 12.3173 604 110.743 947.24 475.018
3490 0 52.0231 12.2253 636 110.612 947.794 473.807
3491 0 53.0771 11.5869 615 112.615 947.049 474.384
3492 0 53.0966 11.5638 614 125.873 946.072 474.345
3493 0 56.0406 11.0099 617 115.755 947.84 472.491
3494 0 59.0538 11.8197 698 114.764 947.699 470.319
3495 0 61.0496 12.9567 791 112.498 948.028 469.719
3496 0 61.0591 11.366 694 118.758 948.478 467.869
3497 0 64.0684 12.9237 828 115.738 947.827 466.553
3498 0 66.1309 12.3089 814 117.738 948.152 465.622
3499 0 68.1262 12.0071 818 118.028 947.985 464.881
3500 0 72.0915 12.928 932 116.335 947.96 463.027
3501 0 75.1777 13.1289 987 115.836 948.106 461.769
3502 0 76.0965 12.7864 973 117.988 948.504 458.269
3503 0 78.1354 12.1968 953 120.288 947.954 458.71
3504 0 81.1091 11.0222 894 125.282 947.66 458.319
3505 0 85.1074 12.3726 1053 123.153 947.87 455.972
3506 1 45.1088 11.6607 526 125.424 949.186 476.57
3507 0 46.0857 11.0663 510 129.18 949.059 475.082
3508 0 48.0879 11.1255 535 116.697 948.269 474.024
3509 0 46.0332 10.6879 492 120.825 947.108 472.083
3510 0 51.0447 12.538 640 114.464 946.817 471.653
3511 0 52.0207 12.0529 627 115.976 947.15 473.065
3512 0 54.0304 11.6971 632 117.263 946.457 470.31
3513 0 55.0303 11.957 658 117.178 947.813 470.691
3514 0 57.0221 11.7498 670 116.325 947.142 470.699
3515 0 61.0399 11.6317 710 116.825 946.6 469.28
3516 0 61.0616 11.7914 720 119.453 947.229 466.863
3517 0 65.0435 13.022 847 114.681 948.032 465.357
3518 0 67.1665 11.6576 783 117.641 948.046 465.457
3519 0 67.0937 11.1039 745 120.472 947.949 462.534
3520 0 70.0846 12.0997 848 116.619 947.755 461.887
3521 0 75.0988 11.7312 881 116.89 947.41 459.192
3522 0 79.1063 13.0331 1031 112.776 947.969 457.555
3523 0 79.0603 11.8138 934 116.518 947.232 456.509
3524 0 81.1114 11.3054 917 117.174 948.599 454.408
3525 0 85.0868 11.8115 1005 116.746 948.099 451.746
3526 1 40.0188 9.02077 361 117.654 947.9 475.377
3527 0 44.0302 9.97042 439 115.301 947.308 472.54
3528 0 47.0699 10.2826 484 115.874 948.196 475.897
3529 0 48.1264 11.4075 549 111.572 948.393 473.648
3530 0 49.1433 12.5348 616 109.122 948.771 472.745
3531 0 51.1653 10.3195 528 113.968 948.956 472.759
3532 0 52.061 10.8527 565 113.196 949.064 470.678
3533 0 53.1904 11.4118 607 113.129 948.397 468.942
3534 0 54.1618 11.0595 599 115.18 948.005 468.327
3535 0 58.1692 12.1026 704 111.93 948.912 469.007
3536 0 58.074 11.0893 644 115.11 948.278 467.073
3537 0 62.1304 11.5885 720 113.417 948.192 467
3538 0 63.0687 12.4309 784 112.068 948.617 465.696
3539 0 66.1071 11.8293 782 112.971 948.651 462.564
3540 0 69.1069 11.4316 790 113.835 948.089 461.501
3541 0 69.156 11.3512 785 114.445 948.288 463.712
3542 0 72.1443 11.5463 833 114.154 948.521 461.106
3543 0 75.1996 10.7713 810 123.435 948.346 460.056
3544 0 76.2268 10.3376 788 125.464 948.09 457.371
3545 0 81.1892 11.4917 933 116.025 948.003 456.753
3546 0 85.2372 12.1543 1036 115.74 947.812 455.676
3547 0 87.1 11.2514 980 118.49 948.018 452.959
3548 0 91.1942 12.0402 1098 116.732 948.179 452.212
3549 0 93.1894 12.2761 1144 117.851 948.181 451.293
3550 1 48.2212 9.39421 453 118.338 947.921 474.263
3551 0 51.0903 10.1193 517 115.594 948.335 474.327
3552 0 51.1296 10.5418 539 116.985 947.913 472.083
3553 0 53.1708 11.4913 611 114.82 948.93 472.211
3554 0 54.0898 11.7212 634 108.697 948.812 471.175
3555 0 54.0819 10.5396 570 114.128 948.398 470.161
3556 0 58.1813 11.3782 662 112.104 948.949 468.748
3557 0 58.2203 11.7485 684 112.23 948.285 468.192
3558 0 63.1768 12.4571 787 109.043 948.792 468.319
3559 0 65.3006 12.9095 843 108.196 949.002 467.586
3560 0 64.2263 10.9768 705 114.362 948.492 465.678
3561 0 69.4398 13.1769 915 108.527 947.902 464.763
3562 0 70.1677 11.5723 812 113.808 947.803 463.59
3563 0 73.2716 10.8773 797 117.777 948.443 464.92
3564 0 76.3077 9.60584 733 119.194 948.041 463.427
3565 0 78.1407 11.121 869 117.155 949.085 460.307
3566 0 81.3296 10.3406 841 119.036 948.988 459.488
3567 0 82.3087 10.9223 899 118.147 949.418 458.393
3568 0 85.2337 9.97259 850 121.011 949.195 456.934
3569 0 89.2605 11.3824 1016 118.847 948.811 458.122
3570 0 93.4069 11.1127 1038 121.905 948.685 453.18
3571 0 96.3019 12.2116 1176 118.548 948.736 457.066
3572 1 48.1142 12.0754 581 115.446 948.523 477.518
3573 0 49.0555 12.333 605 112.44 947.681 475.311
3574 0 50.0236 12.1543 608 110.579 947.592 473.924
3575 0 52.017 11.7846 613 109.305 948.414 474.07
3576 0 52.0678 13.1943 687 107.399 948.128 472.1
3577 0 52.0964 11.1716 582 112.577 947.878 473.54
3578 0 57.0741 11.4413 653 110.165 947.617 470.899
3579 0 60.0371 11.4596 688 109.757 948.41 471.241
3580 0 61.0755 10.9864 671 110.613 948.039 467.937
3581 0 61.1003 10.8183 661 111.083 947.582 469.658
3582 0 65.1679 12.5062 815 106.573 948.117 467.11
3583 0 65.0699 11.8181 769 108.896 948.524 466.395
3584 0 68.1563 11.6497 794 109.295 947.718 462.562
3585 0 72.1382 12.2958 887 106.184 947.977 464.528
3586 0 71.0593 11.8211 840 110.243 947.995 461.468
3587 0 74.0902 11.2161 831 111.477 947.48 461.522
3588 0 76.1022 11.7868 897 111.196 947.968 458.99
3589 0 80.1685 12.4114 995 110.545 947.884 458.219
3590 0 80.0981 10.587 848 115.474 947.843 457.438
3591 0 81.1357 10.5133 853 116.324 947.972 459.225
3592 0 84.0595 10.9208 918 116.211 947.349 457.034
3593 0 87.1241 10.8122 942 117.344 947.865 454.049
3594 0 89.1742 11.4944 1025 117.39 947.284 452.754
3595 0 94.1669 11.8088 1112 116.738 948.345 451.504
3596 0 96.0809 10.793 1037 122.023 948.713 448.478
3597 0 100.156 11.8515 1187 117.419 948.067 450.963
3598 1 56.1496 11.3269 636 108.885 948.014 469.673
3599 0 57.1745 9.95198 569 110.724 949.49 468.504
3600 0 59.0811 10.6972 632 107.269 948.926 466.733
3601 0 61.0878 11.0169 673 107.177 949.141 465.137
3602 0 64.1004 11.0608 709 107.278 948.992 466.045
3603 0 66.1208 11.5546 764 106.555 949.313 466.228
3604 0 68.218 12.0789 824 115.064 949.8 462.658
3605 0 71.1656 10.9322 778 117.853 949.654 460.842
3606 0 73.1885 10.9853 804 118.476 949.182 461.638
3607 0 75.1409 12.084 908 117.35 948.868 458.525
3608 0 79.2332 12.4064 983 116.057 948.949 459.172
3609 0 83.1799 11.9861 997 116.747 949.784 458.242
3610 0 86.1938 12.6343 1089 115.79 949.089 457.665
3611 1 42.046 9.96528 419 112.558 948.885 480.387
3612 0 44.0454 11.0795 488 109.891 948.557 480.434
3613 0 43.0089 10.9047 469 104.241 948.648 478.215
3614 0 46.0492 11.4226 526 103.205 949.04 479.409
3615 0 48.1217 10.7644 518 105.88 949.118 480.342
3616 0 48.0092 10.7063 514 110.247 948.835 480.346
3617 0 50.1047 12.4539 624 106.862 949.591 478.087
3618 0 51.1142 11.6015 593 109.44 949.105 479.199
3619 0 53.0659 11.759 624 108.946 950.146 477.639
3620 0 54.0741 10.9479 592 111.216 949.127 478.231
3621 0 57.0676 11.2323 641 109.766 949.841 478.783
3622 0 59.1259 13.2598 784 105.955 949.491 477.958
3623 0 60.0581 13.0041 781 108.32 950.141 476.613
3624 0 61.044 11.9094 727 110.345 949.547 478.398
3625 0 63.1226 11.2479 710 109.677 949.551 472.255
3626 0 65.0797 11.9392 777 105.323 949.414 469.876
3627 0 70.2677 11.442 804 105.937 950.174 470.285
3628 0 69.0551 10.745 742 109.046 949.237 469.646
3629 0 74.1647 12.4318 922 104.393 949.638 466.502
3630 0 76.1245 10.8506 826 106.502 949.522 467.016
3631 0 79.0971 12.2634 970 103.993 949.147 463.924
3632 1 39.0813 11.5912 453 103.932 949.4 483.148
3633 0 39.0769 11.6437 455 104.749 949.424 483.624
3634 0 42.0381 11.6323 489 106.104 949.186 481.172
3635 0 44.0505 11.9635 527 105.765 949.323 482.222
3636 0 43.0272 12.1086 521 104.825 948.735 480.806
3637 0 46.0815 12.326 568 103.405 948.69 480.556
3638 0 46.0253 12.1455 559 105.42 948.911 481.066
3639 0 48.0912 12.705 611 103.396 949.113 480.884
3640 0 48.0479 12.3002 591 106.734 949.585 480.076
3641 0 49.0548 12.3128 604 107.27 948.694 476.685
3642 0 51.0705 12.6492 646 108.327 948.845 477.249
3643 0 53.0891 12.5261 665 107.943 949.43 477.108
3644 0 55.0891 11.9806 660 109.292 949.867 477.15
3645 0 56.1296 11.1349 625 111.774 949.251 476.547
3646 0 59.0181 12.1488 717 109.632 949.332 474.18
3647 0 60.0657 12.3864 744 109.708 949.452 474.328
3648 0 61.0646 12.495 763 109.018 949.172 474.233
3649 0 66.0375 12.508 826 108.172 948.843 471.937
3650 0 67.1118 12.5313 841 109.114 948.769 470.031
3651 0 69.0823 12.6226 872 108.994 949.734 469.245
3652 0 69.0606 12.4239 858 111.01 949.114 469.078
3653 0 73.0776 12.302 899 111.051 949.652 467.809
3654 0 75.1119 13.1537 988 109.38 949.281 466.905
3655 0 76.2001 12.1128 923 112.551 949.311 466.36
3656 0 83.1208 13.6669 1136 108.077 949.721 465.562
3657 0 82.1087 12.2033 1002 114.37 949.355 463.335
3658 0 88.2436 13.78 1216 110.827 949.683 462.518
3659 0 90.1822 14.1048 1272 116.538 949.501 458.756
3660 1 44.0619 11.847 522 116.444 950.027 482.513
3661 0 44.1088 11.7664 519 117.306 949.11 482.705
3662 0 46.0359 11.5779 533 117.795 948.869 481.934
3663 0 50.0264 13.3329 667 110.637 948.657 480.528
3664 0 50.0676 13.9611 699 110.884 948.984 480.519
3665 0 52.0286 13.9731 727 111.589 948.287 480.237
3666 0 54.0832 12.8691 696 114.635 948.197 478.428
3667 0 58.0272 14.3209 831 109.533 948.916 479.401
3668 0 59.0699 14.1866 838 111.576 948.276 477.612
3669 0 60.0724 14.5824 876 112.123 948.016 474.97
3670 0 61.0583 14.4288 881 114.11 948.604 473.742
3672 0 62.0693 14.2905 887 114.273 948.479 473.693
3673 0 67.0681 13.9411 935 112.963 948.121 473.025
3674 0 67.0405 14.1556 949 113.319 947.803 470.967
3675 0 70.0873 14.753 1034 111.286 948.253 470.874
3676 0 72.0986 13.4954 973 114.745 948.661 469.047
3677 0 75.0134 14.0242 1052 114.042 948.617 466.423
3678 0 80.0601 13.3899 1072 116.108 947.633 463.631
3679 0 82.0882 14.6062 1199 114.375 947.205 460.379
3680 0 86.234 14.9709 1291 113.811 946.932 460.071
3681 1 44.0567 11.6895 515 121.305 947.668 480.732
3682 0 46.1485 12.1131 559 122.723 947.639 480.553
3683 0 47.026 13.4606 633 117.3 947.627 478.912
3684 0 48.0704 13.397 644 118.168 947.851 477.784
3685 0 51.0284 12.8752 657 119.216 947.548 477.612
3686 0 53.0432 12.5181 664 120.154 947.396 476.142
3687 0 53.0738 12.2282 649 122.852 947.673 475.897
3688 0 57.0364 12.5884 718 121.27 947.774 475.698
3689 0 58.0559 13.9176 808 118.546 948.16 474.661
3690 0 58.0559 13.8659 805 126.56 949.175 474.696
3691 0 65.0718 13.6004 885 117.957 946.631 473.764
3692 0 67.0613 14.5389 975 116.242 947.408 472.189
3693 0 67.0891 14.5627 977 117.496 947.108 471.819
3694 0 71.0725 15.1817 1079 116.094 947.154 469.443
3695 0 72.1148 13.423 968 121.986 947.493 469.406
3696 0 74.1267 13.7602 1020 121.518 947.404 468.215
3697 0 79.0789 14.2516 1127 120.421 947.563 465.962
3698 0 82.0835 14.5462 1194 118.998 947.374 464.648
3699 0 84.067 14.5003 1219 120.146 946.737 462.665
3700 0 89.1274 14.2941 1274 121.075 947.308 461.302
3701 0 90.0924 15.0845 1359 120.095 947.725 459.354
3702 0 95.1977 14.8218 1411 121.91 947.199 457.252
3703 0 96.2009 14.0331 1350 125.72 947.633 459.162
3704 1 53.0522 10.5368 559 127.041 947.782 478.522
3705 0 57.0241 12.1703 694 120.01 947.445 477.741
3706 0 59.0197 13.3854 790 117.301 947.468 474.372
3707 0 61.0729 12.9845 793 115.933 947.23 473.739
3708 0 65.0573 13.7725 896 114.254 947.686 472.587
3709 0 62.0547 11.8122 733 120.823 947.231 470.461
3710 0 68.1559 12.8235 874 116.326 947.571 471.318
3711 0 70.0431 12.5922 882 116.77 946.829 469.777
3712 0 72.0409 11.9377 860 117.583 947.18 467.58
3713 0 75.0841 12.8523 965 115.599 946.841 466.134
3714 0 81.1445 13.8765 1126 112.603 946.813 465.849
3715 0 80.0943 13.172 1055 115.126 947.061 463.591
3716 0 84.0525 12.5993 1059 116.45 946.999 463.23
3717 0 87.0959 14.2601 1242 113.177 946.882 460.56
3718 0 89.1164 12.3995 1105 117.972 946.845 462.688
3719 0 93.1658 13.4169 1250 117.666 946.262 457.514
3720 0 96.1692 13.2059 1270 115.561 945.943 457.667
3721 0 97.1171 11.3368 1101 121.336 946.001 456.453
3722 1 53.0262 11.2963 599 109.222 946.785 476.538
3723 0 53.0272 10.6738 566 111.993 946.94 477.373
3724 0 54.0193 13.1064 708 105.821 946.379 472.924
3725 0 60.0991 12.496 751 104.085 947.039 473.607
3726 0 61.0638 12.2986 751 105.835 946.692 472.971
3727 0 62.0637 11.3432 704 109.006 946.714 471.908
3728 0 66.0522 12.1873 805 106.932 947.266 471.021
3729 0 66.036 11.8117 780 109.027 947.803 466.768
3730 0 70.0488 11.6205 814 109.17 947.892 466.564
3731 0 72.0905 11.9433 861 108.531 947.424 467.036
3732 0 74.0253 10.4829 776 113.642 947.057 464.086
3733 0 79.0804 10.7865 853 114.45 948.427 461.468
3734 0 82.1908 10.3783 853 115.556 947.92 458.238
3735 0 85.1557 10.2166 870 114.948 948.76 457.5
3736 0 89.1371 9.132 814 117.684 948.541 454.029
3737 1 47.1022 9.85092 464 105.75 948.276 475.185
3738 0 46.1051 8.58907 396 106.927 949.422 476.78
3739 0 49.0695 9.25219 454 106.275 948.3 473.463
3740 0 51.0595 11.4572 585 100.745 948.036 473.185
3741 0 51.037 10.3258 527 103.856 948.262 474.055
3742 0 53.0614 9.51727 505 105.057 947.675 474.02
3743 0 55.0287 10.3946 572 103.67 948.495 470.696
3744 0 56.1809 9.5584 537 105.467 948.166 470.231
3745 0 62.1448 10.6365 661 101.536 948.269 468.992
3746 0 62.1677 10.3108 641 103.975 948.254 467.012
3747 0 64.2868 10.7954 694 103.331 948.457 465.902
3748 0 67.115 11.0407 741 103.328 947.854 463.013
3749 0 68.1845 10.4276 711 104.91 948.357 464.346
3750 0 70.1703 9.74771 684 107.863 948.304 462.072
3751 0 74.1503 10.5866 785 105.622 947.904 463.027
3752 0 76.112 10.9313 832 104.954 948.556 462.308
3753 0 79.0989 10.9863 869 105.325 948.208 460.992
3754 0 83.2132 10.8997 907 105.881 948.266 458.002
3755 0 83.2528 9.74142 811 110.313 947.933 456.984
3756 0 88.1697 11.1036 979 107.342 948.658 455.374
3757 0 91.2286 10.3147 941 110.283 948.877 455.378
3758 1 46.1825 9.8089 453 102.552 949.269 478.15
3759 0 44.1608 9.96358 440 105.316 949.411 476.095
3760 0 48.1497 12.5234 603 100.066 949.333 476.881
3761 0 51.1071 12.1314 620 99.6258 949.316 474.09
3762 0 52.0786 12.3659 644 99.5512 949.011 474.665
3763 0 54.1694 12.8486 696 97.6322 949.514 473.022
3764 0 56.0862 10.6978 600 102.077 949.35 474.947
3765 0 58.1827 10.9311 636 101.814 949.517 471.418
3766 0 59.0714 11.5453 682 100.44 949.383 471.28
3767 0 61.0711 11.7895 720 99.4486 948.957 470.724
3768 0 64.0947 12.3411 791 97.2238 949.77 470.692
3769 0 64.1482 11.8164 758 99.6372 949.773 468.15
3770 0 65.0313 12.3172 801 99.3983 949.563 467.059
3771 0 67.0732 11.7484 788 100.565 949.52 467.481
3772 0 70.128 11.9496 838 100.321 949.589 465.296
3773 0 73.0422 13.458 983 96.6155 950.306 467.666
3774 0 73.1135 11.3796 832 103.206 949.994 463.72
3775 0 76.1689 11.7108 892 102.845 950.083 461.941
3776 0 78.1816 11.3965 891 104.092 950.146 463.703
3777 0 82.1655 12.414 1020 103.052 948.66 460.81
3778 0 84.1283 12.79 1076 103.46 949.401 459.135
3779 0 87.1372 11.4761 1000 106.299 949.421 457.906
3780 0 88.1429 11.4133 1006 108.483 950.003 455.128
3781 1 44.0531 11.0548 487 106.29 949.772 478.3
3782 0 47.0645 9.88005 465 107.746 949.875 478.103
3783 0 45.0191 10.9287 492 107.713 950.713 477.75
3784 0 50.0706 12.6022 631 102.905 949.84 475.887
3785 0 51.1516 11.7494 601 104.827 950.584 474.973
3786 0 52.0328 13.1455 684 102.471 950.178 476.007
3787 0 53.089 12.6392 671 104.167 949.818 475.699
3788 0 55.1495 11.9856 661 105.579 949.955 473.33
3789 0 58.0793 12.2591 712 105.011 949.621 471.545
3790 0 60.1039 12.5948 757 105.271 949.123 471.491
3791 0 61.0621 12.4136 758 105.722 948.93 470.423
3792 0 64.1087 13.3367 855 104.338 948.302 469.485
3793 0 65.0706 15.1989 989 101.513 948.525 467.711
3794 0 66.0691 12.0934 799 108.073 948.655 467.482
3795 0 69.0925 12.0852 835 109.103 948.78 468.328
3796 0 72.0923 12.8724 928 107.825 949.236 467.065
3797 0 73.173 12.7233 931 109.714 948.839 466.058
3798 0 74.06 11.8283 876 113.855 948.584 463.618
3799 0 78.0554 12.3374 963 112.322 948.789 463.777
3800 0 79.0835 13.353 1056 111.27 948.537 464.24
3801 0 81.1165 13.3635 1084 112.788 948.96 459.626
3802 0 87.0868 13.8138 1203 111.16 948.869 455.912
3803 0 86.1207 11.4955 990 118.621 948.978 455.312
3804 0 92.1948 13.1895 1216 114.359 949.411 454.558
3805 0 94.1377 13.5759 1278 114.125 949.053 451.784
3806 1 48.0614 9.94562 478 114.272 949.912 478.408
3807 0 49.0746 11.4927 564 112.819 947.98 478.156
3808 0 52.0654 12.6571 659 113.786 948.742 477.171
3809 0 51.0263 11.5627 590 120.569 948.024 475.98
3810 0 56.0537 11.7923 661 116.658 948.074 475.847
3811 0 57.1342 12.1643 695 111.388 948.883 475.081
3812 0 59.043 12.584 743 110.638 948.688 474.711
3813 0 61.0797 12.41 758 110.36 948.975 473.813
3814 0 63.0612 11.8456 747 111.186 949.159 473.21
3815 0 65.0286 13.0558 849 108.695 949.137 470.55
3816 0 69.065 13.8565 957 105.349 949.852 473.04
3817 0 71.0743 12.9301 919 107.79 949.088 472.145
3818 0 75.0687 12.2155 917 110.14 949.665 469.366
3819 0 76.0326 13.0865 995 110.006 948.657 466.966
3820 0 76.0964 11.9059 906 112.536 949.134 467.37
3821 0 83.0752 12.7354 1058 109.324 949.448 465.122
3822 0 83.0641 12.6288 1049 112.156 949.36 462.525
3823 0 87.0962 12.756 1111 111.14 948.814 461.632
3824 0 91.0928 12.4928 1138 110.671 948.774 460.85
3825 0 92.0595 13.6216 1254 110.811 949.123 455.967
3826 1 48.198 12.4694 601 109.348 949.434 479.323
3827 0 51.033 12.8544 656 107.29 950.146 480.252
3828 0 52.0327 12.6075 656 106.637 949.445 478.418
3829 0 54.0583 12.949 700 103.741 949.113 476.266
3830 0 55.0563 12.6961 699 109.043 949.651 476.991
3831 0 57.0247 12.8015 730 108.34 949.249 476.121
3832 0 59.0656 12.7316 752 108.013 949.161 474.173
3833 0 62.0459 12.1362 753 108.416 949.332 471.797
3834 0 65.0939 13.6111 886 104.938 949.584 471.797
3835 0 65.0687 12.6021 820 107.984 949.235 472.07
3836 0 68.1318 13.5326 922 106.003 948.755 470.795
3837 0 71.1059 12.0103 854 110.008 948.439 468.33
3838 0 72.1511 12.5015 902 110.392 948.926 468.073
3839 0 76.109 13.5858 1034 107.283 948.911 466.26
3840 0 78.2538 13.5457 1060 107.636 948.712 465.97
3841 0 80.1297 12.7543 1022 109.327 948.871 462.651
3842 0 84.1101 13.7082 1153 106.875 949.133 460.746
3843 0 87.1411 14.8839 1297 104.629 948.904 461.584
3844 0 91.1625 13.7227 1251 107.207 948.098 459.263
3845 0 92.1794 12.4214 1145 111.089 949.181 458.619
3846 0 96.1348 13.0026 1250 110.134 949.376 455.64
3847 0 100.123 12.5645 1258 112.666 948.675 454.596
3848 0 104.17 13.8716 1445 108.599 949.536 451.95
3849 1 52.0592 12.1784 634 110.208 949.123 477.189
3850 0 55.0612 11.7506 647 109.354 949.553 475.23
3851 0 57.1039 12.486 713 108.373 948.115 474.55
3852 0 60.1305 12.9219 777 106.228 948.449 475.085
3853 0 61.1092 11.9458 730 109.115 948.442 473.248
3854 0 65.0685 12.9402 842 106.16 948.612 472.673
3855 0 66.1137 12.8718 851 107.655 948.671 471.686
3856 0 69.0224 12.8509 887 107.844 948.118 469.773
3857 0 71.105 12.7136 904 108.726 948.796 469.631
3858 0 73.1034 13.0363 953 108.952 948.466 467.271
3859 0 75.0816 12.7195 955 110.412 948.348 467.74
3860 0 77.2159 13.404 1035 109.912 948.345 464.995
3861 0 80.0884 12.8233 1027 112.25 948.937 462.673
3862 0 84.0746 13.2026 1110 109.857 948.884 463.147
3863 0 87.1596 12.9303 1127 111.273 948.818 459.709
3864 0 89.2026 13.5758 1211 109.719 948.227 460.552
3865 0 92.2229 13.3589 1232 110.927 948.662 457.164
3866 0 95.1743 13.7012 1304 112.775 948.37 455.012
3867 0 97.2736 13.4055 1304 114.637 948.261 452.438
3868 0 101.215 13.6837 1385 114.378 948.469 450.927
3869 0 101.181 12.4924 1264 118.498 948.812 447.129
3870 0 108.117 13.1154 1418 115.544 948.794 446.6
3871 0 110.132 13.2478 1459 116.728 948.4 444.909
3872 1 57.041 12.0089 685 112.328 949.288 470.092
3873 0 60.0515 12.5726 755 109.697 949.164 470.033
3874 0 63.0337 13.7545 867 108.938 949.405 468.242
3875 0 65.0922 12.5668 818 111.027 949.226 465.583
3876 0 67.1029 13.5911 912 108.97 948.934 463.732
3877 0 69.0573 11.7728 813 113.899 949.533 464.33
3878 0 70.1077 13.1797 924 111.308 948.832 463.415
3879 0 72.0616 12.5448 904 114.405 948.981 462.577
3880 0 76.1203 13.0057 990 112.566 949.094 461.804
3881 0 79.1221 12.5376 992 115.196 948.811 459.253
3882 0 82.1632 13.9844 1149 112.919 949.235 458.701
3883 0 86.1561 13.4988 1163 115.25 949.068 455.852
3884 0 87.2178 13.1166 1144 119.724 948.399 454.596
3885 0 91.2235 14.4042 1314 117.512 948.915 455.05
3886 0 95.1597 14.628 1392 117.047 948.555 452.361
3887 0 97.1109 14.3444 1393 119.477 947.908 449.307
3888 0 99.1736 14.0763 1396 121.337 948.544 449.466
3889 0 101.205 14.1495 1432 122.049 948.608 447.17
3890 0 107.151 14.5589 1560 120.816 948.98 445.692
3891 0 111.134 14.8469 1650 120.099 948.012 443.684
3892 1 56.06 11.7909 661 124.864 948.076 471.238
3893 0 58.0895 11.4823 667 117.258 947.922 470.549
3894 0 61.084 12.9166 789 111.646 947.767 469.668
3895 0 61.0471 12.2365 747 115.617 947.712 467.041
3896 0 65.0634 12.2189 795 114.044 947.405 467.611
3897 0 66.0674 12.124 801 113.534 947.528 469.809
3898 0 70.034 13.5648 950 111.222 947.594 465.206
3899 0 71.1178 12.7113 904 113.809 947.404 464.313
3900 0 73.1979 13.9622 1022 110.521 948.115 463.569
3901 0 74.2017 11.9269 885 116.609 947.629 462.102
3902 0 78.309 13.7277 1075 112.16 948.217 460.553
3903 0 82.3926 12.5982 1038 114.422 947.855 459.901
3904 0 83.2751 12.9691 1080 114.793 948.47 460.126
3905 0 85.1644 12.834 1093 116.487 948.371 459.618
3906 0 90.1723 13.6738 1233 114.813 948.513 456.561
3907 0 90.1758 12.9968 1172 118.677 947.724 453.084
3908 0 94.3685 12.6419 1193 119.527 947.651 453.412
3909 0 97.1116 14.0251 1362 116.454 948.173 451.883
3910 0 100.331 12.6482 1269 119.929 947.525 448.708
3911 0 104.267 12.0844 1260 119.888 948.329 451.381
3912 0 110.257 12.9607 1429 117.01 947.953 451.136
3913 0 112.311 13.4448 1510 116.755 948.277 446.811
3914 0 117.29 12.2432 1436 118.891 946.971 442.086
3915 0 122.245 12.974 1586 116.401 947.673 441.569
3916 1 61.2007 11.3071 692 116.802 947.49 472.207
3917 0 63.1589 12.6348 798 114.957 947.82 469.266
3918 0 67.2271 13.5213 909 111.367 946.889 467.745
3919 0 68.1548 13.6161 928 111.519 947.621 466.765
3920 0 68.1774 12.6141 860 115.586 947.221 465.101
3921 0 73.1617 13.9691 1022 110.726 946.6 466.11
3922 0 74.1203 12.5876 933 113.146 946.442 464.792
3923 0 78.1191 14.7339 1151 109.515 946.323 462.032
3924 0 81.2111 14.0129 1138 110.476 946.642 461.466
3925 0 84.1456 13.7381 1156 112.389 946.157 459.131
3926 0 85.2859 11.8073 1007 118.134 946.565 456.344
3927 0 89.1892 12.2212 1090 116.971 945.749 453.806
3928 0 94.2008 12.813 1207 115.729 945.931 452.359
3929 0 96.2174 11.7131 1127 118.607 946.175 450.051
3930 1 51.1227 9.35005 478 113.255 945.872 472.891
3931 0 53.1512 11.2886 600 111.788 946.22 475.125
3932 0 56.2429 12.0193 676 107.991 947.024 473.078
3933 0 57.1614 12.2635 701 103.367 945.884 469.656
3934 0 59.0647 11.6313 687 104.732 945.77 469.233
3935 0 65.1755 12.6428 824 100.524 946.138 470.346
3936 0 65.1003 12.6113 821 101.609 945.844 467.894
3937 0 66.0915 11.8321 782 103.807 945.647 467.82
3938 0 68.0308 11.5242 784 105.379 945.301 467.63
3939 0 71.0819 11.5641 822 105.641 945.734 464.056
3940 0 74.0539 12.9095 956 100.908 945.528 461.213
3941 0 75.0396 13.153 987 102.516 945.477 460.257
3942 0 77.0257 12.0999 932 105.656 945.426 458.763
3943 0 81.0548 13.0776 1060 103.106 945.941 458.516
3944 0 85.0327 12.0307 1023 105.514 945.773 457.236
3945 0 85.0979 11.2694 959 107.393 945.522 456.363
