time division length width area intensity CMx CMy
0 0 31.0151 11.8652 368 174.87 128.435 478.682
1 0 34.0214 12.0218 409 168.298 129.015 477.848
2 0 35.0573 12.6935 445 166.047 129.389 477.508
3 0 37.0198 12.0206 445 166.571 129.503 477.996
4 0 39.016 11.8157 461 165.18 129.473 477.046
5 0 37.0168 12.5619 465 167.744 129.832 477.039
6 0 38.0265 12.8858 490 165.957 129.424 476.139
7 0 41.0725 13.3666 549 159.962 129.186 475.339
8 0 41.0662 13.393 550 159.215 128.818 477.129
9 0 41.0155 12.6294 518 164.021 128.604 476.427
10 0 42.0281 13.5861 571 160.168 127.806 476.289
11 0 43.0145 12.5307 539 165.993 129.019 475.169
12 0 46.0511 13.8976 640 156.314 128.4 474.581
13 0 46.0311 13.7516 633 158.916 127.839 475.561
14 0 48.0519 14.5051 697 155.818 127.753 474.187
15 0 47.0664 13.9378 656 158.8 127.998 474.718
16 0 48.0696 13.6053 654 159.742 127.524 473.599
17 0 51.0562 13.9846 714 156.577 127.716 473.461
18 0 52.0344 14.3751 748 155.211 128.123 472.993
19 0 53.0557 13.7026 727 157.136 127.99 473.298
20 0 54.0711 14.9618 809 153.111 126.661 471.689
21 0 55.0454 14.5698 802 154.077 126.438 472.214
22 0 58.0488 14.3844 835 154.831 126.863 471.716
23 0 62.0674 16.4982 1024 144.807 127.326 469.903
24 0 62.1049 15.7636 979 146.991 126.159 470.763
25 0 65.0604 15.9544 1038 145.99 126.024 468.461
26 0 67.041 15.2146 1020 148.153 126.591 467.736
27 0 69.0662 16.0571 1109 145.192 126.373 465.592
28 0 65.0603 13.0341 848 154.481 125.474 469.737
29 0 64.1224 12.0239 771 159.267 125.866 469.625
30 0 69.152 12.393 857 158.254 125.946 466.876
31 1 119.995 14.7423 1769 159.666 125.38 443.846
32 0 121.349 14.652 1778 162.528 124.686 440.671
33 0 127.159 14.9262 1898 161.454 124.999 440.83
34 0 126.504 14.4264 1825 164.62 124.69 440.585
35 0 131.928 14.5837 1924 162.667 125.035 440.465
36 0 131.698 15.285 2013 162.941 125.647 435.303
37 0 139.85 14.9589 2092 162.342 125.555 432.26
38 1 174.041 15.6343 2721 151.621 124.907 415.476
39 1 50.0155 12.4162 621 145.812 125.024 474.006
40 0 51.0321 12.9722 662 145.631 124.686 472.778
41 0 54.0473 13.2106 714 144.856 125.364 474.688
42 0 57.0365 13.6229 777 143.656 124.968 473.596
43 0 58.0956 13.3057 773 145.586 125.862 472.109
44 0 61.0996 12.9461 791 145.781 125.546 471.311
45 0 63.0223 13.3445 841 144.97 125.109 472.269
46 0 67.0258 14.0841 944 143.286 125.074 469.94
47 0 69.0956 13.9517 964 143.451 125.122 469.946
48 0 71.1087 14.8786 1058 143.525 125.39 465.191
49 0 73.0604 13.5915 993 148.328 124.617 465.005
50 0 75.0592 14.402 1081 147.251 124.605 464.059
51 0 82.152 15.1914 1248 139.583 124.837 464.843
52 0 85.076 15.4097 1311 139.272 124.7 463.109
53 0 86.0561 15.1064 1300 141.693 124.38 462.086
54 0 87.0893 14.8353 1292 143.94 124.392 458.926
55 0 91.2545 15.528 1417 140.589 124.276 459.701
56 0 94.0872 16.2084 1525 139.388 124.582 456.826
57 0 98.0809 15.4566 1516 140.724 123.616 455.53
58 0 103.128 15.5438 1603 138.492 123.944 453.614
59 0 107.116 15.6466 1676 136.931 124.695 452.927
60 0 114.249 16.6742 1905 134.497 123.965 448.794
61 1 56.0762 12.7149 713 139.975 124.377 478.356
62 0 59.0808 14.184 838 137.589 124.15 475.488
63 0 62.0543 14.8096 919 134.752 123.644 473.972
64 0 62.1113 14.3774 893 137.427 124.614 473.37
65 0 65.0963 14.1483 921 137.066 124.286 473.52
66 0 67.1388 14.0455 943 138.633 123.46 470.969
67 0 70.072 14.2853 1001 137.212 123.607 471.057
68 0 72.1275 14.3219 1033 137.089 123.927 469.268
69 0 75.0428 14.9248 1120 134.738 123.156 468.314
70 0 77.0767 14.3883 1109 137.665 123.811 465.879
71 0 80.0538 14.1655 1134 136.742 122.918 465.03
72 0 82.1998 14.0268 1153 137.067 122.761 462.529
73 0 87.1008 13.4901 1175 136.859 123.936 463.133
74 0 89.224 14.6149 1304 133.467 123.916 460.71
75 0 90.0983 14.129 1273 134.199 123.3 460.041
76 0 94.2066 14.5425 1370 133.692 123.664 458.985
77 0 99.1054 13.864 1374 133.29 123.57 456.557
78 1 50.1163 11.613 582 128.474 123.722 481.275
79 0 53.1571 12.6041 670 127.079 123.66 480.075
80 0 55.0488 13.261 730 129.099 123.915 478.652
81 0 56.0359 13.0274 730 122.459 124.13 477.967
82 0 57.0527 12.0064 685 125.636 124.429 477.337
83 0 60.0812 12.533 753 122.683 123.922 476.398
84 0 64.0668 11.7065 750 124.412 124.26 476.433
85 0 66.0506 13.7168 906 119.592 123.948 474.202
86 0 67.0901 11.7901 791 125.417 123.647 473.032
87 0 69.0852 12.7958 884 123.759 124.542 472.531
88 0 72.0498 12.2138 880 126.283 123.918 471.064
89 0 74.174 12.2145 906 126.61 123.52 470.486
90 0 75.1495 12.3354 927 127.097 123.21 469.937
91 0 78.1766 11.9985 938 129.269 123.518 468.006
92 0 82.0377 13.311 1092 126.521 122.897 464.488
93 0 84.1029 12.6631 1065 129.903 122.943 464.952
94 0 88.2031 12.8907 1137 128.5 123.4 464.15
95 0 91.139 13.8799 1265 126.311 122.811 461.504
96 0 95.1396 12.6446 1203 130.861 122.833 459.229
97 1 50.0589 10.7473 538 126.104 123.762 483.987
98 0 50.1213 11.7315 588 125.976 123.643 482.054
99 0 52.1619 10.7933 563 128.041 124.117 481.389
100 0 55.1278 13.514 745 121.047 124.023 478.483
101 0 55.147 11.9861 661 127.685 122.977 475.548
102 0 59.0529 12.057 712 125.101 122.447 475.926
103 0 61.0446 13.3017 812 122.538 122.921 476.581
104 0 63.034 12.0253 758 126.083 122.611 474.455
105 0 65.0325 11.8864 773 125.939 122.695 475.464
106 0 66.0216 12.8897 851 124.944 122.065 473.283
107 0 68.0382 11.8316 805 129.125 122.424 473.33
108 0 70.1393 12.0047 842 128.993 122.755 471.894
109 0 74.1319 12.3968 919 127.53 122.31 471.381
110 0 76.0464 13.0315 991 128.651 121.887 468.159
111 0 78.0899 12.1014 945 131.05 121.872 468.916
112 0 80.1615 13.1984 1058 130.09 122.523 465.218
113 0 84.0651 13.7275 1154 129.763 122.256 463.222
114 0 86.0597 13.6766 1177 130.174 121.951 460.91
115 0 91.1303 14.1446 1289 128.211 122.486 460.389
116 0 93.0704 12.6034 1173 133.171 122.069 458.127
117 0 96.083 14.0712 1352 130.907 122.476 455.273
118 0 100.187 14.3032 1433 129.179 122.001 455.515
119 0 104.133 13.8285 1440 131.014 122.309 454.132
120 0 105.107 13.0439 1371 131.437 122.527 453.57
121 0 109.193 12.9221 1411 130.315 122.571 452.649
122 1 57.02 12.7499 727 126.406 121.228 474.343
123 0 61.0203 13.6184 831 122.856 122.01 475.977
124 0 61.138 12.8725 787 124.837 121.74 476.199
125 0 63.2019 12.5471 793 126.265 122.537 474.508
126 0 63.0793 11.5886 731 130.68 121.293 473.249
127 0 67.1052 13.2926 892 126.233 121.089 472.628
128 0 70.0902 12.113 849 129.833 121.702 471.801
129 0 72.0838 13.5537 977 127.107 121.482 469.678
130 0 74.0815 13.1072 971 129.459 121.531 467.894
131 0 75.0795 13.8254 1038 128.446 121.59 467.285
132 0 80.092 13.4096 1074 129.776 121.367 465.436
133 0 81.0929 13.3304 1081 130.751 121.796 464.236
134 0 82.2396 13.0716 1075 132.785 121.398 463.598
135 0 87.139 14.2416 1241 129.597 121.4 459.79
136 0 90.045 14.2929 1287 129.605 120.931 459.901
137 0 94.159 14.2631 1343 129.947 121.333 456.459
138 0 96.0757 14.2492 1369 126.938 120.86 456.151
139 0 98.1911 12.3535 1213 135.507 120.464 454.899
140 1 54.2213 11.4531 621 128.171 122.071 478.098
141 0 56.197 12.0291 676 129.364 122.604 473.84
142 0 57.2871 12.289 704 130.628 122.081 473.467
143 0 57.0669 11.8808 678 125.233 121.208 475.99
144 0 59.1169 11.3335 670 126.552 121.075 474.77
145 0 61.0826 12.655 773 122.863 122.092 473.22
146 0 64.0779 12.8593 824 120.35 121.333 473.436
147 0 66.0666 12.4269 821 122.038 120.917 471.16
148 0 67.0576 11.7064 785 125.09 122.787 470.489
149 0 73.0948 13.845 1012 115.304 122.388 467.62
150 0 74.1293 14.0565 1042 116.153 122.692 468.054
151 0 75.1634 12.7855 961 118.263 122.725 463.159
152 0 78.1845 12.2147 955 121.295 122.378 460.451
153 0 81.1232 12.3146 999 121.509 122.909 459.836
154 0 83.111 13.3797 1112 119.616 121.478 462.085
155 0 84.2323 11.7057 986 125.579 121.496 457.076
156 0 88.1007 13.6094 1199 130.037 121.188 458.166
157 0 92.1155 12.0067 1106 133.615 120.974 458.225
158 0 95.1008 12.0083 1142 133.289 121.718 456.792
159 0 97.172 11.9376 1160 134.788 121.804 453.874
160 0 101.173 12.0289 1217 131.279 121.606 453.9
161 0 102.19 11.0579 1130 132.28 122.78 453.141
162 1 53.0612 11.1946 594 122.012 121.717 478.926
163 0 56.0696 12.0921 678 119.699 122.369 477.524
164 0 56.016 12.907 723 116.633 122.364 476.882
165 0 58.0861 12.4126 721 118.799 122.2 474.818
166 0 59.0975 12.2509 724 119.776 121.461 474.598
167 0 60.0926 11.9981 721 120.222 122.211 473.082
168 0 64.0485 13.4273 860 115.516 122.052 470.686
169 0 64.0624 11.3639 728 120.747 122.169 472.552
170 0 68.1065 12.2602 835 117.683 122.133 470.764
171 0 72.0307 13.1611 948 113.772 122.11 470.031
172 0 73.0433 12.9238 944 115.805 121.927 468.842
173 0 75.0592 12.8299 963 116.811 122.42 466.476
174 0 76.0516 12.6625 963 118.503 121.632 464.431
175 0 81.0875 11.8514 961 120.027 122.268 465.155
176 0 83.0531 12.9676 1077 118.11 121.851 464.253
177 0 85.1946 11.7144 998 122.311 121.648 463.544
178 0 86.0891 11.976 1031 123.913 121.874 459.172
179 0 90.1452 12.014 1083 124.848 122.435 456.416
180 0 100.368 11.9958 1204 85.2899 122.12 461.622
181 1 48.0092 11.8519 569 116.197 122.132 478.916
182 0 49.0436 11.6019 569 117.761 121.865 480.886
183 0 51.0403 12.2256 624 115.431 122.046 481.428
184 0 52.097 11.3634 592 119.223 121.904 480.056
185 0 52.0244 11.7829 613 120.007 122.279 478.445
186 0 54.0392 12.824 693 117.814 122.769 476.83
187 0 55.0232 11.995 660 121.345 122.612 476.606
188 0 58.0666 11.7451 682 122.135 122.979 476.455
189 0 59.0284 12.0112 709 122.647 121.609 475.509
190 0 61.0243 12.4704 761 119.715 122.545 475.946
191 0 62.0983 12.0615 749 123.202 122.005 473.144
192 0 65.1477 12.5561 818 121.812 122.351 471.533
193 0 67.0362 12.9781 870 121.613 122.603 470.587
194 0 67.1392 12.7645 857 123.919 122.433 469.07
195 0 71.1179 13.0488 928 122.529 122.871 470.051
196 0 72.1475 11.6983 844 128.335 123.044 467.911
197 0 76.0442 13.216 1005 124.874 123.434 465.242
198 0 79.1701 13.9068 1101 122.674 123.235 465.662
199 0 81.065 14.5686 1181 121.61 123.776 463.452
200 0 86.1952 13.7943 1189 122.056 123.354 463.313
201 0 89.1028 13.8716 1236 122.873 122.966 460.713
202 1 48.0734 13.3962 644 121.943 123.258 479.821
203 0 49.0157 11.7717 577 123.744 123.705 480.714
204 0 52.0541 14.0623 732 114.71 123.463 478.712
205 0 53.1207 12.8763 684 117.768 123.711 479.868
206 0 52.0571 12.5439 653 121.567 123.557 479.609
207 0 54.0695 11.6702 631 123.708 123.076 478.983
208 0 55.0346 12.8465 707 119.652 122.781 478.573
209 0 57.0466 12.744 727 121.337 123.32 476.678
210 0 59.0511 12.396 732 122.867 123.447 475.507
211 0 61.1046 13.3541 816 121.229 123.746 473.689
212 0 65.0357 14.2537 927 116.86 122.587 474.31
213 0 66.047 13.9295 920 118.955 122.48 473.46
214 0 67.044 13.2749 890 122.722 123.064 472.444
215 0 69.0636 13.8423 956 121.525 122.454 469.128
216 0 71.1098 13.6128 968 121.876 123.748 470.313
217 0 71.1024 13.797 981 123.969 123.403 468.612
218 0 75.0859 13.7176 1030 125.024 123.435 466.114
219 0 78.0826 13.8827 1084 124.371 122.404 466.602
220 0 81.2198 13.7159 1114 124.238 122.232 465.376
221 0 83.1604 14.0572 1169 125.064 123.257 462.666
222 0 85.1263 13.8735 1181 125.141 122.551 462.859
223 0 89.1026 13.838 1233 125.24 122.301 461.543
224 1 49.0267 12.3402 605 127.559 123.021 481.438
225 0 50.0428 12.3494 618 129.521 122.251 481.243
226 0 51.0177 13.5247 690 130.199 123.496 480.371
227 0 49.0296 12.8698 631 128.655 123.027 479.149
228 0 53.1417 12.5137 665 127.956 123.126 477.868
229 0 56.0638 13.8057 774 122.713 122.791 476.468
230 0 57.0517 12.3747 706 127.562 122.643 476.71
231 0 57.0539 12.6372 721 126.68 122.297 476.978
232 0 60.0621 13.5526 814 123.762 122.502 475.677
233 0 59.0821 12.4234 734 128.955 123.041 475.837
234 0 62.0584 12.4077 770 127.964 123.442 474.269
235 0 64.0288 13.2284 847 126.244 123.373 473.937
236 0 65.0964 13.4877 878 128.603 122.837 472.002
237 0 67.0592 12.3175 826 131.613 123.691 471.9
238 0 70.066 14.6291 1025 125.232 123.03 469.575
239 0 70.0942 13.3249 934 132.54 123.596 468.713
240 0 73.1071 13.4323 982 133.315 122.406 467.291
241 0 78.0708 14.4228 1126 129.858 122.869 465.471
242 0 79.1073 13.9178 1101 132.067 122.391 463.711
243 0 83.1207 14.4007 1197 130.16 122.334 463.115
244 0 86.0702 13.4658 1159 132.466 122.467 461.786
245 0 88.103 14.3809 1267 131.183 121.85 459.999
246 0 91.1005 14.5554 1326 129.458 121.875 458.67
247 1 46.011 10.6714 491 134.026 123.585 480.78
248 0 49.0089 12.0182 589 130.09 123.095 477.268
249 0 48.0953 11.7475 565 124.308 123.113 481.963
250 0 49.0532 11.7016 574 126.002 123.164 480.051
251 0 51.092 11.4891 587 127.16 123.281 478.189
252 0 52.0516 12.9103 672 123.594 123.249 477.97
253 0 54.0986 11.8302 640 125.152 122.869 479.689
254 0 57.0453 12.7793 729 121.75 122.757 478.069
255 0 58.1771 13.0979 762 122.551 123.034 475.694
256 0 60.0741 12.8674 773 121.155 122.224 477.144
257 0 61.0932 13.1275 802 122.312 122.441 474.025
258 0 63.129 12.7675 806 123.65 122.891 474.031
259 0 66.1009 12.723 841 123.788 122.837 470.838
260 0 69.0731 12.8849 890 124.052 123.094 471.592
261 0 69.0786 12.797 884 125.554 122.767 469.732
262 0 72.0784 13.6379 983 123.377 122.532 468.825
263 0 76.1066 13.5599 1032 123.65 122.478 467.155
264 0 79.1796 13.6146 1078 123.483 122.546 467.037
265 0 81.1606 13.7752 1118 122.399 122.916 467.363
266 0 83.1159 13.9444 1159 123.688 122.465 464.823
267 0 86.0479 12.9347 1113 127.323 123.248 464.11
268 0 88.0496 12.97 1142 128.494 122.272 461.365
269 0 92.0406 13.3419 1228 126.485 122.125 460.042
270 1 46.0147 11.3877 524 128.256 121.406 482.681
271 0 48.0861 11.5418 555 127.106 121.15 480.84
272 0 50.0273 13.1928 660 122.502 121.873 480.944
273 0 52.0322 12.9151 672 123.731 122.749 479.777
274 0 53.0375 13.0474 692 123.662 122.064 480.059
275 0 57.0592 13.0391 744 121.296 122.847 478.358
276 0 58.0909 12.5837 731 122.037 122.546 476.971
277 0 59.0472 12.5323 740 121.864 121.809 476.218
278 0 62.0942 13.4473 835 118.187 121.656 474.941
279 0 63.0917 12.9811 819 120.072 123.002 474.315
280 0 66.1125 13.114 867 118.755 122.141 474.087
281 0 69.0334 13.9932 966 116.094 121.575 472.053
282 0 70.0932 13.4535 943 118.197 121.259 469.436
283 0 72.1198 12.7427 919 119.009 123.701 468.849
284 0 76.1477 13.5789 1034 117.428 122.363 466.942
285 0 79.0822 13.4038 1060 117.235 122.528 467.542
286 0 79.1524 13.2782 1051 118.281 122.644 464.436
287 0 83.1142 14.065 1169 116.302 122.804 462.785
288 1 45.0446 11.0557 498 117.056 122.564 483.793
289 0 45.0157 11.5293 519 115.522 120.222 482.466
290 0 47.031 12.3323 580 111.271 121.657 481.191
291 0 48.0307 11.6384 559 114.032 122.941 480.179
292 0 49.0666 12.697 623 111.111 122.493 478.952
293 0 52.103 13.2046 688 109.484 122.532 479.388
294 0 53.0575 12.8351 681 109.874 121.952 478.135
295 0 55.039 13.8811 764 107.297 121.798 477.495
296 0 56.0256 12.7977 717 111.314 122.558 476.587
297 0 58.0815 12.4136 721 111.544 122.216 478.323
298 0 57.1215 12.7098 726 113.333 122.631 476.453
299 0 61.0861 12.5888 769 111.871 122.111 476.407
300 0 62.0833 12.4832 775 111.436 121.828 475.319
301 0 65.0437 12.899 839 111.4 121.53 473.504
302 0 68.0861 14.2907 973 107.141 122.297 472.721
303 0 69.129 12.6864 877 111.338 122.412 469.879
304 0 72.152 13.43 969 109.497 122.484 470.407
305 0 73.0605 12.9755 948 110.98 122.946 468.899
306 0 78.08 13.3965 1046 109.655 122.731 467.591
307 0 80.1859 13.2442 1062 110.969 122.663 466.061
308 0 83.0818 13.9862 1162 109.858 122.68 463.075
309 0 84.1219 12.7553 1073 112.942 121.784 464.506
310 0 87.1088 12.8345 1118 113.462 122.307 461.747
311 1 46.0639 10.6374 490 111.608 123.118 483.294
312 0 45.0211 10.0842 454 113.333 122.174 482.064
313 0 47.0616 10.6881 503 112.769 121.962 481.481
314 0 51.0333 13.4226 685 104.663 121.691 479.309
315 0 50.0449 11.11 556 111.322 122.849 480.489
316 0 52.0135 11.6316 605 108.871 123.35 480.547
317 0 51.0156 11.0554 564 111.191 122.498 479.126
318 0 55.1325 11.155 615 108.875 122.567 480.439
319 0 57.0956 12.9957 742 105.845 122.54 478.392
320 0 56.0348 11.3501 636 110.726 122.613 477.448
321 0 59.1297 12.5994 745 107.498 122.482 475.286
322 0 62.0838 12.5314 778 107.907 122.171 473.924
323 0 63.1405 11.6882 738 109.767 121.901 473.366
324 0 67.0711 11.9575 802 109.163 121.854 472.561
325 0 69.0945 12.056 833 110.185 121.708 470.465
326 0 72.0829 12.3885 893 108.728 121.243 470.909
327 0 74.1183 13.5594 1005 107.363 121.433 469.791
328 0 79.1162 13.5118 1069 107.775 121.907 468.638
329 0 82.0893 12.9493 1063 114.534 122.402 465.741
330 0 84.163 13.7115 1154 112.843 122.465 463.912
331 1 42.0639 11.744 494 112.117 123.012 484.488
332 0 42.0755 11.8596 499 111.309 122.555 484.471
333 0 45.0523 11.6087 523 111.256 121.891 483.987
334 0 49.0791 12.4085 609 108.731 123.09 482.45
335 0 47.0399 12.3725 582 111.1 121.491 482.512
336 0 48.0392 11.3865 547 113.982 122.927 481.735
337 0 51.0568 11.83 604 112.217 123.061 482.252
338 0 52.0884 12.2292 637 113.576 122.284 478.837
339 0 52.0423 10.9911 572 116.009 123.089 480.601
340 0 56.0754 13.2857 745 110.529 123.33 478.715
341 0 56.0194 11.9066 667 113.33 122.933 479.61
342 0 56.0263 11.3161 634 115.812 123.319 478.519
343 0 59.052 10.9565 647 116.116 123.351 476.377
344 0 61.1235 11.5504 706 115.534 123.499 475.942
345 0 66.0634 12.2458 809 112.491 124.251 474.368
346 0 68.1489 12.6488 862 112.372 123.835 471.929
347 0 70.1821 11.6839 820 112.878 123.715 472.194
348 0 74.1623 12.6075 935 110.153 124.18 470.539
349 0 77.0786 12.844 990 112.574 124.105 469.21
350 0 76.1043 11.2083 853 114.722 123.925 468.372
351 0 81.1704 11.8516 962 113.152 123.602 464.781
352 0 83.3294 12.7566 1063 113.803 124.478 464.028
353 0 87.092 12.8485 1119 114.037 123.892 463.027
354 1 46.064 11.3755 524 116.202 123.443 482.044
355 0 48.0852 12.4571 599 106.922 123.204 481.661
356 0 49.0481 12.1106 594 108.613 123.483 481.061
357 0 50.0197 11.6154 581 108.627 121.651 480.995
358 0 53.0821 12.4524 661 106.135 122.393 480.514
359 0 54.0363 11.7514 635 110.017 121.877 480.25
360 0 54.0196 12.4769 674 108.552 122.024 480.475
361 0 56.1328 12.5595 705 109.356 121.634 477.16
362 0 59.0769 12.7969 756 107.594 121.882 476.25
363 0 61.0242 12.9129 788 107.901 121.621 476.102
364 0 62.2139 12.7624 794 109.588 122.179 473.733
365 0 67.0438 13.081 877 107.078 121.431 474.119
366 0 68.0433 13.0211 886 108.828 122.117 472.389
367 0 70.0669 13.3158 933 107.478 121.608 471.263
368 0 71.0739 13.7885 980 107.576 121.87 468.993
369 0 75.0446 13.7918 1035 107.348 121.326 468.69
370 0 79.0966 13.3887 1059 107.415 122.008 467.639
371 0 79.1057 12.616 998 110.488 121.982 465.898
372 0 83.0892 12.8537 1068 109.375 122.101 464.47
373 0 84.0673 12.5376 1054 110.982 121.627 464.071
374 0 88.1965 12.835 1132 110.042 121.654 463.733
375 0 90.0892 11.644 1049 115.363 122.702 461.261
376 1 47.0376 10.5873 498 115.295 122.353 483.831
377 0 49.0413 12.3773 607 112.638 122.885 481.634
378 0 51.0901 12.9379 661 110.998 122.433 478.988
379 0 51.1133 11.3278 579 114.769 122.097 480.086
380 0 52.052 11.4501 596 116.55 121.596 479.314
381 0 55.0899 11.9804 660 114.486 121.594 478.236
382 0 54.0649 12.6145 682 114.89 121.438 478.067
383 0 57.0285 13.9053 793 108.363 122.344 476.76
384 0 57.0458 13.0597 745 111.828 122.009 477.781
385 0 59.157 12.695 751 112.719 122.656 475.979
386 0 62.0993 12.2546 761 113.034 122.301 475.285
387 0 65.0739 12.9852 845 113.551 122.231 475.241
388 0 65.1084 13.5006 879 113.858 122.519 473.173
389 0 69.0289 13.6899 945 112.6 122.367 471.639
390 0 71.1729 13.4883 960 113.798 121.185 472.523
391 0 75.0762 13.3331 1001 113.215 122.445 471.97
392 0 76.1243 14.3055 1089 112.408 121.521 469.084
393 0 80.1045 14.1066 1130 112.541 121.668 466.399
394 0 83.2814 13.6045 1133 114.235 121.883 465.922
395 0 88.1163 13.2325 1166 115.097 121.884 464.892
396 1 46.036 12.0123 553 117.953 121.852 483.765
397 0 47.0198 12.3352 580 116.024 121.65 481.584
398 0 47.0559 11.8795 559 114.106 121.712 483.574
399 0 48.0552 12.0695 580 115.621 123.007 482.722
400 0 51.033 11.3064 577 115.497 122.83 483.419
401 0 52.0449 11.2787 587 116.872 121.99 481.952
402 0 54.0684 11.393 616 116.755 121.94 480.929
403 0 54.0167 13.1071 708 113.497 121.575 478.915
404 0 57.0493 12.4804 712 114.388 121.063 479.369
405 0 57.0394 11.6937 667 117.654 121.654 478.756
406 0 60.086 13.1145 788 113.942 122.141 477.029
407 0 60.0387 12.1255 728 117.284 121.308 478.25
408 0 64.0565 11.6772 748 118.436 121.544 475.757
409 0 65.0399 12.9459 842 115.6 121.539 474.024
410 0 70.0823 12.8991 904 114.439 122.218 472.538
411 0 72.0702 13.6533 984 113.205 121.772 471.01
412 0 74.1533 14.4565 1072 111.436 121.576 471.215
413 0 76.0633 12.6736 964 116.829 121.645 470.211
414 0 79.2115 13.9879 1108 113.549 121.936 467.999
415 0 83.0572 13.9422 1158 113.478 122.154 466.282
416 0 84.062 14.0016 1177 114.588 122.155 463.655
417 0 87.1308 13.2904 1158 115.861 122.459 464.864
418 0 93.1251 13.3154 1240 114.759 122.79 462.544
419 0 93.1435 12.5398 1168 118.811 122.379 459.92
420 1 51.048 11.6165 593 118.405 122.359 482.944
421 0 52.0806 12.8839 671 116.398 121.692 479.037
422 0 54.0473 13.2291 715 114.965 122.713 478.14
423 0 57.1086 13.5181 772 115.014 122.146 476.275
424 0 57.0931 12.8912 736 118.632 124.389 477.302
425 0 59.0567 12.5303 740 118.243 123.916 477.326
426 0 59.1018 12.5039 739 119.981 124.038 477.103
427 0 63.1105 13.4684 850 115.193 123.861 477.369
428 0 62.0347 13.1539 816 118.621 123.939 475.217
429 0 65.0166 13.9657 908 117.294 124.127 472.939
430 0 69.0483 13.7585 950 117.194 124.493 473.289
431 0 70.0474 13.1625 922 119.913 124.504 473.684
432 0 72.1301 12.5191 903 122.856 123.915 470.435
433 0 75.1336 13.9352 1047 119.556 123.918 470.257
434 0 77.0538 13.2635 1022 123.051 124.251 468.118
435 0 80.1706 14.4941 1162 119.485 124.429 467.648
436 0 80.0835 13.0739 1047 125.321 124.325 466.151
437 0 84.145 12.2527 1031 126.719 123.635 466.361
438 0 88.1341 14.0468 1238 121.938 123.632 463.892
439 0 91.0778 13.8124 1258 120.127 123.717 463.351
440 0 92.224 12.5239 1155 116.332 122.77 461.518
441 1 46.0125 11.3882 524 118.941 123.882 483.084
442 0 49.2212 11.8445 583 117.858 122.065 479.336
443 0 51.0206 13.0535 666 117.92 122.123 481.634
444 0 50.13 12.2681 615 116.114 121.72 482.193
445 0 53.0562 12.9485 687 113.955 122.098 481.202
446 0 54.1485 12.6873 687 115.397 122.019 480.371
447 0 56.0775 12.0904 678 117.004 122.071 479.44
448 0 56.0427 11.973 671 119.048 122.514 478.768
449 0 59.0467 12.0413 711 118.601 122.191 477.807
450 0 61.0824 12.213 746 118.899 122.798 476.406
451 0 63.0526 13.2112 833 115.643 122.921 477.361
452 0 65.0495 13.8356 900 114.79 121.766 474.697
453 0 67.0908 13.3998 899 118.046 123.085 472.524
454 0 67.1248 13.1099 880 121.372 122.841 472.137
455 0 70.0513 13.9469 977 119.323 122.776 472.328
456 0 72.0569 13.2534 955 121.309 122.712 470.923
457 0 77.0477 13.2905 1024 121.312 122.796 468.722
458 0 78.0642 13.7451 1073 121.053 123.102 467.959
459 0 81.0633 14.6059 1184 118.383 123.045 466.671
460 0 83.1232 13.883 1154 121.568 122.568 465.099
461 0 86.0558 13.468 1159 123.478 122.852 461.972
462 0 86.0558 13.5145 1163 164.12 122.858 462.028
463 0 93.1053 13.3612 1244 121.71 122.816 461.113
464 1 48.0298 11.7843 566 122.486 123.459 482.567
465 0 51.0631 13.356 682 117.532 122.302 480.705
466 0 52.0554 13.063 680 115.431 122.901 480.418
467 0 56.0815 13.837 776 111.994 121.965 480.282
468 0 55.0809 13.3077 733 116.482 122.027 479.237
469 0 58.0798 13.6364 792 114.128 121.282 479.321
470 0 59.0463 13.7858 814 114.747 121.543 478.26
471 0 60.0248 12.828 770 118.192 122.052 477.24
472 0 64.0946 13.5581 869 115.898 121.636 475.624
473 0 64.1414 12.3321 791 120.951 122.316 474.895
474 0 67.1986 13.661 918 117.004 122.752 474.186
475 0 70.1225 14.1609 993 116.828 122.886 472.696
476 0 70.1599 13.3125 934 120.434 122.888 472.81
477 0 74.1019 13.441 996 120.545 122.208 469.973
478 0 77.2209 14.4779 1118 117.795 122.634 469.021
479 0 77.3081 13.7631 1064 121.466 122.861 469.17
480 0 81.1455 14.3693 1166 120.023 122.081 466.95
481 0 82.2708 12.787 1052 124.849 121.881 465.919
482 0 87.2537 15.2429 1330 118.071 122.246 462.981
483 0 88.2387 13.9848 1234 122.538 123.278 462.318
484 0 93.4349 15.2406 1424 118.084 122.896 460.119
485 0 95.2725 15.3665 1464 119.073 122.357 458.506
486 0 99.4122 14.123 1404 121.836 122.114 457.499
487 0 102.339 14.5203 1486 121.118 122.976 456.073
488 0 104.352 14.7098 1535 120.791 122.863 455.969
489 0 109.189 15.093 1648 119.211 123.075 453.632
490 0 112.267 14.5903 1638 120.425 122.349 452.589
491 0 115.312 14.8294 1710 120.069 122.683 447.478
492 0 119.219 13.8652 1653 120.341 122.123 446.263
493 0 124.177 13.3197 1654 120.602 122.304 447.252
494 1 73.263 13.0489 956 122.024 122.426 470.047
495 0 75.2569 13.8459 1042 121.293 122.913 467.345
496 0 79.0898 13.9335 1102 118.443 122.398 467.518
497 0 82.1022 13.2152 1085 120.456 121.967 467.823
498 0 82.2033 12.8705 1058 123.449 121.817 464.05
499 0 87.2218 14.3542 1252 118.789 122.824 463.01
500 0 88.2787 13.7066 1210 123.563 123.269 460.004
501 0 89.227 13.1238 1171 126.971 123.547 459.587
502 0 93.1486 12.9041 1202 129.312 122.909 458.46
503 0 96.0837 13.9566 1341 127.142 124.01 454.582
504 0 98.0504 13.0749 1282 129.141 124.287 455.046
505 0 100.162 14.0672 1409 126.766 123.872 449.35
506 0 101.235 13.2168 1338 129.714 123.296 448.786
507 0 106.131 13.766 1461 126.572 123.77 446.982
508 0 109.113 12.9315 1411 130.009 123.521 446.131
509 0 111.226 12.7219 1415 131.163 123.189 444.353
510 0 114.153 12.7198 1452 130.267 122.75 439.652
511 1 58.064 10.454 607 122.282 122.664 470.921
512 0 61.103 10.9487 669 120.374 123.256 471.271
513 0 66.2226 12.5335 830 123.061 123.124 472.706
514 0 67.1943 13.1261 882 109.567 123.404 466.4
515 0 69.1604 11.2781 780 115.468 122.883 466.512
516 0 70.1735 12.0416 845 114.004 122.254 465.179
517 0 75.1916 13.5653 1020 113.435 122.805 466.251
518 0 77.1197 13.5893 1048 119.092 123.221 468.687
519 0 80.1292 14.2894 1145 116.087 123.017 467.892
520 0 81.0904 13.9104 1128 118.062 123.629 465.793
521 0 84.1061 13.6494 1148 119.745 122.729 463.917
522 0 86.0943 13.9266 1199 118.912 122.148 462.15
523 0 88.1769 13.5296 1193 119.932 123.591 461.848
524 0 92.0286 14.05 1293 118.116 122.843 458.482
525 0 92.1258 13.4599 1240 121.084 123.108 458.609
526 0 96.1969 14.6678 1411 118.434 122.21 454.748
527 0 96.226 13.593 1308 121.431 121.501 456.117
528 0 101.218 13.9501 1412 120.241 122.14 453.317
529 0 105.31 13.7309 1446 119.925 122.199 452.704
530 0 108.199 14.1868 1535 119.118 122.736 449.939
531 0 110.228 14.5154 1600 118.666 122.329 446.447
532 0 112.282 13.19 1481 123.173 122.37 445.294
533 0 117.268 13.8656 1626 121.426 122.518 442.362
534 0 120.347 12.9875 1563 123.955 122.186 441.909
535 0 125.2 12.6357 1582 125.489 122.385 436.051
536 1 69.1156 11.3433 784 124.911 122.631 466.159
537 0 72.0316 12.1336 874 122.911 123.674 463.38
538 0 75.1905 13.4858 1014 117.966 123.022 462.017
539 0 78.0911 12.4854 975 123.608 123.309 465.411
540 0 78.186 13.3528 1044 122.694 123.368 465.046
541 0 81.2146 12.5839 1022 124.413 122.638 462.379
542 0 85.1644 13.0336 1110 121.648 122.967 460.848
543 0 85.1844 13.3827 1140 123.511 122.964 455.424
544 0 89.1705 13.1658 1174 124.865 122.54 454.595
545 0 91.2014 14.2542 1300 122.867 123.342 452.628
546 0 94.1947 13.6738 1288 125.499 122.573 452.116
547 0 98.0983 14.3224 1405 123.239 122.987 452.223
548 0 100.232 12.5709 1260 129.109 122.886 451.408
549 0 103.091 12.2513 1263 131.181 124.116 448.855
550 1 55.0384 11.0832 610 122.097 123.861 476.397
551 0 57.164 13.2951 760 120.724 123.596 476.778
552 0 59.0951 13.4867 797 126.415 123.78 478.684
553 0 60.1018 13.2608 797 127.935 123.467 479.969
554 0 61.1142 12.5503 767 131.823 123.16 476.619
555 0 64.0819 13.4984 865 128.688 122.472 474.876
556 0 67.1162 13.6182 914 128.665 124.008 474.885
557 0 68.2685 12.6413 863 131.908 123.267 474.466
558 0 70.1851 14.5472 1021 127.119 123.006 472.554
559 0 72.1633 13.026 940 131.015 122.819 473.82
560 0 72.0951 11.8455 854 134.582 123.907 472.944
561 0 76.1303 13.8316 1053 130.564 123.394 470.378
562 0 79.2033 12.853 1018 133.027 122.409 468.985
563 0 81.1691 13.2563 1076 131.911 122.97 467.878
564 0 83.2246 13.1091 1091 131.655 122.963 466.843
565 0 85.073 13.0359 1109 132.171 122.498 465.485
566 0 87.1517 12.0594 1051 133.654 122.532 464.213
567 0 89.122 11.6806 1041 133.774 122.306 464.004
568 1 46.0266 11.0371 508 128.309 123.894 485.5
569 0 48.0185 11.9121 572 122.53 123.25 484.577
570 0 48.0107 12.768 613 121.584 122.953 483.613
571 0 50.0769 12.4608 624 121.207 122.995 482.574
572 0 50.0406 12.4099 621 121.404 123.319 481.113
573 0 54.0147 13.5889 734 116.054 123.564 481.767
574 0 53.0323 12.9355 686 119.873 123.614 480.115
575 0 56.0876 13.2115 741 116.911 123.928 480.725
576 0 58.0818 12.689 737 118.904 123.738 478.948
577 0 60.0886 12.7312 765 117.62 123.118 477.727
578 0 62.0605 12.6812 787 118.319 122.961 477.22
579 0 62.2226 12.4231 773 120.668 122.915 476.944
580 0 66.0531 12.9441 855 118.992 123.254 474.787
581 0 68.1405 13.9564 951 117.974 122.63 472.685
582 0 71.1343 14.0439 999 116.72 122.72 471.673
583 0 73.0804 13.1362 960 120.657 122.628 470.722
584 0 75.168 12.5984 947 122.516 123.239 469.54
585 0 76.065 12.1869 927 125.597 122.916 469.43
586 0 78.102 12.6245 986 126.918 123.099 467.308
587 0 82.1206 12.7617 1048 127.359 123.384 465.723
588 0 83.1279 12.0417 1001 130.66 121.927 462.984
589 0 88.1059 12.8028 1128 130.917 123.401 464.035
590 0 89.1 13.8159 1231 130.565 122.468 462.662
591 1 48.0927 11.0828 533 123.923 123.353 486.381
592 0 50.1144 11.5536 579 123.364 123.919 484.789
593 0 49.1378 12.0071 590 121.776 124.215 485.078
594 0 50.0386 10.6518 533 125.452 124.257 484
595 0 52.1378 12.9273 674 120.596 123.49 482.571
596 0 53.0623 12.6078 669 121.842 124 481.584
597 0 56.0905 11.7845 661 121.828 123.07 479.868
598 0 56.0958 12.7104 713 119.872 123.146 480.679
599 0 58.1524 11.3839 662 123.137 123.267 479.051
600 0 60.1116 12.2439 736 120.615 123.493 479.296
601 0 61.0468 11.9253 728 121.952 123.591 476.637
602 0 65.0689 12.1563 791 120.899 122.818 476.399
603 0 69.1584 12.9702 897 117.787 122.371 475.588
604 0 70.0933 13.1824 924 119.065 123.177 474.155
605 0 71.0558 11.8498 842 121.752 123.838 472.563
606 0 74.0326 12.1298 898 121.154 123.255 472.929
607 0 78.0902 12.7161 993 120.34 122.718 468.886
608 0 80.1533 12.5385 1005 121.612 122.701 467.604
609 0 84.0756 13.131 1104 120.979 123.04 467.534
610 0 86.2327 12.9649 1118 125.145 122.062 465.034
611 1 45.1727 11.3564 513 119.737 122.893 486.051
612 0 46.0865 12.7369 587 116.058 122.879 485.492
613 0 46.1232 12.0764 557 119.226 122.709 484.815
614 0 48.0883 12.2691 590 119.332 123.332 483.885
615 0 51.0706 12.375 632 119.226 123.179 482.994
616 0 52.2013 11.5514 603 119.262 123.444 483.942
617 0 52.1709 12.229 638 120.009 123.114 482.661
618 0 54.1226 12.8227 694 116.941 122.98 482.013
619 0 56.1085 12.2619 688 118.387 122.824 481.278
620 0 59.2067 12.6675 750 116.484 122.864 481.449
621 0 60.1621 12.9317 778 115.586 123.747 480.024
622 0 60.0894 11.9489 718 120.061 122.799 476.897
623 0 63.1871 13.009 822 121.35 123.51 476.445
624 0 64.2501 12.7938 822 120.803 122.74 476.382
625 0 67.1153 12.9032 866 116.115 122.977 476.409
626 0 69.1203 12.471 862 119.142 122.914 473.701
627 0 71.129 12.2454 871 119.639 122.549 472.71
628 0 71.2218 11.2887 804 122.158 122.652 472.69
629 0 73.1363 10.4326 763 124.556 122.786 473.481
630 0 78.0905 12.4087 969 120.653 122.842 469.946
631 0 80.2001 12.3067 987 121.007 121.775 467.665
632 0 83.0969 11.8657 986 121.461 122.326 468.332
633 0 86.0831 12.6506 1089 119.221 122.828 465.927
634 1 45.0094 11.7087 527 115.789 122.474 485.789
635 0 47.0822 12.0003 565 115.595 121.878 484.646
636 0 48.0835 12.6031 606 115.205 122.782 483.71
637 0 52.053 12.6986 661 113.449 123.375 484.551
638 0 51.0888 12.4881 638 116.713 122.149 482.77
639 0 53.0871 12.018 638 117.801 123.29 483.524
640 0 53.0244 11.9945 636 119.126 123.484 482.239
641 0 55.0564 12.4418 685 119.337 122.46 481.498
642 0 56.0501 12.8813 722 118.78 122.474 481.111
643 0 58.0965 13.1333 763 118.848 122.037 479.261
644 0 62.058 13.6969 850 116.876 122.978 478.824
645 0 61.0557 12.7588 779 121.922 122.331 475.882
646 0 64.087 13.4661 863 120.547 122.22 476.506
647 0 68.1279 12.1976 831 124.853 122.563 475.284
648 0 69.0942 12.1139 837 127.036 122.772 475.526
649 0 71.2298 12.1297 864 129.55 121.767 472.341
650 0 72.0399 11.8545 854 131.651 121.907 472.361
651 0 75.0923 11.639 874 131.14 122.175 473.027
652 0 80.0771 13.2872 1064 127.055 121.747 471.649
653 0 86.1551 17.2944 1490 87.0409 122.922 471.128
654 0 83.1064 13.5489 1126 128.83 122.205 466.666
655 0 87.1961 13.2804 1158 128.708 122.009 466.952
656 0 91.2338 13.2517 1209 130.209 122.335 463.415
657 0 93.265 12.8451 1198 131.854 121.922 462.64
658 1 48.1579 12.7705 615 127.042 121.411 484.976
659 0 49.0836 12.3463 606 129.02 121.573 484.548
660 0 51.1179 13.596 695 130.76 121.626 481.872
661 0 52.1002 13.2821 692 128.351 122.327 482.643
662 0 53.0785 13.8286 734 127.753 121.905 481.45
663 0 56.0434 12.3476 692 130.79 121.647 481.471
664 0 58.0718 13.1045 761 126.25 122.414 482.261
665 0 61.0817 13.6047 831 124.681 121.643 478.546
666 0 67.2863 13.8513 932 88.6019 122.784 478.538
667 0 64.15 13.6555 876 123.645 121.784 475.911
668 0 65.1008 13.5636 883 123.928 121.769 476.288
669 0 70.0803 13.8841 973 121.044 122.383 475.049
670 0 70.1489 14.0843 988 121.725 121.718 474.715
671 0 74.1676 13.2268 981 124.055 122.005 471.989
672 0 77.0876 13.5301 1043 122.636 122.088 471.228
673 0 79.0954 14.0084 1108 123.464 121.925 469.563
674 0 81.2288 14.1083 1146 124.528 121.65 466.05
675 0 83.179 13.0802 1088 128.756 122.546 466.631
676 0 86.3699 12.7591 1102 129.307 121.981 465.554
677 0 90.2384 14.0517 1268 126.944 121.652 462.309
678 0 94.458 14.6626 1385 125.698 121.591 461.277
679 0 98.3201 14.3918 1415 126.139 121.704 461.001
680 0 101.316 13.8774 1406 128.259 121.269 459.289
681 0 107.233 18.4924 1983 86.6757 121.434 456.274
682 1 55.1388 13.1849 727 122.171 121.08 483.05
683 0 55.1343 11.9345 658 128.717 121.813 480.388
684 0 57.1325 11.9197 681 126.808 121.461 480.692
685 0 58.1026 11.3936 662 128.435 121.867 480.008
686 0 61.1861 12.0125 735 127.604 120.988 479.888
687 0 63.1667 13.1873 833 126.322 121.39 476.797
688 0 67.1228 13.2295 888 125.169 120.774 477.108
689 0 69.3359 13.7014 950 124.58 120.772 474.784
690 0 73.1559 13.9428 1020 124.697 120.933 474.682
691 0 75.1958 14.4024 1083 123.686 121.427 473.345
692 0 76.1475 14.1436 1077 126.477 121.139 471.142
693 0 78.1933 13.2236 1034 129.122 121.443 470.277
694 0 80.2195 13.3509 1071 130.091 121.439 468.17
695 0 85.1465 14.6571 1248 125.337 121.509 466.377
696 0 86.1831 13.4829 1162 128.285 121.201 467.114
697 0 89.2871 13.8094 1233 129.6 121.229 462.063
698 0 94.2049 14.5852 1374 126.392 121.553 461.271
699 0 99.2551 13.6517 1355 127.81 121.472 460.859
700 0 101.139 13.7731 1393 127.668 121.846 458.369
701 0 105.317 13.1793 1388 127.671 122.488 457.214
702 0 108.31 14.3385 1553 124.641 122.562 453.676
703 1 52.2172 13.463 703 123.69 121.733 479.411
704 0 54.1377 13.8905 752 120.812 121.856 480.441
705 0 55.0765 11.711 645 126.033 121.957 480.453
706 0 56.1671 12.5162 703 124.95 121.723 478.542
707 0 59.126 12.5495 742 124.588 122.237 478.024
708 0 60.0945 13.5287 813 121.189 122.138 477.288
709 0 60.0882 13.0308 783 120.571 121.667 475.056
710 0 65.068 13.1094 853 120.758 121.81 476.717
711 0 66.0904 13.5723 897 115.67 122.342 475.251
712 0 69.136 12.8587 889 120.172 121.947 473.579
713 0 70.1527 12.8862 904 121.305 122.116 472.31
714 0 74.1034 13.6701 1013 120.299 123.233 472.397
715 0 76.2093 12.6887 967 123.589 122.413 470.993
716 0 78.3033 13.2051 1034 124.654 122.06 468.506
717 0 80.3385 13.6547 1097 124.79 122.744 465.475
718 0 81.566 12.824 1046 126.468 122 466.327
719 0 85.5866 14.6869 1257 122.027 122.579 462.247
720 0 87.4572 14.7386 1289 122.362 122.8 461.155
721 0 91.525 14.8812 1362 121.985 123.134 460.177
722 0 92.6281 13.9698 1294 125.496 122.96 458.098
723 0 95.5908 13.244 1266 127.854 123.82 457.9
724 0 98.4117 13.4943 1328 126.887 123.005 457.989
725 0 100.72 13.8602 1396 124.955 122.209 455.928
726 1 53.4618 12.5136 669 124.583 122.534 478.433
727 0 54.5536 12.1898 665 124.681 123.083 478.14
728 0 58.5049 13.1442 769 123.495 122.971 476.564
729 0 60.3994 12.9803 784 123.645 123.205 475.337
730 0 62.4997 12.1441 759 126.414 123.577 474.14
731 0 62.4235 12.6715 791 126.713 123.632 473.857
732 0 66.271 13.1883 874 125.399 123.22 472.604
733 0 68.3762 13.4988 923 123.775 123.465 471.352
734 0 71.4563 13.4908 964 124.199 123.21 470.746
735 0 72.4756 12.6387 916 127.046 123.211 469.842
736 0 75.3396 12.9148 973 126.775 122.49 467.55
737 0 77.3686 13.4938 1044 124.186 122.818 467.568
738 0 82.4534 13.9109 1147 120.877 122.954 465.872
739 0 83.3158 14.0309 1169 121.221 122.53 463.891
740 0 86.4436 14.3793 1243 120.219 122.485 462.479
741 0 89.3255 13.9714 1248 120.107 123.123 460.085
742 0 91.3733 13.3737 1222 122.193 122.549 457.822
743 0 94.5566 13.3994 1267 120.715 122.681 457.354
744 0 97.4135 13.7045 1335 121.243 122.975 453.126
745 1 50.2399 9.65369 485 117.216 123.612 478.761
746 0 52.5773 12.8192 674 110.056 123.12 477.451
747 0 54.2024 12.3057 667 111.864 122.733 478.858
748 0 58.1132 12.9403 752 113.61 122.576 477.816
749 0 60.1129 12.4433 748 115.567 122.914 475.457
750 0 62.1072 12.7521 792 113.687 122.807 475.138
751 0 62.1995 13.1673 819 115.304 122.946 472.205
752 0 65.05 12.2675 798 117.262 122.999 471.98
753 0 66.0682 12.805 846 117.314 123.335 469.95
754 0 69.1308 12.4836 863 118.267 123.341 468.784
755 0 69.1054 12.9512 895 119.377 122.524 465.28
756 0 72.1181 12.3686 892 121.479 123.291 463.749
757 0 75.0572 12.8036 961 119.697 122.751 464.741
758 0 76.1991 12.218 931 123.255 122.162 462.977
759 0 80.1752 13.3458 1070 119.524 123.169 459.372
760 0 83.078 13.4933 1121 119.422 122.586 459.801
761 0 83.1042 12.37 1028 124.468 122.672 457.657
762 0 87.128 12.9694 1130 123.49 122.259 456.369
763 0 90.1409 13.2903 1198 123.22 122.114 454.057
764 0 91.3361 12.2515 1119 126.402 122.1 452.366
765 0 95.1348 12.4665 1186 125.984 121.981 450.7
766 0 99.1483 12.8494 1274 124 121.83 449.058
767 0 103.122 13.9737 1441 119.448 121.879 448.851
768 1 57.1582 10.5322 602 120.304 121.636 471.543
769 0 59.1083 10.0324 593 119.72 121.044 472.911
770 0 64.1174 11.4166 732 117.391 123.321 472.454
771 0 65.0744 12.2629 798 118.992 121.774 474.722
772 0 67.1263 12.335 828 118.851 121.766 473.972
773 0 71.2036 12.2606 873 117.422 121.719 472.326
774 0 73.2592 11.6163 851 118.79 121.717 472.94
775 0 75.194 11.3174 851 119.092 121.485 472.686
776 0 77.1399 11.8356 913 118.105 121.083 470.097
777 0 80.0996 11.7853 944 119.464 122.253 467.833
778 0 82.1557 12.9875 1067 116.553 122.392 465.9
779 0 86.2966 11.3446 979 119.651 122.22 466.985
780 0 86.0707 11.9437 1028 119.05 122.543 464.428
781 0 89.2215 11.4658 1023 121.682 122.591 461.743
782 0 93.1862 11.6219 1083 121.203 122.567 459.628
783 0 97.1948 11.0808 1077 121.126 122.771 458.309
784 0 101.284 11.9664 1212 117.059 122.928 456.657
785 0 104.198 10.8448 1130 119.62 123.601 454.43
786 0 108.384 11.0533 1198 118.972 123.963 452.846
787 0 113.289 10.7777 1221 118.238 122.277 453.754
788 0 115.238 11.8104 1361 116.2 122.769 448.284
789 0 119.272 12.1068 1444 115.289 123.162 448.306
790 0 122.365 10.5422 1290 119.14 122.894 446.235
791 0 127.26 11.8812 1512 116.304 122.852 443.336
792 0 131.387 10.7849 1417 119.725 122.804 441.62
793 1 69.0231 10.4747 723 114.754 123.259 471.628
794 0 73.0623 11.278 824 112.062 123.319 471.073
795 0 75.0845 11.2007 841 112.551 124.787 470.002
796 0 75.1184 11.5418 867 113.612 123.686 467.636
797 0 76.1166 10.6678 812 115.431 123.43 467.09
798 0 80.0894 10.4383 836 116.59 123.368 464.404
799 0 85.1582 12.5061 1065 110.449 123.697 465.695
800 0 86.2371 12.5932 1086 110.365 123.705 462.874
801 0 89.2121 12.106 1080 112.566 123.587 461.922
802 0 92.0973 12.78 1177 110.25 123.505 460.392
803 0 93.1148 11.1905 1042 114.327 123.893 457.882
804 0 97.1427 12.775 1241 111.724 123.192 459.723
805 0 99.1657 12.0606 1196 114.26 122.064 458.965
806 0 104.222 12.8572 1340 112.676 121.268 456.383
807 0 107.378 12.4048 1332 114.887 121.797 453.232
808 1 52.1158 12.6257 658 105.217 123.079 479.102
809 0 52.213 11.2232 586 102.724 122.534 482.787
810 0 54.0672 11.7816 637 102.016 122.228 481.414
811 0 54.101 11.534 624 105.859 123.308 480.577
812 0 54.0487 10.7126 579 108 122.111 481.712
813 0 55.141 10.9719 605 107.516 120.588 479.403
814 0 57.2504 10.9519 627 107.933 121.41 477.526
815 0 61.1192 11.8621 725 105.739 121.47 475.121
816 0 60.1221 10.3622 623 109.181 121.586 477.384
817 0 63.2132 11.4533 724 108.05 121.026 475.323
818 0 65.1499 11.6808 761 108.397 121.181 475.7
819 0 67.2144 11.56 777 109.873 121.317 472.946
820 0 68.192 11.409 778 110.086 121.075 473.314
821 0 71.2451 11.2008 798 110.842 121.209 473.506
822 0 73.1768 11.7524 860 111.536 121.507 469.209
823 0 76.134 11.1251 847 112.079 121.821 469.109
824 0 80.196 11.7836 945 110.858 120.971 468.338
825 0 82.2096 12.2249 1005 111.589 121.872 465.981
826 0 84.1586 11.0981 934 120.084 121.793 468.087
827 0 87.1727 12.068 1052 118.414 121.878 464.374
828 1 47.0507 10.0955 475 117.989 122.006 483.973
829 0 51.055 10.3418 528 115.46 122.04 484.121
830 0 52.0805 12.0966 630 111.192 121.143 482.2
831 0 55.0999 13.7024 755 107.396 120.581 481.273
832 0 55.0335 10.9933 605 111.193 119.955 481.727
833 0 55.0657 11.9494 658 110.774 121.195 481.243
834 0 55.0223 12.2132 672 111.696 120.536 480.546
835 0 55.0826 12.2362 674 112.994 121.697 479.233
836 0 58.0837 11.8278 687 112.62 121.345 478.287
837 0 58.0604 11.867 689 112.862 120.871 478.316
838 0 62.127 11.8467 736 111.38 120.649 479.014
839 0 62.0833 12.1933 757 111.694 121.194 476.958
840 0 65.0645 11.8805 773 111.664 121.864 476.347
841 0 66.0866 11.8481 783 111.494 121.252 476.392
842 0 69.0612 13.1043 905 109.333 121.642 473.445
843 0 71.0671 12.2842 873 112.044 121.385 472.735
844 0 74.0679 12.3265 913 110.733 120.967 473.475
845 0 75.0326 11.7949 885 115.395 120.685 471.55
846 0 77.0766 11.3783 877 114.981 120.12 473.284
847 1 40.014 10.8712 435 116.354 120.225 487.717
848 0 39.0628 11.2639 440 118.864 120.114 487.37
849 0 42.0586 11.6504 490 113.778 120.063 487.345
850 0 44.0821 11.9096 525 114.888 120.728 486.627
851 0 46.1535 12.5884 581 114.725 120.327 485.274
852 0 47.0674 13.0664 615 113.912 120.346 485.369
853 0 47.095 12.2306 576 118.09 120.293 485.444
854 0 49.0598 11.9038 584 119.394 120.913 484.295
855 0 48.1036 11.4544 551 123.92 120.083 485.125
856 0 49.0277 11.5649 567 123.524 120.63 483.279
857 0 50.0315 11.4928 575 121.727 120.837 483.915
858 0 53.0871 11.6978 621 121.704 120.776 481.908
859 0 53.0561 11.535 612 121.644 120.708 481.515
860 0 57.0562 12.8645 734 118.183 120.772 479.733
861 0 56.0974 12.0148 674 121.318 120.967 480.395
862 0 58.0727 12.691 737 118.419 121.79 480.012
863 0 59.0782 11.5779 684 120.811 120.564 479.389
864 0 62.0301 13.5741 842 115.969 121.224 476.802
865 0 62.1134 12.1069 752 120.343 121.391 474.613
866 0 67.0806 13.7447 922 114.407 121.333 474.593
867 0 71.0802 13.9139 989 111.986 121.454 473.317
868 0 70.083 12.3425 865 118.086 120.757 471.914
869 0 74.1526 13.1351 974 113.953 121.77 471.239
870 0 76.0529 11.9785 911 116.406 121.191 470.299
871 0 79.0788 14.0619 1112 110.979 121.288 467.987
872 0 83.1114 13.2352 1100 113.779 121.199 466.426
873 1 41.1069 10.7038 440 117.852 120.757 485.155
874 0 43.035 11.2467 484 116.467 121.696 483.273
875 0 46.0578 10.8559 500 117.906 121.216 484.274
876 0 44.0545 12.0532 531 116.435 123.716 483.648
877 0 47.065 12.7696 601 109.839 123.424 482.022
878 0 49.0816 13.3044 653 109.179 123.617 481.107
879 0 48.0989 12.1209 583 113.676 122.6 482.115
880 0 50.0647 13.4826 675 111.089 123.074 480.579
881 0 53.1692 11.9618 636 112.917 122.711 479.357
882 0 53.1291 12.3473 656 113.5 122.329 481.062
883 0 54.1272 11.8794 643 115.428 122.303 479.82
884 0 56.0444 13.6677 766 112.06 123.054 476.825
885 0 59.0626 13.4603 795 112.052 122.33 478.512
886 0 61.1291 12.4981 764 114.745 122.211 476.902
887 0 61.067 12.4453 760 116.146 121.822 475.37
888 0 63.0912 12.8069 808 114.515 122.491 476.882
889 0 66.0927 12.6035 833 114.947 121.719 474.83
890 0 68.0751 13.7495 936 113.622 121.717 472.932
891 0 74.1021 13.6028 1008 112.673 122.7 473.11
892 0 72.1324 12.6296 911 117.899 122.774 470.341
893 0 79.0433 13.7899 1090 113.06 122.491 470.701
894 0 79.0525 13.51 1068 117.864 122.39 469.23
895 0 83.0489 14.052 1167 117.595 121.9 465.203
896 1 45.1139 12.5682 567 117.713 121.18 484.735
897 0 46.038 12.6852 584 118.01 121.067 481.747
898 0 49.0162 13.6894 671 112.872 121.483 483.723
899 0 50.0232 13.1139 656 115.631 122.125 483.111
900 0 51.0506 13.4768 688 116.283 121.996 480.692
901 0 51.0549 12.7706 652 119.296 122.821 481.293
902 0 52.0526 13.8898 723 118.609 122.927 479.663
903 0 54.1096 13.4727 729 120.008 122.938 480.55
904 0 57.0671 14.1763 809 117.993 122.932 479.341
905 0 58.1124 13.6288 792 119.869 123.078 479.157
906 0 59.105 12.9769 767 122.413 122.997 478.922
907 0 62.1373 13.6794 850 120.176 122.807 479.039
908 0 63.055 12.8935 813 125.038 122.814 475.48
909 0 66.0837 12.8927 852 125.504 122.676 475.871
910 0 67.0755 13.045 875 126.525 123.614 474.859
911 0 68.1351 12.1377 827 131.186 123.282 472.975
912 0 73.0609 13.0165 951 128.653 122.74 471.537
913 0 75.0972 12.8234 963 128.674 122.124 471.009
914 1 41.0179 11.5072 472 131.002 123.078 487.72
915 0 42.0253 11.969 503 133.427 123.563 485.217
916 0 42.0172 11.1621 469 131.93 122.471 482.124
917 0 47.0396 12.5426 590 132.583 122.922 484.322
918 0 49.0272 13.054 640 132.831 122.513 483.047
919 0 51.0424 11.8333 604 136.214 123.3 482.846
920 0 52.0234 12.4559 648 135.019 122.489 482.628
921 0 53.0395 12.896 684 134.749 122.968 481.528
922 0 54.0385 12.8242 693 136.206 123.04 479.896
923 0 56.087 13.2651 744 134.598 123.02 478.823
924 0 58.0759 13.3618 776 134.635 122.856 477.818
925 0 61.0411 13.9906 854 130.47 123.145 476.625
926 0 62.1436 13.7424 854 131.77 122.116 476.843
927 0 65.0373 12.6543 823 133.311 122.219 475.461
928 0 66.1134 13.4768 891 131.658 122.706 473.235
929 0 67.0851 13.8034 926 130.386 122.992 473.522
930 0 69.0414 13.615 940 129.614 122.617 472.827
931 0 70.0622 13.2026 925 131.786 122.438 470.231
932 0 72.0879 13.65 984 129.82 122.21 469.256
933 0 74.0829 12.945 959 131.311 122.752 470.026
934 0 76.0405 13.6112 1035 129.676 122.503 467.975
935 0 78.0962 13.8035 1078 127.365 122.656 467.778
936 0 83.0838 14.0701 1169 125.059 123.253 464.713
937 0 83.0406 13.0057 1080 128.764 122.973 463.056
938 0 86.0498 13.9919 1204 126.35 122.696 461.338
939 0 87.0844 13.8716 1208 126.03 122.732 462.045
940 0 91.1194 13.0927 1193 119.179 122.38 460.939
941 0 91.1643 12.9766 1183 120.295 122.238 460.861
942 0 93.2357 12.699 1184 121.785 121.851 458.474
943 0 98.1795 12.6299 1240 125.021 121.521 455.924
944 0 101.203 13.3197 1348 124.449 121.895 452.691
945 0 105.393 12.6764 1336 125.63 121.886 452.642
946 0 108.306 13.5264 1465 123.129 121.771 449.715
947 0 113.24 12.9018 1461 123.525 122.309 448.898
948 1 57.2363 10.8323 620 121.544 122.36 475.042
949 0 62.3681 13.3562 833 118.016 122.399 472.178
950 0 64.1219 12.9753 832 120.148 121.803 472.214
951 0 65.191 13.1767 859 120.787 121.632 471.283
952 0 66.1172 12.9618 857 122.459 121.118 471.408
953 0 70.0737 12.9435 907 121.169 120.622 469.096
954 0 73.0599 13.4137 980 120.858 121.257 467.62
955 0 74.2283 12.0574 895 119.391 121.815 467.121
956 0 77.0914 12.0766 931 118.755 122.432 466.931
957 0 79.1131 12.5011 989 116.047 122.128 463.234
958 0 82.1599 13.4981 1109 115.415 122.344 464.506
959 0 85.1466 13.2243 1126 114.329 121.842 462.693
960 0 88.2371 12.5117 1104 117.738 121.139 460.002
961 0 91.1227 12.4557 1135 118.218 121.431 459.078
962 0 92.4189 12.3135 1138 118.669 121.312 458.409
963 0 98.1437 11.6054 1139 118.508 121.457 458.995
964 0 102.171 13.3307 1362 115.317 122.172 453.845
965 0 106.143 12.4454 1321 118.899 121.63 452.759
966 1 55.2048 11.4302 631 113.96 121.471 476.396
967 0 57.1377 10.9035 623 111.485 122.331 479.019
968 0 57.0518 10.7972 616 114.117 122.065 476.505
969 0 62.138 11.1848 695 112.105 121.682 474.357
970 0 62.1246 11.4126 709 113.601 122.348 474.303
971 0 66.0814 13.0596 863 109.545 121.392 471.757
972 0 68.1072 12.4803 850 111.053 121.58 471.168
973 0 70.1183 12.7641 895 111.333 122.038 471.78
974 0 72.0708 13.1399 947 112.172 121.888 470.381
975 0 74.0934 12.0254 891 115.531 122.196 468.838
976 0 76.0704 12.3701 941 115.383 122.125 468.55
977 0 80.0598 12.5032 1001 115.449 122.699 466.756
978 1 38.0484 10.0661 383 115.76 123.674 486.681
979 0 40.0727 10.0567 403 116.412 123.546 485.226
980 0 42.0614 11.0077 463 115.4 122.523 485.482
981 0 44.0345 10.0376 442 116.462 122.593 486.9
982 0 47.1685 12.6143 595 113.43 121.156 480.906
983 0 47.1753 11.9342 563 118.183 121.307 483.961
984 0 51.0465 13.0273 665 115.316 121.546 481.992
985 0 51.045 13.7918 704 115.811 120.565 481.673
986 0 52.0315 12.7999 666 119.069 121.038 480.829
987 0 53.0591 13.2494 703 119.775 121.115 479.457
988 0 54.0416 12.6754 685 122.393 120.914 479.058
989 0 55.0575 12.605 694 123.794 121.19 478.405
990 0 56.0526 12.292 689 125.173 121.337 477.163
991 0 57.0769 13 742 122.821 121.449 477.431
992 0 59.0325 12.4677 736 124.471 121.495 477.658
993 0 59.0668 12.9684 766 125.631 121.946 475.659
994 0 61.0458 11.8272 722 128.323 120.874 475.133
995 0 65.0746 12.478 812 126.5 120.95 472.281
996 0 68.0927 12.8501 875 125.481 121.117 472.095
997 0 69.0703 13.1895 911 124.838 121.544 473.321
998 0 71.1338 12.8209 912 127.145 122.73 471.941
999 0 73.1204 12.9239 945 128.762 122.784 469.472
1000 0 76.0923 12.9054 982 128.109 123.354 467.987
1001 0 79.1759 12.5164 991 127.749 122.839 465.434
1002 0 83.2807 13.0042 1083 125.887 122.222 465.967
1003 0 87.0853 12.6887 1105 125.57 122.551 464.675
1004 1 46.1705 10.9594 506 123.437 122.455 484.634
1005 0 48.1252 12.6337 608 116.137 122.526 482.242
1006 0 49.1274 12.7831 628 116.627 122.557 481.64
1007 0 48.1284 11.6148 559 119.029 122.964 482.288
1008 0 51.0776 12.8628 657 114.005 122.026 483.289
1009 0 52.0943 12.1319 632 116.57 123.521 480.995
1010 0 53.0464 12.5551 666 114.893 121.962 480.532
1011 0 53.0569 11.8552 629 118.056 122.234 479.647
1012 0 56.086 11.6963 656 118.256 121.956 478.848
1013 0 58.0207 12.4266 721 116.688 122.288 477.162
1014 0 61.0865 12.8997 788 112.999 121.694 476.897
1015 0 64.0589 12.5041 801 114.02 122.142 476.416
1016 0 64.0813 11.6102 744 118.278 121.526 474.858
1017 0 67.0796 12.433 834 113.442 122.278 473.095
1018 0 67.0742 12.1358 814 117.041 121.83 474.222
1019 0 71.0894 10.9299 777 118.589 122.259 471.335
1020 0 75.112 12.2617 921 115.182 122.048 470.187
1021 0 78.144 12.413 970 113.596 122.176 468.956
1022 1 39.0307 9.94089 388 115.613 121.716 489.24
1023 0 42.0315 12.7999 538 109.743 121.786 486.636
1024 0 42.0237 12.1836 512 112.377 122.092 485.887
1025 0 43.0454 12.1267 522 112.745 123.029 485.498
1026 0 44.0388 11.4445 504 115.712 122.462 486.2
1027 0 46.0913 12.7139 586 112.044 122.218 484.635
1028 0 47.0806 12.7866 602 112.126 122.264 483.53
1029 0 50.0869 11.5998 581 114.423 122.102 483.201
1030 0 52.1172 12.9516 675 109.945 122.129 481.323
1031 0 53.0988 12.2225 649 111.937 122.609 482.031
1032 0 53.0317 11.8608 629 114.48 123.165 479.224
1033 0 56.1444 12.9309 726 110.198 122.623 479.163
1034 0 58.0602 11.712 680 113.788 122.96 479.043
1035 0 59.1881 12.587 745 112.709 122.396 477.383
1036 0 60.1134 11.4284 687 116.68 122.502 477.985
1037 0 63.2555 11.7302 742 115.624 122.759 477.089
1038 0 65.2235 11.7289 765 115.294 122.714 475.688
1039 0 68.1278 12.8288 874 113.611 122.136 473.149
1040 0 72.3561 12.8393 929 112.939 121.469 472.441
1041 0 74.2965 13.1904 980 113.726 122.243 470.481
1042 0 78.5612 13.1108 1030 113.022 121.297 466.991
1043 0 80.3888 14.2184 1143 111.664 121.69 463.485
1044 1 43.1352 11.3828 491 115.446 121.969 485.864
1045 0 41.0335 11.0641 454 119 122.264 485.322
1046 0 45.2601 12.395 561 115.515 120.943 481.676
1047 0 48.1632 13.0598 629 113.846 121.603 481.479
1048 0 47.1097 11.2928 532 117.904 122.921 484.883
1049 0 49.1145 11.0151 541 119.244 123.2 483.612
1050 0 50.1228 11.5915 581 118.614 122.74 481.594
1051 0 53.101 12.1278 644 117.234 122.174 481.169
1052 0 52.0937 12.0168 626 119.957 122.422 479.657
1053 0 54.1047 12.1801 659 118.634 122.542 479.781
1054 0 57.2029 12.7441 729 116.656 122.34 477.968
1055 0 59.1933 11.4878 680 119.603 122.466 476.643
1056 0 61.2434 12.6381 774 115.477 122.381 476.465
1057 0 62.1146 12.5091 777 115.444 122.372 476.188
1058 0 64.0758 12.376 793 115.369 121.859 475.359
1059 0 66.2422 12.0165 796 115.644 122.559 475.147
1060 0 71.1783 13.7682 980 111.086 122.491 470.552
1061 0 73.0979 13.3656 977 113.13 122.129 470.038
1062 0 76.0684 13.2512 1008 111.32 122.222 469.801
1063 0 77.2531 13.5011 1043 111.755 122.2 468.731
1064 0 80.0948 12.6975 1017 113.558 122.511 466.475
1065 0 82.1166 13.7 1125 111.379 121.826 464.278
1066 0 85.1767 13.0435 1111 112.869 121.954 463.661
1067 0 89.141 13.5516 1208 109.814 122.569 463.109
1068 1 43.0755 8.91457 384 110.589 123.466 481.984
1069 0 47.3085 9.66 457 107.667 122.672 479.538
1070 0 47.1651 10.6435 502 108.436 121.602 477.343
1071 0 47.1596 9.52086 449 109.045 122.869 478.196
1072 0 50.0823 9.16491 459 107.309 122.342 479.17
1073 0 51.0842 10.9819 561 104.216 122.059 477.444
1074 0 53.0632 11.5146 611 102.946 121.989 476.329
1075 0 52.1569 10.8519 566 104.436 121.661 477.009
1076 0 56.0319 11.1008 622 103.701 121.886 476.617
1077 0 56.0372 11.1355 624 104.609 121.325 474.944
1078 0 59.0949 12.6576 748 100.611 121.285 474.794
1079 0 61.0629 12.1514 742 102.314 121.836 473.768
1080 0 61.0814 11.1818 683 105.343 122.195 472.221
1081 0 63.0576 12.0842 762 102.92 121.72 472.175
1082 0 64.0459 11.9758 767 103.85 122.081 472.185
1083 0 68.0681 12.2377 833 102.887 121.953 471.333
1084 0 69.0434 12.2532 846 103.233 121.056 468.161
1085 0 73.0629 13.0846 956 100.665 121.663 468.244
1086 0 75.1314 12.7643 959 101.657 121.74 467.499
1087 0 76.12 13.413 1021 101.173 121.801 466.306
1088 0 77.0762 12.2346 943 104.276 121.396 465.322
1089 0 82.0612 12.3932 1017 103.68 121.949 464.049
1090 0 84.0805 13.3562 1123 103.093 122.248 456.766
1091 0 85.1055 13.1836 1122 103.035 121.801 461.326
1092 0 89.1949 12.8146 1143 103.752 121.421 459.243
1093 0 91.1953 12.0072 1095 106.898 120.842 456.756
1094 1 47.0481 10.5424 496 99.5101 121.692 479.252
1095 0 49.1395 11.4775 564 98.406 121.599 476.514
1096 0 50.0877 12.6179 632 98.8085 122.043 475.117
1097 0 50.0872 12.2986 616 101.791 122.261 475.769
1098 0 50.0973 11.3779 570 104.525 122.167 474.258
1099 0 54.0546 11.2109 606 103.894 122.409 474.652
1100 0 57.0901 11.8059 674 102.206 122.181 474.303
1101 0 58.0654 11.3493 659 105.379 122.721 472.431
1102 0 61.0437 11.5163 703 104.225 122.094 471.983
1103 0 63.0723 10.7654 679 105.538 122.352 472.124
1104 0 64.0746 11.5334 739 106.118 121.75 469.21
1105 0 70.1082 13.0513 915 101.152 122.214 471.597
1106 0 68.0367 12.3022 837 106.093 122.363 466.933
1107 0 73.1414 12.9475 947 103.664 122.859 468.161
1108 0 73.0712 11.8788 868 108.033 122.73 465.817
1109 0 77.0839 12.4799 962 106.15 122.949 466.77
1110 0 80.2334 12.6381 1014 106.873 122.275 464.39
1111 1 42.0347 11.4191 480 100.677 122.317 485.702
1112 0 44.0534 11.6677 514 103.988 122.805 486.673
1113 0 43.1165 9.88022 426 110.002 120.899 484.58
1114 0 47.0132 12.9751 610 103.721 121.408 483.215
1115 0 47.0424 13.0521 614 104.51 121.428 482.008
1116 0 50.049 13.287 665 102.952 120.82 481.771
1117 0 50.032 12.2122 611 105.977 120.66 481.568
1118 0 52.0168 12.9381 673 104.768 120.945 481.363
1119 0 54.0505 12.8029 692 104.74 121.116 481.262
1120 0 57.0596 12.5483 716 105.839 120.589 479.471
1121 0 59.0741 12.7806 755 105.054 121.061 477.216
1122 0 59.1173 12.1623 719 107.83 120.786 476.929
1123 0 63.0642 12.7965 807 105.48 120.777 475.561
1124 0 66.0729 12.6981 839 105.446 120.542 474.867
1125 0 66.0978 12.3907 819 107.288 120.691 473.043
1126 0 68.0443 12.0657 821 108.733 120.87 472.479
1127 0 71.0406 12.0917 859 108.722 120.742 472.694
1128 0 73.1471 12.4817 913 108.697 120.349 470.38
1129 0 76.0854 13.0511 993 107.712 122.087 469.393
1130 0 79.0937 12.3524 977 109.796 121.768 469.657
1131 1 45.0792 11.7349 529 109.036 119.936 486.221
1132 0 44.0782 11.2754 497 115.262 120.449 484.545
1133 0 45.0732 12.2024 550 107.742 121.48 485.529
1134 0 44.0893 10.9097 481 111.04 122.031 485.998
1135 0 46.0813 11.3278 522 110.142 122.577 485.693
1136 0 45.1055 10.9078 492 113.427 122.602 483.378
1137 0 50.0724 12.4819 625 108.656 122.95 482.31
1138 0 49.0438 11.398 559 112.825 122.814 481.698
1139 0 52.0474 12.2388 637 110.702 122.532 480.622
1140 0 53.1511 12.0976 643 112.546 123.198 478.964
1141 0 56.07 11.8602 665 111.161 123.311 479.388
1142 0 57.0593 12.8463 733 109.516 123.169 478.952
1143 0 57.1042 12.1007 691 112.615 122.48 476.425
1144 0 60.0346 13.0425 783 110.566 122.632 475.819
1145 0 59.1189 12.3987 733 111.975 121.887 476.589
1146 0 63.1569 12.4452 786 111.785 121.693 474.782
1147 0 67.0385 13.9025 932 107.705 121.824 471.258
1148 0 68.0467 12.3886 843 111.833 121.301 471.571
1149 0 71.1279 12.2315 870 112.033 121.414 470.628
1150 0 75.1597 13.3316 1002 109.515 120.939 469.082
1151 0 76.1511 12.7116 968 111.356 121.033 467.718
1152 0 79.1203 12.1334 960 112.501 121.572 466.907
1153 0 84.1693 12.76 1074 109.967 121.286 465.275
1154 0 85.1284 13.8967 1183 109.459 121.209 460.852
1155 0 89.0812 12.0115 1070 112.842 120.896 462.797
1156 1 47.0328 10.6309 500 112.632 122.284 482.152
1157 0 48.0599 11.6313 559 112.497 121.324 480.343
1158 0 50.0162 12.5359 627 107.507 121.201 477.874
1159 0 51.1301 11.9695 612 108.441 121.028 479.668
1160 0 52.0579 11.8138 615 111.226 121.446 478.379
1161 0 53.0264 10.5796 561 115.501 121.005 480.235
1162 0 56.0927 12.1585 682 111.581 121.119 479.578
1163 0 60.1234 12.2748 738 111.096 121.249 476.973
1164 0 61.0259 12.4865 762 112.958 121.344 476.135
1165 0 64.1966 12.4461 799 112.839 121.969 474.653
1166 0 66.1308 12.3845 819 114.42 121.121 474.136
1167 0 70.1379 13.5162 948 110.706 121.671 472.758
1168 0 72.0851 12.5407 904 114.728 121.883 471.084
1169 0 75.1274 13.151 988 114.063 120.927 469.833
1170 0 78.13 13.6183 1064 113.556 121.306 468.737
1171 0 82.0536 14.393 1181 112.448 121.939 466.462
1172 0 83.1566 12.9515 1077 115.452 121.032 465.246
1173 0 86.1518 13.6387 1175 115.826 120.424 465.22
1174 0 86.1518 12.6521 1090 122.928 120.531 463.863
1175 1 48.0655 12.5246 602 121.173 121.035 482.766
1176 0 45.0656 11.0949 500 119.846 121.216 477.53
1177 0 47.132 11.7118 552 119.627 121.542 475.871
1178 0 48.2025 11.8251 570 118.468 121.067 476.628
1179 0 51.0663 11.1032 567 112.891 120.926 477.34
1180 0 51.0525 12.5753 642 120.467 121.277 480.302
1181 0 52.04 12.452 648 120.182 121.631 480.461
1182 0 54.0208 10.7181 579 124.587 121.475 480.845
1183 0 57.034 12.0279 686 122.934 120.914 477.574
1184 0 57.046 11.9202 680 123.913 121.418 476.537
1185 0 60.0709 12.9514 778 121.419 121.276 474.626
1186 0 62.068 12.4219 771 122.761 121.534 475.147
1187 0 64.1078 12.4946 801 122.693 121.396 473.719
1188 0 68.1194 13.1974 899 118.672 121.455 474.3
1189 0 69.0726 12.3493 853 122.396 121.791 471.98
1190 0 71.088 13.6169 968 119.771 121.622 470.835
1191 0 74.1426 13.0559 968 121.96 121.8 469.988
1192 0 76.1642 13.0901 997 122.318 121.493 468.185
1193 0 78.0561 12.696 991 123.643 121.645 469.811
1194 0 82.0401 13.0424 1070 124.657 122.092 464.754
1195 0 85.0836 13.5984 1157 123.411 122.104 464.607
1196 0 89.0886 13.2003 1176 122.917 121.963 465.11
1197 1 46.0511 11.2918 520 127.042 122.271 483.39
1198 0 45.0227 12.3049 554 124.727 122.005 482.159
1199 0 49.0718 11.5137 565 123.011 122.028 481.458
1200 0 48.0538 11.1125 534 118.852 121.476 478.086
1201 0 50.1224 12.8086 642 106.153 120.453 478.031
1202 0 49.0804 11.4302 561 121.613 121.378 481.943
1203 0 51.1603 12.5097 640 118.589 121.658 480.587
1204 0 55.068 12.2757 676 118.53 121.28 479.466
1205 0 54.0902 12.2573 663 120.38 120.885 477.532
1206 0 57.1477 12.284 702 119.114 120.97 477.765
1207 0 58.0911 11.9295 693 120.638 120.633 476.085
1208 0 60.0453 12.7404 765 118.203 121.227 476.069
1209 0 62.0918 12.7231 790 118.228 121.086 474.692
1210 0 65.1063 14.2075 925 113.585 120.52 475.061
1211 0 67.0255 14.114 946 114.796 120.92 472.742
1212 0 70.0826 13.3129 933 116.22 121.212 472.661
1213 0 72.1417 12.9606 935 118.371 120.313 470.005
1214 0 75.1093 13.3139 1000 117.146 120.474 470.704
1215 0 75.0907 13.0908 983 118.611 120.226 469.079
1216 0 78.133 13.1826 1030 117.679 120.472 466.799
1217 0 81.1175 13.314 1080 116.862 121.124 467.909
1218 0 84.0559 15.2161 1279 112.674 120.682 462.62
1219 0 86.1204 14.6307 1260 115.507 119.995 464.994
1220 0 90.1693 15.5263 1400 112.478 120.963 462.218
1221 0 92.1013 14.3212 1319 115.025 121.328 462.688
1222 0 94.1358 14.7553 1389 115.778 121.295 459.498
1223 0 97.2334 12.6294 1228 119.912 120.976 460.086
1224 0 100.112 12.7657 1278 119.397 121.354 455.858
1225 1 51.0546 12.849 656 119.075 122.438 480.393
1226 0 55.1053 14.4632 797 113.164 122.147 475.351
1227 0 55.2037 13.5679 749 115.861 122.16 477.435
1228 0 59.1009 12.8255 758 114.182 122.02 477.789
1229 0 60.0574 13.0375 783 116.333 122.183 475.696
1230 0 62.1406 13.6947 851 114.807 121.739 474.924
1231 0 65.1329 14.8926 970 110.054 121.844 474.794
1232 0 66.1062 13.675 904 116.197 122.171 474.675
1233 0 67.0687 13.6427 915 117.978 121.674 472.603
1234 0 70.105 13.4941 946 116.802 122.301 473.244
1235 0 73.1255 13.9349 1019 116.685 121.66 470.47
1236 0 77.11 13.591 1048 117.14 121.719 470.561
1237 0 77.0787 14.9976 1156 116.869 121.222 467.961
1238 0 78.1216 13.671 1068 121.754 121.041 466.844
1239 0 79.0894 11.86 938 127.83 121.288 468.507
1240 0 84.0815 13.1063 1102 122.876 120.264 466.953
1241 0 88.2027 14.0472 1239 119.993 119.953 461.564
1242 0 88.2012 14.3309 1264 121.453 120.131 460.262
1243 0 94.2297 13.6369 1285 122.468 119.761 458.886
1244 1 48.0528 11.092 533 115.827 120.293 478.114
1245 0 49.1144 11.972 588 117.641 120.464 476.039
1246 0 51.0576 11.0659 565 118.828 120.975 476.409
1247 0 54.0837 12.0184 650 110.054 121.022 478.934
1248 0 53.0608 10.4597 555 113.971 121.483 477.849
1249 0 57.0769 11.7035 668 110.789 120.757 476.007
1250 0 59.1023 10.4226 616 113.167 120.234 475.951
1251 0 60.113 10.9128 656 114.044 119.607 473.468
1252 0 60.0898 11.0168 662 114.687 120.411 472.832
1253 0 62.0393 11.1865 694 115.061 120.787 470.974
1254 0 65.0829 11.2626 733 116.104 120.517 470.237
1255 0 69.0225 11.9961 828 112.82 120.778 470.719
1256 0 70.0965 11.37 797 117.3 120.484 466.965
1257 0 74.0741 12.6495 937 112.57 120.533 466.353
1258 0 75.0656 11.7897 885 116.012 120.695 465.176
1259 0 79.0926 12.8457 1016 113.962 120.7 463.914
1260 0 82.1068 13.5433 1112 112.684 120.368 462.875
1261 0 84.0905 13.3903 1126 123.221 120.805 464.101
1262 0 87.1091 14.3154 1247 121.453 120.559 462.172
1263 0 91.157 13.4932 1230 121.571 121.308 460.876
1264 0 95.1337 14.5164 1381 117.989 121.638 457.723
1265 1 50.0252 11.3343 567 122.199 121.051 482.744
1266 0 50.1671 12.578 631 124.174 120.9 477.967
1267 0 54.0354 12.8434 694 121.28 122.223 478.924
1268 0 52.0544 11.584 603 118.219 120.653 479.826
1269 0 52.0083 11.1905 582 119.067 119.993 479.404
1270 0 56.0501 12.3461 692 114.883 119.572 478.371
1271 0 57.0757 11.0555 631 117.721 119.019 477.851
1272 0 58.0493 11.5247 669 118.809 119.788 473.818
1273 0 61.0442 12.6466 772 116.609 120.556 473.571
1274 0 65.0318 11.9788 779 116.644 122.37 474.397
1275 0 70.1859 14.2051 997 108.836 122.203 471.97
1276 0 72.0822 13.5817 979 111.046 122.459 469.581
1277 0 71.1379 12.0892 860 116.473 122.206 469.886
1278 0 74.1102 13.5339 1003 111.877 122.341 468.702
1279 0 79.1788 14.5367 1151 108.5 121.891 467.954
1280 0 79.0814 13.4419 1063 113.237 121.27 466.498
1281 0 82.0861 12.9742 1065 115.342 122.211 466.057
1282 0 85.0996 14.1246 1202 112.688 121.88 464.192
1283 0 88.1505 14.1122 1244 113.685 122.565 462.961
1284 0 90.152 13.8211 1246 115.439 122.043 461.525
1285 1 51.0292 10.8957 556 120.595 123.459 481.511
1286 0 48.0317 12.3044 591 119.944 122.777 480.122
1287 0 50.0849 11.8998 596 117.466 122.037 479.586
1288 0 51.0665 12.2781 627 116.807 122.313 479.632
1289 0 54.0436 13.156 711 114.501 121.534 478.235
1290 0 56.1116 13.1345 737 114.233 122.102 478.659
1291 0 56.1343 12.3632 694 117.304 122.107 478.509
1292 0 57.1097 13.3953 765 116.316 121.937 475.905
1293 0 60.0611 12.737 765 117.912 122.612 476.213
1294 0 61.0925 11.9982 733 120.097 121.083 475.19
1295 0 65.0857 13.9355 907 113.774 121.932 474.374
1296 0 66.0579 13.4125 886 115.743 121.561 473.138
1297 0 69.0997 13.2417 915 115.675 121.531 472.508
1298 0 71.1947 13.0909 932 116.685 120.98 472.058
1299 0 72.0843 12.8738 928 117.599 121.038 471.605
1300 0 74.0958 12.9967 963 118.443 120.676 468.26
1301 0 78.0756 13.1539 1027 117.676 121.397 467.432
1302 0 80.1063 13.5445 1085 117.588 120.627 467.825
1303 0 84.1791 13.4238 1130 116.894 120.87 465.365
1304 0 88.0898 13.4976 1189 115.763 121.546 464.136
1305 1 45.0641 10.9844 495 123.968 121.475 483.327
1306 0 48.0369 13.3855 643 115.533 120.386 483.036
1307 0 49.086 11.9993 589 120.584 119.93 482.17
1308 0 50.1239 13.1075 657 118.635 120.131 480.333
1309 0 53.0539 12.6098 669 118.738 120.71 481.061
1310 0 53.1686 12.545 667 120.703 119.997 478.921
1311 0 55.0487 12.6252 695 121.489 120.119 478.092
1312 0 55.0362 11.8104 650 124.386 120.749 480.046
1313 0 53.0453 12.3102 653 125.534 120.902 477.453
1314 0 58.0938 12.3593 718 124.128 120.611 477.513
1315 0 60.0888 12.8643 773 122.027 120.792 477.931
1316 0 62.1451 11.8432 736 124.302 120.947 477.052
1317 0 64.0475 12.6313 809 122.957 121.55 475.083
1318 0 66.1052 12.7675 844 122.982 122.051 473.825
1319 0 69.1189 13.1947 912 121.624 121.68 472.025
1320 0 73.1301 15.1511 1108 114.342 122.081 471.711
1321 0 75.1665 13.5566 1019 119.286 120.95 469.74
1322 0 77.0513 15.1587 1168 115.378 121.044 468.828
1323 0 78.1737 12.6513 989 117.621 121.137 466.966
1324 0 82.1139 13.7005 1125 116.255 120.932 463.108
1325 0 84.2003 14.703 1238 116.502 120.581 463.415
1326 0 87.0482 12.8549 1119 121.235 120.913 462.604
1327 0 92.0906 14.1274 1301 117.171 120.621 459.168
1328 0 94.248 13.8358 1304 119.511 120.722 459.885
1329 1 51.1951 11.0948 568 122.141 121.593 481.401
1330 0 54.0331 11.7891 637 125.206 122.121 479.43
1331 0 56.2289 13.943 784 120.624 120.207 475.486
1332 0 58.0715 13.7245 797 117.079 120.035 475.779
1333 0 60.1259 12.8397 772 119.838 119.225 475.189
1334 0 59.0362 13.8729 819 119.325 119.626 474.784
1335 0 62.0221 13.8015 856 118.891 119.167 474.859
1336 0 64.1535 12.8598 825 121.175 119.273 473.535
1337 0 68.2484 13.9783 954 117.363 119.693 471.309
1338 0 68.128 13.4013 913 118.059 119.77 472.117
1339 0 71.1723 13.5727 966 117.556 118.974 469.785
1340 0 74.1949 13.7611 1021 116.503 119.726 469.275
1341 0 75.1095 13.1541 988 119.113 120.523 467.804
1342 0 77.2291 12.3917 957 121.46 119.884 466.985
1343 0 80.1631 13.0858 1049 119.123 120.199 467.334
1344 0 84.1773 13.9468 1174 117.321 119.727 463.005
1345 0 85.148 13.271 1130 119.281 120.283 462.872
1346 0 89.1602 13.4814 1202 117.961 119.839 462.958
1347 0 92.2022 13.1884 1216 120.206 119.962 458.851
1348 0 94.0853 13.3496 1256 120.825 121.941 459.681
1349 0 98.2134 14.2954 1404 118.321 121.429 458.636
1350 0 102.219 13.5689 1387 120.931 120.322 455.803
1351 0 106.174 14.2597 1514 119.569 120.903 454.879
1352 0 109.437 13.1582 1440 124.233 120.681 449.858
1353 0 112.369 13.7226 1542 124.534 120.733 447.479
1354 1 62.2644 12.7842 796 125.296 120.786 471.269
1355 0 67.1881 13.7227 922 119.496 120.452 472.649
1356 0 67.1305 13.4812 905 115.119 119.787 470.819
1357 0 69.1534 13.6508 944 115.957 120.398 470.554
1358 0 71.1111 13.0078 925 118.018 120.149 469.358
1359 0 74.2071 13.2467 983 117.221 120.221 468.77
1360 0 76.0736 13.3949 1019 117.661 119.984 468.11
1361 0 80.1345 12.9907 1041 119.259 120.694 466.192
1362 0 81.1621 12.4442 1010 122.387 120.327 463.873
1363 0 84.1589 13.3795 1126 120.48 120.004 463.115
1364 0 88.2795 13.9897 1235 119.164 120.227 463.308
1365 0 91.1121 13.884 1265 120.479 119.831 462.758
1366 0 93.0911 14.3086 1332 121.611 120.478 460.532
1367 0 95.1616 13.5874 1293 124.848 120.85 458.384
1368 0 99.2058 12.8823 1278 127.453 120.243 456.05
1369 0 102.194 14.2572 1457 125.437 120.238 453.513
1370 0 106.2 13.4275 1426 129.681 120.717 449.911
1371 0 107.382 12.5999 1353 132.932 120.591 448.838
1372 0 112.347 13.5652 1524 130.169 120.286 445.971
1373 0 117.236 13.6988 1606 128.661 121.023 446.955
1374 0 121.342 12.3288 1496 132.25 120.585 444.222
1375 1 65.2165 12.4048 809 123.141 121.403 471.565
1376 0 69.1848 12.0836 836 123.583 121.152 471.795
1377 0 70.0702 12.8585 901 123.274 120.758 469.609
1378 0 74.0891 12.7819 947 122.259 119.748 470.138
1379 0 78.0699 13.3342 1041 119.914 119.447 469.197
1380 0 80.0987 11.9602 958 124.532 118.933 467.451
1381 0 83.1595 12.9991 1081 123.071 119.403 463.846
1382 0 84.1036 13.1148 1103 123.111 119.607 465.689
1383 0 87.0796 12.8618 1120 125.685 119.652 463.207
1384 0 92.1202 13.5475 1248 123.498 120.076 461.294
1385 0 94.1393 13.5331 1274 126.188 119.661 459.75
1386 0 95.2897 12.2049 1163 128.056 120.169 460.65
1387 0 99.2431 13.2201 1312 125.748 119.947 458.779
1388 0 103.243 12.582 1299 128.239 120.423 454.627
1389 0 104.326 12.0488 1257 130.881 120.702 453.691
1390 0 109.342 12.5386 1371 129.427 120.56 450.404
1391 0 114.207 11.9345 1363 129.449 120.233 451.4
1392 0 118.262 12.7683 1510 128.014 120.279 446.199
1393 1 58.1497 10.5074 611 125.173 120.219 477.37
1394 0 62.0988 11.8682 737 121.685 119.885 476.991
1395 0 64.0566 12.7231 815 119.016 120.472 475.096
1396 0 68.1577 12.163 829 119.49 120.532 473.736
1397 0 70.1347 12.3477 866 119.351 120.289 472.912
1398 0 73.127 13.0321 953 115.711 120.033 469.544
1399 0 76.1062 12.4563 948 116.604 119.805 468.701
1400 0 77.1078 12.8651 992 116.277 119.938 468.932
1401 0 80.1897 12.4704 1000 116.438 119.98 467.309
1402 0 82.0646 12.807 1051 115.471 120.212 464.802
1403 0 86.0936 11.9637 1030 115.874 120.35 464.152
1404 0 90.1151 12.2177 1101 114.8 119.623 462.371
1405 0 91.1765 11.3516 1035 118.856 120.018 460.283
1406 0 96.2546 12.3319 1187 115.638 120.167 459.318
1407 1 50.0653 11.1255 557 114.433 118.759 481.124
1408 0 50.092 10.4608 524 116.279 119.968 480.368
1409 0 55.0346 12.1197 667 113.747 119.466 479.096
1410 0 57.1251 12.0788 690 111.159 120.367 478.929
1411 0 54.0641 10.691 578 116.856 119.277 478.907
1412 0 56.1779 11.3034 635 116.457 119.844 477.274
1413 0 58.1842 11.137 648 115.812 119.356 478.069
1414 0 58.0503 10.4392 606 117.333 118.942 478
1415 0 60.0801 10.1365 609 116.938 119.245 477.358
1416 0 63.0698 11.8123 745 112.671 118.683 472.933
1417 0 68.1265 11.2144 764 113.012 119.188 469.085
1418 0 69.1688 11.6382 805 112.811 118.995 468.381
1419 0 70.1625 10.775 756 114.79 118.94 467.21
1420 0 73.0967 11.9294 872 111.942 118.945 465.428
1421 1 36.0341 10.2403 369 116.577 118.496 485.198
1422 0 37.0429 10.3394 383 115.457 121.345 486.037
1423 0 39.0748 10.7998 422 113.062 121.581 485.055
1424 0 41.051 12.253 503 107.847 121 483.928
1425 0 42.0795 10.6227 447 108.306 121.396 482.7
1426 0 43.1574 11.8867 513 107.821 121.398 478.454
1427 0 45.2105 11.7672 532 108.867 120.03 478.665
1428 0 44.144 10.3298 456 113.138 120.965 477.991
1429 0 48.1763 10.5446 508 111.766 120.807 477.352
1430 0 47.0123 11.9331 561 110.711 121.909 480.046
1431 0 50.0559 12.1864 610 109.579 121.964 479.539
1432 0 52.2083 13.1971 689 106.129 121.878 478.659
1433 0 53.1021 11.0542 587 110.545 121.165 478.974
1434 0 53.0875 11.3209 601 111.116 121.561 477.722
1435 0 54.1509 10.5815 573 113.904 121.393 475.468
1436 0 56.454 12.3109 695 110.652 121.072 474.894
1437 0 59.0475 12.8202 757 109.565 120.631 473.875
1438 0 62.193 12.6863 789 108.962 120.935 473.354
1439 0 63.0239 12.2176 770 110.934 120.666 470.931
1440 0 66.1366 12.8371 849 109.276 120.842 470.682
1441 0 68.191 13.5208 922 108.645 121.004 468.461
1442 0 70.1773 12.5112 878 111.82 120.468 470.026
1443 0 73.148 12.2628 897 112.98 120.923 467.765
1444 1 39.0659 11.4934 449 115.704 119.748 481.265
1445 0 39.2123 11.221 440 117.552 120.518 483.034
1446 0 42.2429 12.9016 545 113.101 120.374 480.444
1447 0 44.1868 13.3977 592 112.476 120.26 481.316
1448 0 42.1075 11.9931 505 117.632 119.911 480.253
1449 0 46.104 13.578 626 112.101 119.733 479.149
1450 0 46.0906 13.9725 644 112.702 120.47 478.961
1451 0 50.1979 13.6261 684 112.079 120.358 478.26
1452 0 48.2666 12.4103 599 118.474 119.96 477.83
1453 0 50.2548 13.9091 699 114.98 120.104 477.205
1454 0 53.0377 13.5564 719 115.402 120.129 476.787
1455 0 55.2151 14.0179 774 113.588 119.911 476.531
1456 0 54.1798 13.9166 754 116.816 120.084 475.503
1457 0 57.2069 13.3725 765 117.881 119.763 474.888
1458 0 59.2387 12.9645 768 118.341 120.003 474.103
1459 0 62.4302 13.455 840 115.91 119.789 472.96
1460 0 64.1198 14.1142 905 115.164 120.478 472.598
1461 0 67.1725 14.3213 962 112.857 120.626 472.775
1462 0 69.1807 13.3563 924 117.013 121.484 470.148
1463 0 70.257 13.5218 950 117.373 120.774 469.668
1464 0 73.2766 13.0055 953 119.356 120.212 468.588
1465 0 76.3544 13.1623 1005 119.009 119.559 466.975
1466 0 78.4581 13.4339 1054 117.855 119.616 466.613
1467 0 82.509 13.4894 1113 118.924 119.335 463.141
1468 0 84.4344 13.6793 1155 119.358 119.829 461.335
1469 0 86.549 13.1371 1137 120.68 119.15 461.873
1470 0 91.2484 13.1619 1201 119.838 119.93 459.973
1471 0 92.3379 13.2882 1227 120.421 120.03 457.666
1472 1 49.3233 13.077 645 116.995 119.955 478.169
1473 0 50.2916 13.5013 679 119.866 119.785 477.47
1474 0 52.1384 14.0779 734 118.02 120.18 476.91
1475 0 55.4807 14.4555 802 113.643 119.919 478.145
1476 0 55.2445 13.3588 738 118.24 119.989 476.42
1477 0 56.1823 13.6698 768 118.905 119.37 474.798
1478 0 58.1027 13.9236 809 118.244 119.534 474.888
1479 0 60.1426 14.2993 860 117.206 120.26 474.152
1480 0 62.1321 13.938 866 117.863 119.774 472.936
1481 0 62.1165 12.7824 794 122.855 119.923 471.106
1482 0 66.1798 13.9317 922 118.427 120.507 469.786
1483 0 67.132 13.317 894 121.229 120.047 467.804
1484 0 70.1482 13.8279 970 119.095 120.547 466.611
1485 0 71.0879 13.1949 938 122.64 120.109 465.372
1486 0 75.2701 14.5609 1096 117.409 120.104 464.726
1487 0 77.2254 13.9073 1074 119.716 119.84 464.209
1488 0 81.179 14.1293 1147 118.696 119.087 461.382
1489 0 82.2378 14.2149 1169 119.163 119.514 461.531
1490 0 85.1505 13.8813 1182 120.503 119.657 458.321
1491 0 89.2109 14.3144 1277 119.15 120.01 458.11
1492 0 93.1894 14.6369 1364 119.418 119.924 456.583
1493 1 50.2159 11.7692 591 123.531 119.232 476.181
1494 0 52.0772 12.5199 652 119.204 119.704 476.793
1495 0 53.1239 12.3297 655 111.624 120.267 476.551
1496 0 56.1433 12.9846 729 110.471 119.934 474.798
1497 0 58.1782 12.4445 724 112.593 119.467 475.073
1498 0 57.1555 12.5797 719 114.829 119.79 473.398
1499 0 61.2145 12.0233 736 115.704 120.334 472.98
1500 0 61.2134 12.4319 761 117.208 119.991 470.623
1501 0 66.3209 13.2387 878 113.987 119.388 469.718
1502 0 66.069 13.0924 865 115.99 119.921 469.14
1503 0 69.2158 14.5487 1007 107.651 120.47 469.497
1504 0 71.2817 13.8605 988 110.662 120.688 466.289
1505 0 72.0738 13.833 997 112.83 119.89 467.685
1506 0 72.2177 13.8747 1002 114.954 119.857 466.483
1507 0 73.1382 13.7138 1003 119.798 120.043 465.552
1508 0 73.1973 13.0606 956 123.186 119.863 465.417
1509 0 74.1564 13.6064 1009 124.244 119.177 465.094
1510 0 76.2613 13.2439 1010 124.612 119.064 465.046
1511 0 80.4039 14.1038 1134 119.65 119.429 464.473
1512 0 82.3679 14.1681 1167 119.504 119.529 461.627
1513 0 83.2495 13.5857 1131 121.297 119.542 461.319
1514 0 87.235 13.9164 1214 119.188 119.739 461.002
1515 0 89.2527 13.994 1249 120.323 119.894 456.729
1516 0 93.2176 14.3321 1336 117.743 119.987 458.006
1517 0 94.1314 13.6086 1281 121.885 119.741 453.576
1518 0 97.225 13.5459 1317 123.505 120.45 453.296
1519 1 52.0458 10.1449 528 122.657 119.377 476.975
1520 0 55.0491 11.5897 638 118.541 119.544 478.429
1521 0 57.156 12.5446 717 115.127 119.116 478.547
1522 0 58.1541 11.865 690 118.397 119.603 478.32
1523 0 59.212 12.109 717 120.1 118.989 477.162
1524 0 60.2062 10.9291 658 124.082 119.581 478.175
1525 0 62.031 10.398 645 127.019 119.665 477.881
1526 0 64.1157 12.3371 791 124.373 119.702 474.66
1527 0 65.1068 12.4257 809 127.085 120.004 475.229
1528 0 69.1744 13.0106 900 127.611 120.05 474.608
1529 0 69.273 12.7467 883 130.28 119.824 472.889
1530 0 74.2519 13.6293 1012 128.077 119.426 470.487
1531 0 76.2674 13.8067 1053 129.699 118.912 469.106
1532 0 78.3179 13.675 1071 133.401 118.311 469.546
1533 0 80.1739 12.9094 1035 140.073 118.952 468.03
1534 0 83.149 12.6159 1049 143.253 119.079 468.596
1535 1 44.1514 10.5772 467 137.707 117.685 486.328
1536 0 45.1658 10.6939 483 137.052 117.919 484.923
1537 0 45.0344 10.7695 485 137.979 118.769 485.489
1538 0 48.1034 12.3068 592 133.144 118.493 484.939
1539 0 47.1363 10.9682 517 136.004 119.598 482.733
1540 0 50.1156 11.8725 595 130.318 120.099 480.59
1541 0 49.1117 12.0338 591 133.91 119.948 478.988
1542 0 53.1854 12.0334 640 129.508 119.036 480.113
1543 0 54.2294 11.1747 606 131.921 119.422 478.838
1544 0 54.1317 11.86 642 131.629 120.179 477.346
1545 0 55.0862 11.9449 658 130.599 119.429 479.105
1546 0 56.0553 11.4708 643 132.221 118.879 478.255
1547 0 57.113 11.521 658 131.029 118.655 475.354
1548 0 61.1423 11.3669 695 127.709 118.286 476.738
1549 0 62.167 11.1956 696 129.259 118.068 475.874
1550 0 63.2289 11.1658 706 127.837 117.81 475.249
1551 0 64.0946 11.2334 720 129.224 118.219 473.758
1552 0 66.3261 11.6696 774 128.376 118.452 470.91
1553 0 69.381 11.6026 805 127.827 117.837 461.947
1554 0 71.2549 12.4763 889 126.201 118.508 460.903
1555 0 73.2219 12.2368 896 125.156 118.223 463.22
1556 0 77.296 12.7562 986 121.846 118.228 465.04
1557 0 76.2084 11.2324 856 126.722 118.368 453.121
1558 0 82.1269 13.1382 1079 122.348 116.931 455.207
1559 0 83.1138 12.0317 1000 124.112 116.838 460.615
1560 0 84.1666 11.9168 1003 125.121 116.752 459.544
1561 0 89.445 12.0968 1082 123.013 118.099 459.088
1562 0 90.2407 12.2339 1104 122.164 118.358 458.342
1563 0 94.2219 13.309 1254 120.025 118.114 456.965
1564 0 95.3228 12.3895 1181 122.674 118.732 452.173
1565 0 101.254 11.6144 1176 128.035 118.32 453.574
1566 1 51.1407 11.048 565 117.731 119.922 478.386
1567 0 53.0614 10.7988 573 117.302 119.639 476.469
1568 0 55.0237 12.6673 697 112.146 117.554 477.801
1569 0 56.0577 11.9163 668 113.539 117.129 479.036
1570 0 59.1843 12.6385 748 110.972 117.42 476.495
1571 0 61.0246 12.4376 759 110.126 117.204 475.875
1572 0 61.059 11.9229 728 112.46 116.462 475.048
1573 0 64.0723 11.1749 716 113.13 116.757 475.038
1574 0 65.0388 12.285 799 112.295 116.954 472.692
1575 0 67.0425 10.471 702 112.862 116.349 472.496
1576 0 70.0508 12.1483 851 111.888 117.078 468.813
1577 0 71.0629 11.9472 849 113.495 117.155 469.09
1578 0 73.145 11.6891 855 112.974 118.476 470.844
1579 0 76.1197 12.4541 948 111.634 117.926 467.418
1580 0 78.1013 11.2418 878 113.055 117.147 462.838
1581 0 81.1285 11.6482 945 115.965 117.401 461.222
1582 0 85.1378 12.5326 1067 123.913 118.059 462.945
1583 1 43.0137 9.29937 400 126.085 119.727 483.85
1584 0 45.0398 10.2798 463 116.73 118.877 482.944
1585 0 46.0441 11.5976 534 110.446 118.633 481.755
1586 0 48.0338 11.8042 567 108.554 119.658 481.543
1587 0 48.2014 10.0412 484 113.781 119.287 482.605
1588 0 51.066 10.9074 557 111.815 118.253 479.138
1589 0 49.0635 11.1896 549 112.842 118.242 479.594
1590 0 53.125 11.52 612 110.745 118.018 478.054
1591 0 55.0742 12.4015 683 109.977 117.533 477.95
1592 0 56.0444 11.8477 664 110.947 118.42 476.145
1593 0 58.1016 11.7209 681 107.86 118.441 474.289
1594 0 60.0968 11.4149 686 109.208 118.391 475.201
1595 0 59.1655 10.327 611 112.344 118.897 473.486
1596 0 63.1327 11.262 711 115.218 119.001 473.505
1597 0 65.0504 11.0683 720 117.088 118.562 473.642
1598 0 68.1176 13.0656 890 113.161 118.83 472.289
1599 0 71.0585 13.2145 939 112.988 119.048 470.11
1600 0 72.1122 12.8134 924 114.9 118.932 469.705
1601 0 76.21 12.4787 951 110.747 118.351 467.301
1602 0 79.1011 12.642 1000 111.543 118.325 464.398
1603 0 81.2055 12.7701 1037 110.084 118.174 465.208
1604 0 82.1893 11.9845 985 114.518 117.717 461.168
1605 1 41.0641 9.86263 405 111.025 119.007 482.923
1606 0 46.0199 11.4516 527 110.966 118.021 485.085
1607 0 45.0603 11.9396 538 120.394 117.178 484.439
1608 0 48.0604 12.2346 588 112.866 117.932 484.133
1609 0 49.0956 12.0377 591 113.738 117.663 483.536
1610 0 49.0313 12.7266 624 112.923 119.537 483.593
1611 0 53.0459 13.5166 717 109.24 119.512 481.492
1612 0 53.1362 12.8726 684 111.68 119.456 482.073
1613 0 54.099 12.9392 700 111.92 118.739 482.16
1614 0 55.1513 12.2209 674 115.147 117.893 479.134
1615 0 56.0887 12.5872 706 114.367 118.851 479.902
1616 0 59.1083 12.9085 763 112.675 118.381 478.976
1617 0 61.0627 13.4124 819 112.183 118.306 476.525
1618 0 63.0917 12.8385 810 112.215 118.411 476.985
1619 0 65.0859 12.9214 841 112.673 118.736 474.816
1620 0 65.162 12.4919 814 115.163 117.431 473.708
1621 0 70.0806 13.7271 962 110.702 118.165 472.869
1622 0 71.0896 13.068 929 112.374 118.217 470.38
1623 0 74.0958 13.5905 1007 110.063 118.307 472.421
1624 0 76.1051 13.6522 1039 111.301 118.167 467.973
1625 0 76.0623 11.3723 865 117.042 117.805 468.326
1626 1 39.0202 11.5581 451 116.419 118.459 487.599
1627 0 42.0447 13.4143 564 111.282 118.644 485.222
1628 0 45.0947 12.6622 571 112.877 118.053 485.615
1629 0 43.0444 12.8472 553 109.98 118.367 485.604
1630 0 45.0232 13.4819 607 108.443 118.377 484.97
1631 0 47.0588 12.92 608 110.247 117.972 483.711
1632 0 48.024 12.4313 597 111.229 118.213 481.888
1633 0 49.0202 12.1583 596 111.904 118.56 483.294
1634 0 48.0645 11.651 560 115.459 118.752 483.238
1635 0 49.1708 11.5922 570 116.388 118.225 481.511
1636 0 51.099 12.7987 654 114.765 118.462 481.855
1637 0 54.0448 12.5452 678 114.971 118.425 480.055
1638 0 54.0356 11.5109 622 118.183 118.69 480.249
1639 0 57.023 11.5743 660 117.083 118.93 480.485
1640 0 58.097 11.7906 685 118.803 118.524 477.982
1641 0 60.0871 12.1324 729 109.284 117.374 476.636
1642 0 63.0651 11.7339 740 109.7 116.888 471.684
1643 0 67.1061 11.9959 805 108.761 118.107 471.389
1644 0 67.0897 11.5368 774 111.302 117.178 470.806
1645 0 69.1849 11.8378 819 112.054 117.585 470.128
1646 0 73.0943 12.2308 894 110.912 117.565 468.553
1647 0 77.0848 12.0387 928 109.909 117.474 466.725
1648 0 80.1701 13.4589 1079 111.796 117.018 466.574
1649 1 42.0707 11.5995 488 117.758 116.973 484.783
1650 0 46.0225 12.885 593 108.691 118.568 485.098
1651 0 45.1754 11.7099 529 113.934 118.919 484.484
1652 0 47.1936 12.7348 601 112.053 118.306 482.795
1653 0 49.1233 11.9495 587 113.446 118.293 481.855
1654 0 52.1012 13.7809 718 108.568 118.255 481.279
1655 0 52.1426 12.6384 659 108.862 117.798 478.92
1656 0 52.1474 12.0428 628 111.933 118.003 480.57
1657 0 56.1298 13.8429 777 108.351 117.533 478.573
1658 0 55.1217 13.4067 739 112.371 118.081 479.802
1659 0 58.1082 13.8535 805 111.407 117.656 478.45
1660 0 61.122 13.3503 816 110.391 117.706 479.061
1661 0 62.1171 13.7482 854 111.352 117.447 476.478
1662 0 65.1848 12.6103 822 114.422 118.079 474.674
1663 0 67.1652 13.638 916 112.624 117.604 475.136
1664 0 69.2611 12.8644 891 115.692 117.334 473.404
1665 0 70.198 12.9918 912 118.51 117.966 471.723
1666 0 73.1245 12.5539 918 120.907 118.383 471.789
1667 0 74.123 13.4236 995 118.996 118.054 471.297
1668 0 77.1473 12.8326 990 120.747 117.858 470.949
1669 0 83.1125 15.4369 1283 92.9751 118.169 469.906
1670 1 42.0352 11.419 480 125.883 118.525 485.754
1671 0 47.1151 12.0768 569 121.743 117.944 485.654
1672 0 47.0595 12.8561 605 123.392 119.101 483.527
1673 0 47.1064 13.0768 616 122.394 118.75 483.182
1674 0 48.0714 12.419 597 123.049 118.943 482.533
1675 0 51.0742 12.6874 648 122.114 118.367 481.526
1676 0 51.0721 12.9033 659 122.02 119.178 482.088
1677 0 51.0607 12.3383 630 124.732 118.644 480.405
1678 0 54.0852 12.8686 696 124.43 118.44 481.042
1679 0 56.1026 14.2952 802 99.5973 119.08 478.281
1680 0 57.1288 13.2683 758 121.847 118.734 478.5
1681 0 58.0975 13.1675 765 122.125 119.054 478.458
1682 0 60.0921 12.9135 776 122.041 119.044 477.169
1683 0 61.0581 13.2333 808 121.71 118.974 476.061
1684 0 64.1171 13.8496 888 118.7 118.695 475.068
1685 0 66.0855 13.8003 912 118.807 119.054 474.305
1686 0 69.096 13.3582 923 118.925 118.465 473.138
1687 0 72.1201 14.67 1058 115.098 118.099 472.836
1688 0 73.1311 13.551 991 119.129 118.478 471.007
1689 0 75.0688 13.3344 1001 118.572 118.542 469.771
1690 0 78.1431 13.1425 1027 117.951 118.557 469.306
1691 0 82.2402 13.9105 1144 115.177 118.598 467.9
1692 1 40.0265 11.6673 467 110.178 119.182 483.726
1693 0 43.0802 11.6295 501 116.471 118.747 485.77
1694 0 45.0395 12.9886 585 120.971 118.487 479.492
1695 0 49.0746 13.5712 666 117.162 119.24 482.219
1696 0 48.0627 12.8166 616 122.573 118.583 482.143
1697 0 48.0682 13.044 627 123.148 118.464 482.313
1698 0 51.0516 13.2807 678 122.049 118.245 480.131
1699 0 52.0676 12.2341 637 125.884 118.491 481.714
1700 0 55.037 12.0283 662 126.545 118.352 480.139
1701 0 56.0676 13.6264 764 122.242 118.777 479.818
1702 0 58.1338 14.0366 816 121.384 118.439 477.92
1703 0 58.0668 13.5706 788 123.424 118.071 477.871
1704 0 58.2146 12.9005 751 123.233 117.394 476.166
1705 0 61.1616 13.6687 836 120.081 117.906 475.523
1706 0 64.2067 13.0672 839 121.738 118.393 474.974
1707 0 66.0866 14.7382 974 117.813 117.901 474.541
1708 0 66.0588 14.2903 944 118.099 117.632 474.569
1709 0 68.1405 13.6629 931 120.52 117.126 473.677
1710 0 70.0912 13.4396 942 121.848 117.355 471.72
1711 0 74.0841 14.1326 1047 120.181 117.739 469.957
1712 0 75.0856 13.6378 1024 122.635 117.468 468.552
1713 0 79.1075 14.297 1131 120.602 117.776 469.423
1714 0 80.1279 13.3786 1072 123.788 117.966 467.282
1715 0 84.1037 13.0196 1095 124.971 117.006 463.809
1716 1 42.0436 10.0134 421 126.867 118.04 483.081
1717 0 46.0251 12.1456 559 117.127 116.395 481.218
1718 0 46.0608 11.8973 548 119.653 116.181 479.77
1719 0 48.0238 11.2861 542 121.277 116.225 479.303
1720 0 49.0312 12.2779 602 119.588 116.297 478.291
1721 0 50.0352 12.1514 608 120.021 116.219 478.385
1722 0 50.0857 10.8414 543 126.09 116.506 475.136
1723 0 51.0626 11.0648 565 124.901 117.327 476.832
1724 0 55.0121 13.6879 753 127.23 116.375 478.509
1725 0 58.0412 13.3698 776 126.665 116.175 478.335
1726 0 59.0578 13.4106 792 127.813 115.503 476.578
1727 0 61.0185 13.668 834 127.058 115.893 476.156
1728 0 62.0539 12.7792 793 129.458 115.918 476.62
1729 0 65.0813 13.6752 890 127.376 116.345 473.872
1730 0 66.1202 13.3242 881 129.156 117.28 472.944
1731 0 69.057 14.0898 973 126.966 117.136 472.335
1732 0 69.1488 13.2179 914 131.34 116.955 469.767
1733 0 74.1905 13.7619 1021 128.57 116.912 469.466
1734 0 75.1289 13.59 1021 130.622 116.594 467.76
1735 0 78.1931 13.1853 1031 131.147 116.569 467.56
1736 0 80.2223 14.0983 1131 126.11 116.887 467.001
1737 0 84.274 13.6816 1153 127.973 116.445 463.801
1738 1 47.1983 12.5428 592 127.191 117.238 482.378
1739 0 49.245 12.4073 611 125.758 117.448 484.565
1740 0 50.0267 12.8332 642 125.167 118.067 481.857
1741 0 51.0529 12.7515 651 125.086 117.217 480.874
1742 0 54.0854 13.8854 751 120.364 117.627 480.533
1743 0 54.0933 13.6431 738 122.363 117.404 478.774
1744 0 55.2039 13.0063 718 124.584 117.418 477.708
1745 0 58.2138 13.897 809 121.219 117.575 476.99
1746 0 59.1941 12.4168 735 125.967 116.912 475.678
1747 0 61.1087 14.466 884 119.429 117.064 475.068
1748 0 63.1391 13.8108 872 121.251 117.209 472.648
1749 0 65.2403 13.9331 909 120.608 117.564 472.633
1750 0 67.085 12.4469 835 124.805 117.083 470.163
1751 0 71.0487 14.0186 996 118.851 116.645 469.015
1752 0 74.0589 14.3264 1061 118.03 117.202 467.63
1753 0 77.0462 13.6931 1055 119.273 116.894 467.028
1754 0 79.0937 15.0834 1193 116.487 116.969 462.614
1755 0 81.1455 13.2478 1075 121.608 117.816 462.407
1756 0 84.1511 13.7728 1159 120.78 117.979 460.745
1757 0 86.239 13.6481 1177 121.924 118.341 457.797
1758 1 41.0221 9.8971 406 123.589 118.672 479.153
1759 0 47.0182 12.123 570 99.7421 118.86 480.691
1760 0 47.0831 12.4673 587 119.816 118.06 483.239
1761 0 48.0916 12.7257 612 119.701 117.926 481.413
1762 0 49.0759 13.1836 647 119.587 118.572 481.79
1763 0 53.1151 13.4048 712 116.656 118.993 481.215
1764 0 51.0404 12.4215 634 124.588 118.763 478.945
1765 0 54.0405 14.5261 785 118.924 118.469 476.89
1766 0 57.1588 12.8764 736 122.424 118.598 478.318
1767 0 59.0745 14.2701 843 118.35 118.1 476.486
1768 0 59.1478 12.4603 737 125.004 118.414 474.186
1769 0 63.1544 12.9999 821 122.325 118.341 473.822
1770 0 64.1133 13.2734 851 122.356 118.418 471.524
1771 0 68.109 14.3446 977 117.93 117.919 471.425
1772 0 70.199 13.6612 959 120.558 118.1 470.703
1773 0 72.0845 13.6229 982 121.465 118.712 469.169
1774 0 73.1074 13.3092 973 123.201 117.544 469.013
1775 0 77.2149 13.43 1037 123.349 117.669 466.195
1776 0 79.1366 13.7105 1085 122.379 118.275 466.566
1777 0 80.1183 12.4566 998 127.276 117.022 464.329
1778 0 82.1758 13.3616 1098 124.779 117.481 461.864
1779 0 87.2327 14.5244 1267 120.666 118.009 461.652
1780 0 92.1419 13.8916 1280 121.774 117.309 458.747
1781 1 48.1788 11.1875 539 125.581 117.853 480.356
1782 0 50.2677 12.513 629 120.863 117.129 480.215
1783 0 51.2306 12.3754 634 121.842 118.323 480.612
1784 0 53.2025 12.9317 688 121.062 117.68 478.932
1785 0 54.1802 12.4031 672 123.336 117.259 478.472
1786 0 56.2035 12.7572 717 122.43 117.413 476.052
1787 0 60.1629 13.0479 785 119.699 117.07 475.546
1788 0 60.1451 12.9853 781 121.673 117.14 475.001
1789 0 63.1281 13.4013 846 119.091 117.229 473.643
1790 0 64.1231 13.864 889 118.088 117.172 473.047
1791 0 66.141 13.3351 882 119.706 117.515 472.472
1792 0 67.1561 12.6869 852 122.741 116.325 470.992
1793 0 69.1089 13.2255 914 121.607 117.097 471.493
1794 0 72.2134 13.5293 977 122.461 116.698 469.295
1795 0 75.0758 13.7728 1034 122.177 117.627 468.191
1796 0 76.162 13.2349 1008 124.877 117.686 467.248
1797 0 77.2009 12.9273 998 126.87 117.557 466.079
1798 0 79.2018 12.8406 1017 128.042 117.673 464.704
1799 0 84.1024 13.5192 1137 125.845 117.586 462.529
1800 0 84.1353 13.407 1128 126.967 117.712 462.172
1801 0 91.1804 13.742 1253 124.132 117.887 459.816
1802 0 90.1477 12.9787 1170 127.903 118.218 458.132
1803 0 97.1397 14.5872 1417 121.771 117.509 457.472
1804 1 47.0451 11.4996 541 123.104 118.301 482.054
1805 0 48.0943 12.2052 587 121.581 118.417 479.867
1806 0 50.2181 11.928 599 118.2 116.883 477.977
1807 0 52.0569 12.2366 637 115.471 116.708 479.473
1808 0 54.0442 13.896 751 112.277 116.839 477.561
1809 0 56.0264 12.6191 707 115.086 116.767 478.107
1810 0 58.0683 12.5886 731 113.726 116.491 476.777
1811 0 60.0476 12.8232 770 112.752 116.555 476.63
1812 0 60.0544 12.2889 738 115.519 116.705 475.828
1813 0 64.053 13.4264 860 112.077 116.1 473.297
1814 0 65.0437 12.7453 829 114.491 116.832 473.397
1815 0 67.0206 12.5036 838 114.782 116.86 472.481
1816 0 70.0279 13.5089 946 112.308 116.539 470.391
1817 0 73.0809 14.2718 1043 110.339 116.405 469.823
1818 0 75.0581 14.2689 1071 110.522 116.417 469.261
1819 0 77.0951 13.3342 1028 113.725 116.443 467.26
1820 0 81.0669 13.7294 1113 112.52 116.633 467.267
1821 0 79.0498 13.9406 1102 114.429 117.087 467.556
1822 0 83.1035 13.3689 1111 116.227 116.539 464.136
1823 0 85.0793 13.4933 1148 115.886 116.647 466.101
1824 0 87.0926 12.8254 1117 118.83 116.206 461.175
1825 0 93.1303 14.775 1376 112.149 116.553 457.996
1826 0 94.1631 13.6147 1282 115.986 116.592 459.473
1827 0 97.0851 13.3182 1293 116.695 116.114 458.484
1828 0 102.139 14.1376 1444 116.042 116.833 453.255
1829 0 106.106 13.9484 1480 117.036 116.704 454.025
1830 1 57.0385 11.7815 672 117.266 116.073 476.43
1831 0 58.1991 11.6325 677 109.264 115.91 473.476
1832 0 62.1079 12.6554 786 108.394 115.688 474.228
1833 0 64.0701 12.7517 817 109.45 116.023 474.542
1834 0 65.11 12.8245 835 109.976 115.641 472.254
1835 0 68.1049 13.0681 890 109.574 115.257 472.42
1836 0 68.0919 13.2615 903 110.734 116.467 470.875
1837 0 71.0734 12.4378 884 113.485 116.482 472.314
1838 0 74.0981 12.8883 955 112.954 116.526 470.991
1839 0 75.1432 12.9087 970 114.723 117.521 468.065
1840 0 78.178 11.6913 914 126.17 117.676 469.102
1841 0 83.1672 12.8296 1067 122.576 116.949 465.504
1842 0 83.2221 12.8451 1069 124.9 117.181 463.64
1843 0 87.1006 12.7554 1111 119.152 117.336 464.54
1844 1 48.0517 11.4252 549 118.481 117.12 483.74
1845 0 48.0763 11.1282 535 121.521 116.525 482.836
1846 0 51.0613 12.671 647 115.855 116.179 481.005
1847 0 52.03 12.2429 637 117.763 116.25 480.499
1848 0 53.019 11.5619 613 119.452 115.657 480.106
1849 0 55.035 12.7373 701 117.03 116.362 479.544
1850 0 57.0592 12.5308 715 118.856 116.608 478.522
1851 0 60.0486 12.4233 746 117.853 116.976 477.941
1852 0 63.0361 13.0877 825 115.731 118.308 477.588
1853 0 62.0576 12.7462 791 119.283 118.766 475.656
1854 0 64.0352 13.0085 833 118.107 118.184 475.727
1855 0 65.0914 12.229 796 121.511 118.038 475.035
1856 0 69.069 13.32 920 117.064 117.552 473.966
1857 0 68.1164 11.5978 790 125.123 117.354 473.286
1858 0 71.1528 12.7894 910 121.515 116.801 471.804
1859 0 71.0466 10.4157 740 128.55 115.812 471.943
1860 0 75.169 12.279 923 122.035 116.45 470.485
1861 0 77.1267 11.8895 917 123.098 116.641 469.863
1862 0 82.1139 12.1051 994 121.346 116.99 469.155
1863 0 84.0864 12.2731 1032 121.596 116.859 467.168
1864 0 86.0459 11.5752 996 123.866 116.948 465.02
1865 0 91.186 12.3484 1126 122.181 116.576 462.819
1866 0 95.0397 13.0893 1244 119.876 117.683 459.789
1867 1 51.0438 10.9318 558 125.977 116.315 481.812
1868 0 51.1196 11.0916 567 127.64 116.367 477.483
1869 0 53.0495 12.5543 666 120.17 119.159 478.845
1870 0 55.1033 11.9412 658 119.684 119.295 479.134
1871 0 57.0673 12.4765 712 119.712 119.017 476.476
1872 0 61.0389 12.7132 776 115.64 118.838 477.209
1873 0 61.0792 12.6393 772 116.964 118.105 475.984
1874 0 61.1466 12.6581 774 118.333 118.269 475.019
1875 0 64.1056 12.5262 803 118.685 118.466 476.056
1876 0 64.09 11.7335 752 119.081 118.168 475.004
1877 0 65.2294 10.6854 697 119.805 117.815 474.684
1878 0 69.139 11.7011 809 118.227 117.876 473.69
1879 0 73.1808 12.353 904 115.764 118.315 470.906
1880 0 74.1373 12.1936 904 117.2 117.579 471.343
1881 0 78.1873 12.5596 982 115.213 117.984 470.844
1882 0 81.2761 12.6852 1031 115.578 117.9 468.971
1883 0 84.1762 13.1035 1103 115.114 117.422 467.36
1884 1 45.0861 11.7109 528 115.352 118.1 486.786
1885 0 47.0434 12.4353 585 114.564 118.108 485.349
1886 0 45.0644 12.0716 544 120.401 118.097 483.939
1887 0 50.1036 12.2945 616 116.735 117.821 484.745
1888 0 51.1307 12.3214 630 117.073 118.225 483.152
1889 0 51.0821 11.8241 604 120.146 118.563 482.752
1890 0 49.1963 11.7285 577 123.22 118.494 482.38
1891 0 55.1085 11.7223 646 120.156 118.09 482.017
1892 0 56.022 11.5312 646 121.003 118.116 480.119
1893 0 58.0301 12.2006 708 120.384 117.965 479.374
1894 0 59.0403 11.2465 664 123.041 117.413 479.247
1895 0 61.12 13.0726 799 119.507 118.169 476.605
1896 0 63.0328 11.9144 751 120.864 117.463 477.02
1897 0 65.0889 12.0143 782 120.344 117.84 476.285
1898 0 68.0901 12.5863 857 117.48 117.928 475.673
1899 0 69.0384 11.1677 771 120.115 118.008 475.72
1900 0 75.0609 12.0436 904 116.45 118.191 472.441
1901 0 77.1551 11.9111 919 116.842 118.194 471.874
1902 0 79.1628 11.8237 936 116.652 117.972 469.189
1903 0 82.0858 11.5367 947 117.154 118.034 467.362
1904 1 42.0386 10.8947 458 116.162 117.766 487.205
1905 0 45.0306 11.903 536 112.183 117.797 485.261
1906 0 45.0965 11.8635 535 112.637 117.632 485.222
1907 0 47.0624 12.0691 568 111.371 116.829 484.449
1908 0 50.0698 13.0218 652 108.632 117.035 483.298
1909 0 51.0376 13.7742 703 107.122 117.058 482.667
1910 0 48.0251 11.3691 546 118.026 116.885 482.709
1911 0 50.0541 11.4676 574 116.354 117.564 483.439
1912 0 51.1164 10.8184 553 117.418 118.125 484.295
1913 0 53.0185 11.8072 626 115.928 117.695 481.219
1914 0 52.0474 11.5664 602 119.332 118.012 480.764
1915 0 54.1429 12.19 660 117.565 116.823 481.486
1916 0 59.0739 11.6803 690 117.851 117.803 480.342
1917 0 60.0999 11.5641 695 119.409 117.652 479.839
1918 0 62.1188 12.7015 789 117.414 118.048 476.7
1919 0 64.0732 12.2516 785 118.791 118.446 476.247
1920 0 65.1648 12.43 810 120.011 118.388 473.435
1921 0 68.2261 13.0156 888 118.803 118.194 473.786
1922 0 70.1922 13.1354 922 119.787 118.368 472.534
1923 0 73.18 13.0774 957 119.986 118.669 473.042
1924 0 75.1935 13.2059 993 121.325 118.877 471.044
1925 0 75.1175 12.1809 915 126.224 118.531 468.517
1926 0 80.1888 13.356 1071 122.894 118.432 466.807
1927 0 83.1411 13.5914 1130 122.24 118.342 466.104
1928 0 86.0693 13.8261 1190 120.723 117.35 466.464
1929 0 89.0944 13.7158 1222 121.872 118.241 463.292
1930 0 91.3091 13.0327 1190 124.543 118.813 463.845
1931 0 95.1382 14.5683 1386 123.136 118.539 460.195
1932 1 50.0545 12.886 645 134.468 118.664 483.184
1933 0 51.0609 13.337 681 134.072 117.295 480.79
1934 0 53.1183 13.0275 692 136.958 117.949 481.231
1935 0 57.1046 14.2721 815 130.652 117.731 481.508
1936 0 55.1847 12.6484 698 140.064 118.417 478.941
1937 0 59.1494 13.7279 812 136.406 117.829 478.07
1938 0 60.0654 13.8183 830 136.947 117.9 478.859
1939 0 61.1138 13.0903 800 142.531 118.269 478.358
1940 0 62.0784 13.3863 831 142.543 118.14 476.448
1941 0 65.0815 13.9056 905 139.968 117.273 476.083
1942 0 66.1006 14.1905 938 141.553 117.3 473.428
1943 0 69.0953 13.7347 949 142.12 117.807 473.554
1944 0 72.0398 13.8118 995 142.407 118.122 471.858
1945 0 73.04 13.5131 987 144.512 118.077 469.735
1946 0 76.0501 14.0302 1067 143.366 118.282 469.286
1947 0 77.0754 13.6749 1054 144.949 117.989 469.404
1948 1 38.0244 10.7562 409 150.279 116.665 486.822
1949 0 41.029 12.5765 516 144.603 116.116 487.143
1950 0 44.0244 14.015 617 132.135 115.618 486.138
1951 0 43.0071 13.2536 570 133.209 117.409 487.079
1952 0 43.0848 12.371 533 138.278 116.402 486.311
1953 0 46.0946 13.6025 627 132.965 117.166 486.196
1954 0 47.0361 13.6278 641 133.448 117.594 484.738
1955 0 49.1339 13.5548 666 133.62 116.604 483.506
1956 0 49.1658 13.3426 656 136.858 116.869 483.904
1957 0 51.0357 14.578 744 133.767 116.98 481.442
1958 0 53.1233 13.3651 710 136.297 116.949 482.041
1959 0 53.1365 13.6441 725 137.837 117.197 483.094
1960 0 53.1183 12.9146 686 142.2 116.65 481.255
1961 0 54.101 13.0682 707 142.433 117.27 481.173
1962 0 56.1482 13.6603 767 141.141 117.743 478.106
1963 0 60.0562 13.4874 810 139.28 117.689 479.506
1964 0 61.093 14.0605 859 137.645 117.887 477.403
1965 0 64.1122 13.3048 853 137.012 117.995 478.279
1966 0 65.1324 13.4035 873 135.885 118.014 477.37
1967 0 67.1311 13.3768 898 135.384 117.767 474.401
1968 0 72.1246 12.8943 930 134.835 118.013 474.941
1969 0 73.0468 13.4434 982 134.073 117.593 471.959
1970 0 74.1002 13.2253 980 135.046 117.522 473.38
1971 0 77.0602 12.5227 965 138.917 117.285 468.829
1972 0 81.197 13.7936 1120 132.351 117.687 469.787
1973 1 41.0398 12.5001 513 135.32 118.175 486.715
1974 0 43.0471 12.4515 536 132.7 118.229 485.573
1975 0 44.025 12.8109 564 130.727 118.378 486.351
1976 0 45.0592 12.0952 545 133.121 119.477 487.062
1977 0 44.078 12.2964 542 134.089 119.494 485.009
1978 0 46.0851 12.3684 570 129.882 118.975 485.351
1979 0 50.0476 12.4082 621 129.926 118.907 482.778
1980 0 51.086 12.7824 653 126.386 118.002 482.397
1981 0 52.1078 12.1287 632 127.085 118.69 481.34
1982 0 55.0594 12.9315 712 124.275 118.402 480.1
1983 0 56.0628 12.593 706 126.055 117.881 478.824
1984 0 61.219 12.3981 759 121.71 118.631 479.304
1985 0 61.0839 13.2277 808 120.697 118.568 476.235
1986 0 65.1017 12.3806 806 117.34 118.144 474.828
1987 0 65.1216 11.778 767 120.638 118.42 473.928
1988 0 66.0681 12.3963 819 121.098 117.897 472.523
1989 0 70.1372 13.3025 933 116.211 117.563 471.486
1990 0 70.0963 11.5698 811 122.187 117.836 470.933
1991 0 76.1569 14.2206 1083 114.483 118.291 466.868
1992 0 76.0709 13.3297 1014 117.37 118.119 468.088
1993 0 78.1245 12.1601 950 120.579 117.743 466.914
1994 0 83.1426 13.3746 1112 117.205 117.275 464.501
1995 0 86.1657 12.7545 1099 120.255 117.839 464.614
1996 1 44.0534 12.8253 565 117.614 117.926 484.368
1997 0 46.117 13.0321 601 120.126 117.682 481.336
1998 0 46.095 12.3658 570 122.36 116.526 482.118
1999 0 50.1182 12.69 636 120.522 116.926 483.258
2000 0 50.0755 14.3983 721 117.108 117.184 480.989
2001 0 51.0547 13.7108 700 119.579 117.934 482.38
2002 0 52.0609 12.3509 643 123.474 117.305 479.77
2003 0 53.0884 13.6565 725 122.208 118.046 479.279
2004 0 56.0655 14.4652 811 118.328 117.655 479.113
2005 0 58.0514 13.0574 758 123.049 118.412 478.388
2006 0 60.0876 13.6634 821 122.058 118.19 477.038
2007 0 62.1322 12.57 781 125.031 118.101 477.198
2008 0 65.1394 13.0489 850 122.787 118.373 473.974
2009 0 68.0878 12.8364 874 125.23 118.457 473.65
2010 0 70.2089 12.8901 905 126.825 118.202 472.577
2011 0 72.158 13.5259 976 126.089 118.404 471.148
2012 0 77.2562 12.9698 1002 126.806 118.187 469.699
2013 0 77.0966 12.5687 969 127.445 117.916 470.11
2014 0 81.167 13.1334 1066 127.143 117.996 467.157
2015 0 84.2318 13.2254 1114 128.144 117.978 464.154
2016 1 44.1246 12.7367 562 122.157 118.973 484.605
2017 0 47.137 12.3046 580 121.236 118.138 485.453
2018 0 48.2003 13.2987 641 125.126 118.09 482.802
2019 0 50.0567 13.265 664 120.607 118.486 482.5
2020 0 50.1436 13.7206 688 121.653 119.233 480.179
2021 0 51.0291 12.9142 659 128.926 118.545 480.906
2022 0 54.0899 12.0725 653 128.926 117.182 479.198
2023 0 54.0616 12.7077 687 126.473 118.316 479.39
2024 0 58.04 13.8008 801 121.774 118.177 478.33
2025 0 60.0279 13.4271 806 123.258 118.063 477.624
2026 0 64.134 14.345 920 119.321 118.573 475.287
2027 0 64.2142 13.0968 841 121.592 118.968 475.312
2028 0 68.0693 14.0592 957 117.934 118.249 473.999
2029 0 71.1255 13.8347 984 118.089 118.056 472.559
2030 0 72.046 12.4226 895 121.704 118.258 472.427
2031 0 75.2101 13.562 1020 118.729 118.964 468.225
2032 1 40.0514 12.0595 483 116.888 118.99 486.586
2033 0 40.1208 12.3128 494 116.498 118.484 486.709
2034 0 43.1084 12.109 522 114.617 118.389 485.483
2035 0 45.0586 12.2285 551 112.397 117.782 485.947
2036 0 45.0648 12.826 578 112.081 117.574 483.642
2037 0 46.0264 12.4928 575 111.598 118.72 484.485
2038 0 47.0563 13.2182 622 110.482 118.092 482.158
2039 0 47.0584 12.2401 576 113.757 118.144 482.547
2040 0 49.1126 13.4792 662 110.914 117.612 482.79
2041 0 50.0977 11.4776 575 117.096 117.95 482.219
2042 0 52.066 12.1384 632 115.108 118.283 482.119
2043 0 54.0906 11.5732 626 115.717 118.658 479.746
2044 0 56.042 10.7419 602 117.326 118.688 479.709
2045 0 57.0669 11.4077 651 115.819 118.647 478.092
2046 0 58.0909 11.7919 685 115.768 118.815 477.53
2047 0 61.0513 12.4977 763 112.257 119.16 477.941
2048 0 63.074 11.8749 749 113.08 118.78 475.116
2049 0 64.1594 11.3779 730 115.33 118.327 475.874
2050 0 66.1049 12.1625 804 113.979 117.858 473.877
2051 0 67.0864 10.6877 717 117.821 117.344 472.354
2052 0 72.1334 11.6451 840 115.164 117.939 469.848
2053 0 74.2188 11.8973 883 114.741 117.41 468.804
2054 0 76.2189 10.9684 836 117.879 117.408 464.939
2055 1 40.0725 10.8054 433 113.737 118.24 484.82
2056 0 41.0224 11.0184 452 120.989 118.292 486.569
2057 0 42.0391 11.632 489 114.714 117.728 484.526
2058 0 44.2018 12.8954 570 115.87 117.393 484.168
2059 0 45.0873 12.1099 546 117.714 118.361 482.115
2060 0 49.0213 11.852 581 116.2 118.055 483.477
2061 0 49.0538 13.5362 664 113.417 117.949 480.949
2062 0 49.0743 11.7781 578 119.893 118.123 480.815
2063 0 53.1002 13.0131 691 115.792 118.216 479.958
2064 0 54.107 12.8449 695 116.781 117.636 478.96
2065 0 56.0641 12.5927 706 118.252 117.373 478.157
2066 0 58.0546 12.161 706 118.737 117.894 477.744
2067 0 62.0875 13.1911 819 114.137 118.181 476.222
2068 0 61.1088 12.0114 734 119.499 117.621 473.621
2069 0 64.0912 12.6538 811 118.613 117.655 474.567
2070 0 64.1412 12.2074 783 120.733 117.461 474.669
2071 0 68.1075 13.1116 893 118.088 117.633 471.714
2072 0 69.0947 12.5191 865 120.792 116.703 471.099
2073 0 74.062 13.4347 995 117.308 117.465 469.14
2074 0 77.12 12.7075 980 119.601 117.295 467.723
2075 0 81.1076 13.3526 1083 117.587 116.934 466.84
2076 0 83.1269 13.1365 1092 119.145 117.179 463.239
2077 1 42.1407 10.9158 460 125.328 118.465 483.209
2078 0 42.0337 11.5384 485 124.421 118 485.06
2079 0 46.1206 12.8359 592 123.13 116.512 482.576
2080 0 46.0343 11.5131 530 119.968 116.538 479.747
2081 0 49.0398 12.133 595 120.904 116.506 483.303
2082 0 50.0563 12.6857 635 122.636 116.669 481.631
2083 0 51.0348 13.0303 665 115.376 116.014 474.543
2084 0 51.047 11.9106 608 120.887 117.11 474.059
2085 0 51.0507 11.4984 587 122.835 117.072 472.387
2086 0 54.0722 11.5401 624 121.92 117.426 473.167
2087 0 56.0562 12.2556 687 121.051 117.265 470.62
2088 0 60.0153 12.0469 723 121.136 117.394 469.264
2089 0 60.044 12.674 761 121.151 117.286 470.524
2090 0 62.1467 12.1969 758 122.934 117.396 468.458
2091 0 62.0472 11.7975 732 125.817 116.805 467.411
2092 0 65.0148 12.0742 785 125.511 116.545 466.146
2093 0 72.0626 13.2801 957 119.906 116.917 466.283
2094 0 72.0943 12.5391 904 126.243 117.133 463.635
2095 0 71.1852 12.025 856 131.218 117.04 463.23
2096 0 76.1699 12.6822 966 128.429 117.262 460.633
2097 0 78.0862 13.2034 1031 128.095 117.209 459.325
2098 0 81.1543 12.6303 1025 130.297 117.913 458.38
2099 1 44.0625 9.73617 429 127.699 117.986 477.564
2100 0 46.1205 11.1881 516 123.43 118.217 478.052
2101 0 48.0882 12.6642 609 121.015 117.401 477.164
2102 0 47.0388 10.9697 516 124.012 118.234 476.38
2103 0 50.1705 11.1221 558 122.556 117.835 476.722
2104 0 52.0563 12.1983 635 121.37 117.931 477.767
2105 0 55.0649 13.2934 732 130.732 118.857 479.705
2106 0 55.0302 13.9378 767 131.192 117.705 476.717
2107 0 58.078 14.0501 816 130.279 117.642 476.81
2108 0 59.1211 12.8719 761 133.788 118.213 476.777
2109 0 62.1444 13.4686 837 133.191 117.115 474.884
2110 0 62.2848 13.3098 829 135.4 117.861 474.181
2111 0 67.1228 14.3915 966 130.706 117.518 473.92
2112 0 69.0745 13.623 941 133.683 117.838 472.814
2113 0 69.187 12.4156 859 139.427 117.187 472.141
2114 0 72.0706 14.4442 1041 132.68 117.314 470.625
2115 0 75.0526 13.4306 1008 136.665 117.31 468.239
2116 0 78.0765 15.075 1177 131.578 118.015 463.788
2117 0 84.1224 16.2263 1365 126.037 118.068 462.367
2118 0 85.1034 14.4883 1233 132.372 117.897 460.186
2119 0 85.051 13.0863 1113 134.126 118.35 459.446
2120 1 45.0514 11.6534 525 129.735 118.194 482.326
2121 0 48.0355 11.5331 554 127.395 117.623 478.466
2122 0 48.0249 11.7647 565 137.404 117.48 479.947
2123 0 52.1269 13.3712 697 131.722 117.917 481.524
2124 0 53.074 13.9428 740 131.685 118.115 479.297
2125 0 55.0699 14.6178 805 128.299 118.431 478.406
2126 0 55.0617 12.5496 691 136.315 118.382 479.109
2127 0 59.1103 14.0077 828 129.664 117.764 478.046
2128 0 59.141 13.0197 770 134.51 117.381 475.469
2129 0 62.1482 14.4654 899 128.428 117.301 475.416
2130 0 64.165 14.8367 952 127.133 117.386 473.175
2131 0 65.1899 13.2996 867 132.329 117.336 473.642
2132 0 68.2423 13.5546 925 130.075 117.544 472.31
2133 0 71.2833 14.0987 1005 127.891 117.425 471.685
2134 0 73.2667 13.6215 998 128.996 117.347 471.77
2135 0 75.2695 13.4583 1013 131.474 117.42 468.012
2136 0 79.1773 14.4865 1147 127.323 117.568 467.96
2137 1 42.2043 12.1788 514 127.798 118.451 486.004
2138 0 43.1012 11.6238 501 130.549 117.509 485.012
2139 0 44.0744 12.9554 571 126.187 117.876 483.942
2140 0 46.0616 13.6339 628 123.715 119.105 483.242
2141 0 46.0232 13.6235 627 125.262 118.322 482.978
2142 0 48.017 12.4956 600 128.353 118.727 481.905
2143 0 49.0581 12.4546 611 129.941 118.599 481.277
2144 0 50.0436 13.0087 651 128.08 118.518 481.432
2145 0 53.0359 12.8969 684 128.345 118.509 480.772
2146 0 54.0265 13.0862 707 127.564 118.389 478.946
2147 0 56.0365 12.1706 682 129.393 118.867 478.696
2148 0 58.1736 13.5113 786 125.266 117.742 478.41
2149 0 60.1276 12.4735 750 128.393 118.627 477.393
2150 0 61.1389 14.4262 882 122.83 118.339 475.449
2151 0 63.1012 13.3278 841 125.942 117.319 474.885
2152 0 66.088 14.6018 965 122.107 117.684 474.601
2153 0 67.0516 12.1101 812 129.001 118.086 473.67
2154 0 72.1005 13.8002 995 122.399 117.635 472.538
2155 0 72.0854 13.5256 975 123.809 118.186 471.581
2156 0 72.0258 13.1481 947 127.55 117.208 466.649
2157 0 77.1279 13.0692 1008 126.644 117.98 467.005
2158 0 82.0842 13.5836 1115 124.188 117.628 466.019
2159 0 82.1429 13.647 1121 125.794 117.789 466.366
2160 0 85.1344 13.3788 1139 126.523 118.414 463.039
2161 0 89.1253 14.7096 1311 122.36 118.533 461.505
2162 0 93.1477 14.8796 1386 119.369 118.835 462.136
2163 1 47.0811 11.066 521 127.211 118.259 479.131
2164 0 49.2636 12.423 612 121.288 116.969 476.907
2165 0 53.1615 12.5279 666 120.29 117.18 478.541
2166 0 54.1402 12.7632 691 126.763 116.249 479.718
2167 0 55.1616 13.0163 718 126.844 116.323 477.652
2168 0 58.1872 13.7144 798 123.36 117.252 478.348
2169 0 61.1307 14.3954 880 120.664 117.12 477.301
2170 0 60.1393 12.471 750 127.059 116.771 477.663
2171 0 64.113 13.6634 876 124.102 117.234 474.186
2172 0 65.2118 14.3379 935 122.884 117.518 474.084
2173 0 67.2175 13.6571 918 124.575 117.702 472.858
2174 0 70.2877 12.833 902 125.586 117.228 473.004
2175 0 73.3463 15.5972 1144 119.016 116.385 468.591
2176 0 75.1992 14.6278 1100 122.137 116.112 469.229
2177 0 76.3197 15.0813 1151 121.069 115.796 465.858
2178 0 79.2008 13.7877 1092 121.433 116.074 466.634
2179 0 82.0773 13.7066 1125 116.93 116.369 465.508
2180 0 83.1949 13.1979 1098 118.213 116.619 463.027
2181 0 87.1975 13.0394 1137 119.642 116.452 464.73
2182 0 90.0891 13.6975 1234 119.198 116.471 462.485
2183 1 45.0389 12.2561 552 122.132 117.011 483.85
2184 0 47.0744 11.5774 545 123.169 116.868 483.972
2185 0 48.0695 12.2947 591 114.948 116.924 480.66
2186 0 49.0276 13.8697 680 120.237 116.584 480.94
2187 0 53.1081 12.9547 688 112.497 116.52 479.493
2188 0 52.0189 12.9953 676 113.565 118 478.408
2189 0 54.0708 12.798 692 114.876 117.143 476.996
2190 0 57.0481 13.8129 788 111.391 116.566 475.07
2191 0 59.0794 13.6088 804 112.071 116.854 473.348
2192 0 60.049 13.8887 834 112.602 116.687 474.501
2193 0 63.0534 13.7344 866 112.156 116.262 473.351
2194 0 64.1247 13.3334 855 114.184 116.345 472.579
2195 0 67.0285 14.2626 956 111.654 116.419 471.543
2196 0 69.0908 14.3 988 113.23 116.912 469.468
2197 0 71.1114 14.3578 1021 112.546 117.154 471.579
2198 0 74.0975 15.0612 1116 112.381 116.225 466.673
2199 0 78.1219 15.0022 1172 112.445 116.422 465.884
2200 0 81.1093 14.351 1164 112.621 116.884 466.747
2201 0 84.0609 13.514 1136 114.867 116.228 464.501
2202 0 87.1646 14.8225 1292 111.466 115.563 463.168
2203 0 88.1396 13.3652 1178 115.953 116.278 461.75
2204 0 92.0443 13.5587 1248 117.036 116.413 459.905
2205 1 47.0436 12.3928 583 126.854 116.106 479.569
2206 0 50.0364 13.1504 658 121.457 116.869 475.847
2207 0 53.0548 13.3259 707 115.185 116.943 476.777
2208 0 54.0668 14.3896 778 125.293 115.86 478.31
2209 0 57.0319 13.9396 795 124.907 115.962 476.995
2210 0 59.0924 14.7565 872 123.391 116.104 475.13
2211 0 62.0939 14.1238 877 124.919 116.073 476.114
2212 0 63.0894 13.8058 871 126.421 116.788 474.032
2213 0 67.1594 15.024 1009 120.724 116.006 473.934
2214 0 67.0775 13.2235 887 127.057 115.922 473.078
2215 0 69.0442 14.2807 986 124.891 116.224 471.456
2216 0 73.0769 14.5053 1060 122.738 115.663 471.143
2217 0 77.0564 15.0799 1162 121.037 115.74 468.53
2218 0 78.0498 14.3498 1120 124.599 115.446 466.492
2219 0 83.0699 16.2393 1349 118.446 115.67 463.565
2220 0 85.0943 14.7718 1257 124.98 116.578 462.967
2221 0 88.0697 15.3174 1349 122.882 117.707 461.31
2222 0 88.0723 14.1702 1248 121.631 117.225 463.933
2223 0 92.077 13.2606 1221 123.298 117.561 463.364
2224 1 50.0221 12.4945 625 130.299 117.918 480.842
2225 0 52.0654 14.6162 761 121.807 118.332 479.58
2226 0 54.1061 13.5105 731 128.218 118.432 480.376
2227 0 57.0556 13.2327 755 122.559 118.339 479.914
2228 0 57.0695 14.456 825 121.273 117.855 478.858
2229 0 60.1033 13.9094 836 121.493 117.854 477.238
2230 0 62.0627 12.9224 802 118.43 117.097 474.971
2231 0 62.0435 12.3462 766 120.405 117.185 474.025
2232 0 66.0867 12.4685 824 119.377 116.563 474.458
2233 0 66.0633 12.821 847 121.917 116.954 471.289
2234 0 69.119 13.3104 920 120.878 116.679 470.859
2235 0 72.0406 13.2009 951 121.064 116.939 470.159
2236 0 75.1411 13.0821 983 122.083 117.026 468.797
2237 0 78.0664 13.2579 1035 123.189 117.093 466.858
2238 0 80.1159 13.8674 1111 122.007 116.802 464.967
2239 0 85.0826 13.7748 1172 122.094 116.882 463.877
2240 0 89.0801 14.4701 1289 121.131 116.638 461.296
2241 0 91.0981 13.7983 1257 123.649 117.232 460.948
2242 0 95.1835 13.6158 1296 124.94 116.788 458.855
2243 1 50.0369 11.1118 556 127.642 116.29 479.633
2244 0 52.0439 12.4318 647 125.009 116.323 478.127
2245 0 55.1821 12.939 714 123.354 117.136 477.926
2246 0 57.0878 13.2428 756 122.16 117.709 477.401
2247 0 57.0631 13.3361 761 128.217 117.622 477.669
2248 0 61.1365 13.0037 795 123.294 116.938 475.587
2249 0 63.0541 13.4805 850 127.085 117.34 475.524
2250 0 64.0821 13.2642 850 129.754 117.509 474.72
2251 0 67.0749 13.1644 883 121.502 117.099 472.639
2252 0 70.1848 13.9631 980 119.236 117.347 468.944
2253 0 71.0903 13.6305 969 121.456 116.835 469.503
2254 0 75.091 14.023 1053 119.93 117.613 468.753
2255 0 77.06 14.0021 1079 123.714 117.237 468.948
2256 0 80.1216 14.2159 1139 123.886 118.318 466.885
2257 0 84.111 15.2061 1279 119.754 117.317 467.562
2258 0 83.1415 13.038 1084 128.649 117.591 466.72
2259 1 44.0687 11.1871 493 130.499 118.148 488.205
2260 0 45.0826 11.5344 520 130.908 118.025 486.929
2261 0 49.0132 12.2824 602 127.389 117.525 487.367
2262 0 51.0555 13.1426 671 124.063 117.182 488.209
2263 0 52.0336 12.5112 651 126.516 117.39 488.548
2264 0 51.0537 12.7513 651 130.598 116.673 487.797
2265 0 53.043 13.046 692 129.655 117.019 487.889
2266 0 54.0269 12.6234 682 131.258 116.261 488.991
2267 0 56.0466 13.3817 750 129.845 116.176 488.217
2268 0 57.0951 12.5055 714 133.125 115.947 488.723
2269 0 59.0314 13.0778 772 131.316 115.642 488.852
2270 0 61.0723 13.4595 822 131.148 115.022 488.524
2271 0 64.0616 13.0968 839 133.369 115.052 486.4
2272 0 65.0323 12.5015 813 140.216 114.383 485.098
2273 0 67.0738 13.269 890 137.411 114.257 484.931
2274 0 71.1126 13.9638 993 135.117 114.078 483.658
2275 0 71.0539 13.3279 947 139.683 113.732 481.474
2276 0 75.0567 14.1227 1060 137.949 113.079 480.252
2277 0 77.0862 14.2308 1097 138.796 112.749 479.2
2278 0 78.0695 13.2062 1031 143.543 112.885 477.713
2279 0 82.0795 13.9621 1146 141.987 112.775 475.725
2280 0 84.0587 14.7873 1243 139.625 111.623 471.998
2281 0 85.0921 13.6558 1162 145.093 111.748 469.322
2282 0 88.1603 14.3262 1263 141.196 111.124 470.186
2283 0 90.1313 14.1127 1272 142.745 111.43 467.238
2284 0 95.1382 15.5878 1483 136.938 110.95 463.822
2285 0 95.1456 13.9786 1330 144.286 110.255 462.15
2286 0 100.098 14.7555 1477 139.689 110.747 461.5
2287 0 102.085 14.0178 1431 142.645 110.703 459.646
2288 1 51.127 10.3272 528 135.581 110.051 484.835
2289 0 55.1413 11.7154 646 131.02 110.534 483.289
2290 0 56.1681 11.5724 650 130.614 110.042 487.611
2291 0 60.3066 13.5143 815 125.697 110.142 490.778
2292 0 61.2264 11.4983 704 131.71 109.896 488.753
2293 0 63.1755 11.2385 710 130.218 109.663 489.783
2294 0 67.2166 12.0208 808 127.38 111.177 488.967
2295 0 68.2639 11.5288 787 129.447 110.612 487.311
2296 0 69.193 11.822 818 128.446 110.603 486.358
2297 0 72.3995 12.0028 869 128.148 110.827 483.85
2298 0 76.1654 12.1052 922 126.198 111.018 482.656
2299 0 75.2271 11.5384 868 129.733 110.965 479.376
2300 0 81.3119 12.7657 1038 124.06 111.429 479.534
2301 0 82.3426 12.1565 1001 126.82 110.552 476.93
2302 0 85.4402 12.8394 1097 124.616 110.393 473.743
2303 0 88.4669 12.3775 1095 126.457 109.869 472.894
2304 0 91.6094 12.7389 1167 124.718 110.55 471.32
2305 0 96.32 11.3164 1090 121.191 110.062 469.889
2306 1 49.0827 10.8592 533 112.471 111.531 494.368
2307 0 52.0166 10.7466 559 111.919 111.454 492.081
2308 0 54.1313 11.4721 621 111.895 111.193 491.475
2309 0 51.2506 10.0682 516 118.961 110.907 490.126
2310 0 56.1834 10.8217 608 114.401 110.788 489.942
2311 0 58.2294 10.7162 624 113.458 111.361 489.005
2312 0 61.2165 11.2878 691 112.049 111.291 487.667
2313 0 63.0879 10.0812 636 113.797 110.808 487.819
2314 0 65.1611 10.7733 702 111.603 111.523 486.493
2315 0 67.2199 10.2946 692 112.63 110.993 484.851
2316 0 69.1245 10.9947 760 111.117 111.228 483.925
2317 0 72.2152 10.3025 744 111.829 111.284 482.927
2318 0 74.2723 11.754 873 109.21 110.18 481.385
2319 0 78.2533 11.3861 891 109.557 110.028 479.626
2320 0 79.3651 11.1384 884 110.147 110.743 479.351
2321 0 82.3581 9.85938 812 120.479 110.67 474.82
2322 1 44.0468 9.10395 401 112.983 111.062 496.466
2323 0 45.0868 10.9788 495 108.996 111.64 493.196
2324 0 48.0397 11.1782 537 105.114 111.825 494.302
2325 0 48.0432 11.0109 529 107.894 111.473 491.694
2326 0 50.0207 8.4565 423 113.61 110.645 494.489
2327 0 49.0173 9.71087 476 112.605 111.824 492.195
2328 0 51.0418 9.34528 477 113.91 111.164 492.26
2329 0 54.0522 9.21332 498 113.691 110.91 491.924
2330 0 53.0462 10.029 532 113.836 110.741 489.977
2331 0 53.057 9.40497 499 117.138 111.174 489.94
2332 0 56.0343 10.6542 597 112.814 111.146 488.704
2333 0 56.1035 10.4093 584 114.137 111.207 487.974
2334 0 60.0487 9.7754 587 114.935 110.576 487.283
2335 0 67.0809 10.0178 672 113.122 111.095 486.216
2336 0 67.0271 11.2343 753 110.554 110.364 483.453
2337 0 64.0949 10.2816 659 114.748 111.077 482.085
2338 0 68.1107 10.0278 683 113.312 111.592 483.827
2339 0 71.0443 12.3585 878 111.003 111.239 477.812
2340 0 74.069 11.6648 864 112.146 111.042 478.378
2341 0 75.1178 11.2623 846 113.675 110.933 478.262
2342 0 79.0818 12.5187 990 111.703 110.648 474.928
2343 0 81.0614 11.6948 948 110.957 110.659 476.328
2344 0 83.1065 11.395 947 111.305 110.924 473.043
2345 0 87.1645 11.4496 998 110.918 111.655 469.558
2346 1 48.0552 11.0914 533 111.043 111.227 488.85
2347 0 49.1038 11.0175 541 111.715 111.946 487.316
2348 0 50.0337 12.1918 610 110.692 111.475 486.659
2349 0 52.0585 12.1594 633 112.893 112.062 485.199
2350 0 53.0959 12.1102 643 114.243 112.309 484.785
2351 0 55.167 13.5769 749 109.849 113.75 482.024
2352 0 57.1666 13.0846 748 108.852 114.281 481.973
2353 0 59.0439 13.2444 782 109.07 114.159 480.066
2354 0 59.0907 13.0816 773 102.406 113.301 475.327
2355 0 60.1464 13.4671 810 102.031 113.383 474.491
2356 0 61.1507 10.9892 672 109.027 113.549 473.918
2357 0 62.0808 11.7589 730 107.107 113.825 474.196
2358 0 62.1919 11.7861 733 107.913 113.92 472.636
2359 0 65.1092 11.3502 739 109.633 113.817 469.295
2360 0 69.2803 12.0092 832 107.371 114.228 469.43
2361 0 70.0795 11.6439 816 108.602 114.69 468.154
2362 0 73.1303 11.541 844 109.571 114.523 467.495
2363 0 75.3079 11.5924 873 109.443 114.438 464.504
2364 0 78.2041 12.2372 957 108.452 114.607 464.315
2365 0 81.129 11.8453 961 110.187 115.057 461.03
2366 0 83.2127 12.1015 1007 110.083 114.731 458.442
2367 0 86.2848 11.972 1033 110.616 114.312 459.672
2368 0 88.2991 11.6309 1027 113.085 114.315 457.856
2369 0 93.2994 12.3152 1149 110.41 114.233 457.551
2370 0 96.2716 12.7971 1232 109.787 115.061 454.783
2371 1 49.2672 11.1839 551 120.753 115.434 478.192
2372 0 50.129 11.5302 578 117.787 114.986 477.102
2373 0 52.0212 11.2454 585 107.198 115.128 477.174
2374 0 53.0634 11.0246 585 108.356 114.968 477.662
2375 0 55.0451 11.7177 645 106.276 114.715 475.943
2376 0 57.0793 11.7906 673 106.634 115.349 475.924
2377 0 58.038 11.6648 677 107.756 114.846 472.024
2378 0 61.05 11.4988 702 107.241 115.276 472.426
2379 0 63.083 11.5721 730 107.399 115.912 472.136
2380 0 64.0637 11.0203 706 108.581 116.075 472.282
2381 0 67.1235 11.7843 791 106.764 115.996 471.247
2382 0 68.24 11.3716 776 108.707 115.591 467.347
2383 0 74.1712 13.1722 977 104.426 115.709 467.285
2384 0 74.2624 12.9945 965 107.501 115.805 466
2385 0 77.2675 12.7091 982 109.753 115.779 464.052
2386 0 76.1789 10.961 835 114.098 115.564 464.178
2387 0 81.2148 11.7836 957 111.321 115.555 463.773
2388 0 86.1903 12.6232 1088 110.288 115.267 462.147
2389 0 88.2241 12.4909 1102 109.938 115.321 462.185
2390 1 46.1124 11.6888 539 104.714 116.263 483.369
2391 0 45.1038 10.11 456 108.542 116.548 483.221
2392 0 47.1451 12.1328 572 105.423 117.061 482.713
2393 0 52.1265 13.5824 708 100.476 116.757 482.025
2394 0 53.0821 12.3582 656 103.117 116.13 480.527
2395 0 53.1171 12.4819 663 104.974 116.582 478.249
2396 0 53.0997 12.4859 663 105.683 115.961 478.896
2397 0 55.0548 12.424 684 106.463 116.038 478.197
2398 0 58.1053 12.7699 742 105.677 115.604 477.495
2399 0 59.0748 13.0174 769 106.964 115.735 475.32
2400 0 62.1484 12.0679 750 108.86 115.136 472.671
2401 0 64.0719 12.9386 829 108.016 115.036 471.783
2402 0 66.1302 13.2012 873 108.542 115.6 470.494
2403 0 69.0595 13.0033 898 108.948 115.66 471.031
2404 0 72.1545 12.3208 889 110.605 115.265 470.384
2405 0 75.1106 13.2471 995 109.612 115.695 468.346
2406 0 75.0562 12.3508 927 114.644 115.346 466.466
2407 0 77.0931 13.14 1013 112.83 116.152 466.627
2408 0 82.1114 12.7266 1045 113.148 116.189 465.298
2409 0 83.1435 12.1597 1011 115.454 115.646 464.493
2410 0 86.0437 12.5866 1083 115.029 115.929 461.156
2411 0 91.0964 13.3046 1212 112.927 116.581 461.093
2412 0 94.1525 12.0761 1137 115.489 115.76 460.786
2413 1 48.0442 12.9464 622 117.584 116.494 485.979
2414 0 50.1162 14.606 732 114.023 116.299 483.63
2415 0 50.0437 14.2076 711 105.461 115.428 480.053
2416 0 51.0691 12.8258 655 109.479 114.881 480.904
2417 0 52.0978 12.6109 657 109.755 115.665 481.184
2418 0 56.0258 12.2265 685 110.493 115.566 480.631
2419 0 57.104 11.4703 655 112.073 115.447 477.872
2420 0 58.0961 12.8408 746 109.471 115.239 477.154
2421 0 61.0908 12.7352 778 109.08 115.526 476.431
2422 0 62.0666 12.5188 777 110.1 115.762 475.927
2423 0 65.0867 12.1991 794 110.445 115.611 475.496
2424 0 67.1009 13.1742 884 109.555 115.446 471.481
2425 0 70.1179 11.0671 776 113.207 115.575 475.135
2426 0 72.1452 12.156 877 112.525 115.192 470.737
2427 0 75.1033 11.7172 880 112.037 115.223 469.947
2428 0 79.1201 13.3215 1054 107.583 115.476 468.38
2429 0 80.1324 11.7306 940 110.765 116.443 470.384
2430 0 85.1549 12.1543 1035 109.598 115.597 466.994
2431 1 40.1272 11.5383 463 108.041 116.119 488.952
2432 0 41.0968 12.1664 500 108.516 116.64 487.962
2433 0 42.1485 12.5034 527 111.856 116.036 488.332
2434 0 43.0716 12.7462 549 109.259 116.335 487.973
2435 0 46.143 13.1331 606 101.518 115.804 482.642
2436 0 48.0474 13.9654 671 99.2757 115.629 483.939
2437 0 48.0268 12.4097 596 103.186 116.383 484.391
2438 0 48.0349 13.1571 632 102.725 116.315 483.133
2439 0 50.0367 12.4509 623 103.859 115.913 483.445
2440 0 51.0256 12.5427 640 104.061 116.208 482.267
2441 0 54.075 13.0375 705 103.162 116.043 481.489
2442 0 55.0884 14.1046 777 101.075 116.058 479.507
2443 0 55.0537 12.4061 683 106.49 115.725 480.293
2444 0 57.038 12.3427 704 106.935 116.365 477.803
2445 0 60.0917 13.0134 782 106.013 115.946 477.811
2446 0 62.1162 12.702 789 107.46 116.356 476.559
2447 0 63.1165 12.8334 810 109.121 116.394 474.628
2448 0 65.1316 13.2347 862 108.372 115.848 473.488
2449 0 67.1226 12.8124 860 108.98 116.229 473.085
2450 0 71.0927 12.0266 855 111.582 115.668 470.853
2451 0 74.0748 13.9319 1032 107.545 115.878 469.141
2452 0 76.0819 12.8546 978 111.069 116.081 469.389
2453 0 79.0829 13.4416 1063 110.245 115.388 468.663
2454 0 83.0599 12.9063 1072 111.816 115.623 466.527
2455 1 41.0349 12.599 517 111.816 115.451 488.725
2456 0 42.1501 11.5065 485 113.977 115.647 486.132
2457 0 43.0835 13.6247 587 109.937 115.901 484.966
2458 0 44.089 14.0851 621 115.623 116.663 484.267
2459 0 45.0707 12.1587 548 118.976 116.181 485.651
2460 0 47.1189 12.6913 598 118.642 116.457 482.363
2461 0 49.1168 13.702 673 115.559 116.899 479.945
2462 0 51.1287 13.3976 685 115.364 116.521 480.568
2463 0 53.1147 14.6852 780 112.382 116.494 480.295
2464 0 54.1504 14.2381 771 114.39 116.737 478.999
2465 0 54.2971 13.8682 753 116.171 116.963 479.025
2466 0 58.0566 14.5548 845 114.013 116.87 479.304
2467 0 60.1753 14.5907 878 115.11 117.019 476.056
2468 0 61.1215 12.7451 779 120.917 116.99 476.113
2469 0 64.1207 14.3167 918 117.351 116.281 474.09
2470 0 66.1331 14.9547 989 117.016 116.319 473.664
2471 0 68.1302 14.8245 1010 117.074 116.843 472.222
2472 0 72.2119 15.2191 1099 114.419 116.936 472.864
2473 0 74.1418 16.5898 1230 112.672 116.531 469.913
2474 0 76.17 16.8964 1287 111.972 117.103 469.071
2475 0 77.1227 15.4299 1190 117.683 116.883 468.129
2476 0 78.1244 14.9249 1166 119.866 116.603 466.792
2477 0 82.1223 15.2821 1255 118.359 116.841 465.147
2478 0 87.2104 16.5233 1441 114.428 116.746 463.934
2479 0 88.1838 15.6831 1383 117.098 117.304 461.036
2480 0 92.2323 15.1791 1400 118.064 116.916 460.747
2481 0 94.2424 16.0331 1511 115.758 117.149 460.293
2482 0 98.1736 15.931 1564 115.786 116.85 457.78
2483 0 101.211 16.0753 1627 115.637 116.627 455.27
2484 0 105.158 17.1172 1800 112.261 116.543 453.604
2485 0 108.149 15.007 1623 116.713 116.659 454.404
2486 1 57.1274 13.9863 799 121.534 117.452 476.962
2487 0 58.1489 14.2049 826 122.932 117.105 475.593
2488 0 62.0423 14.0711 873 122.378 116.99 474.874
2489 0 63.0397 13.9753 881 123.203 117.052 473.194
2490 0 65.1336 15.3224 998 120.839 116.402 471.634
2491 0 69.1551 15.9641 1104 118.673 116.724 470.811
2492 0 70.2285 14.1253 992 124.705 116.5 470.387
2493 0 72.257 15.265 1103 122.097 116.219 468.658
2494 0 75.1938 13.7644 1035 125.882 116.472 467.706
2495 0 77.2407 14.6425 1131 125.868 115.61 464.148
2496 0 79.3424 13.9774 1109 127.46 116.918 464.197
2497 0 81.3056 14.5623 1184 127.417 116.807 463.814
2498 0 84.2805 15.4247 1300 126.098 116.795 461.291
2499 0 85.2302 15.4053 1313 127.774 116.857 460.559
2500 0 88.1697 15.8104 1394 127.344 117.09 458.886
2501 0 89.4467 15.3723 1375 130.87 117.211 455.759
2502 0 93.3161 15.6136 1457 128.956 116.377 456.377
2503 0 94.1842 15.7033 1479 130.45 116.962 453.885
2504 0 95.1814 14.8558 1414 133.819 116.257 452.673
2505 0 98.2181 15.0889 1482 136.059 116.121 451.246
2506 0 104.182 15.3098 1595 131.297 116.703 450.293
2507 0 107.174 15.2276 1632 132.955 117.173 448.518
2508 0 109.174 15.3333 1674 133.743 117.144 448.035
2509 0 113.224 14.5729 1650 136.381 116.976 445.101
2510 0 117.164 15.0131 1759 134.958 117.396 444.086
2511 0 122.155 15.8897 1941 131.644 117.031 440.552
2512 0 126.263 15.6499 1976 132.714 116.89 436.858
2513 0 129.198 14.056 1816 138.293 117.241 436.863
2514 0 135.17 15.2475 2061 134.181 117.306 434.473
2515 0 138.198 13.582 1877 139.238 117.159 432.257
2516 0 144.114 15.342 2211 133.277 117.07 428.308
2517 1 77.1531 12.1965 941 136.032 116.897 459.823
2518 0 80.1363 12.1543 974 134.911 117.051 459.162
2519 0 84.18 12.8415 1081 130.73 117.955 456.093
2520 0 87.1303 13.9217 1213 128.399 117.883 454.955
2521 0 87.19 11.4692 1000 137.489 117.974 450.866
2522 0 92.1319 12.2216 1126 133.63 117.716 449.701
2523 0 95.1413 12.8441 1222 131.519 117.898 447.573
2524 0 99.2043 13.3664 1326 130.717 118 445.515
2525 0 104.303 12.7417 1329 131.748 117.506 443.424
2526 0 107.223 13.0009 1394 133.822 117.726 444.317
2527 0 108.155 11.8072 1277 138.398 118.53 439.951
2528 0 115.158 11.8272 1362 136.029 117.843 439.68
2529 1 67.1042 9.82054 659 122.466 117.281 463.974
2530 0 69.0932 11.3036 781 123.675 116.915 462.917
2531 0 73.0938 13.339 975 114.552 116.526 464.588
2532 0 74.4124 10.8718 809 122.726 114.779 462.661
2533 0 77.3481 13.0061 1006 117.64 116.192 460.665
2534 0 78.31 11.7993 924 122.255 116.658 457.961
2535 0 82.3042 12.0164 989 121.851 116.005 457.321
2536 0 86.2569 13.1004 1130 118.21 115.707 457.076
2537 0 87.1496 11.7843 1027 123.604 116.547 455.343
2538 0 91.2627 11.7025 1068 123.75 116.535 454.135
2539 0 96.228 12.6055 1213 121.133 115.41 450.932
2540 0 96.1154 11.5278 1108 125.325 115.397 450.103
2541 0 100.135 12.7927 1281 122.393 115.704 446.995
2542 1 54.1094 10.4788 567 120.919 115.321 470.538
2543 0 57.1472 10.6217 607 119.703 115.498 470.82
2544 0 59.279 11.4712 680 117.203 115.785 472.253
2545 0 59.1915 11.1671 661 118.705 115.805 473.592
2546 0 61.3354 11.8203 725 118.207 115.647 471.774
2547 0 63.382 11.8488 751 117.418 116.337 467.627
2548 0 64.433 10.9882 708 120.203 116.518 470.551
2549 0 66.4095 12.2723 815 117.185 116.74 469.547
2550 0 68.3525 10.402 711 122.048 116.339 468.309
2551 0 70.2807 11.4256 803 119.738 116.851 468.335
2552 0 74.3322 11.2737 838 120.322 115.816 466.764
2553 0 76.2062 11.7707 897 118.377 116.061 465.978
2554 0 79.2471 12.0383 954 117.9 115.894 464.067
2555 0 82.3721 11.181 921 120.114 116.704 464.413
2556 0 84.3697 11.7222 989 120.007 116.511 459.893
2557 0 87.2851 12.9575 1131 117.331 116.97 457.95
2558 0 89.3494 11.1472 996 121.858 116.576 457.619
2559 1 47.1724 10.4086 491 119.287 115.418 477.762
2560 0 50.3321 9.91416 499 121.331 116.216 477.194
2561 0 45.1092 9.15556 413 122.046 119.676 478.346
2562 0 48.184 10.6259 512 117.943 119.535 477.354
2563 0 50.1201 11.4924 576 116.743 118.976 476.047
2564 0 53.213 10.7868 574 117.387 119.453 477.409
2565 0 52.1703 10.9257 570 118.856 119.833 475.532
2566 0 54.1817 10.2802 557 120.379 118.925 474.792
2567 0 55.145 10.4089 574 119.232 118.129 475.413
2568 0 59.1864 12.0129 711 114.893 118.454 474.138
2569 0 59.4292 11.6609 693 117.449 118.527 474.26
2570 0 60.2161 10.7945 650 121.528 118.22 471.622
2571 0 63.1962 12.1526 768 117.616 118.526 470.792
2572 0 66.2191 12.9419 857 113.869 118.307 469.84
2573 0 69.4103 12.7791 887 115.435 118.158 466.02
2574 0 70.2575 13.2086 928 115.129 118.42 466.357
2575 0 74.3268 12.9428 962 115.217 118.79 466.164
2576 0 76.3318 13.2186 1009 113.484 118.69 465.487
2577 0 78.1315 13.4133 1048 114.992 118.444 462.81
2578 0 79.1291 12.2079 966 120.067 118.529 463.577
2579 0 83.1395 13.6036 1131 115.343 117.802 461.243
2580 1 42.0612 10.7938 454 122.148 119.145 477.192
2581 0 39.016 9.56018 373 123.807 118.48 473.686
2582 0 43.0892 10.7916 465 120.176 117.12 472.598
2583 0 45.0221 11.7942 531 118.678 118.33 473.384
2584 0 47.0591 10.5612 497 122.052 118.684 472.435
2585 0 48.0727 11.3578 546 120.802 118.167 472.179
2586 0 47.0192 10.6552 501 125.723 118.379 472.008
2587 0 50.0409 10.2716 514 126.547 118.163 471.183
2588 0 50.0192 12.7951 640 121.528 118.916 469.239
2589 0 55.0867 11.7814 649 122.274 118.643 471.675
2590 0 56.0445 12.2938 689 121.959 118.36 470.955
2591 0 57.0938 13.4165 766 120.419 118.332 469.405
2592 0 58.1172 13.0942 761 120.18 118.067 468.497
2593 0 58.2898 12.7467 743 123.055 117.257 467.563
2594 0 62.2146 12.3283 767 123.197 117.484 468.703
2595 0 63.2046 13.0212 823 123.991 117.646 467.143
2596 0 63.232 12.3513 781 128.707 117.867 466.478
2597 0 66.2077 12.8082 848 127.58 118.177 465.383
2598 0 68.2077 13.7814 940 125.01 117.722 464.944
2599 0 70.2947 13.7137 964 125.927 118.115 462.688
2600 0 71.1855 12.2778 874 130.579 118.319 462.744
2601 0 75.0676 13.0016 976 123.428 117.836 459.929
2602 0 77.1522 12.417 958 125.291 117.813 459.295
2603 0 81.0321 13.1306 1064 122.673 118.043 459.43
2604 0 83.2324 13.3602 1112 121.868 118.01 456.736
2605 0 85.1923 13.0293 1110 123.449 117.771 455.492
2606 0 86.1818 12.346 1064 127.087 117.649 455.16
2607 0 90.2475 12.5322 1131 127.483 117.659 452.943
2608 1 46.1492 11.2461 519 123.333 117.707 476.607
2609 0 48.1575 10.881 524 131.149 117.021 477.504
2610 0 51.0316 11.7378 599 126.698 117.386 476.311
2611 0 51.1414 12.4361 636 125.175 117.274 474.884
2612 0 53.1495 12.7941 680 126.101 116.919 472.965
2613 0 57.1226 14.145 808 120.348 117.516 472.993
2614 0 56.0889 14.0848 790 122.003 117.619 471.509
2615 0 58.1592 12.6721 737 125.218 118.026 472.273
2616 0 59.1166 12.7037 751 126.732 118.065 472.017
2617 0 63.1464 13.5716 857 123.466 117.175 471.503
2618 0 64.1725 13.4325 862 125.406 116.922 469.829
2619 0 68.0893 14.0404 956 123.115 117.229 470.179
2620 0 68.1388 13.2817 905 126.919 117.02 469.291
2621 0 71.2376 14.1639 1009 124.887 116.448 468.206
2622 0 75.122 14.7893 1111 122.159 116.354 469.703
2623 0 77.0902 14.2949 1102 125.614 116.678 467.516
2624 0 79.1993 13.1062 1038 129.844 116.61 465.828
2625 0 82.1485 13.1104 1077 129.577 115.986 465.822
2626 0 84.1542 13.297 1119 128.962 116.075 464.059
2627 0 87.1316 13.8526 1207 128.343 115.871 462.153
2628 0 91.0841 14.7995 1348 123.996 115.608 462.386
2629 1 42.0301 11.0397 464 123.668 115.397 484.647
2630 0 42.0168 10.7576 452 118.385 116.122 485.903
2631 0 45.0482 11.6986 527 115.004 117.746 486.805
2632 0 46.0978 12.1915 562 114.61 116.626 485.055
2633 0 49.1363 12.1499 597 113.235 116.769 483.524
2634 0 50.154 11.9432 599 115.826 116.866 484.017
2635 0 52.1446 12.0243 627 113.638 116.407 483.003
2636 0 52.1379 11.6422 607 115.776 117.115 481.234
2637 0 54.1876 13.0288 706 113.027 117.439 480.425
2638 0 57.2297 12.4061 710 112.959 116.923 478.648
2639 0 59.0778 12.4412 735 113.454 116.347 477.854
2640 0 62.2288 12.5987 784 111.052 116.52 479.362
2641 0 63.1831 12.8041 809 112.979 116.948 477.176
2642 0 65.1912 12.6397 824 114.733 116.142 475.45
2643 0 66.0921 12.4372 822 115.968 116.505 475.732
2644 0 68.1911 10.9545 747 119.205 116.404 474.859
2645 0 72.1978 12.4657 900 113.831 116.568 475.392
2646 0 74.2819 12.0218 893 114.982 115.951 472.551
2647 0 78.2153 13.1816 1031 111.215 115.758 471.353
2648 0 81.2309 12.9877 1055 111.618 115.482 470.001
2649 0 83.097 11.6851 971 115.848 115.318 466.103
2650 0 86.3738 11.8902 1027 124.157 115.53 466.444
2651 1 46.1067 11.9289 550 116.127 116.627 487.615
2652 0 45.0673 11.1167 501 117.719 116.79 484.729
2653 0 49.0386 12.7247 624 106.696 115.572 487.058
2654 0 47.0417 11.3941 536 112.278 114.448 485.869
2655 0 47.0379 10.4171 490 116.973 114.922 485.478
2656 0 49.0548 10.8246 531 116.571 114.405 485.392
2657 0 48.0168 10.4963 504 117.948 114.978 484.595
2658 0 51.0261 11.2491 574 116.068 115.106 484.014
2659 0 54.1194 11.142 603 115.806 115.468 483.987
2660 0 55.0621 12.0954 666 112.83 115.692 482.976
2661 0 55.0509 11.8799 654 114.867 114.393 481.376
2662 0 58.0417 11.1127 645 114.034 114.507 483.104
2663 0 58.0859 10.3123 599 118.332 114.508 482.057
2664 0 64.0499 12.2561 785 112.661 114.637 479.518
2665 0 64.0346 11.525 738 116.402 114.683 478.274
2666 0 66.1251 11.5992 767 115.812 115.608 479.503
2667 0 68.0676 12.0028 817 117.089 115.08 475.955
2668 0 71.1265 11.5991 825 117.55 115.429 475.302
2669 0 72.1248 12.8805 929 117.136 115.532 472.02
2670 0 74.125 11.5615 857 119.952 115.575 473.939
2671 0 79.1215 12.5756 995 117.824 115.841 470.965
2672 0 82.2234 13.2809 1092 116.381 116.114 470.234
2673 0 83.1147 12.2481 1018 120.332 115.787 467.962
2674 0 87.1536 12.805 1116 119.849 115.455 465.56
2675 1 47.0092 11.9551 562 118.367 115.409 486.751
2676 0 48.0564 12.1524 584 117.274 115.628 486.829
2677 0 49.0271 12.5441 615 118.672 115.894 484.561
2678 0 51.0303 13.1099 669 116.631 114.987 483.365
2679 0 53.0941 12.977 689 116.737 115.266 483.402
2680 0 52.0321 12.4346 647 120.448 115.617 482.83
2681 0 54.0302 12.2339 661 120.775 115.564 483.101
2682 0 55.062 11.6777 643 123.826 115.82 481.723
2683 0 57.0358 13.0795 746 120.96 115.838 478.834
2684 0 60.0315 11.9437 717 122.243 115.752 480.377
2685 0 61.0505 11.9246 728 123.795 116.092 478.734
2686 0 63.0552 12.3384 778 123.652 115.198 477.19
2687 0 65.1755 13.502 880 120.457 115.409 476.734
2688 0 68.1077 12.3334 840 122.48 115.404 477.019
2689 0 68.1303 12.0945 824 124.433 115.402 475.012
2690 0 71.1287 11.7674 837 125.526 115.197 472.423
2691 0 75.1424 12.789 961 122.315 115.476 472.012
2692 0 77.1002 11.5694 892 125.392 115.323 472.045
2693 1 41.0378 11.3798 467 123.747 115.458 487.704
2694 0 44.0712 12.321 543 120.103 115.192 486.926
2695 0 45.0502 13.1631 593 117.26 115.245 486.479
2696 0 46.0521 12.8116 590 116.029 115.88 485.707
2697 0 44.0598 11.9837 528 123.975 115.826 485.672
2698 0 47.0382 12.1178 570 122.298 115.709 486.33
2699 0 47.0395 12.16 572 124.759 116.213 484.224
2700 0 48.0547 11.9031 572 125.82 116.192 485.252
2701 0 50.0809 12.7194 637 124.634 116.488 483.022
2702 0 50.0654 11.8645 594 129.712 116.013 481.195
2703 0 52.1288 12.8528 670 126.387 116.879 481.873
2704 0 54.0892 11.8323 640 130.109 117.117 481.577
2705 0 55.1132 12.2475 675 129.77 116.431 480.756
2706 0 56.055 12.345 692 130.425 116.09 479.386
2707 0 58.0697 12.1922 708 131.184 116.528 478.322
2708 0 61.0341 12.2554 748 130.139 116.291 479.25
2709 0 63.0917 12.4264 784 131.305 116.501 476.737
2710 0 66.1378 12.8368 849 129.327 116.459 476.206
2711 0 67.1064 12.5323 841 132.237 116.358 475.446
2712 0 70.1403 12.8599 902 132.216 116.712 473.875
2713 0 71.0577 12.2295 869 135.237 116.654 474.067
2714 1 40.0515 11.635 466 134.912 117.006 488.335
2715 0 41.0488 11.8883 488 134.984 117.369 487.381
2716 0 43.183 13.0839 565 131.225 116.204 486.037
2717 0 45.114 13.1888 595 129.997 115.237 485.605
2718 0 45.174 12.9499 585 134.499 115.169 484.147
2719 0 45.1507 12.0928 546 139.518 115.892 483.244
2720 0 46.127 12.9208 596 135.752 115.428 483.198
2721 0 49.2516 14.2939 704 130.761 115.638 482.234
2722 0 51.1771 13.4435 688 132.531 115.526 482.843
2723 0 52.1534 12.8851 672 135.598 115.619 481.766
2724 0 52.1188 12.9128 673 137.499 115.788 481.116
2725 0 55.1284 13.2599 731 134.811 115.711 479.858
2726 0 57.1646 14.2746 816 131.322 116.587 477.789
2727 0 57.1338 12.9171 738 136.19 115.702 478.049
2728 0 60.217 13.551 816 134.224 115.828 475.442
2729 0 62.1607 13.1112 815 133.946 115.465 476.818
2730 0 64.2111 13.8138 887 132.525 115.905 473.494
2731 0 67.1411 14.4323 969 130.376 116.446 472.059
2732 0 68.1442 13.5595 924 133.449 116.449 470.969
2733 0 70.1102 13.6927 960 133.039 115.905 471.373
2734 0 73.1514 13.3012 973 134.479 116.294 469.453
2735 0 75.1704 13.4761 1013 134.105 116.53 467.377
2736 0 76.2141 13.0553 995 136.712 116.2 465.993
2737 0 81.2618 13.8441 1125 131.576 115.532 466.787
2738 0 83.2197 12.6172 1050 136.605 115.243 464.492
2739 1 41.1841 11.5579 476 130.345 114.794 486.069
2740 0 44.1258 11.9431 527 126.488 115.839 485.266
2741 0 44.3453 12.1321 538 123.483 116.606 480.634
2742 0 46.1358 12.4415 574 127.559 115.171 483.017
2743 0 48.0629 12.338 593 128.88 114.978 480.713
2744 0 49.0424 13.0703 641 126.368 115.264 481.635
2745 0 51.098 12.8968 659 125.822 114.865 480.329
2746 0 52.0174 13.8415 720 123.61 115.175 478.894
2747 0 53.1021 14.2932 759 122.527 114.652 478.333
2748 0 54.0652 12.7069 687 127.46 115.202 477.655
2749 0 56.0346 12.3674 693 129.481 115.517 477.408
2750 0 57.0153 13.4876 769 125.443 115.541 476.304
2751 0 59.0205 13.5207 798 125.806 115.53 474.014
2752 0 61.0186 14.2088 867 123.764 116.104 473.009
2753 0 63.0658 13.7793 869 123.885 115.826 473.824
2754 0 64.0275 13.6192 872 125.188 116.202 471.492
2755 0 67.0288 13.8 925 123.548 116.505 470.334
2756 0 70.136 13.9443 978 122.381 115.986 470.769
2757 0 73.1 14.1587 1035 121.611 116.301 469.001
2758 0 75.0349 13.567 1018 123.15 115.862 469.346
2759 0 76.1633 14.3245 1091 122.476 116.228 464.302
2760 0 79.199 12.9673 1027 123.983 116.772 462.534
2761 1 39.0597 10.8552 424 122.028 117.269 482.915
2762 0 40.0394 10.6645 427 121.773 116.89 481.522
2763 0 44.0749 12.7737 563 123.018 116.863 485.403
2764 0 45.0177 13.8612 624 120.207 115.502 484.367
2765 0 44.073 12.1616 536 118.774 117.293 485.815
2766 0 46.1078 12.0153 554 118.11 117.556 486.141
2767 0 47.1035 12.4195 585 118.708 117.663 484.918
2768 0 48.0858 12.3113 592 120.488 117.556 484.041
2769 0 50.0861 12.9178 647 118.444 118.042 483.453
2770 0 51.096 11.3512 580 122.324 118.374 485.138
2771 0 51.0635 11.8872 607 123.002 117.58 482.414
2772 0 52.0779 12.4429 648 123.272 117.057 481.647
2773 0 57.055 12.4792 712 121.202 116.801 481.35
2774 0 57.0858 13.0505 745 120.699 117.306 480.132
2775 0 60.0717 13.0511 784 120.681 117.333 479.013
2776 0 63.0647 13.8746 875 118.809 116.509 476.829
2777 0 66.1053 13.0701 864 119.753 116.97 477.031
2778 0 66.0453 13.2485 875 120.807 117.261 476.351
2779 0 69.0729 12.1611 840 124.192 117.056 474.596
2780 0 72.0915 13.0667 942 121.958 116.925 472.428
2781 0 74.1323 12.9903 963 120.971 116.913 472.383
2782 1 36.0355 11.1279 401 121.329 117.933 489.01
2783 0 39.0866 11.3594 444 118.356 118.885 488.338
2784 0 39.1556 12.412 486 117.447 118.126 487.852
2785 0 40.0978 11.6216 466 121.18 117.697 484.861
2786 0 43.0454 12.4055 534 115.743 117.075 488.026
2787 0 44.1377 12.2571 541 115.429 116.677 485.054
2788 0 45.1022 13.2588 598 113.334 117.294 485.851
2789 0 44.1737 11.568 511 118.8 116.971 485.084
2790 0 45.2144 12.4518 563 117.79 117.059 483.336
2791 0 46.1668 12.1733 562 118.872 117.03 483.617
2792 0 49.1168 13.5799 667 114.141 117.258 482.814
2793 0 49.1933 11.9732 589 119.706 116.954 482.411
2794 0 52.1891 13.3553 697 113.798 117.228 482.316
2795 0 52.1226 12.4898 651 118.22 117.045 481.289
2796 0 55.1313 13.4225 740 115.58 117.451 480.232
2797 0 54.0463 12.2673 663 120.698 116.998 480.247
2798 0 57.0767 13.6133 777 116.596 117.059 478.664
2799 0 57.1201 12.7976 731 119.506 117.094 479.01
2800 0 61.1183 12.3367 754 118.973 116.854 478.195
2801 0 63.0943 13.2659 837 115.896 117.177 477.495
2802 0 64.1048 12.0584 773 119.546 116.49 474.321
2803 0 66.0788 12.591 832 117.482 117.446 474.743
2804 0 69.1113 13.1672 910 115.969 117.831 474.496
2805 0 69.0578 12.2361 845 120.427 117.128 471.463
2806 0 76.1339 13.0165 991 115.485 117.128 470.912
2807 1 40.1122 10.9443 439 118.877 117.724 487.433
2808 0 42.045 11.9396 502 115.454 117.337 487.468
2809 0 42.1624 11.9063 502 113.906 117.689 485.592
2810 0 44.1103 10.7005 472 109.331 116.138 481.153
2811 0 44.0837 9.84492 434 112.518 116.472 481.274
2812 0 47.1199 11.2267 529 108.843 116.053 478.862
2813 0 47.0771 10.4085 490 110.678 116.169 479.373
2814 0 49.1113 12.095 594 107.421 115.673 475.709
2815 0 49.0731 11.4115 560 109.554 115.595 476.757
2816 0 51.044 11.7742 601 107.581 115.208 477.762
2817 0 54.0597 12.0237 650 107.326 115.902 475.811
2818 0 54.0751 11.2251 607 109.616 115.835 476.46
2819 0 57.0176 10.0495 573 112.375 115.784 473.157
2820 0 61.0406 13.2862 811 102.846 115.067 474.604
2821 0 62.1033 12.5275 778 105.467 115.617 473.075
2822 0 65.0917 12.8895 839 104.226 114.594 472.584
2823 0 66.059 11.7017 773 106.686 115.576 473.166
2824 0 66.1191 11.3432 750 109.415 115.928 470.121
2825 0 69.1766 12.8656 890 105.819 115.396 467.879
2826 0 71.1924 11.3495 808 109.231 115.417 466.748
2827 0 75.2425 12.7189 957 106.014 116.331 464.09
2828 0 77.207 12.3564 954 106.904 115.099 462.05
2829 0 79.0874 11.8224 935 108.678 115.505 461.232
2830 1 41.1945 8.88468 366 105.601 115.923 481.978
2831 0 42.0276 10.6359 447 106.839 116.68 483.286
2832 0 43.0225 11.9937 516 113.568 116.326 483.407
2833 0 46.0541 12.0293 554 110.904 115.924 483.758
2834 0 44.0243 11.3574 500 114.866 116.452 483.068
2835 0 46.1876 11.6048 536 113.987 116.431 484.194
2836 0 48.0956 13.4316 646 110 116.158 482.907
2837 0 50.0776 12.8401 643 110.379 116.717 482.585
2838 0 52.0721 12.5403 653 110.804 116.651 481.709
2839 0 53.1421 12.89 685 110.047 116.52 482.05
2840 0 54.0707 12.1138 655 113.467 116.409 479.977
2841 0 55.1609 12.9983 717 111.245 116.109 479.311
2842 0 59.0518 13.8692 819 109.63 116.582 478.205
2843 0 59.1278 12.1432 718 114.971 116.026 477.571
2844 0 61.0957 12.6359 772 113.935 115.915 477.981
2845 0 64.1306 13.6596 876 110.68 116.478 475.587
2846 0 66.0886 12.1504 803 114.138 116.601 474.919
2847 0 68.0596 14.1934 966 109.849 116.273 471.95
2848 0 71.0855 13.111 932 112.361 116.065 472.448
2849 0 74.1866 13.2099 980 111.959 115.242 471.426
2850 1 38.0218 11.809 449 115.096 115.969 488.198
2851 0 39.0223 12.0444 470 112.062 116.053 488.515
2852 0 42.0247 12.4689 524 111.63 117.143 488.147
2853 0 41.0172 13.1652 540 108.074 116.55 487.346
2854 0 43.0975 12.1121 522 111.538 116.588 487.094
2855 0 44.0686 12.0721 532 112.675 115.773 485.214
2856 0 46.0172 13.0386 600 109.453 115.777 485.233
2857 0 44.0193 12.4037 546 115.894 115.868 484.487
2858 0 48.026 12.2225 587 115.155 115.624 484.245
2859 0 47.0389 13.3719 629 113.326 116.423 482.445
2860 0 50.0421 12.8092 641 114.103 116.105 483.562
2861 0 51.0764 12.6477 646 115.268 115.658 482.55
2862 0 51.0365 11.6583 595 118.874 115.466 481.466
2863 0 53.051 12.5163 664 116.361 115.154 481.223
2864 0 55.1057 12.5032 689 116.745 115.138 480.663
2865 0 57.0992 13.0124 743 115.423 114.537 479.439
2866 0 59.1951 12.501 740 117.435 115.215 477.659
2867 0 61.2403 14.3696 880 112.872 115.281 477.126
2868 0 62.2667 13.0728 814 117.988 114.543 476.092
2869 0 66.2026 12.8696 852 122.546 114.887 476.748
2870 0 68.2752 13.2112 902 122.519 114.439 474.09
2871 0 71.2956 12.7497 909 123.459 114.678 472.859
2872 0 73.2098 12.7442 933 124.534 114.12 471.69
2873 0 75.3035 13.0671 984 124.509 114.291 469.32
2874 1 38.0493 10.8543 413 125.838 115.775 488.676
2875 0 40.0521 12.6835 508 121.768 115.577 487.079
2876 0 41.2524 12.8477 530 124.606 113.991 485.038
2877 0 41.261 11.9968 495 126.923 114.063 486.818
2878 0 42.147 12.0768 509 129.487 114.303 483.833
2879 0 43.1501 13.0011 561 127.749 114.214 483.465
2880 0 45.2698 12.9004 584 127.082 114.307 485.303
2881 0 47.1737 13.2277 624 127.575 114.284 483.061
2882 0 49.1507 13.0822 643 126.694 113.841 482.114
2883 0 49.0902 12.5279 615 129.915 113.779 481.398
2884 0 52.1048 12.6284 658 128.815 114.207 480.76
2885 0 52.1298 12.9676 676 128.685 114.451 479.451
2886 0 55.0573 13.3861 737 126.821 114.419 479.415
2887 0 58.146 13.4317 781 126.391 114.763 478.433
2888 0 56.0994 12.2639 688 133.134 115.249 476.881
2889 0 59.1742 12.4886 739 131.788 114.805 476.936
2890 0 64.1453 14.3112 918 125.572 115.324 475.83
2891 0 65.1786 14.7134 959 125.66 114.725 475.435
2892 0 68.1402 14.4261 983 126.702 114.214 473.885
2893 0 70.2751 14.0733 989 128.511 114.971 472.338
2894 0 72.1595 13.3732 965 131.505 114.593 471.818
2895 0 74.1707 12.9566 961 134.158 114.558 469.277
2896 0 77.1514 12.9615 1000 134.63 115.129 470.52
2897 1 41.1321 11.6454 479 130.63 113.585 488.683
2898 0 42.0603 11.5311 485 133.346 113.625 487.584
2899 0 44.1041 13.128 579 133.278 114.446 486.026
2900 0 44.0584 12.3246 543 136.129 114.074 486.759
2901 0 45.1998 12.6771 573 137.29 113.379 484.829
2902 0 50.1403 12.4052 622 133.466 114.391 484.323
2903 0 48.1644 12.8311 618 136.956 113.793 482.597
2904 0 50.1317 13.7638 690 133.754 113.261 482.084
2905 0 53.0985 13.522 718 133.63 113.485 481.875
2906 0 52.2058 12.4316 649 139.091 113.656 481.125
2907 0 55.0737 14.4897 798 133.183 114.043 478.9
2908 0 54.0424 13.1748 712 138.223 114.133 479.239
2909 0 59.1175 13.4478 795 136.13 114.439 478.184
2910 0 61.2158 13.8853 850 133.834 114.195 476.214
2911 0 63.1476 12.3995 783 136.654 113.894 476.361
2912 0 64.1419 13.6728 877 133.294 114.071 475.723
2913 0 65.1416 13.6472 889 134.756 114.609 473.818
2914 0 69.1873 14.7715 1022 129.923 114.454 471.649
2915 0 71.2494 14.2878 1018 131.264 114.661 471.619
2916 0 74.1019 14.0887 1044 131.167 114.379 471.177
2917 0 78.1198 12.9417 1011 135.152 115.146 467.039
2918 0 79.1496 13.3545 1057 135.272 114.642 465.488
2919 0 82.1288 12.1395 997 137.766 115.295 466.983
2920 0 84.3303 11.6684 984 140.662 114.684 463.997
2921 1 43.2158 13.2128 571 129.781 116.112 480.166
2922 0 46.1163 12.707 586 132.933 114.951 481.705
2923 0 48.2108 13.1091 632 133.85 115.022 480.633
2924 0 48.1528 12.4603 600 135.657 114.253 480.477
2925 0 47.0876 11.5529 544 132.665 114.375 482.035
2926 0 49.066 12.7379 625 129.467 114.974 480.419
2927 0 51.0823 12.3918 633 128.85 115.057 479.807
2928 0 52.1077 12.7044 662 129.656 115.455 478.671
2929 0 53.0924 11.9226 633 129.392 114.924 478.701
2930 0 56.0995 12.2817 689 127.643 114.611 477.73
2931 0 59.0713 12.2056 721 126.828 114.513 476.627
2932 0 60.0693 13.5843 816 123.624 114.697 474.228
2933 0 62.0653 12.5674 780 125.455 114.867 472.292
2934 0 65.0828 13.0449 849 121.945 114.31 472.141
2935 0 68.1073 12.8327 874 121.625 114.622 471.315
2936 0 69.1147 12.0524 833 123.996 114.821 470.652
2937 0 72.0609 12.3645 891 121.061 114.369 464.861
2938 0 75.1361 13.3225 1001 117.152 114.404 465.736
2939 0 78.2084 11.7507 919 120.453 114.138 462.8
2940 0 80.1874 12.5955 1010 117.759 114.1 459.862
2941 0 80.1847 11.249 902 122.253 114.482 458.663
2942 1 41.1059 9.53635 392 120.564 115.179 478.602
2943 0 43.2236 10.7349 464 122.927 115.019 477.647
2944 0 45.1605 11.4038 515 122.412 114.975 477.917
2945 0 45.1149 10.7947 487 113.52 114.38 476.641
2946 0 45.0819 10.6695 481 114.626 114.002 476.894
2947 0 48.0802 11.4392 550 111.089 115.091 476.662
2948 0 51.1438 10.6562 545 112.872 114.765 475.574
2949 0 52.0414 10.8183 563 112.789 114.071 475.59
2950 0 55.0784 10.0584 554 114.157 115.051 474.718
2951 0 56.0518 11.8819 666 109.505 115.228 472.517
2952 0 59.0631 11.7501 694 109.138 115.184 473.967
2953 0 58.0443 10.8882 632 112.217 114.554 470.935
2954 0 61.0596 11.6116 709 110.223 114.399 470.858
2955 0 63.0584 10.8471 684 111.833 114.588 469.827
2956 0 66.1081 11.8745 785 109.155 115.117 470.298
2957 0 70.0671 11.4747 804 109.332 114.99 469.361
2958 0 70.051 11.3632 796 112.481 114.386 467.21
2959 0 74.0553 12.2476 907 109.439 114.763 465.997
2960 0 76.0606 11.7932 897 111.421 115.367 464.79
2961 0 78.0782 10.9378 854 113.809 115.761 464.727
2962 0 83.1152 12.5368 1042 109.194 115.806 462.062
2963 0 86.0628 11.4684 987 114.917 116.352 463.084
2964 1 41.027 10.7978 443 121.42 117.113 486.596
2965 0 44.0152 11.7459 517 117.631 116.905 485.503
2966 0 46.0326 12.8822 593 113.892 116.695 485.904
2967 0 47.0114 12.3587 581 116.389 116.418 484.716
2968 0 48.0755 11.8772 571 118.904 116.455 481.448
2969 0 48.1214 12.1152 583 118.624 115.878 482.672
2970 0 50.1044 12.3143 617 117.747 116.959 483.337
2971 0 52.0367 12.1645 633 118.074 116.501 481.757
2972 0 55.0467 12.7165 700 115.386 116.733 482.199
2973 0 54.1197 12.0289 651 118.853 116.645 481.18
2974 0 56.0413 11.7949 661 120.629 116.635 480.142
2975 0 59.062 12.3599 730 118.107 116.019 479.416
2976 0 60.0582 12.5878 756 118.966 115.958 477.347
2977 0 61.0541 12.71 776 118.232 116.536 478.402
2978 0 65.1148 13.0999 853 116.359 116.34 477.83
2979 0 66.1571 12.7122 841 119.176 116.117 476.404
2980 0 70.1263 13.4187 941 117.268 115.801 475.322
2981 0 69.1266 12.8171 886 121.041 115.336 473.389
2982 0 73.1224 12.5133 915 123.319 115.889 473.323
2983 0 77.1322 13.1592 1015 122.377 115.239 470.742
2984 0 80.3654 12.5054 1005 123.465 115.375 469.192
2985 0 82.2179 12.7223 1046 123.324 115.406 467.598
2986 1 44.1824 10.7509 475 130.166 115.564 485.202
2987 0 47.0172 11.9105 560 127.37 115.673 482.786
2988 0 45.0419 12.1664 548 127.336 113.004 479.443
2989 0 47.051 11.0306 519 117.015 114.538 478.073
2990 0 49.0797 11.2878 554 116.43 113.816 477.191
2991 0 49.1227 10.9929 540 118.078 114.209 475.959
2992 0 54.0599 11.8942 643 114.292 114.187 475.331
2993 0 57.2673 12.625 723 111.581 114.4 474.487
2994 0 56.0687 12.1458 681 115.648 114.388 474.261
2995 0 58.1259 12.5417 729 113.624 114.528 473.358
2996 0 58.0996 12.4269 722 115.291 114.043 471.409
2997 0 60.1035 11.58 696 118.066 113.961 472.251
2998 0 63.1177 11.8826 750 116.565 113.859 471.92
2999 0 65.118 11.8554 772 117.126 113.663 469.117
3000 0 68.2143 11.3906 777 117.867 113.757 469.947
3001 0 70.0527 12.6476 886 114.666 113.708 468.199
3002 0 74.073 12.8927 955 113.574 113.709 466.817
3003 0 74.1158 12.3321 914 117.075 114.94 464.688
3004 0 76.0922 12.1826 927 117.778 114.433 465.807
3005 0 79.0911 12.5931 996 117.414 114.222 463.863
3006 0 82.1424 12.6488 1039 115.91 114.544 464.088
3007 0 86.1805 12.6711 1092 115.288 114.821 461.216
3008 1 44.026 11.0389 486 110.537 114.15 482.683
3009 0 44.1183 10.6078 468 114.684 114.842 480.588
3010 0 45.1065 10.6193 479 120.537 115.716 479.871
3011 0 48.0451 11.1562 536 110.481 114.088 480.981
3012 0 50.076 11.6822 585 108.638 113.862 479.337
3013 0 50.0625 11.4657 574 108.085 114.523 480.251
3014 0 52.0388 10.8573 565 109.058 114.359 479.465
3015 0 54.0711 11.115 601 109.719 114.647 478.268
3016 0 53.1493 11.4019 606 110.465 114.772 476.932
3017 0 57.1284 11.798 674 109.638 114.892 475.332
3018 0 56.0669 11.1652 626 112.695 115.081 474.772
3019 0 60.0955 11.931 717 111.347 115.031 472.003
3020 0 62.1281 11.4441 711 111.963 115.015 471.149
3021 0 63.1587 11.9382 754 111.727 114.847 471.426
3022 0 67.2204 12.0797 812 111.595 115.131 469.234
3023 0 69.2579 13.4136 929 109.475 114.478 467.151
3024 0 70.1888 11.7825 827 113.908 114.314 467.29
3025 0 74.1891 11.4033 846 115.219 114.122 465.585
3026 0 77.1882 12.3853 956 113.631 114.66 465.563
3027 0 82.0984 12.1196 995 114.797 114.029 464.092
3028 0 82.1396 12.0648 991 116.396 114.558 462.327
3029 1 41.092 9.49089 390 115.89 114.323 480.849
3030 0 44.0449 10.2623 452 112.305 114.825 481.858
3031 0 46.1128 11.9056 549 122.661 116.215 483.831
3032 0 47.0464 13.5823 639 119.039 113.038 483.469
3033 0 49.0774 12.246 601 124.551 113.644 484.379
3034 0 51.0906 14.3275 732 119.443 113.605 483.037
3035 0 52.046 14.0453 731 120.718 114.108 482.419
3036 0 54.0599 13.374 723 122.884 113.365 481.941
3037 0 54.1777 13.6034 737 124.355 113.676 480.206
3038 0 56.0793 15.1571 850 120.56 114.058 479.869
3039 0 59.0823 14.8098 875 120.386 113.271 479.943
3040 0 61.1015 14.0749 860 122.745 113.444 477.905
3041 0 61.0942 13.8147 844 124.759 113.232 478.103
3042 0 64.0955 14.3536 920 123.2 113.685 476.348
3043 0 66.0849 14.784 977 122.221 114.351 475.35
3044 0 67.1279 14.1074 947 123.705 114.034 475.621
3045 0 70.1368 15.0563 1056 120.951 114.517 472.952
3046 0 70.0603 14.4733 1014 118.616 114.377 470.974
3047 0 73.1395 15.0398 1100 121.641 114.779 470.425
3048 0 74.0673 13.9873 1036 128.276 114.527 471.768
3049 0 74.0762 14.0666 1042 116.961 115.179 470.363
3050 0 75.1626 14.0362 1055 125.453 116.236 468.941
3051 0 76.1508 14.642 1115 129.093 115.531 469.657
3052 0 78.2279 14.854 1162 128.513 114.781 467.133
3053 0 77.1463 13.1309 1013 128.902 115.173 470.279
3054 0 79.0477 13.4096 1060 124.674 115.374 471.876
3055 0 77.1086 12.7612 984 127.733 115.265 469.546
3056 0 83.0743 14.3968 1196 120.688 114.932 467.541
3057 0 83.1206 13.4142 1115 122.914 115.328 465.423
3058 0 88.1087 12.6094 1111 118.758 115.137 460.742
3059 0 91.1564 13.4165 1223 119.335 114.738 462.522
3060 0 93.1202 12.5537 1169 119.831 114.727 461.337
3061 0 95.1214 13.3198 1267 117.65 114.665 459.601
3062 0 102.062 13.2468 1352 110.578 115.051 455.542
3063 0 105.169 13.8349 1455 109.733 114.825 453.103
3064 1 54.1753 10.4106 564 113.608 115.259 479.344
3065 0 56.0818 13.088 734 111.636 114.503 477.748
3066 0 57.0601 11.8647 677 114.247 114.851 476.95
3067 0 61.0732 13.5084 825 111.164 113.915 476.561
3068 0 61.0444 13.3509 815 111.893 114.36 475.252
3069 0 64.0326 13.0558 836 114.968 114.911 475.835
3070 0 65.0569 12.7273 828 116.366 113.911 475.665
3071 0 66.0693 13.834 914 115.894 114.116 476.125
3072 0 68.1194 12.6543 862 122.02 114.642 474.175
3073 0 71.1212 13.3575 950 121.973 114.192 471.507
3074 0 71.2064 12.7517 908 126.088 114.678 471.458
3075 0 76.1591 13.3142 1014 124.707 114.108 469.682
3076 0 76.2237 12.8569 980 129.321 113.958 468.778
3077 1 40.0624 12.181 488 128.203 114.043 487.328
3078 0 41.1044 11.9209 490 129.529 114.243 487.669
3079 0 42.0395 13.5825 571 123.835 114.518 486.249
3080 0 42.0321 12.3001 517 128.814 115.569 486.886
3081 0 44.039 12.7614 562 128.571 115.744 485.194
3082 0 45.1014 14.5007 654 124.237 115.965 482.656
3083 0 47.0734 12.8523 605 129.197 115.45 484.155
3084 0 46.1117 12.7733 589 133.676 115.365 482.81
3085 0 48.1204 14.6715 706 126.078 115.996 482.761
3086 0 49.1124 12.7056 624 134.019 115.319 482.58
3087 0 52.0952 14.4159 751 127.917 115.084 481.554
3088 0 52.0764 13.7682 717 130.307 115.167 481.579
3089 0 53.0318 13.8219 733 131.806 114.825 480.488
3090 0 54.0431 13.2672 717 132.417 114.724 479.017
3091 0 56.0238 13.4586 754 133.371 115.134 478.764
3092 0 58.0194 13.754 798 134.338 114.996 478.119
3093 0 61.09 15.2562 932 130.201 114.761 476.926
3094 0 63.0323 14.4529 911 133.31 114.98 475.472
3095 0 66.0557 14.3061 945 133.902 114.766 474.653
3096 0 69.084 14.1277 976 135.107 114.539 473.839
3097 0 68.0908 14.3338 976 137.969 115.225 471.081
3098 0 72.1278 14.3079 1032 137.486 114.123 470.527
3099 0 75.0899 13.6104 1022 140.897 114.829 468.829
3100 0 77.0949 14.0217 1081 139.309 114.82 468.725
3101 0 80.0955 14.3204 1147 139.2 115.009 466.353
3102 1 39.0637 11.1357 435 141.533 114.968 486.54
3103 0 43.0823 13.6483 588 134.128 115.736 484.592
3104 0 42.0846 11.9284 502 145.908 115.438 484.185
3105 0 45.2143 13.4471 608 143.235 116.428 481.456
3106 0 47.1573 13.4656 635 142.917 116.265 482.227
3107 0 48.1855 13.199 636 145.764 116.838 481.237
3108 0 49.1737 12.9947 639 145.736 116.455 481.839
3109 0 49.1093 12.5027 614 148.466 116.168 481.515
3110 0 51.1 12.9941 664 147.887 115.94 479.012
3111 0 53.1583 13.8831 738 144.778 115.611 477.29
3112 0 54.0971 13.1061 709 146.657 116.039 478.694
3113 0 54.028 12.2899 664 138.883 116 479.864
3114 0 58.071 13.6385 792 134.713 115.16 477.841
3115 0 58.0351 13.2851 771 137.403 115.534 476.121
3116 0 59.0579 12.5301 740 140.043 116.555 475.818
3117 0 62.0482 13.3606 829 137.312 116.185 474.727
3118 0 63.0515 13.4335 847 137.301 115.419 474.783
3119 0 67.0817 12.8649 863 137.94 116.293 473.681
3120 0 68.0494 12.873 876 139.148 115.338 470.677
3121 0 71.1623 12.5488 893 139.283 116.047 470.66
3122 0 74.1118 13.9114 1031 134.476 115.46 469.212
3123 0 75.1119 13.1271 986 139.415 115.14 466.688
3124 0 77.0623 13.4177 1034 138.184 115.626 466.121
3125 0 80.1671 13.0852 1049 138.224 116.296 464.987
3126 0 83.1182 14.0162 1165 136.017 115.952 461.978
3127 0 86.1479 14.1385 1218 136.32 115.787 460.699
3128 0 90.1375 14.256 1285 134.017 115.667 461.04
3129 0 90.1181 12.983 1170 139.447 115.18 459.777
3130 0 96.1548 14.9238 1435 132.82 115.43 457.077
3131 0 99.0923 14.1383 1401 134.198 115.291 456.62
3132 0 103.138 14.2916 1474 132.42 115.613 454.563
3133 0 107.166 14.1837 1520 132.073 116.02 451.902
3134 0 110.131 14.6099 1609 131.188 115.633 449.841
3135 0 116.092 14.4799 1681 138.54 116.015 450.195
3136 0 119.174 13.1656 1569 140.473 116.3 449.699
3137 0 123.235 14.1437 1743 137.799 116.249 444.632
3138 1 61.1145 12.5993 770 133.658 116.873 474.577
3139 0 62.031 13.1225 814 132.162 117.243 474.098
3140 0 67.2469 12.9523 871 126.266 116.75 471.608
3141 0 69.1832 12.2284 846 127.366 116.819 472.139
3142 0 71.1001 12.2644 872 127.57 116.399 470.406
3143 0 75.1771 12.9162 971 124.955 116.341 468.583
3144 0 77.0489 12.7711 984 124.257 116.408 467.814
3145 0 78.1411 11.3897 890 129.02 116.972 466.043
3146 0 82.0522 12.1021 993 124.649 116.841 464.738
3147 0 85.1024 12.3498 1051 124.056 116.726 463.84
3148 0 89.1218 12.6007 1123 122.766 116.378 460.998
3149 0 92.1629 12.2283 1127 131.016 116.569 459.561
3150 1 44.1398 10.1722 449 123.089 115.523 483.14
3151 0 47.0834 11.0655 521 121.255 116.624 484.144
3152 0 48.0528 11.5914 557 121.014 116.874 482.623
3153 0 48.027 11.327 544 122.445 117.82 481.561
3154 0 49.0352 9.93164 487 124.24 116.91 482.581
3155 0 54.038 11.5289 623 119.392 116.801 480.746
3156 0 58.1358 11.8 686 116.238 116.99 478.051
3157 0 57.1729 11.9112 681 116.812 117.944 479.003
3158 0 58.1568 10.9359 636 120.629 117.629 478.033
3159 0 62.0392 10.8802 675 122.09 117.387 477.441
3160 0 64.1485 11.6604 748 119.628 117.14 476.386
3161 0 67.0872 12.3869 831 119.061 117.031 474.037
3162 0 69.1143 11.3435 784 122.389 116.949 473.657
3163 0 71.1397 11.9061 847 121.431 116.525 473.064
3164 0 73.0875 11.5615 845 122.191 117.466 472.657
3165 1 40.0102 11.2471 450 120.104 116.696 488.218
3166 0 40.0039 11.2739 451 117.326 115.035 488.949
3167 0 43.0756 12.2111 526 117 114.641 486.209
3168 0 44.0652 12.6404 557 120.589 114.768 487.506
3169 0 45.0726 12.0472 543 122.591 114.087 487.331
3170 0 47.1007 12.59 593 122.002 114.428 484.737
3171 0 47.0248 11.8236 556 124.248 113.687 485.174
3172 0 49.0384 12.3985 608 123.574 114.066 484.933
3173 0 51.119 13.0284 666 122.444 113.863 483.482
3174 0 52.021 12.9371 673 124.117 114.563 481.664
3175 0 54.1099 12.7333 689 123.337 114.71 482.057
3176 0 56.1157 12.8663 722 122.92 113.842 481.748
3177 0 56.027 12.3512 692 125.676 114.431 481.049
3178 0 58.1064 13.045 758 123.929 114.405 480.446
3179 0 61.0637 13.4286 820 123.205 114.241 477.444
3180 0 64.0453 14.1775 908 120.025 114.205 477.541
3181 0 66.1299 13.3827 885 122.046 114.075 477.737
3182 0 65.0949 13.3497 869 125.595 113.97 475.405
3183 0 68.1177 13.8731 945 123.717 113.897 474.102
3184 0 71.141 13.7895 981 123.039 114.074 474.354
3185 0 72.1268 13.9615 1007 123.964 114.934 471.063
3186 0 74.102 13.117 972 127.665 114.441 470.278
3187 0 79.1955 13.4604 1066 124.388 114.539 469.795
3188 0 79.2072 13.168 1043 126.805 114.408 467.161
3189 1 42.0268 10.6599 448 125.583 114.225 487.328
3190 0 41.0251 11.9927 492 119.116 117.146 485.244
3191 0 42.2473 11.6457 492 120.337 117.329 484.173
3192 0 45.0554 13.4723 607 114.794 116.232 484.839
3193 0 46.0437 12.1841 561 118.082 117.07 486.324
3194 0 47.1273 12.6466 596 116.418 116.428 484.223
3195 0 50.0487 12.328 617 117.6 115.677 483.324
3196 0 51.0762 12.2562 626 118.045 115.177 482.262
3197 0 53.1164 12.8774 684 115.545 115.199 482.513
3198 0 52.0446 12.2203 636 121.039 114.855 481.209
3199 0 57.0831 14.0847 804 113.868 115.24 480.659
3200 0 58.0537 13.7976 801 115.775 115.919 480.497
3201 0 58.1319 13.0221 757 120.48 115.49 477.593
3202 0 61.0677 13.5096 825 119.253 115.245 477.819
3203 0 62.141 13.7429 854 120.499 115.553 475.996
3204 0 64.1663 13.6053 873 120.735 114.645 476.359
3205 0 66.1416 13.9851 925 119.846 114.979 476.081
3206 0 67.1498 13.939 936 122.953 114.736 474.915
3207 0 70.1203 13.2772 931 125.097 114.9 473.062
3208 0 75.1867 14.178 1066 121.124 115.097 473.831
3209 0 75.1867 14.2046 1068 162.953 115.093 473.904
3210 0 76.0951 13.6408 1038 127.475 114.684 468.327
3211 0 80.1639 14.2333 1141 124.607 115.021 468.832
3212 0 83.1155 14.4859 1204 125.818 113.95 468.13
3213 0 85.1457 14.5985 1243 127.298 113.957 465.209
3214 0 87.1276 14.0828 1227 128.758 114.195 465.702
3215 1 45.0313 11.5253 519 137.378 114.75 485.449
3216 0 47.0684 13.1298 618 132.636 114.835 484.634
3217 0 48.0468 13.0498 627 131.169 115.08 484.383
3218 0 49.2044 13.4338 661 127.238 115.035 482.029
3219 0 52.1058 13.8372 721 124.705 115.766 480.599
3220 0 51.0682 12.4931 638 131.685 115.282 480.475
3221 0 52.0792 13.1146 683 131.089 115.075 479.726
3222 0 54.1233 13.8942 752 128.032 115.778 479.435
3223 0 54.0635 13.5396 732 129.597 115.097 480.281
3224 0 57.0402 14.218 811 126.779 115.027 480.512
3225 0 58.0545 13.7285 797 128.562 115.789 479.59
3226 0 60.049 13.9386 837 126.362 114.822 477.184
3227 0 62.0656 13.0024 807 128.831 115.622 477.226
3228 0 63.0624 13.6531 861 127.42 115.527 474.077
3229 0 65.0589 13.8336 900 126.851 115.151 473.418
3230 0 68.0501 13.9456 949 125.176 115.47 475.099
3231 0 70.1446 12.9162 906 120.978 115.283 468.87
3232 0 73.1123 13.2673 970 119.886 114.591 469.336
3233 0 76.2033 12.8472 979 121.047 115.362 469.453
3234 0 78.16 13.741 1074 118.709 114.987 467.777
3235 0 81.1844 13.377 1086 120.555 114.434 467.1
3236 0 81.1277 12.6591 1027 125.268 115.199 465.531
3237 0 86.1506 13.1514 1133 123.336 114.493 465.313
3238 0 90.1745 13.6291 1229 120.566 114.747 462.726
3239 1 46.0872 10.9358 504 120.018 115.595 482.395
3240 0 48.1315 10.6375 512 123.268 114.773 479.15
3241 0 48.1825 10.8131 521 123.035 114.53 478.774
3242 0 51.1735 11.2168 574 123.256 114.031 477.956
3243 0 54.1718 12.0727 654 122.784 113.821 477.369
3244 0 55.09 12.652 697 128.719 113.555 475.521
3245 0 56.0956 12.7818 717 132.768 113.615 479.212
3246 0 57.0939 12.821 732 132.567 114.133 478.723
3247 0 59.1406 12.7493 754 134.391 113.613 476.415
3248 0 62.1535 12.453 774 130.966 113.388 476.152
3249 0 65.1213 12.1773 793 133.945 113.879 474.282
3250 0 67.1452 13.0761 878 132.97 113.993 474.541
3251 0 71.0705 13.3389 948 127.637 113.674 470.778
3252 0 74.0831 14.7132 1090 123.399 113.372 470.114
3253 0 76.0719 14.1577 1077 126.443 113.456 467.08
3254 0 77.0822 13.1937 1017 130.691 113.334 466.657
3255 0 81.1191 13.4124 1088 127.99 113.488 466.648
3256 0 83.0852 13.7329 1141 129.872 113.524 463.899
3257 0 88.1125 13.6417 1202 129.53 113.849 461.954
3258 1 48.0117 12.4761 599 126.816 113.386 482.756
3259 0 48.0184 12.7035 610 128.321 113.972 480.989
3260 0 51.0418 11.8922 607 129.433 113.71 481.417
3261 0 53.0556 12.6094 669 134.428 113.454 479.559
3262 0 56.0283 13.0291 730 133.297 113.727 478.949
3263 0 55.0568 12.8231 706 137.337 114.081 478.054
3264 0 57.0289 13.2915 758 134.691 114.451 477.185
3265 0 59.0645 12.9519 765 136.652 113.821 476.692
3266 0 62.0401 13.8942 862 133.218 113.936 476.046
3267 0 63.1407 13.557 856 135.072 113.361 475.692
3268 0 64.0695 14.5779 934 132.433 113.183 473.969
3269 0 65.0643 13.3714 870 138.089 113.86 472.486
3270 0 69.0612 12.7423 880 137.188 114.124 473.675
3271 0 70.0992 13.6093 954 135.524 114.442 470.876
3272 0 73.065 13.6591 998 135.589 113.695 467.729
3273 0 78.1719 14.1739 1108 132.126 114.693 468.033
3274 0 79.2927 14.3519 1138 133.076 114.136 466.653
3275 0 82.264 15.1099 1243 130.571 114.783 465.92
3276 0 84.2613 14.6093 1231 132.569 114.696 463.774
3277 0 88.3087 13.985 1235 133.192 115.13 463.223
3278 0 88.3087 14.0643 1242 155.788 115.163 463.206
3279 0 91.2008 13.6512 1245 132.055 114.534 459.422
3280 0 93.0659 13.8074 1285 124.325 115.546 455.033
3281 0 97.1454 13.2379 1286 124.792 115.446 454.071
3282 1 49.0176 10.7308 526 123.909 115.952 479.736
3283 0 51.1406 11.967 612 123.789 114.636 478.819
3284 0 54.0942 12.3858 670 120.188 116.107 479.524
3285 0 55.1418 12.0961 667 122.492 116.49 475.907
3286 0 58.1055 12.3568 718 120.412 116.061 477.033
3287 0 57.1257 12.4287 710 123.744 115.718 475.358
3288 0 60.1123 12.8593 773 121.137 116.144 475.719
3289 0 61.1161 10.8646 664 129.443 115.366 474.56
3290 0 65.1509 11.6192 757 126.164 115.593 473.419
3291 0 66.2142 10.9191 723 127.256 115.066 475.084
3292 0 71.307 11.2471 802 126.877 115.187 472.858
3293 0 69.2385 10.6733 739 129.639 115.378 470.242
3294 0 75.2617 12.8352 966 122.771 114.663 466.449
3295 0 79.1844 12.2499 970 123.17 115.032 465.741
3296 0 82.1622 12.8039 1052 121.529 115.362 463.914
3297 0 83.1162 11.7787 979 125.05 115.314 464.352
3298 0 88.1235 12.5279 1104 122.66 115.298 461.872
3299 1 46.1465 10.3583 478 125.308 116.921 479.849
3300 0 47.1332 11.5417 544 124.798 116.693 480.186
3301 0 48.1662 10.5883 510 127.463 117.278 479.114
3302 0 49.0566 11.7212 575 121.936 116.355 473.708
3303 0 50.0846 9.52389 477 124.803 116.526 473.813
3304 0 50.0805 10.2036 511 124.022 116.706 472.716
3305 0 53.3146 10.9726 585 122.369 116.985 471.779
3306 0 53.1119 10.2425 544 125.559 116.45 470.724
3307 0 56.1316 9.38864 527 135.061 115.402 471.732
3308 0 61.3114 12.5751 771 137.256 116.55 473.192
3309 0 65.228 13.7211 895 133.122 115.792 472.255
3310 0 65.1775 11.9827 781 140.124 116.187 471.814
3311 0 68.276 13.3722 913 135.836 115.997 469.742
3312 0 69.3856 12.7836 887 138.539 115.497 469.317
3313 0 72.2347 13.2485 957 137.159 116.059 468.138
3314 0 75.205 13.297 1000 137.49 115.903 468.334
3315 0 75.2814 13.1639 991 140.691 116.8 466.512
3316 0 77.2111 13.3271 1029 140.335 116.253 466.615
3317 0 81.4004 13.0712 1064 141.139 115.904 463.241
3318 0 84.3967 14.3607 1212 136.934 116.075 461.964
3319 0 87.2046 13.3364 1163 140.886 115.708 462.336
3320 0 91.3439 13.9144 1271 136.575 115.614 462.033
3321 0 92.5245 13.7909 1276 139.922 115.326 455.881
3322 0 94.4944 13.6622 1291 141.153 115.001 455.128
3323 0 100.612 14.0342 1412 138.13 115.314 453.62
3324 0 102.442 13.9982 1434 139.506 114.964 452.599
3325 1 52.535 11.6875 614 136.697 115.107 476.14
3326 0 53.0418 11.3495 602 133.91 116.294 477.394
3327 0 52.1185 11.186 583 121.943 115.882 475.058
3328 0 52.1394 10.3952 542 125.886 115.875 473.279
3329 0 55.1211 10.5404 581 123.289 116.038 475.265
3330 0 56.1895 10.1442 570 123.937 115.642 474.6
3331 0 58.0263 10.4091 604 123.757 115.114 472.493
3332 0 60.0473 11.0579 664 122.61 114.857 471.636
3333 0 62.159 10.8432 674 123.852 115.178 469.929
3334 0 63.0598 10.0222 632 125.525 115.578 470.222
3335 0 65.138 10.1323 660 126.759 114.845 467.952
3336 0 69.1215 12.0223 831 120.525 115.188 466.836
3337 0 71.2805 11.6301 829 122.862 114.691 464.829
3338 0 74.318 10.9798 816 124.224 115 466.612
3339 0 75.3389 11.3885 858 124.922 115.033 463.578
3340 0 76.1631 10.4381 795 128.714 114.889 463.591
3341 0 82.3323 11.7451 967 124.656 115.199 463.048
3342 0 81.327 11.3738 925 129.219 115.245 459.428
3343 0 86.1618 11.432 985 128.65 115.752 459.679
3344 0 88.1956 10.5788 933 132.375 114.924 457.614
3345 0 89.2082 10.8398 967 135.377 115.745 457.942
3346 0 93.1782 12.4063 1156 132.47 115.55 457.215
3347 1 49.0901 10.552 518 126.129 117.556 482.062
3348 0 50.0554 9.78915 490 130.002 116.224 479.484
3349 0 53.0421 11.3872 604 122.705 116.225 481.179
3350 0 51.0558 10.5179 537 128.864 115.978 479.421
3351 0 54.1876 11.9215 646 124.515 117.525 477.183
3352 0 55.1311 10.339 570 129.523 116.953 478.079
3353 0 57.1101 11.2589 643 127.74 116.373 475.893
3354 0 60.0585 12.0383 723 124.801 117.126 476.461
3355 0 59.0748 11.3416 670 129.358 116.634 474.049
3356 0 62.1703 11.3559 706 127.83 116.755 475.499
3357 0 63.1309 11.5633 730 126.782 117.252 474.996
3358 0 66.15 11.9274 789 126.413 116.504 473.112
3359 0 69.0853 13.0129 899 124.463 116.511 471.23
3360 0 71.1033 11.5888 824 129.279 116.564 470.882
3361 0 71.1133 11.5871 824 132.126 116.428 469.078
3362 0 73.1656 12.2872 899 129.956 116.354 469.623
3363 0 77.0812 11.8576 914 130.295 115.656 470.596
3364 0 80.1029 12.7211 1019 129.656 115.841 466.516
3365 0 81.1524 11.8296 960 134.183 114.898 466.702
3366 0 83.0677 12.3153 1023 140.642 116.794 466.537
3367 0 89.0915 12.5489 1118 137.026 115.454 465.247
3368 1 47.0123 11.7841 554 134.756 116.013 485.132
3369 0 47.0617 11.9418 562 136.286 115.938 484.247
3370 0 46.0269 11.276 519 141.574 115.461 482.875
3371 0 47.0462 11.2018 527 131.328 112.964 483.719
3372 0 48.074 10.9623 527 133.448 114.717 483.277
3373 0 49.0475 11.1728 548 131.049 114.422 485.485
3374 0 49.0387 11.236 551 134.554 114.336 483.475
3375 0 51.0846 11.8039 603 131.655 114.146 483.036
3376 0 52.1224 11.7224 611 133.72 113.849 480.809
3377 0 55.1048 11.4328 630 132.29 114.197 480.729
3378 0 57.0414 11.518 657 133.12 113.988 478.285
3379 0 60.0447 11.0584 664 133.482 114.405 477.848
3380 0 60.0378 10.4434 627 135.263 114.636 478.687
3381 0 61.021 10.5537 644 136.245 114.587 476.415
3382 0 63.0491 11.0707 698 134.275 114.003 475.862
3383 0 66.0849 10.9859 726 132.78 114.362 475.172
3384 0 66.0332 10.525 695 136.089 114.443 474.243
3385 0 70.091 11.0713 776 133.117 113.947 473.58
3386 0 73.0641 11.4831 839 130.971 114.281 472.427
3387 0 75.0507 11.0325 828 132.118 114.721 470.448
3388 0 83.1299 8.74535 727 135.953 114.85 472.565
3389 0 81.1619 10.7686 874 132.152 114.582 468.852
3390 0 81.2408 11.152 906 132.354 113.938 467.385
3391 0 84.2755 11.0234 929 136.837 113.476 465.198
3392 0 86.5017 10.5316 911 136.288 113.665 466.745
3393 0 88.3037 10.3733 916 135.837 113.556 467.595
3394 0 89.401 10.2124 913 139.354 114.445 462.252
3395 0 94.4211 10.6862 1009 137.289 114.336 461.584
3396 0 97.3042 11.3664 1106 134.674 114.559 459.571
3397 0 98.3515 11.3776 1119 135.829 114.565 459.69
3398 0 100.356 10.8912 1093 138.156 114.693 456.738
3399 1 53.1022 11.186 594 136.591 114.374 479.987
3400 0 53.1865 11.2811 600 136.502 114.372 478.645
3401 0 56.1295 11.2775 633 135.115 114.362 477.793
3402 0 56.1888 11.1232 625 134.971 114.99 478.526
3403 0 57.188 10.6316 608 136.059 114.928 478.479
3404 0 59.1211 9.79346 579 135.934 115.214 476.007
3405 0 61.1976 10.9481 670 135.481 115.172 474.04
3406 0 63.2504 11.0829 701 131.906 114.904 475.682
3407 0 68.2181 11.7564 802 128.049 114.411 474.559
3408 0 67.3361 10.9599 738 131.489 114.649 472.709
3409 0 68.2626 11.0456 754 131.901 115.43 472.019
3410 0 70.3636 11.3979 802 131.315 115.803 469.911
3411 0 70.3046 10.611 746 134.146 116.058 470.098
3412 0 75.2558 10.843 816 133.419 115.63 467.414
3413 0 75.1849 10.1483 763 135.97 114.988 466.329
3414 0 81.3258 11.0297 897 131.972 114.887 465.384
3415 0 82.2572 10.1025 831 133.669 115.853 463.325
3416 1 41.025 10.2864 422 122.41 116.204 485.557
3417 0 40.107 10.5468 423 124.277 115.203 484.371
3418 0 43.0601 10.1254 436 123.475 116.119 482.534
3419 0 45.0893 11.2443 507 119.85 114.972 481.854
3420 0 47.1388 12.0283 567 117.459 115.005 480.642
3421 0 49.0967 11.9764 588 117.372 115.19 481.966
3422 0 49.0778 11.8587 582 118.751 116.529 479.598
3423 0 52.1795 11.4221 596 118.773 115.48 479.805
3424 0 53.1615 11.8507 630 117.951 115.825 479.635
3425 0 53.1362 11.8563 630 119.002 115.827 480.467
3426 0 55.1661 12.0183 663 119.353 115.87 479.211
3427 0 56.1487 12.0395 676 120.395 115.95 477.374
3428 0 57.1393 12.7408 728 119.37 116.212 477.225
3429 0 62.0809 13.1764 818 117.443 116.21 475.153
3430 0 62.2389 12.8055 797 119.543 115.433 473.596
3431 0 65.2042 13.0053 848 117.86 116.25 473.949
3432 0 65.1582 12.2011 795 121.316 116.555 473.034
3433 0 69.1018 13.4729 931 117.02 115.995 471.286
3434 0 70.1472 12.7019 891 120.204 115.842 469.811
3435 0 74.2045 12.6812 941 120.325 115.983 469.972
3436 0 75.0746 12.401 931 121.363 115.922 468.186
3437 0 78.1525 13.1154 1025 119.88 116.44 467.155
3438 0 80.2809 12.2694 985 123.644 116.182 467.074
3439 0 82.1523 12.2334 1005 124.837 116.272 464.373
3440 0 86.0976 13.2872 1144 121.671 116.233 461.935
3441 0 86.0633 10.9687 944 128.553 116.224 461.505
3442 1 47.0566 11.0505 520 126.158 116.8 481.148
3443 0 49.1256 11.2569 553 124.673 116.962 480.964
3444 0 51.1043 12.5234 640 122.814 116.678 479.477
3445 0 51.0982 11.5855 592 123.49 117.377 478.368
3446 0 53.0713 10.9099 579 125.247 116.829 478.959
3447 0 57.0483 11.9022 679 122.317 116.692 476.602
3448 0 58.1174 12.2683 713 121.351 117.091 477.619
3449 0 59.0475 12.7694 754 121.049 116.054 475.183
3450 0 60.0405 12.0752 725 122.495 115.825 475.039
3451 0 62.1632 11.4859 714 123.112 115.148 472.329
3452 0 66.1438 12.4275 822 118.108 117.242 473.766
3453 0 69.1594 12.5652 869 118.182 116.585 469.883
3454 0 70.1771 13.0669 917 117.435 116.258 470.496
3455 0 73.1099 12.9531 947 118.912 116.135 467.946
3456 0 75.1178 12.6734 952 120.373 116.083 467.849
3457 0 77.1984 12.6946 980 120.933 115.598 466.453
3458 0 78.1633 12.4227 971 124.168 115.501 465.14
3459 0 81.1832 12.9583 1052 123.075 115.439 462.947
3460 0 85.1017 13.2547 1128 123.491 115.776 463.201
3461 0 89.1694 13.065 1165 124.346 115.226 461.907
3462 1 46.0381 10.6868 492 129.47 116.421 482.419
3463 0 49.031 12.0332 590 132.764 115.834 480.79
3464 0 52.0505 11.9307 621 133.097 115.49 480.462
3465 0 53.1229 12.2923 653 132.368 115.511 479.724
3466 0 52.0997 11.4204 595 138.807 115.429 478.163
3467 0 55.1266 11.8092 651 137.945 115.538 476.682
3468 0 59.1183 12.3143 728 133.927 115.165 476.988
3469 0 59.0689 12.8833 761 133.583 115.301 474.913
3470 0 61.0702 12.6576 773 133.867 115.709 474.871
3471 0 63.0961 13.2021 833 132.353 115.052 474.385
3472 0 64.0783 12.2038 782 136.353 115.517 472.074
3473 0 65.1121 11.2114 730 139.567 115.637 472.315
3474 0 67.0911 14.0555 943 131.643 115.726 468.784
3475 0 71.109 13.0082 925 133.301 115.85 469.161
3476 0 75.109 12.4353 934 133.224 116.124 468.618
3477 0 76.0934 14.0748 1071 129.947 115.963 465.505
3478 0 78.2185 12.3117 963 134.327 116.005 466.47
3479 0 80.1713 12.3361 989 135.628 115.259 463.385
3480 0 84.1773 12.8182 1079 131.731 113.138 464.059
3481 0 84.1841 12.5558 1057 135.008 114.141 460.528
3482 0 87.1889 12.536 1093 133.597 113.919 462.531
3483 1 46.0133 10.5622 486 133.449 112.994 481.877
3484 0 46.1601 10.6152 490 136.163 112.727 481.149
3485 0 49.4223 10.643 526 134.414 115.26 478.021
3486 0 50.0302 11.9528 598 131.147 112.779 479.378
3487 0 53.0293 11.7105 621 130.839 112.335 478.984
3488 0 53.0293 11.6728 619 148.034 112.347 479.032
3489 0 55.0892 11.9261 657 131.342 112.072 475.986
3490 0 55.0428 11.9543 658 132.353 112.66 475.903
3491 0 59.0542 11.9043 703 131.651 111.984 475.651
3492 0 59.0903 12.2017 721 132.598 112.533 474.031
3493 0 63.1121 13.1512 830 129.082 113.194 474.922
3494 0 65.114 13.0847 852 128.502 116.252 473.581
3495 0 65.0512 12.6208 821 131.911 116.179 470.762
3496 0 67.1054 13.7992 926 127.543 116.454 473.067
3497 0 70.0693 13.3297 934 128.337 116.125 471.834
3498 0 75.0974 13.0098 977 127.199 116.441 468.436
3499 0 75.1868 12.2495 921 130.94 116.347 466.626
3500 0 80.1422 13.501 1082 124.865 116.334 468.298
3501 0 80.168 13.0227 1044 129.641 116.353 465.4
3502 0 83.0881 11.6744 970 132.362 116.834 464.797
3503 1 43.0629 10.8214 466 128.629 116.815 482.957
3504 0 45.0319 12.258 552 122.917 116.382 483.225
3505 0 47.0309 11.0778 521 128.044 116.205 481.747
3506 0 49.1684 12.0606 593 125.27 113.949 481.083
3507 0 51.1108 11.6609 596 125.654 113.779 480.948
3508 0 53.0896 11.3393 602 126.842 113.131 479.929
3509 0 52.0933 10.8651 566 131.049 112.514 477.687
3510 0 54.0252 11.5502 624 128.223 112.232 477.316
3511 0 56.0695 11.2004 628 128.527 112.521 476.914
3512 0 59.0203 12.267 724 123.645 111.761 476.972
3513 0 59.0755 11.6461 688 127.113 113.577 476.042
3514 0 61.1863 12.7153 778 122.581 113.647 476.767
3515 0 62.1783 12.3194 766 124.646 112.913 473.926
3516 0 65.2726 11.1839 730 129.089 114.332 473.344
3517 0 65.2974 12.1904 796 127.73 114.878 470.083
3518 0 67.3313 12.7727 860 125.744 114.81 470.493
3519 0 69.3298 12.0295 834 126.287 114.791 471.5
3520 0 72.2529 12.5393 906 124.389 114.489 469.948
3521 0 73.2882 11.7618 862 127.549 113.99 468.106
3522 0 78.3337 13.5318 1060 121.192 114.63 465.297
3523 0 80.438 11.599 933 125.162 113.905 465.857
3524 0 82.2736 12.3126 1013 122.987 115.163 463.865
3525 0 86.2434 13.0909 1129 120.449 114.686 462.287
3526 1 42.3123 9.92618 420 120.74 115.94 483.321
3527 0 43.1204 10.3431 446 118.922 115.087 482.511
3528 0 45.2635 10.0302 454 119.696 115.251 483.632
3529 0 48.2403 11.878 573 116.412 115.37 480.901
3530 0 49.031 12.7266 624 115.22 117.856 478.912
3531 0 49.0621 11.8218 580 118.469 117.941 478.76
3532 0 53.0778 11.7187 622 116.836 118.056 479.122
3533 0 52.0711 11.8684 618 117.909 117.353 478.138
3534 0 54.0645 11.1533 603 119.289 116.876 477.237
3535 0 56.074 11.1816 627 119.451 117.777 477.541
3536 0 58.0449 12.0596 700 117.624 117.173 476.699
3537 0 57.0533 11.463 654 121.225 117.066 475.214
3538 0 60.0311 12.0937 726 119.298 117.336 475.295
3539 0 62.04 12.9755 805 116.734 117.36 474.302
3540 0 63.0538 11.1492 703 123.336 116.646 472.073
3541 0 66.044 12.0677 797 119.592 116.678 471.256
3542 0 67.0621 12.9731 870 118.928 116.791 469.599
3543 0 69.104 13.0383 901 118.62 117.125 468.069
3544 0 73.0487 13.3336 974 116.309 116.971 468.626
3545 0 75.0592 13.2962 998 117.278 116.551 467.522
3546 0 78.0871 12.1787 951 120.944 116.591 465.838
3547 0 80.0775 13.0748 1047 118.995 116.42 465.546
3548 0 82.0484 12.5414 1029 120.782 116.54 463.238
3549 1 44.0528 10.7825 475 118.383 116.72 482.802
3550 0 44.048 10.5567 465 116.37 116.243 483.316
3551 0 46.1185 10.8199 499 113.964 116.715 479.958
3552 0 49.0571 10.9872 539 113.718 116.215 481.34
3553 0 49.0651 11.7191 575 113.075 117.146 480.37
3554 0 51.057 11.7907 602 113.477 117.296 478.934
3555 0 53.0784 10.6446 565 116.251 116.878 480.754
3556 0 55.0363 12.41 683 112.013 117.406 477.816
3557 0 53.0366 10.5965 562 119.459 116.27 479.302
3558 0 56.13 10.7964 606 117.893 117.343 477.881
3559 0 57.0509 11.6212 663 117.14 117.308 476.624
3560 0 58.0385 11.5096 668 118.246 116.75 476.091
3561 0 60.0689 10.5379 633 120.878 116.471 475.784
3562 0 65.0746 10.8644 707 118.304 116.127 476.426
3563 0 65.0617 10.882 708 120.425 116.763 473.599
3564 0 70.0784 11.0162 772 118.155 116.307 472.481
3565 0 71.0938 12.378 880 115.259 117.4 471.864
3566 0 73.0816 11.3024 826 118.076 117.299 470.984
3567 0 74.0844 10.5555 782 121.482 117.504 468.426
3568 0 78.0799 12.3207 962 115.885 117.406 469.686
3569 0 79.0791 12.0006 949 119.117 116.964 466.039
3570 0 85.1119 11.7375 999 118.367 116.91 466.916
3571 0 85.0997 11.9272 1015 118.227 116.793 465.69
3572 0 90.1023 11.8976 1072 118.589 116.783 462.338
3573 1 48.0696 11.0673 532 116.848 117.214 482.62
3574 0 49.0474 12.3962 608 114.637 117.049 481.097
3575 0 50.0569 11.9864 600 116.402 117.702 481.708
3576 0 49.0302 11.5847 568 117.673 116.755 481.28
3577 0 52.0546 11.6608 607 116.357 116.639 480.736
3578 0 52.095 12.458 649 116.487 116.398 479.401
3579 0 56.0189 11.6211 651 117.559 117.069 479.238
3580 0 56.0801 12.4287 697 116.98 116.755 476.956
3581 0 57.065 12.4069 708 118.362 116.282 476.229
3582 0 60.1191 12.6249 759 116.933 116.536 475.086
3583 0 59.0935 12.8271 758 117.842 116.906 473.855
3584 0 61.0969 12.0301 735 119.665 116.044 473.498
3585 0 66.0804 12.8177 847 115.976 116.165 471.596
3586 0 68.0738 12.5893 857 116.568 116.449 470.481
3587 0 67.0262 11.9804 803 118.775 115.844 471.469
3588 0 73.0832 13.7514 1005 111.649 116.054 470.029
3589 0 74.2114 12.8956 957 108.277 115.557 464.855
3590 0 76.1547 12.3958 944 110.257 115.378 461.655
3591 0 81.1711 11.7653 955 111.041 115.595 461.983
3592 0 84.0642 13.5611 1140 112.176 115.196 465.454
3593 1 43.0662 11.2849 486 117.255 117.319 482.276
3594 0 45.1203 10.6825 482 116.873 116.741 482.905
3595 0 46.0683 12.3512 569 112.483 117.48 481.64
3596 0 47.0448 11.2233 528 113.35 117.739 481.517
3597 0 48.105 10.8928 524 116.439 117.011 480.748
3598 0 49.1318 12.5988 619 112.153 116.722 480.493
3599 0 51.0161 10.2517 523 116.895 118.027 481.795
3600 0 52.0588 12.0441 627 112.25 117.517 478.478
3601 0 57.1194 14.9686 855 102.112 117.481 473.496
3602 0 57.1319 13.4076 766 108.56 117.548 475.007
3603 0 57.1756 11.5784 662 113.903 117.805 476.622
3604 0 58.0867 12.3092 715 114.102 118.241 475.131
3605 0 59.0803 12.2376 723 115.077 118.14 473.938
3606 0 64.1203 12.7261 816 112.52 117.695 472.873
3607 0 64.0653 14.4696 927 110.402 117.387 472.255
3608 0 63.0714 12.1133 764 118.813 117.7 471.686
3609 0 67.1253 13.1545 883 117.204 118.248 470.007
3610 0 69.0659 14.1604 978 115.255 117.527 468.218
3611 0 72.1113 12.5778 907 120.836 117.594 467.612
3612 0 75.1286 13.6566 1026 118.197 117.569 467.501
3613 0 76.0612 12.7266 968 116.286 117.144 465.933
3614 0 81.1209 13.9545 1132 111.62 117.466 465.637
3615 0 81.0606 12.6325 1024 118.088 117.313 462.751
3616 1 41.0134 9.85045 404 118.772 118.356 485.74
3617 0 42.0227 10.8751 457 116.672 118.875 483.875
3618 0 44.0614 11.7563 518 111.498 118.38 481.971
3619 0 47.0173 12.3997 583 114.48 119.408 481.552
3620 0 46.039 11.7075 539 113.831 116.777 483.31
3621 0 47.154 10.3703 489 107.09 117.438 475.847
3622 0 50.1474 9.75125 489 107.331 116.914 477.339
3623 0 48.174 9.98463 481 108.672 117.312 477.31
3624 0 53.0908 11.2072 595 106.319 116.842 476.126
3625 0 52.0728 10.1973 531 111.066 116.544 475.096
3626 0 54.1286 9.56981 518 111.454 116.303 475.834
3627 0 55.0592 10.407 573 112.333 117.164 472.248
3628 0 56.1229 10.1919 572 112.914 116.208 473.649
3629 0 57.0639 11.5134 657 110.434 116.539 473.05
3630 0 60.0771 10.8527 652 111.623 116.411 472.037
3631 0 64.0651 10.5362 675 111.323 116 471.046
3632 0 66.0283 11.0256 728 110.755 116.418 469.666
3633 0 65.0395 11.7467 764 110.518 116.486 468.852
3634 0 70.0713 11.788 826 110.028 116.277 466.401
3635 0 73.1477 10.2532 750 111.799 116.159 469.117
3636 0 74.1947 10.769 799 111.899 116.154 465.802
3637 0 77.1538 10.9781 847 111.401 116.11 464.992
3638 0 79.1037 10.8718 860 111.392 115.983 460.53
3639 0 83.2511 10.7987 899 110.9 116.032 462.083
3640 1 41.1109 9.55952 393 106.415 116.913 482.351
3641 0 44.2548 10.2588 454 111.806 115.412 478.566
3642 0 44.1464 10.737 474 102.814 115.981 481.399
3643 0 49.2141 10.4442 514 103.13 116.436 478.798
3644 0 47.1664 9.81631 463 106.6 117.089 477.324
3645 0 50.1723 10.7828 541 104.482 116.538 478.176
3646 0 53.1406 10.2182 543 105.053 116.63 478.203
3647 0 51.1107 9.95878 509 107.031 116.177 476.64
3648 0 53.1657 10.3262 549 106.089 115.679 475.973
3649 0 56.0575 11.5596 648 102.946 115.202 474.545
3650 0 58.0613 10.9367 635 104.08 114.917 475.014
3651 0 60.108 11.1632 671 103.21 116.228 474.51
3652 0 60.0333 11.2104 673 104.238 115.352 474.23
3653 0 64.0685 11.6282 745 102.603 115.885 473.642
3654 0 63.088 10.3189 651 106.621 115.846 471.613
3655 0 67.0612 11.8698 796 102.753 116.014 470.835
3656 0 68.0633 10.3727 706 107.271 116.421 469.143
3657 0 71.1092 11.4894 817 104.062 115.856 470.721
3658 0 75.1592 11.3758 855 104.181 116.092 469.116
3659 0 75.1208 10.7826 810 107.588 116.023 466.74
3660 0 80.1206 11.4452 917 104.853 116.052 466.863
3661 0 82.0873 11.6461 956 106.864 115.354 462.796
3662 0 84.0467 11.22 943 107.785 115.25 462.775
3663 1 42.0783 10.8845 458 113.358 113.843 486.793
3664 0 46.0564 11.7465 541 110.49 114.331 485.78
3665 0 47.0862 12.1479 572 108.691 113.617 485.834
3666 0 46.0597 11.6588 537 112.764 113.587 484.95
3667 0 50.0932 12.4767 625 109.368 114.298 484.323
3668 0 50.0347 11.7918 590 111.432 113.481 483.276
3669 0 53.1129 12.2757 652 106.031 113.903 480.179
3670 0 53.0847 11.152 592 108.264 115.111 477.568
3671 0 55.1077 11.9947 661 106.036 114.723 479.172
3672 0 58.0966 11.6014 674 106.761 114.546 477.5
3673 0 56.1804 10.3239 580 111.705 114.098 476.828
3674 0 58.1212 11.3212 658 109.596 114.53 476.766
3675 0 62.0365 12.541 778 105.049 114.979 475.166
3676 0 63.1005 12.3454 779 106.81 115.046 474.118
3677 0 65.1514 11.6805 761 108.664 114.35 473.536
3678 0 65.1137 11.6105 756 109.716 114.093 471.315
3679 0 69.1064 12.8497 888 107.404 113.748 471.273
3680 0 70.0411 12.6069 883 108.071 113.434 471.292
3681 0 74.0708 11.894 881 110.083 113.889 467.681
3682 0 75.0552 11.5515 867 111.623 114.061 466.517
3683 0 78.0587 12.196 952 110.652 114.169 466.738
3684 0 81.1119 13.4752 1093 107.146 114.257 466.204
3685 0 81.1155 10.6392 863 115.655 113.809 463.6
3686 0 86.1582 11.27 971 113.502 113.881 463.341
3687 1 43.0616 10.8681 468 121.316 112.566 486.752
3688 0 43.0109 10.4392 449 121.238 113.018 486.229
3689 0 48.0691 11.5251 554 111.253 115.821 486.191
3690 0 49.0274 12.2992 603 117.096 115.532 483.705
3691 0 50.0527 12.7066 636 115.91 114.675 483.352
3692 0 51.0822 12.7833 653 116.796 115.418 481.135
3693 0 52.0748 12.0404 627 118.925 115.059 481.989
3694 0 53.0487 12.4414 660 118.727 115.029 480.421
3695 0 56.0644 12.7353 714 116.665 115.515 480.976
3696 0 54.0228 11.4581 619 121.433 115.299 479.78
3697 0 58.0577 11.5747 672 120.958 115.476 478.981
3698 0 59.0551 12.8185 757 118.263 115.225 477.264
3699 0 62.0696 12.7277 790 117.803 114.642 476.692
3700 0 63.1887 12.344 780 119.529 115.088 475.994
3701 0 65.0856 15.8714 1033 110.491 115.415 474.227
3702 0 66.0673 11.6548 770 122.457 115.065 474.784
3703 0 67.1372 11.2009 752 123.726 115.386 473.707
3704 0 72.1207 12.4375 897 120.037 114.775 471.075
3705 1 36.0115 10.3578 373 117.611 115.386 491.123
3706 0 37.0192 10.454 387 117.78 115.284 490.656
3707 0 39.1338 11.269 441 116.51 115.057 489.705
3708 0 41.0182 11.1658 458 117.782 115.93 489.849
3709 0 41.0191 12.2626 503 117.439 115.213 487.475
3710 0 41.0607 12.445 511 117.133 115.46 489.08
3711 0 43.0784 11.63 501 118.697 114.854 487.737
3712 0 45.0569 11.6963 527 119.423 115.053 485.824
3713 0 47.0119 13.252 623 114.615 114.799 485.616
3714 0 44.034 9.6062 423 119.468 114.759 488.262
3715 0 46.0839 11.1753 515 117.012 114.115 486.532
3716 0 48.0411 12.3852 595 115.007 114.874 484.457
3717 0 48.0777 11.7934 567 116.704 114.926 485.333
3718 0 52.0595 11.4676 597 117.077 114.665 484.248
3719 0 52.0885 11.1349 580 120.491 114.198 480.355
3720 0 51.0743 11.0819 566 120.613 114.094 480.539
3721 0 55.0527 13.369 736 115.105 114.223 479.997
3722 0 56.0476 12.4715 699 117.957 114.644 480.837
3723 0 58.0619 12.4694 724 119.286 114.754 477.055
3724 0 60.0563 12.0221 722 119.784 114.517 478.313
3725 0 62.0671 12.1481 754 120.517 114.979 477.39
3726 0 63.0811 11.0968 700 123.67 114.707 477.073
3727 0 66.0603 11.5955 766 122.094 114.832 475.244
3728 0 68.0647 10.9161 743 123.401 115.406 475.355
3729 0 72.1135 12.411 895 120.294 115.778 471.649
3730 0 72.1272 11.7986 851 123.022 115.864 471.175
3731 1 40.0136 12.8206 513 117.581 115.918 486.669
3732 0 41.1824 11.6798 481 122.287 114.439 484.842
3733 0 43.0314 12.5955 542 119.554 116.308 483.945
3734 0 45.0967 13.216 596 119.691 115.552 483.535
3735 0 46.0257 12.4278 572 121.713 116.192 483.439
3736 0 45.0295 11.7923 531 126.35 116.171 481.54
3737 0 48.0665 11.9834 576 124.943 115.762 481.493
3738 0 49.0509 13.1088 643 122.888 116.753 479.891
3739 0 51.0196 12.3678 631 124.808 116.323 479.704
3740 0 53.0699 12.9829 689 121.35 116.482 479.824
3741 0 55.0559 14.0948 776 119.59 116.521 476.933
3742 0 55.1139 13.2453 730 123.742 115.842 475.56
3743 0 58.0471 13.7475 798 120.639 116.584 475.125
3744 0 59.0562 13.411 792 122.069 116.364 475.423
3745 0 61.094 14.0276 857 120.35 116.441 475.433
3746 0 62.0608 14.228 883 121.8 116.123 473.248
3747 0 64.0454 13.0376 835 125.607 116.298 472.641
3748 0 66.0616 14.32 946 122.841 115.931 471.534
3749 0 67.0625 13.1072 879 127.138 116.319 469.896
3750 0 68.0943 13.261 903 127.934 116.32 468.494
3751 0 73.0952 15.6371 1143 120.292 115.899 467.709
3752 0 76.188 13.7423 1047 124.934 116.55 467.134
3753 0 78.1188 13.4667 1052 127.279 116.141 465.22
3754 0 79.0631 13.5967 1075 128.867 116.112 462.947
3755 0 81.1089 14.536 1179 127.517 115.526 461.322
3756 0 84.1199 12.9339 1088 131.47 115.982 462.222
3757 1 40.1451 11.5581 464 128.259 116.748 484.246
3758 0 43.2729 12.3403 534 123.017 115.712 482.242
3759 0 45.0529 12.8959 581 118.313 116.355 482.559
3760 0 46.1231 13.0737 603 115.562 116.381 481.788
3761 0 46.114 12.9679 598 117.901 116.838 481.478
3762 0 47.2575 12.5483 593 119.749 116.452 480.169
3763 0 47.188 12.8634 607 119.474 116.824 480.641
3764 0 49.093 12.6291 620 119.605 116.534 480.21
3765 0 52.1152 12.7218 663 118.382 116.694 478.516
3766 0 54.1693 12.8486 696 117.274 116.662 479.694
3767 0 53.1168 12.4631 662 121.497 116.249 477.535
3768 0 56.1709 12.6756 712 119.539 117.107 476.626
3769 0 61.1087 13.5169 826 114.753 117.168 475.896
3770 0 60.082 14.6134 878 114.552 116.978 474.935
3771 0 61.1087 12.8132 783 119.789 116.922 473.798
3772 0 65.0769 12.708 827 117.921 117.002 473.989
3773 0 68.1306 13.0191 887 117.262 117.529 472.132
3774 0 72.1105 13.8399 998 114.341 117.358 469.342
3775 0 74.1529 12.7439 945 116.248 117.725 471.04
3776 0 75.239 12.8258 965 117.701 117.421 467.934
3777 0 79.1645 12.8846 1020 117.514 116.036 466.64
3778 0 80.1319 13.0909 1049 117.992 116.781 465.424
3779 0 83.1024 12.5869 1046 118.814 116.258 464.371
3780 0 86.1284 13.7817 1187 115.533 117.022 461.151
3781 1 48.1677 11.1486 537 120.59 117.229 482.067
3782 0 50.0403 12.9496 648 115.972 116.114 480.759
3783 0 52.0692 12.0417 627 115.919 116.097 482.351
3784 0 52.0268 12.4167 646 114.704 115.449 480.06
3785 0 53.0268 12.9746 688 113.807 115.997 478.004
3786 0 57.0956 13.854 791 108.853 115.85 477.961
3787 0 58.046 13.2481 769 111.226 115.501 477.688
3788 0 58.0737 12.4153 721 113.433 115.624 476.971
3789 0 59.049 11.99 708 115.715 115.381 474.599
3790 0 64.0186 12.965 830 111.929 114.917 474.324
3791 0 65.0695 12.3406 803 114.356 114.841 472.347
3792 0 67.0597 12.8691 863 113.397 114.329 472.258
3793 0 70.0688 13.1157 919 111.827 114.668 471.376
3794 0 71.0453 11.8797 844 114.44 114.691 470.336
3795 0 74.0815 12.2568 908 115.141 114.926 467.761
3796 0 77.0673 13.2871 1024 111.854 115.419 467.807
3797 0 81.0707 11.9772 971 115.037 114.847 465.186
3798 0 83.1959 13.4502 1119 111.816 114.769 464.116
3799 0 85.1273 11.8176 1006 115.734 114.913 461.773
3800 1 46.0573 12.0936 557 115.413 113.718 480.237
3801 0 46.0723 11.3951 525 115.922 116.611 482.253
3802 0 48.0393 12.6771 609 110.654 116.391 482.049
3803 0 50.0388 13.4496 673 108.022 116.557 479.999
3804 0 51.0357 12.6578 646 110.912 116.752 479.13
3805 0 50.0249 11.0745 554 116.915 116.587 480
3806 0 52.0409 11.3565 591 116.621 117.061 479.89
3807 0 55.0403 12.1547 669 114.321 116.064 478.912
3808 0 56.0649 11.2191 629 116.973 116.827 477.464
3809 0 58.0607 11.8669 689 115.003 116.444 478.303
3810 0 57.1376 10.746 614 117.92 116.752 476.93
3811 0 61.0554 12.6934 775 114.212 116.679 473.649
3812 0 62.1965 11.0135 685 117.372 116.54 473.826
3813 0 65.0966 10.0312 653 117.528 116.75 473.986
3814 0 71.1353 11.6539 829 113.814 116.639 470.926
3815 0 70.1995 11.1824 785 116.668 116.535 469.304
3816 0 73.0687 12.0298 879 113.929 116.749 470.116
3817 0 77.1011 12.5809 970 111.329 115.341 468.313
3818 0 80.0811 12.6122 1010 111.294 115.937 465.667
3819 1 36.0139 9.3575 337 118.243 115.24 487.715
3820 0 38.0938 10.7891 411 113.38 117.343 484.966
3821 0 39.326 11.1377 438 116.395 116.893 482.578
3822 0 42.3026 9.97576 422 121.355 116.398 480.756
3823 0 44.0437 10.9437 482 120.676 117.029 481.776
3824 0 45.0293 11.4148 514 118.741 116.593 482.72
3825 0 46.0397 12.12 558 118.174 116.835 481.079
3826 0 48.0334 12.9701 623 113.719 117.363 482.197
3827 0 49.013 12.0172 589 116.927 117.952 480.672
3828 0 52.051 12.2188 636 115.912 117.278 479.341
3829 0 53.0989 12.2978 653 116.397 116.899 478.233
3830 0 54.0274 12.4751 674 116.856 117.727 478.053
3831 0 54.0771 12.3158 666 117.838 117.2 479.152
3832 0 57.0642 13.2132 754 116.264 117.113 474.645
3833 0 58.0529 12.4714 724 118.064 117.222 475.345
3834 0 60.1064 12.977 780 117.053 117.381 475.445
3835 0 62.0671 12.5832 781 118.854 116.995 473.321
3836 0 65.1463 13.416 874 116.704 116.403 472.219
3837 0 67.0714 12.7774 857 119.544 116.263 471.928
3838 0 70.0777 12.6431 886 119.903 116.772 470.806
3839 0 72.0817 13.6234 982 118.284 116.413 468.329
3840 0 75.0793 13.6789 1027 118.115 116.413 467.654
3841 0 77.0736 12.9746 1000 120.332 116.588 467.002
3842 0 82.1263 14.5751 1197 115.855 116.627 464.3
3843 0 84.0901 14.1634 1191 117.911 116.235 462.268
3844 1 45.0094 11.7975 531 117.341 116.218 482.26
3845 0 46.0342 11.5784 533 119.214 117.351 481.009
3846 0 48.0336 12.1998 586 116.519 117.614 478.875
3847 0 47.0493 11.4773 540 112.889 115.846 474.267
3848 0 49.0323 10.5033 515 111.862 114.895 475.631
3849 0 51.0705 11.1806 571 110.72 114.476 473.748
3850 0 53.1585 11.6444 619 108.858 115.069 472
3851 0 53.1558 12.3975 659 108.662 114.141 471.478
3852 0 61.1262 11.9916 733 113.975 113.955 475.664
3853 0 60.0747 11.3525 682 116.804 114.257 474.867
3854 0 62.0979 11.7395 729 115.022 114.342 474
3855 0 65.0628 12.2958 800 112.248 114.339 475.34
3856 0 66.0949 13.2083 873 112.926 113.637 469.874
3857 0 69.0434 12.1373 838 115.005 114.085 469.648
3858 0 71.0491 13.2584 942 113.322 113.46 467.007
3859 0 75.0537 12.7775 959 113.335 113.353 466.651
3860 0 77.1181 12.3188 950 115.117 113.605 468.019
3861 0 81.0721 12.9761 1052 114.273 113.664 463.897
3862 0 84.1277 12.3978 1043 115.935 113.937 464.601
3863 0 86.1202 12.7845 1101 116.229 113.967 463.743
3864 0 87.1249 13.0158 1134 116.071 113.653 461.807
3865 0 90.3095 11.8039 1066 120.071 114.947 458.317
3866 0 91.2989 12.2017 1114 120.737 114.369 455.756
3867 1 49.0322 10.6053 520 118.642 115.658 480.152
3868 0 51.0752 11.6103 593 116.02 115.793 480.201
3869 0 51.1297 11.7349 600 118.867 116.032 477.408
3870 0 54.135 12.3395 668 117.287 115.895 477.608
3871 0 55.0498 12.2435 674 118.892 115.398 476.5
3872 0 56.0635 11.9686 671 119.82 115.89 476.526
3873 0 59.4179 12.3363 733 118.595 116.568 473.896
3874 0 61.2196 14.0641 861 113.734 116.837 473.224
3875 0 61.2096 11.9262 730 121.725 116.642 471.39
3876 0 65.2129 12.9269 843 118.716 116.457 470.001
3877 0 67.2206 12.9871 873 118.758 117.109 470.864
3878 0 67.3678 11.5485 778 123.88 116.263 468.689
3879 0 71.3481 12.6843 905 120.399 115.919 468.586
3880 0 72.3668 12.9479 937 120.757 116.118 467.7
3881 0 72.3453 12.0671 873 124.577 115.793 466.354
3882 0 74.2433 12.6072 936 123.918 116.358 466.585
3883 0 78.3498 13.6184 1067 121.84 115.86 464.225
3884 0 79.1908 12.8929 1021 125.135 115.312 464.472
3885 0 83.2043 13.9416 1160 121.909 115.636 464.12
3886 0 84.1548 13.8911 1169 123.926 115.352 460.901
3887 0 89.2621 14.5751 1301 122.535 114.556 459.551
3888 0 94.1357 14.0223 1320 122.865 115.103 459.78
3889 0 95.4047 14.5171 1385 123.62 115.046 456.173
3890 1 50.0384 11.2514 563 123.885 115.577 480.497
3891 0 50.1691 12.5575 630 117.186 115.913 478.911
3892 0 54.112 11.8828 643 118.572 115.893 478.028
3893 0 53.1341 12.6472 672 121.601 116.39 478.626
3894 0 55.0379 12.1553 669 122.984 116.151 478.291
3895 0 57.2103 13.6863 783 120.022 116.13 477.45
3896 0 59.0505 13.9033 821 119.532 115.771 478.054
3897 0 60.0957 13.7447 826 120.804 116.018 477.052
3898 0 62.0448 12.7005 788 124.53 116.067 474.997
3899 0 63.1254 12.8475 811 123.967 115.702 473.432
3900 0 66.0774 13.7717 910 121.173 116.485 472.16
3901 0 67.0636 12.9429 868 124.396 116.081 472.234
3902 0 68.0354 12.42 845 126.885 116.654 472.032
3903 0 71.0632 12.7351 905 124.759 116.096 469.666
3904 0 73.0831 13.4231 981 123.352 116.88 470.886
3905 0 78.0741 13.2566 1035 123.048 116.6 468.187
3906 0 79.0452 13.0938 1035 123.589 116.648 467.371
3907 0 80.0654 12.5522 1005 124.709 116.074 466.4
3908 0 84.1081 12.7931 1076 122.73 116.028 465.802
3909 0 89.0493 13.9249 1240 117.797 116.381 463.707
3910 1 48.0805 10.628 511 116.409 116.207 484.693
3911 0 49.138 11.2744 554 116.78 116.558 483.787
3912 0 50.0493 12.6475 633 110.675 116.626 483.009
3913 0 52.0847 13.1133 683 109.224 117.086 482.414
3914 0 53.0495 13.3272 707 108.791 115.489 482.342
3915 0 54.0616 13.0037 703 110.094 116.164 480.437
3916 0 57.1428 13.5625 775 107.43 115.994 479.981
3917 0 58.1204 12.6634 736 110.814 116.083 479.572
3918 0 58.2662 12.4429 725 111.393 115.283 479.981
3919 0 59.1131 12.1462 718 113.267 115.72 479.05
3920 0 61.1323 13.3481 816 110.8 115.094 476.165
3921 0 64.3008 13.4524 865 110.509 114.48 477.234
3922 0 65.3268 13.287 868 112.47 114.415 475.52
3923 0 68.2542 13.2593 905 112.739 114.007 473.377
3924 0 70.1699 14.2369 999 109.875 115.053 470.337
3925 0 74.1243 13.6527 1012 111.126 114.599 469.993
3926 0 76.1414 13.6325 1038 112.637 114.881 468.089
3927 0 78.1515 13.6658 1068 114.142 114.013 466.988
3928 0 81.1215 13.8434 1123 113.968 114.575 464.165
3929 0 82.0553 12.0041 985 121.202 114.797 464.565
3930 0 82.2106 11.1056 913 125.908 113.885 464.655
3931 1 47.0423 11.0539 520 119.217 114.892 482.11
3932 0 44.0061 9.27144 408 125.87 114.672 478.89
3933 0 50.027 12.0935 605 117.688 114.369 477.388
3934 0 50.0299 12.3726 619 119.383 114.493 483.194
3935 0 53.0307 12.5588 666 119.339 114.728 482.416
3936 0 54.1025 14.2877 773 116.614 114.261 480.374
3937 0 57.0838 12.9809 741 119.271 114.364 480.821
3938 0 59.0502 12.7519 753 120.495 114.052 480.469
3939 0 59.0553 12.683 749 153.571 115.051 480.425
3940 0 62.1035 15.0233 933 115.199 114 478.468
3941 0 62.0708 12.9529 804 123.721 113.821 476.484
3942 0 63.118 12.9757 819 123.559 113.834 477.785
3943 0 64.1197 13.0537 837 124.912 114.345 475.082
3944 0 68.1151 12.7872 871 124.331 114.173 474.47
3945 0 72.1771 12.9265 933 123.116 114.058 472.22
