time division length width area intensity CMx CMy
0 0 37.0399 11.0151 408 143.926 810.549 476.292
1 0 39.031 11.3756 444 140.881 810.955 475.182
2 0 39.0087 11.6641 455 140.536 811.593 475.079
3 0 40.0333 11.8401 474 139.105 811.568 474.932
4 0 40.0191 10.8698 435 141.366 811.195 475.356
5 0 42.0215 12.327 518 135.753 811.61 473.564
6 0 43.0536 11.5437 497 136.366 811.622 475.016
7 0 42.023 11.1368 468 136.998 811.096 474.662
8 0 45.013 11.7744 530 133.894 810.611 473.143
9 0 45.0748 11.2923 509 135.381 810.548 473.234
10 0 47.0256 12.2274 575 132.337 809.993 472.496
11 0 46.0135 11.627 535 134.492 811.224 472.658
12 0 49.0719 12.4715 612 129.333 810.592 472.853
13 0 52.0394 12.2407 637 129.166 809.956 472.375
14 0 51.0647 11.456 585 132.352 809.745 471.708
15 0 51.0406 11.775 601 131 809.725 471.76
16 0 53.0415 11.8209 627 130.171 809.327 469.946
17 0 55.1302 11.3731 627 131.147 809.373 470.053
18 0 58.0208 12.8575 746 126.568 809.807 469.544
19 0 58.0501 11.8691 689 129.036 809.682 467.454
20 0 62.0349 12.2351 759 126.353 808.501 468.049
21 0 61.0438 11.8439 723 127.84 808.173 468.133
22 0 64.1277 12.0073 770 127.631 808.44 466.155
23 0 65.0824 11.9848 780 126.955 808.927 467.945
24 0 66.0396 12.4017 819 124.78 807.956 464.072
25 0 72.1431 11.8099 852 123.431 807.924 464.644
26 0 74.1702 12.9162 958 120.933 808.554 463.531
27 0 76.05 11.3478 863 124.655 808.349 463.082
28 1 40.0319 11.9905 480 122.833 807.998 479.977
29 0 39.0314 12.8871 503 120.225 808.32 481.123
30 0 42.0758 11.9308 502 121.285 808.382 478.719
31 0 42.0304 12.491 525 122.109 807.59 479.158
32 0 44.0475 12.9179 569 119.995 807.304 477.601
33 0 43.0285 11.597 499 125.731 807.19 480.02
34 0 46.0254 12.8842 593 121.344 806.981 479.147
35 0 46.0364 13.4893 621 121.25 807.359 476.308
36 0 48.0593 12.5054 601 122.985 807.847 477.72
37 0 52.0398 13.2783 691 119.557 807.789 476.627
38 0 53.0275 13.1818 699 121.026 807.345 474.72
39 0 53.082 12.509 664 123.556 806.654 474.532
40 0 55.1069 13.2833 732 122.508 806.149 472.243
41 0 57.0209 13.2057 753 122.817 806.697 472.7
42 0 60.037 13.0586 784 122.708 806.471 472.08
43 0 61.038 12.8117 782 124.081 807.356 471.376
44 0 64.0778 13.0154 834 124.006 807.273 469.212
45 0 66.0349 13.8109 912 121.668 807.045 470.39
46 0 69.0451 13.7157 947 123.049 806.973 467.668
47 0 70.0627 14.6868 1029 121.007 806.913 467.598
48 0 73.0588 14.9879 1095 121.396 807.057 464.584
49 0 76.1096 13.7828 1049 123.535 806.763 465.17
50 0 79.0495 15.1424 1197 120.536 806.706 464.436
51 0 78.1734 14.3143 1119 122.452 806.876 464.469
52 0 84.2526 15.0144 1265 119.843 806.689 459.782
53 0 87.1078 14.396 1254 116.467 806.159 456.374
54 0 90.2059 14.6664 1323 116.828 806.194 455.977
55 0 93.113 15.261 1421 115.766 806.244 455.663
56 0 92.2248 14.3129 1320 120.978 806.564 454.792
57 0 96.2679 13.9091 1339 122.277 805.588 453.437
58 0 98.1412 13.6232 1337 122.793 805.977 453.537
59 0 102.274 13.4639 1377 123.065 806.625 451.398
60 0 104.168 14.515 1512 121.086 805.832 449.897
61 0 109.233 14.6659 1602 120.107 805.767 448.365
62 0 112.17 13.6757 1534 124.388 805.516 445.3
63 0 120.283 14.7902 1779 120.526 805.13 443.238
64 0 122.356 13.7876 1687 124.743 805.965 438.65
65 1 65.081 11.4934 748 126.642 805.862 467.008
66 0 67.1449 12.3613 830 126.375 805.053 465.422
67 0 72.0927 13.441 969 122.679 805.268 465.754
68 0 74.068 12.718 942 122.329 805.954 464.714
69 0 76.2013 13.7399 1047 127.436 805.538 466.946
70 0 79.1364 14.0643 1113 126.836 805.973 463.887
71 0 83.1204 14.8219 1232 124.031 805.127 461.089
72 0 84.306 13.5696 1144 128.222 804.894 459.304
73 0 85.1268 12.7927 1089 131.792 805.984 457.596
74 0 90.1039 14.3279 1291 124.883 805.823 456.175
75 0 91.0902 13.7336 1251 127.458 805.064 452.716
76 0 94.1292 13.6621 1286 129.611 805.427 451.848
77 0 97.177 13.3776 1300 129.955 805.215 450.01
78 0 102.157 14.1742 1448 128.082 805.104 448.57
79 0 105.176 14.1572 1489 128.815 804.976 446.552
80 0 108.104 12.8487 1389 131.537 805.543 445.529
81 0 114.111 13.8286 1578 128.29 805.314 443.154
82 1 63.2881 11.661 738 122.154 805.465 470.339
83 0 66.1618 12.273 812 123.367 805.119 470.397
84 0 67.0282 13.1885 884 126.878 805.314 471.725
85 0 71.0857 13.3782 951 124.971 805.064 471.182
86 0 72.0919 13.8296 997 125.279 804.769 469.029
87 0 76.1301 13.0303 992 126.984 805.69 466.622
88 0 79.0981 13.9574 1104 124.785 805.251 464.42
89 0 80.1583 13.1365 1053 127.036 804.99 465.727
90 0 86.2027 13.7235 1183 123.74 804.969 461.284
91 0 90.1384 13.3683 1205 121.955 804.75 458.983
92 0 91.2287 13.8334 1262 122.591 804.371 455.204
93 0 93.1545 12.6671 1180 125.763 804.262 456.164
94 0 97.108 13.8609 1346 120.143 804.484 450.357
95 0 100.183 13.8447 1387 119.068 804.169 448.576
96 1 48.0414 8.88816 427 115.693 804.616 473.918
97 0 49.0696 10.3323 507 112.878 804.905 471.375
98 0 55.0396 11.4463 630 117.803 804.422 477.441
99 0 58.0542 12.5917 731 111.41 804.546 477.153
100 0 57.055 11.4276 652 115.353 804.434 476.974
101 0 60.0314 12.6934 762 111.609 803.735 475.046
102 0 63.1301 11.8486 748 113.485 804.171 474.6
103 0 65.0723 12.3709 805 112.893 804.256 473.482
104 0 67.0964 12.713 853 111.877 803.665 472.545
105 0 69.1603 12.9699 897 114.227 803.954 470.637
106 0 73.1344 12.9761 949 120.576 803.416 470.571
107 0 73.1144 13.2942 972 122.718 803.75 467.58
108 0 77.1712 12.8934 995 122.611 804.188 468.204
109 0 80.1138 13.1813 1056 121.889 803.743 467.081
110 0 82.2304 13.2798 1092 121.879 803.459 464.8
111 0 85.099 12.4913 1063 123.923 803.404 463.61
112 0 87.1413 13.4494 1172 121.001 803.955 460.974
113 0 89.0518 12.3524 1100 124.795 803.582 460.915
114 1 47.0991 11.5077 542 113.832 802.769 483.625
115 0 47.0558 11.1782 526 114.901 803.643 482.557
116 0 49.1837 11.2639 554 113.262 803.83 478.617
117 0 49.1213 11.95 587 110.225 805.327 480.755
118 0 52.0214 11.3607 591 109.443 804.315 478.863
119 0 53.1135 11.9555 635 108.598 804.469 477.946
120 0 55.0421 12.6267 695 106.747 805.301 476.987
121 0 56.0842 11.037 619 111.74 805.54 478.018
122 0 58.2256 11.9363 695 107.84 804.74 476.941
123 0 60.1169 11.8769 714 109.282 805.457 474.422
124 0 63.1574 13.5693 857 104.869 804.909 471.609
125 0 64.092 11.1714 716 110.141 805.802 472.487
126 0 67.1252 11.3519 762 109.283 804.488 472.232
127 0 69.1319 11.6878 808 109.322 804.295 469.984
128 0 71.1135 12.9511 921 106.922 805.056 470.492
129 0 74.113 11.1586 827 112.215 804.63 468.158
130 0 77.1064 11.7759 908 111.384 804.637 465.925
131 1 41.1088 10.3871 427 115.496 804.785 483.279
132 0 44.1304 10.469 462 113.991 804.881 483.963
133 0 44.1304 10.4916 463 134.024 805.944 483.905
134 0 45.0394 10.8794 490 111.527 804.841 480.967
135 0 45.0491 11.1212 501 112.437 804.79 480.796
136 0 46.052 10.423 480 115.5 804.683 483.402
137 0 47.1056 11.2938 532 113.472 805.017 481.737
138 0 49.0922 10.7553 528 115.443 804.4 481.348
139 0 50.1367 11.7279 588 112.391 804.012 481.289
140 0 52.126 11.0118 574 113.615 804.918 479.955
141 0 52.1163 11.647 607 113.45 805.023 479.42
142 0 54.1302 11.2137 607 114.338 804.381 478.565
143 0 56.1725 11.3935 640 114.223 804.816 477.342
144 0 59.101 12.0133 710 111.93 804.477 476.406
145 0 60.2398 12.417 748 112.453 805.013 474.987
146 0 61.1471 11.9875 733 114.437 804.427 473.484
147 0 64.0834 10.9233 700 117.027 803.603 473.941
148 0 68.0912 12.5714 856 112.748 804.21 471.492
149 0 68.0971 11.836 806 115.187 803.939 470.498
150 0 69.0835 11.3631 785 117.01 804.307 470.027
151 0 74.1204 13.1273 973 112.761 804.663 468.116
152 0 74.0727 11.5832 858 116.918 804.319 465.362
153 0 78.1152 12.1743 951 115.739 804.617 465.19
154 0 81.1217 12.2655 995 116.32 803.506 464.433
155 0 83.1346 11.2709 937 121.14 803.288 462.311
156 1 43.1163 12.0604 520 111.125 803.906 481.763
157 0 43.1404 11.3351 489 116.194 803.802 478.321
158 0 46.108 12.2755 566 110.784 805.221 481.044
159 0 46.108 11.2562 519 126.358 806.141 480.218
160 0 48.1089 10.9543 527 114.615 804.691 481.03
161 0 48.1015 10.5818 509 115.318 805.829 481.271
162 0 49.0185 12.1383 595 111.924 804.723 478.38
163 0 50.0741 10.8639 544 115.445 804.733 479.309
164 0 52.0995 10.8638 566 114.749 805.256 477.717
165 0 55.1892 12.2125 674 110.467 804.99 477.699
166 0 55.075 11.9837 660 111.492 804.338 476.48
167 0 55.0664 10.3875 572 115.825 804.942 474.759
168 0 60.1358 11.8399 712 111.209 804.615 473.277
169 0 60.1143 11.1787 672 112.286 804.763 473.156
170 0 62.2032 11.7679 732 111.309 804.602 471.612
171 0 66.1001 11.77 778 110.01 804.474 470.922
172 0 66.1613 12.1521 804 110.631 804.109 469.79
173 0 69.1321 11.9481 826 111.097 804.471 468.59
174 0 71.1467 12.1439 864 111.348 803.691 467.388
175 0 74.0802 13.6204 1009 107.404 804.12 467.364
176 0 74.063 11.5037 852 114.27 804.22 466.421
177 0 78.1354 12.2608 958 113.287 804.214 464.299
178 0 80.0955 12.6599 1014 114.306 804.34 463.125
179 0 83.061 12.4246 1032 116.578 804.962 461.018
180 0 88.2531 14.821 1308 82.143 803.983 463.042
181 0 89.0417 13.1174 1168 116.985 804.177 457.58
182 0 92.1383 12.3618 1139 119.946 804.342 455.918
183 0 94.1012 12.8797 1212 121.091 804.044 453.332
184 0 98.108 13.1488 1290 120.805 804.112 453.967
185 1 48.1701 10.8781 524 118.032 805.101 479.126
186 0 51.0958 12.956 662 113.559 805.298 478.184
187 0 53.0318 12.6151 669 118.218 804.897 476.242
188 0 54.108 12.7523 690 119.284 805.446 477.381
189 0 57.1215 13.305 760 118.286 804.867 475.401
190 0 57.0731 12.9483 739 119.82 804.896 474.79
191 0 59.1065 14.144 836 116.59 805.007 474.188
192 0 61.1421 12.6917 776 120.604 804.903 474.116
193 0 64.0895 12.3577 792 120.625 805.145 473.641
194 0 66.0699 13.6068 899 118.389 804.846 472.18
195 0 66.0394 13.7039 905 120.781 805.24 470.194
196 0 69.1013 12.8941 891 122.413 804.815 469.926
197 0 69.1008 12.6771 876 123.503 805.212 468.436
198 0 75.1018 14.0076 1052 118.128 804.952 466.254
199 0 76.0497 12.8469 977 121.395 805.458 466.712
200 0 77.1116 12.8126 988 123.278 804.841 463.848
201 0 81.1375 13.8284 1122 120.023 804.586 463.688
202 0 83.0944 14.2007 1180 120.71 803.962 462.357
203 0 84.0901 13.1763 1108 122.214 805.129 462.883
204 0 89.0565 13.2725 1182 121.171 804.651 459.783
205 0 91.0615 13.4195 1222 122.578 804.561 458.849
206 0 93.0895 13.1272 1222 123.205 804.49 457.508
207 0 97.161 13.2358 1286 122.29 804.19 456.004
208 0 100.156 13.2892 1331 122.195 803.945 453.144
209 0 103.062 12.6332 1302 124.254 804.647 452.073
210 1 55.0474 11.4083 628 122.092 805.788 476.045
211 0 56.1502 11.9857 673 120.602 805.95 474.441
212 0 57.0812 11.2997 645 120.91 804.963 473.512
213 0 62.059 12.5365 778 120.172 802.808 472.242
214 0 65.1041 12.1651 792 121.364 802.705 470.596
215 0 67.0375 12.2469 821 120.842 802.028 469.868
216 0 71.0616 10.4276 741 126.698 803.26 467.043
217 0 71.0318 11.8257 840 123.936 803.23 467.008
218 0 72.0167 12.8304 924 120.75 803.239 467.698
219 0 75.0697 12.7082 954 122.288 802.361 464.503
220 0 78.0703 12.2582 957 123.346 802.278 462.726
221 0 80.0993 12.0725 967 124.31 803.333 462.192
222 0 81.034 12.2294 991 124.732 802.696 461.181
223 0 83.1441 12.0874 1005 125.799 803.496 461.704
224 0 87.1515 12.5758 1096 124.553 805.115 457.735
225 0 88.1209 11.5637 1019 120.303 804.684 460.886
226 1 49.0687 9.80258 481 118.233 806.079 478.985
227 0 49.2139 11.1147 547 114.525 805.943 478.508
228 0 49.0199 11.7299 575 112.334 805.287 477.36
229 0 52.0988 12.2843 640 110.073 805.125 475.458
230 0 50.098 11.1182 557 114.248 805.223 476.285
231 0 54.0964 11.7013 633 112.095 804.325 475.092
232 0 55.1793 10.3662 572 114.996 804.822 476.418
233 0 57.132 9.64433 551 116.873 805.056 475.878
234 0 60.1549 11.7031 704 111.486 805.553 474.143
235 0 60.2297 10.8418 653 114.629 805.519 472.868
236 0 62.1953 12.3 765 111.076 804.548 469.603
237 0 66.152 11.7759 779 110.614 805.748 472.153
238 0 68.0787 11.3839 775 112.716 805.217 469.614
239 0 69.1504 11.6702 807 113.476 805.542 467.854
240 0 72.2211 11.534 833 113.915 804.777 464.612
241 0 76.2085 11.8491 903 112.626 804.814 464.503
242 0 76.3123 10.9288 834 115.639 804.263 462.399
243 0 81.2484 10.8802 884 116.061 804.399 462.407
244 0 83.4258 12.3463 1030 114.088 804.122 459.237
245 1 45.1091 10.1532 458 113.199 805.057 481.456
246 0 43.1098 9.62658 415 115.096 805.27 479.255
247 0 48.0962 11.3315 545 110.549 805.42 479.358
248 0 45.1332 11.2777 509 108.035 805.112 479.967
249 0 48.1693 10.4838 505 109.667 804.992 479.778
250 0 48.1528 10.5082 506 109.178 805.302 477.785
251 0 48.1977 10.8304 522 107.969 805.377 478.389
252 0 52.126 10.6665 556 107.487 805.219 477.047
253 0 54.0972 11.886 643 103.953 804.802 475.768
254 0 54.0978 11.8489 641 114.546 804.814 475.847
255 0 56.1486 11.5586 649 105.814 804.992 474.72
256 0 58.1699 10.7788 627 105.884 804.096 476.459
257 0 59.1357 10.5182 622 107.547 804.349 475.285
258 0 60.132 10.4104 626 108.987 804.77 473.15
259 0 63.157 10.086 637 108.856 804.598 472.765
260 0 65.1458 10.5763 689 108.518 804.745 472.512
261 0 67.1269 12.9903 872 104.869 804.37 469.218
262 0 69.2097 12.1515 841 107.293 804.13 470.058
263 0 70.2539 11.5581 812 109.395 804.08 468.978
264 0 75.0822 12.9325 971 105.661 804.316 467.311
265 0 77.1414 12.3021 949 107.663 804.353 466.389
266 0 79.0639 12.1294 959 108.943 804.219 465.623
267 0 81.2931 12.8424 1044 108.398 805.308 463.988
268 0 82.2263 12.2953 1011 110.106 804.83 462.809
269 0 86.0941 13.2994 1145 108.472 804.999 461.54
270 0 88.1589 12.2279 1078 111.392 805.006 461.382
271 0 92.1705 12.6613 1167 111.338 804.783 458.211
272 0 94.2121 13.3741 1260 109.233 805.266 457.456
273 0 97.2436 13.5536 1318 109.969 804.713 455.838
274 1 48.037 11.6785 561 110.134 804.187 478.544
275 0 53.0427 12.669 672 107.103 804.915 478.597
276 0 54.0267 12.0681 652 110.704 803.192 477.998
277 0 54.0687 12.8355 694 112.036 805.585 476.759
278 0 55.0425 13.1898 726 112.39 805.074 475.302
279 0 59.0707 12.5951 744 112.421 805.407 475.509
280 0 61.0869 14.2747 872 107.999 805.077 474.482
281 0 60.0802 13.6484 820 111.211 805.259 474.079
282 0 63.0908 13.2507 836 112.234 804.79 471.555
283 0 64.0388 12.4456 797 115.592 805.784 471.586
284 0 67.1209 14.1089 947 112.283 804.196 470.26
285 0 69.1014 14.8043 1023 111.116 804.329 468.633
286 0 70.1331 13.0466 915 116.699 804.742 467.468
287 0 72.1456 13.5698 979 116.436 804.853 467.392
288 0 75.1152 14.9237 1121 112.859 804.135 466.396
289 0 77.0877 15.0608 1161 113.507 803.807 465.742
290 0 79.0868 14.1617 1120 116.953 804.917 463.004
291 0 81.0651 12.7675 1035 117.845 804.752 462.749
292 0 84.0334 13.9587 1173 115.303 804.309 462.269
293 0 87.1129 15.1527 1320 112.992 804.276 459.747
294 0 92.1315 14.4467 1331 113.725 803.742 459.566
295 0 95.0871 13.6927 1302 116.307 803.548 457.604
296 1 46.0161 10.279 473 121.947 804.795 479.97
297 0 49.0474 11.5602 567 114.799 804.196 478.487
298 0 51.0948 12.1343 620 112.292 803.527 479.169
299 0 53.0359 13.0101 690 109.538 802.856 478.186
300 0 54.1796 11.5542 626 113.861 802.792 477.633
301 0 55.0619 12.7674 703 111.865 802.403 475.442
302 0 57.0795 12.176 695 112.498 803.321 474.745
303 0 58.1838 12.7011 739 110.842 803.583 475.525
304 0 60.076 12.7838 768 110.474 804.431 472.598
305 0 63.0545 12.8936 813 110.407 804.882 472.688
306 0 65.092 13.9495 908 108.771 804.758 471.211
307 0 66.0945 14.0405 928 109.865 804.832 469.662
308 0 68.055 13.5626 923 113.016 804.571 468.475
309 0 69.0526 12.5701 868 115.074 804.29 469.181
310 0 73.0675 13.3849 978 113.653 804.372 467.628
311 0 72.128 12.048 869 118.933 804.123 467.308
312 0 75.201 13.0716 983 117.652 804.377 466.117
313 0 79.2464 12.6946 1006 118.933 804.254 463.819
314 0 80.0644 13.8638 1110 117.729 803.678 461.608
315 0 81.159 13.2949 1079 121.586 803.678 461.77
316 0 86.1588 13.4751 1161 120.607 804.432 459.354
317 0 90.1475 13.6665 1232 118.783 803.552 460.552
318 0 93.1148 13.3706 1245 121.665 803.627 457.528
319 0 95.2374 13.5976 1295 121.155 803.855 456.549
320 1 49.0616 10.762 528 120.57 804.142 479.623
321 0 52.0533 10.5085 547 121.353 804.503 478.978
322 0 54.0909 12.1462 657 116.559 804.108 478.259
323 0 55.1214 12.028 663 117.118 804.219 477.137
324 0 57.0422 13.4111 765 114.608 804.235 476.396
325 0 59.0431 12.7873 755 114.911 804.164 475.763
326 0 62.077 11.9851 744 116.675 803.616 474.067
327 0 63.0141 11.9021 750 118.173 803.785 471.527
328 0 66.1149 12.4178 821 115.685 804.197 471.178
329 0 70.1371 12.775 896 114.167 804.52 471.493
330 0 70.0633 12.9883 910 114.199 804.682 470.035
331 0 72.0449 12.6171 909 116.19 804.556 468.824
332 0 75.0928 13.45 1010 113.943 804.211 467.082
333 0 75.1218 13.0854 983 115.487 804.274 466.616
334 0 79.0701 13.3047 1052 114.933 804.888 463.276
335 0 80.2038 11.8448 950 117.172 804.007 464.049
336 0 84.0785 12.7619 1073 115.786 805.161 461.748
337 0 86.1117 12.867 1108 115.125 804.605 461.064
338 0 90.2664 13.15 1187 113.859 803.423 456.758
339 0 92.0873 12.2601 1129 122.265 804.223 455.089
340 1 46.0914 10.1104 466 117.163 803.648 479.573
341 0 49.0362 10.5024 515 115.656 803.414 478.301
342 0 50.0457 11.2897 565 113.503 803.457 477.814
343 0 52.0724 12.3674 644 106.711 803.624 477.407
344 0 52.0716 11.2537 586 110.519 803.679 477.608
345 0 56.1014 12.7804 717 105.487 804.517 476.169
346 0 57.0516 12.0943 690 106.659 804.181 476.604
347 0 57.0731 12.8607 734 106.322 805.029 474.587
348 0 60.0814 12.6661 761 106.16 805.516 471.949
349 0 63.0796 12.619 796 105.394 805.485 472.32
350 0 65.0489 12.6674 824 106.67 805.826 470.926
351 0 66.1246 12.1135 801 108.303 805.311 468.984
352 0 68.0824 11.9561 814 108.45 805.959 469.032
353 0 71.0574 12.2436 870 107.522 805.615 468.238
354 0 74.0797 12.743 944 106.021 804.949 466.677
355 0 78.1612 11.8857 929 109.24 804.573 465.433
356 0 80.1008 11.7727 943 110.295 805.117 464.051
357 0 82.1172 10.9112 896 112.445 804.344 463.142
358 0 85.3173 10.7129 914 112.318 805.072 461.153
359 0 87.1028 11.5611 1007 112.719 804.963 457.71
360 1 47.0208 11.6331 547 108.697 805.484 480.441
361 0 47.1035 11.8463 558 110.418 805.039 478.683
362 0 49.022 10.9339 536 111.741 805.871 479.94
363 0 48.102 11.3717 547 111.682 805.371 478.841
364 0 51.0226 11.0931 566 111.882 805.94 476.91
365 0 51.0463 11.4014 582 112.493 805.223 475.986
366 0 52.086 11.289 588 112.66 805.968 474.859
367 0 58.0094 12.3946 719 106.188 805.196 476.134
368 0 59.0526 12.2094 721 106.816 805.601 475.015
369 0 58.0353 12.0616 700 108.853 805.016 474.049
370 0 61.013 11.3419 692 109.487 805.34 473.202
371 0 63.0244 11.4559 722 109.438 805.411 470.896
372 0 66.0692 12.1993 806 107.458 805.412 470.435
373 0 69.0266 13.4875 931 104.041 805.039 469.56
374 0 69.0517 12.5993 870 106.96 805.238 468.74
375 0 71.1033 11.7575 836 109.78 806.215 466.256
376 0 73.0586 11.7029 855 109.042 805.743 467.598
377 0 77.042 12.4997 963 106.835 805.929 465.637
378 0 78.0431 11.8652 926 108.423 805.757 462.659
379 0 83.178 11.6016 965 108.466 805.403 461.692
380 0 85.1469 12.5078 1065 106.528 804.808 460.945
381 1 44.0299 9.60712 423 103.021 805.681 482.352
382 0 44.0223 9.65419 425 102.172 805.4 481.205
383 0 46.1036 11.062 510 96.4098 804.008 481.2
384 0 47.0572 11.3692 535 97.3495 805.617 481.065
385 0 50.0593 11.7261 587 96.9693 806.249 480.533
386 0 51.0186 11.0744 565 97.8761 805.866 478.844
387 0 53.0669 12.6444 671 94.1505 806.107 478.289
388 0 53.1097 12.2577 651 96.318 806.068 476.998
389 0 55.1324 10.375 572 100.617 805.809 475.063
390 0 55.0897 11.9078 656 98.5366 804.887 477.314
391 0 60.0803 12.3168 740 95.9162 805.795 475.277
392 0 59.0217 11.9956 708 98.2966 805.048 474.921
393 0 61.1074 12.3062 752 98.0279 805.07 471.815
394 0 63.0914 13.6944 864 95.9722 805.559 471.214
395 0 65.0684 12.7712 831 97.7894 805.309 469.998
396 0 69.0951 13.1413 908 96.7004 805.753 470.95
397 0 70.1075 11.7676 825 100.823 805.688 468.446
398 0 73.1303 13.1409 961 98.0021 804.978 467.19
399 0 75.1197 12.4867 938 99.548 806.27 466.106
400 0 77.2932 11.7216 906 101.138 806.061 466.058
401 0 80.038 11.0198 882 102.566 805.283 465.329
402 1 42.0325 11.5625 486 99.7572 803.732 483.858
403 0 43.018 10.0655 433 100.4 803.229 484.083
404 0 44.0209 11.4718 505 98.3327 804.883 483.073
405 0 45.0206 11.6613 525 96 804.225 481.884
406 0 46.0144 11.4312 526 96.5913 804.586 480.276
407 0 49.0324 11.1559 547 96.6618 803.892 480.667
408 0 50.0482 12.1483 608 95.6628 804.14 480.676
409 0 50.1008 10.2194 512 100.348 804.02 478.17
410 0 53.0688 12.8136 680 94.4794 804.932 477.007
411 0 53.086 11.7734 625 97.4496 804.429 478.406
412 0 52.0518 11.0467 575 100.216 803.92 476.249
413 0 58.0784 12.9997 755 95.192 804.354 475.924
414 0 57.0546 11.7607 671 99.4754 805.474 474.523
415 0 60.0643 11.1048 667 101.214 805.337 475.115
416 0 61.0809 10.9854 671 102.323 805.69 475.359
417 0 62.0715 12.1312 753 101.663 805.874 471.964
418 0 66.0438 11.5681 764 102.965 805.914 472.479
419 0 68.0559 12.2399 833 102.053 805.645 472.222
420 0 67.0209 10.6086 711 108.136 805.885 469.353
421 0 72.0552 11.1442 803 107.245 805.041 468.741
422 0 75.1275 12.3923 931 104.586 805.592 468.292
423 0 76.0226 12.3647 940 105.794 805.574 466.09
424 0 82.1082 11.9111 978 106.115 805.325 468.125
425 0 83.128 11.8372 984 107.698 804.767 464.386
426 0 84.1321 11.4938 967 110.614 804.897 462.157
427 0 89.1097 11.6037 1034 110.676 805.025 461.377
428 0 91.0699 11.6833 1064 111.386 805.35 460.036
429 1 46.0506 10.9879 506 107.844 804.919 481.115
430 0 47.021 11.782 554 103.565 806.408 480.924
431 0 49.029 11.6462 571 103.622 806.156 480.764
432 0 52.0429 11.1639 581 103.916 805.551 480.635
433 0 53.0488 12.0078 637 103.242 804.046 478.03
434 0 54.059 11.099 600 106.348 804.348 478.718
435 0 54.0307 11.1788 604 106.982 804.778 477.503
436 0 56.0411 11.9734 671 105.438 804.633 478.809
437 0 57.0875 12.0692 689 107.025 803.827 476.98
438 0 59.0596 11.8016 697 108.755 803.878 475
439 0 61.0292 12.1254 740 107.42 803.992 476.131
440 0 64.0487 12.1938 781 107.52 803.428 474.364
441 0 67.1072 12.6812 851 105.729 803.932 473.239
442 0 67.1013 12.9804 871 106.757 803.555 472.397
443 0 68.1569 11.4735 782 111.343 804.037 471.254
444 0 72.0663 13.89 1001 105.74 803.427 469.19
445 0 73.0651 11.1681 816 114.316 803.741 470.089
446 0 75.0903 12.5715 944 111.296 803.672 469.819
447 0 77.1956 12.6173 974 112.305 803.743 466.436
448 0 79.1859 12.338 977 113.703 804.147 466.401
449 0 82.2216 13.0866 1076 111.604 803.839 463.881
450 0 86.2356 12.2455 1056 113.709 804.419 462.848
451 0 88.1632 12.2387 1079 114.276 804.457 461.786
452 0 90.1638 12.7657 1151 112.889 803.472 461.723
453 0 95.2352 13.1674 1254 113.003 804.814 458.91
454 1 51.1392 11.3611 581 114.713 804.671 479.1
455 0 54.1182 11.9553 647 114.556 804.709 477.414
456 0 55.0848 11.7455 647 115.842 804.294 476.853
457 0 57.0826 12.2279 698 113.933 804.219 478.222
458 0 57.0526 11.6384 664 117.783 804.423 474.574
459 0 60.0236 12.5784 755 115.167 804.277 474.221
460 0 60.0538 11.2399 675 119.428 803.558 474.003
461 0 63.0662 12.3997 782 116.701 804.189 471.916
462 0 63.0661 12.479 787 145.719 805.179 471.987
463 0 65.1455 11.1289 725 112.968 804.353 473.713
464 0 64.1868 10.0488 645 113.443 805.053 471.234
465 0 70.0388 11.565 810 109.021 804.97 472.962
466 0 72.0847 12.5408 904 109.256 806.306 467.206
467 0 73.0742 11.3173 827 110.933 805.765 467.635
468 0 76.1117 10.9707 835 112.612 805.86 466.017
469 0 78.09 12.1783 951 110.656 805.07 462.537
470 0 81.042 10.9943 891 113.065 804.633 464.971
471 0 85.156 12.2129 1040 111.158 805.512 460.735
472 0 88.0678 11.8091 1040 113.001 804.876 460.5
473 0 91.0973 11.6908 1065 113.635 805.569 458.847
474 0 93.0687 11.9267 1110 114.729 805.648 458.341
475 0 98.1759 12.2026 1198 115.851 805.818 456.983
476 1 53.0431 12.0657 640 112.091 806.103 477.558
477 0 56.1463 11.2029 629 115.687 805.019 476.822
478 0 57.1672 11.7025 669 116.274 804.901 475.435
479 0 58.0486 12.9891 754 111.008 806.119 476.3
480 0 59.0496 12.3964 732 113.154 805.234 475.663
481 0 63.0959 14.2799 901 108.539 804.814 473.717
482 0 63.1176 12.5955 795 113.908 804.996 473.27
483 0 65.1227 12.4227 809 114.152 805.97 470.664
484 0 68.1775 11.6314 793 115.992 805.428 471.718
485 0 71.0522 12.343 877 114.926 805.04 469.972
486 0 73.2183 11.5545 846 117.74 804.709 468.982
487 0 77.0624 13.1192 1011 114.654 805.512 467.055
488 0 78.1581 13.4599 1052 114.171 805.321 464.875
489 0 81.1731 12.5904 1022 115.971 805.63 466.091
490 0 83.1437 12.6047 1048 117.636 804.983 462.893
491 0 89.1162 13.9032 1239 112.68 805.255 461.918
492 0 90.1396 13.7897 1243 114.774 804.945 459.843
493 0 91.0747 12.7148 1158 117.547 805.166 459.328
494 0 95.1649 13.4503 1280 115.896 805.034 456.627
495 0 95.2027 12.5207 1192 119.237 805.524 454.354
496 0 99.307 12.6779 1259 117.722 805.454 454.82
497 0 101.156 11.8332 1197 120.955 803.96 451.451
498 0 105.16 12.5904 1324 118.413 803.6 453.168
499 0 106.151 11.7851 1251 121.57 804.44 446.208
500 0 113.161 13.9359 1577 119.166 804.729 445.653
501 0 115.19 12.7615 1470 126.322 805.218 443.607
502 1 59.08 11.0697 654 125.566 804.74 474.532
503 0 60.0858 11.2839 678 127.23 804.593 472.996
504 0 63.1878 12.7556 806 122.588 805.588 472.886
505 0 64.0542 12.5363 803 120.02 804.481 469.115
506 0 65.0386 11.7315 763 124.273 803.554 467.623
507 0 66.0299 12.1763 804 123.391 804.129 466.59
508 0 68.1278 13.3132 907 119.374 804.601 471.047
509 0 71.1657 12.3374 878 123.223 804.387 469.064
510 0 72.1422 12.6694 914 122.186 804.199 470.643
511 0 77.1329 12.6405 975 122.006 804.414 469.089
512 0 77.0973 11.9978 925 121.998 804.278 466.23
513 0 80.0493 13.0295 1043 119.176 804.354 465.101
514 0 80.1438 12.1532 974 126.241 804.818 464.482
515 0 86.1171 12.8662 1108 122.814 804.381 463.477
516 0 86.0657 13.0482 1123 124.386 803.72 462.259
517 0 90.1153 12.8613 1159 123.702 804.889 460.543
518 0 93.1793 12.9428 1206 122.468 803.973 458.852
519 0 96.0639 12.45 1196 123.229 804.179 457.906
520 0 99.0627 12.699 1258 123.801 804.844 455.254
521 1 54.1379 11.7293 635 124.841 803.057 477.935
522 0 55.1066 12.376 682 120.029 802.933 479.067
523 0 55.1252 10.9569 604 125.225 804.088 477.248
524 0 55.0596 12.0415 663 122.893 803.285 476.487
525 0 58.0799 11.3809 661 124.876 803.669 475.929
526 0 60.0672 11.6037 697 123.614 803.491 475.501
527 0 63.0826 12.8562 811 119.925 802.803 472.974
528 0 66.0451 11.6587 770 121.242 803.351 473.819
529 0 67.0375 12.1126 812 121.305 803.56 471.748
530 0 70.1025 13.252 929 118.192 804.121 471.34
531 0 70.0897 12.484 875 120.913 803.792 471.474
532 0 74.1881 12.2661 910 120.802 804.221 470.429
533 0 77.2557 12.3615 955 120.807 804.374 469.609
534 0 77.1028 11.997 925 123.065 804.043 469.223
535 0 79.1098 11.4398 905 126.235 804.147 465.74
536 0 83.1028 13.0922 1088 121.64 804.02 464.431
537 0 85.2653 12.0565 1028 125.26 804.361 463.194
538 0 87.104 12.4105 1081 126.591 804.336 461.221
539 0 89.0739 12.2483 1091 128.007 803.87 458.423
540 0 93.1828 12.6418 1178 127.502 804.241 459.659
541 0 95.2055 12.0266 1145 129.67 803.983 458.666
542 0 99.1922 14.3358 1422 124.572 804.163 455.554
543 0 102.348 13.5812 1390 126.876 804.242 453.267
544 1 55.148 11.4601 632 126.449 803.334 471.684
545 0 57.0838 11.159 637 126.096 803.986 470.783
546 0 59.146 12.0718 714 120.847 803.931 469.44
547 0 63.0645 10.6399 671 128.06 805.191 472.453
548 0 65.1123 12.7779 832 127.393 804.025 471.05
549 0 69.1537 12.3493 854 126.69 805.188 472.864
550 0 72.0804 12.3751 892 127.37 804.814 471.332
551 0 72.077 12.0288 867 130.253 804.27 468.413
552 0 75.221 12.8289 965 128.236 804.716 466.236
553 0 77.1123 12.3845 955 130.456 804.404 466.705
554 0 78.0906 12.2806 959 132.3 804.28 466.498
555 0 81.143 11.8063 958 134.758 804.001 461.982
556 0 85.1726 13.5959 1158 130.212 805.208 461.495
557 0 88.1503 12.1611 1072 135.304 804.801 462.283
558 0 91.2493 13.5124 1233 132.448 804.361 459.745
559 0 93.2458 12.2365 1141 137.445 803.799 458.451
560 0 97.2861 13.3215 1296 134.306 804.563 456.17
561 0 101.303 13.8594 1404 134.072 804.19 454.204
562 0 103.359 13.1774 1362 137.373 803.16 452.2
563 0 107.377 13.3362 1432 137.619 803.736 449.929
564 1 57.0575 11.5322 658 130.444 803.161 474.562
565 0 58.1534 12.0199 699 128.897 802.778 473.751
566 0 61.1758 12.3578 756 131.175 804.997 476.569
567 0 60.2272 11.7389 707 134.378 804.806 476.859
568 0 63.1678 12.3164 778 133.108 805.671 475.929
569 0 67.2595 12.816 862 131.059 805.035 473.087
570 0 69.1767 13.8052 955 129.142 805.165 471.503
571 0 70.209 12.5483 881 132.17 804.802 472.531
572 0 72.2281 12.6405 913 132.266 805.218 471.079
573 0 74.1032 12.1857 903 132.38 805.268 470.238
574 0 75.1713 12.3185 926 133.313 805.315 467.879
575 0 77.2313 11.3037 873 134.483 805.706 466.773
576 0 80.1726 11.7871 945 132.786 805.644 465.615
577 0 82.131 13.0401 1071 129.407 804.97 464.406
578 0 83.0654 11.7137 973 133.494 805.222 463.774
579 0 86.125 12.2148 1052 131.727 805.187 461.944
580 0 88.2014 12.154 1072 133.365 805.548 459.738
581 0 94.0996 11.8917 1119 133.727 805.016 458.573
582 1 48.0763 10.2129 491 124.697 805.24 482.707
583 0 49.0266 11.4224 560 123.561 805.05 480.916
584 0 50.0325 10.693 535 126.68 805.662 480.882
585 0 52.0514 11.5271 600 121.715 805.508 481.082
586 0 52.1383 12.4093 647 121.607 804.291 478.989
587 0 55.0939 11.9433 658 122.141 804.429 477.802
588 0 54.0732 11.4659 620 124.792 804.64 478.324
589 0 57.0324 12.5192 714 122.503 805.476 477.021
590 0 58.1268 12.3351 717 122.702 803.639 475.607
591 0 62.0704 11.9703 743 122.775 804.521 475.102
592 0 63.0731 13.3971 845 119.524 804.678 474.09
593 0 63.072 12.6839 800 122.698 804.872 472.151
594 0 67.1788 12.6677 851 121.136 804.722 474.226
595 0 69.0527 12.3094 850 123.319 804.145 472.979
596 0 71.132 12.8775 916 122.236 804.79 471.127
597 0 72.0639 12.9607 934 123.156 804.052 468.678
598 0 73.0793 12.3154 900 125.573 804.061 467.436
599 0 76.1158 12.1525 925 126.038 804.077 467.65
600 0 79.0889 13.744 1087 123.334 804.396 464.425
601 0 82.1343 12.9666 1065 125.044 804.609 463.671
602 1 43.0432 9.89704 426 131.803 803.232 483.498
603 0 45.0205 11.2393 506 128.877 802.767 482.107
604 0 48.0163 10.788 518 121.052 803.616 482.988
605 0 47.118 10.4631 493 124.037 804.304 481.026
606 0 48.033 11.846 569 121 803.968 482.657
607 0 50.0113 11.7773 589 122.343 804.287 481.82
608 0 53.0645 12.5319 665 118.992 803.821 480.717
609 0 53.0582 12.1565 645 121.324 804.27 481.487
610 0 55.0713 12.8561 708 119.996 803.469 478.088
611 0 55.1299 11.8085 651 124.166 804.151 478.608
612 0 58.1431 12.71 739 120.318 804.436 476.951
613 0 60.07 12.7019 763 119.992 803.802 478.662
614 0 60.0949 11.6482 700 125.006 804.547 476.78
615 0 62.0952 12.4969 776 122.994 804.411 475.202
616 0 65.1408 12.7416 830 122.672 804.581 475.139
617 0 65.0661 13.0329 848 123.577 804.39 473.908
618 0 69.0786 12.8549 888 122.542 804.282 472.761
619 0 71.0839 13.9272 990 119.067 803.737 469.891
620 0 73.065 11.784 861 126.56 804.41 469.462
621 0 76.0928 12.7213 968 124.287 805.26 467.409
622 0 78.1264 12.2366 956 130.674 804.653 466.048
623 0 80.0656 12.215 978 130.508 805.388 466.741
624 0 86.1404 11.9804 1032 129.056 804.45 464.484
625 0 88.0881 12.9302 1139 128.255 804.717 462.561
626 1 45.0352 10.3253 465 127.957 805.327 483.852
627 0 49.0422 10.8478 532 125.902 805.06 483.352
628 0 49.0565 11.2727 553 125.259 804.792 481.112
629 0 51.025 12.2685 626 122.829 803.677 480.559
630 0 52.1414 12.3894 646 122.587 804.587 481.252
631 0 54.0497 13.0806 707 120.887 803.648 480.638
632 0 55.0775 13.5809 748 120.578 804.136 477.949
633 0 57.0308 12.6949 724 124.273 804.517 478.568
634 0 59.0331 13.5009 797 121.368 804.066 476.378
635 0 60.0813 12.6995 763 123.758 804.115 477.246
636 0 62.0694 12.9049 801 123.718 804.697 475.303
637 0 62.0387 12.3149 764 125.654 804.26 473.927
638 0 67.0179 13.1607 882 120.467 802.949 473.248
639 0 68.0871 11.6028 790 126.8 804.177 471.984
640 0 70.0312 13.2512 928 121.839 804.427 471.99
641 0 70.0692 11.9882 840 127.164 803.412 470.757
642 0 75.09 13.1442 987 123.161 803.397 469.084
643 0 78.0722 12.8599 1004 123.345 804.686 468.315
644 0 79.083 12.6323 999 125.677 805.585 466.644
645 0 81.0952 11.4433 928 128.607 804.989 466.38
646 0 84.1427 12.1698 1024 126.649 804.892 464.376
647 1 47.0132 11.635 547 122.203 805.194 482.762
648 0 48.0178 12.6828 609 118.67 805.312 482.943
649 0 48.0577 10.6955 514 124.586 803.866 482.42
650 0 49.0495 10.5811 519 124.617 804.031 482.042
651 0 49.0729 10.7595 528 125.646 804.089 480.451
652 0 51.0508 11.4004 582 124.49 803.899 480.321
653 0 53.0701 11.9088 632 91.1282 804.886 481.217
654 0 55.0843 11.7638 648 123.466 805.696 477.329
655 0 57.0924 12.6462 722 121.893 805.526 477.737
656 0 59.0846 12.2705 725 123.652 806.175 477.193
657 0 58.1257 10.701 622 129.973 805.719 475.982
658 0 61.0988 11.5714 707 126.778 805.059 476.595
659 0 64.0648 11.7381 752 126.63 804.993 473.555
660 0 67.129 12.0216 807 125.066 804.796 473.152
661 0 69.138 12.0918 836 125.6 805.177 470.758
662 0 72.212 13.1557 950 121.865 804.773 469.612
663 0 74.1803 12.4966 927 122.727 804.689 468.336
664 0 76.1647 12.6305 962 121.605 805.449 467.359
665 0 79.0785 13.1135 1037 118.562 804.739 466.554
666 0 83.2474 11.1475 928 91.3093 805.607 466.569
667 0 83.0977 12.4552 1035 121.691 804.55 461.995
668 1 46.0149 10.5183 484 118.847 805.324 481.736
669 0 47.0182 9.9536 468 118.318 805.754 480.103
670 0 49.0261 12.5851 617 115.438 805.292 480.229
671 0 50.0771 12.5207 627 110.156 805.199 480.809
672 0 51.0566 11.9867 612 112.706 803.111 479.703
673 0 53.125 11.5388 613 113.982 802.938 480.44
674 0 52.0421 11.7981 614 116.751 803.8 481.204
675 0 55.0466 11.8627 653 115.424 803.784 479.59
676 0 58.0964 11.3948 662 116.116 803.314 478.494
677 0 60.0811 11.8839 714 115.751 803.053 477.406
678 0 61.0765 12.0177 734 115.902 803.086 477.119
679 0 60.0444 11.4748 689 119.139 803.245 475.714
680 0 62.0287 11.9461 741 116.467 802.835 476.321
681 0 64.1366 13.175 845 82.2225 802.678 475.266
682 0 69.0401 12.6593 874 114.738 802.579 473.644
683 0 70.0674 11.8886 833 116.834 803.211 472.405
684 0 70.1325 11.7349 823 119.355 803.146 469.243
685 0 75.0649 12.9221 970 114.724 803.571 469.679
686 0 76.1069 11.2605 857 119.58 802.809 468.701
687 0 79.0976 13.1483 1040 116.024 803.149 465.641
688 0 83.0582 12.5213 1040 115.89 802.533 467.405
689 0 86.0592 12.84 1105 115.539 803.04 464.753
690 0 88.1234 12.5846 1109 116.661 803.912 462.159
691 0 91.1192 12.566 1145 116.348 804.533 461.338
692 0 94.1322 11.9513 1125 116.921 804.236 459.652
693 1 49.1298 10.0957 496 118.347 804.948 480.244
694 0 52.0748 12.9237 673 109.874 804.667 479.141
695 0 55.0721 13.2009 727 108.028 804.56 478.849
696 0 56.1131 12.9203 725 108.2 804.394 478.505
697 0 57.1802 11.5599 661 111.669 804.215 477.138
698 0 59.0925 12.2012 721 110.698 804.39 476.492
699 0 61.052 12.3501 754 109.113 804.308 475.102
700 0 63.05 12.4187 783 107.6 804.683 474.636
701 0 65.0833 12.7068 827 106.832 805.046 472.678
702 0 68.0644 13.8104 940 103.496 805.104 471.326
703 0 69.0838 12.217 844 106.541 804.329 471.519
704 0 72.1126 12.7024 916 105.988 804.59 467.871
705 0 76.0935 12.6029 959 106.344 804.886 468.489
706 0 77.0807 12.8567 991 105.86 803.899 468.174
707 0 80.1167 12.9187 1035 106.639 804.46 466.091
708 0 84.2068 13.17 1109 105.91 804.375 463.473
709 0 86.0268 14.1584 1218 104.165 803.937 463.227
710 0 89.0811 12.6177 1124 107.722 803.96 460.433
711 0 92.0971 13.312 1226 107.042 804.414 458.006
712 0 95.1394 13.0125 1238 109.312 804.12 457.925
713 0 100.103 12.1875 1220 113.79 804.016 456.592
714 0 103.121 12.9848 1339 113.419 805.143 452.205
715 1 53.1568 10.3467 550 110.533 804.753 479.158
716 0 56.0356 11.5819 649 106.721 804.063 478.527
717 0 58.0836 12.3787 719 104.707 803.523 476.634
718 0 60.0421 11.2754 677 106.442 802.981 474.643
719 0 63.089 12.5061 789 103.625 803.378 473.553
720 0 65.0839 11.8309 770 104.768 803.831 472.371
721 0 68.0893 12.7186 866 101.987 804.136 471.846
722 0 69.0905 10.7395 742 105.818 804.031 470.547
723 0 71.1619 11.79 839 103.76 804.703 469.252
724 0 75.0548 10.5789 794 105.015 803.819 469.929
725 0 77.104 11.5558 891 104.099 803.345 465.114
726 0 80.1084 12.4581 998 103.291 803.264 464.406
727 0 85.0979 13.0908 1114 101.266 803.827 463.87
728 0 88.0997 11.9297 1051 104.651 803.804 462.897
729 0 90.1064 13.3176 1200 102.882 803.864 458.724
730 0 93.1369 11.9716 1115 105.484 804.191 458.113
731 0 94.0655 11.003 1035 108.656 804.119 458.365
732 0 99.1491 11.4676 1137 108.536 803.939 456.444
733 1 53.0184 13.0332 691 103.841 803.777 477.192
734 0 55.1 12.4864 688 105.557 804.814 479.14
735 0 56.1257 12.3829 695 106.852 805.298 478.636
736 0 58.0527 13.4705 782 104.751 804.62 475.196
737 0 61.1338 13.7404 840 102.231 804.825 476.707
738 0 62.0827 12.7733 793 106.267 804.972 474.858
739 0 63.1165 12.8493 811 107.152 804.654 474.837
740 0 66.1296 12.657 837 107.669 804.558 473.299
741 0 69.1341 12.3817 856 108.616 805.299 472.841
742 0 71.0987 12.4194 883 108.762 804.815 471.08
743 0 74.0658 13.11 971 107.567 805.024 471.762
744 0 76.1262 13.2937 1012 109.153 805.497 469.516
745 0 78.0946 14.0471 1097 109.247 805.737 467.491
746 0 80.0763 12.2508 981 114.604 805.486 466.587
747 0 84.0767 14.0229 1179 111.68 805.096 464.892
748 0 86.2192 13.2221 1140 114.168 804.208 465.085
749 0 89.1855 12.872 1148 116.749 804.378 460.977
750 0 93.1288 13.927 1297 113.364 804.177 460.057
751 0 93.1929 11.9752 1116 121.074 804.512 457.256
752 0 98.1504 12.328 1210 118.736 804.464 453.636
753 1 50.0354 10.9922 550 114.682 805.573 476.667
754 0 51.0541 10.8904 556 114.077 805.281 473.014
755 0 56.0277 13.3148 746 114.288 804.685 477.791
756 0 57.095 12.2953 702 116.761 805.91 476.375
757 0 59.065 12.1392 717 117.126 805.322 475.555
758 0 60.1151 13.3078 800 114.565 804.649 474.091
759 0 62.1155 12.5412 779 115.076 805.489 473.66
760 0 63.0596 11.8142 745 117.826 805.087 474.405
761 0 65.1283 12.6212 822 114.681 805.19 472.781
762 0 69.0628 13.7701 951 112.013 804.691 470.812
763 0 70.0742 12.9577 908 113.849 804.578 469.351
764 0 72.1354 12.4211 896 116.03 804.448 468.915
765 0 73.118 13.0064 951 114.364 804.566 468.188
766 0 78.0985 13.6622 1067 111.963 804.271 467.778
767 0 76.0617 11.6616 887 113.627 804.656 466.327
768 0 81.0423 13.1783 1068 110.178 804.58 466.261
769 0 84.2231 13.4405 1132 110.064 804.806 462.617
770 0 85.0864 12.3757 1053 112.119 805.11 465.63
771 0 90.1083 13.2729 1196 112.316 805.022 460.911
772 0 92.109 11.367 1047 115.85 805.262 460.151
773 0 95.0722 13.3898 1273 112.914 805.196 457.55
774 0 100.074 13.8897 1390 111.134 805.361 456.718
775 1 47.0225 10.3355 486 113.056 805.492 480.611
776 0 51.0536 11.7915 602 108.169 804.606 480.131
777 0 51.0521 11.3022 577 111.213 806.146 479.168
778 0 53.1714 12.1494 646 103.031 805.847 480.13
779 0 55.1602 11.5119 635 104.294 805.521 479.85
780 0 56.0816 12.6958 712 102.052 805.678 477.402
781 0 56.1519 11.9675 672 104.884 805.46 477.503
782 0 58.1384 11.6618 678 105.771 805.289 476.912
783 0 60.1391 12.0387 724 105.789 805.327 475.815
784 0 62.1021 12.3989 770 104.923 805.342 474.265
785 0 64.056 11.0216 706 108.861 805.872 474.045
786 0 65.1007 12.3962 807 106.993 806.092 472.866
787 0 68.0545 12.5194 852 107.45 804.705 472.319
788 0 69.0848 12.5643 868 107.728 805.143 470.878
789 0 72.08 12.5832 907 108.214 805.443 470.275
790 0 75.1387 13.0426 980 107.345 804.796 467.601
791 0 77.055 12.3159 949 110.492 804.916 466.846
792 0 79.1266 12.5369 992 111.75 804.922 467.366
793 0 81.1405 12.1394 985 114.939 804.547 464.274
794 0 86.1506 12.9773 1118 112.132 804.383 464.164
795 0 88.2009 12.8003 1129 113.87 805.49 462.021
796 1 45.0107 11.0862 499 116.361 804.798 483.968
797 0 45.1262 11.2352 507 117.957 804.534 484.483
798 0 47.0426 11.5002 541 119.66 804.784 482.176
799 0 49.077 11.5737 568 111.444 804.484 482.692
800 0 48.0326 11.4297 549 114.115 804.825 482.882
801 0 51.0999 11.1938 572 115.287 804.685 478.664
802 0 52.0483 11.0474 575 116.177 804.659 480.955
803 0 53.0912 11.5462 613 115.881 805.462 479.713
804 0 56.0474 12.2396 686 114.499 805.166 478.64
805 0 56.0489 11.8468 664 117.614 804.13 477.238
806 0 60.0645 12.753 766 114.728 804.47 477.376
807 0 62.0636 12.0038 745 116.106 804.83 476.545
808 0 63.0499 12.0381 759 116.954 804.332 475.602
809 0 65.0393 12.3618 804 117.633 805.516 474.328
810 0 68.0729 13.3827 911 114.842 804.707 473.931
811 0 71.1036 13.2905 945 113.771 805.622 473.094
812 0 71.1185 12.2331 870 117.856 804.858 473.024
813 0 74.0961 12.6862 940 117.141 804.165 469.239
814 0 78.0933 14.3034 1117 113.575 804.884 469.354
815 0 81.0344 13.7843 1117 115.462 804.954 468.621
816 0 83.0993 13.4177 1115 117.083 805.132 466.351
817 0 84.0688 12.4422 1046 119.658 803.867 467.316
818 0 86.0312 12.5652 1081 121.128 804.015 465.263
819 0 92.0906 12.8678 1185 118.284 804.191 464.238
820 1 47.0607 12.0908 569 122.443 803.998 484.077
821 0 51.0323 12.3059 628 121.53 804.954 481.487
822 0 51.0106 11.8995 607 126.516 803.204 481.555
823 0 53.046 12.7625 677 124.185 803.499 479.836
824 0 55.1178 12.8996 711 122.612 802.837 480.965
825 0 57.0587 13.1093 748 123.572 803.692 479.123
826 0 58.026 13.5284 785 123.349 803.171 479.185
827 0 60.0777 13.3161 800 123.466 802.996 477.891
828 0 63.0737 13.5556 855 122.922 803.598 476.869
829 0 64.0804 12.7652 818 125.659 803.548 476.227
830 0 67.102 13.7403 922 123.517 802.913 474.8
831 0 68.0335 14.8015 1007 121.185 802.868 473.089
832 0 72.1225 13.6019 981 123.611 802.13 472.648
833 0 73.0322 13.008 950 126.374 803.505 472.314
834 0 75.0747 13.1869 990 127.045 802.84 469.274
835 0 79.0815 13.3407 1055 125.588 804.071 469.166
836 0 81.0631 12.5828 1020 126.775 803.526 466.583
837 0 84.0408 12.9461 1088 125.578 803.111 463.975
838 0 90.1102 13.9385 1256 122.243 802.975 464.204
839 1 45.0709 11.7371 529 121.871 803.82 485.372
840 0 45.0263 11.038 497 121.074 804.054 485.427
841 0 47.0151 13.9955 658 110.011 803.916 483.919
842 0 50.0218 12.6145 631 112.415 804.255 484.288
843 0 50.0535 12.6065 631 113.723 803.867 483.06
844 0 52.0597 12.7546 664 111.794 803.518 483.572
845 0 55.138 12.9131 712 110.801 803.146 482.633
846 0 55.096 13.5219 745 110.389 802.778 481.784
847 0 57.0879 12.9099 737 111.091 803.232 479.643
848 0 60.1278 13.2052 794 110.866 803.079 478.612
849 0 64.173 13.5104 867 107.752 802.63 476.96
850 0 65.0495 14.4659 941 106.092 803.596 476.34
851 0 66.0495 12.3998 819 107.109 802.994 473.882
852 0 67.0476 12.5135 839 106.814 803.269 474.229
853 0 71.1831 12.3765 881 106.837 803.324 472.219
854 0 74.0609 13.2729 983 105.32 803.652 472.473
855 0 76.1661 13.1948 1005 106.288 803.213 469.64
856 0 77.1332 12.5238 966 108.134 803.789 470.596
857 0 82.1897 14.3692 1181 104.248 804.021 468.72
858 1 43.0793 12.6743 546 111.218 804.015 486.571
859 0 45.0155 11.2184 505 114.586 803.859 487.137
860 0 48.0462 13.0707 628 112.739 803.946 484.078
861 0 48.114 13.1978 635 114.249 803.88 483.403
862 0 49.193 12.6441 622 116.299 804.664 484.24
863 0 51.1676 13.0942 670 114.697 803.494 483.616
864 0 53.1569 13.2626 705 113.789 804.298 482.278
865 0 55.0964 13.6125 750 114.149 804.467 480.561
866 0 57.1097 14.1307 807 113.046 804.395 480.751
867 0 58.07 13.1049 761 117.657 804.377 479.141
868 0 58.0555 12.4019 720 120.635 803.672 478.218
869 0 63.041 13.6895 863 116.956 804.543 478.214
870 0 63.0835 13.7754 869 118.32 803.791 476.787
871 0 66.1198 13.8234 914 119.09 804.057 474.268
872 0 70.207 13.9017 976 119.615 803.76 473.939
873 0 71.114 13.7104 975 122.572 803.921 472.707
874 0 74.1491 13.2301 981 125.373 804.732 469.279
875 0 78.0862 13.5491 1058 123.268 804.269 468.167
876 0 81.127 13.2755 1077 124.255 804.524 466.121
877 0 81.0946 12.8985 1046 126.151 804.118 466.908
878 0 86.1753 13.4145 1156 124.254 804.513 465.281
879 0 87.1816 13.535 1180 125.126 803.419 463.433
880 0 91.2504 12.8876 1176 126.961 803.891 461.078
881 1 49.2212 13.7136 675 122.324 803.471 481.775
882 0 48.0727 12.7931 615 126.896 803.213 482.446
883 0 50.0876 12.9773 650 127.862 803.728 480.743
884 0 53.0721 15.8464 841 117.913 804.861 481.366
885 0 55.0816 13.9793 770 123.94 803.904 479.63
886 0 54.0636 14.7419 797 138.506 803.851 479.215
887 0 56.0288 14.4212 808 126.373 803.219 477.869
888 0 57.0728 13.3689 763 129.817 803.661 476.38
889 0 63.0828 13.9024 877 125.051 803.034 475.925
890 0 65.0572 14.6179 951 122.404 803.233 474.857
891 0 66.0678 14.9997 991 121.932 804.074 474.878
892 0 70.0429 14.3626 1006 122.83 804.075 473.712
893 0 71.0681 13.4237 954 125.548 803.788 472.283
894 0 73.0764 14.5327 1062 123.192 803.928 468.188
895 0 76.0966 13.7063 1043 125.135 804.079 469.547
896 0 80.0823 15.0595 1206 121.642 804.004 468.015
897 0 83.0612 13.7128 1139 125.457 803.714 465.868
898 0 86.0847 13.5913 1170 125.776 803.594 464.918
899 0 89.1078 14.6676 1307 124.496 803.386 461.44
900 0 93.0981 16.2194 1510 120.278 803.267 459.716
901 1 50.0791 12.4403 623 124.175 803.432 481.831
902 0 49.1026 13.9504 685 125.394 804.388 481.48
903 0 52.0725 12.2137 636 115.715 804.104 481.403
904 0 52.0509 12.6223 657 116.499 804.374 478.772
905 0 54.0226 13.4203 725 117.731 804.499 479.966
906 0 57.0483 13.3571 762 116.927 804.3 479.861
907 0 59.0495 14.7334 870 114.239 804.055 477.709
908 0 61.0523 12.8578 785 119.814 803.968 477.524
909 0 63.0369 14.6581 924 115.354 803.799 476.153
910 0 64.0449 13.0065 833 118.882 804.642 476.557
911 0 69.0292 13.8347 955 114.947 804.34 476.021
912 0 70.0446 13.4771 944 115.486 803.946 475.31
913 0 74.023 13.5633 1004 115.54 803.216 471.345
914 0 76.0368 13.3356 1014 115.958 803.643 469.711
915 0 78.0894 13.5998 1062 114.669 804.186 470.157
916 0 80.074 14.4616 1158 113.196 803.271 468.813
917 0 83.0541 14.1354 1174 113.397 803.606 466.317
918 0 85.0342 13.23 1125 115.972 803.272 465.293
919 0 89.0943 13.9515 1243 112.344 803.891 465.916
920 0 91.0927 12.1085 1103 115.969 803.155 463.716
921 0 93.1166 11.8024 1099 117.241 803.781 460.339
922 0 100.233 12.3313 1236 117.233 803.742 459.323
923 1 53.0321 12.087 641 112.88 803.828 481.594
924 0 55.0602 13.24 729 111.646 803.466 479.689
925 0 53.0755 12.096 642 113.514 803.388 480.425
926 0 58.0822 13.808 802 109.158 802.511 477.545
927 0 58.0606 12.6075 732 112.156 802.583 477.831
928 0 62.1193 11.8643 737 113.609 803.099 477.008
929 0 64.0807 13.8107 885 110.097 803.485 473.362
930 0 66.0852 12.0602 797 111.2 803.294 474.778
931 0 71.0482 12.0482 856 111.848 803.196 473.188
932 0 72.0632 12.378 892 111.197 802.917 472.846
933 0 75.0649 13.2285 993 110.313 803.605 469.539
934 0 78.0723 12.9367 1010 110.922 803.402 469.015
935 0 82.1233 13.2605 1089 110.566 803.525 467.15
936 0 82.2992 12.9041 1062 113.226 804.32 464.732
937 0 88.0965 13.2241 1165 111.622 803.941 464.621
938 0 89.043 11.9044 1060 116.839 803.749 461.884
939 0 94.0983 13.3796 1259 114.11 803.819 457.663
940 1 51.0301 11.9929 612 111.869 803.926 481.868
941 0 51.0612 10.8106 552 120.393 803.67 480.703
942 0 54.0329 11.8817 642 112.005 803.952 481.46
943 0 55.0674 12.748 702 112.464 803.444 478.868
944 0 58.065 12.6582 735 112.763 803.737 476.88
945 0 58.067 12.9506 752 111.957 804.06 475.698
946 0 63.0723 11.6216 733 114.84 803.89 474.816
947 0 64.0604 12.5663 805 113.304 804.39 473.133
948 0 67.0669 12.9125 866 113.572 803.927 472.231
949 0 70.0959 12.7112 891 114.371 804.22 472.343
950 0 72.0889 13.1227 946 114.518 804.063 470.31
951 0 73.0535 13.2506 968 115.305 804.188 469.737
952 0 77.0376 13.7725 1061 115.054 803.682 467.802
953 0 79.0434 13.4863 1066 115.409 803.483 467.918
954 0 82.0541 13.6617 1121 116.258 803.958 465.327
955 0 85.1092 12.3253 1049 120.482 803.809 462.994
956 0 87.2743 12.5352 1094 120.465 804.352 462.811
957 0 92.3278 13.7337 1268 119.038 803.659 458.47
958 0 95.2842 13.7064 1306 119.159 804.155 459.488
959 0 97.0622 13.2389 1285 126.526 803.959 457.067
960 0 102.264 14.5506 1488 123.425 803.251 453.192
961 1 53.1493 11.4207 607 120.776 803.825 478.493
962 0 53.2837 11.2229 598 121.918 803.485 475.278
963 0 57.1376 12.1811 696 119.524 804.092 477.131
964 0 59.0989 13.3844 791 117.33 804.482 478.329
965 0 61.0872 12.6377 772 121.852 804.285 475.615
966 0 64.0856 12.3117 789 122.573 804.195 473.503
967 0 65.2109 12.4366 811 122.525 804.155 473.721
968 0 68.1598 12.7788 871 122.201 803.817 471.794
969 0 71.1793 13.4168 955 120.841 803.608 469.072
970 0 73.2602 11.7117 858 124.42 804.589 469.991
971 0 75.3063 13.3322 1004 121.101 803.654 465.972
972 0 79.192 14.7111 1165 115.807 803.676 466.31
973 0 80.3422 13.2185 1062 121.149 804.167 462.972
974 0 84.2087 14.1197 1189 117.209 804.065 462.402
975 0 87.2594 12.9728 1132 119.31 804.284 461.646
976 0 91.3233 13.6438 1246 118.23 804.21 458.002
977 0 94.2509 13.0291 1228 119.456 804.459 458.317
978 0 96.3897 12.6258 1217 120.901 804.685 457.254
979 0 101.325 13.1556 1333 118.08 804.42 452.383
980 1 52.122 11.6457 607 115.458 804.502 476.54
981 0 55.1441 11.1526 615 115.727 804.668 477.294
982 0 56.0803 12.2146 685 114.747 805.019 476.33
983 0 57.1153 12.6061 720 115.147 804.365 475.251
984 0 61.2236 12.0542 738 114.14 804.721 475.327
985 0 62.2843 12.4429 775 115.241 804.348 473.129
986 0 63.1058 13.0099 821 114.503 804.949 473.298
987 0 65.1575 13.4443 876 113.775 804.773 471.455
988 0 67.0935 13.5482 909 113.527 804.502 471.443
989 0 70.0969 12.7538 894 115.959 804.563 468.282
990 0 71.035 12.9373 919 116.444 804.68 466.66
991 0 76.2158 13.6848 1043 115.278 804.85 467.765
992 0 77.0973 13.3727 1031 117.349 805.009 464.693
993 0 81.1676 13.4044 1088 116.089 805.46 464.245
994 0 84.0616 13.2879 1117 115.883 804.37 462.748
995 0 86.2048 13.7347 1184 114.961 804.475 460.581
996 0 89.0563 13.3286 1187 115.158 804.617 459.414
997 0 93.1294 12.5739 1171 116.121 804.817 458.918
998 0 95.1951 13.0994 1247 116.155 804.277 453.889
999 0 98.1594 12.3982 1217 117.057 804.501 455.133
1000 1 52.1113 12.1663 634 109.158 805.497 477.364
1001 0 53.1025 11.3366 602 110.85 804.992 477.299
1002 0 56.0772 12.4293 697 106.925 804.422 477.69
1003 0 58.0473 13.1789 765 105.593 804.307 474.787
1004 0 59.0493 12.1932 720 107.358 803.388 475.596
1005 0 61.092 12.0965 739 108.972 804.023 473.283
1006 0 63.1372 11.6571 736 110.019 803.846 471.692
1007 0 65.1319 12.1599 792 109.091 804.606 468.865
1008 0 68.0603 12.4889 850 108.131 803.919 470.135
1009 0 70.0676 11.9884 840 109.6 805.4 468.726
1010 0 74.0795 13.7015 1015 105.345 803.885 467.566
1011 0 76.1862 14.4514 1101 104.821 804.1 466.279
1012 0 74.0924 13.0378 966 110.677 803.754 464.003
1013 0 80.1201 14.1662 1135 107.451 804.276 462.481
1014 0 84.0867 12.273 1032 111.341 803.58 461.147
1015 0 83.1208 11.8382 984 114.136 804.111 460.052
1016 0 89.1656 14.4002 1284 107.889 803.468 456.727
1017 0 91.1098 13.6319 1242 110.395 804.2 456.688
1018 0 93.1738 13.1475 1225 112.598 803.709 455.02
1019 0 96.3193 14.1716 1365 110.793 804.289 453.003
1020 0 98.1318 12.1164 1189 117.609 804.283 453.08
1021 0 104.207 13.0606 1361 116.409 804.129 452.616
1022 1 57.0719 10.8635 620 116.142 804.473 475.669
1023 0 57.0495 11.3761 649 116.604 804.236 473.533
1024 0 60.0673 11.9033 715 114.972 804.4 473.341
1025 0 62.0426 13.3296 827 111.578 804.898 471.492
1026 0 62.2488 11.8556 738 117.274 804.005 470.649
1027 0 66.2294 13.3173 882 112.611 803.836 469.446
1028 0 68.1443 12.7377 868 113.695 803.942 469.831
1029 0 69.2521 12.0141 832 116.718 803.798 467.831
1030 0 73.16 13.5867 994 112.709 804.011 466.773
1031 0 75.157 13.5184 1016 113.639 804.305 465.262
1032 0 76.1674 13.8117 1052 113.543 804.987 464.826
1033 0 80.126 13.3789 1072 114.542 804.401 462.043
1034 0 83.2313 14.4777 1205 111.877 804.63 460.652
1035 0 86.2559 13.4368 1159 114.415 803.99 460.983
1036 0 88.2284 13.499 1191 115.476 804.016 456.787
1037 0 92.1767 13.4633 1241 116.345 804.428 455.138
1038 0 96.1499 12.6989 1221 117.368 804.535 455.173
1039 0 99.3667 12.7507 1267 119.009 804.099 452.226
1040 1 52.0887 10.9429 570 114.632 804.725 476.43
1041 0 54.1292 10.7336 581 116.484 805.556 476.157
1042 0 56.0773 12.9821 728 105.538 804.504 475.54
1043 0 57.1664 11.5977 663 107.929 804.899 474.629
1044 0 59.1646 11.2398 665 108.25 804.272 473.072
1045 0 61.0654 10.8081 660 108.961 804.635 473.944
1046 0 65.1134 11.9791 780 105.4 804.097 471.627
1047 0 67.0818 11.8065 792 106.836 804.539 470.439
1048 0 69.1174 12.5728 869 106.067 804.23 469.097
1049 0 72.0905 11.1804 806 108.772 804.406 467.945
1050 0 76.1108 12.1928 928 106.712 804.326 468.564
1051 0 78.0948 12.4592 973 107.321 803.617 465.84
1052 0 80.0962 13.6336 1092 106.313 802.76 465.962
1053 0 83.1298 12.4264 1033 108.793 803.036 463.947
1054 0 88.0897 13.0435 1149 106.054 803.212 462.48
1055 0 88.1765 12.543 1106 108.223 803.368 461.079
1056 0 93.0798 11.7319 1092 117.034 804.212 459.614
1057 0 95.0774 11.7483 1117 117.427 804.26 456.427
1058 1 51.0192 11.2311 573 108.143 804.127 480.609
1059 0 50.0675 10.4459 523 110.973 804.021 480.061
1060 0 54.121 13.0079 704 104.016 804.242 478.267
1061 0 56.0695 12.4667 699 105.674 803.886 476.788
1062 0 57.0918 11.4552 654 107.673 804.124 476.099
1063 0 60.0603 12.3543 742 105.518 804.233 475.373
1064 0 63.0574 12.4014 782 103.939 805.263 474.465
1065 0 65.1074 11.7191 763 106.127 804.679 472.933
1066 0 65.0645 12.6029 820 104.76 804.941 473.199
1067 0 68.1028 11.8204 805 105.481 804.672 471.421
1068 0 71.0875 11.732 834 108.353 805.167 470.483
1069 0 74.1146 12.4672 924 105.99 805.27 469.347
1070 0 74.0792 12.0007 889 108.423 804.73 466.452
1071 0 79.0253 12.1227 958 106.53 805.666 466.522
1072 0 82.1313 12.8453 1055 104.985 805.128 465.959
1073 0 83.1304 13.2683 1103 106.036 805.056 462.815
1074 0 84.0294 11.853 996 111.403 804.929 462.828
1075 0 90.167 12.5656 1133 109.687 804.582 463.475
1076 0 91.1743 12.0758 1101 113.6 804.699 458.901
1077 1 50.0777 12.1811 610 110.47 804.644 481.292
1078 0 50.2431 11.3249 569 114.251 804.415 480.749
1079 0 51.1652 13.1144 671 111.465 804.607 479.425
1080 0 52.0337 12.5111 651 111.562 805.201 478.464
1081 0 53.1219 12.2737 652 112.989 804.693 478.735
1082 0 57.0557 12.9172 737 110.704 804.818 478.243
1083 0 60.1035 13.8927 835 108.238 804.602 477.726
1084 0 60.073 13.2838 798 110.041 803.68 478.336
1085 0 61.0869 13.4562 822 111.489 804.577 474.269
1086 0 64.1376 13.8764 890 111.188 804.718 475.439
1087 0 66.0854 13.6188 900 112.193 804.696 475.032
1088 0 66.0871 12.9072 853 116.227 804.178 472.322
1089 0 66.1248 12.7486 843 118.636 804.733 471.346
1090 0 71.1966 14.2984 1018 113.073 804.792 471.836
1091 0 73.1364 14.1927 1038 113.645 804.452 471.228
1092 0 77.1019 14.3965 1110 112.85 804.129 469.673
1093 0 80.1606 13.9345 1117 115.248 803.674 468.51
1094 0 82.133 14.5618 1196 113.343 803.624 467.551
1095 0 83.1048 12.779 1062 119.313 803.438 466.843
1096 0 87.1362 13.4043 1168 116.977 804.076 465.667
1097 0 90.1333 13.358 1204 118.65 804.14 463.632
1098 1 47.063 13.2163 622 116.043 804.887 482.896
1099 0 46.1326 12.3557 570 122.223 804.14 482.963
1100 0 50.1141 13.5291 678 119.004 804.223 480.137
1101 0 49.1243 12.6617 622 122.778 804.283 479.722
1102 0 52.1034 12.1297 632 122.625 803.587 480.193
1103 0 52.036 12.4337 647 124.215 803.961 477.881
1104 0 56.1217 13.1856 740 120.311 803.292 477.632
1105 0 57.1865 12.3805 708 122.597 803.749 477.397
1106 0 58.0907 12.8076 744 122.508 803.817 475.364
1107 0 61.127 12.4986 764 122.096 804.332 476.233
1108 0 63.1277 12.2292 772 123.33 804.153 472.828
1109 0 64.1703 12.4668 800 122.668 804.214 473.222
1110 0 67.143 12.7042 853 121.764 804.136 473.31
1111 0 70.1497 12.9295 907 121.16 803.372 471.481
1112 0 71.1234 12.4432 885 124.09 803.838 468.31
1113 0 74.1163 11.9272 884 125.184 803.669 467.972
1114 0 78.1019 12.855 1004 121.573 803.904 467.651
1115 0 80.1313 13.0661 1047 122.23 804.011 466.197
1116 0 82.18 12.8012 1052 122.654 803.096 465.562
1117 0 86.1111 13.7265 1182 121.572 803.017 462.681
1118 0 88.1756 12.4297 1096 125.577 803.2 460.857
1119 1 48.0643 10.9021 524 121.439 802.613 481.941
1120 0 49.0326 11.1151 545 122.303 802.086 479.873
1121 0 50.0276 11.5936 580 121.274 802.572 480.484
1122 0 51.0202 12.2109 623 118.817 802.483 481.356
1123 0 52.0231 12.3022 640 120.684 802.22 479.728
1124 0 54.077 11.6316 629 121.957 802.048 477.472
1125 0 56.0248 13.4405 753 116.363 802.212 477.882
1126 0 56.0585 11.3453 636 115.332 802.854 476.582
1127 0 57.0343 10.8707 620 115.453 802.258 477.145
1128 0 60.0506 12.3562 742 112.422 802.185 474.239
1129 0 61.0511 10.5158 642 116.349 802.385 476.047
1130 0 65.0609 11.4047 742 113.693 802.139 473.934
1131 0 68.0903 12.7771 870 110.489 801.959 471.529
1132 0 70.0609 10.4338 731 112.309 802.222 474.77
1133 0 72.0472 9.57705 690 109.203 803.471 471.006
1134 0 75.1169 11.5287 866 107.246 803.67 467.789
1135 0 77.0527 11.1352 858 109.3 803.998 466.346
1136 0 81.1656 10.6572 865 109.195 803.827 465.808
1137 0 81.0992 11.6154 942 108.45 804.278 465.232
1138 0 84.1289 10.9237 919 111.144 803.894 460.446
1139 1 45.0444 11.6552 525 102.916 804.509 480.949
1140 0 47.0385 11.8839 559 103.091 803.206 480.998
1141 0 46.0229 11.0597 509 111.124 803.138 482.422
1142 0 50.0149 12.3763 619 107.347 803.09 481.375
1143 0 50.0296 11.5132 576 109.917 802.698 483.366
1144 0 52.0911 12.5165 652 108.414 802.336 481.977
1145 0 51.0881 10.1002 516 116.45 801.68 478.833
1146 0 54.0928 11.7021 633 113.234 801.613 480.022
1147 0 55.0916 11.0362 608 114.942 802.005 479.235
1148 0 55.044 12.0267 662 114.574 801.524 475.645
1149 0 59.0843 11.5428 682 114.05 801.535 477.229
1150 0 60.117 11.8436 712 113.999 801.197 477.216
1151 0 60.0314 11.8271 710 115.115 801.18 475.313
1152 0 63.0878 11.7297 740 115.126 801.846 473.388
1153 0 64.037 11.8057 756 114.742 801.52 471.817
1154 0 68.144 12.0333 820 114.398 801.511 471.791
1155 0 70.0353 12.4651 873 112.891 801.113 471.643
1156 0 72.1035 13.1616 949 111.96 802.174 468.956
1157 0 74.0416 12.8711 953 113.303 800.953 467.158
1158 0 78.042 13.339 1041 112.201 801.21 466.558
1159 0 81.116 13.4869 1094 112.221 801.171 465.69
1160 0 83.1572 13.1197 1091 116.108 801.531 462.989
1161 0 85.1566 13.3754 1139 117.86 801.05 462.729
1162 0 88.0473 13.7994 1215 117.749 801.28 459.884
1163 0 92.1483 14.4767 1334 115.918 801.633 458.9
1164 0 94.0786 13.5738 1277 118.377 801.47 458.485
1165 0 95.2497 13.5119 1287 118.772 802.044 455.282
1166 0 98.0748 12.2661 1203 122.725 801.206 455.623
1167 0 103.082 12.5143 1290 120.704 801.722 455.078
1168 0 106.165 12.7914 1358 120.824 801.781 447.571
1169 0 111.152 11.7856 1310 121.295 801.386 442.97
1170 0 115.244 11.7577 1355 113.723 802.345 440.864
1171 0 119.289 12.4404 1484 111.628 803.145 438.683
1172 1 63.1281 11.7222 740 103.978 803.111 473.295
1173 0 65.0962 12.0898 787 104.372 802.497 469.903
1174 0 67.1494 11.3478 762 106.538 802.768 470.209
1175 0 69.1441 11.787 815 106.119 802.58 469.002
1176 0 71.1812 11.6323 828 107.938 802.895 469.315
1177 0 74.1432 12.7186 943 107.384 803.779 465.525
1178 0 78.1325 11.9796 936 108.994 803.417 464.669
1179 0 78.1817 11.2814 882 112.38 803.046 464.228
1180 0 83.1564 11.4724 954 112.63 803.01 463.867
1181 0 85.1975 11.2562 959 114.839 803.368 461.873
1182 0 88.213 10.9848 969 114.877 803.274 462.569
1183 0 91.1224 10.8096 985 117.636 802.839 460.211
1184 0 93.1317 10.716 998 118.605 802.601 457.772
1185 1 52.1009 10.5756 551 109.142 803.109 479.479
1186 0 50.0725 9.62604 482 118.676 803.322 475.284
1187 0 54.0266 11.3833 615 116.2 803.61 474.659
1188 0 57.0182 10.8211 617 118.214 803.621 474.483
1189 0 58.0932 11.3094 657 117.245 803.998 473.097
1190 0 59.1018 11.844 700 117.391 803.819 470.714
1191 0 62.2082 10.6578 663 113.857 803.888 472.49
1192 0 65.144 11.3134 737 111.927 803.951 472.604
1193 0 66.1047 10.8464 717 114.474 803.683 469.874
1194 0 68.0982 10.6317 724 114.264 804.191 469.351
1195 0 72.1902 10.8602 784 114.356 804.306 468.526
1196 0 74.1829 12.3613 917 111.928 804.044 467.041
1197 0 77.1963 11.8011 911 115.494 803.896 466.093
1198 0 79.1218 11.3749 900 116.038 803.639 464.641
1199 0 81.1345 11.2899 916 117.118 803.557 464.087
1200 0 85.1536 11.9079 1014 117.547 803.314 463.69
1201 1 43.1134 10.6 457 117.72 803.477 484.044
1202 0 46.2324 10.2742 475 117.754 803.93 482.855
1203 0 48.1122 10.8912 524 116.174 803.364 484.156
1204 0 49.0914 12.0999 594 118.636 803.052 481.18
1205 0 49.087 11.7546 577 123.3 802.707 479.778
1206 0 51.072 11.9048 608 115.533 803.156 479.946
1207 0 53.0872 12.3382 655 114.449 802.889 480.495
1208 0 56.0376 11.9563 670 115.439 803.543 478.122
1209 0 58.0314 11.2353 652 117.952 803.29 477.661
1210 0 57.0867 12.0518 688 117.67 802.685 476.814
1211 0 59.0844 12.0336 711 116.574 803.094 476.15
1212 0 62.1016 12.6889 788 114.886 803.437 475.589
1213 0 64.1103 12.5409 804 116.078 802.532 473.789
1214 0 65.0935 11.952 778 115.895 802.608 471.866
1215 0 67.1066 12.9346 868 112.98 802.279 471.275
1216 0 68.0677 13.0165 886 113.916 802.579 470.133
1217 0 72.1568 13.7063 989 110.345 803.125 469.314
1218 0 72.0811 13.2767 957 113.137 802.916 470.531
1219 0 76.1489 13.316 1014 112.975 802.078 468.806
1220 0 79.0586 13.5469 1071 111.881 802.878 466.268
1221 0 78.133 12.1076 946 116.839 803.211 464.171
1222 0 80.115 11.7955 945 119.688 803.239 464.116
1223 0 86.1531 13.2903 1145 115.015 802.883 461.974
1224 0 87.141 11.5904 1010 119.739 803.127 460.093
1225 1 42.0339 9.94436 418 119.354 803.596 482.447
1226 0 45.0372 11.7903 531 114.038 803.808 482.757
1227 0 47.1634 10.8135 510 117.151 803.843 480.867
1228 0 48.3225 12.8512 621 112.113 803.689 477.535
1229 0 50.209 11.97 601 112.396 804.143 479.409
1230 0 51.1392 12.1042 619 111.646 803.683 476.538
1231 0 52.1407 11.8334 617 111.003 803.963 477.387
1232 0 55.1154 12.7006 700 108.194 803.883 475.746
1233 0 57.1718 13.1009 749 107.32 803.473 476.061
1234 0 57.1095 11.9945 685 109.289 804.21 474.273
1235 0 60.105 12.6945 763 107.688 803.651 474.127
1236 0 62.1214 13.8117 858 105.607 803.598 473.76
1237 0 63.118 12.1202 765 109.324 803.152 474.846
1238 0 66.096 14.4033 952 104.713 803.096 470.569
1239 0 67.1121 12.1737 817 111.632 803.368 470.608
1240 0 69.0614 11.9893 828 112.665 802.365 469.173
1241 0 72.0632 13.6408 983 109.817 802.876 469.631
1242 0 76.061 14.3043 1088 108.523 803 467.066
1243 0 78.0461 13.6586 1066 111.239 802.621 465.831
1244 0 80.0955 14.1206 1131 111.661 802.564 463.205
1245 0 82.1694 13.8008 1134 122.08 802.791 464.835
1246 0 85.3418 14.0142 1196 122.273 803.159 460.918
1247 0 88.1416 14.159 1248 123.216 802.886 461.345
1248 0 93.1639 14.4369 1345 122.6 803.308 457.938
1249 0 94.2283 12.7881 1205 128.154 802.846 457.292
1250 0 98.1446 12.8076 1257 121.898 801.508 454.118
1251 1 51.0387 12.853 656 121.992 800.573 477.296
1252 0 51.0213 13.8178 705 121.009 801.807 476.308
1253 0 55.0542 12.8419 707 122.481 802.011 475.413
1254 0 56.0607 13.9492 782 120.951 801.82 474.811
1255 0 57.0576 13.6879 781 121.773 802.142 473.627
1256 0 60.0728 13.6668 821 122.074 801.91 473.654
1257 0 63.0954 13.7728 869 121.562 801.879 471.306
1258 0 65.0358 13.0851 851 124.61 801.968 470.224
1259 0 68.0763 13.9402 949 122.891 801.952 468.841
1260 0 71.1016 14.4582 1028 123.731 801.66 466.535
1261 0 72.0458 14.0327 1011 125.649 801.412 466.806
1262 0 73.095 13.5851 993 128.372 801.346 465.156
1263 0 79.1461 14.7449 1167 123.147 801.977 463.033
1264 0 81.0591 14.6313 1186 123.487 802.212 462.006
1265 0 84.1555 15.6496 1317 120.601 801.451 463.705
1266 0 87.0636 15.1154 1316 122.559 801.865 459.718
1267 0 89.1486 14.302 1275 124.303 801.918 459.135
1268 0 92.0913 14.6702 1351 119.731 801.987 456.474
1269 0 93.2497 13.2118 1232 125.723 801.947 454.024
1270 0 100.127 15.2906 1531 117.632 801.413 453.086
1271 0 101.121 14.3293 1449 120.561 801.453 452.428
1272 1 49.0868 11.9991 589 115.284 801.394 478.11
1273 0 51.0838 12.0782 617 115.311 801.906 475.911
1274 0 54.0647 12.6145 682 111.842 802.147 476.394
1275 0 56.1012 12.5131 702 112.54 801.793 475.117
1276 0 58.0645 12.2794 713 112.76 801.884 475.062
1277 0 58.0725 12.536 728 114.048 801.706 471.841
1278 0 59.1117 10.9285 646 117.074 801.944 471.853
1279 0 64.1418 12.6594 812 110.845 801.722 472.021
1280 0 66.0758 11.7592 777 113.489 801.247 469.221
1281 0 66.0732 12.1078 800 113.301 802.396 467.319
1282 0 69.101 11.8088 816 113.191 802.146 468.654
1283 0 71.0835 11.2262 798 114.57 803.223 467.155
1284 0 72.1558 10.0754 727 117.21 802.776 466.9
1285 0 75.0621 11.0042 826 118.28 803.523 463.648
1286 0 78.1503 11.1964 875 123.771 802.473 463.686
1287 0 80.136 10.3324 828 125.865 802.007 462.568
1288 1 43.0198 11.6923 503 115.239 802.018 481.211
1289 0 43.0268 9.73812 419 120.714 802.508 481.446
1290 0 43.0309 9.66746 416 116.322 803.106 481.351
1291 0 46.0408 9.55673 440 114.38 804.12 478.807
1292 0 48.0359 11.533 554 110.3 804.265 477.926
1293 0 49.0711 11.5547 567 110.226 805.034 477.688
1294 0 52.0935 10.8075 563 111.769 804.144 477.43
1295 0 54.1275 11.2143 607 109.493 804.654 477.865
1296 0 54.0421 11.8056 638 110.31 804.033 475.306
1297 0 53.0175 11.3736 603 113.06 804.088 474.214
1298 0 56.0708 12.0384 675 110.652 803.182 474.314
1299 0 58.1099 11.1857 650 113.183 803.551 473.578
1300 0 58.1112 10.2906 598 116.627 803.308 475.6
1301 0 60.1024 10.7317 645 116.984 804.098 474.285
1302 0 61.0958 9.10046 556 120.171 803.518 475.12
1303 0 64.2197 9.66993 621 120.828 803.544 471.509
1304 0 67.1899 10.4182 700 119.684 804.177 471.61
1305 0 70.218 11.2649 791 118.018 803.74 470.681
1306 0 69.1326 10.111 699 124.455 803.434 469.675
1307 0 73.1023 12.0242 879 121.462 801.705 467.586
1308 0 74.1556 10.869 806 125.046 801.774 466.417
1309 0 79.083 11.1149 879 124.762 802.068 465.435
1310 0 81.1129 11.2929 916 125.825 801.428 462.684
1311 1 42.0693 9.67452 407 128.541 801.509 479.926
1312 0 46.0496 11.5528 532 118.669 803.273 480.804
1313 0 48.1114 10.8706 523 122.728 801.943 479.591
1314 0 46.0691 10.137 467 116.636 802.991 481.208
1315 0 48.0854 9.08799 437 118.469 803.22 482.22
1316 0 46.0304 9.2113 424 121.413 803.264 478.986
1317 0 51.0693 9.86894 504 117.486 803.119 479.01
1318 0 53.0417 9.80361 520 116.546 803.598 479.123
1319 0 52.0265 10.4562 544 116.893 803.428 479.002
1320 0 55.0606 11.1513 614 115.65 804.586 476.686
1321 0 56.0685 9.80943 550 118.984 803.073 476.731
1322 0 58.0494 9.92257 576 117.498 803.108 477.894
1323 0 57.0369 10.0812 575 121.005 802.946 474.903
1324 0 61.038 11.4683 700 117.43 802.697 472.076
1325 0 64.0078 11.2486 720 117.186 802.256 472.282
1326 0 64.0823 9.89353 634 121.29 802.746 472.77
1327 0 70.0497 10.7495 753 118.279 802.215 472.139
1328 0 71.1325 11.3872 810 119.314 801.333 471.564
1329 0 74.0513 10.7898 799 119.199 802.282 470.34
1330 0 76.1509 11.4509 872 117.657 801.946 466.987
1331 0 80.2335 11.6535 935 119.829 801.537 466.34
1332 0 84.3243 11.3728 959 121.166 802.186 463.826
1333 1 47.3001 11.2896 534 119.537 801.764 482.198
1334 0 44.2233 9.85906 436 126.97 802.206 478.972
1335 0 48.0587 13.5876 653 114.859 800.784 480.335
1336 0 48.077 11.5856 557 121.524 800.542 479.982
1337 0 50.057 12.9253 647 118.422 801.045 478.842
1338 0 52.1308 11.874 619 116.905 800.866 477.561
1339 0 53.1071 12.9738 689 115.065 800.02 477.287
1340 0 53.0676 11.6267 617 120.211 800.852 477.151
1341 0 54.0813 11.0204 596 122.431 802.372 479.307
1342 0 56.061 11.2556 631 124.146 800.815 476.437
1343 0 58.0374 12.4747 724 120.617 801.239 476.054
1344 0 59.0385 12.2293 722 122.053 800.874 474.902
1345 0 61.1453 12.2332 748 123.612 801.487 473.155
1346 0 62.0463 12.0394 747 123.89 801.186 474.404
1347 0 65.0609 12.6651 824 121.155 801.089 472.756
1348 0 67.0704 11.8085 792 124.347 802.206 471.652
1349 0 70.1223 12.25 859 120.411 802.333 470.655
1350 0 71.1233 11.8386 842 121.852 801.232 469.615
1351 0 75.1369 12.577 945 121.253 801.837 468.513
1352 0 76.0683 12.686 965 121.316 801.767 466.922
1353 0 79.1223 12.2595 970 121.808 801.798 466.166
1354 0 83.1584 12.0252 1000 121.918 802.005 465.403
1355 1 46.0618 10.0951 465 124.602 800.914 482.622
1356 0 47.0558 10.2857 484 125.269 800.585 478.746
1357 0 49.0226 12.0557 591 120.536 801.296 479.433
1358 0 50.0268 12.4533 623 113.239 801.441 479.183
1359 0 51.0589 12.6716 647 113.331 801.626 478.683
1360 0 52.0877 12.4214 647 114.805 801.598 477.835
1361 0 54.0771 11.5576 625 116.382 801.669 478.018
1362 0 57.0661 14.1941 810 109.658 801.431 476.217
1363 0 58.1144 11.9936 697 115.508 801.096 476.207
1364 0 59.1344 13.4101 793 112.581 801.066 476.55
1365 0 61.1059 13.6812 836 112.126 800.957 474.054
1366 0 63.1018 13.1692 831 114.332 801.687 472.894
1367 0 65.1266 12.1609 792 117.611 801.602 471.362
1368 0 67.0893 13.0423 875 116.19 800.974 470.255
1369 0 69.0562 12.4247 858 118.492 800.717 470.72
1370 0 71.0577 12.511 889 119.12 801.207 470.829
1371 0 74.1041 13.508 1001 117.214 801.23 467.941
1372 0 75.0714 13.0542 980 118.291 801.112 467.98
1373 0 79.0698 13.33 1054 117.296 801.926 466.139
1374 0 81.0904 13.5898 1102 117.457 801.529 463.708
1375 0 84.0774 12.7264 1070 119.403 801.449 464.317
1376 0 89.0882 14.0984 1256 114.416 801.293 463.228
1377 0 92.1685 13.6815 1261 115.577 801.982 461.576
1378 0 93.1027 13.3938 1247 115.937 801.224 459.91
1379 1 47.0679 11.664 549 123.271 800.729 480.2
1380 0 49.0318 12.0534 591 121.981 800.53 479.479
1381 0 51.0307 13.1097 669 120.23 800.714 478.132
1382 0 55.0567 13.2227 728 119.468 800.964 478.071
1383 0 55.0197 13.6315 750 119.865 801.003 477.245
1384 0 56.0458 11.5977 650 126.252 801.482 476.637
1385 0 57.0618 13.9673 797 119.343 801.084 477.289
1386 0 58.0419 13.2663 770 122.894 801.536 474.586
1387 0 62.064 13.1799 818 121.04 801.568 474.395
1388 0 62.0663 13.84 859 120.421 801.934 471.249
1389 0 65.1361 13.0035 847 123.384 802.281 470.769
1390 0 68.038 14.4331 982 118.148 802.072 472.118
1391 0 70.0331 13.4079 939 121.286 801.589 469.475
1392 0 74.0619 13.8938 1029 119.233 801.59 467.775
1393 0 76.0569 14.0553 1069 119.353 801.725 465.851
1394 0 77.0424 13.4212 1034 122.51 801.107 464.345
1395 0 78.0654 13.6168 1063 122.979 801.424 463.372
1396 0 83.0566 14.5202 1206 119.684 801.424 463.182
1397 0 86.0363 15.2377 1311 117.401 801.117 461.932
1398 0 87.0567 14.324 1247 121.92 801.553 459.476
1399 0 91.0956 15.1709 1382 118.942 801.324 458.161
1400 0 92.1263 14.339 1321 122.186 801.536 456.916
1401 0 94.1427 13.777 1297 123.949 801.642 455.343
1402 0 98.065 14.5822 1430 121.51 801.603 453.464
1403 0 101.122 14.527 1469 122.17 801.774 449.747
1404 0 105.115 14.7173 1547 120.856 800.939 449.685
1405 0 107.166 14.4356 1547 122.262 802.815 449.065
1406 0 113.214 15.0424 1703 120.8 802.816 443.244
1407 0 116.308 15.2354 1772 119.543 801.698 445.499
1408 1 62.0898 10.4526 649 123.763 803.962 472.052
1409 0 64.1501 11.4731 736 120.948 803.429 469.929
1410 0 66.0771 11.199 740 121.466 802.946 469.512
1411 0 69.3204 12.3485 856 122.77 802.405 467.523
1412 0 72.3209 12.0712 873 122.328 802.78 467.459
1413 0 74.2608 13.4526 999 119.42 802.189 467.346
1414 0 77.2648 13.5379 1046 120.215 801.653 464.548
1415 0 79.32 12.4559 988 122.897 801.951 463.666
1416 0 82.3367 13.044 1074 121.405 802.035 462.754
1417 0 85.3124 13.5502 1156 121.788 802.649 459.001
1418 0 86.2072 13.2008 1138 123.757 802.185 458.324
1419 0 90.2123 13.6456 1231 123.333 802.03 455.128
1420 0 93.3564 13.1432 1227 125.214 801.857 454.319
1421 0 97.3916 13.2558 1291 125.96 801.241 449.83
1422 0 101.376 13.4746 1366 125.627 801.833 449.332
1423 0 105.428 14.4553 1524 120.979 802.097 449.426
1424 0 108.355 13.991 1516 122.103 801.638 447.128
1425 0 110.253 12.0451 1328 118.267 802.361 446.599
1426 1 60.2225 11.4077 687 108.949 802.888 471.575
1427 0 64.207 10.6998 687 112.792 801.514 472.192
1428 0 65.0891 11.6149 756 112.198 802.365 469.507
1429 0 66.091 13.1637 870 107.978 803.705 468.353
1430 0 68.158 12.0896 824 110.58 803.871 465.419
1431 0 73.1202 12.3769 905 108.548 803.856 464.657
1432 0 72.1535 10.6301 767 113.516 803.741 463.593
1433 0 76.2614 11.5655 882 111.381 802.948 460.994
1434 0 77.1687 11.572 893 112.331 803.428 461.069
1435 0 80.1444 12.5648 1007 110.802 803.251 457.218
1436 0 83.1756 11.7823 980 112.16 803.034 457.834
1437 0 86.1298 12.4231 1070 110.459 802.554 455.94
1438 0 88.2969 11.7898 1041 112.085 803.019 456.748
1439 0 89.1797 12.4468 1110 111.57 802.598 454.549
1440 0 92.1798 10.8375 999 115.456 802.53 450.98
1441 0 95.1814 11.9351 1136 114.659 802.921 449.411
1442 0 95.1813 11.8301 1126 116.21 802.438 447.94
1443 0 100.235 12.6503 1268 113.82 803.05 446.744
1444 0 103.244 12.0007 1239 115.891 802.299 445.448
1445 0 107.168 11.7759 1262 115.531 802.549 446.801
1446 0 110.115 13.2135 1455 112.379 802.252 443.155
1447 0 114.146 12.5103 1428 115.31 803.045 439.705
1448 0 116.192 11.5069 1337 117.624 801.845 440.458
1449 1 65.0756 10.2343 666 111.053 803.092 467.467
1450 0 65.1145 11.3953 742 109.317 803.318 465.075
1451 0 69.1089 11.4168 789 106.788 803.465 468.918
1452 0 70.1691 11.3583 797 108.43 802.735 466.528
1453 0 73.2222 10.5023 769 110.775 802.992 462.563
1454 0 74.1135 11.7657 872 107.892 802.779 462.487
1455 0 76.1785 11.88 905 108.534 802.446 459.676
1456 0 81.1017 12.6631 1027 106.016 802.729 460.756
1457 0 83.1369 12.4493 1035 107.604 802.259 458.852
1458 0 85.0946 12.0807 1028 108.517 802.338 459.967
1459 0 89.1528 12.0804 1077 108.087 802.376 456.667
1460 0 92.105 12.692 1169 106.553 802.745 456.256
1461 0 95.1676 13.7021 1304 104.252 802.864 452.791
1462 0 97.2116 13.5169 1314 104.837 803.718 453.303
1463 0 100.198 12.0861 1211 108.514 802.947 450.666
1464 0 104.283 12.6579 1320 108.363 802.261 449.968
1465 0 105.389 11.8514 1249 112.99 802.098 449.2
1466 0 109.259 11.7884 1288 113.163 801.96 447.742
1467 0 114.169 12.2362 1397 111.228 801.926 448.227
1468 0 118.23 12.814 1515 109.006 802.552 445.41
1469 1 63.1644 12.2379 773 104.115 802.05 472.048
1470 0 63.1237 12.5626 793 104.885 802.822 469.801
1471 0 67.1716 13.5176 908 108.62 802.901 470.485
1472 0 71.1406 12.0887 860 105.734 802.483 466.192
1473 0 71.1698 11.4234 813 108.362 802.091 463.316
1474 0 73.1279 11.4457 837 108.355 802.483 462.296
1475 0 76.2751 12.5336 956 106.638 802.297 461.823
1476 0 79.1913 11.6932 926 107.592 802.449 462.34
1477 0 81.1832 10.5317 855 111.284 801.79 458.828
1478 0 85.1545 12.448 1060 106.442 801.996 460.489
1479 0 87.1271 11.3283 987 110.649 802.617 458.532
1480 0 89.1178 11.4006 1016 112.035 802.1 456.575
1481 0 93.2982 11.415 1065 112.914 802.504 453.344
1482 0 97.2375 11.8678 1154 112.129 802.99 453.083
1483 0 99.3844 12.8793 1280 110.882 802.688 451.051
1484 0 101.17 10.8333 1096 114.777 803.055 451.936
1485 0 106.14 11.645 1236 112.837 802.665 450.756
1486 0 109.311 11.3438 1240 113.534 802.503 447.914
1487 0 114.342 12.1915 1394 112.457 802.25 442.816
1488 1 58.115 9.58445 557 106.779 801.135 475.124
1489 0 61.041 11.1237 679 107.054 802.159 474.028
1490 0 59.084 10.0873 596 102.02 801.97 465.75
1491 0 61.1033 10.9487 669 101.028 802.395 464.28
1492 0 65.1436 11.1293 725 101.894 802.018 464.131
1493 0 68.1481 11.8272 806 102.109 801.681 461.532
1494 0 69.2115 9.68047 670 106.812 802.004 460.367
1495 0 73.1636 10.825 792 104.444 801.828 460.398
1496 0 76.1327 9.20761 701 109.766 801.579 458.143
1497 0 79.1036 10.8718 860 106.47 800.895 457.852
1498 0 80.2871 9.74004 782 108.818 801.428 456.278
1499 0 85.1837 10.2015 869 107.367 801.876 457.051
1500 0 89.2344 11.2289 1002 106.032 801.673 455.017
1501 0 93.1757 11.4515 1067 105.337 800.988 453.331
1502 0 96.1552 11.3358 1090 106.644 801.694 453.07
1503 1 53.1433 10.8198 575 99.9374 803.238 477.722
1504 0 52.0799 10.4455 544 100.816 803.858 476.923
1505 0 52.0214 10.5534 549 101.574 802.976 476.468
1506 0 55.054 11.08 610 101.043 802.798 475.069
1507 0 54.0821 11.3716 615 104.683 803.021 475.312
1508 0 55.0184 12.5594 691 101.31 802.972 476.907
1509 0 50.0368 10.5323 527 110.455 802.279 474.135
1510 0 56.0364 10.5646 592 108.171 802.23 475.258
1511 0 58.0576 12.6426 734 102.817 802.455 472.96
1512 0 62.0908 12.2079 758 102.169 802.496 473.067
1513 0 62.0447 12.5877 781 101.169 802.59 472.698
1514 0 66.085 12.4991 826 100.079 802.764 471.059
1515 0 66.0752 10.9118 721 103.756 802.954 471.001
1516 0 70.0657 12.0316 843 101.123 803.036 470.212
1517 0 72.0619 12.3227 888 101.418 802.707 468.878
1518 0 74.079 11.9602 886 101.808 802.95 468.507
1519 0 76.1012 13.2192 1006 100.9 802.071 466.001
1520 0 79.1275 13.0802 1035 101.009 802.182 464.729
1521 0 80.1106 12.9072 1034 103.277 801.723 464.902
1522 0 83.2093 12.5106 1041 103.956 802.033 463.762
1523 1 41.011 9.53404 391 112.442 802.046 482.207
1524 0 43.0245 10.1105 435 107.917 802.837 483.749
1525 0 47.0889 12.0835 569 102.726 802.863 481.986
1526 0 46.1932 10.6726 493 108.258 802.905 480.493
1527 0 49.0863 12.4475 611 105.021 803.21 480.967
1528 0 49.0852 11.2865 554 109.357 803.249 481.551
1529 0 50.0774 12.3209 617 108.501 803.297 479.718
1530 0 49.077 12.2053 599 111.104 802.858 479.376
1531 0 53.1677 12.7145 676 109.972 802.308 479.007
1532 0 53.1282 12.3475 656 112.767 801.761 477.534
1533 0 55.1143 12.211 673 113.125 802.507 476.877
1534 0 56.0913 11.82 663 114.617 802.071 476.659
1535 0 58.0953 12.4106 721 113.713 801.334 474.227
1536 0 61.1274 12.5476 767 113.923 801.681 474.858
1537 0 62.1242 12.2496 761 114.905 801.66 474.67
1538 0 64.1119 12.8057 821 113.754 801.334 473.842
1539 0 65.1456 12.2495 798 115.664 801.39 472.034
1540 0 67.0779 12.8805 864 114.025 801.888 471.164
1541 0 70.1342 12.4048 870 115.275 801.714 471.038
1542 0 71.0821 13.6181 968 112.863 800.64 469.146
1543 0 73.1404 12.059 882 116.577 801.102 466.24
1544 0 78.0882 12.8829 1006 112.17 801.759 467.989
1545 0 80.1742 13.296 1066 112.623 801.577 465.668
1546 0 82.1234 12.8709 1057 113.133 801.199 464.139
1547 0 84.108 11.9846 1008 114.704 800.588 463.202
1548 0 88.1452 12.0937 1066 114.488 800.76 459.538
1549 1 46.0874 11.0442 509 116.012 800.597 481.442
1550 0 48.0719 10.8587 522 108.218 798.78 479.454
1551 0 50.0819 11.3614 569 107.112 799.114 478.308
1552 0 51.0941 10.2752 525 109.259 798.92 478.255
1553 0 54.0542 12.876 696 102.46 798.458 476.846
1554 0 53.1277 11.1053 590 107.254 799.003 476.115
1555 0 56.1314 10.9564 615 107.182 798.589 476.782
1556 0 58.0793 13.4816 783 102.71 798.593 474.807
1557 0 61.0512 13.3658 816 101.55 799.005 474.033
1558 0 62.052 11.8449 735 105.744 798.679 472.012
1559 0 65.077 13.1076 853 102.91 798.557 472.083
1560 0 67.1513 12.4495 836 104.025 798.705 470.062
1561 0 68.0705 12.0904 823 105.118 798.525 471.168
1562 0 69.1059 11.7935 815 106.767 798.989 468.24
1563 0 72.0406 11.6601 840 107.252 799.027 467.463
1564 0 74.0932 11.58 858 107.054 799.401 468.404
1565 0 77.052 13.121 1011 103.825 799.155 466.939
1566 0 78.0894 12.1655 950 106.597 799.9 463.951
1567 0 81.0463 12.4003 1005 105.477 799.7 465.247
1568 0 83.0925 12.6606 1052 105.502 799.865 462.573
1569 0 85.0862 11.8468 1008 108.877 799.445 462.512
1570 0 87.0823 13.4126 1168 106.229 799.534 459.513
1571 0 90.1093 12.3739 1115 108.736 799.596 457.48
1572 0 95.1758 12.4086 1181 109.073 798.853 455.784
1573 0 97.1648 13.2147 1284 107.702 799.117 453.657
1574 0 100.108 12.2468 1226 111.331 799.034 453.168
1575 0 103.122 13.2561 1367 109.122 798.485 450.248
1576 1 56.0386 11.046 619 112.221 798.407 476.402
1577 0 55.069 11.2223 618 107.974 799.77 469.717
1578 0 54.0878 9.17028 496 104.083 799.619 471.016
1579 0 60.1854 10.4344 628 101.74 799.454 468.559
1580 0 63.0295 12.8353 809 96.8764 798.892 468.247
1581 0 64.0936 11.764 754 99.1379 799.463 466.533
1582 0 68.1211 12.3163 839 96.7104 799.588 467.592
1583 0 67.1902 11.2516 756 100.328 800.482 463.856
1584 0 72.0843 12.2912 886 97.6456 799.48 463.879
1585 0 75.2207 12.1509 914 98.7768 799.451 461.945
1586 0 78.2034 11.8793 929 99.5188 800.298 462.062
1587 0 80.1344 11.8551 950 100.916 800.142 459.309
1588 0 82.2307 11.1029 913 103.782 798.982 459.112
1589 0 86.1594 12.1287 1045 101.355 799.106 455.063
1590 0 89.1808 11.3589 1013 103.714 798.907 453.695
1591 1 44.1404 9.01667 398 103.487 798.329 476.578
1592 0 49.1658 11.5934 570 95.4123 799.749 475.009
1593 0 48.1677 11.1485 537 96.8231 799.978 475.955
1594 0 50.1592 10.4667 525 99.1257 799.83 474.564
1595 0 52.171 10.4081 543 98.7901 800.295 474.175
1596 0 57.0846 9.28446 530 100.719 800.294 471.847
1597 0 59.2327 12.2905 728 103.147 800.114 476.19
1598 0 60.1197 11.6767 702 105.95 800.295 475.862
1599 0 59.1484 11.6825 691 108.308 800.556 474.864
1600 0 61.077 11.068 676 110.126 800.578 474.17
1601 0 65.0755 13.0464 849 105.207 800.753 470.898
1602 0 66.105 11.512 761 109.541 801.014 471.062
1603 0 69.0778 11.3785 786 109.961 800.438 467.156
1604 0 71.2088 12.7091 905 108.697 800.38 468.274
1605 0 71.1767 11.4223 813 113.129 800.984 467.052
1606 0 75.1293 11.0742 832 114.849 801.281 461.675
1607 0 77.1852 11.8676 916 114.205 800.817 462.785
1608 0 79.0576 11.3968 901 115.86 801.303 462.516
1609 0 83.1308 12.1134 1007 114.804 801.169 461.103
1610 0 85.0594 12.4384 1058 114.034 801.52 460.714
1611 1 46.0765 10.7213 494 118.83 801.822 480.121
1612 0 49.0494 12.0491 591 113.832 801.562 478.069
1613 0 51.0271 12.6012 643 112.622 800.493 476.812
1614 0 50.1391 10.7501 539 121.529 799.844 475.718
1615 0 53.2895 10.7714 574 121.965 800.275 476.763
1616 0 54.0941 12.0531 652 118.247 800.023 476.336
1617 0 56.1265 11.4028 640 120.702 799.847 474.061
1618 0 58.185 11.8587 690 119.39 799.961 473.438
1619 0 61.1546 11.8061 722 118.508 799.798 473.888
1620 0 64.2161 11.835 760 119.293 798.629 473.259
1621 0 66.2967 12.6703 840 117.263 799.361 472.295
1622 0 65.2108 12.1299 791 118.776 799.528 472.535
1623 0 67.1706 12.6543 850 118.595 799.414 469.976
1624 0 72.3228 12.9558 937 115.841 799.499 469.512
1625 0 72.1439 13.2929 959 117.609 799.164 469.379
1626 0 72.1136 10.7608 776 125.992 799.25 465.272
1627 0 76.1683 11.619 885 123.855 799.366 465.24
1628 0 80.1911 13.393 1074 118.723 798.836 464.655
1629 0 80.1756 13.433 1077 118.211 799.152 462.201
1630 0 83.1925 12.6093 1049 119.767 799.261 464.48
1631 0 87.2903 12.762 1114 120.591 798.728 460.011
1632 0 90.2354 12.9772 1171 119.687 799.01 459.707
1633 0 91.2676 12.0634 1101 122.939 799.534 460.956
1634 0 93.1743 13.0079 1212 121.954 799.582 460.025
1635 0 97.1396 13.2696 1289 121.41 799.16 457.192
1636 0 99.1447 12.86 1275 122.344 799.594 455.594
1637 1 53.2925 12.7222 678 117.64 799.345 474.842
1638 0 56.3136 11.4182 643 120.509 799.425 474.369
1639 0 59.2218 12.3097 729 119.967 799.783 472.303
1640 0 57.1782 12.4348 711 125.958 799.087 470.563
1641 0 63.1072 13.3265 841 124.291 798.401 474.093
1642 0 64.173 13.635 875 123.891 798.158 472.59
1643 0 67.1387 13.5391 909 123.818 799.286 471.175
1644 0 69.1355 11.9476 826 127.557 798.117 471.416
1645 0 72.1444 12.6413 912 125.979 798.407 468.469
1646 0 74.0809 13.6202 1009 123.781 798.781 467.825
1647 0 77.2258 12.8196 990 124.856 798.488 467.707
1648 0 80.2012 13.3664 1072 124.07 798.802 466.261
1649 0 84.1681 14.1146 1188 122.114 799.241 464.1
1650 0 83.1445 12.6888 1055 128.43 798.727 462.989
1651 0 88.1165 13.6637 1204 125.855 799.408 461.306
1652 0 88.1364 12.1176 1068 129.199 798.461 461.335
1653 0 92.2212 12.2206 1127 122.261 799.128 457.039
1654 0 94.2782 12.5374 1182 123.291 799.138 453.432
1655 0 98.2364 13.1418 1291 121.05 798.756 454.828
1656 0 97.2602 10.1583 988 131.298 798.89 450.212
1657 0 103.212 12.3823 1278 125.394 798.377 452.199
1658 0 108.293 13.1956 1429 123.599 798.645 449.977
1659 0 111.381 13.4852 1502 123.852 798.515 448.514
1660 0 114.238 13.5418 1547 124.184 798.416 448.469
1661 1 62.1224 11.091 689 118.594 797.785 474.467
1662 0 64.227 11.8486 761 117.693 798.733 472.949
1663 0 63.0556 11.9101 751 119.093 798.37 471.426
1664 0 67.0933 12.7285 854 113.311 798.135 468.235
1665 0 69.0991 11.4907 794 117.088 798.858 469.283
1666 0 73.0386 12.199 891 114.565 799.139 469.47
1667 0 76.1108 12.6789 965 114.681 798.884 465.791
1668 0 77.0751 12.0662 930 116.934 798.81 465.248
1669 0 80.2638 12.2596 984 95.1128 798.908 466.136
1670 0 82.1725 12.279 1009 118.054 798.633 461.319
1671 0 83.0755 12.1817 1012 118.479 797.937 462.208
1672 0 88.0928 12.0328 1060 118.847 799.12 460.452
1673 0 90.1092 13.0397 1175 118.254 798.627 459.096
1674 0 94.234 12.851 1211 119.073 798.886 457.626
1675 0 96.1372 12.8254 1233 120.315 798.528 456.829
1676 0 100.276 13.5127 1355 119.683 799.466 452.855
1677 1 54.216 12.2104 662 116.944 798.94 477.156
1678 0 53.3862 9.79655 523 123.115 799.662 473.849
1679 0 56.1733 11.3399 637 99.7284 801.047 475.898
1680 0 56.1795 11.5167 647 120.195 800.719 474.065
1681 0 61.1182 12.3695 756 115.975 800.974 474.782
1682 0 62.1282 11.7821 732 118.291 800.396 473.78
1683 0 65.1631 11.8779 774 117.836 800.656 470.025
1684 0 69.1469 12.0324 832 116.296 800.383 471.105
1685 0 69.0788 11.1033 767 120.884 800.456 469.143
1686 0 72.0976 12.3999 894 117.181 800.24 468.037
1687 0 73.1613 12.4793 913 118.197 799.736 464.77
1688 0 75.1817 11.7449 883 121.29 800.116 464.045
1689 0 77.097 12.4129 957 119.877 800.889 464.293
1690 0 79.1453 12.8751 1019 119.836 800.537 461.797
1691 0 83.2876 12.2587 1021 122.22 800.724 460.543
1692 0 85.2256 12.3554 1053 124.133 800.607 458.727
1693 0 88.1176 12.8805 1135 122.463 800.33 459.843
1694 0 90.193 12.2182 1102 126.243 799.757 457.456
1695 0 90.1686 11.9332 1076 128.046 800.244 457.674
1696 0 93.2426 13.5668 1265 125.514 799.679 454.256
1697 0 96.1205 13.3686 1285 126.044 799.461 455.637
1698 0 99.2028 13.417 1331 127.423 799.484 451.969
1699 0 104.129 12.955 1349 128.858 799.653 451.258
1700 0 105.197 12.9091 1358 129.057 799.672 450.248
1701 0 110.265 12.5879 1388 130.985 800.074 448.336
1702 0 111.232 13.4854 1500 130.281 799.708 444.421
1703 0 114.216 11.8635 1355 134.162 799.469 446.539
1704 0 121.255 13.5087 1638 125.861 798.669 444.502
1705 0 122.195 12.3082 1504 130.191 799.112 438.554
1706 0 127.199 12.791 1627 129.1 799.685 437.355
1707 0 131.164 12.1832 1598 131.287 799.164 435.502
1708 0 137.236 13.6626 1875 127.241 798.718 432.655
1709 0 142.367 12.1095 1724 130.955 798.219 430.175
1710 1 81.2061 11.9449 970 119.959 799.262 462.098
1711 0 84.2766 12.3403 1040 120.092 799.124 457.827
1712 0 87.2484 12.367 1079 121.354 799.319 458.14
1713 0 89.3458 12.6251 1128 122.755 799.663 456.292
1714 0 91.231 11.86 1082 124.433 799.807 456.146
1715 0 94.1772 12.6358 1190 124.446 798.75 452.84
1716 0 97.2799 11.9552 1163 128.248 799.395 450.363
1717 0 100.138 12.2031 1222 128.096 799.29 450.562
1718 0 104.146 13.6636 1423 123.362 798.048 454.29
1719 0 106.197 11.2338 1193 128.961 798.269 452.985
1720 0 110.242 12.4544 1373 127.456 798.15 448.066
1721 0 112.145 12.3144 1381 125.865 798.151 451.726
1722 0 116.163 11.9229 1385 127.881 798.24 448.949
1723 0 121.389 11.3684 1380 129.156 798.769 445.806
1724 0 125.206 12.3317 1544 126.858 798.192 444.896
1725 0 126.334 11.4142 1442 130.501 798.358 442.24
1726 0 132.154 12.8487 1698 127.957 797.77 439.861
1727 0 136.2 12.3128 1677 129.205 798.144 438.479
1728 0 141.204 12.7971 1807 128.476 798.127 435.726
1729 0 145.22 13.4417 1952 127.489 798.48 433.191
1730 0 150.215 13.0147 1955 128.549 799.345 431.962
1731 0 155.289 11.7845 1830 133.194 799.13 429.18
1732 0 158.102 12.6058 1993 132.277 798.923 423.245
1733 0 162.223 12.6122 2046 132.696 798.652 423.6
1734 0 168.169 12.4517 2094 132.899 798.123 423.798
1735 0 177.449 13.4236 2382 130.46 798.128 420.517
1736 0 181.261 12.7496 2311 132.983 798.144 418.496
1737 0 187.12 13.0932 2450 134.016 797.976 412.455
1738 0 189.316 11.8743 2248 138.448 798.542 407.482
1739 0 199.486 13.1638 2626 135.038 798.305 404.516
1740 0 206.459 13.0873 2702 135.722 799.312 400.836
1741 0 214.361 12.8755 2760 135.379 798.262 396.116
1742 1 49.1138 10.9949 540 113.78 800.633 477.235
1743 0 50.1473 11.2668 565 112.683 800.442 478.195
1744 0 48.1913 10.3546 499 115.711 800.293 476.335
1745 0 53.02 11.8446 628 110.527 798.605 476.828
1746 0 56.0748 11.1993 628 111.849 798.355 476.965
1747 0 58.0438 12.3355 716 108.927 798.436 473.552
1748 0 59.0553 10.7865 637 113.173 798.648 472.906
1749 0 62.0227 13.3016 825 105.738 799.091 474.699
1750 0 63.0291 12.6291 796 108.514 799.332 470.724
1751 0 65.0385 11.8084 768 109.819 798.598 471.354
1752 0 68.0613 12.5034 851 108.678 798.302 470.031
1753 0 70.0294 12.1235 849 109.857 798.158 467.63
1754 0 74.0576 12.0177 890 109.7 798.406 469.134
1755 0 74.0497 12.127 898 110.532 799.061 467.65
1756 0 76.0558 13.2008 1004 108.177 799.441 464.418
1757 0 78.1231 12.6851 991 109.01 799.547 464.689
1758 0 81.0967 12.6269 1024 109.751 798.56 463.01
1759 0 84.1511 14.2125 1196 89.7115 799.433 463.356
1760 0 86.1519 12.8146 1104 109.522 798.521 462.416
1761 0 90.1581 11.9568 1078 109.818 798.368 457.352
1762 1 48.1252 9.43374 454 110.236 798.987 479.33
1763 0 51.1024 10.0778 515 106.95 798.689 477.93
1764 0 52.0413 11.414 594 103.754 798.167 469.879
1765 0 51.0505 10.9891 561 105.727 798.144 477.13
1766 0 52.066 9.08462 473 110.558 798.133 478.503
1767 0 57.0579 12.6188 720 108.728 797.535 477.193
1768 1 115.612 15.3357 1773 102.856 798.725 445.44
1769 0 114.091 5.30279 605 112.289 797.706 474.936
1770 0 114.081 5.99576 684 110.553 797.82 473.822
1771 1 80.5629 14.5476 1172 91.5469 797.572 464.485
1772 0 75.1851 13.9921 1052 99.4544 797.582 467.673
1773 0 74.2873 17.0419 1266 94.9313 798.432 465.742
1774 0 73.2609 15.5608 1140 100.712 797.354 466.51
1775 0 75.245 14.8581 1118 101.75 797.442 464.35
1776 0 75.1101 14.8715 1117 104.207 798.05 466.5
1777 0 73.1607 13.5455 991 109.919 796.803 466.184
1778 0 78.2198 13.3342 1043 111.246 797.622 465.485
1779 0 79.175 12.4408 985 113.354 798.034 466.097
1780 0 83.2318 12.7235 1059 112.577 797.454 465.071
1781 0 85.3298 13.1373 1121 111.749 797.612 463.291
1782 0 84.3078 12.2171 1030 115.745 796.889 460.789
1783 0 89.1962 11.8727 1059 115.539 798.244 462.354
1784 0 91.134 12.52 1141 115.189 797.672 459.061
1785 1 51.1658 10.7494 550 114.655 797.795 478.835
1786 0 54.2219 11.7296 636 110.56 798.351 477.091
1787 0 55.2593 12.378 684 101.158 799.79 476.032
1788 0 56.1009 11.6754 655 100.69 799.331 477.873
1789 0 57.0492 11.5865 661 101.607 799.607 475.759
1790 0 58.1388 11.8337 688 100.693 799.863 476.862
1791 0 62.0816 11.7748 731 101.13 799.969 474.492
1792 0 61.2112 11.7299 718 102.558 798.908 471.107
1793 0 63.0965 11.9024 751 102.642 799.526 470.951
1794 0 68.2412 12.2653 837 100.443 799.219 471.238
1795 0 67.4187 12.4743 841 100.235 799.658 470.962
1796 0 72.2917 12.4772 902 100.192 799.572 469.018
1797 0 73.3513 12.0243 882 100.211 799.523 464.347
1798 0 74.1667 11.0831 822 103.455 799.956 465.049
1799 0 77.1069 11.1144 857 102.73 800.046 467.552
1800 0 81.1122 11.9218 967 101.018 800.017 463.342
1801 0 84.2073 12.8374 1081 101.271 800.312 462.459
1802 0 83.2067 10.1915 848 106.831 800.298 461.685
1803 0 88.4201 11.0721 979 103.913 799.763 460.15
1804 1 46.2539 9.77216 452 102.243 800.272 480.684
1805 0 49.421 11.6752 577 99.8354 800 477.837
1806 0 48.1951 11.3497 547 102.499 799.987 480.205
1807 0 52.1183 10.8791 567 101.423 800.153 480.658
1808 0 54.1148 11.8452 641 100.215 800.019 479.552
1809 0 55.2048 11.9192 658 100.635 800.061 479.41
1810 0 55.2708 10.8375 599 104.008 799.658 478.793
1811 0 56.0978 10.6065 595 105.691 799.629 477.486
1812 0 58.1534 12.3982 721 103.449 799.741 476.406
1813 0 60.1448 12.0044 722 104.36 798.918 475.313
1814 0 63.1239 12.8319 810 102.337 799.502 473.421
1815 0 65.1877 11.7047 763 104.853 799.616 472.923
1816 0 66.4184 12.6622 841 103.675 798.864 469.842
1817 0 68.2989 10.5419 720 108.631 798.794 468.164
1818 0 71.2009 12.247 872 104.859 798.692 464.76
1819 0 73.226 11.5396 845 107.652 798.746 462.853
1820 0 75.4496 12.0478 909 105.532 798.85 464.853
1821 0 78.4976 11.4271 897 108.076 799.014 462.91
1822 0 81.1902 12.8217 1041 106.964 798.669 460.169
1823 0 82.3292 12.7901 1053 108.629 798.901 458.953
1824 0 84.3418 12.9592 1093 109.035 798.521 457.117
1825 0 87.5146 12.3408 1080 110.535 798.995 457.637
1826 0 88.3514 13.4124 1185 110.203 799.003 455.085
1827 0 91.2512 12.7779 1166 112.061 798.755 454.027
1828 0 95.2836 14.609 1392 108.205 799.569 453.438
1829 0 98.6089 13.8223 1363 111.213 799.607 450.948
1830 0 98.4616 12.2383 1205 116.522 798.953 450.562
1831 0 101.608 11.5936 1178 117.86 798.167 452.01
1832 0 105.341 13.2523 1396 115.923 798.241 446.778
1833 0 107.587 13.0313 1402 117.403 798.583 445.302
1834 0 113.448 13.1954 1497 115.985 798.104 444.277
1835 0 115.37 13.045 1505 118.923 797.591 440.603
1836 1 64.2501 11.3307 728 114.437 798.853 468.433
1837 0 64.2886 11.8061 759 115.955 798.884 468.105
1838 0 67.2802 12.0987 814 116.075 798.194 465.257
1839 0 72.2195 12.8913 931 115.415 799.296 465.356
1840 0 73.1727 12.737 932 117.835 799.184 462.662
1841 0 76.3036 13.6167 1039 115.99 798.457 462.899
1842 0 77.3873 13.1934 1021 119.531 798.577 459.523
1843 0 80.2868 12.4304 998 122.604 798.848 458.889
1844 0 84.3123 13.6991 1155 117.84 798.948 459.055
1845 0 87.385 12.794 1118 120.548 798.335 459.142
1846 0 89.3578 13.418 1199 121.186 798.4 454.736
1847 0 92.3517 13.7193 1267 121.448 798.763 454.153
1848 0 94.5339 14.3652 1358 121.139 798.258 450.955
1849 0 97.3075 13.7194 1335 123.032 798.702 449.966
1850 0 101.296 13.3272 1350 124.606 798.744 448.62
1851 0 105.371 13.1536 1386 124.55 799.12 448.352
1852 0 108.23 12.5658 1360 127.926 799.253 444.126
1853 0 110.232 12.3376 1360 128.806 799.521 443.949
1854 0 117.343 14.2062 1667 122.019 799.241 444.474
1855 1 66.1176 11.1922 740 124.701 799.081 468.172
1856 0 68.2117 12.3439 842 122.792 798.986 467.341
1857 0 70.1398 11.5626 811 122.7 799.31 466.364
1858 0 74.1349 12.6121 935 120.221 798.597 464.368
1859 0 74.1206 12.8304 951 121.32 797.97 464.39
1860 0 77.2646 12.1789 941 124.393 798.459 461.85
1861 0 80.1276 12.5051 1002 124.68 798.776 462.352
1862 0 81.1032 11.7011 949 129.355 799.013 461.743
1863 0 86.1345 12.2599 1056 128.299 798.976 459.384
1864 0 88.0852 12.0565 1062 129.708 799.096 456.798
1865 0 89.1093 11.4578 1021 131.135 798.786 457.077
1866 0 94.0809 12.8188 1206 127.141 799.558 456.003
1867 0 96.1625 12.8844 1239 127.363 799.272 456.245
1868 0 99.1778 13.0473 1294 128.905 798.819 451.775
1869 0 104.34 13.9928 1460 125.41 799.477 451.205
1870 0 107.171 13.4645 1443 129.462 799.175 447.785
1871 0 109.339 13.6091 1488 129.357 799.144 445.237
1872 0 113.33 12.9268 1465 129.761 799.388 442.184
1873 1 65.183 11.7055 763 120.966 798.986 469.432
1874 0 66.2477 10.8683 720 123.307 799.374 467.389
1875 0 68.0739 12.7215 866 119.59 798.979 467.501
1876 0 71.1013 13.2065 939 118.179 798.953 466.923
1877 0 72.0609 11.9205 859 121.348 798.593 466.19
1878 0 75.12 11.475 862 124.529 798.726 463.911
1879 0 78.1498 12.4121 970 122.292 799.392 461.982
1880 0 82.069 12.721 1044 120.723 798.942 463.151
1881 0 85.3932 12.9167 1103 121.124 799.65 459.898
1882 0 88.36 13.5469 1197 119.928 799.845 458.583
1883 0 90.4622 12.1708 1101 124.528 799.74 455.8
1884 0 95.4464 13.3164 1271 121.079 799.755 454.669
1885 0 98.3721 14.0894 1386 118.784 799.499 453.212
1886 0 101.49 12.5825 1277 123.228 799.312 452.15
1887 0 104.334 13.2172 1379 122.977 799.209 451.526
1888 0 107.485 13.1553 1414 121.545 799.893 452.054
1889 1 58.338 11.0563 645 121.167 800.358 474.071
1890 0 60.362 11.8286 714 117.636 799.867 472.099
1891 0 61.183 11.8497 725 121.244 798.999 472.84
1892 0 61.2409 11.3323 694 123.81 799.151 471.393
1893 0 65.1434 12.5416 817 120.632 799.34 470.004
1894 0 65.2095 11.8694 774 122.859 799.18 468.87
1895 0 68.1966 11.7894 804 123.07 799.949 467.536
1896 0 71.2443 13.1379 936 118.821 799.474 467.433
1897 0 71.233 10.9359 779 125.969 799.829 464.71
1898 0 77.1936 12.9544 1000 119.945 799.769 463.399
1899 0 78.4354 12.4689 978 122.279 799.839 461.216
1900 0 82.2933 12.82 1055 121.075 800.064 460.459
1901 0 82.1953 11.3632 934 126.481 800.284 459.282
1902 0 85.1697 12.07 1028 124.308 800.113 457.682
1903 0 89.2975 12.9791 1159 122.245 800.321 455.853
1904 0 94.1711 14.0277 1321 119.269 799.838 454.888
1905 0 96.2912 13.023 1254 122.737 800.012 453.62
1906 0 98.3102 13.8134 1358 121.986 799.653 450.586
1907 0 100.329 13.3959 1344 123.585 799.448 446.783
1908 0 101.357 11.277 1143 129.768 799.711 445.327
1909 0 104.421 11.9708 1250 121.194 798.018 446.783
1910 0 112.546 12.8125 1442 117.983 798.076 446.19
1911 0 114.478 11.8974 1362 122.225 798.85 443.101
1912 0 120.521 12.9023 1555 118.83 799.658 441.56
1913 0 122.765 12.2755 1507 120.737 799.277 438.282
1914 0 128.576 13.2995 1710 118.737 798.839 435.29
1915 0 133.523 13.346 1782 118.271 797.741 435.496
1916 0 136.497 11.1431 1521 123.467 798.723 432.896
1917 1 77.473 13.2691 1028 115.078 798.315 461.155
1918 0 78.5179 12.2265 960 119.066 798.164 458.803
1919 0 83.4576 13.5997 1135 114.492 798.782 458.754
1920 0 83.4579 12.2097 1019 118.734 798.929 459.929
1921 0 87.4061 12.3332 1078 119.017 798.876 457.468
1922 0 86.5093 12.0912 1046 121.835 799.017 453.898
1923 0 92.5798 13.8583 1283 115.525 799.492 456.513
1924 0 96.6107 13.6734 1321 116.603 799.657 453.051
1925 0 98.4376 12.4546 1226 120.828 799.256 449.44
1926 0 101.527 13.3463 1355 118.203 799.435 450.044
1927 0 104.593 13.1845 1379 120.352 799.192 444.866
1928 0 109.699 13.7376 1507 118.188 799.098 447.252
1929 0 110.678 13.1282 1453 121.386 799.384 443.769
1930 0 114.772 13.3743 1535 121.418 799.995 441.356
1931 0 117.627 13.3303 1568 122.688 799.757 442.404
1932 0 122.768 13.4319 1649 124.141 799.509 440.56
1933 0 125.593 14.5788 1831 122.373 799.227 433.172
1934 1 68.494 10.6141 727 125.063 798.568 464.23
1935 0 70.6659 12.4388 879 120.644 798.685 464.147
1936 0 70.1649 10.8886 764 111.414 799.346 464.702
1937 0 76.4951 12.406 949 106.398 799.32 465.667
1938 0 76.2292 11.7409 895 110.571 799.04 462.558
1939 0 75.174 10.2296 769 117.827 799.124 460.746
1940 0 81.2292 11.2152 911 115.261 798.902 459.742
1941 0 82.1594 10.6135 872 118.327 797.906 460.5
1942 0 87.2215 10.674 931 120.171 798.059 457.998
1943 0 89.2341 12.5288 1118 115.969 798.792 455.793
1944 0 92.2998 11.2785 1041 120.382 798.28 453.899
1945 0 95.4349 11.9348 1139 118.647 798.39 453.431
1946 0 97.4297 11.321 1103 121.539 798.83 451.15
1947 0 98.4831 10.55 1039 124.907 798.584 448.901
1948 0 102.409 11.4151 1169 124.53 798.128 445.576
1949 0 106.468 11.5904 1234 122.856 798.127 448.294
1950 0 110.486 11.2593 1244 124.178 797.676 445.102
1951 0 110.388 11.2874 1246 126.717 798.408 440.766
1952 0 116.385 11.4791 1336 126.296 797.618 440.474
1953 0 118.582 11.8568 1406 126.378 798.494 439.018
1954 1 65.2566 11.4624 748 113.882 798.774 469.078
1955 0 67.3727 10.9243 736 119.723 798.273 467.227
1956 0 66.1227 11.5694 765 122.178 800.443 468.868
1957 0 68.0895 12.2926 837 117.437 800.806 463.099
1958 0 70.0517 11.0347 773 120.001 800.554 459.754
1959 0 65.0485 9.94643 647 126.348 800.981 455.978
1960 0 74.068 12.0835 895 116.343 800.352 457.298
1961 0 72.0532 11.0474 796 121.363 800.607 456.771
1962 0 79.061 11.801 933 116.65 801.329 455.741
1963 0 81.0522 12.054 977 115.933 801.141 453.567
1964 0 81.0993 11.9976 973 116.598 801.342 450.519
1965 0 84.092 11.8798 999 117.342 801.287 449.248
1966 0 90.0862 12.2327 1102 115.538 801.325 449.913
1967 0 92.1458 12.643 1165 114.278 800.937 447.911
1968 0 96.2138 11.1419 1072 117.942 800.729 448.007
1969 0 97.2488 12.2983 1196 115.839 800.222 446.782
1970 0 99.3388 12.3617 1228 117.66 800.542 442.998
1971 0 103.348 13.111 1355 115.032 800.004 438.892
1972 0 110.163 14.6874 1618 112.434 800.347 444.436
1973 0 114.174 13.8123 1577 114.422 800.816 446.01
1974 0 115.23 12.9914 1497 117.703 799.966 438.256
1975 0 118.306 13.0086 1539 118.032 799.103 435.961
1976 0 123.138 14.7152 1812 113.074 799.781 436.929
1977 0 128.214 13.5944 1743 115.475 799.671 436.867
1978 0 131.247 13.7527 1805 114.894 799.024 434.698
1979 0 135.319 13.1763 1783 120.28 799.088 427.477
1980 0 139.509 13.483 1881 118.142 798.069 427.357
1981 0 143.233 13.691 1961 118.34 799.089 424.613
1982 0 151.243 13.5874 2055 115.747 798.906 421.247
1983 0 153.198 13.2052 2023 116.212 798.141 421.545
1984 1 85.096 11.2696 959 110.509 798.589 457.011
1985 0 88.1049 10.9075 961 113.077 798.867 451.8
1986 0 90.08 10.968 988 113.494 798.196 449.618
1987 0 94.16 11.3212 1066 112.097 798.662 449.976
1988 0 95.2338 10.826 1031 115.929 798.448 445.312
1989 0 99.2629 11.4242 1134 113.471 798.022 447.028
1990 0 101.185 12.1757 1232 112.105 798.169 442.252
1991 0 106.274 11.8279 1257 112.926 798.595 442.326
1992 0 108.221 12.955 1402 110.741 798.514 441.358
1993 0 112.214 11.4691 1287 114.29 798.112 439.65
1994 0 117.21 12.7805 1498 111.295 798.17 443.638
1995 0 117.349 12.2114 1433 113.08 798.061 433.985
1996 0 122.237 11.6005 1418 113.109 799.165 435.919
1997 0 125.421 11.593 1454 114.025 799.433 435.409
1998 0 129.325 13.0447 1687 110.873 798.201 429.873
1999 1 70.2198 9.31361 654 111.358 799.381 456.91
2000 0 72.1182 8.7634 632 111.845 799.84 456.383
2001 0 72.1072 8.63992 623 114.034 801.287 454.721
2002 0 76.117 9.76129 743 111.954 800.751 454.446
2003 0 81.0842 10.1623 824 109.778 801.123 456.421
2004 0 83.0925 10.6026 881 109.899 800.705 451.245
2005 0 85.0762 12.4359 1058 106.173 801.338 452.974
2006 0 89.2175 11.0292 984 109.935 801.24 448.803
2007 0 88.1194 11.5979 1022 109.99 801.199 447.022
2008 0 93.1405 10.9297 1018 110.671 800.864 448.926
2009 0 97.081 13.1849 1280 105.891 801.091 448.381
2010 0 100.038 10.8859 1089 111.793 800.746 443.258
2011 0 104.082 11.2988 1176 111.885 800.753 441.27
2012 0 108.233 11.9741 1296 110.115 800.592 442.688
2013 0 108.082 9.78889 1058 115.658 800.373 438.699
2014 0 108.291 9.50219 1029 117.424 799.7 432.226
2015 1 64.118 10.3871 666 102.614 800.595 468.917
2016 0 67.1725 11.7905 792 104.098 800.633 467.072
2017 0 68.1 11.8062 804 104.994 798.785 467.621
2018 0 70.0515 10.7778 755 106.417 798.958 466.983
2019 0 73.0535 11.5258 842 104.38 798.718 466.276
2020 0 74.1561 12.1096 898 104.684 798.938 463.574
2021 0 76.0919 10.5005 799 105.001 798.708 460.703
2022 0 78.0609 11.1452 870 104.077 797.595 463.222
2023 0 83.1182 12.2957 1022 100.135 798.603 460.714
2024 0 83.1499 11.6657 970 101.642 798.588 462.127
2025 0 88.1404 11.9128 1050 101.509 798.781 458.182
2026 0 90.1602 13.2209 1192 98.4086 799.102 456.986
2027 0 93.2066 12.2953 1146 100.41 799.577 455.51
2028 0 94.2152 11.0598 1042 104.209 799.033 452.775
2029 0 101.136 13.3385 1349 98.9325 798.896 454.08
2030 0 102.219 12.7178 1300 101.642 799.031 451.625
2031 0 105.152 12.3725 1301 103.176 799.83 449.446
2032 0 107.218 11.5932 1243 105.484 799.541 449.054
2033 0 109.194 11.9054 1300 105.996 799.185 447.554
2034 0 115.28 13.6624 1575 102.307 799.074 446.312
2035 0 119.171 12.5953 1501 105.352 798.297 447.026
2036 0 120.294 12.5027 1504 106.89 798.049 441.763
2037 0 124.423 12.4173 1545 107.355 799.166 440.833
2038 0 129.283 11.471 1483 108.62 798.658 438.353
2039 0 132.387 11.134 1474 108.419 798.849 437.035
2040 1 71.2587 12.7002 905 99.3713 799.539 466.643
2041 0 73.2944 11.7881 864 103.6 799.562 465.478
2042 0 74.1146 11.4013 845 102.072 800.555 463.382
2043 0 78.14 11.6202 908 100.357 800.497 461.978
2044 0 80.1995 11.9702 960 100.914 800.491 462.019
2045 0 84.1944 12.1861 1026 99.8684 800.697 462.299
2046 0 87.2722 13.349 1165 98.788 800.694 459.148
2047 0 89.1902 13.2638 1183 99.82 801.128 459.071
2048 0 91.2004 13.1469 1199 101.361 800.847 456.274
2049 0 93.1645 11.85 1104 104.899 800.324 455.976
2050 0 96.2196 11.2971 1087 105.449 799.994 455.633
2051 0 97.284 12.3864 1205 104.731 799.62 452.238
2052 0 100.169 13.038 1306 104.171 800.013 449.748
2053 0 103.187 13.6355 1407 103.36 799.943 449.881
2054 0 107.26 12.5303 1344 106.357 799.903 450.254
2055 0 108.229 11.9561 1294 109.239 800.44 447.833
2056 0 112.146 12.7155 1426 108.103 800.01 446.184
2057 0 117.175 13.6548 1600 106.325 800.272 444.925
2058 0 120.285 14.2245 1711 105.497 800.08 445.967
2059 0 122.314 13.6125 1665 108.242 800.021 441.104
2060 0 125.142 13.5845 1700 108.911 799.722 439.392
2061 0 129.223 13.3491 1725 110.479 799.822 438.518
2062 0 136.183 14.0033 1907 109.647 799.928 435.674
2063 0 138.218 13.5439 1872 112.796 799.968 430.99
2064 0 143.18 14.3247 2051 111.692 799.376 428.471
2065 0 147.383 13.0137 1918 115.786 799.252 427.892
2066 0 153.305 13.5743 2081 114.842 799.715 425.733
2067 0 156.311 13.4411 2101 116.515 799.986 422.562
2068 0 160.171 13.4169 2149 117.834 799.376 420.745
2069 0 163.212 12.6094 2058 120.594 799.383 419.271
2070 0 173.226 14.0221 2429 117.394 799.609 415.848
2071 0 178.269 13.8555 2470 117.851 799.774 412.782
2072 0 181.266 12.7768 2316 121.493 798.742 409.644
2073 0 190.209 13.6219 2591 119.058 799.442 408.528
2074 0 195.258 13.0084 2540 122.226 799.169 403.638
2075 0 200.377 12.192 2443 125.461 798.547 402.413
2076 0 204.26 12.8611 2627 124.684 798.775 398.359
2077 0 212.317 13.2066 2804 124.167 799.309 395.261
2078 0 219.245 13.4963 2959 123.382 798.98 394.87
2079 0 225.441 13.0189 2935 125.882 798.327 391.206
2080 1 170.279 11.6749 1988 126.212 798.153 416.953
2081 0 177.386 13.1183 2327 120.798 798.491 411.746
2082 0 184.577 12.3688 2283 126.772 798.417 401.721
2083 0 193.285 13.193 2550 121.31 798.024 408.06
2084 0 196.283 11.7687 2310 127.948 798.863 398.005
2085 1 54.2161 11.4173 619 108.963 799.997 474.976
2086 0 57.2394 11.216 642 109.374 800.332 474.998
2087 0 58.2481 11.039 643 110.586 799.96 474.918
2088 0 59.257 11.8298 701 110.836 800.274 470.961
2089 0 61.151 12.6081 771 108.344 800.027 471.329
2090 0 63.1715 11.5242 728 111.606 800.486 471.239
2091 0 65.1709 11.6616 760 111.384 799.618 469.905
2092 0 66.1492 11.9578 791 112.681 799.292 466.707
2093 0 68.1453 11.3728 775 113.523 799.613 467.694
2094 0 67.1919 10.7156 720 117.408 799.808 463.935
2095 0 72.1341 11.742 847 114.12 799.71 465.248
2096 0 72.2184 10.7867 779 119.171 800.107 465.412
2097 0 77.2424 12.0789 933 116.048 799.817 464.144
2098 0 78.2763 11.5999 908 117.107 800.326 463.137
2099 0 80.1197 11.9946 961 106.304 800.404 462.28
2100 0 80.2049 9.79989 786 110.597 799.8 461.251
2101 0 83.1076 10.9497 910 109.177 798.897 459.606
2102 0 86.0648 9.95761 857 111.77 800.856 457.446
2103 0 88.1094 10.7934 951 110.733 799.98 456.464
2104 0 90.0708 10.0477 905 113.046 800.376 456.533
2105 0 95.0524 9.39482 893 113.233 799.692 457.525
2106 1 55.1734 9.82358 542 102.828 799.085 469.648
2107 0 55.1991 8.06173 445 106.382 799.328 471.991
2108 0 56.1978 8.98611 505 106.879 799.832 471.388
2109 0 56.1744 8.59823 483 108.845 798.849 471
2110 0 59.2147 11.1796 662 112.048 799.997 472.74
2111 0 65.068 12.5715 818 109.406 799.543 474.062
2112 0 62.1681 12.7075 790 101.097 798.832 465.268
2113 0 62.0849 10.6789 663 107.182 798.46 465.781
2114 0 66.0741 11.9865 792 104.205 798.697 465.629
2115 0 69.1807 11.3326 784 105.193 798.695 465.546
2116 0 70.2051 11.5804 813 104.934 799.574 464.785
2117 0 72.1381 11.8523 855 105.488 799.444 462.963
2118 0 73.0793 11.2617 823 106.713 799.45 463.993
2119 0 74.0715 11.7454 870 107.837 800.054 459.324
2120 0 79.1206 12.2219 967 105.939 799.354 461.161
2121 0 80.0532 12.4042 993 106.749 798.879 460.636
2122 0 81.1495 11.6698 947 109.839 798.439 457.275
2123 0 84.089 12.2965 1034 108.131 799.119 457.237
2124 0 89.137 13.182 1175 106.93 799.248 454.86
2125 0 89.1099 12.5239 1116 109.902 799.655 453.866
2126 0 95.0696 13.1693 1252 108.869 799.518 454.03
2127 0 96.0847 13.0302 1252 113.517 799.152 450.566
2128 0 99.09 12.7864 1267 115.118 798.912 449.772
2129 0 103.157 13.1644 1358 116.72 799.148 447.512
2130 1 57.0805 11.0371 630 118.821 799.695 471.656
2131 0 57.1173 12.1329 693 119.825 799.39 467.919
2132 0 61.1997 12.2386 749 112.854 798.769 469.164
2133 0 63.2526 11.7465 743 113.674 798.549 469.196
2134 0 63.2449 10.7993 683 117.417 798.382 465.81
2135 0 66.0561 10.9452 723 117.256 798.454 467.347
2136 0 69.0719 12.2192 844 113.731 798.229 465.482
2137 0 72.0861 11.2643 812 113.73 798.45 466.248
2138 0 71.164 11.0027 783 117.226 797.931 463.398
2139 0 76.1238 12.6242 961 112.379 798.402 464.22
2140 0 76.2348 11.6089 885 114.189 799.115 463.17
2141 0 81.0984 12.7499 1034 111.817 798.123 461.826
2142 0 82.1612 11.4288 939 115.347 798.635 460.461
2143 0 86.1866 11.5331 994 114.568 798.602 458.752
2144 0 88.1412 11.9127 1050 115.691 798.475 454.05
2145 0 93.1357 12.0255 1120 114.162 798.537 454.565
2146 0 94.2515 11.5224 1086 116.494 798.269 454.383
2147 0 99.2216 12.7795 1268 113.103 798.817 454.673
2148 0 101.196 12.4214 1257 115.09 797.792 451.847
2149 0 104.125 11.5534 1203 116.879 798.529 450.976
2150 0 108.155 11.6869 1264 115.643 798.959 449.835
2151 0 113.251 12.1941 1381 114.357 797.646 445.732
2152 1 66.1896 11.316 749 107.776 797.76 471.836
2153 0 67.1886 12.2193 821 107.47 798.331 469.14
2154 0 65.1383 10.4086 678 108.611 798.398 464.709
2155 0 67.1043 12.2496 822 103.03 799.279 463.319
2156 0 71.2102 11.9365 850 103.082 798.419 463.325
2157 0 71.071 11.0312 784 105.897 799.038 461.476
2158 0 76.1136 11.496 875 104.615 798.709 460.651
2159 0 78.3246 10.4054 815 106.822 798.923 460.583
2160 0 82.1633 11.4285 939 105.154 799.491 458.185
2161 0 84.1982 11.3067 952 106.794 799.701 457.356
2162 0 87.1074 11.0094 959 109.491 799.702 457.642
2163 0 86.2055 11.1014 957 114.357 798.698 453.641
2164 0 91.2579 10.3334 943 115.915 798.481 452.383
2165 0 93.2356 11.1438 1039 115.018 798.39 450.456
2166 0 97.1941 11.2764 1096 116.193 797.608 449.029
2167 0 101.16 10.8145 1094 114.673 797.514 452.292
2168 0 105.241 10.0531 1058 117.943 798.345 450.724
2169 1 59.0985 11.3032 668 107.681 798.271 472.844
2170 0 60.039 10.6431 639 111.274 798.64 475.638
2171 0 63.154 11.8441 748 109.856 799.082 472.785
2172 0 64.1508 10.6312 682 115.518 799.57 472.084
2173 0 67.1354 11.9758 804 108.239 798.667 471.792
2174 0 71.1623 12.3099 876 106.398 798.418 469.47
2175 0 74.0902 14.1179 1046 101.719 798.366 469.335
2176 0 74.1323 11.4255 847 109.178 797.975 465.165
2177 0 79.049 12.954 1024 105.438 797.78 465.444
2178 0 81.1344 13.2003 1071 104.828 797.934 463.41
2179 0 84.1733 12.3792 1042 106.455 798.23 461.994
2180 0 87.1455 12.8291 1118 106.148 798.472 459.865
2181 0 89.0788 12.169 1084 108.979 798.333 457.566
2182 0 92.1426 12.6977 1170 107.768 798.281 458.358
2183 0 95.2084 12.3519 1176 109.613 798.684 456.016
2184 0 96.2345 12.3449 1188 110.846 798.649 452.572
2185 0 101.16 12.2973 1244 111.064 798.322 452.678
2186 0 104.144 14.0574 1464 107.422 798.727 451.976
2187 0 107.097 13.091 1402 111.297 797.678 449.165
2188 0 110.2 12.5317 1381 114.657 799.076 446.256
2189 1 59.1305 12.0581 713 111.621 797.534 472.355
2190 0 61.0883 12.0154 734 113.85 797.44 471.496
2191 0 63.1385 12.6706 800 113.309 798.21 469.409
2192 0 64.0636 11.9413 765 114.641 797.937 469.792
2193 0 64.0316 11.3069 724 116.142 797.213 469.423
2194 0 68.0971 12.3353 840 113.823 797.433 467.033
2195 0 71.0859 13.9972 995 108.881 797.539 467.239
2196 0 71.0432 12.1053 860 114.643 797.977 464.667
2197 0 74.143 11.8015 875 113.326 798.365 464.854
2198 0 78.1545 12.1938 953 111.632 797.576 464.044
2199 0 81.1433 12.4594 1011 111.548 797.682 462.071
2200 0 83.0808 13.0355 1083 110.369 798.087 460.106
2201 0 87.123 12.3274 1074 112.359 797.502 458.512
2202 0 87.0628 12.715 1107 112.789 796.684 456.452
2203 0 89.1508 12.7649 1138 112.86 797.453 456.834
2204 0 93.1793 12.975 1209 112.51 797.591 455.064
2205 0 97.238 13.359 1299 115.207 796.856 454.867
2206 0 101.157 13.7905 1395 113.543 797.411 452.006
2207 0 102.115 12.1334 1239 117.057 797.664 452.828
2208 0 106.086 13.2816 1409 114.142 797.159 448.099
2209 0 110.069 13.337 1468 112.235 797.33 449.172
2210 0 112.109 13.1479 1474 114.185 797.62 445.841
2211 0 116.134 12.5803 1461 116.696 797.47 446.209
2212 0 120.054 13.2191 1587 114.616 798.217 444.456
2213 0 125.229 13.9584 1748 112.382 797.362 446.089
2214 1 72.1286 10.7586 776 114.17 797.443 466.927
2215 0 75.1216 11.4747 862 115.37 797.812 464.281
2216 0 78.1212 12.9158 1009 112.951 797.479 462.996
2217 0 80.187 12.4459 998 114.612 797.141 465.75
2218 0 83.1037 11.973 995 116.019 796.896 463.065
2219 0 87.1597 13.4466 1172 112.972 796.793 459.705
2220 0 86.2864 10.7433 927 121.732 796.694 458.65
2221 0 91.1397 12.5083 1140 116.513 798.099 457.9
2222 0 94.2083 12.3874 1167 117.179 797.762 457.928
2223 0 96.1832 12.7777 1229 114.837 798.627 457.203
2224 0 98.2697 11.1937 1100 119.694 798.573 454.701
2225 0 104.241 11.9339 1244 116.51 798.95 452.84
2226 0 108.327 12.73 1379 114.945 798.954 451.227
2227 0 109.313 12.7798 1397 114.001 799.258 451.626
2228 0 114.183 11.6041 1325 117.494 798.774 448.691
2229 1 63.2283 10.9603 693 116.639 798.261 472.211
2230 0 67.259 12.4147 835 115.04 797.782 470.503
2231 0 66.0391 11.6143 767 114.703 797.565 466.381
2232 0 71.1597 13.7297 977 110.172 797.313 468.252
2233 0 70.1987 11.9375 838 118.048 797.928 465.322
2234 0 74.2317 11.8817 882 117.6 797.63 464.509
2235 0 76.2735 12.3241 940 116.406 798.03 467.961
2236 0 79.26 12.3518 979 117.374 798.161 466.106
2237 0 81.353 13.1034 1066 116.047 798.381 464.932
2238 0 84.4452 13.7367 1160 115.578 798.19 460.889
2239 0 86.3475 12.5655 1085 117.118 798.371 461.477
2240 0 88.3278 12.8838 1138 115.453 797.899 459.774
2241 0 89.2749 12.6687 1131 116.561 798.314 454.501
2242 0 93.326 15.4512 1442 109.133 798.578 453.289
2243 0 96.3966 12.5627 1211 115.815 797.841 449.124
2244 0 98.2872 12.9111 1269 115.853 798.14 447.31
2245 0 101.275 13.0733 1324 114.266 798.738 448.368
2246 0 103.168 14.2874 1474 110.265 798.003 445.545
2247 1 58.0258 10.616 616 111.154 797.328 468.883
2248 0 58.0707 9.454 549 112.539 797.224 469.772
2249 0 59.1526 10.8364 641 110.995 797.215 465.821
2250 0 61.1202 10.7166 655 108.667 798.218 466.118
2251 0 65.1754 11.1852 729 100.196 798.47 466.73
2252 0 65.0475 10.4846 682 102.698 798.628 466.457
2253 0 62.0599 9.34581 580 107.383 798.767 462.167
2254 0 67.1079 10.8333 727 103.286 799.283 463.172
2255 0 68.0868 9.1354 622 106.283 798.981 464.092
2256 0 70.0821 9.41753 660 107.012 800.189 460.171
2257 0 73.0617 10.3474 756 105.22 799.136 461.817
2258 0 76.0569 10.742 817 102.715 799.43 464.862
2259 0 77.06 10.9655 845 105.169 799.125 461.679
2260 0 77.1339 11.1883 863 105.138 798.847 462.177
2261 0 81.1092 9.81394 796 109.466 798.367 459.294
2262 0 81.1233 10.2683 833 109.94 798.198 459.846
2263 0 85.1178 8.70558 741 111.891 798.185 459.896
2264 0 90.0935 11.1773 1007 108.954 797.602 461.19
2265 0 90.0833 11.0231 993 111.607 798.015 458.902
2266 0 95.1192 10.7339 1021 112.046 797.406 460.265
2267 0 98.1253 11.2509 1104 112.211 797.168 460.512
2268 0 101.155 12.4463 1259 111.011 797.055 456.477
2269 1 58.1147 9.80818 570 107.712 796.777 482.274
2270 0 59.0511 11.2784 666 111.173 796.104 482.655
2271 0 60.115 11.6443 700 103.146 796.297 481.626
2272 0 63.0552 11.3393 715 104.596 795.508 480.022
2273 0 65.0796 12.6614 824 102.931 795.502 477.873
2274 0 66.1421 12.3219 815 104.706 795.416 475.955
2275 0 70.0374 12.0364 843 104.949 795.157 476.605
2276 0 69.0386 11.3849 786 107.941 794.634 475.425
2277 0 73.1905 11.9004 871 108.094 794.212 470.998
2278 0 76.0789 12.9339 984 105.805 794.409 471.498
2279 0 77.112 12.5272 966 108.739 794.42 469.03
2280 0 79.1744 12.163 963 109.265 793.528 468.079
2281 0 82.0774 12.0618 990 109.93 793.594 466.247
2282 0 85.1247 11.7945 1004 110.568 793.082 464.307
2283 0 86.1577 10.8522 935 113.585 793.318 461.756
2284 0 91.2157 12.4978 1140 110.62 792.724 461.27
2285 0 93.0756 11.5497 1075 114.417 792.032 459.079
2286 0 96.1195 13.7017 1317 109.767 792.537 457.684
2287 0 99.1364 12.1247 1202 114.311 792.389 456.036
2288 1 52.0303 8.36051 435 119.694 791.244 478.122
2289 0 57.1313 10.7997 617 114.515 792.071 478.433
2290 0 58.1655 10.8827 633 113.588 792.055 479.302
2291 0 61.0069 10.5398 643 114.555 791.471 480.505
2292 0 64.0659 12.1437 778 111.328 791.482 479.679
2293 0 65.0986 9.80052 638 116.582 791.074 478.216
2294 0 68.0439 11.2133 763 113.111 792.695 476.877
2295 0 70.0415 11.3504 795 112.153 792.177 477.743
2296 0 68.0779 10.4292 710 116.818 792.069 474.452
2297 0 78.0576 12.2602 957 109.046 792.329 475.685
2298 0 77.0924 11.2852 870 111.392 793.547 472.756
2299 0 80.0613 9.99235 800 113.548 794.116 470.706
2300 0 81.1094 10.566 857 113.233 794.492 465.072
2301 0 87.1649 10.4973 915 111.65 793.52 468.591
2302 0 91.0867 10.243 933 111.845 793.271 466.765
2303 0 91.0836 10.913 994 112.674 792.754 462.758
2304 0 98.077 11.9804 1175 108.755 793.313 463.05
2305 0 100.263 10.632 1066 113.383 792.309 458.51
2306 0 101.16 11.4373 1157 112.914 793.056 459.846
2307 0 105.083 12.1618 1278 111.483 793.164 457.234
2308 0 111.225 12.8029 1424 109.511 792.098 456.499
2309 1 60.034 8.02878 482 105.22 792.17 481.506
2310 0 64.0906 8.61281 552 102.875 792.692 481.884
2311 0 66.1023 12.2991 813 95.941 792.439 478.502
2312 0 70.0234 11.2248 786 97.687 793.011 477.534
2313 0 71.0508 10.8092 768 100.103 792.845 481.406
2314 0 71.0304 9.24956 657 104.798 793.706 476.312
2315 0 76.0601 11.2017 852 100.339 792.892 477.238
2316 0 78.0957 9.52678 744 104.544 793.301 474.065
2317 0 81.0912 11.7522 953 99.5299 793.257 475.895
2318 0 83.0673 11.4847 954 101.581 792.164 470.396
2319 0 88.0676 11.2641 992 101.409 792.11 472.181
2320 0 90.1035 11.2204 1011 101.705 792.685 472.614
2321 0 93.181 11.1396 1038 104.022 792.613 467.37
2322 0 94.1455 10.1864 959 105.832 792.693 469.726
2323 0 97.2108 10.5852 1029 106.92 793.234 464.764
2324 0 101.095 11.504 1163 105.243 794.086 466.519
2325 0 102.169 11.1678 1141 108.483 793.205 461.356
2326 0 105.174 11.8755 1249 108.564 793.054 458.295
2327 0 110.167 11.7458 1294 108.532 794.019 458.82
2328 0 113.176 11.46 1297 110.442 793.319 457.62
2329 0 118.284 12.8757 1523 112.984 793.105 449.547
2330 1 62.064 9.74801 605 109.22 793.784 481.326
2331 0 65.0627 11.3583 739 112.495 794.468 483.187
2332 0 68.2448 12.1181 827 110.816 794.576 482.497
2333 0 69.1112 12.1399 839 110.248 794.65 482.658
2334 0 72.1474 12.419 896 111.186 793.902 479.943
2335 0 75.1846 11.5848 871 113.203 794.49 478.484
2336 0 76.0817 11.3036 860 115.116 793.824 477.136
2337 0 78.1619 10.6446 832 116.84 794.709 475.758
2338 0 83.3351 13.2957 1108 112.557 794.954 473.188
2339 0 86.2172 12.6425 1090 115.092 795.106 472.061
2340 0 88.1682 12.7484 1124 115.303 794.825 470.957
2341 0 93.2566 12.7498 1189 116.438 794.606 468.556
2342 0 93.3626 12.4354 1161 119.074 793.957 462.947
2343 0 98.2797 13.0851 1286 117.715 793.634 461.202
2344 0 99.3776 13.5342 1345 118.723 793.595 461.209
2345 0 102.337 12.6543 1295 120.904 794.307 457.852
2346 0 106.292 14.3003 1520 116.855 794.389 454.199
2347 0 109.115 13.3163 1453 119.17 795.356 454.836
2348 0 112.109 14.4234 1617 117.578 794.657 451.47
2349 0 117.211 14.4952 1699 116.887 795.018 447.902
2350 0 121.165 14.2697 1729 119.126 794.934 446.479
2351 0 125.153 14.8618 1860 117.305 795.446 442.333
2352 0 128.168 13.8412 1774 120.362 794.653 442.693
2353 0 132.305 14.663 1940 120.15 794.418 437.381
2354 0 137.376 15.7378 2162 116.42 794.226 438.412
2355 0 140.264 14.929 2094 120.123 794.572 435.819
2356 0 143.321 13.7105 1965 124.71 794.552 433.833
2357 1 77.074 11.2749 869 123.672 794.9 466.058
2358 0 80.1476 11.8282 948 121.945 794.751 463.324
2359 0 83.0963 12.5036 1039 120.277 795.518 462.598
2360 0 86.0643 13.3156 1146 117.729 795.9 463.174
2361 0 89.0698 12.7204 1133 119.668 796.488 458.931
2362 0 93.0906 12.6436 1177 119.898 796.286 458.523
2363 0 93.1139 12.5116 1165 121.678 796.102 457.01
2364 0 96.1578 13.1035 1260 120.355 796.251 457.201
2365 0 100.124 12.3447 1236 123.26 796.812 452.842
2366 0 103.274 13.7789 1423 118.978 796.305 452.339
2367 0 104.254 12.9012 1345 122.858 795.827 449.917
2368 0 108.148 12.261 1326 122.75 796.154 451.64
2369 0 112.09 13.2394 1484 120.574 795.96 449.649
2370 0 115.19 12.6314 1455 122.936 796.743 447.499
2371 0 119.198 13.8174 1647 119.495 796.925 446.38
2372 0 122.134 12.8792 1573 122.889 796.373 446.254
2373 0 128.108 12.6924 1626 122.234 797.123 446.405
2374 1 70.0657 12.5882 882 117.909 796.753 472.395
2375 0 73.0763 12.9864 949 115.164 797.232 472.168
2376 0 76.1641 13.5497 1032 115.064 797.885 468.402
2377 0 78.149 13.6022 1063 108.61 796.524 464.399
2378 0 81.0544 13.3861 1085 108.659 797.229 463.721
2379 0 85.0953 13.3615 1137 108.627 797.744 463.215
2380 0 88.2066 13.0603 1152 108.571 797.808 461.475
2381 0 89.0605 11.8683 1057 111.546 797.83 461.477
2382 0 92.1046 12.0298 1108 110.973 797.61 459.292
2383 0 96.1976 12.0689 1161 110.492 798.061 458.61
2384 0 97.0984 11.8951 1155 110.738 798.05 458.597
2385 0 101.285 13.6348 1381 107.095 798.059 453.726
2386 0 101.296 13.653 1383 135.064 798.068 453.675
2387 0 106.102 12.9309 1372 110.291 797.821 449.499
2388 0 111.112 13.1669 1463 110.884 797.763 451.375
2389 0 115.127 13.6631 1573 110.842 797.742 449.683
2390 0 118.149 13.8215 1633 112.429 798.184 444.895
2391 0 123.191 13.816 1702 112.495 798.376 444.137
2392 0 128.119 13.0504 1672 114.597 798.41 441.358
2393 1 69.0957 12.1136 837 114.461 798.448 467.705
2394 0 72.22 12.8912 931 116.46 797.804 467.926
2395 0 73.0668 12.7965 935 120.582 798.388 466.844
2396 0 76.1052 13.2054 1005 121.286 797.921 463.865
2397 0 80.1966 13.841 1110 118.626 797.922 465.918
2398 0 82.0934 13.5334 1111 121.113 797.383 462.92
2399 0 86.1174 15.0725 1298 117.323 797.213 460.512
2400 0 88.2225 13.4546 1187 122.907 796.614 459.468
2401 0 91.3414 14.1228 1290 121.315 796.66 459.19
2402 0 95.1323 14.7269 1401 120.131 797.278 458.145
2403 0 96.1379 13.4182 1290 124.56 797.187 458.127
2404 0 100.255 14.5528 1459 122.906 796.676 455.524
2405 0 103.245 14.3832 1485 124.436 797.023 453.979
2406 0 106.201 14.5762 1548 125.823 796.466 451.744
2407 0 109.077 14.5769 1590 125.224 797.45 448.282
2408 0 112.251 14.2627 1601 125.98 797.384 449.115
2409 0 115.301 14.293 1648 126.133 796.937 445.974
2410 0 119.316 13.5187 1613 124.014 797.157 445.993
2411 0 123.237 14.3302 1766 121.817 797.894 441.811
2412 0 126.464 13.569 1716 123.777 797.537 439.622
2413 0 132.264 14.1383 1870 120.709 797.12 441.165
2414 0 138.305 13.7016 1895 126.429 796.727 433.601
2415 1 79.1912 13.2338 1048 118.2 796.979 458.931
2416 0 80.0822 12.5496 1005 117.478 796.483 464.348
2417 0 83.3182 13.3224 1110 114.739 797.078 461.289
2418 0 87.2503 13.7421 1199 116.719 796.777 458.918
2419 0 89.2928 13.3605 1193 116.985 796.525 457.656
2420 0 94.3306 14.2266 1342 114.556 796.196 454.022
2421 0 96.1768 13.4232 1291 116.894 796.648 451.926
2422 0 100.266 14.0825 1412 114.426 796.909 451.767
2423 0 103.39 13.9955 1447 114.891 797.299 447.101
2424 0 106.475 13.3365 1420 115.744 797.277 447.87
2425 0 110.368 14.5422 1605 112.952 797.318 446.007
2426 0 114.594 13.1334 1505 115.613 796.904 444.503
2427 0 115.522 11.8073 1364 118.905 796.957 442.576
2428 0 119.369 11.6278 1388 120.9 797.198 439.688
2429 1 69.2591 11.0455 765 111.907 797.935 465.825
2430 0 71.2907 10.1556 724 113.475 797.116 465.075
2431 0 74.3971 12.2317 910 110.18 796.824 461.802
2432 0 77.3874 11.604 898 111.487 797.402 460.915
2433 0 80.2866 12.1066 972 110.181 796.905 459.664
2434 0 83.3998 12.2782 1024 109.857 796.917 459.128
2435 0 87.4546 12.1435 1062 110.647 797.219 457.649
2436 0 90.4405 11.6651 1055 110.113 797.164 459.753
2437 0 94.3816 12.4071 1171 109.958 797.853 454.347
2438 0 96.3993 12.2822 1184 110.871 797.79 453.195
2439 0 97.2204 11.3865 1107 114.21 797.271 450.107
2440 0 102.328 12.587 1288 111.947 797.354 449.882
2441 0 106.475 13.421 1429 111.563 797.002 446.91
2442 1 57.2121 10.767 616 109.896 797.388 472.399
2443 0 59.145 11.3619 672 111.835 797.515 476.723
2444 0 61.0728 10.512 642 117.084 797.729 473.587
2445 0 64.1305 10.9308 701 116.658 797.24 473.864
2446 0 66.4781 13.2074 878 111.891 797.3 470.966
2447 0 66.2313 12.4866 827 116.03 797.383 469.877
2448 0 68.1485 11.8271 806 118.357 796.921 467.284
2449 0 72.2883 12.8513 929 115.97 796.949 464.481
2450 0 75.2314 12.1625 915 118.433 796.458 463.29
2451 0 77.2288 12.845 992 118.245 796.769 462.581
2452 0 80.3848 12.3406 992 119.457 796.833 461.552
2453 0 83.3478 13.9896 1166 116.448 796.491 459.558
2454 0 86.492 13.4463 1163 117.772 796.909 458.057
2455 0 88.5249 13.5555 1200 118.725 796.565 457.179
2456 0 92.5016 13.0592 1208 120.365 796.464 455.749
2457 0 94.3867 13.2858 1254 119.484 796.793 454.451
2458 0 96.4933 12.0112 1159 124.14 797.46 450.46
2459 0 99.4698 12.7275 1266 124.186 796.765 448.278
2460 0 104.41 12.1828 1272 126.192 797.089 447.083
2461 0 108.412 12.1388 1316 126.771 797.543 446.32
2462 1 61.3437 11.0851 680 118.887 796.996 471.029
2463 0 64.194 11.7612 755 117.868 796.687 471.392
2464 0 67.0261 13.8454 928 112.553 797.728 472.939
2465 0 69.0957 12.0268 831 117.243 797.7 472.322
2466 0 70.074 12.1158 849 119.664 797.839 469.021
2467 0 74.2007 13.0457 968 115.162 798.775 468.263
2468 0 75.1417 12.7359 957 117.874 798.887 463.336
2469 0 76.1902 12.2719 935 118.494 798.134 464.327
2470 0 80.3486 12.2093 981 118.078 798.159 461.698
2471 0 83.2952 12.5818 1048 116.533 798.698 458.512
2472 0 86.2899 11.9133 1028 115.747 798.843 458.309
2473 0 89.2399 13.1668 1175 113.333 798.362 455.329
2474 0 93.2574 11.8489 1105 114.872 798.864 454.675
2475 0 96.2553 12.0513 1160 114.141 798.871 454.619
2476 0 101.16 12.584 1273 112.871 798.654 451.252
2477 0 104.299 12.0903 1261 113.624 798.751 448.263
2478 1 58.0913 10.1048 587 106.036 799.296 474.571
2479 0 61.1871 11.2279 687 103.856 799.258 472.312
2480 0 62.0678 10.5852 657 104.898 799.215 472.394
2481 0 65.1436 10.5152 685 104.829 799.26 471.872
2482 0 66.1082 11.814 781 101.371 798.923 469.994
2483 0 67.1153 11.443 768 103.19 798.669 468.59
2484 0 69.1536 10.8165 748 104.176 798.602 467.787
2485 0 72.045 10.7155 772 103.352 798.412 465.78
2486 0 73.1259 10.311 754 102.597 799.378 464.887
2487 0 76.0587 11.5043 875 101.329 798.799 464.551
2488 0 78.1067 10.2552 801 103.71 798.66 458.753
2489 0 82.1868 11.632 956 100.805 798.854 460.827
2490 0 86.2346 11.7586 1014 100.125 798.17 459.227
2491 0 88.1032 11.1347 981 103.873 798.761 456.777
2492 0 90.0631 11.4808 1034 103.162 798.493 457.703
2494 0 93.049 12.0367 1120 102.038 798.072 456.917
2495 0 96.1164 12.1311 1166 102.481 797.979 451.978
2496 0 100.31 10.5473 1058 105.905 797.324 447.683
2497 0 103.357 11.6199 1201 103.74 798.671 443.524
2498 0 106.242 11.295 1200 105.438 798.594 441.888
2499 0 110.274 11.6437 1284 101.88 798.61 442.424
2500 1 59.3721 11.4869 682 94.0235 798.705 468.623
2501 0 60.2155 12.1231 730 93.1699 799.023 465.686
2502 0 62.1026 11.5454 717 94.7392 797.347 470.455
2503 0 64.1322 11.6634 748 95.111 797.735 469.614
2504 0 64.2031 11.3857 731 96.7456 797.192 467.586
2505 0 66.1255 11.9621 791 99.024 797.016 466.705
2506 0 71.144 11.8773 845 96.4083 797.944 466.344
2507 0 72.1806 10.9725 792 99.5707 798.39 463.462
2508 0 76.1701 12.157 926 98.1015 798.342 464.42
2509 0 76.2318 13.0654 996 100.062 797.885 462.276
2510 0 79.2175 12.472 988 101.855 798.352 462.919
2511 0 82.1331 13.1616 1081 101.805 798.014 461.978
2512 0 82.1833 13.1414 1080 103.738 798.021 459.071
2513 0 88.3349 13.4828 1191 102.716 798.5 458.976
2514 0 90.4112 13.0625 1181 104.656 798.52 458.451
2515 0 91.3221 11.9577 1092 108.013 798.484 456.919
2516 0 93.4748 12.0674 1128 107.737 798.495 454.359
2517 0 96.2499 10.9611 1055 107.376 798.685 453.021
2518 0 99.2545 11.4755 1139 106.785 798.49 449.845
2519 0 100.389 11.6148 1166 107.533 799.311 451.544
2520 0 103.178 12.4639 1286 106.107 799.388 451.774
2521 0 105.244 12.2952 1294 107.937 799.56 450.434
2522 0 109.254 11.5694 1264 109.278 799.548 448.931
2523 0 114.305 13.0703 1494 106.484 799.667 445.703
2524 0 116.219 12.2785 1427 109.317 799.669 442.281
2525 0 121.227 12.5962 1527 110.151 799.163 440
2526 0 121.278 11.8406 1436 113.065 799.235 441.432
2527 0 127.294 11.6659 1485 114.622 799.956 434.404
2528 0 131.478 9.82675 1292 117.736 799.607 436.615
2529 0 139.211 10.2075 1421 118.082 799.44 431.931
2530 0 140.425 11.7927 1656 113.471 799.367 431.537
2531 0 145.393 10.8877 1583 116.423 799.131 424.968
2532 0 151.368 11.1582 1689 117.661 797.893 424.857
2533 0 156.469 11.3441 1775 117.881 799.318 420.491
2534 0 160.427 11.2387 1803 118.903 799.745 419.428
2535 0 165.393 12.0078 1986 117.5 799.182 416.453
2536 0 169.355 11.1186 1883 121.841 798.687 409.69
2537 0 177.389 11.782 2090 120.006 799.504 408.352
2538 0 183.403 11.5429 2117 120.637 799.668 408.061
2539 0 189.388 11.3629 2152 121.776 798.433 403.976
2540 0 189.402 11.304 2141 143.9 797.446 403.774
2541 1 200.363 12.3276 2470 119.894 798.925 396.759
2542 0 207.255 13.4279 2783 116.904 798.782 395.355
2543 0 214.356 12.4419 2667 120.535 798.968 393.407
2544 0 217.33 13.0585 2838 120.854 799.07 394.83
2545 0 224.319 13.3604 2997 124.1 798.748 385.144
2546 0 231.522 13.0053 3011 126.802 798.582 381.092
2547 0 240.397 14.8629 3573 124.347 799.18 374.391
2548 0 248.459 13.8453 3440 125.915 799.585 374.319
2549 0 252.603 13.2144 3338 128.595 799.68 369.938
2550 0 260.416 13.1981 3437 125.028 799.444 367.516
2551 0 271.486 13.7281 3727 123.464 799.922 364.335
2552 0 281.582 13.6053 3831 124.067 798.931 355.636
2553 0 290.416 13.7975 4007 123.693 799.168 351.156
2554 1 344.554 7.8043 2689 131.842 798.855 364.197
2555 0 346.795 26.892 9326 85.8863 798.339 301.998
2556 0 344.643 22.368 7709 96.794 798.94 307.741
2557 0 334.575 16.2146 5425 116.741 799.325 325.059
2558 0 342.749 16.1284 5528 118.342 798.908 317.411
2559 0 354.786 15.8434 5621 120.875 797.979 309.296
2560 0 367.792 16.3788 6024 118.133 798.98 305.537
2561 0 380.14 17.3147 6582 116.998 798.916 296.178
2562 0 389.788 15.5418 6058 123.025 799.032 292.397
2563 0 401.908 16.0086 6434 122.635 798.843 284.287
2564 0 395.38 17.8486 7057 120.134 799.647 265.234
2565 0 390.588 16.424 6415 125.324 799.997 271.562
2566 1 86.3473 10.423 900 106.951 799.744 443.896
2567 0 84.3117 9.23952 779 108.435 799.33 449.294
2568 0 89.2998 12.2061 1090 104.295 799.572 450.675
2569 0 91.0751 13.2638 1208 103.61 800.609 453.435
2570 0 93.197 13.1657 1227 105.04 800.041 450.038
2571 0 96.1542 12.4592 1198 105.994 800.5 451.036
2572 0 97.1791 10.6196 1032 113.516 800.32 448.214
2573 0 102.267 11.1864 1144 110.29 799.986 450.252
2574 0 108.351 11.6658 1264 108.864 800.261 448.695
2575 0 112.312 11.7352 1318 108.417 800.572 449.529
2576 0 113.278 12.5973 1427 107.964 800.527 442.44
2577 0 117.499 12.0938 1421 108.815 799.699 442.105
2578 0 120.427 12.0321 1449 110.204 799.847 439.061
2579 0 124.186 11.5472 1434 109.631 799.832 436.179
2580 0 130.649 12.3843 1618 108.694 799.353 435.694
2581 1 161.802 16.5634 2680 90.994 799.286 420.515
2582 0 164.846 18.7387 3089 84.9369 799.002 401.422
2583 1 220.534 7.07827 1561 117.909 797.833 391.08
2584 0 214.645 18.5748 3987 99.294 798.353 343.884
2585 1 90.4597 10.7783 975 112.206 799.012 422.772
2586 0 89.1984 10.7401 958 103.643 799.078 423.448
2587 0 92.1746 10.8815 1003 103.508 798.66 424.904
2588 0 95.2974 11.4798 1094 105.699 799.816 425.952
2589 0 96.2262 12.003 1155 108.618 799.823 429.378
2590 0 100.302 11.4952 1153 111.073 799.494 433.051
2591 0 102.31 11.3478 1161 116.328 799.81 430.506
2592 0 106.252 11.8398 1258 115.977 800.171 426.742
2593 0 106.251 11.4728 1219 118.556 799.185 427.348
2594 0 109.313 12.6518 1383 115.92 799.11 431.458
2595 0 114.25 12.3939 1416 116.255 799.478 433.518
2596 0 115.238 12.2529 1412 118.767 799.594 431.095
2597 0 118.195 13.52 1598 117.339 799.329 428.613
2598 0 122.254 13.1121 1603 118.754 798.968 429.452
2599 0 124.228 12.5495 1559 121.266 799.496 428.674
2600 0 127.149 12.9612 1648 121.854 799.744 422.331
2601 0 132.26 13.7154 1814 119.108 799.652 426.532
2602 0 138.185 13.2503 1831 119.937 799.65 421.889
2603 0 138.349 12.2371 1693 124.657 800.112 418.986
2604 0 142.237 13.0416 1855 121.988 799.956 412.295
2605 0 148.28 13.0227 1931 120.219 799.761 411.071
2606 0 153.207 12.989 1990 119.758 799.759 411.368
2607 1 85.114 10.4213 887 112.393 800.847 443.476
2608 0 89.4857 10.1469 908 108.562 799.624 442.572
2609 0 92.1906 11.563 1066 114.619 799.489 449.032
2610 0 96.3707 13.0641 1259 111.144 799.225 447.26
2611 0 98.3448 12.5477 1234 112.333 799.456 443.664
2612 0 100.157 11.6617 1168 111.992 800.134 446.135
2613 0 103.09 13.1827 1359 107.589 800.655 442.848
2614 0 105.142 13.2202 1390 108.107 800.642 441.27
2615 0 108.153 11.7334 1269 111.52 801.082 439.707
2616 0 107.126 13.1527 1409 109.436 800.646 434.779
2617 0 111.136 11.5264 1281 113.507 799.909 434.38
2618 0 112.178 12.7565 1431 110.72 799.502 433.184
2619 0 117.126 12.6701 1484 110.277 799.96 435.274
2620 0 122.171 12.0814 1476 111.051 799.678 432.985
2621 0 124.132 14.3235 1778 106.947 798.971 426.412
2622 0 125.126 12.2277 1530 113.839 798.882 423.238
2623 0 131.174 13.9662 1832 109.522 798.991 426.312
2624 0 135.266 13.906 1881 109.951 798.684 420.04
2625 0 140.196 13.4597 1887 110.637 798.044 419.124
2626 0 143.338 13.5065 1936 111.198 798.263 418.433
2627 0 150.41 14.6266 2200 108.125 798.003 417.772
2628 0 152.287 13.1659 2005 112.564 797.683 412.873
2629 0 158.357 12.636 2001 114.339 798.047 411.296
2630 0 161.341 12.9043 2082 114.108 797.697 407.506
2631 0 168.443 12.8352 2162 115.085 798.369 407.943
2632 1 99.1641 10.4675 1038 111.715 798.204 447.824
2633 0 101.082 11.9012 1203 110.705 798.625 448.682
2634 0 105.182 11.2376 1182 104.96 797.907 446.203
2635 0 108.318 11.2262 1216 104.48 797.478 447.281
2636 0 110.197 10.9622 1208 106.464 798.169 441.615
2637 0 114.352 11.9106 1362 105.387 798.582 439.684
2638 0 117.232 11.8312 1387 107.967 798.407 445.022
2639 0 121.261 11.2979 1370 108.756 797.732 442.255
2640 0 126.283 11.6564 1472 108.409 797.866 440.652
2641 0 129.354 13.2504 1714 105.902 798.082 437.054
2642 0 133.305 12.2576 1634 108.293 797.228 439.709
2643 0 138.348 13.2925 1839 106.778 797.551 434.886
2644 0 139.456 11.7098 1633 112.527 797.506 429.892
2645 0 144.358 12.3581 1784 112.548 797.83 426.688
2646 0 148.216 12.6842 1880 111.635 797.25 425.302
2647 0 154.281 12.0883 1865 115.173 797.075 421.653
2648 0 154.281 12.0754 1863 143.399 797.086 421.458
2649 0 164.389 12.8415 2111 117.088 796.771 417.163
2650 0 168.348 12.8009 2155 118.434 796.784 416.833
2651 0 173.324 13.218 2291 118.774 796.828 410.435
2652 0 178.543 13.5261 2415 118.901 796.945 408.665
2653 0 182.427 12.4378 2269 123.178 796.006 401.897
2654 0 188.49 13.396 2525 119.912 796.808 401.472
2655 0 194.633 12.4182 2417 123.402 796.543 398.75
2656 0 197.483 13.4847 2663 120.73 795.885 393.753
2657 0 205.434 13.5324 2780 121.158 796.052 394.717
2658 0 208.329 13.0179 2712 123.386 796.093 395.628
2659 0 213.734 13.7461 2938 121.874 796.826 391.42
2660 0 218.619 14.6556 3204 118.997 796.905 390.561
2661 0 225.56 14.577 3288 119.614 795.924 383.99
2662 0 232.521 14.2439 3312 120.797 795.735 383.687
2663 0 240.791 15.0255 3618 118.608 795.745 382.165
2664 1 33.0351 9.65639 319 98.3511 797.398 490.332
2665 0 34.019 8.99498 306 101.931 797.493 489.412
2666 0 33.0591 7.6832 254 106.929 797.547 489.874
2667 0 35.0235 9.02252 316 103.728 797.209 488.538
2668 0 36.0253 11.1311 401 99.7107 797.424 488.449
2669 0 37.0512 10.0671 373 102.351 797.737 489.472
2670 0 36.0219 10.5214 379 102.354 797.865 488.95
2671 0 36.0578 8.73598 315 107.657 798.032 489.025
2672 0 35.0317 9.73403 341 107.924 798.22 490.147
2673 0 36.1474 10.8445 392 106.834 797.903 488.959
2674 0 37.0295 10.7482 398 106.276 797.57 487.817
2675 0 37.0411 10.0429 372 108.159 797.204 489.422
2676 0 38.018 9.70593 369 109.911 795.477 486.843
2677 0 37.0682 11.3035 419 107.177 796.828 487.869
2678 0 36.0275 9.57601 345 111.516 796.275 490.136
2679 0 38.0252 10.0986 384 109.214 796.839 488.299
2680 1 121.357 10.5226 1277 112.468 798.073 449.049
2681 0 125.338 10.5874 1327 111.864 797.783 445.352
2682 0 128.382 10.531 1352 111.536 798.278 447.629
2683 0 131.45 10.6657 1402 112.079 798.176 444.29
2684 0 136.619 11.3747 1554 109.165 797.526 440.829
2685 0 136.509 10.1678 1388 115.745 798.126 443.268
2686 0 141.24 10.8964 1539 115.794 797.279 438.569
2687 0 144.339 10.51 1517 116.918 797.672 436.18
2688 1 37.0448 11.1756 414 109.94 796.86 488.522
2689 0 46.1387 13.6328 629 91.345 795.491 482.615
2690 0 54.4218 17.1255 932 74.5934 796.086 475.19
2691 0 55.6458 12.8671 716 85.9344 795.763 480.697
2692 0 53.4222 14.1514 756 83.254 795.738 478.374
2693 0 48.2599 14.4012 695 86.8763 795.665 478.78
2694 0 45.0585 14.4923 653 91.1776 795.369 482.098
2695 0 44.235 13.1118 580 94.6983 795.874 481.095
2696 0 43.0946 11.672 503 100.396 795.294 483.535
2697 0 41.0675 12.3699 508 101.287 795.118 483.465
2698 0 42.0404 13.0351 548 99.3704 794.92 484.272
2699 0 40.1238 11.3897 457 104.186 794.801 485.022
2700 0 42.0943 12.0919 509 102.196 795.261 484.008
2701 0 40.0904 11.7235 470 104.249 795.349 482.581
2702 0 40.1592 11.4295 459 104.78 794.908 483.943
2703 0 40.1057 11.2203 450 105.718 796.024 484.518
2704 1 110.27 12.0341 1327 107.487 796.651 451.457
2705 0 111.136 12.3003 1367 106.229 795.951 453.054
2706 0 114.163 12.5522 1433 105.501 795.865 450.841
2707 1 39.0679 10.1106 395 107.967 795.82 485.96
2708 0 40.1578 11.0315 443 105.402 795.368 486.372
2709 0 39.1044 11.0985 434 103.945 795.901 487.988
2710 0 38.0361 9.99051 380 108.368 795.726 486.882
2711 0 40.1305 11.1137 446 104.733 795.834 485.489
2712 0 39.0176 11.482 448 104.112 795.913 486.67
2713 0 37.0489 10.2027 378 107.582 795.979 486.235
2714 0 39.0223 10.4812 409 106.929 795.993 485.641
2715 0 39.1074 10.6885 418 105.23 799.892 488.062
2716 0 41.1162 9.89877 407 107.744 799.641 486.189
2717 0 38.0549 11.1944 426 104.155 799.711 487.444
2718 0 39.0321 10.2736 401 105.461 799.474 487.337
2719 0 40.1166 11.1425 447 103.64 800.19 486.358
2720 0 39.0842 10.5413 412 105.18 799.718 486.439
2721 0 39.0886 11.1797 437 104.412 799.842 485.691
2722 0 38.0258 10.414 396 106.551 799.899 486.013
2723 0 38.0745 9.4814 361 109.114 799.931 485.255
2724 0 39.0275 11.5816 452 103.834 799.903 484.971
2725 0 38.0549 10.6951 407 105.749 799.789 486.01
2726 0 38.0386 10.2002 388 105.794 800.773 485.691
2727 0 40.0867 10.0283 402 104.602 799.823 485.639
2728 0 40.0437 10.4885 420 104.545 799.955 484.714
2729 0 39.0855 10.4387 408 104.414 799.767 484.559
2730 0 41.0258 11.4318 469 101.104 799.846 484.819
2731 0 39.0424 9.42566 368 106.742 800.666 482.75
2732 0 39.0311 9.19779 359 103.791 800.735 486.064
2733 0 39.0691 9.62398 376 104.189 799.407 485.271
2734 0 39.1581 11.3642 445 101.679 800.658 482.382
2735 0 40.149 11.6566 468 100.776 800.84 481.152
2736 0 39.0362 10.4518 408 103.179 800.674 482.89
2737 0 40.0663 9.68394 388 103.863 799.874 482.281
2738 0 39.1165 9.94466 389 104.041 799.805 483.373
2739 0 40.0305 10.2922 412 102.765 798.168 485.828
2740 0 40.0517 9.21308 369 104.336 799.9 486.07
2741 0 39.0364 9.88821 386 103.907 798.593 486.187
2742 0 40.0674 8.46074 339 103.95 800.327 486.552
2743 0 36.0276 7.99388 288 109.069 800.288 485.538
