time division length width area intensity CMx CMy
0 0 36.0171 11.0781 399 132.461 886.03 476.19
1 0 36.0186 11.7995 425 131.395 887.019 475.045
2 0 37.0164 11.3733 421 130.675 887.724 477.028
3 0 37.0977 10.5128 390 135.169 887.515 475.708
4 0 39.0316 11.1448 435 131.156 886.855 475.053
5 0 42.0888 11.5232 485 130.002 887.146 475.19
6 0 43.1052 11.9707 516 128.465 886.913 474.205
7 0 42.0237 12.017 505 129.309 887.174 473.844
8 0 44.0274 12.4468 548 126.318 886.938 473.942
9 0 46.0348 13.3377 614 124.262 887.031 472.549
10 0 46.0216 11.864 546 128.912 886.581 472.736
11 0 49.0649 13.9 682 123.135 887.768 471.441
12 0 50.0542 13.0658 654 125.11 887.024 471.613
13 0 49.0634 12.6367 620 130.371 885.923 471.474
14 0 52.0311 14.4337 751 122.754 885.799 471.244
15 0 53.0722 13.0954 695 128.278 885.776 469.823
16 0 54.1174 14.062 761 124.671 885.445 470.29
17 0 57.0994 13.0649 746 127.617 885.44 469.062
18 0 57.0684 13.6152 777 125.68 885.771 470.135
19 0 60.089 13.5466 814 124.795 885.715 469.498
20 0 63.0673 14.1753 894 123.006 884.487 466.985
21 0 62.0503 13.2634 823 126.33 884.198 468.677
22 0 65.0365 13.1157 853 127.79 884.689 466.735
23 0 66.0513 12.4903 825 129.81 885.177 468.061
24 0 70.1682 13.6529 958 125.645 883.937 465.753
25 0 72.1261 12.8109 924 128.315 883.803 465.005
26 0 73.1033 13.9255 1018 127.525 884.362 461.946
27 0 78.064 12.8228 1001 129.54 884.081 462.512
28 0 78.1103 12.8408 1003 131.823 883.311 462.543
29 0 80.1388 12.9026 1034 133.757 883.514 458.932
30 0 84.1458 13.5004 1136 131.823 883.421 458.673
31 0 85.2212 13.0484 1112 134.226 882.957 459.528
32 0 89.1013 13.9055 1239 131.224 882.366 459.114
33 0 91.1282 13.9693 1273 132.898 882.673 456.919
34 0 93.127 13.1004 1220 134.323 882.441 457.341
35 0 96.1063 12.9648 1246 136.086 882.733 455.353
36 0 98.1827 13.6378 1339 135.044 883.391 452.949
37 0 100.06 13.4119 1342 136.284 883.265 453.088
38 0 105.167 14.3011 1504 132.894 882.715 448.539
39 0 109.165 14.2811 1559 131.621 882.404 448.144
40 0 112.13 13.1366 1473 135.797 882.24 446.291
41 0 118.177 15.206 1797 127.37 882.774 445.02
42 0 120.162 13.9229 1673 132.383 882.338 443.401
43 0 125.079 15.3024 1914 129.279 883.176 440.099
44 0 128.202 14.0716 1804 133.287 882.646 439.661
45 0 132.177 14.367 1899 133.191 882.214 436.616
46 0 136.262 14.0979 1921 130.806 882.079 431.965
47 0 141.163 14.8055 2090 130.298 882.127 432.216
48 0 147.204 14.7551 2172 130.765 882.54 424.288
49 0 153.185 15.3018 2344 128.452 881.791 424.065
50 0 158.295 15.2374 2412 130.015 881.606 422.001
51 1 73.0807 13.4646 984 130.376 882.53 461.551
52 0 76.0137 13.024 990 131.44 882.357 460.769
53 0 79.0758 13.5187 1069 132.812 881.95 461.235
54 0 81.0486 14.6332 1186 129.806 882.18 460.336
55 0 83.0236 13.4058 1113 132.695 882.36 459.356
56 0 88.0793 14.6005 1286 128.775 882.677 456.931
57 0 89.0762 14.8075 1319 130.195 881.663 457.93
58 0 92.075 15.0421 1385 129.471 882.098 456.62
59 0 95.0958 14.8587 1413 130.245 882.778 455.738
60 0 99.1048 15.1052 1497 127.067 881.657 449.868
61 0 104.149 14.9785 1560 126.307 881.57 450.896
62 0 105.069 15.3899 1617 127.923 881.562 447.943
63 0 109.118 14.9563 1632 128.714 880.987 447.392
64 0 112.194 15.8209 1775 127.008 882.001 443.728
65 0 118.143 14.965 1768 129.986 881.685 443.682
66 0 119.129 15.0006 1787 132.153 880.91 441.309
67 0 125.122 14.5378 1819 134.604 881.084 439.388
68 0 130.237 16.1628 2105 130.286 881.62 435.943
69 0 134.191 14.7477 1979 133.974 881.024 433.908
70 0 142.242 14.8058 2106 133.227 881.54 430.691
71 1 70.1549 12.4011 870 132.877 881.07 466.587
72 0 74.056 13.5978 1007 129.777 880.803 465.072
73 0 76.0512 12.8861 980 131.342 881.535 462.313
74 0 78.0581 13.0416 1018 130.981 881.537 460.653
75 0 81.1437 13.2235 1073 128.792 880.698 459.02
76 0 83.1594 13.6244 1133 128.216 881.24 457.544
77 0 86.1493 13.523 1165 127.536 880.973 455.446
78 0 89.1413 13.574 1210 126.797 880.926 453.564
79 0 93.1295 13.9161 1296 125.99 880.889 452.063
80 0 97.2707 13.6321 1326 125.429 881.64 449.809
81 0 100.13 14.0217 1404 124.41 881.391 448.85
82 0 104.192 13.4656 1403 124.526 881.76 446.91
83 0 108.12 13.3093 1439 124.611 881.224 443.453
84 0 112.176 13.3897 1502 125.052 881.622 444.365
85 0 119.236 14.8865 1775 120.626 881.362 441.448
86 0 122.069 12.8698 1571 125.966 881.067 443.605
87 1 52.0611 11.3328 590 113.149 882.181 480.224
88 0 53.0149 12.3362 654 111.872 881.581 478.722
89 0 54.1331 11.8597 642 113.498 880.899 478.354
90 0 57.0983 11.8567 677 111.845 880.632 478.518
91 0 56.1478 11.4519 643 114.877 881.09 475.874
92 0 60.1019 12.196 733 112 880.587 474.932
93 0 61.1121 10.9798 671 114.706 880.996 472.799
94 0 66.0417 12.0378 795 109.925 881.288 472.595
95 0 69.2053 13.2504 917 113.198 880.598 469.834
96 0 73.1628 12.192 892 115.033 880.668 469.201
97 0 75.2349 12.441 936 114.26 880.848 468.75
98 0 77.0961 12.7503 983 113.08 880.057 467.768
99 1 40.0264 11.9921 480 103.61 881.192 486.594
100 0 41.0849 11.1477 458 105.124 880.328 483.88
101 0 41.0355 11.1123 456 106.382 880.482 484.208
102 0 45.0324 10.7256 483 105.578 880.816 483.948
103 0 47.0392 11.3947 536 104.752 881.131 482.194
104 0 47.0391 10.9483 515 105.682 880.598 483.674
105 0 48.0145 11.2674 541 106.835 880.958 481.187
106 0 51.0425 11.7745 601 105.561 880.334 480.153
107 0 50.0684 11.7639 589 107.793 880.71 478.643
108 0 52.0548 10.6234 553 116.707 880.392 478.613
109 0 56.0482 13.2743 744 109.956 879.937 477.569
110 0 56.1016 12.1209 680 113.647 879.45 476.009
111 0 59.0738 12.222 722 113.612 879.395 476.26
112 0 61.1398 12.9376 791 112.058 880.067 475.133
113 0 60.0476 12.4734 749 115.069 879.698 473.762
114 0 62.0612 12.2943 763 115.452 879.194 473.172
115 0 66.0452 14.157 935 110.645 879.803 472.84
116 0 68.0274 13.6857 931 113.077 879.325 469.435
117 0 70.0554 12.4045 869 116.512 879.652 468.922
118 0 71.091 12.6176 897 117.049 879.338 468.827
119 0 75.0956 13.3297 1001 115.949 879.102 467.157
120 0 76.0643 13.9882 1064 115.056 879.242 466.516
121 0 81.1042 13.8094 1120 115.386 879.452 464.281
122 0 83.1545 14.1664 1178 112.599 878.817 464.059
123 0 85.1543 13.0352 1110 116.872 879.46 463.186
124 0 89.1103 13.3655 1191 114.804 879.157 461.182
125 0 93.1057 13.8767 1292 112.185 879.99 460.69
126 0 95.138 12.813 1219 115.86 878.734 457.521
127 1 47.0683 11.9826 564 109.429 878.447 481.427
128 0 49.2704 11.447 564 110.885 880.186 478.996
129 0 50.1204 11.0534 554 112.076 879.188 481.038
130 0 49.0628 10.8636 533 113.356 879.402 480.174
131 0 54.2136 12.3954 672 110.068 879.22 479.353
132 0 55.1125 12.2658 676 111.633 879.092 477.641
133 0 58.2096 14.087 820 106.648 879.75 476.738
134 0 59.2133 12.4634 738 111.244 879.435 476.409
135 0 60.127 12.4237 747 111.989 879.51 475.404
136 0 61.1387 11.9728 732 115.601 879.066 473.679
137 0 62.2269 12.3419 768 115.247 879.478 473.017
138 0 65.1772 13.1027 854 114.978 878.842 471.611
139 0 68.122 13.0501 889 114.227 878.818 472.324
140 0 68.1584 13.6447 930 115.577 879.775 469.777
141 0 68.0738 11.9576 814 121.036 879.591 470.267
142 0 71.1594 12.6477 900 119.62 879.026 469.447
143 0 74.1097 13.2776 984 117.708 879.649 467.183
144 0 75.1514 13.1468 988 120.181 879.319 464.285
145 0 79.1358 13.5211 1070 120.206 880.042 464.382
146 0 81.2097 13.1265 1066 121.211 880.215 463.598
147 0 82.1058 14.2865 1173 120.653 878.889 464.907
148 0 85.1306 13.2267 1126 123.849 879.666 461.397
149 0 88.1728 13.5643 1196 122.581 879.27 461.431
150 0 91.3292 11.8691 1084 127.429 879.542 460.613
151 1 51.1741 11.2557 576 122.212 880.391 478.898
152 0 51.1591 11.904 609 121.323 880.205 479.297
153 0 54.032 12.1965 659 121.894 880.883 477.328
154 0 53.1128 11.5038 611 118.527 879.607 477.416
155 0 58.0478 12.1452 705 120.156 880.165 476.43
156 0 59.1368 13.4603 796 116.046 880.773 475.334
157 0 61.0885 13.063 798 116.945 880.566 472.866
158 0 62.0918 12.5942 782 117.986 881.23 472.976
159 0 62.0918 12.5781 781 140.941 882.215 472.869
160 0 64.0442 11.8512 759 119.783 880.69 471.141
161 0 68.1186 14.4894 987 112.26 881.689 469.026
162 0 68.0353 10.5827 720 120.593 880.738 468.708
163 0 72.0577 13.8916 1001 112.333 880.682 467.654
164 0 75.1227 12.4463 935 114.918 880.328 466.864
165 0 77.0834 13.9978 1079 112.182 880.279 464.666
166 0 79.0929 12.3778 979 115.482 879.542 463.636
167 0 79.0602 12.5727 994 116.101 880.189 461.626
168 0 85.1083 13.6532 1162 111.59 879.922 461.081
169 0 87.1579 12.5978 1098 113.557 880.05 460.952
170 0 88.2147 12.1182 1069 116.224 880.167 457.915
171 0 90.091 12.2765 1106 115.514 879.952 455.374
172 0 95.1589 11.98 1140 114.822 879.489 457.064
173 0 99.1954 11.9562 1186 115.218 879.922 454.436
174 0 100.215 12.0042 1203 116.259 879.163 452.671
175 1 50.0881 9.96244 499 109.327 879.713 479.599
176 0 50.0902 10.6807 535 108.531 879.512 477.191
177 0 54.0362 12.1585 657 106.381 880.166 475.871
178 0 55.0509 10.8627 598 109.129 880.313 475.339
179 0 58.0723 11.4512 665 113.755 881.156 474.244
180 0 62.1276 13.585 844 79.9775 880.295 474.854
181 0 62.0526 11.732 728 110.687 880.626 473.723
182 0 62.0277 12.043 747 111.237 880.454 473.511
183 0 64.0979 12.1065 776 112.03 879.546 470.531
184 0 68.0871 11.5734 788 111.492 879.582 471.567
185 0 68.2584 11.9106 813 113.865 880.315 467.408
186 0 70.3954 10.3274 727 117.293 880.783 466.173
187 0 74.2625 11.8902 883 114.636 880.568 465.518
188 0 74.238 11.9885 890 116.589 881.004 463.087
189 0 78.2333 11.862 928 116.344 880.454 462.885
190 0 80.1195 11.0585 886 116.345 880.532 464.163
191 0 85.1544 12.8003 1090 112.461 880.609 462.857
192 0 86.0829 11.0707 953 116.79 880.483 461.465
193 0 89.0957 10.5392 939 116.99 880.75 462.99
194 0 93.177 12.0523 1123 115.226 880.279 457.728
195 0 95.405 11.6661 1113 116.447 880.666 456.833
196 0 97.2191 11.1604 1085 117.397 880.288 455.839
197 0 103.304 12.6617 1308 114.257 880.651 451.552
198 0 106.226 12.4452 1322 114.542 880.532 450.205
199 0 108.23 11.4109 1235 116.942 880.944 450.04
200 0 114.293 12.398 1417 115.108 880.563 445.389
201 1 57.1739 11.5437 660 114.976 881.362 473.192
202 0 59.1683 11.3067 669 116.144 880.632 471.546
203 0 62.0867 12.7563 792 111.784 881.759 471.765
204 0 65.0492 12.6366 822 110.759 881.275 470.702
205 0 66.0978 12.2394 809 112.936 881.092 470.611
206 0 68.0214 12.0697 821 113.633 881.067 467.823
207 0 71.036 13.5143 960 109.285 881.103 467.181
208 0 74.0339 12.859 952 108.694 880.707 468.017
209 0 76.065 13.8171 1051 106.884 881.276 466.029
210 0 78.0784 12.8845 1006 110.117 881.292 464.496
211 0 79.1374 11.8654 939 113.382 881.397 460.846
212 0 83.0687 12.7726 1061 111.057 880.429 460.104
213 0 86.088 13.2307 1139 109.946 879.915 457.55
214 0 90.0964 13.2747 1196 110.087 879.618 458.034
215 0 91.0551 13.2447 1206 109.582 878.906 456.729
216 0 93.0852 11.8386 1102 106.151 880.63 454.681
217 0 98.0704 11.7976 1157 105.694 880.844 456.647
218 0 101.165 12.2967 1244 106.026 880.715 453.129
219 0 102.129 10.6434 1087 111.231 879.789 450.957
220 0 107.115 12.7993 1371 105.95 879.664 450.718
221 1 54.0967 10.7585 582 105.454 881.543 477.691
222 0 55.0622 11.2782 621 104.786 880.757 477.106
223 0 58.0719 11.6407 676 104.5 880.496 474.925
224 0 59.0953 11.4222 675 105.978 880.87 473.816
225 0 61.176 11.7203 717 105.739 880.671 472.109
226 0 63.2454 11.0838 701 106.847 881.327 470.693
227 0 66.1237 11.9019 787 106.482 881.287 471.469
228 0 70.0648 12.3314 864 105.78 880.691 469.5
229 0 70.2236 11.6628 819 109.048 880.623 468.658
230 0 73.0724 12.4534 910 107.929 880.676 467.452
231 0 75.0385 12.7534 957 108.135 880.526 466.426
232 0 77.1133 11.9175 919 111.596 880.453 464.516
233 0 80.0753 11.8264 947 112.667 881.038 463.248
234 0 84.1499 12.8937 1085 110.469 881.281 462.333
235 0 87.1231 12.4307 1083 113.196 881.332 458.826
236 0 89.2331 12.2264 1091 113.332 880.512 460.289
237 0 94.0664 12.4061 1167 114.158 881.555 458.191
238 0 96.2298 12.0025 1155 114.594 880.857 454.12
239 1 49.0219 10.9747 538 109.498 879.489 480.006
240 0 51.0208 11.3483 579 105.38 879.724 479.035
241 0 50.1022 10.6582 534 109.906 881.481 477.936
242 0 52.0446 10.9906 572 107.399 880.963 477.956
243 0 54.0781 10.9841 594 108.123 880.609 478.219
244 0 54.0675 10.7458 581 108.878 880.341 476.931
245 0 56.0566 11.2565 631 108.162 880.311 476.629
246 0 58.1085 11.5301 670 107.363 880.654 474.791
247 0 59.0467 10.1953 602 109.008 881.144 475.339
248 0 62.0571 10.8287 672 107.504 880.78 472.635
249 0 62.0861 11.2586 699 108.541 880.856 471.049
250 0 65.0864 10.4323 679 108.632 881.239 472.359
251 0 67.083 11.2398 754 109.338 881.203 467.264
252 0 72.1288 12.8381 926 103.373 881.119 468.446
253 0 74.1129 13.0342 966 103.493 880.657 466.938
254 0 74.1172 13.0064 964 137.015 880.655 466.824
255 0 79.103 11.5798 916 106.959 880.766 464.472
256 0 79.1202 12.0702 955 106.277 879.779 462.847
257 0 83.0873 12.4929 1038 105.768 880.204 462.244
258 0 86.2007 12.5985 1086 105.567 880.562 460.663
259 0 89.173 11.6852 1042 107.017 880.53 460.154
260 0 92.1109 13.0061 1198 105.338 880.911 456.694
261 0 94.0852 12.1379 1142 108.036 880.536 456.032
262 0 98.0775 12.8062 1256 107.195 880.416 453.973
263 1 52.0351 10.7428 559 106.22 881.075 479.479
264 0 54.0877 11.278 610 105.611 881.551 477.026
265 0 55.0688 10.8228 596 110.515 879.153 477.966
266 0 58.1125 11.6154 675 109.153 879.006 475.748
267 0 56.0532 11.828 663 110.953 879.887 475.101
268 0 59.0919 11.3721 672 109.765 879.046 475.339
269 0 62.1434 12.793 795 105.603 879.58 474.034
270 0 65.1224 12.131 790 107.901 879.792 471.254
271 0 66.1288 11.8254 782 107.549 879.544 471.51
272 0 68.2194 12.2399 835 106.517 881.153 469.571
273 0 69.1851 11.0717 766 109.697 880.471 466.884
274 0 73.1693 12.6146 923 105.804 880.046 466.752
275 0 75.1639 11.7077 880 108.219 880.526 465.569
276 0 79.1572 11.7109 927 107.558 880.489 464.508
277 0 80.2717 11.9345 958 107.184 880.484 465.291
278 0 82.1604 12.1957 1002 108.082 880.06 463.117
279 1 44.0154 11.3369 499 103.986 881.351 482.299
280 0 45.052 9.81088 442 108.971 880.534 481.414
281 0 46.0476 10.7715 496 107.651 881.425 478.863
282 0 49.018 11.1388 546 107.037 880.117 479.262
283 0 54.0374 12.7689 690 103.729 881.074 477.461
284 0 52.0334 11.5503 601 108.634 879.86 476.035
285 0 55.0476 13.2431 729 104.638 879.985 477.416
286 0 54.054 11.3405 613 110.383 880.197 476.393
287 0 57.0225 10.8729 620 109.671 880.555 476.816
288 0 60.0598 12.4709 749 107.907 880.036 473.551
289 0 62.0417 11.6535 723 109.848 879.434 473.331
290 0 63.0654 11.4009 719 109.601 881.035 472.969
291 0 66.0642 12.0338 795 108.405 880.825 471.346
292 0 68.0601 11.3429 772 109.593 880.378 470.313
293 0 70.0504 12.0485 844 109.239 880.558 469.29
294 0 73.0541 13.4558 983 106.157 879.977 467.22
295 0 73.0655 10.9217 798 112.08 879.774 465.348
296 0 76.0391 11.5335 877 110.55 880.307 464.578
297 0 81.0389 12.0313 975 109.319 879.88 462.001
298 0 84.0871 13.1292 1104 105.879 880.373 461.39
299 0 85.1536 11.0154 938 109.13 879.382 462.501
300 0 87.2662 10.9206 953 109.586 879.283 460.416
301 0 91.1941 11.6784 1065 108.159 878.968 459.296
302 0 92.1832 11.9545 1102 111.431 879.553 457.233
303 1 49.0507 10.8051 530 110.147 880.121 478.481
304 0 52.0763 11.8672 618 105.893 880.254 478.574
305 0 53.0555 11.7236 622 107.336 880.537 477.762
306 0 54.1278 12.5444 679 106.184 880.405 476.208
307 0 55.0385 11.6646 642 107.738 880.304 476.737
308 0 57.0891 14.0132 800 104.402 880.211 474.595
309 0 57.0675 13.5103 771 105.354 880.044 473.307
310 0 61.0415 12.172 743 106.363 880.322 475.619
311 0 61.0567 12.8078 782 106.52 880.623 472.028
312 0 62.0459 12.4263 771 107.833 880.87 472.877
313 0 64.0806 12.141 778 109.033 880.859 471.024
314 0 69.0436 13.1801 910 105.934 880.276 469.825
315 0 70.0647 12.6454 886 108.948 880.195 468.585
316 0 72.0996 12.9127 931 108.805 879.461 466.766
317 0 77.1573 14.5547 1123 104.272 878.824 466.916
318 0 78.2195 13.4749 1054 108.453 879.232 464.471
319 0 81.164 12.407 1007 111.193 879.314 464.404
320 1 39.0873 10.2591 401 110.382 879.598 483.172
321 0 42.0474 11.4157 480 101.74 879.642 483.619
322 0 42.0284 12.6819 533 99.7992 881.257 482.557
323 0 44.0198 12.9033 568 99.1972 880.907 482.444
324 0 45.0448 11.9437 538 102.706 880.922 483.074
325 0 46.0272 12.384 570 101.94 880.761 481.284
326 0 47.074 11.0252 519 104.861 880.22 481.432
327 0 50.1481 11.6056 582 104.191 880.345 480.108
328 0 50.0448 12.269 614 103.55 880.902 480.366
329 0 50.0605 11.9455 598 105.433 881.206 479.644
330 0 51.077 12.0602 616 106.523 881.268 479.167
331 0 53.1055 12.5222 665 106.056 881.05 479.098
332 0 56.1685 12.7118 714 105.368 880.774 477.895
333 0 55.1852 11.398 629 109.734 880.498 475.925
334 0 59.0676 11.5292 681 109.432 881.264 476.239
335 0 61.0828 12.2948 751 108.189 880.161 473.929
336 0 64.1756 13.5098 867 105.7 881.153 471.686
337 0 64.048 12.0535 772 110.324 881.153 469.789
338 0 68.1806 12.5842 858 107.817 880.759 472.29
339 0 70.1926 12.5369 880 108.84 881.098 470.542
340 0 72.0679 13.7648 992 107.34 881.22 469.44
341 0 75.1893 14.1908 1067 107.397 880.615 466.954
342 1 39.0415 10.5017 410 110.083 881.727 486.305
343 0 39.1502 11.8262 463 108.495 880.339 484.816
344 0 40.1513 11.5065 462 108.924 880.814 485.156
345 0 40.1126 12.3403 495 111.842 881.004 484.865
346 0 41.1258 11.0393 454 116.363 880.156 484.993
347 0 44.016 11.2686 496 114.819 879.333 483.915
348 0 43.0712 12.4445 536 113.901 879.924 482.185
349 0 45.0509 11.7867 531 114.798 879.838 482.571
350 0 45.0131 10.9968 495 117.123 879.762 482.457
351 0 46.0317 11.4921 529 114.926 879.422 482.614
352 0 48.0552 11.4452 550 115.656 881.062 481.465
353 0 50.079 13.0793 655 111.78 879.817 479.875
354 0 52.0364 13.7596 716 109.223 880.018 480.865
355 0 52.0138 13.1311 683 111.713 879.051 479.66
356 0 52.0144 12.708 661 113.247 879.487 479.331
357 0 55.0244 11.6494 641 114.758 878.822 479.668
358 0 56.0899 12.7831 717 113.469 879.344 477.589
359 0 58.0529 13.3499 775 113.103 879.392 476.235
360 0 58.0467 12.645 734 116.296 879.514 475.597
361 0 60.0626 12.6701 761 116.595 879.054 474.302
362 0 62.0776 12.5327 778 115.955 879.246 474.717
363 0 63.0219 12.3132 776 118.662 879.196 472.233
364 0 66.0278 13.6912 904 114.822 879.772 470.774
365 0 70.1279 13.2044 926 115.151 879.066 471.027
366 0 72.1299 13.85 999 114.936 880.609 468.96
367 0 73.0847 13.2039 965 116.837 880.114 467.71
368 0 76.1109 13.3621 1017 116.704 880.144 466.211
369 0 80.1501 13.8116 1107 115.538 879.524 464.868
370 0 83.1985 12.7406 1060 117.739 879.968 463.985
371 0 85.1618 12.7639 1087 117.128 879.738 463.925
372 1 44.1022 11.4507 505 115.263 879.648 483.277
373 0 45.0746 12.2907 554 111.496 879.662 481.744
374 0 46.0829 12.0001 553 107.902 879.374 482.036
375 0 48.0515 12.0079 577 109.508 880.771 481.458
376 0 47.0716 11.9392 562 109.932 880.479 481.34
377 0 51.0487 12.7917 653 106.645 880.896 480.069
378 0 53.0263 13.3519 708 105.725 880.857 479.037
379 0 54.0694 10.727 580 111.1 880.241 480.245
380 0 56.0674 12.271 688 108.395 880.208 477.311
381 0 58.0764 12.2597 712 108.448 880.032 474.584
382 0 59.0647 13.0704 772 107.11 879.694 475.531
383 0 61.1141 12.5503 767 108.962 880.13 474.758
384 0 62.0746 12.8072 795 109.491 879.82 473.677
385 0 65.0523 12.6514 823 110.311 880.407 472.51
386 0 68.0233 13.8041 939 107.967 880.203 471.233
387 0 68.0735 12.0164 818 112.527 880.429 471.068
388 0 72.0507 13.7958 994 108.839 880.582 470.187
389 0 73.0481 12.8135 936 111.739 880.223 469.089
390 0 76.0744 12.9347 984 111.895 879.873 467.517
391 0 78.1816 12.5989 985 113.195 880.948 464.415
392 0 83.057 12.6178 1048 116.689 880.45 465.84
393 0 86.1196 13.4464 1158 115.208 880.172 463.032
394 0 88.0811 12.9086 1137 114.673 880.23 459.45
395 0 91.0837 13.6029 1239 117.069 880.608 460.183
396 0 96.1099 14.0152 1347 116.074 880.793 458.347
397 1 46.0434 9.92542 457 116.527 881.042 482.652
398 0 49.019 10.9549 537 113.953 880.296 481.555
399 0 49.1656 11.4308 562 114.313 881.468 480.897
400 0 50.0695 11.8036 591 113.301 881.014 479.377
401 0 54.0277 12.1974 659 111.472 880.674 478.879
402 0 54.1723 12.5895 682 111.202 880.674 478.921
403 0 56.092 12.4438 698 112.755 880.51 476.52
404 0 58.037 12.6816 736 112.897 879.913 475.351
405 0 60.0546 12.1889 732 114.316 880.374 474.678
406 0 64.125 11.6023 744 114.991 880.871 473.819
407 0 67.054 13.1983 885 111.53 880.027 472.87
408 0 68.1603 12.6026 859 113.285 880.317 472.405
409 0 70.0599 11.4616 803 117.012 880.2 469.828
410 0 72.0946 12.6917 915 114.828 880.699 467.985
411 0 74.0779 11.7579 871 117.206 880.315 468.164
412 0 76.0592 12.1221 922 117.739 879.885 466.765
413 0 79.1443 13.4564 1065 116.077 880.132 465.404
414 0 83.1357 13.4599 1119 115.611 880.493 464.9
415 0 85.1252 13.0514 1111 116.819 880.5 462.808
416 0 89.1161 13.0616 1164 116.21 880.426 461.125
417 1 46.0644 10.3551 477 114.226 880.828 484.455
418 0 48.0199 11.3495 545 113.404 880.971 481.75
419 0 51.1505 12.7272 651 112.006 880.555 480.343
420 0 51.0842 13.096 669 114.031 880.697 480.13
421 0 54.0761 12.9447 700 113.164 880.143 478.409
422 0 53.0635 13.2671 704 113.96 880.851 478.217
423 0 57.0642 13.0555 745 114.761 880.828 476.444
424 0 59.107 12.1136 716 118.594 880.802 475.161
425 0 58.0647 12.245 711 119.495 880.484 474.482
426 0 63.0473 12.7206 802 116.898 880.582 474.53
427 0 65.0635 12.9258 841 117.971 880.58 472.201
428 0 68.1214 13.3732 911 122.036 880.506 471.184
429 0 68.1066 12.5538 855 126.673 880.863 469.204
430 0 72.0614 13.2803 957 123.646 881.252 468.448
431 0 76.1024 13.0482 993 124.454 881.437 468.523
432 0 77.0985 12.7888 986 126.592 880.666 465.311
433 0 80.1141 13.2186 1059 125.718 880.797 465.036
434 0 81.135 12.473 1012 129.992 881.068 463.235
435 0 86.0684 13.9424 1200 124.109 881.528 462.903
436 0 87.1332 12.4178 1082 128.635 881.236 461.186
437 1 46.0815 11.024 508 121.392 880.984 483.022
438 0 48.0924 11.6235 559 118.487 881.132 482.553
439 0 48.1588 11.7113 564 120.273 881.399 480.225
440 0 49.1044 11.7301 576 122.193 881.014 480.142
441 0 53.0778 12.4157 659 117.876 881.552 479.625
442 0 55.0881 12.6343 696 117.3 881.192 477.253
443 0 55.0736 11.2395 619 121.341 881.648 477.793
444 0 58.1712 12.1882 709 117.791 880.986 477.965
445 0 59.0694 12.9001 762 117.934 880.486 476.1
446 0 62.0841 12.4509 773 117.441 881.182 475.636
447 0 64.0738 12.6261 809 117.67 881.19 473.152
448 0 66.0612 13.0334 861 122.065 881.654 472.639
449 0 69.1143 12.6457 874 121.414 881.344 471.911
450 0 68.1712 13.07 891 124.097 881.245 471.029
451 0 72.1423 13.2377 955 122.934 881.442 469.091
452 0 77.1617 13.4004 1034 120.151 880.487 468.134
453 0 80.176 14.1065 1131 118.585 881.616 467.036
454 0 81.208 12.9421 1051 123.152 881.626 464.978
455 0 85.1361 13.2024 1124 122.746 881.453 462.877
456 1 42.0999 10.9026 459 120.331 882.325 483.586
457 0 44.0905 9.8207 433 118.453 882.286 483.591
458 0 46.1063 12.4278 573 111.387 881.782 482.73
459 0 46.0849 11.5222 531 115.465 881.166 482.096
460 0 48.0461 12.1342 583 113.913 880.911 480.091
461 0 50.03 11.9728 599 114.085 882.058 480.673
462 0 50.03 11.9528 598 128.542 883.109 480.752
463 0 53.0311 12.3889 657 113.277 881.531 477.947
464 0 52.0297 11.0898 577 118.482 881.931 477.515
465 0 55.0421 11.7183 645 116.91 881.53 476.183
466 0 58.0334 12.6824 736 114.916 881.901 476.946
467 0 59.1549 12.4419 736 114.841 881.266 475.499
468 0 62.0325 12.3645 767 115.263 881.339 473.334
469 0 64.108 12.3229 790 115.244 881.086 473.635
470 0 66.0627 11.8524 783 120.853 881.312 472.299
471 0 67.0756 12.3294 827 120.277 881.654 469.623
472 0 70.047 11.7493 823 120.778 881.19 469.469
473 0 71.0579 10.8925 774 122.142 881.858 469.621
474 0 76.1754 12.2349 932 118.465 882.012 467.882
475 0 79.1428 12.5343 992 117.799 882.103 465.449
476 0 80.0847 11.5378 924 119.052 881.946 466.486
477 1 41.0422 8.72272 358 117.746 881.737 484.126
478 0 44.0339 11.2413 495 113.873 881.941 483.55
479 0 45.0521 11.9195 537 110.855 881.86 483.339
480 0 46.0246 12.7106 585 105.157 880.402 483.46
481 0 44.0671 10.3479 456 113.73 880.217 483.173
482 0 46.0599 12.5706 579 109.007 881.439 480.554
483 0 46.026 9.99435 460 115.263 881.644 481.839
484 0 49.0248 10.7497 527 113.932 881.706 480.288
485 0 50.0218 11.475 574 113.214 880.767 479.127
486 0 52.1002 11.5738 603 111.35 881.194 479.599
487 0 55.0606 12.2955 677 110.513 881.802 478.161
488 0 56.0744 12.7866 717 108.209 881.837 478.729
489 0 58.0782 12.9481 752 109.027 881.859 476.158
490 0 59.1069 13.0949 774 109.672 881.308 473.603
491 0 62.1158 12.2674 762 110.862 881.845 474.971
492 0 65.0663 12.2183 795 111.764 881.458 473.842
493 0 65.0789 11.8779 773 113.846 881.569 473.06
494 0 67.122 12.5592 843 113.104 881.39 471.855
495 0 69.0795 12.2902 849 114.15 881.651 470.663
496 0 73.1046 11.7776 861 115.674 881.455 468.177
497 0 75.0903 13.3173 1000 113.478 881.175 468.067
498 1 39.041 10.886 425 115.207 881.548 486.534
499 0 38.0872 11.1849 426 114.601 882.432 484.737
500 0 42.085 11.4293 481 117.131 882.595 485.324
501 0 41.016 11.4589 470 122.706 882.879 485.17
502 0 40.0168 11.4202 457 126.16 882.214 485.232
503 0 44.0316 11.3782 501 125.218 881.681 484.371
504 0 46.0558 12.5717 579 123.497 882.81 482.665
505 0 46.0426 12.7925 589 124.474 882.531 482.669
506 0 48.0214 11.599 557 127.93 881.869 482.925
507 0 50.0342 12.3915 620 127.221 882.136 481.99
508 0 50.0705 14.18 710 124.204 881.928 481.958
509 0 51.0548 12.2026 623 132.207 881.416 480.003
510 0 53.0228 13.0321 691 130.041 881.171 478.81
511 0 53.0674 12.8704 683 132.078 881.35 479.283
512 0 56.0498 12.81 718 132.682 881.088 478.17
513 0 56.1083 11.4422 642 136.994 879.857 479.98
514 0 58.0215 12.5126 726 137.387 880.394 476.614
515 0 62.0407 13.1849 818 135.823 879.59 475.265
516 0 63.0454 14.0058 883 133.234 878.954 474.409
517 0 64.0426 13.5222 866 136.343 879.942 473.634
518 0 66.1192 12.9312 855 137.346 879.425 474.457
519 0 69.0359 14.5866 1007 131.266 879.378 473.174
520 0 70.0603 12.9888 910 137.136 879.871 471.959
521 0 73.0798 13.3005 972 137.561 879.154 469.409
522 0 74.1014 13.6435 1011 136.942 878.819 469.237
523 0 76.0445 13.2028 1004 139.03 880.197 469.053
524 0 78.1129 13.4549 1051 139.74 879.731 466.297
525 0 83.2177 13.663 1137 137.123 880.093 465.447
526 0 86.1554 14.6712 1264 134.373 880 463.354
527 0 89.0318 14.0287 1249 137.517 879.016 462.445
528 0 92.0736 14.521 1337 133.605 879.491 459.722
529 0 95.1247 14.1814 1349 134.168 879.525 457.49
530 0 99.0502 13.9525 1382 136.508 880.064 457.119
531 0 102.114 14.7873 1510 134.636 879.785 454.479
532 0 105.16 14.8535 1562 132.611 879.978 454.844
533 1 56.2293 11.6843 657 137.648 880.032 479.406
534 0 58.1532 12.4327 723 134.574 879.474 475.92
535 0 61.1395 12.496 764 128.734 880.796 475.987
536 0 63.2278 13.6807 865 124.887 880.597 474.302
537 0 64.1661 13.9482 895 124.086 880.964 472.992
538 0 65.0663 12.664 824 128.075 881.019 473.614
539 0 70.0632 13.5877 952 122.565 880.625 472.273
540 0 71.1336 12.6804 902 126.011 880.938 469.654
541 0 73.2508 12.8872 944 124.231 880.769 470.087
542 0 77.1141 12.2675 946 124.312 880.773 468.14
543 0 81.1011 12.9961 1054 122.011 880.564 466.886
544 0 83.0611 12.6654 1052 122.13 880.276 464.435
545 0 87.0811 14.5956 1271 117.749 880.748 462.795
546 0 86.0794 12.4885 1075 125.09 880.087 461.194
547 0 91.0929 13.1624 1199 122.078 880.533 459.802
548 0 95.2417 13.072 1245 120.046 880.337 460.149
549 0 98.1549 12.2358 1201 123.043 881.539 458.199
550 0 101.126 12.7564 1290 122.248 881.094 457.48
551 1 52.2414 11.4086 596 124.552 880.621 479.089
552 0 54.2067 10.6076 575 120.174 880.751 474.654
553 0 58.1514 12.0031 698 111.881 881.062 473.477
554 0 59.0457 12.3294 728 115.793 880.185 476.319
555 0 62.0689 12.905 801 112.729 879.587 477.216
556 0 63.1012 11.7589 742 116.284 880.782 473.485
557 0 65.0523 11.7905 767 115.511 880.356 473.786
558 0 67.0498 12.7815 857 113.155 880.216 471.196
559 0 70.0927 11.7416 823 114.93 879.978 470.727
560 0 74.0606 13.705 1015 109.445 881.048 469.494
561 0 76.1143 12.6258 961 113.158 880.795 468.445
562 0 78.0799 12.9355 1010 112.879 879.768 466.783
563 0 80.0834 12.6618 1014 113.3 880.288 463.365
564 0 84.1276 12.7901 1076 113.044 880.45 463.744
565 0 85.0522 12.4982 1063 114.147 880.386 460.984
566 0 90.1149 13.3385 1202 113.656 880.488 461.124
567 0 92.1345 12.7422 1174 118.12 880.026 459.867
568 1 45.0674 10.8504 489 115.436 881.699 483.147
569 0 47.0775 11.0031 518 115.419 880.983 481.403
570 0 49.0254 10.7699 528 115.006 880.667 482.422
571 0 51.2249 11.1079 569 116.738 880.747 479.466
572 0 55.1014 12.1231 668 118.434 880.722 478.759
573 0 56.1161 12.0999 679 119.483 880.465 476.817
574 0 57.0577 10.7085 611 124.213 880.941 476.548
575 0 60.0673 12.3029 739 119.355 880.938 475.137
576 0 62.1587 12.4842 776 119.991 881.95 474.845
577 0 61.0466 10.7623 657 125.228 880.6 473.866
578 0 64.1215 11.7589 754 122.407 880.578 474.072
579 0 65.1001 10.8448 706 125.863 880.569 472.265
580 0 69.1541 11.9299 825 123.452 881.418 470.244
581 0 71.1723 12.7156 905 121.167 880.823 468.718
582 0 73.2017 12.0216 880 122.76 881.025 470.224
583 0 77.1894 14.0045 1081 118.747 880.325 466.836
584 0 79.1972 13.1065 1038 122.282 880.411 461.541
585 0 81.3581 10.6197 864 127.701 880.095 463.481
586 0 85.2603 12.8899 1099 122.922 880.169 460.396
587 0 87.2367 11.9445 1042 126.708 880.63 458.369
588 0 91.2382 11.7714 1074 126.588 879.7 456.878
589 1 47.2008 9.87271 466 123.032 880.519 480.642
590 0 49.1572 11.4124 561 119.05 879.765 480.173
591 0 51.031 10.6602 544 118.631 881.529 480.757
592 0 53.0446 11.8014 626 116.954 882.107 479.666
593 0 55.0613 11.1694 615 118.389 882.348 478.842
594 0 56.1144 11.0489 620 120.221 882.119 477.177
595 0 58.1633 12.3274 717 116.741 881.485 475.675
596 0 59.1446 12.0552 713 118.623 882.008 476.128
597 0 61.1395 11.9563 731 118.472 881.14 476.822
598 0 61.1097 11.0948 678 122.42 881.155 472.021
599 0 63.1098 11.4721 724 121.666 881.167 474.22
600 0 66.1436 12.2914 813 120.824 881.246 473.047
601 0 68.1241 11.6405 793 121.638 881.547 472.946
602 0 73.1319 12.3065 900 120.376 880.662 470.793
603 0 74.1306 11.6146 861 122.977 880.217 470.904
604 0 75.1094 12.1423 912 123.773 880.749 467.339
605 0 80.1659 12.2995 986 122.225 881.564 467.43
606 0 80.1056 11.7969 945 125.963 880.883 466.222
607 0 84.1565 12.4292 1046 123.568 880.412 464.66
608 0 86.1806 12.2765 1058 124.294 880.478 463.449
609 0 92.1659 13.0417 1202 122.134 880.948 459.697
610 0 93.1293 12.2088 1137 125.872 880.261 460.331
611 0 96.2032 11.0391 1062 130.52 881.061 460.157
612 0 98.2553 11.7754 1157 128.017 881.057 460.317
613 0 102.203 12.6415 1292 127.065 880.465 456.784
614 1 55.028 12.0666 664 126.283 881.646 479.863
615 0 56.0247 12.4231 696 126.2 881.434 477.927
616 0 57.0526 11.2528 642 128.726 881.506 479.271
617 0 59.0454 12.8545 759 125.663 881.277 477.804
618 0 60.0221 13.0452 783 126.337 881.518 475.476
619 0 63.0793 12.0166 758 128.826 881.067 476.223
620 0 64.0241 11.4488 733 130.797 881.181 475.67
621 0 67.111 13.1871 885 125.664 882.079 474.837
622 0 70.1269 12.7055 891 126.585 881.501 471.554
623 0 73.0367 14.0203 1024 121.667 882.191 472.018
624 0 74.0691 12.9879 962 124.597 881.439 468.402
625 0 79.0682 13.9373 1102 116.616 881.504 469.044
626 0 78.0604 12.4391 971 123.382 881.621 467.041
627 0 82.0789 12.8413 1054 122.015 881.273 465.871
628 0 85.06 13.3553 1136 121.93 881.168 463.379
629 0 88.1108 13.7214 1209 121.734 880.993 462.453
630 1 45.0364 12.0347 542 122.487 881.699 483.312
631 0 45.0803 10.9582 494 125.2 880.429 483.47
632 0 45.0849 12.1105 546 122.245 880.918 482.377
633 0 49.0694 11.9423 586 119.125 881.488 482.739
634 0 49.0626 12.107 594 120.177 881.071 482.345
635 0 51.0658 12.6699 647 119.236 881.223 480.7
636 0 53.051 12.6482 671 119.465 881.632 480.462
637 0 55.1254 13.043 719 117.905 881.841 479.127
638 0 54.1159 10.3482 560 126.788 880.552 479.03
639 0 56.1159 11.9396 670 122.664 881.709 478.1
640 0 58.121 11.9922 697 122.383 882.004 478.373
641 0 58.0772 12.5522 729 122.61 880.859 477.355
642 0 61.1439 12.6587 774 122.453 880.81 475.428
643 0 63.0289 12.3118 776 123.898 880.343 475.791
644 0 64.1142 13.5384 868 122.491 881.195 473.172
645 0 65.0522 13.1126 853 124.916 880.637 471.586
646 0 71.125 14.6362 1041 119 880.382 471.11
647 0 73.0996 13.037 953 123.488 880.728 469.631
648 0 74.1282 12.5728 932 127.088 880.855 468.529
649 0 76.0624 13.0419 992 125.823 878.765 467.97
650 0 77.0731 12.4687 961 129.736 879.005 465.652
651 0 81.0738 12.9512 1050 127.603 879.072 467.572
652 0 85.0822 13.6691 1163 125.935 879.019 466.018
653 1 186.733 15.3696 2870 100.579 879.784 421.927
654 1 89.0369 12.8374 1143 130.116 879.831 463.337
655 0 92.0887 12.7812 1177 130.21 879.698 461.37
656 1 46.0326 11.3181 521 127.094 880.186 482.351
657 0 48.0482 10.76 517 129.522 879.569 482.576
658 0 52.0152 11.6697 607 128.572 879.142 482.071
659 0 50.0812 12.0205 602 122.176 880.51 481.193
660 0 51.047 11.1074 567 125.309 880.506 481.27
661 0 53.0474 12.913 685 120.241 880.718 479.546
662 0 54.0443 10.843 586 124.174 880.364 481.167
663 0 58.0447 11.6117 674 119.69 880.153 479.92
664 0 59.016 11.7256 692 119.668 880.858 478.577
665 0 62.036 11.6062 720 118.636 880.114 476.388
666 0 70.0861 9.60248 673 88.1456 880.878 480.416
667 0 67.1593 11.8971 799 119.561 880.614 472.384
668 0 68.0373 12.1257 825 118.989 880.126 473.473
669 0 73.0675 13.0975 957 115.528 880.767 472.232
670 0 72.1468 11.74 847 120.089 880.328 469.603
671 0 76.197 12.6252 962 116.922 880.535 467.66
672 0 80.2077 12.4552 999 116.18 880.718 467.482
673 0 81.1976 12.291 998 118.221 880.495 464.519
674 0 85.2448 13.5375 1154 114.529 880.379 464.915
675 0 89.1637 12.92 1152 115.879 881.447 461.472
676 1 47.0171 11.6128 546 116.154 881.487 481.945
677 0 48.0456 11.5099 553 115.593 880.351 482.87
678 0 48.1229 12.5096 602 113.958 878.829 480.875
679 0 49.0316 12.3594 606 114.606 880.814 482.056
680 0 52.0292 11.2437 585 116.142 880.492 481.769
681 0 54.1958 11.3108 613 84.3768 880.277 481.01
682 0 57.1089 12.5024 714 112.758 880.402 478.308
683 0 59.0739 12.2389 723 113.331 881.037 476.862
684 0 60.0752 11.8352 711 114.127 880.999 475.035
685 0 63.08 11.7628 742 112.833 881.336 474.515
686 0 63.1059 12.2334 772 113.829 880.43 473.075
687 0 66.0434 13.5517 895 110.051 880.688 472.857
688 0 68.0886 13.7174 934 109.799 879.959 472.182
689 0 68.0621 12.0478 820 114.855 879.793 471.83
690 0 71.0838 12.3657 879 114.053 880.054 470.779
691 0 74.0698 12.5557 930 111.655 880.396 468.855
692 0 76.1231 12.5323 954 112.352 880.282 468.303
693 0 76.101 12.168 926 113.416 880.491 466.094
694 0 82.2269 12.1371 998 121.149 879.916 465.805
695 0 85.1258 11.5006 979 122.986 880.126 463.654
696 0 86.1847 12.8097 1104 121.093 879.704 460.164
697 0 92.1544 13.2061 1217 118.138 879.721 459.928
698 0 93.1755 12.6965 1183 119.719 880.216 457.955
699 1 46.0192 11.0823 510 114.022 881.037 482.524
700 0 46.0643 10.3334 476 113.263 881.208 482.151
701 0 47.0359 10.779 507 110.444 881.637 483.071
702 0 47.0592 11.0924 522 109.6 881.291 480.488
703 0 49.0132 10.6298 521 112.798 881.209 481.937
704 0 51.0765 11.7079 598 109.992 881.268 480.724
705 0 52.0678 11.8499 617 110.579 881.767 480.063
706 0 54.0715 12.2061 660 109.994 880.839 477.768
707 0 55.0603 10.988 605 112.693 880.826 477.42
708 0 58.0841 11.7416 682 109.632 881.157 477.342
709 0 61.113 11.2578 688 110.366 880.698 475.512
710 0 61.1577 12.1489 743 108.444 880.688 472.546
711 0 65.1941 10.9672 715 109.916 880.996 472.737
712 0 66.124 11.3726 752 110.834 880.88 471.222
713 0 69.0542 11.1507 770 112.045 880.67 471.077
714 0 70.0671 10.861 761 112.882 881.593 469.988
715 0 75.0664 12.0826 907 109.501 880.795 468.278
716 0 76.174 10.5942 807 114.797 880.235 464.545
717 1 38.0191 10.6788 406 113.594 880.675 483.362
718 0 40.0097 10.5974 424 113.361 880.995 484.012
719 0 42.0687 11.8615 499 109.733 881.555 481.633
720 0 43.0124 10.0436 432 108.414 881.588 484.366
721 0 44.1091 11.2222 495 106.475 881.794 483.382
722 0 44.0741 10.3008 454 109.579 881.681 484.231
723 0 47.0318 12.0344 566 103.963 882.313 483.769
724 0 45.0147 11.9517 538 107.067 881.617 482.11
725 0 49.1147 11.6666 573 105.897 880.897 482.351
726 0 50.0524 11.9075 596 106.508 880.861 480.545
727 0 53.0235 11.8815 630 105.256 881.417 479.851
728 0 55.0758 12.2195 673 105.698 881.342 479.34
729 0 57.0143 11.997 684 105.863 881.37 478.519
730 0 59.0646 11.9869 708 105.117 881.749 478.867
731 0 58.1234 12.3874 720 106.621 881.757 476.96
732 0 61.0719 12.3133 752 106.562 881.243 474.509
733 0 63.051 12.8309 809 105.331 881.481 473.198
734 0 67.0791 13.5959 912 102.622 881.252 472.455
735 0 67.03 11.8604 795 107.673 881.313 473.54
736 0 70.0924 12.3979 869 106.125 880.455 469.55
737 0 74.0558 12.6796 939 104.83 880.579 469.265
738 0 75.0575 12.99 975 103.798 880.686 466.893
739 0 79.0521 12.1186 958 105.892 880.354 466.755
740 0 83.0707 12.4472 1034 104.146 880.161 467.653
741 1 41.0558 10.4736 430 107.163 881.246 487.188
742 0 42.0244 11.1364 468 107.838 881.306 484.459
743 0 43.1222 12.1515 524 106.42 879 484.198
744 0 46.0844 12.2167 563 104.387 879.552 484.028
745 0 46.1087 11.0825 511 109.603 880.012 483.949
746 0 47.1256 12.7744 602 107.46 879.892 481.977
747 0 48.1081 11.3494 546 110.663 879.637 482.487
748 0 50.0928 11.8181 592 109.691 878.431 482.61
749 0 51.1242 12.0491 616 109.093 878.776 482.003
750 0 53.06 12.533 665 108.857 878.838 478.764
751 0 53.0648 11.6084 616 111.92 879.045 480.545
752 0 54.0536 12.6726 685 111.997 879.13 477.318
753 0 58.1176 11.8897 691 112.907 879.068 476.903
754 0 59.0427 11.3138 668 113.045 879.374 477.786
755 0 60.1304 11.0094 662 114.088 878.517 475.174
756 0 62.0773 10.3903 645 117.349 879.429 474.44
757 0 67.0685 11.8386 794 113.521 878.985 473.626
758 0 70.0996 13.0101 912 110.134 878.592 472.436
759 0 71.1224 11.67 830 111.74 879.639 471.641
760 0 74.1561 10.9364 811 113.945 879.302 472.079
761 0 75.0981 9.89373 743 116.832 879.408 469.817
762 0 79.0734 11.6727 923 114.096 879.047 469.2
763 0 81.0628 11.8673 962 115.274 878.876 466.434
764 1 41.0588 10.7894 443 116.932 878.718 485.203
765 0 43.1107 11.7604 507 116.008 878.925 483.998
766 0 44.0531 10.442 460 114.807 878.748 484.265
767 0 46.0118 11.4753 528 113.426 880.519 483.597
768 0 48.0384 11.3659 546 114.7 880.494 483.141
769 0 49.0488 11.6007 569 115.044 880.974 482.39
770 0 53.039 12.5568 666 111.35 880.968 481.778
771 0 53.0588 12.439 660 114.635 881.111 480.641
772 0 54.0647 11.8007 638 117.524 881.356 480.009
773 0 57.0562 13.215 754 112.511 881.471 479.714
774 0 57.0482 12.1126 691 116.627 881.472 479.211
775 0 61.0613 13.0361 796 113.695 881.121 476.92
776 0 63.0406 12.7537 804 114.611 880.608 476.358
777 0 62.0884 12.4339 772 118.342 881.746 475.317
778 0 65.0734 13.4771 877 115.381 881.823 473.245
779 0 66.0618 12.6851 838 119.107 881.6 473.64
780 0 69.0876 13.0704 903 117.26 881.68 473.174
781 0 72.0605 12.9058 930 118.253 881.647 470.625
782 0 72.1131 12.8409 926 120.174 881.314 470.458
783 0 77.0738 12.1961 940 120.632 881.403 469.206
784 0 80.0587 12.6157 1010 119.834 881.414 467.7
785 0 82.1504 12.258 1007 122.506 881.975 466.125
786 0 85.1131 13.4879 1148 119.687 881.241 465.63
787 0 88.1175 13.9473 1229 118.766 879.319 460.316
788 1 45.0198 10.9285 492 121.823 880.846 485.094
789 0 46.0037 10.6948 492 123.687 881.191 483.35
790 0 49.0475 11.1524 547 121.561 880.991 483.082
791 0 51.0632 11.9852 612 120.786 881.874 481.662
792 0 51.0548 11.9088 608 121.64 881.765 481.197
793 0 55.0208 12.2863 676 119.621 880.574 480.046
794 0 54.1061 11.5329 624 123.21 881.372 479.872
795 0 57.0831 12.7533 728 120.125 882.291 478.111
796 0 59.1102 14.0247 829 115.967 881.349 476.392
797 0 58.1047 12.3742 719 123.207 880.949 475.837
798 0 62.0573 12.6013 782 122.224 880.872 476.3
799 0 64.1559 13.3581 857 118.629 881.054 474.729
800 0 65.0534 13.2353 861 120.549 880.591 473.368
801 0 68.0447 13.2119 899 120.403 880.494 472.987
802 0 69.0901 12.4475 860 123.477 880.521 472.564
803 0 73.0431 13.4167 980 120.419 880.911 470.495
804 0 75.1684 14.5407 1093 117.101 881.265 467.653
805 0 76.1278 13.4116 1021 120.377 880.276 466.263
806 0 80.1642 13.2478 1062 121.121 879.976 466.382
807 0 80.1387 12.7155 1019 124.217 880.531 465.455
808 0 85.0776 13.1645 1120 121.829 879.782 463.756
809 0 87.1777 12.9276 1127 123.872 881.075 460.104
810 0 92.0864 13.5742 1250 121.506 880.285 461.003
811 1 46.0373 12.5116 576 121.682 881.455 483.229
812 0 48.0266 12.5764 604 120.644 881.513 482.714
813 0 49.0231 12.3003 603 122.502 880.668 481.048
814 0 51.0256 12.3271 629 119.994 881.223 480.897
815 0 53.0688 11.9279 633 121.164 881.269 482.21
816 0 51.158 12.2562 627 123.222 881.311 479.713
817 0 53.127 12.4231 660 122.032 880.812 480.114
818 0 55.2116 12.8777 711 121.644 880.92 479.322
819 0 57.1587 13.4363 768 118.451 880.971 478.083
820 0 58.0423 13.18 765 119.875 880.627 477.089
821 0 59.0919 12.6582 748 121.678 880.791 477.471
822 0 62.1042 12.8333 797 120.839 880.989 476.959
823 0 63.0794 12.6824 800 121.829 881.374 474.415
824 0 63.0818 11.9527 754 125.316 880.796 473.443
825 0 64.0664 11.3632 728 127.681 881.445 471.828
826 0 68.1039 13.9493 950 119.676 880.817 471.498
827 0 70.1065 12.8661 902 122.435 880.892 470.08
828 0 72.118 12.7846 922 123.07 881.257 469.469
829 0 73.1246 12.13 887 126.338 881.2 469.014
830 0 75.1796 13.5542 1019 122.609 880.662 467.594
831 0 78.0785 12.9229 1009 124.425 880.366 464.754
832 0 83.1287 13.7618 1144 121.078 879.72 466.075
833 0 83.2094 13.0154 1083 124.653 880.963 465.088
834 0 87.0996 12.8359 1118 126.587 879.948 461.253
835 0 87.1676 11.105 968 131.474 880.997 458.57
836 0 92.122 11.8104 1088 125.958 880.543 459.485
837 1 49.0259 10.5251 516 117.178 880.729 480.134
838 0 47.0675 10.2406 482 117.726 880.214 478.402
839 0 49.1016 11.0994 545 118.93 880.771 480.101
840 0 50.055 12.3864 620 115.198 881.631 478.674
841 0 53.0635 10.9115 579 116.962 881.052 479.727
842 0 55.1003 12.0689 665 113.454 881.083 478.358
843 0 58.0687 12.3647 718 111.96 881.174 478.309
844 0 59.0346 10.9258 645 114.375 880.645 477.445
845 0 61.071 11.4129 697 112.532 880.05 475.871
846 0 63.1255 12.3247 778 111.032 879.569 473.522
847 0 64.2112 11.6491 748 112.072 880.055 473.841
848 0 66.3031 12.8953 855 109.919 879.684 471.525
849 0 70.1977 11.197 786 111.805 879.378 469.645
850 0 72.0762 12.7643 920 109.441 880.27 467.316
851 0 74.195 12.2784 911 111.014 879.932 468.363
852 0 75.1278 12.4455 935 113.791 879.956 466.52
853 0 80.0849 12.5492 1005 114.109 880.006 465.586
854 0 84.0386 12.5776 1057 117.409 880.186 465.1
855 0 86.0757 12.338 1062 115.802 879.905 465.195
856 0 90.1084 12.5294 1129 116.754 880.121 463.064
857 1 47.0906 10.9364 515 118.683 880.649 483.132
858 0 49.0463 11.5809 568 117.144 880.201 483.192
859 0 49.055 12.2108 599 117.952 879.821 480.84
860 0 50.0245 12.7937 640 117.362 879.945 481.797
861 0 53.0866 13.412 712 116.808 879.831 479.642
862 0 54.0554 13.1347 710 117.275 880.918 479.406
863 0 57.0222 14.0647 802 112.703 879.697 479.534
864 0 57.0501 12.9711 740 118.603 880.036 477.999
865 0 59.0376 14.9227 881 113.117 879.993 476.526
866 0 60.0388 13.0083 781 118.44 879.9 475.508
867 0 61.0904 12.4406 760 120.097 878.508 473.559
868 0 62.076 12.2269 759 120.868 877.884 470.18
869 0 65.1628 12.7373 830 119.343 879.064 469.474
870 0 69.0502 12.8312 886 117.7 878.626 471.053
871 0 70.0557 12.904 904 117.966 879.394 468.677
872 0 71.0926 12.3642 879 120.006 880.14 465.965
873 0 73.1919 12.1325 888 117.064 879.979 464.345
874 0 75.1626 13.0251 979 115.018 880.83 461.443
875 0 78.1632 13.523 1057 117.742 880.532 463.371
876 0 79.1237 12.9544 1025 116.206 881.034 464.035
877 0 83.1262 13.5096 1123 115.848 879.435 464.842
878 0 84.1733 13.2584 1116 116.228 880.38 465.013
879 0 89.1685 14.3885 1283 113.075 879.81 460.936
880 0 90.1075 13.2952 1198 116.264 880.047 457.793
881 0 93.1547 13.5152 1259 114.903 880.137 456.465
882 0 96.1798 12.7885 1230 117.48 879.558 456.833
883 0 98.1653 12.8151 1258 117.403 879.394 455.51
884 1 51.0844 10.6686 545 115.71 881.591 479.061
885 0 52.0472 10.4136 542 114.181 880.819 478.389
886 0 54.0392 11.9173 644 130.921 880.738 476.144
887 0 53.0243 11.4664 608 112.354 879.141 480.562
888 0 54.0316 10.9565 592 114.571 879.517 478.98
889 0 56.0549 12.0953 678 110.678 879.059 478.426
890 0 57.0592 9.86695 563 115.828 879.414 477.538
891 0 61.0776 11.1334 680 112.487 880.371 476.329
892 0 62.0953 11.6756 725 112.291 880.868 472.977
893 0 65.0916 12.2443 797 109.366 880.07 474.695
894 0 69.0807 11.4938 794 110.821 880.32 472.547
895 0 71.1355 12.1177 862 109.449 880.296 472.314
896 0 73.0828 11.2065 819 111.36 880.289 471.116
897 0 73.1244 11.0633 809 112.876 880.154 469.257
898 0 77.1127 12.3326 951 110.233 880.139 465.529
899 0 81.1038 11.849 961 110.108 880.048 467.889
900 0 83.0621 12.4004 1030 108.66 879.96 465.447
901 0 86.1526 11.3868 981 110.888 880.71 464.601
902 1 44.0389 11.944 526 108.388 881.392 482.316
903 0 44.0299 10.9925 484 106.783 878.209 478.709
904 0 47.0277 11.5251 542 104.795 878.804 479.197
905 0 49.1146 11.1372 547 111.097 879.104 481.75
906 0 47.0264 10.6961 503 113.718 879.008 480.996
907 0 54.0925 11.0366 597 110.692 878.911 480.469
908 0 54.139 11.5074 623 111.13 878.989 478.44
909 0 53.1076 11.4108 606 110.795 878.789 478.899
910 0 56.1726 11.5359 648 109.887 879.836 478.531
911 0 56.0969 11.4801 644 112.345 879.509 474.634
912 0 60.0534 11.5231 692 108.838 878.831 477.075
913 0 62.0302 12.4133 770 107.361 877.752 473.594
914 0 64.0587 11.7392 752 110.189 878.952 471.826
915 0 65.0502 10.4996 683 112.078 878.646 472.536
916 0 69.1561 11.6693 807 108.99 877.907 469.991
917 0 70.102 11.9255 836 109.02 878.284 469.24
918 0 70.1223 10.7099 751 112.373 878.62 468.668
919 1 36.0099 10.7193 386 106.228 881.262 486.427
920 0 35.0274 11.2483 394 104.868 879.01 487.594
921 0 39.0351 10.9389 427 105.3 878.213 485.991
922 0 40.2002 11.3681 457 105.068 878.88 482.842
923 0 40.0784 10.9036 437 101.144 880.956 486.714
924 0 38.0343 10.3328 393 103.832 880.377 485.883
925 0 42.0206 11.9703 503 99.7078 880.547 484.416
926 0 43.0363 10.3866 447 102.89 879.356 484.685
927 0 42.1025 11.3533 478 102.469 879.713 482.73
928 0 46.0324 11.9046 548 100.281 880.79 481.839
929 0 46.0274 11.5149 530 102.487 880.653 481.702
930 0 49.0213 11.6072 569 100.569 880.193 481.352
931 0 49.0431 10.7049 525 104.288 880.229 479.716
932 0 50.0182 11.8157 591 101.489 880.096 480.122
933 0 52.0696 10.2363 533 104.409 880.598 479.469
934 0 53.0326 11.5589 613 103.041 880.483 478.25
935 0 55.0402 11.8095 650 102.043 880.623 476.297
936 0 57.0747 11.2484 642 103.992 881.273 476.732
937 0 59.1266 11.5008 680 103.621 880.904 475.378
938 0 59.0477 12.2443 723 103.04 880.588 474.282
939 0 62.1482 10.9738 682 106.566 880.664 473.45
940 0 65.0587 11.6818 760 104.175 880.784 474.187
941 0 67.0704 12.3303 827 103.399 880.482 472.516
942 0 70.154 12.6864 890 103.511 879.985 471.37
943 0 72.0873 10.9034 786 107.388 879.978 470.179
944 0 73.1045 10.7791 788 108.118 879.956 468.706
945 0 77.0404 11.8639 914 104.916 879.916 467.681
946 0 80.1323 10.6948 857 108.029 879.728 465.288
947 1 44.0691 13.5015 595 99.6387 880.582 483.447
948 0 47.0363 13.2664 624 99.6458 880.117 482.377
949 0 45.0345 13.0123 586 104.015 880.5 481.488
950 0 48.0543 12.8188 616 104.474 880.206 480.537
951 0 48.0676 12.212 587 105.945 880.37 480.923
952 0 51.069 14.1181 721 101.133 879.742 478.731
953 0 51.1034 11.2713 576 108.01 879.608 478.226
954 0 55.1039 12.304 678 104.82 880.022 476.049
955 0 55.1496 13.2911 733 103.54 879.858 477.432
956 0 59.1264 11.5008 680 106.146 880.144 478.376
957 0 58.0719 12.1057 703 106.321 879.515 476.97
958 0 60.1793 14.2906 860 101.836 879.928 475.665
959 0 62.1126 14.1356 878 102.714 879.339 472.556
960 0 65.1591 13.4287 875 104.401 878.745 473.321
961 0 65.0594 13.0189 847 106.884 879.048 470.844
962 0 68.2629 12.5837 859 106.973 878.646 471.698
963 0 69.2585 13.0381 903 107.23 879.054 469.834
964 0 73.154 12.5762 920 107.754 879.688 469.997
965 0 75.1311 13.1637 989 106.883 878.921 467.09
966 0 77.1134 13.357 1030 107.434 879.095 465.3
967 0 80.0789 13.9488 1117 105.905 879.036 463.799
968 0 84.1637 13.9847 1177 110.22 878.978 462.126
969 0 85.2091 13.3084 1134 112.544 878.452 461.682
970 0 88.304 13.5554 1197 111.43 879.116 459.53
971 1 45.0626 12.405 559 108.193 879.134 481.02
972 0 49.0683 12.289 603 107.163 878.308 481.138
973 0 51.0962 12.819 655 110.933 879.369 480.235
974 0 52.0707 13.3088 693 110.505 879.424 479.247
975 0 54.1892 13.4898 731 110.401 879.668 478.053
976 0 54.084 13.5715 734 111.529 879.564 478.188
977 0 59.1525 13.2708 785 109.577 879.773 478.303
978 0 59.2004 13.26 785 110.702 879.781 476.861
979 0 60.1095 12.8599 773 112.748 879.748 475.063
980 0 63.0911 13.425 847 111.915 879.562 473.831
981 0 64.123 12.7255 816 113.94 879.874 471.745
982 0 67.0823 13.6698 917 109.826 879.324 472.983
983 0 68.0821 14.3063 974 109.338 878.523 468.965
984 0 70.0291 12.095 847 113.871 878.756 469.772
985 0 75.106 13.8604 1041 107.292 878.665 469.39
986 0 78.1167 13.3134 1040 108.047 879.129 467.542
987 0 80.0977 14.8943 1193 104.696 879.024 464.897
988 0 83.0796 13.9746 1161 106.578 878.95 464.587
989 0 83.078 12.7471 1059 110.541 879.21 463.184
990 0 86.1381 13.1185 1130 111.005 879.308 459.873
991 0 91.0843 13.7235 1250 109.508 879.482 460.29
992 0 93.1223 13.2084 1230 110.567 879.441 459.566
993 0 97.0566 14.8367 1440 106.922 879.94 458.276
994 1 50.0615 13.0639 654 108.872 878.576 480.469
995 0 51.0739 11.689 597 112.313 878.861 478.092
996 0 55.0965 13.0135 717 106.992 879.084 479.53
997 0 55.1024 12.2136 673 108.981 879.392 478.061
998 0 58.1318 12.7469 741 107.335 878.902 475.771
999 0 59.0967 12.268 725 109.526 879.099 475.343
1000 0 61.105 13.2395 809 108.402 879.865 473.304
1001 0 64.0614 12.1914 781 109.914 879.182 472.589
1002 0 65.1064 13.5624 883 107.539 878.983 472.549
1003 0 67.0857 11.8058 792 112.514 878.999 472.563
1004 0 70.181 13.5792 953 110.248 878.531 469.473
1005 0 71.0781 14.1112 1003 111.141 879.124 468.033
1006 0 74.1474 13.3518 990 113.623 878.892 465.932
1007 0 77.1198 14.3283 1105 112.513 879.088 465.847
1008 0 81.0898 13.7995 1119 113.583 878.346 464.202
1009 0 82.1167 13.1155 1077 117.535 879.669 463.754
1010 0 84.1063 13.9229 1171 118.301 878.188 461.038
1011 0 86.0737 13.6859 1178 119.876 878.34 460.302
1012 0 91.1188 13.5318 1233 119.826 878.108 460.878
1013 0 91.1114 13.5658 1236 121.873 878.609 456.819
1014 0 96.072 13.4899 1296 120.949 877.968 453.721
1015 0 99.1256 14.2042 1408 120.325 878.693 452.489
1016 1 50.2345 10.9686 551 122.374 878.034 480.341
1017 0 52.0336 10.5124 547 124.898 878.34 479.391
1018 0 53.1664 11.2289 597 110.878 878.945 473.978
1019 0 55.068 10.024 552 112.016 880.225 476.275
1020 0 56.1283 10.1909 572 114.262 880.01 474.072
1021 0 58.0766 11.0199 640 112.002 880.311 475.038
1022 0 61.0978 12.0299 735 118.552 880.222 473.842
1023 0 63.1004 11.4421 722 119.375 880.22 475.993
1024 0 66.1147 12.3876 819 118.283 880.127 472.516
1025 0 68.1067 11.9372 813 119.716 880.849 472.316
1026 0 68.1105 11.5548 787 122.025 880.372 472.069
1027 0 71.0598 11.6522 828 121.923 880.133 470.603
1028 0 72.1403 11.1172 802 121.837 880.272 471.808
1029 0 76.1086 12.6004 959 117.819 879.697 468.274
1030 0 79.1547 11.7618 931 118.846 879.879 467.68
1031 0 80.098 11.4734 919 121.54 880.376 466.05
1032 0 84.1824 12.6986 1069 117.763 880.935 465.848
1033 0 85.0788 11.8596 1009 119.966 880.104 463.996
1034 0 92.1099 12.8542 1184 115.529 880.435 459.339
1035 0 93.0814 13.4613 1253 113.771 879.828 460
1036 0 96.0575 12.4613 1197 116.053 879.429 456.778
1037 1 51.0453 10.2066 521 118.083 879.298 479.173
1038 0 51.1736 10.9627 561 117.456 879.545 478.594
1039 0 54.0399 13.2495 716 117.458 878.517 476.774
1040 0 57.0773 13.2452 756 115.481 878.275 477.368
1041 0 57.0528 12.9003 736 117.761 879.167 475.038
1042 0 60.0803 13.432 807 116.052 878.587 475.408
1043 0 63.1781 13.9289 880 114.076 879.318 474.069
1044 0 63.1393 12.9872 820 118.767 878.872 473.428
1045 0 66.1012 12.9498 856 118.763 879.358 472.223
1046 0 66.1169 11.9485 790 121.991 878.881 470.657
1047 0 70.1174 11.823 829 121.232 879.318 471.966
1048 0 73.0708 12.5358 916 120.134 878.963 468.657
1049 0 75.0629 12.776 959 118.54 878.868 466.952
1050 0 79.1322 12.4728 987 117.156 878.641 468.791
1051 0 80.1132 13.7805 1104 115.516 878.597 463.803
1052 0 83.0506 13.1968 1096 116.787 878.494 464.792
1053 0 85.0878 13.4567 1145 115.729 878.739 462.039
1054 0 87.0801 13.1833 1148 116.676 878.604 459.494
1055 0 93.0427 14.2945 1330 112.247 878.657 459.285
1056 0 92.1271 12.9386 1192 116.619 878.548 458.307
1057 0 97.086 13.8537 1345 113.214 878.572 455.596
1058 1 47.0294 11.6735 549 119.115 878.126 480.381
1059 0 50.103 13.0531 654 115.251 878.333 480.797
1060 0 50.103 12.8934 646 136.819 879.328 480.718
1061 0 55.0448 11.8449 652 118.687 878.597 480.055
1062 0 55.1658 13.251 731 114.486 879.755 479.296
1063 0 54.1461 12.5586 680 119.104 879.691 476.36
1064 0 58.1086 13.0101 756 116.172 880.132 476.849
1065 0 59.1108 13.0433 771 116.021 879.61 477.284
1066 0 61.1303 13.2504 810 116.021 879.617 474.875
1067 0 63.1966 14.1305 893 114.226 879.744 472.27
1068 0 63.1304 13.1316 829 117.084 880.1 474.573
1069 0 62.1622 11.9848 745 122.529 880.157 472.376
1070 0 69.1934 13.9031 962 115.342 879.637 471.179
1071 0 71.1402 13.5507 964 116.725 880.604 469.679
1072 0 73.0995 12.7361 931 119.085 880.296 469.302
1073 0 76.148 13.9859 1065 115.185 880.251 469.469
1074 0 78.2157 14.2427 1114 116.598 880.008 466.452
1075 0 79.2302 13.0253 1032 120.806 879.604 465.094
1076 0 82.1267 13.0165 1069 120.839 879.87 465.251
1077 0 85.1933 13.2522 1129 116.421 879.162 465.392
1078 0 89.0984 12.0765 1076 116.012 879.451 462.67
1079 0 92.1139 13.9827 1288 112.729 879.946 457.318
1080 0 94.0798 12.4363 1170 117.136 880.122 458.601
1081 0 98.1328 13.0843 1284 117.423 879.858 458.809
1082 0 100.171 12.7082 1273 121.208 880.002 455.981
1083 1 54.0513 11.0636 598 116.02 880.37 479.885
1084 0 55.0344 11.4111 628 115.584 879.01 477.771
1085 0 55.0266 12.7938 704 113.793 880.152 475.741
1086 0 59.0962 13.1311 776 116.152 880.183 476.019
1087 0 60.0627 13.7024 823 115.365 880.138 474.993
1088 0 63.0796 13.2372 835 116.498 879.704 472.523
1089 0 63.0792 12.0642 761 120.564 880.321 473.139
1090 0 67.0531 13.7503 922 114.626 880.581 472.139
1091 0 69.2105 13.654 945 116.188 880.029 469.36
1092 0 72.1734 13.329 962 117.317 879.71 467.999
1093 0 73.1498 13.0281 953 119.116 879.052 466.348
1094 0 75.1265 12.2859 923 120.206 879.086 466.472
1095 0 81.1754 12.9596 1052 117.186 878.976 464.555
1096 0 83.2706 13.5222 1126 115.999 879.75 463.13
1097 0 86.1041 13.414 1155 116.96 879.941 461.272
1098 0 89.1372 13.0249 1161 117.992 879.792 459.991
1099 1 44.0285 11.6061 511 114.317 881.002 483.301
1100 0 46.0732 11.4166 526 112.302 880.266 482.667
1101 0 47.0596 11.7936 555 112.959 880.097 480.647
1102 0 47.0216 11.2714 530 113.098 880.87 481.083
1103 0 50.0657 13.2226 662 107.917 881.146 479.201
1104 0 52.0228 11.841 616 110.744 880.403 479.506
1105 0 52.0117 11.7666 612 106.306 880.273 481.922
1106 0 53.0289 12.0123 637 107.813 880.338 478.695
1107 0 54.1018 12.1068 655 108.087 881.363 477.179
1108 0 55.1044 10.5618 582 110.973 881.021 477.077
1109 0 58.0723 11.8301 687 108.428 881.132 476.18
1110 0 60.0656 12.3199 740 106.374 880.897 477.008
1111 0 61.185 11.6205 711 108.999 880.066 473.374
1112 0 63.0642 12.0829 762 108.156 880.542 473.659
1113 0 66.1039 13.0401 862 106.543 880.355 473.586
1114 0 68.0817 13.7629 937 105.983 880.495 471.895
1115 0 68.0936 12.1744 829 112.063 880.44 471.531
1116 0 72.2003 12.7562 921 110.398 879.541 469.343
1117 0 75.1642 13.6634 1027 108.849 879.457 468.541
1118 0 78.1276 14.7835 1155 105.764 879.566 465.932
1119 0 82.2187 12.8316 1055 109.729 879.929 463.866
1120 0 83.2046 12.4272 1034 111.43 879.43 461.479
1121 0 86.1701 12.9047 1112 109.326 880.527 461.374
1122 1 44.0304 11.0378 486 109.317 881.012 478.169
1123 0 45.036 11.5019 518 109.344 880.531 481.274
1124 0 48.0654 12.0669 580 113.064 879.929 480.59
1125 0 50.0124 13.3367 667 109.992 879.94 480.849
1126 0 52.0465 12.9692 675 109.102 879.997 481.47
1127 0 52.0674 11.7732 613 113.162 879.628 479.904
1128 0 54.1069 11.6251 629 113.94 880.181 477.293
1129 0 54.0645 12.4481 673 112.877 880.027 478.247
1130 0 57.0501 12.4277 709 111.485 880.041 477.633
1131 0 59.0595 12.8345 758 110.599 879.621 476.069
1132 0 59.0289 12.4176 733 111.492 879.974 477.134
1133 0 62.0691 13.6944 850 108.668 879.68 475.498
1134 0 64.0279 13.1661 843 110.979 879.968 474.956
1135 0 65.11 13.5463 882 111.519 880.238 472.837
1136 0 66.0554 13.3524 882 112.232 880.011 472.954
1137 0 72.1074 14.4645 1043 109.182 880.243 470.142
1138 0 71.1293 13.2294 941 113.515 879.722 468.665
1139 0 73.0842 14.0933 1030 111.708 879.428 469.165
1140 0 76.3112 14.3491 1095 111.453 879.579 469.112
1141 0 77.3845 13 1006 114.666 879.839 468.994
1142 0 81.3635 13.8145 1124 113.029 879.82 465.986
1143 0 83.3457 14.0259 1169 112.772 879.284 463.638
1144 0 87.2555 14.2455 1243 111.458 879.564 463.285
1145 1 43.2009 12.0599 521 112.401 879.411 483.131
1146 0 46.1533 13.7585 635 108.096 879.137 482.805
1147 0 47.0493 12.6676 596 111.153 879.774 481.856
1148 0 51.0285 13.4827 688 109.067 879.321 482.631
1149 0 50.0728 13.5603 679 110.778 879.33 481.948
1150 0 51.0462 12.9882 663 111.735 878.916 482.303
1151 0 53.0179 13.8067 732 110.848 879.012 479.078
1152 0 53.0563 11.8365 628 115.912 879.662 479.279
1153 0 55.0631 13.1849 726 112.351 879.189 477.832
1154 0 59.0319 12.8744 760 112.88 879.155 477.396
1155 0 62.0858 13.9162 864 110.37 878.7 475.319
1156 0 62.0316 12.8805 799 113.448 879.786 475.202
1157 0 65.0749 14.0607 915 110.981 878.411 474.67
1158 0 67.1252 14.0633 944 111.409 878.595 473.959
1159 0 69.1891 12.8344 888 116.048 878.268 471.525
1160 0 73.0839 12.903 943 116.172 878.643 470.868
1161 0 73.0847 12.8755 941 144.633 879.644 470.974
1162 1 38.0216 10.9412 416 118.37 878.918 487.613
1163 0 39.0133 11.6627 455 120.213 879.121 486.327
1164 0 40.0177 11.8697 475 120.459 879.354 484.312
1165 0 42.0697 11.4572 482 120.104 878.071 483.803
1166 0 45.0346 13.4563 606 115.48 877.015 483.875
1167 0 46.0383 12.7937 589 119.002 877.941 483.552
1168 0 47.0789 13.2331 623 119.467 878.066 482.573
1169 0 46.1064 12.8615 593 122.209 877.621 482.666
1170 0 49.0802 13.4066 658 120.822 877.561 482.081
1171 0 50.1256 13.4462 674 120.396 878.481 481.355
1172 0 53.0928 13.7683 731 118.926 877.906 481.49
1173 0 54.0888 13.6442 738 121.4 877.63 479.027
1174 0 56.1011 14.3847 807 119.61 877.789 477.594
1175 0 59.0862 13.878 820 119.217 877.798 478.077
1176 0 59.1243 13.7169 811 122.514 878.034 477.353
1177 0 63.1223 14.4165 910 119.774 878.985 475.577
1178 0 63.1608 13.901 878 123.321 878.64 475
1179 0 65.0763 14.1065 918 123.979 878.123 472.804
1180 0 69.0826 14.2872 987 121.963 878.331 473.292
1181 0 71.1301 14.2837 1016 123.831 878.803 470.95
1182 0 72.1764 14.0766 1016 125.553 878.466 470.049
1183 0 75.2486 13.5816 1022 128.039 878.102 468.838
1184 0 80.1558 13.9977 1122 125.257 878.117 467.95
1185 0 80.1576 13.7479 1102 127.935 877.839 465.923
1186 0 86.1504 13.4532 1159 127.978 877.799 464.549
1187 0 89.1166 14.2622 1271 126.551 877.875 463.482
1188 0 92.1347 14.5439 1340 126.226 877.746 461.83
1189 1 47.2341 12.1734 575 121.767 878.63 481.819
1190 0 49.0481 12.6407 620 121.684 879.266 480.002
1191 0 50.0675 12.5431 628 123.838 879.696 479.1
1192 0 50.0357 12.1313 607 126.474 879.547 478.817
1193 0 53.0444 13.0645 693 121.173 879.335 476.766
1194 0 54.1794 12.2002 661 125.092 879.893 474.879
1195 0 58.0496 13.299 772 120.495 879.977 475.082
1196 0 58.0335 12.6134 732 123.769 879.544 477.671
1197 0 60.0348 13.9253 836 122.482 879.431 472.702
1198 0 61.0583 13.0858 799 124.183 879.03 474.935
1199 0 64.0926 13.4961 865 123.695 879.081 473.32
1200 0 65.0526 13.4353 874 126.037 878.855 473.92
1201 0 69.0381 14.4558 998 123.486 878.495 472.119
1202 0 71.0989 12.9257 919 129.102 878.916 469.027
1203 0 74.3587 13.0314 969 127.856 878.065 467.312
1204 0 75.3302 12.943 975 129.788 877.815 465.153
1205 0 78.2492 13.5465 1060 128.621 877.522 465.59
1206 0 81.2008 13.8915 1128 127.774 877.464 463.418
1207 0 85.1364 14.0715 1198 127.955 877.223 462.115
1208 0 86.1736 13.5772 1170 131.003 877.95 460.97
1209 0 90.3974 13.153 1189 130.835 877.632 460.129
1210 1 48.1421 12.9409 623 127.865 877.355 481.478
1211 0 48.0495 13.8607 666 122.796 878.473 480.962
1212 0 50.0888 12.957 649 128.502 878.508 483.516
1213 0 50.0343 13.7905 690 128.162 877.706 482.739
1214 0 53.0292 13.0306 691 129.137 877.741 480.402
1215 0 55.0874 13.7418 757 124.193 877.514 477.749
1216 0 56.023 13.5659 760 124.612 878.168 477.983
1217 0 58.0447 13.7308 797 122.947 878.797 477.264
1218 0 60.0388 12.7084 763 126.708 878.477 475.945
1219 0 62.0831 13.3531 829 125.334 878.064 474.742
1220 0 63.0847 13.9812 882 123.981 878.765 473.405
1221 0 68.1003 14.185 966 121.935 879.245 472.65
1222 0 69.0362 12.8773 889 125.958 879.409 473.064
1223 0 72.095 12.7887 922 126.888 878.876 468.829
1224 0 74.0981 13.7925 1022 123.266 879.409 469.569
1225 0 78.0633 13.8605 1082 123.9 879.73 468.139
1226 0 81.0695 13.7906 1118 123.792 879.004 466.772
1227 0 85.0752 13.059 1111 125.358 878.956 464.739
1228 1 42.0626 12.3863 521 124.56 878.424 485.944
1229 0 42.0914 12.5679 529 124.919 878.552 485.27
1230 0 44.0355 13.807 608 120.515 878.306 483.069
1231 0 45.2508 12.3534 559 124.068 878.322 482.161
1232 0 47.0796 12.1709 573 125.325 878.644 483.269
1233 0 49.0186 12.9543 635 122.704 879.117 482.997
1234 0 50.0375 13.0902 655 122.482 880.076 480.803
1235 0 53.0711 13.1145 696 121.79 879.41 479.737
1236 0 55.0774 12.9999 716 122.406 879.366 479.49
1237 0 58.0578 13.5382 786 120.598 878.962 477.929
1238 0 61.0616 13.8057 843 118.23 879.119 477.791
1239 0 61.0563 12.8734 786 124.416 879.459 476.709
1240 0 64.0264 13.3382 854 122.886 878.639 475.067
1241 0 66.0311 13.6451 901 123.749 879.108 472.879
1242 0 67.0521 13.3478 895 125.725 879.343 473.65
1243 0 70.0399 12.8355 899 128.029 878.956 471.372
1244 0 73.0297 13.0632 954 127.53 879.047 471.336
1245 0 75.1653 13.743 1033 126.073 879.089 470.366
1246 0 77.0585 13.8466 1067 130.994 879.606 467.305
1247 0 80.0886 13.4726 1079 130.854 879.29 467.897
1248 0 83.0571 13.1596 1093 128.766 879.539 464.48
1249 0 85.0929 12.833 1092 129.842 879.177 464.449
1250 0 88.0513 12.4019 1092 131.297 878.746 463.529
1251 0 93.06 14.0232 1305 126.6 877.892 460.973
1252 1 48.0195 11.0164 529 131.826 879.508 483.261
1253 0 50.0697 13.1417 658 128.748 879.477 480.76
1254 0 51.0941 12.428 635 132.808 879.087 480.243
1255 0 54.0713 14.8878 805 125.79 879.565 479.665
1256 0 55.045 13.8251 761 128.882 879.285 478.858
1257 0 57.051 13.6019 776 129.008 879.29 477.812
1258 0 59.0612 14.2564 842 128.2 879.434 476.958
1259 0 62.0979 13.366 830 129.206 879.363 477.048
1260 0 62.0532 13.1339 815 131.504 879.107 475.309
1261 0 66.0763 14.5741 963 126.03 878.867 474.615
1262 0 68.1419 14.7927 1008 125.565 878.734 473.812
1263 0 69.1047 15.5561 1075 124.955 879.303 471.189
1264 0 71.0696 14.4928 1030 128.55 879.5 471.059
1265 0 74.0774 14.9843 1110 126.879 878.745 470.563
1266 0 77.128 15.2603 1177 127.183 879.162 468.34
1267 0 80.0904 15.1329 1212 127.583 879.176 468.05
1268 0 80.1396 14.4498 1158 131.548 878.709 466.087
1269 0 83.1571 13.5527 1127 132.721 878.825 465.097
1270 0 86.1571 14.1254 1217 129.182 878.375 462.6
1271 0 90.2055 14.5557 1313 127.455 878.357 460.214
1272 0 94.1536 13.8497 1304 128.591 878.86 458.298
1273 0 94.1552 13.7114 1291 128.036 879.344 457.063
1274 1 52.0495 12.6802 660 127.373 879.297 480.294
1275 0 52.0533 13.2364 689 125.125 878.283 478.348
1276 0 57.1285 13.916 795 123.352 878.823 478.196
1277 0 56.0422 13.8646 777 125.22 879.589 478.117
1278 0 57.0518 13.7244 783 125.736 879.839 478.582
1279 0 60.0252 13.1278 788 127.33 879.543 477.551
1280 0 62.0464 13.9573 866 124.918 878.94 475.664
1281 0 65.044 14.544 946 122.699 879.866 473.874
1282 0 66.1132 14.5206 960 123.293 879.53 472.591
1283 0 68.0814 13.4986 919 125.607 880.165 473.458
1284 0 72.0547 14.5168 1046 121.946 879.592 471.723
1285 0 73.1262 14.8647 1087 122.322 880.194 469.928
1286 0 73.0848 13.9974 1023 127.096 879.522 469.6
1287 0 77.0731 13.7402 1059 127.228 878.856 466.404
1288 0 80.1264 14.3149 1147 124.144 878.964 468.407
1289 0 81.088 14.2931 1159 126.219 878.236 466.556
1290 0 83.1962 13.2458 1102 128.849 878.762 465.378
1291 0 88.1168 15.0028 1322 123.03 878.607 463.167
1292 0 90.1676 12.8538 1159 125.329 878.488 460.33
1293 0 92.1664 12.3147 1135 126.37 879.178 460.937
1294 0 95.1782 13.6901 1303 123.05 878.249 456.223
1295 0 101.59 13.2198 1343 121.895 879.06 457.576
1296 0 104.605 12.8962 1349 123.933 878.245 452.4
1297 0 107.228 13.1588 1411 123.343 878.344 449.654
1298 0 112.301 14.3721 1614 119.959 877.837 449.225
1299 1 55.0473 12.2259 673 122.669 878.036 475.125
1300 0 58.1018 12.7879 743 118.435 877.991 477.973
1301 0 61.1098 12.5675 768 117.203 878.543 476.358
1302 0 63.0553 12.6238 796 118.01 877.662 474.153
1303 0 65.0762 13.4458 875 116.021 877.894 472.981
1304 0 65.1423 11.8203 770 121.669 878.743 471.66
1305 0 69.0505 12.6429 873 119.164 878.447 471.4
1306 0 72.1979 13.366 965 118.015 878.004 470.406
1307 0 74.1656 12.8361 952 119.701 877.872 469.321
1308 0 77.1412 13.754 1061 117.865 878.056 467.095
1309 0 78.1909 13.9402 1090 118.385 878.459 467.336
1310 0 83.0881 13.5398 1125 118.641 877.893 467.145
1311 0 84.1506 13.1074 1103 120.738 877.915 465.414
1312 0 88.1263 13.1856 1162 120.275 878.615 463.348
1313 0 91.1578 13.1859 1202 119.428 878.744 462.567
1314 0 91.0764 12.8903 1174 121.35 878.388 462.313
1315 0 95.107 13.1116 1247 120.926 878.395 461.399
1316 0 98.1102 12.8121 1257 121.546 878.641 460.175
1317 0 103.169 12.591 1299 121.878 878.394 458.201
1318 0 106.199 13.5971 1444 120.197 878.915 454.197
1319 0 111.126 14.704 1634 117.69 878.539 452.239
1320 0 115.304 13.3647 1541 120.861 878.942 452.794
1321 0 120.153 14.107 1695 118.712 878.016 451.381
1322 0 125.271 16.1888 2028 114.523 878 446.029
1323 0 128.154 14.3968 1845 119.935 878.387 442.483
1324 0 135.216 14.1995 1920 119.021 878.13 441.493
1325 1 68.1199 14.68 1000 114.982 877.847 470.911
1326 0 70.1039 13.2518 929 118.777 878.318 471.822
1327 0 75.0633 14.0415 1054 115.311 878.109 470.014
1328 0 78.0836 14.651 1144 113.579 878.278 468.406
1329 0 79.031 13.6402 1078 116.191 878.593 466.602
1330 0 84.0431 14.4688 1216 113.178 878.86 465.077
1331 0 84.0568 13.824 1162 116.832 878.386 462.096
1332 0 91.0433 15.1247 1377 112.171 878.765 462.394
1333 0 93.0798 13.4831 1255 117.104 878.074 461.097
1334 0 93.1045 13.3613 1244 119.035 878.27 458.276
1335 0 98.1966 13.6155 1337 118.49 877.992 456.392
1336 0 101.151 13.7814 1394 117.955 877.844 454.823
1337 0 106.141 14.264 1514 117.547 878.114 453.997
1338 0 111.149 14.0442 1561 116.955 877.735 452.464
1339 1 57.0814 12.6486 722 117.134 877.241 477.515
1340 0 59.0686 13.1203 775 117.941 878.023 476.781
1341 0 61.1249 14.0041 856 116.595 878.791 474.931
1342 0 65.2066 13.1275 856 118.37 878.049 473.116
1343 0 68.0545 13.9888 952 115.945 878.421 471.884
1344 0 69.1147 13.7163 948 117.698 878.034 470.307
1345 0 73.087 13.6823 1000 117.675 878.49 468.823
1346 0 75.1122 14.5782 1095 116.252 878.163 467.858
1347 0 77.0454 13.81 1064 117.98 878.107 466.054
1348 0 80.1084 14.3431 1149 117.533 879.481 464.095
1349 0 84.1027 13.1744 1108 119.015 879.066 463.516
1350 0 88.3053 14.0082 1237 116.616 878.066 462.698
1351 0 91.1128 13.6424 1243 118.54 878.877 461.587
1352 0 91.0675 13.4735 1227 120.039 878.918 461.707
1353 0 95.297 13.9564 1330 118.245 878.962 460.659
1354 0 100.148 14.5784 1460 118.742 878.926 454.784
1355 1 52.3082 12.4837 653 119.47 878.368 476.389
1356 0 55.0744 12.7827 704 117.236 877.912 476.399
1357 0 56.1206 13.3641 750 116.341 878.663 476.324
1358 0 58.1308 13.5384 787 116.038 878.391 474.196
1359 0 60.1398 12.9864 781 117.365 878.426 471.94
1360 0 63.2706 13.6398 863 114.904 878.073 471.47
1361 0 67.2124 14.7592 992 112.3 878.177 469.023
1362 0 67.202 12.6484 850 119.853 877.811 466.604
1363 0 70.2347 13.2413 930 118.984 877.495 464.484
1364 0 72.1963 13.5325 977 118.296 877.768 463.576
1365 0 75.2599 13.7125 1032 118.057 877.441 463.621
1366 0 77.0923 14.541 1121 118.512 878.465 461.789
1367 0 82.0999 14.799 1215 117.14 878.468 460.629
1368 0 83.0398 14.3907 1195 120.107 877.777 458.433
1369 0 86.1519 15.0432 1296 118.61 877.661 455.343
1370 0 90.113 13.9935 1261 122.225 878.22 455.454
1371 0 92.1266 14.7189 1356 120.991 878.05 455.499
1372 0 96.1369 12.3574 1188 126.912 877.885 453.796
1373 1 52.0695 14.0197 730 122.068 878.726 473.856
1374 0 54.2159 12.5978 683 126.473 878.179 473.329
1375 0 55.1383 13.9468 769 123.199 878.138 471.674
1376 0 56.0429 14.132 792 123.785 877.864 470.865
1377 0 58.1169 13.5417 787 126.644 878.214 470.391
1378 0 59.1749 15.3781 910 122.211 877.478 469.045
1379 0 62.2471 14.5067 903 124.205 877.695 468.553
1380 0 64.191 14.3634 922 124.406 877.457 468.226
1381 0 65.2103 13.8935 906 126.866 877.856 466.833
1382 0 67.1341 15.2977 1027 122.497 877.985 465.519
1383 0 69.0833 14.4029 995 125.999 877.932 464.554
1384 0 69.0646 14.0883 973 128.515 878.376 462.927
1385 0 73.1024 14.0761 1029 127.882 877.915 461.26
1386 0 77.1068 14.4994 1118 124.555 878.307 462.192
1387 0 80.204 14.8247 1189 124.193 878.208 459.833
1388 0 81.1609 14.6992 1193 125.617 878.758 457.374
1389 0 83.1108 14.2581 1185 127.959 878.964 457.455
1390 0 86.1139 13.877 1195 128.083 878.754 457.341
1391 0 91.1208 14.0473 1280 127.005 878.484 453.995
1392 0 95.1921 14.0978 1342 126.286 878.315 452.957
1393 0 98.2318 13.9161 1367 126.791 878.364 450.004
1394 0 102.142 14.3036 1461 125.572 877.628 449.211
1395 0 105.165 14.1111 1484 126.662 877.879 446.524
1396 1 54.0562 12.598 681 132.148 877.744 468.542
1397 0 56.1098 12.832 720 130.611 877.521 469.286
1398 0 56.0738 13.8211 775 127.187 877.978 468.692
1399 0 60.09 13.7294 825 125.764 877.758 466.681
1400 0 61.0633 13.5106 825 127.096 877.881 465.498
1401 0 66.1932 13.234 876 126.082 877.868 463.742
1402 0 66.2129 13.0186 862 127.465 877.903 462.251
1403 0 68.0715 13.2067 899 128.754 877.99 460.642
1404 0 72.0658 15.2638 1100 122.618 877.193 458.859
1405 0 74.1769 14.8968 1105 124.795 877.739 457.865
1406 0 76.0947 14.6002 1111 126.572 877.799 456.962
1407 0 79.1079 14.1452 1119 128.099 876.854 457.453
1408 0 82.2241 15.2145 1251 125.75 877.687 454.64
1409 0 83.0584 12.9788 1078 134.808 876.989 453.338
1410 0 86.1215 13.121 1130 135.965 876.252 451.116
1411 0 90.3455 14.4446 1305 131.86 876.566 450.509
1412 0 92.1967 13.9051 1282 134.659 876.952 449.181
1413 1 48.1413 9.82525 473 127.765 876.264 472.619
1414 0 49.0642 11.1894 549 121.321 875.947 475.049
1415 0 51.0335 10.7968 551 124.617 875.78 476.094
1416 0 53.1256 12.7434 677 119.366 876.284 475.808
1417 0 53.1982 11.7673 626 121.957 877.193 475.316
1418 0 55.1705 11.2741 622 122.127 876.661 475.487
1419 0 57.1062 12.1178 692 121.16 876.66 473.78
1420 0 58.1645 11.5534 672 123.074 876.43 473.438
1421 0 62.2541 12.4008 772 119.974 876.101 472.592
1422 0 64.1285 12.0071 770 121.323 876.61 469.944
1423 0 65.2191 11.837 772 121.409 876.71 468.87
1424 0 68.2518 12.659 864 118.366 876.472 468.206
1425 0 68.14 10.4344 711 124.544 877.003 467.307
1426 0 71.149 11.1175 791 123.106 877.775 466.226
1427 0 75.107 11.0775 832 120.704 876.648 467.454
1428 0 78.1204 11.6487 910 120.879 877.501 463.296
1429 0 81.1147 12.3282 1000 120.447 877.504 460.483
1430 1 42.0318 11.0868 466 117.232 877.056 480.036
1431 0 43.0227 9.94824 428 112.514 878.231 480.89
1432 0 43.0847 10.1428 437 109.545 878.748 479.565
1433 0 46.1142 10.6041 489 108.047 877.867 478.368
1434 0 48.0406 10.8034 519 107.484 878.258 477.422
1435 0 47.2326 10.0989 477 110.004 877.834 477.403
1436 0 48.1566 8.97074 432 112.266 877.384 478.428
1437 0 50.122 11.053 554 109.329 877.231 474.892
1438 0 52.1214 10.2261 533 110.589 877.67 475.872
1439 0 54.1107 11.2732 610 107.177 877.474 474.695
1440 0 56.0858 10.6622 598 107.921 877.915 470.503
1441 0 57.1288 10.4326 596 108.428 878.102 471.874
1442 0 60.0552 10.2905 618 107.557 877.68 470.99
1443 0 60.1496 8.04661 484 112.678 878.457 469.824
1444 0 65.1195 10.9645 714 105.723 877.896 468.951
1445 0 65.0716 9.94289 647 107.128 878.178 469.612
1446 1 30.0833 8.64268 260 106.073 877.281 486.796
1447 0 31.034 9.28014 288 105.924 877.257 485.812
1448 0 33.0149 8.02668 265 107.094 877.068 484.796
1449 0 35.0531 8.18757 287 106.861 876.99 483.997
1450 0 35.0259 10.0782 353 102.433 878.133 484.232
1451 0 33.0274 10.1734 336 106.345 877.717 485.551
1452 0 35.1613 9.41375 331 107.218 877.505 484.088
1453 0 36.044 9.07225 327 107.132 877.532 483.44
1454 0 36.1581 8.85002 320 107.488 877.669 484.95
1455 0 39.0951 8.36422 327 108.78 877.535 483.979
1456 0 41.0189 8.65454 355 108.487 878.062 481.076
1457 0 42.171 9.01094 380 108.761 877.7 479.911
1458 0 41.0883 7.9828 328 110.329 877.991 481.482
1459 0 46.2831 9.4851 439 106.986 877.802 479.879
1460 0 47.1716 9.58204 452 107.905 877.748 477.569
1461 0 48.061 10.6531 512 105.9 878.148 477.881
1462 0 49.1021 9.30713 457 108.304 878.98 478.626
1463 0 54.0976 10.7583 582 105.548 878.528 475.96
1464 0 54.1064 10.7381 581 107.021 877.85 474.954
1465 0 58.2309 10.922 636 105.972 877.539 469.294
1466 0 60.0631 11.0217 662 106.227 878.029 473.722
1467 0 62.0815 11.5332 716 107.235 877.973 470.842
1468 0 63.068 12.1298 765 106.648 878.318 473.001
1469 0 65.2017 10.9506 714 110.507 877.545 470.133
1470 0 66.1112 11.1479 737 111.725 878.356 469.533
1471 0 70.2446 11.403 801 112.774 878.305 468.764
1472 0 72.1156 11.5093 830 114.218 878.096 467.655
1473 0 76.3244 12.4469 950 109.955 877.446 466.202
1474 1 40.1905 10.6493 428 110.921 876.383 483.477
1475 0 39.0658 10.9559 428 114.371 876.512 482.6
1476 0 41.0513 11.3029 464 112.164 879.17 484.463
1477 0 43.0874 12.2542 528 113.241 876.53 482.305
1478 0 42.1195 11.0163 464 116.929 876.444 481.116
1479 0 45.1312 10.8129 488 118.777 876.916 480.057
1480 0 48.1642 12.1875 587 114.526 876.479 479.838
1481 0 49.1002 11.1405 547 119.786 876.665 477.748
1482 0 49.1545 11.1078 546 121.11 877.251 478.066
1483 0 50.1854 11.5571 580 121.493 876.916 477.098
1484 0 52.163 12.1734 635 119.939 877.343 477.368
1485 0 53.1014 11.6946 621 122.907 877.101 475.634
1486 0 57.1704 13.3461 763 117.903 877.124 475.257
1487 0 58.1721 12.3599 719 121.485 876.982 474.542
1488 0 59.1985 12.3145 729 121.765 876.177 474.9
1489 0 61.1885 13.058 799 121.39 876.558 472.59
1490 0 63.0944 12.9964 820 122.088 876.854 471.907
1491 0 64.2346 12.7346 818 124.235 877.24 470.501
1492 0 67.1502 12.4348 835 126.687 877.128 470.914
1493 0 67.0825 13.4908 905 127.498 876.793 469.245
1494 0 72.1312 13.9468 1006 126.492 876.995 469.479
1495 0 74.1715 14.0081 1039 127.327 876.919 468.111
1496 0 76.1117 13.4933 1027 130.276 876.699 467.143
1497 0 76.1463 13.2771 1011 134.704 876.224 463.723
1498 0 79.1436 12.3446 977 135.988 876.623 465.282
1499 0 82.107 13.3119 1093 134.689 877.247 463.003
1500 0 85.1075 12.5958 1072 137.246 876.753 462.34
1501 1 44.1157 10.8578 479 138.691 875.858 482.457
1502 0 48.0393 11.7612 565 135.083 876.081 481.929
1503 0 49.0107 12.181 597 126.95 878.821 481.424
1504 0 49.0236 12.3614 606 125.03 879.165 479.573
1505 0 49.0416 11.8471 581 130.46 878.315 480.497
1506 0 51.0364 12.8928 658 127.62 878.436 481.821
1507 0 49.0187 12.4646 611 137.745 879.049 479.468
1508 0 50.0331 13.7109 686 134.296 878.832 478.896
1509 0 51.0729 13.2556 677 138.802 878.235 479.007
1510 0 53.1226 13.61 723 136.599 878.145 479.523
1511 0 53.0547 12.2327 649 140.847 878.459 478.059
1512 0 56.1256 13.1491 738 135.602 878.423 476.863
1513 0 57.0452 12.2885 701 137.154 878.448 475.665
1514 0 58.114 12.4411 723 135.499 878.704 476.537
1515 0 61.1442 14.4413 883 127.418 878.862 474.571
1516 0 61.1316 13.152 804 131.153 878.575 475.224
1517 0 63.2569 13.1211 830 131.735 878.413 473.078
1518 0 64.069 12.7987 820 132.252 878.767 472.074
1519 0 65.0852 11.8767 773 134.124 877.825 471.573
1520 0 68.1094 13.9922 953 128.039 878.111 470.75
1521 0 69.0681 12.4804 862 134.039 877.636 470.29
1522 0 72.1094 14.2977 1031 127.003 878.034 470.748
1523 0 75.1042 12.8621 966 132.912 877.274 469.636
1524 0 74.0343 13.1561 974 135.165 877.697 468.098
1525 0 79.097 14.1725 1121 131.327 877.706 468.047
1526 0 79.1066 13.2353 1047 136.87 877.755 466.374
1527 0 79.0552 12.2952 972 142.959 878.142 465.779
1528 0 85.1266 13.5093 1150 137.367 878.256 466.203
1529 0 86.132 14.1875 1222 138.177 878.203 463.463
1530 0 89.0931 14.4792 1290 139.39 877.802 462.849
1531 0 89.0928 13.8732 1236 143.099 877.243 461.515
1532 0 93.0898 13.6105 1267 144.075 876.776 461.524
1533 0 95.0792 13.3468 1269 146.826 877.418 459.954
1534 0 97.0662 12.5069 1214 151.414 877.085 459.519
1535 1 50.0319 12.532 627 144.285 877.011 481.477
1536 0 52.0372 12.2989 640 144.109 877.083 482.045
1537 0 53.0175 12.2412 649 151.579 877.24 478.851
1538 0 56.1528 13.4811 757 142.542 875.349 477.252
1539 0 58.0911 14.7011 854 137.651 875.341 477.607
1540 0 60.1031 13.8762 834 140.124 875.939 476.825
1541 0 60.1478 13.6996 824 141.478 875.612 476.579
1542 0 64.1104 13.5079 866 140.516 874.737 474.307
1543 0 65.1226 13.4669 877 142.181 875.203 473.236
1544 0 66.0768 13.8173 913 142.347 876.056 471.975
1545 0 68.0824 13.7334 935 141.767 875.634 472.165
1546 0 71.1382 14.4367 1027 139.138 875.27 469.268
1547 0 73.067 14.2335 1040 138.383 874.574 469.302
1548 0 76.1177 13.3609 1017 140.816 874.975 467.7
1549 0 77.1966 13.6275 1052 142.376 875.473 465.022
1550 0 79.1418 13.52 1070 141.204 875.268 465.162
1551 0 83.1792 13.5731 1129 140.027 875.608 461.876
1552 0 83.2158 12.9783 1080 141.324 875.333 462.98
1553 0 87.1088 13.684 1192 137.524 875.62 460.525
1554 0 90.1014 13.1962 1189 138.222 876.135 458.738
1555 0 93.1325 13.7546 1281 134.987 875.756 458.8
1556 0 96.1518 13.5827 1306 135.801 875.561 455.827
1557 0 100.229 12.7907 1282 136.424 875.97 453.26
1558 1 50.0696 11.4441 573 132.236 876.148 478.157
1559 0 52.07 12.3872 645 133.398 875.882 475.732
1560 0 52.1931 11.9556 624 132.659 875.59 472.869
1561 0 55.2527 11.8908 657 132.746 875.638 472.565
1562 0 59.2031 12.2967 728 125.739 875.5 472.261
1563 0 55.1877 10.5821 584 134.675 875.327 469.906
1564 0 62.1326 11.7973 733 127.775 876.138 471.846
1565 0 64.0956 12.2317 784 126.186 875.806 471.384
1566 0 67.053 13.8845 931 131.798 876.291 472.621
1567 0 67.0971 12.862 863 127.948 876.766 471.51
1568 0 71.0753 13.9008 988 122.567 876.938 470.258
1569 0 73.0956 13.4892 986 124.802 876.441 468.269
1570 0 75.1446 12.5758 945 127.004 876.596 468.668
1571 0 76.0853 12.7751 972 126.677 876.568 467.118
1572 0 79.0805 12.266 970 126.868 875.799 466.578
1573 0 82.053 12.821 1052 124.627 875.978 464.282
1574 0 84.0617 13.157 1106 123.873 875.878 462.18
1575 0 87.086 12.5967 1097 124.126 875.306 462.247
1576 0 90.1852 13.8714 1251 122.394 875.759 459.968
1577 0 93.1797 13.3827 1247 124.251 875.659 457.392
1578 0 95.23 12.4646 1187 124.796 875.832 458.46
1579 1 50.0637 10.986 550 125.349 874.929 479.555
1580 0 53.0665 11.1181 590 123.307 873.781 479.232
1581 0 54.0188 10.9221 590 123.063 874.61 479.276
1582 0 57.1468 12.1442 694 114.05 876.731 476.849
1583 0 59.1143 11.2494 665 116.777 876.671 476.492
1584 0 59.0729 13.1532 777 112.05 874.366 474.004
1585 0 62.076 12.7102 789 112.593 874.172 472.811
1586 0 62.0378 10.7676 668 117.109 874.838 473.533
1587 0 62.0378 10.6226 659 137.05 874.836 473.408
1588 0 67.063 12.958 869 113.262 873.771 470.654
1589 0 69.1052 13.5446 936 111.697 874.097 470.144
1590 0 69.0899 12.491 863 115.615 873.722 468.632
1591 0 72.1624 12.9707 936 114.279 873.346 468.123
1592 0 75.1162 12.1545 913 116.246 874.379 466.646
1593 0 78.0967 11.6138 907 117.921 874.532 465.927
1594 0 81.1324 13.4102 1088 113.799 874.343 462.966
1595 0 83.1418 11.9314 992 117.148 875.016 463.339
1596 0 85.0843 12.705 1081 116.155 875.092 459.504
1597 0 86.1806 11.7544 1013 119.184 874.747 460.089
1598 0 90.0783 12.3559 1113 118.294 875.059 457.005
1599 0 95.1568 12.264 1167 117.75 875.309 458.371
1600 0 97.2808 12.87 1252 117.285 875.259 456.031
1601 1 50.1468 10.21 512 119.348 874.963 478.961
1602 0 51.3208 10.0154 514 121.346 875.959 477.512
1603 0 53.2638 11.8842 633 113.261 876.084 474.916
1604 0 52.0415 10.3571 539 120.777 873.776 475.59
1605 0 57.0318 11.555 659 117.068 874.464 475.725
1606 0 57.0577 10.7961 616 119.409 874.891 474.328
1607 0 61.0387 12.189 744 115.789 874.47 471.524
1608 0 61.0143 11.8661 724 117.206 874.765 472.358
1609 0 61.0582 11.1205 679 119.71 874.761 470.426
1610 0 68.0462 13.1234 893 112.766 875.031 470.636
1611 0 70.0942 12.8684 902 113.331 874.707 469.94
1612 0 70.0803 12.2859 861 116.226 874.682 469.301
1613 0 71.0829 11.7609 836 114.74 874.188 467.406
1614 0 75.1436 13.2945 999 109.336 875.364 466.767
1615 0 78.0856 13.3315 1041 109.232 875.721 467.037
1616 0 79.069 11.9895 948 112.447 875.301 466.044
1617 0 80.078 11.7136 938 113.284 875.189 466.167
1618 0 84.0792 12.3693 1040 112.426 875.304 462.558
1619 0 87.0645 13.0937 1140 111.014 875.54 461.075
1620 0 90.2052 12.7931 1154 111.834 873.258 459.419
1621 0 94.16 13.031 1227 111.75 873.967 456.835
1622 0 97.2053 12.0158 1168 114.009 874.095 457.578
1623 0 101.196 12.9353 1309 112.659 874.134 454.364
1624 0 106.172 13.0166 1382 112.12 874.17 452.528
1625 1 53.0299 10.3149 547 113.539 873.166 476.669
1626 0 56.064 11.6653 654 111.052 873.682 477.385
1627 0 58.0303 11.942 693 111.341 874.049 474.981
1628 0 59.0765 11.7813 696 111.151 873.046 474.488
1629 0 61.0374 11.8943 726 110.861 873.444 473.909
1630 0 66.0595 13.3516 882 106.559 873.528 473.271
1631 0 65.1027 11.9657 779 111.041 873.22 471.078
1632 0 70.1293 11.9779 840 109.965 873.568 469.42
1633 0 71.0788 11.6772 830 110.883 873.912 468.3
1634 0 73.0845 11.302 826 111.584 873.954 468.793
1635 0 75.098 10.9856 825 113.153 873.704 465.293
1636 0 78.0847 11.7693 919 110.782 873.968 465.687
1637 0 81.0715 12.1621 986 110.095 874.054 463.293
1638 1 42.0125 9.11633 383 107.676 874.003 483.995
1639 0 43.1248 10.9218 471 99.4161 874.682 483.231
1640 0 44.2355 11.8909 526 100.502 874.555 479.458
1641 0 42.0261 9.27994 390 107.936 873.744 481.208
1642 0 47.1237 10.6316 501 105.643 873.287 481.273
1643 0 48.0809 10.7943 519 106.326 874.432 479.865
1644 0 48.0891 10.5221 506 105.648 873.796 480.059
1645 0 52.1208 11.7228 611 102.548 874.218 479.061
1646 0 52.1192 13.354 696 101.011 874.282 478.259
1647 0 51.0922 12.3502 631 106.68 873.786 478.976
1648 0 53.0978 11.5824 615 109.408 874.28 477.327
1649 0 54.0507 12.5253 677 108.148 874.665 475.532
1650 0 56.0742 11.8771 666 110.368 874.219 475.733
1651 0 58.132 12.2996 715 109.817 874.867 473.982
1652 0 59.0342 12.1624 718 110.262 874.216 473.494
1653 0 61.0764 13.4422 821 107.537 874.236 472.339
1654 0 63.1394 12.1002 764 110.982 874.132 472.788
1655 0 65.1013 12.9951 846 109.735 873.995 472.166
1656 0 67.0833 12.9988 872 110.503 874.216 472.356
1657 0 68.1643 12.7926 872 112.602 873.845 469.196
1658 0 72.1983 13.269 958 111.042 874.355 469.896
1659 0 73.176 14.0483 1028 110.524 874.206 468.704
1660 0 77.2015 12.72 982 117.659 874.491 465.114
1661 0 79.2658 12.6915 1006 117.311 874.218 468.068
1662 1 41.1559 9.93783 409 116.506 874.523 484.888
1663 0 42.0268 10.5171 442 115.993 873.5 484.744
1664 0 45.0958 11.4867 518 114.836 875.589 480.625
1665 0 45.0475 10.3446 466 104.959 876.268 478.661
1666 0 48.1092 10.6632 513 103.975 876.4 478.29
1667 0 49.0951 10.7139 526 104.392 875.979 477.395
1668 0 48.073 10.276 494 106.802 875.899 478.04
1669 0 50.1028 9.73996 488 89.5697 875.559 473.926
1670 0 52.0471 10.625 553 107.219 875.725 476.076
1671 0 53.1066 10.6013 563 107.988 875.137 473.107
1672 0 58.0729 10.6762 620 107.169 876.147 474.473
1673 0 59.1908 11.9782 709 105.104 875.491 472.127
1674 0 59.1931 11.9946 710 105.914 875.713 471.445
1675 0 60.1439 11.1898 673 109.07 875.199 469.526
1676 0 62.1426 11.892 739 107.839 876.032 467.742
1677 0 66.1408 11.914 788 105.728 875.853 469.775
1678 0 68.104 11.3503 773 109.809 875.704 466.988
1679 0 70.1488 12.1456 852 90.0974 876.169 466.648
1680 0 72.0659 11.0732 798 109.68 876.079 465.03
1681 0 75.1716 11.6932 879 107.548 876.121 461.92
1682 0 75.1758 10.6284 799 111.548 876.058 459.94
1683 0 79.1113 12.0842 956 107.738 876.14 459.505
1684 0 83.1383 11.0058 915 109.823 875.976 458.56
1685 1 41.0276 8.94519 367 107.199 877.278 480.444
1686 0 44.0947 11.4299 504 100.526 876.413 478.514
1687 0 44.1001 9.61448 424 105.163 876.026 478.078
1688 0 47.0831 10.5133 495 102.76 876.582 478.444
1689 0 46.0826 10.7416 495 103.64 876.715 476.442
1690 0 50.1812 10.0436 504 104.27 876.579 474.736
1691 0 52.2278 11.2775 589 101.11 876.693 476.348
1692 0 50.0252 9.55518 478 107.839 876.115 476.933
1693 0 54.0469 10.9535 592 103.939 876.128 476.081
1694 0 57.0538 13.6012 776 104.637 875.892 477.585
1695 0 57.022 11.329 646 111.046 876.429 476.054
1696 0 59.0638 12.0548 712 110.267 875.838 474.639
1697 0 61.0592 11.4807 701 110.872 875.592 474.521
1698 0 61.0292 11.2241 685 112.228 875.645 474.22
1699 0 65.0537 12.236 796 109.217 875.827 473.337
1700 0 68.0491 12.9024 878 106.884 875.67 470.641
1701 0 71.1543 11.7351 835 110.351 876.007 470.8
1702 0 72.0584 12.2123 880 110.549 875.675 468.409
1703 0 75.1608 12.5597 944 109.794 875.168 468.573
1704 0 77.1762 11.6746 901 109.744 874.548 466.049
1705 0 79.2912 12.7126 1008 107.73 874.612 464.652
1706 0 82.1506 12.7205 1045 108.152 875.413 464.179
1707 0 85.3663 13.0497 1114 107.416 874.587 461.381
1708 1 43.1877 11.2069 484 109.475 873.32 483.909
1709 0 44.0907 11.4083 503 110.71 872.692 481.527
1710 0 44.116 10.6991 472 112.439 873.093 481.727
1711 0 48.0976 11.3519 546 110.527 873.229 481.048
1712 0 50.0721 11.9827 600 110.08 873.093 480.68
1713 0 49.1197 12.0929 594 113.259 873.591 479.303
1714 0 50.0326 11.5525 578 115.287 873.69 478.571
1715 0 54.0757 13.0003 703 110.73 872.782 478.614
1716 0 53.1012 11.8641 630 116.941 873.619 476.629
1717 0 55.107 12.1582 670 116.17 873.576 475.927
1718 0 57.1045 12.9412 739 113.635 873.491 475.95
1719 0 58.1759 11.4996 669 116.466 873.522 476.413
1720 0 61.0967 11.8828 726 115.981 873.697 472.877
1721 0 62.1128 13.2823 825 112.361 873.735 472.196
1722 0 64.1735 11.2196 720 117.176 873.947 472.699
1723 0 67.1732 11.582 778 116.136 874.652 468.639
1724 0 71.0934 12.7579 907 112.276 874.316 469.09
1725 0 73.0847 10.8231 791 117.215 874.455 468.919
1726 0 74.1576 11.7318 870 115.595 873.579 467.38
1727 0 77.1389 12.0173 927 115.096 873.947 465.291
1728 0 80.2042 12.144 974 115.345 874.044 462.726
1729 0 83.1239 12.319 1024 115.228 874.635 464.981
1730 0 85.216 12.392 1056 116.643 875.396 461.441
1731 0 88.1207 13.5042 1190 114.243 875.389 459.977
1732 0 90.1517 12.0242 1084 118.389 875.148 459.911
1733 0 93.2439 12.848 1198 115.827 874.798 456.038
1734 0 96.235 12.2824 1182 118.25 874.142 455.733
1735 0 100.168 12.449 1247 118.148 874.081 455.441
1736 0 103.338 12.1059 1251 118.918 874.072 453.945
1737 0 106.263 14.0972 1498 115.202 873.921 452.075
1738 0 109.29 12.6636 1384 118.661 874.337 452.548
1739 0 110.191 11.7251 1292 122.848 874.021 449.045
1740 0 118.337 13.5038 1598 118.651 874.501 448.123
1741 0 121.339 10.8951 1322 125.499 873.456 446.289
1742 0 127.598 12.5393 1600 120.941 874.038 443.202
1743 0 133.422 12.5766 1678 122.188 873.79 439.251
1744 1 69.1258 11.0812 766 118.765 873.518 469.367
1745 0 74.1877 12.9941 964 112.172 874.191 468.79
1746 0 74.2115 12.7608 947 113.413 873.586 469.12
1747 0 77.1625 12.3635 954 113.682 874.198 466.515
1748 0 81.1857 12.4037 1007 113.087 874.354 463.801
1749 0 84.2988 12.4438 1049 112.671 874.681 461.369
1750 0 88.297 12.9563 1144 110.763 874.292 461.858
1751 0 89.2706 11.6836 1043 111.487 873.815 461.338
1752 0 93.2046 12.7462 1188 108.726 874.284 459.81
1753 0 97.4114 12.6885 1236 109.04 874.166 456.24
1754 0 100.403 11.5535 1160 113.436 874.533 452.853
1755 1 54.2749 11.147 605 113.559 875.185 477.484
1756 0 56.2593 11.8736 668 112.669 875.931 473.488
1757 0 59.2513 12.506 741 111.472 875.906 472.868
1758 0 60.3266 12.8633 776 113.624 875.514 474.16
1759 0 61.0638 12.0202 734 97.8678 874.144 475.894
1760 0 63.189 12.882 814 115.784 873.893 474.166
1761 0 66.0953 12.8451 849 116.064 873.688 473.07
1762 0 67.1223 12.0228 807 119.269 874.196 472.177
1763 0 69.329 12.9527 898 117.065 874.773 470.287
1764 0 73.1868 13.1991 966 116.345 874.398 469.084
1765 0 73.1826 11.9427 874 121.469 874.219 466.672
1766 0 78.1268 12.1981 953 120.727 874.474 466.797
1767 0 80.1154 12.7816 1024 120.603 874.072 465.901
1768 0 83.2016 13.6295 1134 117.938 874.329 464.884
1769 0 85.1695 13.6199 1160 118.764 874.186 462.784
1770 0 87.1768 12.6983 1107 123.369 874.285 461.452
1771 0 91.1867 12.5128 1141 123.829 873.834 461.287
1772 0 94.1288 12.281 1156 124.433 873.928 460.081
1773 0 97.1592 12.9066 1254 124.362 874.743 456.612
1774 0 102.235 13.42 1372 126.99 873.614 454.491
1775 1 52.056 11.1803 582 126.229 873.572 480.308
1776 0 54.0492 12.0261 650 123.2 873.969 478.892
1777 0 56.2969 12.2742 691 123.096 873.399 478.347
1778 0 55.2334 11.5872 640 127.595 873.928 477.53
1779 0 58.3171 12.312 718 125.508 874.437 475.52
1780 0 60.1883 12.1951 734 124.853 873.879 475.144
1781 0 60.1656 10.8866 655 129.456 874.024 474.069
1782 0 63.2498 12.2846 777 125.127 873.381 473.251
1783 0 67.268 13.3644 899 121.112 874.406 471.633
1784 0 68.2399 12.2509 836 124.77 873.988 470.538
1785 0 71.2362 12.7604 909 122.795 873.657 469.435
1786 0 70.1728 11.4717 805 127.64 873.748 468.297
1787 0 75.2947 12.6968 956 123.328 874.002 465.524
1788 0 77.2441 12.7777 987 123.47 873.517 465.053
1789 0 77.2104 10.9441 845 127.18 873.557 462.825
1790 0 83.2982 11.765 980 124.06 873.749 462.999
1791 0 86.3302 12.2205 1055 122.083 873.853 461.845
1792 0 87.3178 10.7882 942 126.914 872.714 460.321
1793 0 93.5035 12.8765 1204 121.283 873.608 457.425
1794 0 95.5901 11.497 1099 124.627 873.618 457.156
1795 1 51.3962 10.6623 548 118.631 875.451 479.708
1796 0 50.2266 10.3531 520 116.537 875.21 478.327
1797 0 53.2183 11.6313 619 110.278 875.769 475.824
1798 0 55.2897 12.9861 718 107.054 876.096 477.031
1799 0 58.2112 12.8841 750 106.197 875.963 476.236
1800 0 58.2782 11.5137 671 110.486 875.937 473.987
1801 0 61.1842 12.6994 777 106.826 876.264 473.026
1802 0 60.1743 11.2008 674 112.108 876.645 473.849
1803 0 63.1303 11.1357 703 111.448 876.343 473.246
1804 0 66.081 11.7583 777 110.371 876.561 471.95
1805 0 68.1298 11.9771 816 109.7 876.603 469.875
1806 0 69.1517 13.2462 916 107.736 876.464 469.574
1807 0 70.0784 12.2434 858 111.393 876.658 468.044
1808 0 73.1038 12.3933 906 110.972 876.47 466.416
1809 0 76.2092 11.9277 909 112.737 876.363 464.543
1810 0 76.1812 11.2889 860 115.167 876.073 464.88
1811 0 80.2865 12.8166 1029 110.811 875.965 462.764
1812 0 83.1458 12.1353 1009 112.764 876.071 461.643
1813 0 86.1568 11.6184 1001 113.473 875.524 463.554
1814 0 88.1368 12.6735 1117 111.767 876.143 458.775
1815 1 47.0508 10.5418 496 116.206 876.675 481.381
1816 0 48.1939 11.931 575 112.703 875.196 478.843
1817 0 50.2687 11.7767 592 113.159 874.26 476.88
1818 0 52.4038 12.2701 643 115.056 874.238 477.296
1819 0 51.2524 11.3166 580 119.712 874.688 477.81
1820 0 53.0542 12.4213 659 118.127 876.615 477.775
1821 0 55.0738 12.0747 665 119.361 876.517 476.347
1822 0 57.021 12.171 694 117.958 876.545 476.751
1823 0 59.0785 12.6442 747 118.277 876.316 475.801
1824 0 60.043 12.1246 728 118.724 875.852 476.611
1825 0 63.0315 13.1997 832 116.084 876.287 475.405
1826 0 63.1042 11.9802 756 121.278 876.312 472.479
1827 0 67.0545 13.4667 903 116.111 876.065 472.911
1828 0 67.066 12.182 817 119.716 876.956 472.037
1829 0 71.0581 12.4124 882 119.007 877.001 470.213
1830 0 71.0994 11.6738 830 122.853 876.355 468.235
1831 0 76.0842 14.2605 1085 115.397 875.689 466.753
1832 0 77.1127 13.0718 1008 119.043 875.704 465.362
1833 0 81.1205 14.5956 1184 114.731 875.816 465.72
1834 0 84.1343 13.4428 1131 117.408 875.553 463.503
1835 0 87.1548 13.9522 1216 116.695 874.982 461.906
1836 0 89.2479 13.6922 1222 117.543 876.265 461.473
1837 0 88.0732 13.977 1231 118.352 876.136 462.054
1838 0 94.1087 13.41 1262 119.001 875.762 458.793
1839 0 96.0918 14.7359 1416 115.939 876.72 456.903
1840 0 97.1593 13.6786 1329 119.353 876.64 453.646
1841 0 101.106 11.3445 1147 126.107 875.255 453.594
1842 0 105.178 12.417 1306 122.826 874.851 450.645
1843 0 109.213 13.579 1483 119.547 875.003 452.946
1844 1 55.0718 10.7133 590 119.895 874.317 477.868
1845 0 56.1129 11.8333 664 117.715 873.746 474.867
1846 0 58.1194 11.8377 688 117.658 873.936 471.411
1847 0 61.0966 12.914 789 116.523 874.104 473.842
1848 0 62.0529 11.9414 741 119.451 873.578 474.699
1849 0 64.104 11.9961 769 119.72 873.836 472.8
1850 0 66.1032 12.5864 832 118.879 873.938 471.96
1851 0 68.0424 12.3893 843 120.534 874.209 468.444
1852 0 71.0729 13.0992 931 119.038 874.324 467.749
1853 0 72.15 12.4324 897 121.093 874.564 468.987
1854 0 76.1345 13.0296 992 119.802 874.547 466.536
1855 0 78.0602 14.1429 1104 118.344 874.35 465.136
1856 0 80.1482 12.8013 1026 122.48 874.25 465.002
1857 0 83.0371 13.1507 1092 122.28 874.616 462.848
1858 0 88.104 13.87 1222 119.164 873.934 463.086
1859 0 88.0993 12.8945 1136 123.359 873.229 459.812
1860 0 93.2272 13.6977 1277 120.684 873.792 458.006
1861 1 48.0702 10.7135 515 119.969 874.144 480.315
1862 0 50.1338 11.8483 594 116.333 874.577 480.581
1863 0 52.1487 12.1384 633 117.385 874.564 477.782
1864 0 53.2929 12.1405 647 117.196 874.74 477.416
1865 0 53.1698 10.8332 576 114.823 874.542 478.024
1866 0 56.1055 12.1378 681 109.508 875.344 477.267
1867 0 57.036 11.9749 683 110.917 874.994 476.845
1868 0 60.0216 13.4785 809 107.036 874.506 476.088
1869 0 62.0825 13.8203 858 106.563 875.242 475.724
1870 0 62.1469 13.1785 819 109.111 874.595 471.694
1871 0 64.0935 12.4662 799 110.976 874.427 470.581
1872 0 65.0819 12.7993 833 109.503 874.401 470.784
1873 0 69.1452 13.5946 940 107.386 873.712 468.229
1874 0 70.1609 12.4998 877 110.336 874.168 468.474
1875 0 74.1185 12.561 931 109.615 874.439 467.958
1876 0 74.2249 12.8259 952 111.3 874.382 464.897
1877 0 77.3678 13.5715 1050 110.818 873.936 463.189
1878 0 80.2569 13.3197 1069 111.999 874.214 464.321
1879 1 40.0746 10.1311 406 111.929 875.081 483.911
1880 0 43.0911 11.1392 480 110.894 873.658 483.067
1881 0 43.1338 11.4759 495 111.287 874.234 481.059
1882 0 45.1259 12.1438 548 117.195 876.128 481.369
1883 0 47.055 12.7935 602 114.267 875.92 482.902
1884 0 48.0376 13.8641 666 112.658 875.898 481.411
1885 0 49.0907 13.0982 643 115.964 875.667 480.764
1886 0 49.0561 11.5378 566 120.106 875.654 481.677
1887 0 52.079 12.2122 636 118.368 875.904 481.13
1888 0 53.0734 11.9457 634 119.626 876.505 479.722
1889 0 54.0288 12.771 690 119.026 876.791 477.742
1890 0 56.0395 13.6332 764 116.76 876.683 476.154
1891 0 57.0775 12.7371 727 119.217 876.213 475.561
1892 0 59.0427 12.1268 716 119.196 876.349 476.975
1893 0 61.052 13.0872 799 116.451 876.541 475.417
1894 0 63.0448 13.1494 829 116.355 875.838 474.107
1895 0 65.0898 12.4751 812 118.062 876.741 474.156
1896 0 68.134 12.4461 848 118.412 875.474 472.185
1897 0 66.1181 13.5364 895 118.275 875.893 470.115
1898 0 69.1581 13.1004 906 118.703 875.68 469.287
1899 0 72.1601 12.2367 883 119.254 875.774 469.813
1900 0 76.1953 14.0822 1073 113.467 875.891 467.383
1901 0 79.2042 12.5751 996 117.518 875.932 466.829
1902 0 80.194 12.8314 1029 117.015 875.655 464.906
1903 1 44.0722 11.2769 497 111.911 877.034 483.873
1904 0 44.0471 12.2142 538 112.441 876.416 481.441
1905 0 45.052 13.0516 588 110.543 876.298 479.905
1906 0 45.0547 11.6747 526 114.652 876.015 481.067
1907 0 48.02 12.3698 594 112.958 875.865 479.116
1908 0 49.1038 10.9564 538 115.996 876.052 480.429
1909 0 51.1711 11.9599 612 114.191 875.634 477.915
1910 0 53.0574 10.5546 560 115.795 875.839 477.902
1911 0 56.0889 13.2647 744 110.704 876.118 477.276
1912 0 58.1795 12.8396 747 111.656 876.589 476.57
1913 0 58.0948 12.4796 725 112.57 876.297 476.874
1914 0 59.1465 12.9171 764 113.473 875.884 473.713
1915 0 62.3727 13.8041 861 109.746 874.625 475.134
1916 0 64.3671 13.6716 880 110.827 875.399 472.766
1917 0 65.3944 12.9063 844 113.787 875.148 471.873
1918 0 67.3182 12.3889 834 115.819 874.76 470.876
1919 0 69.5131 13.4795 937 114.265 874.78 466.382
1920 0 70.2001 11.9943 842 116.5 874.7 464.638
1921 0 73.3529 12.5421 920 114.408 874.41 465.536
1922 0 78.2592 13.4297 1051 110.539 874.477 463.657
1923 0 77.1601 12.4805 963 111.792 875.976 466.875
1924 0 81.2091 12.0799 981 112.824 874.566 460.054
1925 1 43.0653 11.0298 475 108.32 873.981 480.512
1926 0 43.1523 12.3052 531 106.235 874.055 478.239
1927 0 46.2511 12.1511 562 105.069 873.916 479.651
1928 0 48.1433 11.8604 571 106.639 873.643 478.068
1929 0 45.0468 11.033 497 110.237 873.843 479.121
1930 0 51.0434 11.4217 583 106.482 874.549 480.28
1931 0 51.0368 12.442 635 107.762 874.512 478.836
1932 0 52.0488 12.0464 627 113.627 874.022 477.083
1933 0 53.1264 11.6891 621 113.446 873.928 478.741
1934 0 53.0681 12.2861 652 114.368 873.9 476.902
1935 0 56.1097 11.834 664 115.643 873.762 475.968
1936 0 58.1638 12.2929 715 114.361 874.887 474.455
1937 0 59.1526 12.6453 748 113.782 874.459 474.202
1938 0 62.1465 14.4658 899 109.721 874.16 472.152
1939 0 64.0787 12.7031 814 114.645 874.488 471.937
1940 0 64.168 12.1868 782 116.813 874.344 472.434
1941 0 67.1971 12.5749 845 116.551 873.58 470.755
1942 0 68.1548 11.1511 760 121.032 873.545 470.283
1943 0 71.1021 12.1656 865 118.684 874.187 468.069
1944 0 73.0897 11.8621 867 120.898 874.749 467.161
1945 0 75.1665 12.6386 950 119.044 874.672 464.122
1946 0 76.1463 12.3053 937 120.726 875.412 465.053
1947 0 79.1935 11.9202 944 120.961 875.481 463.17
1948 0 82.0857 12.3286 1012 118.414 875.497 462.106
1949 0 84.081 12.0598 1014 119.962 875.417 460.058
1950 0 88.1583 11.7062 1032 119.394 875.093 460.294
1951 0 91.0855 12.4389 1133 117.454 875.641 458.452
1952 1 50.0515 11.4482 573 116.967 875.442 477.476
1953 0 52.0998 11.7275 611 116.347 876.288 477.501
1954 0 52.0124 13.1507 684 114.07 876.27 476.459
1955 0 54.0616 11.7089 633 116.379 875.213 475.896
1956 0 56.0739 12.1269 680 114.121 875.782 476.803
1957 0 58.1501 11.8486 689 115.862 875.896 474.462
1958 0 60.1019 12.562 755 113.053 875.709 475.13
1959 0 62.1018 12.6888 788 112.52 876.102 473.39
1960 0 63.0538 12.3545 779 112.216 875.525 473.62
1961 0 67.1066 12.6515 849 111.078 876.082 470.86
1962 0 68.1952 12.0243 820 112.776 876.434 468.571
1963 0 71.1182 12.88 916 110.829 876.294 467.369
1964 0 74.1349 13.3405 989 109.505 876.481 466.365
1965 0 76.0896 12.1042 921 112.39 876.528 464.724
1966 0 79.1494 12.9502 1025 110.129 876.398 462.917
1967 0 81.092 13.2566 1075 109.03 876.144 462.239
1968 0 83.14 11.8595 986 112.729 876.361 462.713
1969 0 87.1589 11.7028 1020 112.997 875.949 457.332
1970 0 87.1289 10.9952 958 116.166 876.002 458.605
1971 0 92.0837 12.695 1169 111.476 875.877 458.689
1972 0 96.0562 12.3157 1183 112.661 876.124 454.826
1973 1 49.0266 10.1986 500 114.21 877.57 478.742
1974 0 51.1698 10.983 562 114.646 875.936 476.845
1975 0 54.0677 11.985 648 111.559 874.565 477.188
1976 0 57.0085 12.1035 690 110.528 875.37 476.22
1977 0 58.1011 12.2717 713 109.762 875.509 475.302
1978 0 60.0471 12.0572 724 110.026 874.834 475.86
1979 0 61.054 11.9566 730 112.115 874.977 472.415
1980 0 64.0287 12.6037 807 109.26 874.129 472.668
1981 0 66.118 11.9181 788 111.39 874.925 470.503
1982 0 68.0251 12.466 848 109.129 874.639 470.958
1983 0 69.0637 12.7853 883 110.051 874.535 469.571
1984 0 72.0875 12.1935 879 108.82 874.669 469.182
1985 0 75.0628 13.7618 1033 106.237 874.842 467.495
1986 0 77.0419 13.4992 1040 105.981 874.794 466.454
1987 0 80.0759 13.3623 1070 106.376 875.049 466.078
1988 0 81.0462 14.3992 1167 105.46 874.692 463.711
1989 0 83.0792 11.9886 996 106.324 874.894 457.956
1990 0 86.074 11.9781 1031 107.773 875.118 456.004
1991 0 89.1102 12.2994 1096 107.187 875.687 457.313
1992 0 91.1238 11.7532 1071 109.507 875.54 454.582
1993 0 94.2244 11.1542 1051 110.165 874.892 456.472
1994 1 52.034 11.1081 578 113.687 874.107 480.095
1995 0 54.0474 11.8415 640 113.797 874.297 478.238
1996 0 53.0945 11.9787 636 116.349 875.354 477.689
1997 0 56.1044 12.8332 720 115.654 876.711 474.432
1998 0 58.091 12.5321 728 116.683 873.405 475.724
1999 0 60.061 13.5029 811 114.919 873.678 474.191
2000 0 60.1571 13.1323 790 117.268 873.946 473.367
2001 0 64.0875 12.9978 833 115.866 874.731 472.092
2002 0 64.1001 12.8549 824 119.462 874.382 469.745
2003 0 68.0588 14.5022 987 113.2 874.612 471.697
2004 0 68.0699 12.4431 847 119.946 874.25 469.408
2005 0 73.1171 13.7314 1004 117.499 874.899 468.157
2006 0 75.1823 14.2321 1070 116.991 874.989 467.032
2007 0 75.1427 13.4411 1010 120.099 875.044 465.548
2008 0 80.1031 12.9833 1040 117.662 875.311 464.612
2009 0 82.0644 12.7583 1047 117.946 875.648 466.128
2010 0 86.1378 13.1766 1135 116.915 875.527 464.054
2011 0 88.1092 13.1201 1156 118.091 875.554 461.187
2012 0 91.2455 12.9869 1185 117.716 875.877 455.722
2013 1 48.0324 11.8254 568 114.4 876.586 480.974
2014 0 49.0448 11.357 557 119.623 876.163 477.984
2015 0 50.1198 11.8317 593 119.88 875.9 476.371
2016 0 51.0727 12.1591 621 119.488 876.533 477.369
2017 0 55.0747 11.8022 650 119.558 875.774 477.658
2018 0 55.0747 13.3274 734 117.612 876.308 476.545
2019 0 58.1052 13.3035 773 117.858 875.856 475.991
2020 0 59.1438 12.7148 752 119.959 876.379 472.992
2021 0 61.3196 12.5572 770 120.769 875.997 473.362
2022 0 62.1394 11.1845 695 125.01 874.928 471.888
2023 0 63.1409 13.0502 824 120.451 875.794 471.973
2024 0 68.0824 12.0002 817 124.158 874.606 470.672
2025 0 69.0965 10.9846 759 126.014 874.665 469.513
2026 0 73.0847 11.1925 818 124.812 875.071 467.501
2027 0 74.0376 11.4942 851 122.783 875.65 469.088
2028 0 76.1422 10.1652 774 124.437 875.068 467.95
2029 1 149.265 12.8094 1912 128.038 874.962 431.959
2030 0 152.277 13.0026 1980 129.182 874.956 426.42
2031 0 157.313 12.046 1895 131.459 875.597 423.802
2032 1 43.0171 9.27539 399 115.378 875.592 484.87
2033 0 44.0227 9.10893 401 117.531 874.988 480.828
2034 0 47.029 11.1421 524 112.987 875.168 482.277
2035 0 48.0171 9.97562 479 114.752 874.336 482.296
2036 0 48.0372 10.4086 500 115.528 874.3 479.57
2037 1 182.461 11.7998 2153 135.56 874.66 415.909
2038 0 185.539 12.2724 2277 135.202 874.24 413.716
2039 0 190.473 11.2404 2141 136.273 874.311 414.848
2040 0 192.46 10.4853 2018 140.012 874.278 410.557
2041 0 195.43 11.8457 2315 139.333 874.545 416.495
2042 0 198.629 10.8997 2165 143.564 874.969 411.964
2043 0 206.776 12.1194 2506 141.421 874.795 402.154
2044 0 208.573 12.2116 2547 143.67 874.773 400.588
2045 1 28.0597 7.98297 224 117.277 875.469 491.607
2046 0 28.05 8.0214 225 118.996 875.444 490.307
2047 0 30.0425 10.585 318 114.035 875.748 490.865
2048 0 31.1655 9.56187 298 116.299 875.527 489.836
2049 0 35.1702 8.58682 302 116.384 874.828 489.851
2050 0 31.1532 9.50143 296 110.909 873.574 487.814
2051 0 39.3066 10.4817 412 110.068 873.687 484.18
2052 0 40.2364 9.51875 383 112.026 873.859 485.747
2053 0 43.1875 10.6744 461 110.408 874.054 484.286
2054 0 44.2013 9.63772 426 113.235 873.892 484.272
2055 0 46.1626 12.261 566 108.627 874.92 482.966
2056 0 47.167 13.6324 643 108.271 874.543 481.115
2057 0 48.132 11.8217 569 113.422 874.636 482.794
2058 0 50.0537 10.8284 542 116.334 874.576 482.386
2059 0 52.0508 12.3725 644 114.255 874.662 481.438
2060 0 55.131 13.2775 732 111.852 874.544 479.731
2061 0 55.1246 13.152 725 115.269 874.568 479.721
2062 0 58.1188 14.0918 819 113.457 874.855 479.21
2063 0 57.2309 12.8777 737 118.752 874.976 479.166
2064 0 59.16 12.9479 766 120.026 874.457 478.602
2065 0 62.1633 13.0302 810 119.717 874.227 477.488
2066 0 63.1431 13.3348 842 120.861 874.829 476.565
2067 0 67.2286 14.0863 947 118.876 875.06 475.922
2068 0 67.2217 13.2249 889 124.214 874.582 473.591
2069 0 66.1743 12.4066 821 129.073 874.535 474.308
2070 0 69.2318 13.4187 929 126.872 874.632 471.382
2071 0 72.1629 13.1092 946 127.733 874.664 470.38
2072 0 73.1709 13.5983 995 127.795 873.723 470.798
2073 0 75.2212 12.7757 961 131.866 874.535 468.383
2074 0 77.301 12.613 975 133.359 874.336 467.552
2075 0 83.1862 13.8485 1152 128.551 873.882 463.244
2076 0 82.0807 12.0491 989 136.107 874.355 462.612
2077 0 86.1592 11.8618 1022 135.426 875.075 461.927
2078 0 89.1039 12.7604 1137 133.396 874.916 462.537
2079 0 92.1153 13.1574 1212 133.167 874.31 461.083
2080 0 96.1048 12.5904 1210 132.062 873.869 460.136
2081 1 47.069 10.7927 508 131.864 874.177 483.742
2082 0 50.0089 12.7977 640 129.072 873.948 482.359
2083 0 49.0861 12.1012 594 135.138 873.088 480.256
2084 0 54.1801 12.1631 659 122.754 875.102 478.231
2085 0 53.1579 12.0772 642 125.184 874.981 476.176
2086 0 56.1361 12.5231 703 123.43 875.521 475.764
2087 0 57.1434 13.1949 754 121.259 875.204 476.434
2088 0 58.1552 12.3635 719 124.49 875.413 474.485
2089 0 61.2391 12.6553 775 122.495 875.103 473.026
2090 0 62.1614 13.1593 818 121.743 875.44 473.8
2091 0 66.0868 13.9514 922 118.056 875.299 472.623
2092 0 67.0419 13.3499 895 120.95 875.058 471.596
2093 0 68.0737 12.0605 821 125.292 875.29 471.14
2094 0 70.1432 12.7311 893 123.928 875.451 469.354
2095 0 73.132 12.4569 911 124.822 875.284 469.505
2096 0 75.104 13.1551 988 124.408 875.72 467.454
2097 0 78.1515 13.8321 1081 122.499 875.616 466.692
2098 0 80.0878 13.71 1098 122.875 876.204 466.095
2099 0 81.1619 13.393 1087 124.534 875.847 464.484
2100 0 85.1171 12.4887 1063 129.736 876.267 464.246
2101 0 88.1705 13.6667 1205 126.004 875.353 461.326
2102 0 92.1857 14.601 1346 124.552 876.129 459.287
2103 0 92.2158 13.2407 1221 128.829 875.602 457.633
2104 0 97.2485 13.3678 1300 127.552 875.397 457.437
2105 1 49.1132 10.5471 518 128.174 875.718 481.95
2106 0 51.2165 12.6912 650 121.963 874.591 480.232
2107 0 52.1627 12.3843 646 122.895 874.605 482.636
2108 0 53.0663 13.0214 691 118.673 875.942 478.586
2109 0 57.1828 13.4131 767 116.902 875.05 477.755
2110 0 58.1348 12.8838 749 117.015 875.868 477.961
2111 0 60.0452 13.773 827 114.051 875.453 476.654
2112 0 63.1459 13.1442 830 115.183 875.835 475.258
2113 0 65.1578 14.3805 937 112.411 875.034 471.993
2114 0 67.2638 13.6923 921 113.786 875.028 471.97
2115 0 68.2538 11.9261 814 118.639 874.909 468.329
2116 0 71.1164 13.2881 945 114.563 875.642 470.424
2117 0 71.1118 13.0077 925 120.368 875.483 468.881
2118 0 75.2544 12.1986 918 120.05 875.339 466.896
2119 0 77.2943 13.5586 1048 116.866 875.919 467.121
2120 0 80.3602 12.8048 1029 118.801 875.154 463.704
2121 0 82.2722 12.8233 1055 119.367 874.643 461.1
2122 0 87.1924 13.3039 1160 116.165 874.311 459.981
2123 0 90.2475 12.4768 1126 117.345 874.906 459.647
2124 0 94.305 13.4033 1264 115.452 875.076 455.206
2125 0 95.1601 12.873 1225 117.23 875.446 454.589
2126 0 98.1767 12.5386 1231 117.463 875.375 453.437
2127 1 50.2071 12.6476 635 112.124 875.06 476.187
2128 0 52.1301 12.9292 674 112.567 874.556 473.439
2129 0 53.0686 12.2483 650 112.932 874.874 471.491
2130 0 56.117 11.9037 668 112.12 874.998 470.581
2131 0 57.0876 13.0852 747 113.442 874.936 468.933
2132 0 59.2263 12.3425 731 113.876 875.046 470.393
2133 0 61.1976 12.8436 786 112.754 874.894 471.91
2134 0 62.2293 12.2933 765 115.633 874.733 467.793
2135 0 66.2988 12.9112 856 114.14 874.783 468.268
2136 0 69.2308 14.7767 1023 110.86 874.928 467.393
2137 0 70.3708 13.4999 950 115.188 874.896 466.882
2138 0 72.1715 14.1607 1022 115.063 874.391 465.318
2139 0 77.3349 14.8057 1145 113.562 874.838 464.116
2140 0 80.2274 13.8606 1112 116.852 875.332 463.484
2141 0 83.2427 14.0793 1172 116.712 874.48 462.053
2142 0 85.3342 15.2459 1301 115.304 874.88 462.116
2143 0 88.3244 14.5373 1284 118.044 874.792 457.646
2144 0 92.1524 15.1597 1397 116.689 874.696 456.056
2145 0 97.1521 14.925 1450 115.812 874.786 455.192
2146 1 48.1269 13.88 668 118.984 874.972 477.973
2147 0 49.0215 13.4431 659 115.883 875.657 477.384
2148 0 51.0685 14.3337 732 114.791 874.485 475.076
2149 0 52.2491 13.4739 704 117.327 875.151 474.068
2150 0 54.1782 13.2895 720 116.754 875.006 472.593
2151 0 57.1283 13.8985 794 115.709 874.244 472.627
2152 0 59.0487 14.5134 857 115.793 874.62 470.526
2153 0 63.1099 14.4827 914 113.632 874.975 469.918
2154 0 65.4084 15.3039 1001 112.23 874.657 467.363
2155 0 65.2295 14.0427 916 116.769 875.111 467.778
2156 0 68.2705 13.549 925 118.697 874.252 467.07
2157 0 71.1456 14.1962 1010 117.733 874.988 464.673
2158 0 73.1125 14.1973 1038 118.451 874.574 463.329
2159 0 78.3263 15.2056 1191 115.427 874.782 462.037
2160 0 80.3454 14.8982 1197 115.777 875.398 462.627
2161 0 84.3752 15.1585 1279 115.148 875.799 460.668
2162 0 85.3653 14.6078 1247 119.372 875.746 458.412
2163 0 86.1243 13.6082 1172 123.494 874.831 458.855
2164 0 90.3659 14.6294 1322 120.821 874.57 457.618
2165 0 94.3051 14.9621 1411 119.707 874.588 455.174
2166 0 97.3298 15.0416 1464 121.207 873.843 453.339
2167 0 100.389 14.0853 1414 122.786 873.897 452.066
2168 1 51.3506 12.8139 658 127.198 874.482 475.564
2169 0 51.3237 12.6063 647 129.961 874.474 474.357
2170 0 55.3967 13.7012 759 126.58 873.846 473.49
2171 0 57.4888 14.5246 835 124.927 874.632 471.662
2172 0 60.3937 13.71 828 126.161 874.717 470.777
2173 0 62.4144 14.0032 874 126.049 875.178 469.745
2174 0 64.173 14.0246 900 125.683 874.862 469.192
2175 0 65.237 14.409 940 126.368 874.635 466.35
2176 0 70.134 14.9999 1052 123.962 874.312 465.804
2177 0 71.3608 13.8732 990 128.333 874.046 465.453
2178 0 75.5023 14.5956 1102 126.061 874.345 463.275
2179 0 77.1224 14.6002 1126 126.7 874.696 463.224
2180 0 80.2096 15.3099 1228 125.88 874.942 459.629
2181 0 82.2411 13.3753 1100 132.655 874.718 459.823
2182 0 84.2176 14.8069 1247 128.993 874.812 457.068
2183 0 86.226 13.1979 1138 133.409 875.133 457.75
2184 0 89.3187 13.2447 1183 133.461 875.031 456.52
2185 0 93.1775 13.7801 1284 131.701 874.625 455.04
2186 0 96.2054 12.2342 1177 135.661 875.091 453.225
2187 0 101.095 12.8494 1299 133.415 874.039 452.086
2188 1 52.0423 11.0487 575 137.245 875.297 473.346
2189 0 52.0574 11.0263 574 141.601 874.702 470.152
2190 0 56.0172 12.9246 724 132.844 874.108 472.649
2191 0 56.1251 13.7372 771 132.82 874.533 470.274
2192 0 59.0381 13.3473 788 133.647 874.382 470.082
2193 0 60.0597 12.9038 775 135.555 874.001 468.219
2194 0 62.2078 13.6639 850 134.075 874.148 467.589
2195 0 65.1125 14.5901 950 130.315 874.142 468.282
2196 0 68.0605 13.6496 929 133.707 874.628 466.343
2197 0 70.1174 14.1762 994 132.37 874.955 465.414
2198 0 74.0538 14.2869 1058 131.089 874.278 464.509
2199 0 75.0473 14.4575 1085 132.734 874.312 463.419
2200 0 77.1163 14.1734 1093 133.63 874.725 461.92
2201 0 81.1137 14.4982 1176 132.605 874.17 460.372
2202 0 84.0456 15.3131 1287 130.654 873.383 459.317
2203 0 87.0839 14.4573 1259 132.546 874.148 459.754
2204 0 87.1112 13.8099 1203 137.154 874.122 457.081
2205 0 91.1121 14.6852 1338 134.874 873.744 457.057
2206 0 95.1731 14.1952 1351 136.056 874.17 454.297
2207 0 97.1397 14.3608 1395 137.12 874.366 452.445
2208 0 102.146 15.6835 1602 133.25 873.841 449.473
2209 0 106.075 13.9618 1481 136.983 873.973 451.867
2210 0 108.187 13.9666 1511 138.823 874.274 448.948
2211 0 113.108 15.1007 1708 137.408 874.197 445.56
2212 0 119.139 15.0244 1790 136.572 874.894 443.64
2213 0 123.172 15.0034 1848 137.513 874.177 440.722
2214 0 126.176 15.3198 1933 138.607 874.071 435.754
2215 0 132.183 14.7901 1955 140.642 874.31 434.908
2216 0 136.168 14.3793 1958 142.597 873.722 432.648
2217 0 139.088 14.1708 1971 145.612 874.041 429.301
2218 0 146.246 14.6398 2141 143.568 873.789 427.054
2219 0 151.085 14.7401 2227 144.913 873.585 423.002
2220 0 156.137 14.7435 2302 147.212 873.593 416.762
2221 0 162.112 14.675 2379 148.439 874.818 412.935
2222 1 79.0335 10.7043 846 131.868 874.863 459.961
2223 0 82.0714 9.90601 813 132.059 874.64 462.042
2224 0 87.0922 10.9539 954 130.906 874.401 458.887
2225 0 86.1024 9.8139 845 141.22 874.55 456.03
2226 0 91.1764 10.529 960 138.982 874.679 456.779
2227 0 95.1064 9.89418 941 136.658 875.142 453.849
2228 0 99.1047 10.2922 1020 133.254 875.134 450.642
2229 0 102.055 9.61245 981 133.427 875.165 446.601
2230 0 104.131 9.67047 1007 134.667 874.606 445.016
2231 0 108.058 8.91191 963 135.142 874.87 444.431
2232 0 114.114 10.7349 1225 131.26 874.247 443.858
2233 0 117.123 8.97351 1051 136.785 874.615 438.414
2234 0 120.15 7.81523 939 137.558 874.423 440.531
2235 0 125.168 9.52324 1192 134.612 874.712 438.104
2236 0 128.291 9.41611 1208 137.865 874.696 431.243
2237 0 134.274 9.5774 1286 134.656 874.915 436.4
2238 0 140.243 9.22682 1294 138.749 874.495 428.68
2239 0 145.198 10.5855 1537 135.494 874.546 426.269
2240 0 150.298 10.0201 1506 138.896 874.182 421.476
2241 0 154.27 10.2742 1585 138.211 874.873 422.06
2242 0 160.232 9.87321 1582 140.553 874.42 416.597
2243 0 165.331 10.1977 1686 140.916 873.77 412.521
2244 0 167.368 9.84655 1648 143.891 874.045 404.106
2245 0 174.343 10.4679 1825 142.586 874.859 402.321
2246 0 181.425 10.7978 1959 140.668 874.672 404.382
2247 0 188.407 11.0187 2076 141.761 874.174 399.18
2248 0 195.31 9.89708 1933 143.201 873.716 400.259
2249 0 201.386 10.2837 2071 145.33 873.572 394.271
2250 0 208.285 10.2552 2136 142.461 873.816 395.369
2251 0 213.489 10.2301 2184 142.119 873.2 384.705
2252 0 222.302 10.2293 2274 140.674 873.421 385.724
2253 0 229.377 9.27296 2127 143.058 873.111 378.429
2254 1 50.0397 6.85456 343 114.257 874.207 475.117
2255 0 50.0203 4.89802 245 119.22 874.58 470.245
2256 0 55.0994 8.83856 487 108.359 875.632 471.875
2257 0 54.0354 6.81035 368 114.826 875.598 472.239
2258 0 55.1157 8.09206 446 112.962 874.157 477.583
2259 0 57.0969 6.00733 343 117.466 873.767 470.589
2260 0 60.1552 7.44741 448 113.592 873.696 472.812
2261 0 62.1473 9.17176 570 111.147 873.363 473.514
2262 0 67.1171 8.10524 544 110.989 873.007 470.579
2263 0 66.0459 7.32824 484 113.017 873.312 475.89
2264 0 67.2143 8.42082 566 113.246 872.972 475.221
2265 0 75.093 10.1874 765 111.225 872.948 473.192
2266 0 77.1309 10.2294 789 110.997 872.19 474.8
2267 0 80.0904 11.5994 929 113.826 871.751 472.853
2268 0 82.0695 10.9907 902 114.534 871.58 474.073
2269 0 85.132 11.0064 937 114.867 871.449 473.721
2270 0 87.1554 10.7624 938 116.062 871.036 470.464
2271 0 90.1042 11.1316 1003 115.406 871.204 471.136
2272 0 93.0905 11.7842 1097 113.924 870.418 470.112
2273 0 96.0887 12.6446 1215 112.4 870.298 468.251
2274 0 96.104 11.4876 1104 117.325 870.276 466.703
2275 0 102.102 12.2035 1246 114.965 869.853 463.291
2276 0 106.101 12.5352 1330 114.427 869.202 463.739
2277 0 106.112 10.9413 1161 119.16 869.021 459.87
2278 1 55.0957 8.94807 493 113.872 868.653 486.919
2279 0 59.1214 11.0112 651 110.379 869.369 485.734
2280 0 61.2273 10.8938 667 108.477 869.306 485.436
2281 0 62.1402 11.4419 711 103.823 868.804 484.561
2282 0 58.1702 9.16277 533 110.655 868.131 486.674
2283 0 62.2253 9.85129 613 108.266 868.297 485.993
2284 0 64.0758 10.472 671 107.975 867.855 485.222
2285 0 65.1462 10.3306 673 110.137 867.189 482.364
2286 0 68.0847 11.8529 807 108.033 867.312 479.984
2287 0 69.1071 10.1292 700 112.247 867.411 479.154
2288 0 70.2538 9.36604 658 111.536 867.4 481.912
2289 0 71.1338 9.33452 664 112.367 867.714 483.616
2290 0 74.2218 10.9671 814 109.837 867.393 481.706
2291 0 76.1877 11.4454 872 108.196 867.601 482.146
2292 0 85.4481 16.8406 1439 93.5969 867.536 476.905
2293 0 85.1746 14.6875 1251 99.9057 867.325 474.309
2294 0 88.0853 14.5427 1281 102.56 868.467 476.36
2295 0 87.1011 11.8942 1036 110.986 867.95 475.323
2296 0 89.1815 11.3476 1012 112.481 867.878 475.206
2297 0 93.188 13.2957 1239 108.103 868.165 474.162
2298 0 93.2188 12.1113 1129 112.072 868.345 469.628
2299 0 99.2477 12.2925 1220 111.225 868.284 468.64
2300 1 52.0818 10.6755 556 115.638 868.293 488.926
2301 0 56.1156 11.9218 669 112 867.342 489.501
2302 0 56.2064 12.5431 705 111.728 867.377 486.994
2303 0 59.0855 13.7259 811 108.768 866.772 487.762
2304 0 61.1615 13.4889 825 108.15 867.795 487.99
2305 0 61.251 13.0773 801 111.167 867.139 487.052
2306 0 63.1993 12.5318 792 112.561 867.828 487.775
2307 0 66.3496 13.0521 866 112.128 868.307 484.023
2308 0 67.333 12.1783 820 115.52 867.646 481.922
2309 0 69.354 12.3713 858 114.818 867.66 481.984
2310 0 71.3829 13.0143 929 112.682 867.497 482.117
2311 0 72.3269 14.0888 1019 111.164 868.209 478.359
2312 0 76.5028 14.9537 1144 108.005 868.218 477.705
2313 0 78.4268 14.8419 1164 109.221 867.608 478.454
2314 0 78.1734 12.7153 994 115.576 867.897 477.384
2315 0 82.3316 12.4618 1026 115.971 867.39 475.953
2316 0 84.1806 13.5661 1142 114.176 867.616 472.188
2317 0 87.1343 12.5668 1095 116.999 867.548 472.708
2318 1 46.0685 11.331 522 116.184 866.243 490.985
2319 0 47.0748 11.025 519 115.243 866.073 489.403
2320 0 50.2037 10.9554 550 112.322 868.282 485.127
2321 0 50.1559 11.0456 554 111.971 868.402 485.375
2322 0 53.2252 12.2498 652 116.701 867.822 490.983
2323 0 54.1871 12.3277 668 116.945 868.301 489.901
2324 0 55.162 11.9648 660 118.358 869.285 488.864
2325 0 57.1563 12.3871 708 117.999 868.558 487.064
2326 0 59.123 12.7023 751 117.056 868.751 486.698
2327 0 60.1986 12.5252 754 116.82 869.385 486.236
2328 0 62.1713 12.739 792 117.809 868.951 482.808
2329 0 63.134 12.8457 811 118.195 868.928 481.295
2330 0 65.1395 12.9261 842 117.304 868.544 482.538
2331 0 67.0947 12.4004 832 118.714 869.08 482.276
2332 0 69.1947 13.1224 908 117.153 869.297 480.773
2333 0 73.1557 12.2615 897 116.686 869.155 481.095
2334 0 72.1344 12.1717 878 119.856 868.581 476.329
2335 0 79.1184 13.9285 1102 113.94 869.027 476.326
2336 0 80.3003 13.3872 1075 116.422 868.426 472.961
2337 0 82.0967 12.6193 1036 118.825 869.126 471.665
2338 0 86.16 12.8482 1107 118.354 869.546 468.857
2339 0 88.2961 12.6393 1116 120.328 869.551 466.908
2340 1 48.1359 12.1739 586 117.616 869.055 488.212
2341 0 49.3083 10.4851 517 120.155 870.242 484.095
2342 0 50.1966 11.8932 597 114.643 869.449 486.831
2343 0 51.0188 11.5448 589 121.649 870.684 486.173
2344 0 52.0559 12.0447 627 121.721 870.86 485.802
2345 0 54.0748 12.2608 663 121.413 871.407 483.858
2346 0 56.0224 13.5839 761 118.79 871.527 481.226
2347 0 57.1166 12.5883 719 122.455 872.185 480.91
2348 0 60.0675 13.2684 797 120.471 871.537 480.368
2349 0 60.0678 13.002 781 123.156 871.654 478.158
2350 0 63.046 12.8319 809 123.041 871.649 478.434
2351 0 65.0569 13.4805 877 121.379 872.474 476.709
2352 0 68.1593 13.6592 931 120.351 872.119 475.78
2353 0 69.1352 13.9003 961 121.45 871.854 473.595
2354 0 72.095 13.8012 995 120.854 871.605 472.857
2355 0 72.1212 12.2156 881 126.699 871.999 470.291
2356 0 75.1276 12.8714 967 124.545 871.837 470.051
2357 0 78.1024 13.3159 1040 122.616 872.077 468.938
2358 0 81.097 13.7736 1117 121.257 872.185 466.925
2359 0 85.0508 13.4273 1142 122.001 872.587 463.848
2360 0 88.1098 13.835 1219 120.978 872.837 460.864
2361 0 89.1557 13.8746 1237 120.965 873.283 459.9
2362 0 92.0894 12.4987 1151 125.051 873.215 459.904
2363 1 49.0884 11.5302 566 124.076 873.663 478.647
2364 0 49.0325 11.2782 553 124.908 874.013 476.866
2365 0 52.0886 11.4036 594 118.273 874.141 473.99
2366 0 53.0582 10.5168 558 120.946 873.855 472.686
2367 0 54.0569 10.1745 550 120.358 873.54 474.442
2368 0 57.113 11.0308 630 118.335 873.556 472.194
2369 0 58.085 11.2938 656 117.32 873.346 471.041
2370 0 57.05 10.2542 585 118.896 873.935 471.574
2371 0 60.1354 9.34557 562 114.507 873.607 472.091
2372 0 63.1821 9.74959 616 112.948 872.938 471.492
2373 0 64.1308 9.94843 638 111.955 873.541 469.875
2374 0 67.1223 9.77321 656 112.36 873.03 468.325
2375 0 70.1147 11.1389 781 108.826 872.713 462.758
2376 0 73.1335 10.0364 734 110.376 873.005 461.029
2377 0 74.144 9.26575 687 111.771 872.341 460.678
2378 0 79.1274 9.31409 737 111.358 872.969 458.894
2379 0 83.1098 10.4561 869 107.265 873.438 461.06
2380 1 42.0244 10.8033 454 99.3568 873.227 477.731
2381 0 43.0266 10.9932 473 98.9598 872.717 479.188
2382 0 45.088 10.4684 472 100.305 873.57 479.517
2383 0 46.1779 10.0697 465 101.647 874.181 480.2
2384 0 47.1999 10.678 504 101.26 873.897 477.389
2385 0 49.1019 12.0566 592 98.7736 874.091 477.87
2386 0 48.0943 9.73089 468 120.12 873.833 475.378
2387 0 50.0403 10.8113 541 101.471 874.486 477.632
2388 0 54.0634 11.431 618 100.366 874.404 476.951
2389 0 55.0425 11.5729 637 100.683 874.259 473.557
2390 0 56.0661 12.2356 686 104.283 875.153 476.917
2391 0 57.0438 11.4649 654 106.208 875.361 476.466
2392 0 59.0506 12.4808 737 103.559 875.436 476.923
2393 0 61.0517 11.7769 719 105.94 875.096 475.271
2394 0 62.0987 11.5945 720 107.047 874.59 473.132
2395 0 66.0629 11.9129 787 105.349 874.994 473.828
2396 0 67.066 12.3162 826 106.084 874.619 471.472
2397 0 69.051 12.3387 852 106.989 874.518 470.448
2398 0 71.0357 11.9095 846 108.044 874.076 468.151
2399 0 75.1653 10.4437 785 108.325 874.009 466.071
2400 0 77.2367 11.6395 899 105.419 872.92 463.871
2401 1 38.1821 9.92612 379 105.905 874.277 482.826
2402 0 41.1717 11.1241 458 105.876 874.688 481.181
2403 0 41.0704 11.5168 473 106.937 874.638 483.924
2404 0 43.0805 10.8402 467 107.946 871.595 485.495
2405 0 44.0658 11.5736 510 108.737 872.28 483.971
2406 0 47.1444 11.1784 527 108.865 871.875 483.763
2407 0 47.2399 12.0449 569 107.462 872.587 481.888
2408 0 48.1212 12.0529 580 109.334 872.752 480.664
2409 0 50.0424 12.2496 613 109.68 872.134 481.504
2410 0 53.087 13.0917 695 106.619 872.498 481.391
2411 0 54.1552 12.852 696 108.872 873.241 478.432
2412 0 55.0977 10.6901 589 115.341 872.952 476.682
2413 0 56.1308 12.6668 711 110.833 872.542 477.309
2414 0 59.1818 12.7573 755 110.078 872.193 477.384
2415 0 59.1476 11.987 709 113.887 872.386 475.53
2416 0 63.073 12.4142 783 113.02 871.851 475.381
2417 0 64.0854 12.3741 793 113.217 872.516 473.372
2418 0 66.0814 13.0294 861 113.262 872.519 472.348
2419 0 67.1048 13.0691 877 113.295 872.316 471.16
2420 0 71.1233 13.4415 956 112.471 872.198 469.56
2421 0 73.1646 13.1894 965 112.875 872.503 469.259
2422 0 76.1378 13.5938 1035 112.284 872.875 468.121
2423 0 79.1056 12.3 973 115.329 872.917 465.379
2424 0 81.0988 13.0828 1061 113.932 872.936 463.518
2425 0 84.1102 13.4704 1133 113.846 873.001 460.052
2426 0 87.0983 13.0198 1134 115.09 872.554 460.398
2427 0 91.1633 13.1193 1196 114.532 872.625 458.709
2428 0 91.1715 12.482 1138 118.722 873.04 460.935
2429 0 96.1696 12.5507 1207 117.771 873.563 458.51
2430 1 49.0268 10.3617 508 119.236 871.833 480.516
2431 0 50.081 12.0405 603 116.99 871.77 480.131
2432 0 52.3016 11.969 626 121.256 872.925 478.003
2433 0 53.1609 12.3587 657 120.461 872.326 477.862
2434 0 54.1276 12.6553 685 121.552 872.436 476.699
2435 0 57.2149 13.1085 750 119.957 872.995 475.307
2436 0 57.3125 11.5682 663 123.977 872.719 475.3
2437 0 62.1902 14.0054 871 116.141 873.32 475.104
2438 0 63.2749 12.8961 816 120.401 873.297 472.022
2439 0 64.2104 12.6304 811 122.523 872.744 471.816
2440 0 66.2719 12.5694 833 123.031 872.951 472.72
2441 0 68.2181 13.5448 924 120.35 872.707 473.723
2442 0 72.1945 14.1147 1019 119.077 872.894 470.773
2443 0 72.2241 13.4166 969 121.635 872.706 472.549
2444 0 73.2104 12.9217 946 125.318 873.164 470.495
2445 0 77.3057 13.2849 1027 124.525 872.726 468.008
2446 0 80.2631 13.219 1061 124.181 873.367 467.185
2447 0 81.1836 12.3917 1006 128.29 873.428 464.398
2448 0 84.3852 12.917 1090 125.331 873.195 463.175
2449 0 87.4129 12.8471 1123 125.481 873.479 460.192
2450 1 44.3483 9.42538 418 128.512 873.414 478.507
2451 0 47.3436 10.8146 512 123.332 873.789 480.338
2452 0 50.3105 11.4092 574 121.627 873.186 479.915
2453 0 51.1249 11.9707 612 116.765 872.382 479.531
2454 0 52.0984 12.6875 661 115.596 872.519 477.849
2455 0 55.2457 12.5802 695 114.479 872.355 476.216
2456 0 55.0433 12.5537 691 116.022 873.245 476.658
2457 0 57.104 12.8713 735 114.162 872.411 475.906
2458 0 59.0486 12.1595 718 114.851 872.742 475.681
2459 0 60.0342 12.9759 779 113.054 872.035 474.241
2460 0 62.103 12.7691 793 114.062 872.38 472.77
2461 0 64.071 11.8931 762 115.455 872.932 471.887
2462 0 65.1427 11.375 741 116.536 872.151 469.177
2463 0 65.1131 11.7334 764 116.38 872.211 469.004
2464 0 71.0855 12.2388 870 112.886 872.814 468.295
2465 0 73.1064 12.5023 914 111.612 872.912 466.884
2466 0 73.043 12.0203 878 113.15 872.675 465.661
2467 0 78.0864 12.2941 960 111.307 872.966 463.739
2468 0 81.1282 12.5357 1017 110.272 872.935 461.306
2469 0 83.0924 12.8772 1070 109.341 872.386 459.118
2470 0 84.0994 11.3199 952 112.86 872.302 457.889
2471 1 43.0835 9.60924 414 113.097 872.121 477.498
2472 0 46.0745 10.7652 496 111.462 872.744 477.629
2473 0 50.0318 12.3322 617 106.966 871.904 477.767
2474 0 52.0166 11.2849 587 108.501 872.344 476.973
2475 0 54.0266 12.79 691 106.013 872.314 476.725
2476 0 54.0248 11.2541 608 108.91 872.163 476.025
2477 0 56.0879 12.0703 677 108.177 872.931 474.074
2478 0 58.0152 12.4795 724 107.305 872.572 473.174
2479 0 58.0617 12.125 704 107.803 873.197 473.456
2480 0 61.072 11.7075 715 108.117 872.436 471.891
2481 0 63.0258 11.773 742 108.012 873.073 471.317
2482 0 63.0991 10.9827 693 109.108 872.62 469.662
2483 0 67.0158 11.7883 790 107.38 872.566 467.803
2484 0 70.0595 10.277 720 110.092 872.569 469.086
2485 0 74.0596 13.5702 1005 101.739 872.879 467.65
2486 0 75.0541 12.3511 927 105.014 873.056 465.571
2487 0 78.1602 12.2057 954 106.245 873.037 463.482
2488 0 81.1674 13.4414 1091 104.175 872.737 461.011
2489 0 85.2568 11.6706 995 107.964 872.887 458.535
2490 0 87.217 12.681 1106 105.739 872.65 457.929
2491 1 46.1251 10.7967 498 104.932 872.042 476.675
2492 0 47.094 11.2116 528 103.697 871.831 477.994
2493 0 47.1181 11.2059 528 105.085 871.758 474.307
2494 0 50.0611 13.064 654 100.714 872.122 477.991
2495 0 51.0207 11.5443 589 105.469 871.082 475.34
2496 0 53.0469 11.7443 623 104.262 872.523 474.814
2497 0 56.0291 12.44 697 102.845 872.278 474.562
2498 0 56.0598 12.0764 677 102.908 872.324 472.415
2499 0 56.0341 10.797 605 106.592 872.565 472.289
2500 0 61.0831 12.3438 754 102.271 872.809 469.462
2501 0 61.0334 11.207 684 105.566 873.045 469.127
2502 0 62.0533 12.3281 765 103.354 872.864 471.32
2503 0 64.0992 10.8426 695 103.494 873.485 471.914
2504 0 66.1714 10.639 704 104.165 872.857 470.162
2505 0 67.1048 10.6699 716 106.229 872.883 467.254
2506 0 70.1268 10.6806 749 105.021 873.457 469.685
2507 0 74.1126 12.427 921 101.244 873.983 466.324
2508 0 75.1235 10.4894 788 105.211 873.932 466.539
2509 1 38.0039 9.92003 377 102.939 872.851 484.355
2510 0 39.1059 11.5328 451 101.381 873.49 483.191
2511 0 39.0226 10.6349 415 103.012 872.93 483.434
2512 0 42.0386 12.0603 507 99.5937 872.919 481.475
2513 0 44.0966 11.8603 523 98.9273 873.411 482.572
2514 0 44.0864 12.2487 540 99.9463 873.6 481.348
2515 0 46.0581 11.2901 520 102.746 873.631 480.6
2516 0 46.0834 11.6962 539 102.33 873.699 480.13
2517 0 47.0749 11.4074 537 103.298 873.344 480.495
2518 0 48.0646 11.7342 564 103.599 873.587 478.018
2519 0 52.0908 12.4014 646 101.687 874.401 478.859
2520 0 51.1468 12.0633 617 104.575 874.504 478.081
2521 0 53.1218 11.4642 609 105.263 874.59 476.619
2522 0 53.1102 12.1446 645 105.392 874.439 476.856
2523 0 55.0836 12.6898 699 104.565 874.65 476.705
2524 0 57.1013 12.8719 735 104.774 874.963 473.748
2525 0 58.0729 12.381 719 106.424 874.374 472.576
2526 0 61.0762 13.3604 816 103.489 874.352 473.069
2527 0 63.0585 12.8611 811 105.088 875.099 472.322
2528 0 64.0569 12.0049 769 107.637 874.583 471.562
2529 0 68.0918 12.3216 839 106.391 874.516 470.073
2530 0 71.0476 12.7802 908 104.703 874.514 469.568
2531 0 73.0865 13.1214 959 104.553 874.49 467.592
2532 0 75.1798 13.2083 993 105.894 873.212 464.627
2533 0 78.1684 13.0488 1020 105.888 874.571 463.957
2534 1 41.0491 13.1062 538 106.63 874.849 483.296
2535 0 41.0154 11.581 475 111.789 874.021 481.284
2536 0 44.0367 11.6721 514 103.093 874.663 478.257
2537 0 46.0293 13.1655 606 99.401 875.516 477.148
2538 0 46.0909 11.7594 542 103.983 875.461 475.422
2539 0 48.1129 12.4499 599 103.24 874.31 474.735
2540 0 48.0911 12.4555 599 117.294 873.284 474.79
2541 0 50.075 11.5028 576 108.155 874.708 473.017
2542 0 53.0282 12.1256 643 105.905 874.793 473.832
2543 0 55.1056 13.0114 717 104.134 875.093 471.711
2544 0 54.0891 11.7584 636 108.932 875.959 470.67
2545 0 56.1001 12.4955 701 107.82 875.866 471.265
2546 0 58.0455 10.9914 638 111.545 875.63 469.563
2547 0 63.0441 12.8957 813 106.141 875.936 467.557
2548 0 62.0842 11.9354 741 109.489 876.313 466.441
2549 0 67.0925 11.7152 786 109.144 876.238 466.09
2550 0 68.0826 11.7945 803 109.245 875.656 462.397
2551 0 69.0531 11.0205 761 111.65 876.326 464.254
2552 0 73.0718 12.5219 915 109.322 874.891 461.165
2553 0 75.1117 12.3017 924 108.933 875.163 460.9
2554 1 40.0431 10.0142 401 108.81 874.948 480.17
2555 0 41.0613 10.9105 448 108.696 876.699 477.326
2556 0 41.0754 10.5416 433 110.587 876.358 475.54
2557 0 43.0329 10.8289 466 109.024 876.159 476.603
2558 0 45.063 11.029 497 108.803 875.674 474.437
2559 0 47.093 10.9358 515 109.647 874.953 474.516
2560 0 48.1066 11.6616 561 107.968 875.943 474.87
2561 0 49.0932 11.1624 548 110.447 875.849 472.932
2562 0 48.0443 11.1356 535 111.559 876 470.905
2563 0 53.0387 12.1232 643 108.179 875.557 471.768
2564 0 55.0353 10.7204 590 112.025 876.144 471.042
2565 0 57.1105 12.397 708 108.778 876.453 470.662
2566 0 58.0783 12.0527 700 109.34 875.584 470.184
2567 0 59.0871 11.1192 657 113.091 874.959 468.887
2568 0 62.048 12.3292 765 110.013 875.197 467.702
2569 0 65.0461 12.422 808 110.021 875.504 465.519
2570 0 67.2066 11.6953 786 111.529 875.181 463.398
2571 0 71.2216 12.4962 890 108.885 875.349 464.091
2572 0 71.0672 11.3977 810 112.885 875.426 462.13
2573 0 74.0771 12.5005 926 111.073 875.392 458.955
2574 0 77.0914 11.1686 861 113.774 875.486 458.62
2575 0 79.2477 10.953 868 115.733 875.864 456.036
2576 0 82.2091 10.3152 848 113.438 875.86 455.496
2577 0 88.3698 11.1011 981 109.508 875.004 456.087
2578 1 44.0585 9.78244 431 107.065 875.135 474.759
2579 0 43.0123 10.4389 449 109.056 873.245 472.88
2580 0 47.0588 10.4975 494 103.296 874.17 472.692
2581 0 49.0476 10.9893 539 102.61 873.918 472.017
2582 0 48.053 10.9046 524 104.998 873.601 469.792
2583 0 53.0168 12.298 652 99.8313 873.643 467.663
2584 0 54.0438 12.6934 686 98.895 874.207 469.564
2585 0 55.1151 10.8319 597 102.566 873.863 468.291
2586 0 57.0764 10.9678 626 102.736 874.728 471.345
2587 0 57.0626 10.7251 612 111.258 873.587 470.203
2588 0 61.1373 10.5991 648 109.668 874.835 462.083
2589 0 61.045 11.8437 723 105.743 874.924 467.4
2590 0 64.1103 12.6813 813 115.649 874.027 468.689
2591 0 66.0911 12.165 804 117.214 874.101 468.67
2592 0 69.0532 13.0914 904 114.906 874.534 466.653
2593 0 70.0384 12.6645 887 117.379 873.555 467.399
2594 0 72.0929 11.1523 804 120.832 873.683 468.317
2595 0 75.0631 12.8425 964 118.36 874.012 465.007
2596 0 79.083 12.9864 1027 118.715 874.216 462.887
2597 0 80.073 13.3253 1067 118.127 874.585 464.396
2598 0 81.1547 11.4842 932 123.012 874.232 464.215
2599 0 84.1422 12.2531 1031 122.703 874.975 460.949
2600 0 88.1035 13.5295 1192 119.787 875.101 458.213
2601 0 89.144 12.0479 1074 125.406 875.045 457.697
2602 0 91.1813 12.6013 1149 123.926 874.908 456.083
2603 0 97.1778 12.7292 1237 123.198 875.508 454.787
2604 1 51.2562 11.4718 588 121.257 875.342 476.636
2605 0 51.1958 12.0908 619 119.926 875.322 476.643
2606 0 53.0595 11.9677 635 119.142 874.329 476.417
2607 0 54.0858 13.0903 708 117.48 874.455 475.243
2608 0 56.0283 11.6548 653 122.086 874.66 473.115
2609 0 58.0253 12.3222 715 120.534 873.975 473.596
2610 0 60.0665 13.5849 816 118.054 873.827 471.581
2611 0 62.0518 13.7949 856 117.293 874.31 471.361
2612 0 64.0788 12.5315 803 120.755 873.757 470.579
2613 0 66.113 12.4181 821 121.185 874.448 468.169
2614 0 70.0399 13.6065 953 117.58 874.57 468.446
2615 0 72.1798 13.7019 989 118.284 875.2 467.451
2616 0 76.0999 13.6531 1039 118.684 875.248 466.817
2617 0 78.2108 14.0262 1097 117.801 874.439 465.868
2618 0 79.2552 13.9549 1106 119.408 874.285 463.24
2619 0 82.2444 14.5663 1198 118.265 874.628 462.858
2620 0 82.1886 14.053 1155 121.361 874.438 461.117
2621 1 44.229 12.4353 550 121.295 874.233 482.596
2622 0 45.0969 12.2847 554 122.733 874.023 483.173
2623 0 47.0776 12.5325 590 121.642 873.959 481.915
2624 0 48.1997 12.4897 602 123.814 874.806 477.744
2625 0 49.2063 12.3561 608 123.283 874.104 478.796
2626 0 50.2856 12.1108 609 123.381 874.302 478.476
2627 0 53.1892 13.1042 697 121.637 874.099 478.458
2628 0 53.1354 12.9104 686 124.125 874.082 478.926
2629 0 56.2241 13.215 743 122.121 874.456 478.668
2630 0 59.1681 12.98 768 122.009 874.171 477.768
2631 0 58.1755 13.1155 763 123.422 874.914 478.092
2632 0 61.1922 12.665 775 124.258 874.228 476.684
2633 0 63.174 14.0248 886 120.814 873.861 475.504
2634 0 65.127 13.9881 911 119.993 873.737 474.74
2635 0 65.2024 12.0854 788 126.119 873.258 475.192
2636 0 67.1393 12.9284 868 125.025 874.069 473.167
2637 0 72.1134 12.9796 936 123.726 874.418 472.238
2638 0 73.1438 12.0311 880 127.285 873.882 469.641
2639 0 76.2022 12.5456 956 124.985 873.406 469.723
2640 0 81.2485 13.0587 1061 122.591 873.52 467.084
2641 0 82.1705 13.4598 1106 120.729 873.754 466.17
2642 0 85.1205 12.171 1036 124.307 872.896 464.116
2643 0 88.1997 13.7075 1209 120.06 873.338 463.165
2644 1 44.0868 11.7042 516 120.624 874.516 485.068
2645 0 46.0443 12.4445 573 118.682 874.609 483.23
2646 0 44.0952 10.4547 461 112.456 872.547 482.364
2647 0 47.1132 11.8438 558 109.047 872.629 481.358
2648 0 47.1096 11.8023 556 119.038 873.606 481.369
2649 0 50.0752 11.1832 560 109.639 872.695 479.312
2650 0 53.1525 10.8556 577 108.795 872.74 478.35
2651 0 55.0737 10.5858 583 110.268 873.161 475.851
2652 0 57.0599 11.2513 642 108.512 873.319 476.687
2653 0 60.1183 11.3942 685 108.298 873.231 474.079
2654 0 61.139 10.8932 666 109.983 873.794 472.923
2655 0 63.0993 11.363 717 109.947 873.516 472.826
2656 0 67.0487 12.4089 832 107.445 873.06 472.258
2657 0 68.1898 10.9987 750 111.199 873.447 470.568
2658 0 70.1278 10.8231 759 113.831 873.444 469.401
2659 0 73.1326 10.8843 796 113.417 873.737 466.952
2660 0 77.295 11.0486 854 112.303 873.683 464.717
2661 0 80.2097 11.2455 902 112.176 872.707 463.763
2662 0 84.1635 10.4558 880 114.17 872.761 461.222
2663 1 44.151 11.3474 501 104.461 873.244 483.2
2664 0 46.0727 10.9392 504 106.46 873.361 483.198
2665 0 45.0575 10.9638 494 106.802 873.059 483.057
2666 0 46.1021 11.7348 541 108.098 872.322 482.268
2667 0 50.0858 12.9777 650 103.977 872.134 483.018
2668 0 52.0682 12.8869 671 104.575 872.534 481.575
2669 0 54.0912 12.294 665 105.808 872.914 480.89
2670 0 54.0917 11.8133 639 108.93 872.556 477.457
2671 0 57.0702 12.6861 724 106.454 872.628 477.369
2672 0 58.0989 11.8935 691 108.381 873.208 475.836
2673 0 60.0755 13.25 796 105.276 873.072 477.176
2674 0 62.1683 12.2731 763 107.115 873.844 475.262
2675 0 63.0759 12.1283 765 108.524 873.769 472.782
2676 0 66.1138 11.5558 764 109.774 873.338 473.268
2677 0 67.1503 12.4497 836 109.199 873.706 469.67
2678 0 69.2395 12.5795 871 108.46 873.372 470.472
2679 0 73.2444 13.0658 957 107.519 873.697 469.143
2680 0 76.2652 13.2039 1007 107.687 873.992 466.879
2681 0 78.2309 12.5526 982 109.393 873.674 467.355
2682 0 81.1859 12.7855 1038 110.985 874.002 462.857
2683 0 85.3028 12.3091 1050 114.25 873.915 461.73
2684 0 87.3109 13.4118 1171 112.389 873.71 458.686
2685 0 91.4509 12.7063 1162 114.375 874.102 460.923
2686 1 45.2135 10.3951 470 112.843 873.53 481.619
2687 0 48.2764 11.1649 539 110.607 873.675 480.106
2688 0 49.1771 11.6111 571 110.511 874.387 479.664
2689 0 51.1098 11.6807 597 109.583 874.335 478.444
2690 0 54.0588 11.1545 603 109.308 874.337 479.239
2691 0 51.0594 12.3777 632 132.457 874.201 477.975
2692 0 55.1575 12.7091 701 109.288 874.241 478.106
2693 0 56.1921 11.3005 635 114.11 874.049 476.2
2694 0 60.296 11.9411 720 111.919 873.949 475.224
2695 0 60.2074 12.6729 763 111.315 874.333 474.135
2696 0 65.1744 12.6123 822 109.905 874.228 474.672
2697 0 64.26 12.5117 804 113.558 873.874 470.531
2698 0 68.1237 12.859 876 112.443 873.557 471.099
2699 0 71.1277 12.0206 855 115.029 873.671 470.937
2700 0 74.2096 13.2597 984 114.353 874.083 468.084
2701 0 76.1971 11.8377 902 118.212 874.065 467.182
2702 0 77.3289 11.5481 893 120.979 872.886 463.373
2703 0 82.1538 13.1826 1083 115.672 874.173 464.865
2704 0 86.3344 12.9033 1114 116.653 874.249 461.904
2705 1 43.0618 10.1947 439 116.547 874.424 482.41
2706 0 45.1976 11.682 528 113.434 874.083 481.39
2707 0 46.0342 11.9911 552 112.601 874.658 480.853
2708 0 48.0254 11.0983 533 111.726 874.178 479.068
2709 0 50.1662 11.3822 571 114.061 872.965 477.163
2710 0 50.3228 12.6185 635 112.433 873.046 474.272
2711 0 54.31 11.9683 650 113.134 872.885 474.209
2712 0 56.3008 12.4154 699 112.054 873.052 475.611
2713 0 57.2099 12.8649 736 112.542 873.175 473.632
2714 0 58.1336 11.9036 692 116.184 873.091 473.266
2715 0 57.2314 11.1827 640 119.794 873.584 473.278
2716 0 61.1691 12.6535 774 116.762 873.18 471.138
2717 0 62.1747 12.304 765 117.528 873.422 472.107
2718 0 65.1733 11.6919 762 121.89 872.85 470.161
2719 0 66.2364 12.6667 839 120.801 873.644 468.181
2720 0 70.0695 12.088 847 120.253 874.034 471.139
2721 0 71.1592 11.7343 835 123.625 874.995 468.222
2722 0 73.1529 13.3146 974 120.405 874.609 465.97
2723 0 76.2961 12.3991 946 122.309 874.649 465.077
2724 0 79.1755 12.6554 1002 121.841 874.746 463.864
2725 0 81.1873 12.6005 1023 122.005 874.77 465.312
2726 0 84.1469 13.2031 1111 120.905 875.645 459.062
2727 0 85.1387 11.8747 1011 124.688 874.884 459.775
2728 0 90.0825 12.9881 1170 121.883 874.911 458.143
2729 0 93.1629 12.0756 1125 125.136 874.509 455.536
2730 1 47.0443 10.3307 486 122.282 875.685 479.519
2731 0 48.1802 10.9381 527 123.691 876.064 476.452
2732 0 50.0808 11.6612 584 122.139 876.3 475.08
2733 0 55.0738 12.4923 688 118.257 875.701 475.078
2734 0 54.166 11.834 641 121.499 876.09 472.894
2735 0 54.1254 11.5657 626 123.267 876.308 472.57
2736 0 57.0692 12.3359 704 121.555 875.977 472.031
2737 0 58.168 11.2605 655 125.078 875.292 469.716
2738 0 61.1607 13.2602 811 119.265 875 469.256
2739 0 61.1975 12.5005 765 122.073 874.569 470.494
2740 0 66.0707 12.305 813 121.561 875.424 469.551
2741 0 69.1831 14.1364 978 116.072 874.98 469.428
2742 0 70.0905 13.24 928 119.484 875.417 467.852
2743 0 73.0785 13.985 1022 117.253 875.245 466.79
2744 0 75.209 12.6049 948 121.778 875.438 467.178
2745 0 79.1978 13.6746 1083 119.433 875.107 463.926
2746 0 80.1313 13.5902 1089 120.428 875.229 462.29
2747 0 84.1311 13.6454 1148 119.601 874.458 462.151
2748 0 85.0926 12.5628 1069 122.911 875.121 460.437
2749 0 90.1614 13.0322 1175 120.778 875.415 460.029
2750 1 48.0261 11.2022 538 122.47 876.258 479.442
2751 0 50.1748 11.6792 586 121.14 875.838 474.464
2752 0 52.1451 13.0022 678 117.454 876.088 474.922
2753 0 54.0859 12.4801 675 120.465 876.397 476.932
2754 0 53.036 12.4444 660 122.205 876.814 475.935
2755 0 56.0414 12.3123 690 120.932 876.838 476.836
2756 0 58.0695 13.105 761 119.986 876.363 474.992
2757 0 60.0671 13.3517 802 119.254 876.586 474.865
2758 0 60.0642 11.7874 708 124.205 875.99 472.832
2759 0 62.086 12.2733 762 121.912 876.11 473.44
2760 0 66.0213 12.9958 858 120.015 876.249 474.164
2761 0 66.1355 12.8826 852 121.877 876.831 471.498
2762 0 70.0683 13.5439 949 118.745 876.504 471.476
2763 0 71.0739 12.2971 874 123.213 876.451 470.03
2764 0 73.1061 13.0085 951 121.748 875.756 468.306
2765 0 76.1138 13.3222 1014 120.383 875.516 468.46
2766 0 78.0794 14.7286 1150 117.603 875.635 466.703
2767 0 79.0826 14.4406 1142 120.335 875.739 464.505
2768 0 82.0978 12.5217 1028 125.232 875.723 464.219
2769 0 83.0813 13.4447 1117 123.932 876.183 462.725
2770 0 86.1619 14.3219 1234 120.459 876.497 464.734
2771 0 89.0438 14.0717 1253 122.86 875.789 458.734
2772 0 92.059 12.8505 1183 125.388 875.227 458.441
2773 0 95.1465 13.558 1290 124.06 874.869 458.436
2774 0 100.066 13.2512 1326 124.259 875.36 456.233
2775 1 52.0461 10.3562 539 124.681 875.924 479.327
2776 0 54.0331 11.1043 600 122.94 875.282 477.597
2777 0 55.1273 11.8997 656 120.671 875.511 476.931
2778 0 56.0445 11.4016 639 116.351 875.836 476.577
2779 0 58.0529 12.4369 722 112.607 875.602 476.802
2780 0 60.0938 12.0312 723 113.321 875.272 474.185
2781 0 62.0865 12.096 751 112.184 875.341 472.505
2782 0 66.126 11.841 783 111.037 875.134 470.914
2783 0 67.0854 11.5972 778 110.793 875.482 469.26
2784 0 69.1274 11.3558 785 110.33 875.715 470.116
2785 0 73.1455 12.0171 879 108.901 874.597 464.309
2786 0 76.2068 12.1905 929 107.576 875.266 465.941
2787 0 78.1563 12.7949 1000 105.616 874.033 463.603
2788 0 81.1211 12.6601 1027 105.533 874.609 462.766
2789 0 83.1157 11.3817 946 107.837 874.233 461.55
2790 0 87.13 13.302 1159 103.938 874.333 457.993
2791 0 91.2048 11.1836 1020 108.231 874.384 457.392
2792 0 91.0744 10.442 951 110.686 873.522 460.802
2793 1 46.07 10.4623 482 109.075 873.081 481.533
2794 0 50.2909 11.4136 574 104.627 874.92 479.542
2795 0 51.0633 11.2801 576 103.387 875.241 481.443
2796 0 53.0857 12.3951 658 102.339 875.719 479.401
2797 0 55.0573 12.4234 684 102.868 875.123 478.012
2798 0 55.0903 11.944 658 104.26 875.123 477.968
2799 0 56.0418 13.0974 734 102.206 875.176 476.981
2800 0 58.0522 12.7816 742 103.675 874.903 476.164
2801 0 58.1219 11.6651 678 105.774 875.422 477.851
2802 0 62.0942 12.4488 773 104.091 874.431 474.154
2803 0 64.066 12.7369 816 103.04 875.476 473.599
2804 0 67.073 13.4779 904 101.074 875.731 472.259
2805 0 68.1152 12.4348 847 103.998 875.183 471.948
2806 0 69.0397 12.6739 875 105.021 875.027 470.931
2807 0 73.0681 12.0299 879 105.755 874.809 467.615
2808 0 74.1498 12.9063 957 103.728 874.568 468.341
2809 0 77.2057 11.4499 884 107.077 874.876 465.198
2810 0 80.1116 11.6088 930 106.682 874.789 465.558
2811 0 83.153 12.928 1075 104.163 874.937 462.856
2812 1 39.0661 10.0855 394 110.188 875.287 483.673
2813 0 41.0892 12.2417 503 104.97 875.264 484.414
2814 0 42.0632 11.9106 501 107.75 874.82 482.11
2815 0 42.0499 11.5101 484 109.298 874.979 482.165
2816 0 47.1467 12.5778 593 104.484 874.186 481.091
2817 0 45.0251 11.0827 499 109.411 874.798 481.812
2818 0 49.1083 12.6251 620 105.723 874.758 480.665
2819 0 48.1273 11.3657 547 110.218 874.616 480.007
2820 0 48.0899 11.2082 539 110.193 873.837 480.514
2821 0 51.1837 13.0706 669 106.91 874.257 478.958
2822 0 52.0347 11.9728 623 109.748 872.971 477.992
2823 0 53.145 12.814 681 109.05 873.931 477.818
2824 0 56.2077 12.6851 713 109.346 874.084 476.222
2825 0 58.159 12.7581 742 108.395 873.73 476.465
2826 0 59.1344 12.3109 728 110.457 873.65 474.552
2827 0 60.2051 12.1917 734 110.526 874.43 475.61
2828 0 64.1819 13.1813 846 109.7 873.176 471.573
2829 0 65.1942 13.8816 905 109.167 873.758 473.009
2830 0 68.1791 12.4818 851 111.076 873.255 472.532
2831 0 70.1697 12.5125 878 112.089 873.252 471.19
2832 0 74.1376 13.1512 975 110.766 872.74 469.536
2833 0 77.335 13.5514 1048 109.923 871.75 468.448
2834 1 42.0631 11.9344 502 106.998 872.016 486.058
2835 0 43.1343 12.2408 528 103.506 872.869 486.657
2836 0 44.1107 12.514 552 107.442 872.355 484.114
2837 0 46.184 13.3596 617 97.47 873.543 481.17
2838 0 47.2216 12.5366 592 100.662 873.525 479.814
2839 0 49.1522 11.9221 586 101.935 873.352 479.71
2840 0 51.1956 12.4816 639 100.687 873.382 479.019
2841 0 50.072 12.2823 615 107.873 873.514 480.969
2842 0 55.0802 12.509 689 106.303 873.832 481.705
2843 0 54.0316 12.6222 682 106.881 873.456 480.787
2844 0 57.1084 13.6232 778 103.356 873.311 480.356
2845 0 59.222 13.289 787 103.388 873.821 479.972
2846 0 60.0809 12.6829 762 105.437 873.915 475.437
2847 0 62.0382 13.8947 862 102.27 873.437 475.311
2848 0 66.122 15.3504 1015 98.1419 873.082 474.587
2849 0 67.0996 13.5172 907 102.235 872.878 474.383
2850 0 70.0698 12.145 851 102.154 872.56 470.792
2851 0 74.1342 14.1635 1050 97.88 872.538 465.399
2852 0 75.1616 12.1339 912 101.95 872.832 461.939
2853 0 78.1295 11.9289 932 101.988 872.26 464.062
2854 0 81.1375 12.4727 1012 102.018 872.651 463.179
2855 1 42.0851 11.3104 476 101.771 872.326 486.424
2856 0 46.0227 11.7551 541 101.331 872.386 484.604
2857 0 46.0535 11.8775 547 101.285 872.428 483.665
2858 0 47.0661 9.81597 462 104.543 872.312 481.491
2859 0 49.0676 11.2906 554 102.489 872.886 480.404
2860 0 50.0919 10.7403 538 103.255 872.214 479.03
2861 0 51.1327 10.7563 550 105.431 872.024 478.02
2862 0 53.0666 10.5339 559 105.204 871.882 478.671
2863 0 58.2251 12.2628 714 101.008 871.766 476.353
2864 0 57.1137 11.8185 675 103.016 871.838 476.046
2865 0 59.0454 11.2964 667 104.186 871.456 476.127
2866 0 63.0596 12.5437 791 101.206 872.067 473.547
2867 0 62.2241 13.2425 824 100.393 872.464 474.197
2868 0 66.2611 11.7565 779 103.765 872.028 471.407
2869 0 68.116 11.8621 808 103.96 872.452 471.135
2870 0 69.1245 11.5588 799 105.044 872.053 471.204
2871 0 74.2735 12.077 897 103.505 872.018 468.273
2872 0 77.2207 12.3931 957 103.912 871.379 465.56
2873 0 78.1565 11.8096 923 105.659 871.454 464.991
2874 0 80.1528 10.7046 858 107.038 871.893 465.209
2875 0 82.2191 10.5085 864 107.376 871.942 462.397
2876 0 87.3114 12.1175 1058 105.249 871.96 458.64
2877 0 89.1125 10.6495 949 108.193 872.209 456.781
2878 0 94.0839 11.5216 1084 107.256 872.268 458.163
2879 1 47.025 10.2286 481 108.497 871.802 481.603
2880 0 51.0426 12.3035 628 107.274 871.801 479.71
2881 0 53.0589 12.3825 657 108.75 871.537 479.446
2882 0 54.0724 11.688 632 110.563 871.119 478.4
2883 0 56.0799 12.4465 698 109.375 871.499 476.821
2884 0 58.0814 12.2759 713 109.965 871.76 474.763
2885 0 60.1172 10.9287 657 111.801 872.163 475.479
2886 0 61.189 10.6882 654 113.183 872.024 474.355
2887 0 63.1717 12.1257 766 110.843 872.586 473.029
2888 0 65.1246 12.0538 785 109.349 873.033 474.287
2889 0 68.2163 11.8007 805 110.455 872.624 470.848
2890 0 70.133 12.3052 863 109.888 873.044 469.7
2891 0 73.1268 12.239 895 109.894 872.516 467.636
2892 0 77.1593 12.9472 999 106.833 871.868 466.871
2893 0 76.197 11.1422 849 111.145 872.529 464.257
2894 0 80.0947 11.2741 903 109.883 872.268 463.905
2895 0 84.1951 11.3189 953 108.236 872.228 464.997
2896 0 87.1036 13.1453 1145 104.155 872.819 462.785
2897 0 89.1058 10.8747 969 110.286 872.203 460.298
2898 0 92.0731 11.7298 1080 109.595 872.113 457.568
2899 1 46.1157 11.3627 524 105.594 873.254 480.273
2900 0 46.072 9.74561 449 109.165 872.385 478.388
2901 0 51.1407 11.3021 578 104.016 872.355 477.687
2902 0 52.1171 11.5509 602 102.03 872.736 480.203
2903 0 53.0321 12.087 641 102.85 871.173 478.487
2904 0 55.0432 11.8634 653 103.824 871.426 476.807
2905 0 54.026 12.2534 662 103.609 871.65 477.163
2906 0 56.0234 11.1382 624 106.462 871.763 476.569
2907 0 60.0955 12.1806 732 102.884 872.306 474.773
2908 0 62.0832 12.8376 797 105.043 874.079 475.094
2909 0 63.1345 11.5468 729 107.34 874.204 474.273
2910 0 65.0578 11.6973 761 107.735 874.221 470.869
2911 0 67.0805 13.3422 895 104.769 873.924 471.067
2912 0 70.0688 12.9444 907 105.201 873.927 469.632
2913 0 72.0624 12.7806 921 106.039 874.013 468.77
2914 0 73.1067 13.6376 997 104.777 873.817 468.33
2915 0 76.0348 11.9419 908 107.782 874 466.692
2916 0 79.112 15.2316 1205 101.382 873.773 465.63
2917 0 81.0956 13.3299 1081 105.671 874.388 463.271
2918 0 84.2328 14.9704 1261 102.523 873.962 462.923
2919 0 86.0535 13.8054 1188 105.923 874.594 462.731
2920 0 88.0879 13.3276 1174 108.251 873.967 460.679
2921 0 89.036 12.7813 1138 109.684 874.257 461.501
2922 0 94.1355 13.778 1297 107.937 873.96 455.604
2923 0 96.1322 15.0002 1442 105.623 873.874 457.125
2924 0 99.2548 14.6189 1451 106.643 873.268 455.406
2925 1 55.0893 11.7627 648 107.082 873.154 478.994
2926 0 53.0971 11.5826 615 106.065 873.298 475.343
2927 0 55.1303 13.1507 725 104.709 873.164 473.806
2928 0 57.0746 14.227 812 98.468 873.464 474.207
2929 0 59.1309 12.8867 762 101.471 873.034 471.724
2930 0 60.206 12.6233 760 101.721 872.676 473.183
2931 0 63.2526 13.3275 843 99.7533 872.404 471.866
2932 0 64.1578 13.2018 847 100.58 872.396 471.929
2933 0 66.1728 13.8123 914 99.8435 872.662 470.834
2934 0 68.1324 13.8407 943 100.365 872.344 470.671
2935 0 70.1142 13.1785 924 103.226 872.811 468.273
2936 0 71.0999 13.1224 933 103.951 872.971 467.456
2937 0 74.0697 13.7033 1015 102.658 872.302 467.57
2938 0 76.0717 13.3821 1018 103.902 872.336 465.353
2939 0 81.1665 13.5524 1100 102.595 871.96 465.346
2940 0 82.226 13.8642 1140 102.728 871.776 463.337
2941 0 86.2314 13.3362 1150 104.223 872.067 461.914
2942 0 86.2006 13.2598 1143 135.781 872.076 461.99
2943 1 43.0239 12.8998 555 107.214 871.449 478.623
2944 0 46.0512 11.4655 528 106.941 871.697 477.542
2945 0 48.0989 14.4078 693 102.942 871.489 474.74
2946 0 48.07 11.3584 546 109.945 871.788 476.103
2947 0 51.115 12.8729 658 105.527 872.666 476.374
2948 0 51.0797 12.2162 624 108.936 872.402 474.607
2949 0 53.173 12.7696 679 102.976 871.627 474.395
2950 0 56.1468 14.5511 817 99.672 872.464 472.217
2951 0 56.157 11.8418 665 105.223 872.662 473.11
2952 0 60.2316 13.7137 826 100.407 872.665 470.419
2953 0 61.0962 13.7815 842 101.026 871.924 470.057
2954 0 63.1331 13.6379 861 101.244 871.675 471.772
2955 0 64.0926 12.6224 809 105.366 871.918 469.204
2956 0 66.0753 13.1971 872 104.741 872.257 467.833
2957 0 69.2381 13.3164 922 104.509 872.139 466.935
2958 0 69.0917 13.2288 914 107.222 871.568 466.647
2959 0 71.1934 14.0182 998 105.904 871.964 464.96
2960 0 75.2619 14.1506 1065 105.399 872.633 464.398
2961 0 76.105 13.6916 1042 108.012 873.386 462.461
2962 0 80.0938 14.6204 1171 105.843 873.216 461.631
2963 0 82.1081 13.5675 1114 109.088 873.613 460.899
2964 0 83.2057 13.1001 1090 111.301 873.134 459.531
2965 0 86.0809 11.7564 1012 113.044 873.371 459.823
2966 0 90.1021 12.2639 1105 112.047 873.243 457.474
2967 1 44.0658 12.9579 571 115.436 873.004 477.842
2968 0 46.0352 12.4253 572 118.472 873.278 475.995
2969 0 48.1361 13.441 647 117.943 872.651 474.502
2970 0 51.0461 13.3997 684 117.159 873.852 473.035
2971 0 52.0222 13.3212 693 118.304 873.439 472.915
2972 0 55.1563 14.2323 785 116.169 873.732 471.09
2973 0 58.1987 14.3302 834 114.996 873.636 471.627
2974 0 58.0893 14.5466 845 116.963 873.608 470.741
2975 0 61.1909 15.0513 921 115.658 872.937 469.05
2976 0 62.1458 14.7395 916 118.638 872.883 467.878
2977 0 65.2551 14.2364 929 119.858 873.402 468.893
2978 0 67.4755 14.6424 988 119.22 873.395 465.601
2979 0 69.2763 14.0163 971 122.085 873.258 466.322
2980 0 73.1217 15.0708 1102 119.485 873.104 465.293
2981 0 71.1214 14.3698 1022 124.789 872.533 464.775
2982 0 73.0917 13.5309 989 128.097 872.748 462.589
2983 0 77.3163 15.0033 1160 123.502 872.28 462.159
2984 0 81.27 15.2947 1243 122.623 872.764 459.714
2985 0 83.0813 16.4658 1368 120.083 872.809 459.24
2986 0 86.1262 14.1885 1222 127.054 872.859 459.241
2987 0 88.4364 14.6207 1293 127.481 872.024 456.909
2988 0 92.3098 15.643 1444 124.557 871.672 454.973
2989 0 95.3683 15.2671 1456 126.771 872.311 454.348
2990 0 98.3036 15.6251 1536 126.462 871.531 453.328
2991 0 102.32 15.2853 1564 127.43 871.845 450.212
2992 0 105.428 14.7873 1559 130.303 871.664 449.381
2993 0 108.294 15.1809 1644 130.032 871.8 444.479
2994 0 113.144 14.7157 1665 130.125 871.705 443.972
2995 0 119.201 15.3439 1829 126.542 872.063 441.022
2996 1 58.1885 12.6657 737 135.982 872.155 468.783
2997 0 59.2122 12.8521 761 158.925 872.212 469.213
2998 0 64.1428 13.314 854 133.569 871.948 466.59
2999 0 69.1454 13.5078 934 131.3 871.762 466.047
3000 0 71.1755 13.1084 933 132.456 871.727 464.254
3001 0 73.1406 14.3012 1046 130.634 871.531 460.755
3002 0 75.0813 13.3855 1005 133.59 871.546 459.531
3003 0 78.2702 13.6067 1065 132.555 872.579 457.825
3004 0 82.1179 14.2235 1168 129.901 872.02 459.388
3005 0 84.2136 15.0332 1266 128.322 871.601 456.334
3006 0 88.1215 14.1055 1243 130.099 872.043 456.944
3007 0 91.1912 15.4291 1407 126.389 872.33 453.458
3008 0 91.2732 13.739 1254 131.786 871.731 454.682
3009 0 97.161 15.4898 1505 126.418 871.907 451.881
3010 0 98.261 14.2071 1396 130.819 872.12 449.244
3011 0 103.233 14.724 1520 129.141 871.406 449.932
3012 0 106.132 14.1051 1497 130.77 871.313 445.673
3013 1 54.0349 12.4364 672 129.862 872.461 470.118
3014 0 55.1324 11.681 644 132.425 872.407 469.387
3015 0 58.0989 12.1001 703 131.55 872.723 469.235
3016 0 60.1872 12.9097 777 128.667 872.441 468.789
3017 0 61.1042 13.1251 802 129.813 872.446 468.916
3018 0 65.1145 14.2518 928 125.969 872.472 468.01
3019 0 68.1009 13.8618 944 128.204 872.539 466.091
3020 0 69.0544 14.2496 984 129.204 872.545 464.182
3021 0 71.2116 12.7507 908 132.732 872.329 464.493
3022 0 71.2116 12.7367 907 163.682 871.338 464.555
3023 0 76.255 13.9794 1066 130.284 871.855 462.945
3024 0 78.2347 12.7948 1001 137.068 871.769 458.695
3025 0 80.0953 13.9709 1119 134.449 871.477 458.252
3026 0 81.1918 12.7722 1037 140.359 871.939 456.838
3027 0 85.1527 14.1628 1206 135.498 871.622 456.685
3028 0 88.1642 14.0874 1242 136.134 872.022 455.325
3029 0 92.1353 14.1097 1300 135.734 871.561 453.795
3030 0 96.257 14.16 1363 134.014 872.567 449.82
3031 0 102.175 13.0756 1336 132.551 872.234 448.251
3032 0 107.225 13.4017 1437 131.765 871.448 445.442
3033 0 112.37 13.776 1548 130.307 872.042 442.865
3034 0 115.182 13.5958 1566 132.228 871.983 442.107
3035 0 119.357 13.489 1610 133.244 872.318 438.691
3036 0 123.382 13.9728 1724 133.026 871.614 435.524
3037 0 128.269 13.8771 1780 134.567 871.9 433.425
3038 0 131.432 14.2584 1874 134.219 872.136 430.264
3039 0 135.433 12.8403 1739 139.435 871.144 424.987
3040 1 13.0684 7.5755 99 94.6566 872.121 495.354
3041 0 16.0017 8.49909 136 93.4118 871.868 496.647
3042 0 15.0188 4.52765 68 100.456 871.941 495.588
3043 0 11.0263 6.98328 77 98.1948 873 496.571
3044 0 12.0051 6.58051 79 96.1013 873.633 497.848
3045 0 15.1029 8.87247 134 93.5298 873.112 496.134
3046 0 17.1267 5.37174 92 96.0544 872.652 494.815
3047 0 15.08 5.30505 80 101.65 873.388 495.625
3048 0 17.0675 5.68331 97 100.67 873.35 497.454
3049 0 22.1273 6.64338 147 95.7619 872.925 491.884
3050 0 15.0246 6.72229 101 98.4752 875.109 496.218
3051 0 15.0008 7.26627 109 104.752 873.881 495.257
3052 0 18.0373 7.31816 132 104.326 872.939 493.288
3053 0 19.0325 7.4084 141 102.277 873.184 494.404
3054 0 14.0579 6.25983 88 104.932 874.114 497.386
3055 0 16.0193 6.24248 100 106.49 873.7 495.89
3056 0 20.1072 7.85789 158 102.576 873.247 493.911
3057 0 14.0119 5.35259 75 108.413 873.707 495.213
3058 0 15.0254 6.65539 100 104.22 873.55 495.97
3059 0 23.135 6.1379 142 102.415 873.387 493.803
3060 0 17.1348 8.34557 143 99.972 873.573 493.979
3061 0 20.0471 7.83158 157 99.5478 873.484 493.153
3062 0 20.1404 6.6533 134 102.194 872.948 493.604
3063 0 20.1105 6.26537 126 100.968 872.683 494.27
3064 0 18.0155 4.32962 78 107.359 873.462 495.192
3065 0 19.0618 4.09196 78 106.167 872.731 494.872
3066 0 19.1114 5.96504 114 105.807 872.421 492.763
3067 0 14.0334 6.62703 93 107.118 871.903 493.581
3068 0 16.0705 5.72478 92 109.141 872.402 495.087
3069 0 10.0039 3.29871 33 112.545 873.364 497.273
3070 0 8.00252 5.3733 43 107.721 871.535 496.093
3071 0 9.00481 4.10892 37 110.595 872.081 497.459
3072 0 11.0102 5.26785 58 111 872.603 496.483
3073 0 10.0092 4.19614 42 115.238 872.286 496.476
3074 0 15.0194 6.79123 102 107.461 873.137 496
3075 0 10.0048 6.39695 64 112.938 871.969 494.344
3076 0 10.0005 4.19977 42 116 872.429 495.238
3077 0 10.003 4.9985 50 113.6 872.18 496.02
3078 0 10.0081 4.29652 43 113.209 872.674 496.488
3079 0 12.0009 7.41609 89 105.225 872.214 497.562
3080 0 12.0026 3.83249 46 113.696 873.065 497.761
3081 1 62.2177 11.4598 713 119.532 873.098 470.028
3082 0 61.2483 9.37169 574 127.235 872.666 471.209
3083 0 65.1756 10.6788 696 124.529 872.221 469.246
3084 0 64.1594 10.0063 642 128.24 872.112 467.702
3085 0 68.2703 9.96041 680 127.204 872.898 468.138
3086 0 70.2226 10.9224 767 126.34 872.548 465.601
3087 0 71.0865 10.8881 774 127.593 872.419 466.287
3088 0 71.1843 10.4096 741 131.348 872.617 464.344
3089 0 74.2568 10.9889 816 129.327 872.418 461.688
3090 0 73.0987 9.80866 717 133.756 873.081 461.448
3091 0 79.0956 10.9741 868 128.922 873.371 461.485
3092 0 81.1263 11.1801 907 129.06 873.256 462.983
3093 0 84.1235 10.33 869 130.777 873.03 461.483
3094 0 85.2656 11.2003 955 130.518 873.351 459.66
3095 1 49.0841 9.92174 487 122.051 872.639 479.552
3096 0 49.0434 9.44061 463 122.289 872.68 478.916
3097 0 51.0704 10.5345 538 119.693 873.848 475.993
3098 0 51.0789 10.9243 558 118.887 872.905 477.421
3099 0 54.2091 10.5886 574 117.852 873.324 473.627
3100 0 55.0372 9.33913 514 120.588 873.455 474.368
3101 0 56.1153 10.5675 593 118.212 873.619 474.954
3102 0 58.1507 10.2148 594 120.278 873.451 471.295
3103 0 59.1101 10.6242 628 119.118 873.943 471.083
3104 0 62.1149 10.9153 678 118.493 873.472 471.466
3105 0 61.1062 11.2755 689 125.045 872.494 471.628
3106 0 65.1377 11.0382 719 119.762 873.846 469.75
3107 0 67.08 11.7919 791 118.32 874.415 469.277
3108 0 67.0442 10.2022 684 123.642 873.905 469.123
3109 0 68.0944 10.5295 717 124.172 873.692 465.649
3110 0 73.242 12.9161 946 116.92 873.633 465.73
3111 0 76.0433 12.4271 945 117.366 873.385 467.147
3112 0 76.0869 13.0246 991 123.387 873.96 464.2
3113 0 77.0421 12.3569 952 126.014 873.675 460.937
3114 0 80.1294 12.7793 1024 125.918 873.054 462.058
3115 0 84.0864 11.8212 994 127.899 873.393 460.661
3116 0 87.3292 12.6762 1107 124.349 874.363 460.501
3117 1 48.067 9.04988 435 122.317 874.336 478.478
3118 0 49.015 9.75212 478 122.881 873.546 475.887
3119 0 52.0882 10.1175 527 120.463 874.19 475.782
3120 0 52.1186 11.6273 606 123.759 873.414 477.3
3121 0 52.0726 11.484 598 124.945 874.08 475.828
3122 0 54.1181 11.8075 639 123.113 873.537 476.822
3123 0 56.0617 11.1128 623 125.915 873.247 475.424
3124 0 57.2165 12.4789 714 122.304 873.81 474.405
3125 0 57.1911 12.397 709 122.801 874.505 475.168
3126 0 59.1866 10.7795 638 127.614 874.171 473.357
3127 0 61.2404 12.2795 752 124.137 873.89 472.455
3128 0 63.1367 13.051 824 122.534 873.792 472.067
3129 0 65.1174 12.9305 842 122.751 873.346 470.849
3130 0 67.1908 13.3203 895 122.206 873.543 469.086
3131 0 67.2217 10.9935 739 127.445 873.203 470.091
3132 0 70.2896 12.4343 874 124.514 873.697 466.212
3133 0 72.1826 12.7593 921 123.45 874.02 466.45
3134 0 74.2085 13.0308 967 123.452 873.587 465.433
3135 0 77.1468 12.5864 971 123.809 874.016 465.457
3136 0 79.1365 12.7375 1008 123.981 874.192 464.098
3137 0 81.2068 11.8463 962 126.35 874.088 464.159
3138 0 83.1448 12.7007 1056 125.025 873.831 459.873
3139 0 86.1063 12.6007 1085 124.472 873.98 459.593
3140 0 89.0962 11.0555 985 131.325 874.865 453.904
3141 1 53.0832 9.2308 490 115.051 874.482 475.32
3142 0 53.1517 9.53873 507 117.124 873.17 475.982
3143 0 55.317 7.79145 431 121.316 874.631 472.276
3144 0 55.372 9.51745 527 117.472 874.484 474.461
3145 0 54.1418 11.5253 624 113.897 874.934 478.442
3146 0 55.1214 11.647 642 114.21 874.933 476.639
3147 0 58.3109 11.7131 683 113.343 875.264 474.202
3148 0 58.3445 11.6035 677 113.27 874.585 474.341
3149 0 61.0895 11.9988 733 112.344 875.145 472.666
3150 0 61.2279 10.5997 649 116.263 875.029 474.809
3151 0 61.1443 10.4998 642 119.614 875.249 469.908
3152 0 64.0845 11.8593 760 114.475 874.464 472.163
3153 0 65.1677 10.6495 694 118.046 875.225 469.568
3154 0 66.1464 10.8698 719 118.529 874.357 467.307
3155 0 68.1507 10.4621 713 118.879 874.313 467.655
3156 0 76.1025 10.7224 816 114.415 872.952 462.702
3157 0 76.1607 10.4778 798 116.243 873.97 462.169
3158 0 79.1252 11.6271 920 112.686 873.375 465.374
3159 0 80.0612 11.2914 904 114.695 873.477 461.766
3160 0 83.103 12.2499 1018 111.956 873.07 462.891
3161 0 86.1266 12.1681 1048 110.49 873.322 462.646
3162 0 85.2754 10.1788 868 117.712 873.264 456.72
3163 1 50.1422 9.01436 452 110.394 873.046 477.704
3164 0 51.0905 10.315 527 109.199 873.936 477.017
3165 0 51.3227 9.27465 476 110.897 873.779 477.998
3166 0 51.2873 10.139 520 110.762 873.704 477.446
3167 0 54.3206 11.3585 617 107.626 873.776 476.739
3168 0 56.1554 10.5956 595 107.692 873.919 475.392
3169 0 56.0213 12.0668 676 106.32 873.337 475.149
3170 0 60.1349 11.3744 684 106.829 873.725 473.849
3171 0 60.1098 11.7452 706 107.392 873.013 471.115
3172 0 62.2176 12.0705 751 105.571 873.249 472.15
3173 0 64.0431 12.5228 802 105.157 873.09 471.057
3174 0 65.0971 11.5212 750 107.936 873.76 470.437
3175 0 66.0866 10.1987 674 111.99 873.936 469.04
3176 0 68.0859 12.4842 850 107.129 872.766 468.684
3177 0 71.1019 12.4469 885 106.226 873.793 469.664
3178 0 72.1415 12.226 882 107.136 873.584 468.941
3179 0 73.1228 11.5833 847 109.372 873.334 466.702
3180 0 75.0811 12.0936 908 108.322 873.324 464.521
3181 0 77.078 10.898 840 110.832 873.148 462.885
3182 0 82.1276 12.4928 1026 106.459 872.451 463.102
3183 0 84.1112 11.8177 994 107.859 872.489 463.65
3184 0 86.2253 11.3888 982 109.357 872.511 462.694
3185 0 87.1096 11.7438 1023 108.938 873.46 462.6
3186 0 91.3555 10.9353 999 114.271 872.776 455.444
3187 1 51.168 9.06816 464 115.125 872.925 476.472
3188 0 52.0451 9.9529 518 114.965 873.658 475.863
3189 0 55.1165 10.4687 577 106.026 873.222 474.986
3190 0 55.069 10.9317 602 106.424 873.568 472.346
3191 0 58.0166 11.4105 662 103.716 874.266 475.514
3192 0 59.061 10.0405 593 108.509 873.369 470.361
3193 0 59.0415 10.6196 627 107.842 874.094 471.823
3194 0 60.0637 8.79066 528 113.384 873.142 468.989
3195 0 62.0231 9.83505 610 110.939 872.697 469.828
3196 0 62.0601 8.66902 538 115.392 872.519 464.684
3197 0 65.0457 9.97761 649 111.479 872.413 466.775
3198 0 67.0475 10.4553 701 110.95 872.203 465.188
3199 0 71.0603 9.93523 706 111.656 872.68 464.406
3200 0 73.0276 9.88668 722 111.861 873.429 467.391
3201 0 72.1216 9.35919 675 116.661 872.887 462.563
3202 0 77.0534 9.18843 708 115.203 872.654 463.725
3203 0 80.0473 11.6806 935 110.032 873.033 462.328
3204 0 82.1762 9.41878 774 114.964 872.124 460.205
3205 0 87.0544 10.212 889 113.118 872.571 458.276
3206 0 90.0516 10.6717 961 111.92 871.877 456.034
3207 0 94.1207 10.0616 947 111.883 871.599 455.421
3208 1 53.0971 9.34138 496 104.046 871.53 473.065
3209 0 53.0845 9.23056 490 124.48 871.537 472.929
3210 0 56.2211 11.2235 631 107.265 870.99 474.06
3211 0 50.0687 13.7012 686 105.662 870.786 470.13
3212 0 57.3332 11.407 654 109.104 869.842 470.417
3213 0 52.0606 11.89 619 111.554 869.885 467.91
3214 0 53.0776 12.1332 644 110.902 869.887 468.314
3215 0 50.0328 12.4118 621 113.298 869.92 466.33
3216 0 58.1142 11.7011 680 112.459 870.478 465.256
3217 0 56.138 12.7187 714 111.426 870.664 464.366
3218 0 59.0956 12.9282 764 111.075 870.438 464.793
3219 0 59.0426 11.1445 658 116.812 870.711 464.386
3220 0 63.1362 13.8272 873 109.395 870.42 463.18
3221 0 63.0358 13.1354 828 112.987 870.386 461.983
3222 0 65.0667 12.6486 823 114.029 871.074 460.555
3223 0 67.0707 12.6285 847 113.947 870.862 460.068
3224 0 69.0967 13.4739 931 112.784 870.771 459.592
3225 0 69.0748 13.3334 921 114.566 871.787 458.904
3226 0 76.1619 11.8169 900 114.891 870.801 458.103
3227 0 82.2091 12.2857 1010 113.448 871.663 456.656
3228 0 76.0811 13.3147 1013 115.254 871.756 455.759
3229 0 81.0345 11.8715 962 118.165 871.193 452.894
3230 0 85.0648 13.284 1130 114.863 871.479 453.649
3231 0 92.2309 11.7423 1083 118.082 871.792 452.523
3232 0 84.0602 11.7892 991 122.612 870.946 448.813
3233 0 96.0871 10.9796 1055 119.089 872.021 453.969
3234 0 99.2748 11.8157 1173 118.128 871.367 449.244
3235 1 56.0473 8.83183 495 120.517 870.657 470.754
3236 0 58.0937 9.94945 578 117.324 872.043 471.294
3237 0 59.0913 9.45994 559 119.537 871.379 470.106
3238 0 59.0416 10.1623 600 114.223 872.553 472.717
3239 0 58.075 9.83212 571 117.212 872.977 470.832
3240 0 63.1898 10.967 693 112.382 872.639 470.144
3241 0 65.0198 10.6275 691 112.214 871.751 467.683
3242 0 67.1485 10.8119 726 112.351 871.613 465.636
3243 0 67.1536 11.1684 750 114.196 871.697 465.193
3244 0 70.1679 11.6578 818 115.647 871.958 466.05
3245 0 74.1971 11.6581 865 114.644 872.013 466.192
3246 0 74.1341 10.0629 746 119.642 872.484 465.265
3247 0 76.0415 11.5726 880 118.162 871.85 461.141
3248 0 78.0377 10.7897 842 120.53 871.54 459.293
3249 0 80.0689 11.053 885 120.749 872.055 457.071
3250 0 84.1065 11.3665 956 121.198 872.518 457.658
3251 0 85.1064 12.0907 1029 119.509 872.038 459.133
3252 0 88.3094 12.3996 1095 119.233 871.642 458.293
3253 0 90.2817 12.0622 1089 120.85 871.777 456.005
3254 0 94.123 12.8449 1209 120.68 871.457 453.577
3255 0 94.079 12.0643 1135 124.247 871.595 453.545
3256 0 99.4924 12.3326 1227 125.17 871.729 443.83
3257 0 104.461 13.0862 1367 123.882 871.83 442.609
3258 0 103.478 12.766 1321 126.444 871.832 446.949
3259 1 59.1668 9.66758 572 122.993 872.83 470.302
3260 0 61.0894 9.52701 582 125.823 872.505 467.784
3261 0 63.1691 13.0127 822 114.962 872.296 470.557
3262 0 66.2571 10.1876 675 123.044 872.188 464.834
3263 0 64.0562 12.5671 805 119.978 872.8 468.272
3264 0 71.0797 12.1272 862 117.082 873.004 465.241
3265 0 71.1912 11.2654 802 120.211 872.34 463.354
3266 0 71.0822 9.90402 704 125.241 872.459 462.602
3267 0 73.1053 11.2714 824 122.318 872.05 462.098
3268 0 75.1027 11.3045 849 122.069 871.869 462.105
3269 0 77.0988 11.7122 903 122.575 872.458 458.296
3270 0 81.0692 12.3845 1004 120.529 872.699 459.245
3271 0 81.1281 11.2661 914 123.688 872.904 454.608
3272 0 83.0819 9.17167 762 128.718 872.142 454.259
3273 0 88.0653 11.5369 1016 123.017 872.692 454.04
3274 0 90.0857 10.9895 990 124.517 872.14 454.97
3275 0 95.1856 11.9031 1133 122.538 872.631 451.22
3276 0 97.1663 11.9074 1157 122.124 872.313 450.62
3277 0 100.116 11.7664 1178 123.888 873.252 450.084
3278 1 52.0367 10.2428 533 123.707 874.608 474.385
3279 0 56.1585 9.72248 546 115.892 872.137 472.934
3280 0 57.1143 9.12205 521 117.038 872.463 471.192
3281 0 59.0633 9.73531 575 115.577 872.673 470.224
3282 0 61.1126 9.49067 580 116.878 872.71 467.879
3283 0 63.0328 10.0741 635 114.706 873.104 466.287
3284 0 66.0908 11.2572 744 111.906 872.591 467.773
3285 0 69.0795 10.6689 737 114.084 872.976 464.342
3286 0 69.0721 10.6845 738 116.061 872.897 461.137
3287 0 71.0393 11.9934 852 113.053 872.527 462.088
3288 0 75.1523 11.1374 837 113.781 873.111 463.076
3289 0 78.1596 10.8624 849 114.547 872.203 460.271
3290 0 81.147 12.6437 1026 111.628 872.739 460.144
3291 0 81.1828 11.468 931 115.621 872.094 458.484
3292 0 82.0822 10.587 869 119.177 872.283 455.031
3293 0 88.1709 12.5098 1103 113.077 872.601 454.956
3294 0 87.2068 9.70108 846 121.948 872.064 448.853
3295 0 94.268 13.5677 1279 111.35 872.715 452.004
3296 0 95.1258 12.0262 1144 116.267 873.073 452.339
3297 0 96.2281 12.0027 1155 118.534 872.794 448.481
3298 0 99.1346 11.671 1157 119.7 872.78 445.088
3299 0 103.127 12.6543 1305 117.427 873.254 446.941
3300 0 108.12 12.6989 1373 120.175 872.9 446.398
3301 0 111.199 12.6889 1411 122.154 873.514 444.044
3302 0 113.251 13.2891 1505 121.802 874.18 440.317
3303 0 117.196 12.7308 1492 123.633 873.942 437.072
3304 1 63.1612 9.6895 612 116.134 875.126 466.247
3305 0 66.1234 9.0437 598 117.276 875.079 461.232
3306 0 66.2593 10.2778 681 113.043 874.815 461.305
3307 0 71.1179 8.68979 618 115.417 874.463 459.814
3308 0 78.1308 9.3945 734 113.083 874.469 456.951
3309 0 80.2327 10.133 813 111.005 873.957 457.178
3310 0 83.1676 10.052 836 111.634 874.354 455.559
3311 0 80.1857 10.6378 853 111.594 874.169 453.218
3312 0 81.2339 8.72789 709 116.547 873.646 451.76
3313 0 87.285 9.77258 853 113.713 874.018 450.992
3314 0 85.1151 9.56352 814 115.289 873.673 448.079
3315 0 93.2697 9.83171 917 112.662 874.246 448.079
3316 0 92.1894 10.294 949 113.26 873.834 446.124
3317 0 93.1946 10.7302 1000 114.049 873.531 443.824
3318 0 96.0752 8.90968 856 118.57 873.825 440.041
3319 0 104.305 9.85569 1028 116.543 873.668 442.768
3320 1 53.1469 9.59604 510 112.629 874.676 467.302
3321 0 57.2123 11.2563 644 114.514 874.323 462.871
3322 0 57.0709 10.5658 603 115.718 874.856 462.353
3323 0 59.0583 12.2252 722 112.107 875.134 461.4
3324 0 60.1163 10.7625 647 116.226 874.776 460.648
3325 0 64.0909 11.3901 730 115.073 874.636 458.738
3326 0 65.0432 10.6391 692 118.04 874.6 459.267
3327 0 69.1447 11.6133 803 114.265 873.985 456.205
3328 0 71.1296 12.0766 859 112.234 874.404 457.132
3329 0 72.0935 10.5419 760 116.614 874.264 456.158
3330 0 76.0549 10.5319 801 116.22 873.784 454.266
3331 0 79.1068 11.4908 909 113.69 873.769 452.395
3332 0 79.2018 10.972 869 116.022 873.545 449.861
3333 0 84.2679 11.6889 985 113.985 873.533 451.419
3334 0 86.1549 11.7347 1011 114.042 874.32 448.313
3335 0 87.1351 10.719 934 117.214 873.411 449.385
3336 1 42.0802 10.1948 429 116.676 874.496 469.807
3337 0 46.1747 9.55068 441 113.671 872.664 472.397
3338 0 43.224 10.7116 463 114.942 873.004 469.022
3339 0 46.1858 10.6093 490 113.147 873.855 470.929
3340 0 49.1082 10.4463 513 115.388 873.811 469.546
3341 0 47.1154 11.249 530 114.855 873.994 468.568
3342 0 48.1301 11.7598 566 114.864 874.132 467.244
3343 0 48.0688 10.7762 518 117.66 874.724 467.873
3344 0 52.0684 11.9266 621 113.667 873.731 468.892
3345 0 54.1028 10.3322 559 118.19 874.156 465.794
3346 0 56.1027 11.4789 644 115.354 874.272 467.408
3347 0 54.0968 11.9046 644 115.918 874.854 464.152
3348 0 60.2094 12.4233 748 112.396 873.722 463.32
3349 0 58.0928 11.1718 649 118.256 873.878 464.015
3350 0 60.0865 12.4487 748 114.114 873.48 463.245
3351 0 61.1226 12.5322 766 115.107 874.924 461.804
3352 0 62.0839 12.7086 789 116.48 874.061 460.406
3353 0 65.0888 12.2141 795 117.408 873.619 458.982
3354 0 67.1292 12.9303 868 115.984 874.248 459.599
3355 0 70.2439 13.7948 969 113.782 873.857 459.122
3356 0 71.173 12.308 876 119.038 874.16 458.511
3357 0 70.1503 11.8602 832 122.215 874.375 456.198
3358 0 78.1906 12.9811 1015 117.563 873.869 457.093
3359 0 76.1768 13.2455 1009 120.082 873.914 453.947
3360 0 82.1826 14.2488 1171 116.384 874.252 454.874
3361 0 83.2894 13.5311 1127 121.248 874.061 451.606
3362 0 83.1917 12.3209 1025 126.653 873.982 452.745
3363 0 84.1796 11.9506 1006 129.933 873.317 449.412
3364 0 87.1657 12.6311 1101 128.36 873.448 450.431
3365 0 89.1065 12.2326 1090 130.796 873.335 449.865
3366 0 94.1372 13.3953 1261 127.414 873.904 447.589
3367 0 95.1654 12.2208 1163 132.615 873.064 447.359
3368 0 101.188 12.9956 1315 130.23 873.205 447.142
3369 0 104.164 14.938 1556 124.546 873.671 445.831
3370 0 105.256 13.605 1432 130.492 872.715 443.381
3371 0 115.133 12.7591 1469 130.253 872.264 447.566
3372 0 110.109 13.3322 1468 134.247 873.566 441.116
3373 1 122.136 13.6651 1669 129.72 873.237 441.688
3374 0 125.154 13.1757 1649 131.68 873.014 440.901
3375 0 127.212 12.7661 1624 134.977 872.841 436.679
3376 0 131.186 14.7272 1932 129.51 872.404 434.514
3377 0 136.328 14.7731 2014 128.861 872.688 435.675
3378 0 139.176 14.2338 1981 131.664 872.47 433.892
3379 0 142.12 14.2203 2021 132.203 872.843 433.512
3380 0 145.284 14.8054 2151 131.404 872.771 429.993
3381 0 149.198 13.9412 2080 134.35 872.797 427.157
3382 0 154.283 15.3095 2362 129.654 872.182 426.75
3383 0 161.652 14.89 2407 131 872.361 422.908
3384 0 155.341 15.3855 2390 138.016 871.845 397.26
3385 0 159.281 15.8462 2524 137.514 871.273 393.93
3386 0 168.304 15.579 2622 136.245 871.538 395.352
3387 0 170.258 15.7643 2684 136.424 872.148 392.799
3388 0 175.345 15.8773 2784 137.485 872.247 392.123
3389 0 180.158 15.9583 2875 138.008 871.984 390.977
3390 0 186.379 15.4148 2873 140.281 871.714 390.301
3391 0 188.229 15.5342 2924 142.216 871.39 384.232
3392 0 194.392 16.7291 3252 136.904 871.254 384.817
3393 0 198.35 15.1046 2996 143.425 871.118 384.826
3394 0 205.366 15.6063 3205 141.142 872.126 380.532
3395 0 209.318 15.2877 3200 143.786 871.933 378.968
3396 0 214.41 15.0226 3221 145.532 872.052 377.299
3397 1 224.461 14.8846 3341 145.708 872.098 385.125
3398 0 231.314 16.0691 3717 142.093 872.292 384.896
3399 0 239.484 16.1472 3867 144.023 872.008 380.839
3400 0 244.405 16.4276 4015 144.492 871.928 375.923
3401 0 250.515 16.0789 4028 146.246 871.813 373.236
3402 0 258.412 15.7423 4068 146.888 872.227 367.711
3403 0 264.429 15.9438 4216 147.957 872.029 365.097
3404 0 270.379 16.2328 4389 148.593 872.121 364.394
3405 0 279.596 15.5188 4339 148.273 872.055 358.901
3406 0 286.29 15.6974 4494 147.175 871.475 358.457
3407 1 303.38 22.5657 6846 124.265 870.765 332.734
3408 0 298.343 15.8174 4719 148.4 870.832 350.163
3409 0 303.327 16.263 4933 149.347 871.423 342.259
3410 0 312.266 16.4187 5127 147.859 871.954 340.439
3411 0 320.354 16.0947 5156 149.478 872.008 336.284
3412 0 328.404 16.2574 5339 151.269 871.981 330.379
3413 0 334.313 16.5863 5545 150.216 871.181 329.503
3414 0 341.31 16.1437 5510 151.735 871.194 323.162
3415 0 350.466 17.1058 5995 148.762 872.314 322.799
3416 0 356.29 16.9188 6028 149.815 871.977 317.8
3417 0 361.591 15.9268 5759 154.573 871.084 313.28
3418 0 369.452 16.4541 6079 153.197 871.661 307.049
3419 0 376.589 16.4901 6210 153.826 871.696 303.595
3420 0 383.571 16.3855 6285 154.979 871.549 297.792
3421 0 390.519 16.8622 6585 154.573 871.426 295.626
3422 0 398.721 16.5103 6583 158.193 871.752 291.749
3423 0 405.581 17.4392 7073 154.247 870.859 286.722
3424 0 412.419 16.3038 6724 157.868 871.309 289.152
3425 0 418.718 16.326 6836 160.232 871.402 280.431
3426 0 423.801 15.4436 6545 165.042 871.559 274.382
3427 0 430.796 18.3381 7900 156.058 871.733 273.705
3428 0 428.557 17.0246 7296 161.653 872.047 271.853
3429 0 431.537 17.1712 7410 162.647 872.374 271.721
3430 0 428.674 19.1124 8193 155.329 871.824 271.492
3431 0 430.022 17.8619 7681 160.989 872.912 271.731
3432 0 430.576 17.465 7520 165.526 873.058 272.455
3433 0 421.134 15.1614 6385 174.973 872.582 274.816
3434 0 424.922 15.7582 6696 174.343 872.659 273.654
3435 0 431.525 16.1497 6969 172.659 872.763 273.034
3436 0 428.464 16.4821 7062 172.239 872.882 268.944
3437 0 429.822 17.6817 7600 166.348 873.363 269.055
