time division length width area intensity CMx CMy
0 0 56.0417 13.6862 767 145.63 659.112 468.053
1 0 57.0475 13.5852 775 144.992 659.29 466.612
2 1 30.0072 11.3639 341 147.378 660.067 481.114
3 0 29.0254 11.6105 337 149.62 660.056 480.68
4 0 29.0047 11.8602 344 151.076 659.858 479.674
5 0 31.0072 11.9327 370 148.657 660.362 479.819
6 0 33.0178 12.3873 409 144.193 660.428 479.726
7 0 33.0191 13.0833 432 141.653 660.051 479.669
8 0 32.0395 12.7655 409 142.589 659.917 480.086
9 0 34.0068 12.5857 428 141.493 659.523 480.112
10 0 33.0164 12.4181 410 143.159 659.049 480.329
11 0 35.0664 12.0343 422 147.128 660.107 479.865
12 0 36.0673 12.5044 451 143.171 659.457 479.149
13 0 37.0821 13.6724 507 139.063 658.838 479.483
14 0 37.0076 13.0784 484 143.395 658.696 478.764
15 0 38.0321 12.8313 488 143.758 658.441 478.49
16 0 40.0334 12.9392 518 141.585 658.048 478.469
17 0 41.0232 12.3101 505 146.388 658.347 478.836
18 0 41.0347 12.989 533 145.91 658.72 478.657
19 0 42.0173 12.9946 546 146.784 658.63 477.491
20 0 43.0261 13.2013 568 145.96 657.486 476.995
21 0 45.0094 15.1746 683 137.615 657.165 476.447
22 0 45.0969 13.8812 626 144.772 657.666 476.703
23 0 49.0312 14.399 706 140.537 658.184 476.03
24 0 50.0127 15.4361 772 135.68 657 475.482
25 0 51.0532 15.0823 770 137.665 656.823 473.684
26 0 51.0395 14.7337 752 140.695 657.536 473.802
27 0 52.0956 14.2239 741 143.83 656.811 473.343
28 0 56.094 14.2083 797 141.729 656.015 471.338
29 0 55.0214 14.4853 797 142.964 656.443 470.728
30 0 60.1203 15.1696 912 137.052 656.393 470.8
31 0 60.075 14.5651 875 141.648 655.878 469.321
32 0 62.1691 15.3292 953 137.817 655.146 468.535
33 0 64.1926 14.8304 952 139.705 655.597 467.737
34 0 66.0518 15.3516 1014 137.678 655.283 466.134
35 0 69.0472 14.6711 1013 138.546 655.509 464.322
36 0 72.0417 15.0746 1086 136.265 656.106 463.524
37 0 73.0579 15.8778 1160 134.427 656.159 461.168
38 0 76.0339 14.4541 1099 138.376 655.573 460.919
39 0 79.0793 15.4655 1223 134.648 655.18 458.457
40 0 80.1178 14.5161 1163 138.721 654.907 456.275
41 0 84.1476 14.8905 1253 133.997 655.561 456.232
42 0 88.1794 14.3684 1267 134.906 655.138 454.871
43 0 89.078 15.2563 1359 131.795 655.962 451.035
44 1 45.0268 10.6603 480 135.212 656.023 475.035
45 0 47.0733 11.1953 527 135.471 655.554 473.704
46 0 50.01 12.6775 634 132.09 655.8 478.175
47 0 51.0782 13.1563 672 130.624 655.76 476.266
48 0 55.0942 13.3045 733 129.311 656.184 475.296
49 0 54.0725 12.7976 692 133.426 655.354 473.681
50 0 58.0144 14.3068 830 130.588 655.32 473.62
51 0 60.0445 14.2061 853 130.593 655.529 471.186
52 0 61.1459 13.2306 809 134.101 655.486 470.535
53 0 64.0821 13.2486 849 134.239 655.303 468.853
54 0 69.1032 13.8633 958 130.086 655.514 469.116
55 0 70.1236 13.4619 944 132.255 655.29 467.682
56 0 72.0793 13.9152 1003 131.542 655.41 466.164
57 0 76.1403 13.9742 1064 131.321 654.533 464.607
58 0 78.0509 14.0293 1095 133.384 654.768 461.38
59 0 83.0406 14.8963 1237 129.394 655.446 462.105
60 0 85.1228 14.0268 1194 131.946 654.762 461.936
61 1 43.1219 11.1312 480 133.256 654.908 482.035
62 0 44.1846 12.1535 537 130.54 655.212 481.277
63 0 47.1812 13.6919 646 124.488 654.494 480.395
64 0 47.0355 12.9689 610 125.336 654.884 481.408
65 0 50.0789 13.4388 673 123.523 654.681 480.244
66 0 52.0761 13.9988 729 121.599 653.846 479.816
67 0 52.0562 13.0244 678 124.768 653.875 477.901
68 0 56.0399 13.2406 742 121.624 654.532 477.481
69 0 59.0555 13.2248 781 120.99 654.315 476.839
70 0 61.0752 13.8027 843 121.457 654.987 474.237
71 0 61.0449 13.4491 821 123.49 654.107 475.266
72 0 62.1066 12.9616 805 127.798 653.984 473.124
73 0 66.0582 13.7757 910 124.99 655.064 470.866
74 0 68.1511 13.8662 945 123.662 655.044 470.757
75 0 69.1756 13.2561 917 124.815 654.305 470.578
76 0 72.105 12.1628 877 128.212 654.571 470.082
77 0 75.1693 12.1326 912 126.638 654.542 468.359
78 0 76.1124 12.7969 974 124.874 654.399 467.969
79 0 80.1632 12.6741 1016 125.301 654.202 465.532
80 1 42.0167 10.591 445 123.461 654.917 485.348
81 0 45.0388 11.0571 498 121.462 654.582 485.022
82 0 45.0314 11.5919 522 122.113 654.904 483.496
83 0 46.0336 11.5133 530 121.949 654.538 482.115
84 0 46.066 11.4835 529 123.476 655.144 482.784
85 0 49.0618 12.2906 603 129.614 654.678 480.725
86 0 51.241 11.4166 585 131.393 654.716 480.311
87 0 51.144 11.8489 606 130.789 655.523 480.518
88 0 54.1898 13.5081 732 125.646 654.821 478.822
89 0 56.1853 13.4733 757 125.588 654.342 477.448
90 0 58.211 12.9357 753 125.485 653.789 477.065
91 0 59.0649 11.953 706 127.987 653.956 477.067
92 0 61.3145 12.2646 752 128.059 653.04 474.096
93 0 61.1108 12.2564 749 127.78 653.477 474.012
94 0 64.1398 12.2233 784 127.32 653.337 470.356
95 0 67.2003 13.3035 894 124.064 652.565 468.55
96 0 69.147 12.2493 847 126.472 652.733 470.273
97 0 71.0903 12.1254 862 126.245 653.084 470.209
98 0 73.353 13.1692 966 124.233 652.234 467.953
99 0 75.0917 12.9308 971 124.771 652.838 466.99
100 0 78.1543 12.8976 1008 123.554 652.879 465.91
101 0 80.1192 11.7949 945 124.686 652.265 466.85
102 0 84.104 11.5809 974 126.127 652.728 462.825
103 0 85.1526 12.4482 1060 125.595 653.665 462.031
104 0 88.0499 11.8228 1041 126.793 653.18 460.108
105 0 90.174 11.5444 1041 127.87 653.409 458.325
106 0 94.0782 12.3302 1160 125.06 653.007 457.986
107 0 99.1507 12.7281 1262 124.408 653.506 455.237
108 0 102.117 12.4563 1272 125.476 653.741 455.217
109 0 105.099 11.9411 1255 128.145 653.101 452.002
110 0 110.072 12.9824 1429 124.994 652.381 449.458
111 0 113.05 12.3574 1397 129.089 652.251 445.576
112 0 119.17 12.9479 1543 127.295 652.824 443.902
113 1 64.0819 12.1095 776 118.031 652.513 474.624
114 0 65.1062 10.9513 713 118.997 652.344 471.586
115 0 67.1108 11.0861 744 119.024 653.757 472.183
116 0 69.0644 11.1056 767 118.012 653.224 469.84
117 0 74.1315 12.7341 944 114.138 653.691 468.995
118 0 78.0514 12.0049 937 116.211 653.177 466.18
119 0 80.0565 11.4669 918 117.475 653.188 467.161
120 0 83.0536 12.3896 1029 115.61 653.226 464.031
121 0 85.0733 11.2726 959 118.486 653.518 464.184
122 0 86.0525 12.0275 1035 117.128 652.44 460.087
123 0 90.0985 12.5529 1131 116.209 653.255 458.683
124 0 94.0671 13.0014 1223 115.658 652.933 457.245
125 0 97.0742 12.7222 1235 117.096 653.641 454.619
126 1 47.0301 10.5252 495 113.101 652.644 481.776
127 0 49.1963 10.7935 531 113.058 651.092 479.699
128 0 49.0486 10.8464 532 114.231 651.949 479.771
129 0 50.0737 10.9638 549 114.714 653.087 480.386
130 0 52.0399 9.8386 512 117.635 652.834 479.746
131 0 55.0176 12.705 699 112.436 652.712 477.459
132 0 56.0396 11.3848 638 116.865 652.655 477.193
133 0 55.0453 11.2635 620 118.89 653.342 476.855
134 0 60.0394 12.0921 726 115.585 653.107 474.711
135 0 62.0213 11.625 721 118.057 653.153 473.985
136 0 65.0466 13.252 862 113.766 652.761 474.167
137 0 65.1065 13.7467 895 114.454 653.189 473.416
138 0 66.0398 12.0231 794 120.582 652.384 474.178
139 0 70.0599 12.475 874 120.39 652.088 471.511
140 0 70.0525 12.6762 888 122.443 652.949 470.588
141 0 71.0895 11.9708 851 125.464 652.985 470.448
142 0 74.0878 12.7012 941 124.817 652.113 466.588
143 0 78.114 13.5955 1062 121.062 652.585 465.256
144 0 80.0748 13.2376 1060 122.309 652.374 466.868
145 0 83.0732 14.1803 1178 121.142 653.132 464.508
146 0 86.1445 13.3381 1149 123.928 652.361 463.405
147 0 88.0615 13.4679 1186 126.03 651.748 461.922
148 0 91.0954 13.2938 1211 124.988 652.277 461.286
149 1 47.0397 10.8844 512 123.102 652.272 483.852
150 0 49.0333 11.6655 572 122.205 652.465 481.647
151 0 49.081 11.6746 573 117.129 652.482 479.637
152 0 49.0469 11.8254 580 120.019 653.128 480.819
153 0 50.0132 12.3767 619 119.746 653.313 480.876
154 0 51.0197 12.0542 615 119.974 652.345 479.457
155 0 51.0467 11.4993 587 121.213 652.383 481.085
156 0 53.1394 12.8342 682 117.346 653.091 479.157
157 0 55.0556 11.6428 641 119.651 652.827 478.019
158 0 58.074 11.9675 695 117.404 653.734 476.294
159 0 58.074 11.9158 692 129.786 653.727 476.321
160 0 59.0639 11.2251 663 121.649 653.281 473.557
161 0 63.1214 12.072 762 118.282 654.421 473.895
162 0 65.0328 11.9478 777 117.956 653.315 473.496
163 0 66.0431 12.9461 855 116.142 653.373 471.392
164 0 68.094 12.3653 842 116.995 653.823 470.072
165 0 70.1397 12.4466 873 117.289 653.741 470.109
166 0 73.0686 13.3847 978 114.84 652.863 468.435
167 0 74.0713 13.163 975 117.167 653.387 465.75
168 0 77.0664 13.391 1032 116.19 653.065 466.05
169 0 79.0711 12.5204 990 118.495 653.277 463.592
170 0 84.1011 12.8417 1080 116.638 653.106 463.549
171 0 85.1105 12.3134 1048 117.401 653.162 462.807
172 0 88.1706 12.4645 1099 117.686 652.934 461.439
173 0 91.1751 13.0518 1190 116.846 652.76 458.795
174 1 47.2007 10.3812 490 115.755 652.459 479.498
175 0 46.1513 10.8773 502 111.697 652.773 476.534
176 0 49.0798 12.6121 619 116.632 653.569 479.131
177 0 52.0733 12.8281 668 115.416 653.445 479.555
178 0 52.018 11.8036 614 119.134 653.632 477.606
179 0 52.0575 11.1607 581 120.907 654.141 477.59
180 0 57.1426 11.7951 674 85.859 653.516 476.264
181 0 57.0369 12.9215 737 116.406 653.533 474.004
182 0 59.0804 13.2531 783 115.905 653.461 474.413
183 0 60.0454 14.2059 853 114.359 653.263 473.3
184 0 62.1732 13.3176 828 116.178 652.85 474.258
185 0 64.1367 12.5981 808 119.615 653.04 471.569
186 0 65.1483 12.909 841 119.017 653.376 470.218
187 0 68.1992 12.918 881 119.717 653.175 469.961
188 0 72.1757 13.6057 982 117.888 653.593 468.696
189 0 73.1524 13.0686 956 120.478 653.024 467.663
190 0 74.1872 12.8998 957 121.174 653.038 465.275
191 0 78.1251 13.0944 1023 118.671 652.94 465.88
192 0 80.218 12.3663 992 120.769 652.736 462.657
193 0 84.1495 12.2877 1034 120.763 652.903 460.47
194 1 42.1029 10.5931 446 117.092 652.496 482.644
195 0 43.01 11.0207 474 118.924 653.302 481.504
196 0 45.1049 11.5952 523 117.046 652.753 480.421
197 0 47.0288 11.7375 552 115.005 653.21 480.404
198 0 47.0614 11.1981 527 117.888 652.844 479.501
199 0 49.0366 11.7871 578 116.365 653.37 480.107
200 0 53.0959 11.9218 633 114.585 652.986 478.839
201 0 54.0605 11.5611 625 116.634 652.966 479.539
202 0 56.0224 12.6735 710 114.692 652.539 476.482
203 0 57.0566 12.6015 719 114.982 653.394 476.679
204 0 60.1348 12.0895 727 116.188 652.916 474.319
205 0 62.143 13.3885 832 113.6 652.887 473.798
206 0 63.0908 12.6326 797 115.563 652.784 474.29
207 0 66.0707 12.7742 844 115.134 652.673 472.558
208 0 69.0963 12.0122 830 115.859 652.304 470.958
209 0 70.0611 12.4463 872 115.756 653.069 470.258
210 0 73.0562 12.8257 937 113.941 653.07 470.234
211 0 75.0932 12.8374 964 114.366 653.312 467.407
212 0 77.0614 13.0026 1002 114.694 652.434 466.551
213 0 79.0418 11.3737 899 117.642 652.633 465.442
214 0 82.1428 12.8435 1055 115.431 653.388 462.187
215 0 86.0955 12.9624 1116 114.903 652.486 460.405
216 0 85.0554 10.84 922 121.79 653.506 458.91
217 0 89.0938 11.8415 1055 122.284 653.703 461.42
218 1 45.0714 10.7163 483 114.545 653.822 481.505
219 0 47.0972 11.7841 555 115.431 652.454 480.359
220 0 49.1363 13.086 643 114.557 651.992 479.709
221 0 49.0626 11.9235 585 117.622 652.817 480.491
222 0 53.079 13.5082 717 113.728 652.081 476.629
223 0 52.1584 13.5932 709 114.949 651.896 477.752
224 0 53.1216 13.3279 708 116.171 652.234 475.031
225 0 55.0871 12.4712 687 118.381 652.055 474.125
226 0 58.2038 13.1263 764 114.982 652.787 474.412
227 0 57.0299 12.7652 728 119.566 652.72 472.63
228 0 59.0739 11.4094 674 122.585 652.34 471.059
229 0 64.1083 12.6037 808 118.567 652.321 469.545
230 0 64.1105 12.728 816 119.602 652.38 468.897
231 0 67.1338 12.5719 844 119.454 652.231 467.152
232 0 68.1204 11.2008 763 123.55 652.109 465.581
233 0 71.1005 12.1377 863 121.097 652.645 463.083
234 0 76.0587 12.6481 962 116.281 653.254 461.979
235 0 76.0279 11.4037 867 122.607 653.166 458.85
236 0 81.1206 12.4383 1009 119.32 652.425 460.469
237 1 41.0302 10.2607 421 118.589 653.268 477.055
238 0 45.059 11.7402 529 117.665 652.416 479.578
239 0 43.0503 10.8942 469 116.484 654.765 482.791
240 0 47.1473 11.0717 522 114.067 653.967 482.897
241 0 47.0787 11.4277 538 115.651 653.974 479.983
242 0 47.0996 10.5521 497 117.648 653.567 481.354
243 0 49.088 10.1858 500 119.008 653.456 478.666
244 0 52.1309 12.6988 662 112.728 653.363 478.746
245 0 52.0815 11.1172 579 117.979 653.461 479.724
246 0 56.0433 13.1684 738 113.131 653.451 475.97
247 0 56.043 10.7774 604 120.341 653.935 476.053
248 0 60.1331 11.8404 712 118.246 653.639 474.986
249 0 62.0386 11.3317 703 119.121 653.666 474.994
250 0 65.0824 12.6455 823 116.459 653.999 471.52
251 0 66.1347 11.8697 785 119.585 654.176 470.299
252 0 68.0573 10.8291 737 121.415 654.071 471.335
253 0 70.05 11.8487 830 118.925 653.629 472.072
254 0 70.05 11.8201 828 136.862 653.632 472.098
255 0 75.0612 11.7904 885 120.841 653.71 468.086
256 0 80.0858 12.3742 991 117.869 652.72 466.62
257 1 42.0203 10.6377 447 118.031 653.322 484.908
258 0 43.039 11.8962 512 115.23 653.564 482.766
259 0 45.0213 11.8166 532 116.445 653.882 482.778
260 0 49.0717 12.1251 595 112.859 654.052 482.175
261 0 50.0577 13.0649 654 120.021 651.685 480.404
262 0 50.0722 12.6417 633 123.041 651.795 478.93
263 0 53.0224 12.6173 669 122.74 651.701 478.525
264 0 54.0468 12.7667 690 122.372 651.829 477.658
265 0 55.0291 12.9568 713 122.201 651.837 477.262
266 0 55.1354 12.3877 683 125.236 653.666 476.53
267 0 58.2377 13.2217 770 122.409 654.277 475.755
268 0 60.2102 13.7518 828 119.115 653.453 475.223
269 0 61.1664 11.1172 680 125.574 653.762 475.291
270 0 63.2316 13.0631 826 121.582 653.64 471.786
271 0 65.1924 11.7498 766 122.671 653.55 472.637
272 0 66.1964 11.9946 794 122.037 654.116 471.084
273 0 72.1678 12.6649 914 119.123 653.58 467.917
274 0 74.161 12.6886 941 118.108 653.084 467.562
275 0 75.3499 11.6258 876 121.535 653.546 465.009
276 0 80.1309 13.0287 1044 115.135 653.387 466.303
277 0 82.245 11.4414 941 119.622 653.27 464.288
278 1 43.0301 10.2254 440 115.711 653.866 482.67
279 0 44.0278 10.1754 448 114.31 653.625 482.183
280 0 47.04 11.756 553 108.759 652.49 481.797
281 0 49.0813 11.104 545 109.857 653.246 480.705
282 0 49.0609 11.8017 579 109.991 651.991 479.223
283 0 52.1247 12.0864 630 108.39 653.103 479.121
284 0 54.0396 12.1207 655 116.353 652.707 477.466
285 0 56.0839 11.5363 647 119.074 652.917 477.447
286 0 57.0201 12.3115 702 117.919 652.999 476.288
287 0 58.1101 10.8243 629 122.471 653.046 474.369
288 0 60.0547 11.7393 705 120.166 652.392 473.848
289 0 64.0811 11.5479 740 118.086 651.896 474.107
290 0 63.0671 11.4957 725 120.386 652.99 471.432
291 0 66.0763 12.1072 800 116.839 653.021 472.408
292 0 69.0687 13.045 901 115.981 652.588 469.408
293 0 71.1349 12.5396 892 118.103 652.693 468.065
294 0 73.0614 12.4553 910 116.989 652.002 468.669
295 0 76.17 12.3933 944 118.538 651.763 465.673
296 0 80.0793 12.2379 980 119.004 652.371 465.498
297 0 82.2098 12.164 1000 119.762 651.684 462.992
298 0 83.1228 12.3312 1025 120.818 652.31 462.111
299 0 87.1752 11.3679 991 122.959 651.338 461.292
300 1 43.0091 10.9512 471 120.008 650.911 481.45
301 0 46.0244 11.7546 541 117.46 650.335 481.556
302 0 48.1052 12.244 589 116.346 651.114 481.523
303 0 49.0205 11.3626 557 119.824 651.302 479.873
304 0 49.022 11.7498 576 115.606 651.5 479.773
305 0 52.0465 12.3351 642 112.519 651.997 479.718
306 0 53.0469 12.1214 643 114.392 653.148 478.31
307 0 54.079 11.7606 636 114.528 653.063 477.472
308 0 56.1074 11.3176 635 116.285 653.011 477.835
309 0 57.1199 10.8018 617 115.194 651.536 477.394
310 0 58.1737 12.0845 703 112.913 652.037 474.979
311 0 60.0604 11.888 714 112.262 652.622 476.101
312 0 61.1052 9.86823 603 117.547 652.937 474.874
313 0 62.0804 11.4207 709 113.879 652.801 473.403
314 0 67.0895 12.1778 817 111.211 652.113 471.903
315 0 68.1135 12.7581 869 111.032 652.203 470.053
316 0 70.1156 12.2797 861 112.001 652.801 470.39
317 0 72.2276 11.9345 862 112.564 651.979 468.479
318 0 74.2183 11.9916 890 112.71 652.045 468.274
319 0 78.1866 11.4086 892 114.684 652.241 466.339
320 0 80.1521 11.2661 903 115.767 652.394 464.684
321 0 83.3409 11.231 936 115.928 652.553 464.791
322 0 86.1557 12.489 1076 114.048 652.12 462.704
323 1 47.0432 11.7552 553 114.465 651.846 482.11
324 0 46.0197 11.6906 538 116.372 651.84 482.37
325 0 49.0824 12.7744 627 112.837 651.888 481.215
326 0 51.2282 13.0592 669 111.389 651.002 479.049
327 0 52.0523 11.3924 593 116.248 652.71 480.951
328 0 53.1076 12.1263 644 116.888 653.854 479.857
329 0 53.0615 11.5149 611 119.295 654.324 480.301
330 0 56.101 11.9784 672 117.531 654.293 478.637
331 0 57.0879 11.6837 667 119.255 654.21 478.002
332 0 58.045 10.9053 633 122.446 653.806 475.976
333 0 61.291 11.682 716 120.103 653.636 475.994
334 0 64.1948 11.7143 752 119.758 654.339 475.235
335 0 64.1302 11.695 750 120.88 653.299 474.265
336 0 65.0399 12.5308 815 119.713 654.426 472.699
337 0 71.082 13.4492 956 114.64 654.179 472.269
338 0 72.0923 13.1221 946 116.087 653.462 470.595
339 0 75.0626 11.7235 880 120.04 654.212 469.574
340 0 77.1183 12.7985 987 116.411 654.024 470.192
341 0 78.1394 10.7116 837 123.419 653.682 468.345
342 0 83.1277 13.2447 1101 117.149 653.533 466.847
343 0 85.0889 12.2343 1041 122.152 652.405 464.304
344 0 87.1103 11.9159 1038 121.934 653.064 462.484
345 1 44.0451 11.2612 496 122.692 655.615 483.585
346 0 46.0515 11.4437 527 119.22 654.393 483.81
347 0 47.1475 12.0473 568 116.842 653.354 481.289
348 0 48.2215 11.6546 562 117.32 654.653 483.03
349 0 48.1444 11.8809 572 119.846 654.692 479.958
350 0 50.0552 12.4263 622 118.066 654.661 480.085
351 0 54.1158 12.8983 698 113.221 654.446 480.516
352 0 54.0875 13.8664 750 111.615 653.877 478.235
353 0 55.0846 12.2902 677 116.939 653.459 478.035
354 0 58.0592 12.2978 714 116.937 652.816 478.927
355 0 57.0552 12.4616 711 118.761 652.499 477.231
356 0 60.0717 11.17 671 120.623 653.365 478.46
357 0 60.0516 12.2894 738 120.316 652.974 475.52
358 0 64.0779 11.5953 743 120.812 654.081 475.404
359 0 65.0705 12.2483 797 120.428 653.788 475.659
360 0 69.0511 12.5125 864 120.023 654.001 473.557
361 0 70.0805 11.9577 838 123.43 653.69 471.421
362 0 74.0833 12.8504 952 120.108 653.872 470.874
363 0 75.1614 12.4665 937 122.22 653.721 469.96
364 0 79.1103 11.958 946 122.311 654.15 468.643
365 0 81.0658 11.7559 953 123.313 653.474 468.14
366 0 86.1117 14.3767 1238 117.119 654.163 463.729
367 0 87.1058 12.6628 1103 122.518 653.677 464.225
368 0 91.1555 12.6268 1151 121.787 653.969 463.67
369 0 94.1709 12.0419 1134 124.57 653.183 459.639
370 0 97.1596 12.0729 1173 125.309 653.789 458.282
371 1 47.0669 10.8994 513 123.255 654.589 485.027
372 0 50.0484 12.2282 612 121.361 654.658 483.062
373 0 50.0489 11.6486 583 130.057 654.024 479.431
374 0 53.0736 12.379 657 120.044 653.744 480.732
375 0 52.091 11.4799 598 126.338 654.92 481.893
376 0 55.0725 12.0024 661 124.277 654.523 480.029
377 0 56.0501 11.9179 668 125.166 654.907 479.587
378 0 59.0776 12.7798 755 123.053 654.858 477.462
379 0 58.1283 11.6123 675 127.058 654.578 477.124
380 0 63.1242 13.4813 851 122.132 654.139 474.873
381 0 65.1103 11.9029 775 125.681 654.114 475.257
382 0 64.0968 12.4031 795 125.927 653.75 473.552
383 0 67.082 12.7307 854 123.789 654.207 472.966
384 0 70.0888 12.6268 885 123.598 654.002 473.258
385 0 72.1847 12.6897 916 124.83 654.475 470.034
386 0 76.0878 13.5896 1034 121.895 654.252 469.261
387 0 78.1023 12.7909 999 123.815 654.638 469.445
388 0 79.0577 12.434 983 125.93 654.692 467.315
389 0 84.1075 13.1974 1110 122.356 654.331 466.097
390 0 85.1203 12.6409 1076 125.445 653.284 466.264
391 0 88.0968 12.6792 1117 126.773 654.259 462.96
392 0 91.19 12.5343 1143 125.843 653.451 463.045
393 0 95.1707 13.7122 1305 124.169 653.67 459.936
394 1 49.0404 11.3172 555 127.429 654.344 482.396
395 0 51.0324 11.7964 602 124.704 654.806 480.965
396 0 53.0356 13.0101 690 122.33 655.081 480.254
397 0 54.0433 13.0266 704 123.263 654.906 478.983
398 0 57.0658 13.2479 756 121.911 654.197 478.91
399 0 55.0431 12.8081 705 125.569 655.352 477.808
400 0 57.0593 12.5133 714 126.129 654.98 477.119
401 0 60.0953 13.7615 827 121.967 654.55 477.434
402 0 62.0603 12.7457 791 126.035 654.51 475.292
403 0 63.0816 12.4125 783 127.682 654.211 474.255
404 0 66.0876 14.617 966 121.864 653.535 472.42
405 0 67.0942 13.8462 929 125.598 654.017 471.604
406 0 69.0621 13.4082 926 126.514 654.42 471.264
407 0 71.0563 14.1015 1002 125.089 653.69 470.183
408 0 75.0865 14.3168 1075 125.018 653.851 470.11
409 0 76.0643 13.0153 990 129.144 653.863 468.809
410 0 80.1575 13.1741 1056 129.339 654.547 466.218
411 0 82.1066 13.8844 1140 127.22 654.054 466.473
412 0 84.1147 14.0879 1185 127.532 653.754 464.748
413 0 88.2165 14.8725 1312 126.856 653.197 462.069
414 0 90.11 13.9718 1259 130.434 653.604 461.725
415 0 90.1343 14.0568 1267 124.796 653.844 460.309
416 0 94.2172 14.2649 1344 126.626 653.937 459.709
417 0 95.1117 13.2686 1262 130.544 654.094 458.06
418 0 99.2069 12.2068 1211 132.749 654.263 459.27
419 0 101.168 12.6621 1281 132.728 653.934 456.143
420 0 108.254 13.533 1465 130.744 654.22 453.815
421 0 109.228 13.2566 1448 133.766 653.436 450.883
422 1 53.0795 11.2096 595 128.82 654.75 479.166
423 0 56.0587 10.5425 591 131.633 654.92 478.135
424 0 58.0627 11.4359 664 131.325 654.881 476.098
425 0 61.0798 11.8861 726 123.948 654.734 476.789
426 0 63.1302 13.0999 827 120.473 654.721 475.507
427 0 62.1295 12.1037 752 125.811 654.741 474.645
428 0 65.1018 11.459 746 126.991 654.582 474.713
429 0 68.1399 11.5644 788 127.801 654.774 470.418
430 0 70.219 11.0796 778 128.558 655.177 470.751
431 0 73.1256 11.6785 854 125.892 655.348 471.441
432 0 75.164 12.3729 930 124.187 654.67 468.071
433 0 79.1673 11.9873 949 123.841 654.67 468.171
434 0 81.145 12.4099 1007 122.998 655.198 467.228
435 0 85.0754 12.3067 1047 123.679 655.506 464.17
436 0 86.1839 12.0904 1042 125.224 655.332 463.059
437 1 48.0689 11.8996 572 120.493 655.196 482.51
438 0 49.0253 11.5043 564 123.353 655.259 481.617
439 0 51.0167 12.0353 614 121.318 654.461 479.619
440 0 52.1222 11.5881 604 122.237 654.442 479.192
441 0 55.073 12.0749 665 119.208 654.961 479.571
442 0 55.0969 12.0878 666 119.653 654.452 478.866
443 0 54.1035 12.1619 658 121.422 654.795 478.711
444 0 58.1703 11.1569 649 123.099 654.268 476.245
445 0 60.1182 11.7934 709 121.313 654.204 475.913
446 0 62.1225 11.751 730 121.571 654.506 474.727
447 0 64.179 11.8107 758 120.859 654.569 473.046
448 0 68.1679 11.6917 797 120.31 654.799 472.01
449 0 70.1315 11.5212 808 119.144 654.755 473.174
450 0 72.1216 13.394 966 116.696 655.11 469.767
451 0 74.198 12.4936 927 118.939 655.142 469.037
452 0 74.1135 9.84976 730 127.042 654.279 467.588
453 0 80.1217 11.5075 922 121.97 655.341 466.529
454 0 82.2204 12.2719 1009 119.408 654.941 464.189
455 0 85.2321 12.4718 1063 119.074 654.892 463.145
456 0 87.1341 11.993 1045 121.205 654.782 461.474
457 0 92.0583 14.0563 1294 114.797 654.539 458.222
458 1 50.1022 11.1372 558 118.489 654.892 481.955
459 0 50.0345 11.4921 575 118.186 654.414 480.87
460 0 54.0078 12.7019 686 112.3 654.191 481.541
461 0 54.0067 11.9615 646 115.991 654.717 480.028
462 0 54.0067 11.8874 642 136.746 654.713 480.042
463 0 55.0699 11.0768 610 120.426 653.995 480.272
464 0 58.0392 11.8196 686 118.074 654.421 478.62
465 0 56.0428 10.5812 593 124.607 653.916 477.103
466 0 61.0907 10.7872 659 122.522 653.106 476.684
467 0 61.0398 12.0086 733 120.428 653.819 474.877
468 0 64.0852 11.5003 737 121.947 653.536 474.267
469 0 64.0705 11.7059 750 121.855 652.768 474.899
470 0 66.0388 10.6453 703 125.445 652.863 471.973
471 0 68.0516 11.7558 800 122.339 653.351 472.619
472 0 71.0982 12.0397 856 122.529 652.605 469.056
473 0 73.1776 11.233 822 123.596 653.359 471.738
474 0 76.1341 12.8983 982 119.358 653.723 468.624
475 0 77.172 11.6623 900 121.514 653.877 469.172
476 0 81.1257 11.3034 917 119.619 653.239 465.077
477 0 84.143 11.5993 976 124.648 652.827 463.822
478 0 86.0971 10.3836 894 118.938 654.261 462.028
479 0 92.1349 10.8211 997 117.885 654.763 462.042
480 1 45.052 11.9861 540 115.217 654.763 482.472
481 0 49.0153 11.1802 548 118.173 654.044 481.491
482 0 49.0657 11.9024 584 112.241 653.969 480.598
483 0 50.1306 11.5897 581 112.945 655.355 480.909
484 0 52.0771 12.8847 671 111.823 652.885 478.645
485 0 51.0348 10.9729 560 118.071 652.225 478.782
486 0 53.054 12.3648 656 112.032 652.015 479.181
487 0 56.0511 11.4895 644 113.084 653.047 479.037
488 0 55.0265 10.6494 586 116.263 652.877 477.387
489 0 57.0542 11.0597 631 115.268 653.666 477.477
490 0 57.1273 11.7107 669 114.407 653.976 476.552
491 0 60.0434 11.4417 687 113.675 654.377 474.198
492 0 62.0842 12.3059 764 111.902 654.202 472.47
493 0 65.0947 12.9043 840 109.011 654.466 473.613
494 0 67.0893 12.3716 830 109.871 654.382 471.733
495 0 70.1423 11.5622 811 111.032 654.848 470.404
496 0 71.0931 12.5751 894 108.265 654.678 469.715
497 0 73.1083 11.9138 871 109.925 654.33 467.145
498 0 78.0794 12.039 940 107.559 654.022 465.632
499 0 80.1157 12.2573 982 106.51 654.694 465.329
500 0 84.2329 12.4417 1048 108.793 654.844 462.834
501 0 87.1536 12.8165 1117 118.586 655.328 459.87
502 0 89.034 11.5237 1026 122.061 654.872 461.372
503 0 90.036 10.9067 982 124.516 654.845 459.445
504 0 94.0734 11.7143 1102 123.796 655.356 456.858
505 1 51.0167 11.6629 595 119.897 655.334 479.817
506 0 52.1019 10.6138 553 122.244 655.094 477.539
507 0 53.0984 11.3751 604 120.829 655.598 477.437
508 0 55.0614 11.3691 626 116.232 655.032 478.192
509 0 56.028 10.816 606 118.332 654.614 477.752
510 0 60.0725 12.2186 734 113.546 654.36 475.832
511 0 61.0365 12.8448 784 113.014 654.58 474.983
512 0 63.1335 12.9567 818 113.193 654.418 473.109
513 0 65.1047 11.566 753 116.224 654.072 473.522
514 0 66.1582 11.6539 771 119.246 654.654 469.69
515 0 70.0993 12.6392 886 117.212 654.072 469.525
516 0 72.0993 12.3302 889 117.863 653.314 468.993
517 0 75.0969 11.9978 901 119.834 654.209 467.744
518 0 79.1293 12.9156 1022 116.17 653.754 466.807
519 0 81.1746 12.6025 1023 117.088 653.213 465.501
520 0 84.1263 12.196 1026 119.077 653.423 462.931
521 0 88.2394 11.8881 1049 128.823 652.251 460.325
522 0 91.2229 11.598 1058 127.112 651.967 458.377
523 0 94.2397 11.6617 1099 121.285 654.126 458.143
524 0 97.2384 10.7262 1043 124.058 653.559 457.407
525 0 100.158 11.2322 1125 127.217 652.97 455.359
526 1 50.0094 12.3577 618 120.966 652.374 479.1
527 0 52.0386 12.3754 644 119.053 650.776 479.95
528 0 53.0753 11.983 636 120.995 651.549 478.079
529 0 53.0409 12.7637 677 119.671 651.71 477.241
530 0 57.0385 12.3951 707 119.487 652.359 476.44
531 0 57.1029 13.1867 753 117.895 651.935 475.441
532 0 60.0386 13.1915 792 116.742 651.987 476.078
533 0 61.0294 12.961 791 118.224 651.925 475.877
534 0 60.0349 11.4767 689 123.914 651.771 473.84
535 0 66.0195 13.0113 859 117.313 651.967 472.695
536 0 67.0733 12.2403 821 120.77 651.948 470.877
537 0 68.047 11.9035 810 121.28 652.352 471.878
538 0 70.0562 11.919 835 122.402 652.531 470.801
539 0 73.092 11.9302 872 121.43 652.079 470.368
540 0 77.1313 14.3003 1103 115.953 652.535 467.521
541 0 78.1654 12.3968 969 121.925 652.357 466.347
542 0 79.0741 13.4557 1064 120.234 652.453 464.676
543 0 83.167 12.024 1000 122.755 652.313 463.849
544 0 86.0896 14.4268 1242 117.002 652.977 462.532
545 1 43.1282 9.62248 415 120.971 653.055 483.651
546 0 45.0132 11.3522 511 112.91 652.669 484.309
547 0 47.1398 11.6462 549 112.324 654.889 482.02
548 0 47.042 12.4569 586 110.708 654.708 481.234
549 0 49.1304 13.2912 653 108.534 655.632 481.651
550 0 49.1445 11.7409 577 112.522 655.317 483.341
551 0 48.0731 11.5865 557 115.569 654.713 481.465
552 0 53.0787 13.5648 720 108.138 654.935 480.593
553 0 54.0818 12.4626 674 111.895 654.678 480.733
554 0 57.0724 12.6331 721 109.882 654.494 477.882
555 0 55.0352 12.283 676 113.043 653.717 477.096
556 0 57.0778 11.5982 662 114.881 654.699 478.9
557 0 59.0723 13.0518 771 112.581 654.148 477.562
558 0 60.0825 12.383 744 114.027 653.892 475.664
559 0 64.0737 12.7665 818 112.581 653.548 475.636
560 0 64.1916 12.6029 809 114.546 654.433 473.92
561 0 67.0934 13.116 880 113.465 654.13 473.814
562 0 68.0696 12.8692 876 114.602 652.46 471.152
563 0 71.1089 13.402 953 112.609 653.061 471.717
564 0 73.0489 13.402 979 113.797 653.234 469.9
565 0 74.0712 12.677 939 117.51 652.593 469.958
566 0 77.123 13.083 1009 115.402 652.744 470.032
567 0 81.069 12.7176 1031 116.247 652.482 465.656
568 0 81.1386 11.9302 968 118.944 653.396 466.328
569 0 86.1177 12.6339 1088 115.976 652.753 464.969
570 0 89.1017 13.4116 1195 114.836 653.11 461.397
571 0 91.1147 12.2593 1117 117.732 652.791 462.066
572 0 94.1545 12.7025 1196 115.75 653.165 460.747
573 0 97.0984 11.6377 1130 118.877 653.467 458.808
574 0 100.173 13.0774 1310 115.992 653.95 456.95
575 1 52.1154 11.6856 609 115.583 654.979 478.437
576 0 55.1397 12.6588 698 111.819 655.123 475.835
577 0 56.0946 12.2293 686 112.156 654.487 478.124
578 0 58.0332 12.3722 718 111.442 654.329 477.402
579 0 61.1224 12.5486 767 109.778 654.121 477.02
580 0 63.1111 12.7711 806 108.378 654.423 475.269
581 0 63.1452 10.848 685 113.479 653.999 474.142
582 0 66.0658 12.0637 797 109.674 654.079 472.29
583 0 69.1 12.2865 849 108.269 654.061 472.542
584 0 71.1562 12.9012 918 107.541 654.621 470.556
585 0 74.1016 13.0092 964 107.563 654.295 470.35
586 0 75.1255 11.7803 885 112.121 654.558 469.249
587 0 77.1538 11.3539 876 114.749 654.627 466.686
588 0 80.1728 13.3961 1074 109.966 653.744 465.342
589 0 80.0955 11.4863 920 117.387 654.682 465.384
590 0 86.166 13.3231 1148 112.977 653.682 462.931
591 1 45.0689 12.6695 571 113.977 654.76 482.694
592 0 46.0645 11.6358 536 118.493 655.319 482.95
593 0 49.0275 13.2171 648 114.306 655.664 481.674
594 0 49.057 13.3926 657 113.21 655.484 483.073
595 0 50.0536 13.8451 693 112.781 654.86 481.436
596 0 52.0569 13.4276 699 114.119 655.299 480.647
597 0 53.0533 13.5336 718 113.611 654.472 481.237
598 0 54.0467 13.2848 718 115.621 654.011 479.315
599 0 55.1511 12.1847 672 119.738 654.626 478.502
600 0 56.1554 12.3942 696 120.382 654.796 477.51
601 0 59.1227 13.1083 775 118.099 654.77 476.217
602 0 60.1164 12.3261 741 121.868 654.143 475.271
603 0 64.1002 13.1045 840 117.965 653.68 474.042
604 0 66.118 14.217 940 114.707 654.508 474.073
605 0 68.065 13.0904 891 117.826 655.262 472.461
606 0 71.1182 13.7799 980 116.585 654.638 471.033
607 0 73.1399 12.3599 904 121.111 654.274 468.134
608 0 76.1007 13.2587 1009 118.418 654.164 467.615
609 0 81.1115 12.2794 996 117.566 654.51 467.418
610 0 85.141 14.3174 1219 111.909 653.5 464.683
611 0 88.1045 13.6315 1201 114.802 654.152 464.361
612 0 90.0914 12.5317 1129 117.412 654.199 462.291
613 1 48.0953 11.5812 557 117.429 653.424 484.059
614 0 49.0199 10.7507 527 119.269 652.541 482.148
615 0 49.0266 10.7697 528 119.699 652.377 481.604
616 0 53.0442 12.7818 678 112.024 652.792 480.777
617 0 53.0287 12.8798 683 113.769 652.758 480.963
618 0 55.0662 11.8585 653 116.562 654.414 479.023
619 0 58.1325 13.3144 774 112.933 653.331 479.795
620 0 58.0791 12.4141 721 117.265 653.288 477.241
621 0 59.1241 12.2793 726 116.93 653.353 477.168
622 0 62.104 12.6401 785 115.977 652.679 475.948
623 0 64.069 12.4241 796 115.898 653.432 474.906
624 0 65.0816 12.6918 826 115.538 652.657 473.124
625 0 68.1487 12.8249 874 113.784 652.897 474.213
626 0 70.1737 12.9963 912 114.281 653.15 470.708
627 0 74.0668 13.2043 978 113.312 652.629 471.643
628 0 76.0931 12.9052 982 113.933 652.736 469.742
629 0 78.0911 13.5611 1059 113.086 652.704 466.946
630 0 81.0666 13.3964 1086 113.273 652.854 467.016
631 0 85.1382 13.5662 1155 112.393 651.899 466.05
632 0 86.0471 12.9464 1114 116.122 652.306 464.745
633 0 90.0961 12.9639 1168 115.545 652.877 463.687
634 0 92.1004 12.7578 1175 118.222 652.529 458.696
635 1 49.0303 11.4011 559 124.175 651.962 480.406
636 0 49.0645 11.5358 566 114.216 653.866 476.938
637 0 51.0195 12.3286 629 114.596 654.401 474.474
638 0 53.0186 10.5623 560 118.225 653.125 474.534
639 0 53.0472 9.7649 518 123.208 654.181 471.064
640 0 56.0807 12.0006 673 119.104 653.837 478.707
641 0 59.0845 11.9828 708 117.727 652.538 476.795
642 0 60.0657 12.1201 728 118.532 652.642 477.196
643 0 63.1584 11.9382 754 117.66 652.378 476.718
644 0 64.0577 12.3639 792 118.095 653.597 474.177
645 0 66.0411 12.5982 832 117.362 653.38 471.613
646 0 71.1338 11.626 827 116.41 652.45 469.869
647 0 73.1417 11.9631 875 115.048 652.631 470.35
648 0 76.0324 13.1523 1000 112.943 653.019 469.374
649 0 79.0904 12.2518 969 114.713 652.034 467.834
650 0 82.1574 13.3646 1098 111.117 652.319 466.393
651 0 87.1691 13.078 1140 110.423 652.49 463.688
652 0 90.0934 11.7545 1059 113.638 652.144 463.51
653 0 93.2261 9.78267 912 87.5987 652.918 456.931
654 1 49.0822 11.4502 562 107.598 652.964 481.306
655 0 50.1903 10.7192 538 111.351 652.219 480.294
656 0 53.1566 11.8141 628 110.326 654.551 480.26
657 0 54.2721 12.6584 687 110.865 654.102 479.553
658 0 55.1429 11.4793 633 113.171 653.234 478.483
659 0 57.0969 12.1022 691 112.606 653.266 476.071
660 0 59.1095 12.333 729 112.108 653.222 474.309
661 0 62.1499 11.9389 742 115.422 653.491 475.236
662 0 63.129 13.512 853 111.12 653.036 475.218
663 0 66.1599 12.1675 805 113.544 652.873 473.051
664 0 65.1788 10.8318 706 114.578 653.643 471.46
665 0 68.1591 12.0307 820 107.351 652.672 469.259
666 0 70.1539 14.0263 984 78.9959 653.459 468.698
667 0 75.1441 12.842 965 106.857 652.456 466.97
668 0 78.1613 12.487 976 108.421 652.557 465.552
669 0 80.1743 11.8991 954 109.208 653.385 467.136
670 0 82.1087 11.0707 909 112.202 652.52 463.871
671 0 85.1119 12.3602 1052 109.71 652.732 463.384
672 0 89.102 12.1546 1083 109.393 652.709 463.494
673 1 45.126 10.3488 467 106.188 654.009 485.118
674 0 46.1324 11.5537 533 106.201 653.612 484.137
675 0 49.106 10.9762 539 107.124 654.382 483
676 0 49.2566 11.3284 558 109.172 653.867 482.199
677 0 51.0144 11.9182 608 109.018 653.462 480.988
678 0 53.0191 13.2971 705 105.379 653.426 480.952
679 0 53.1571 10.9299 581 112.114 653.738 480.339
680 0 56.0727 12.6621 710 107.877 653.206 479.389
681 0 60.1252 13.6715 822 76.9513 652.517 480.258
682 0 59.0731 13.6949 809 106.894 652.515 477.86
683 0 59.0275 13.0617 771 109.979 653.018 475.646
684 0 62.067 11.9387 741 113.318 653.453 474.796
685 0 63.0717 11.59 731 114.58 653.876 474.988
686 0 68.1161 13.6972 933 109.719 653.095 475.167
687 0 69.2043 12.6148 873 114.362 653.475 469.355
688 0 70.1761 12.2264 858 116.244 652.728 468.721
689 0 71.0718 11.819 840 117.942 652.698 466.537
690 0 75.1032 12.4495 935 116.088 652.805 466.201
691 0 76.1409 12.5031 952 117.404 653.123 466.247
692 0 78.1173 12.558 981 114.532 652.877 467.171
693 0 83.1878 12.6942 1056 114.093 653.127 465.54
694 0 82.1297 11.4453 940 117.893 652.963 463.971
695 0 87.1241 12.6945 1106 116.528 653.001 463.996
696 0 88.1237 12.7548 1124 117.781 652.047 462.415
697 0 92.2235 12.1986 1125 119.256 651.7 458.316
698 0 94.1899 12.4536 1173 118.277 651.886 457.487
699 0 99.2605 12.6838 1259 117.902 651.874 455.026
700 0 105.283 12.2052 1285 116.77 652.02 454.262
701 1 55.2044 11.5752 639 108.588 652.493 475.05
702 0 57.2236 12.2852 703 106.881 652.701 473.256
703 0 60.0867 11.8495 712 106.697 653.73 475.91
704 0 60.0411 12.3749 743 106.577 653.973 472.95
705 0 62.0627 11.3111 702 109.717 654.235 472.712
706 0 65.2444 12.3382 805 107.164 653.292 470.25
707 0 65.13 11.5308 751 110.617 653.996 471.923
708 0 69.1535 13.2459 916 107.331 653.769 468.279
709 0 72.0725 12.5845 907 108.552 653.341 468.225
710 0 73.1684 12.7514 933 108.783 653.348 467.983
711 0 76.129 11.0208 839 112.872 653.555 466.346
712 0 78.2226 12.9502 1013 109.257 653.327 462.079
713 0 83.1777 14.1985 1181 106.533 653.233 461.417
714 0 84.1534 12.6436 1064 110.535 654.168 460.886
715 0 86.1006 12.2996 1059 113.916 653.463 459.08
716 0 90.156 11.8794 1071 116.129 653.031 457.14
717 0 95.1076 13.2902 1264 112.624 653.149 457.004
718 0 95.1468 12.6436 1203 114.253 652.244 455.791
719 0 101.571 13.0451 1325 113.555 652.359 452.06
720 1 49.203 9.9181 488 110.391 651.889 476.396
721 0 51.0506 11.6551 595 107.755 653.593 478.733
722 0 53.056 11.5538 613 107.964 652.786 477.346
723 0 54.0952 10.3151 558 110.441 655.568 478.294
724 0 55.0851 10.8378 597 110.109 654.538 476.281
725 0 57.0732 10.7756 615 109.096 653.72 476.784
726 0 59.1136 11.1988 662 108.606 653.701 475.264
727 0 61.0202 11.9632 730 106.958 653.771 475.312
728 0 64.1305 11.6637 748 108.274 654.047 471.682
729 0 65.1192 12.1623 792 107.537 653.701 473.452
730 0 66.169 12.0902 800 108.871 654.105 472.1
731 0 67.2891 11.9782 806 111.139 654.148 470.21
732 0 70.2182 12.1906 856 110.534 653.688 469.664
733 0 72.1381 11.8523 855 112.718 653.743 467.498
734 0 75.1723 12.9702 975 109.841 653.576 469.771
735 0 77.2092 13.0036 1004 111.342 653.685 468.089
736 0 78.231 11.3766 890 116.383 653.047 466.613
737 0 82.1205 12.6034 1035 111.532 653.033 465.38
738 0 86.111 12.3445 1063 111.681 653.312 464.143
739 0 86.0702 12.1296 1044 107.66 652.591 463.801
740 0 87.1135 12.1336 1057 109.09 652.508 461.395
741 0 92.367 11.9307 1102 110.396 653.226 459.668
742 0 94.1823 11.9662 1127 111.008 652.966 455.605
743 0 94.0878 10.8622 1022 114.464 652.882 456.218
744 0 100.282 12.4947 1253 111.218 653.579 454.416
745 1 53.1698 10.3066 548 105.385 654.839 477.055
746 0 54.1791 10.8529 588 106.238 654.583 477.898
747 0 56.2977 11.4925 647 111.66 654.308 478.578
748 0 58.3201 12.1056 706 110.119 653.156 476.109
749 0 61.2868 13.9671 856 106.847 653.194 474.755
750 0 60.2174 12.4383 749 111.924 652.884 473.316
751 0 63.1872 12.4867 789 110.477 653.414 474.754
752 0 66.199 11.1482 738 112.778 653.461 474.318
753 0 68.2886 11.1878 764 111.191 653.89 475.153
754 0 70.1944 12.1235 851 111.606 653.818 472.423
755 0 72.1435 12.7662 921 110.246 652.834 470.744
756 0 75.1874 13.2336 995 110.163 653.604 468.537
757 0 76.1768 12.3003 937 115.224 653.313 467.593
758 0 80.2836 12.8295 1030 113.447 652.616 468.519
759 0 82.1744 13.3375 1096 111.049 653.527 468.82
760 0 80.1543 11.0412 885 120.818 652.933 463.368
761 0 85.184 11.9154 1015 116.563 652.877 463.306
762 0 91.1038 12.9193 1177 114.558 652.438 463.2
763 1 49.1656 10.5358 518 116.533 651.871 482.801
764 0 50.2695 11.1599 561 117.594 651.745 479.626
765 0 53.1221 12.6125 670 113.825 651.764 479.722
766 0 53.0228 12.9378 686 115.541 651.93 480.598
767 0 54.1326 12.1369 657 118.067 651.613 480.128
768 0 57.038 12.1323 692 118.303 651.897 479.763
769 0 57.0581 12.0579 688 119.468 652.483 478.984
770 0 60.0519 13.1053 787 116.527 652.961 477.806
771 0 62.0591 13.89 862 114.983 653.121 477.028
772 0 63.0687 11.9235 752 122.729 653.342 476.957
773 0 66.0867 12.0145 794 121.882 653.438 476.008
774 0 66.1026 12.1629 804 122.703 653.573 475.746
775 0 69.0439 12.1372 838 123.111 653.375 473.451
776 0 73.1357 12.9896 950 120.423 652.941 472.186
777 0 75.0372 13.7132 1029 119.972 653.873 471.209
778 0 77.2088 13.2886 1026 122.519 654.401 469.06
779 0 79.1464 12.9633 1026 124.393 654.073 467.922
780 0 82.066 13.7694 1130 123.154 653.704 467.294
781 0 84.1059 12.9123 1086 125.992 653.908 466.65
782 0 86.1909 12.7972 1103 126.775 653.491 467.1
783 0 90.0774 12.7668 1150 128.842 653.814 464.031
784 1 50.2214 12.644 635 128.094 653.531 482.515
785 0 50.1702 12.6569 635 129.028 654.039 483.02
786 0 52.306 12.3313 645 130.209 654.636 481.161
787 0 52.2805 13.1406 687 128.141 653.278 482.121
788 0 54.168 12.5535 680 129.996 653.74 480.471
789 0 53.2228 11.7243 624 134.09 654.053 480.436
790 0 57.1331 11.9895 685 131.032 653.501 480.255
791 0 59.2062 13.1912 781 128.329 653.58 478.461
792 0 60.1192 13.6728 822 127.269 653.434 477.483
793 0 61.1631 13.0471 798 130.123 653.128 476.565
794 0 63.1306 13.0365 823 130.363 653.149 476.426
795 0 65.0542 13.1275 854 132.011 654.2 474.63
796 0 68.1418 13.9709 952 128.651 653.288 474.358
797 0 70.0812 14.2263 997 128.518 652.851 472.411
798 0 72.1085 13.452 970 132.732 653.52 470.892
799 0 71.0503 13.4693 957 126.158 653.602 473.183
800 0 75.0444 13.3521 1002 126.947 653.439 472.366
801 0 78.1137 12.597 984 129.275 653.342 470.321
802 0 82.17 13.0461 1072 126.456 653.278 471.104
803 0 84.0854 13.403 1127 127.823 653.469 466.308
804 0 84.124 11.483 966 132.498 653.812 467.916
805 0 89.164 13.1443 1172 121.385 652.687 465.239
806 1 46.0922 11.8024 544 125.39 652.923 481.169
807 0 50.0267 11.8137 591 124.362 653.298 483.416
808 0 51.0601 12.2209 624 127.854 653.04 482.176
809 0 53.0638 12.2117 648 127.215 654.178 480.225
810 0 53.0528 13.0059 690 126.258 653.467 479.1
811 0 55.0697 13.2196 728 125.505 654.341 478.423
812 0 57.0509 13.8473 790 123.481 653.423 480.149
813 0 60.0745 13.4666 809 122.52 652.509 479.262
814 0 62.0322 13.8315 858 123.08 653.296 476.974
815 0 62.0334 12.2837 762 127.358 653.323 476.978
816 0 66.0592 12.9429 855 123.404 653.87 476.103
817 0 69.0538 12.9175 892 124.349 653.232 473.786
818 0 72.0936 13.6767 986 123.111 653.324 473.184
819 0 72.0611 13.5996 980 123.668 653.403 472.199
820 0 75.0808 13.1325 986 125.769 653.03 470.867
821 0 78.1412 13.6164 1064 124.301 653.176 469.189
822 0 80.1759 13.1336 1053 127.265 653.574 467.404
823 0 83.0447 13.5228 1123 123.751 653.738 466.108
824 0 86.0618 12.8047 1102 125.714 652.73 465.022
825 0 87.1299 12.9806 1131 128.213 653.523 464.314
826 1 47.101 12.0167 566 127.763 653.051 485.514
827 0 49.0128 12.8334 629 125.734 653.108 484.234
828 0 50.0374 12.9104 646 126.19 653.525 484.526
829 0 51.0301 12.4044 633 128.93 653.231 483.18
830 0 52.0981 12.9179 673 129.34 653.059 480.545
831 0 56.0695 12.3597 693 129.027 652.95 480.877
832 0 55.0311 12.6656 697 130.407 652.189 479.809
833 0 57.0804 12.7539 728 130.948 653.511 479.044
834 0 60.1288 12.7393 766 130.121 652.756 478.198
835 0 63.0566 14.0033 883 126.805 653.631 475.779
836 0 63.0759 14.2527 899 126.334 653.279 475.941
837 0 65.0656 13.4019 872 127.378 652.97 474.462
838 0 68.0608 12.9443 881 128.213 652.683 474.299
839 0 72.0388 12.4239 895 129.031 652.687 471.74
840 0 73.0276 12.1872 890 130.381 653.399 472.321
841 0 78.0789 13.2942 1038 126.507 652.531 468.392
842 0 80.0535 13.3536 1069 127.515 652.907 468.634
843 1 42.0201 12.0181 505 132.224 652.034 486.186
844 0 45.0091 11.3311 510 130.231 651.524 485.492
845 0 45.046 11.4106 514 128.959 651.337 485.537
846 0 48.0179 12.3287 592 125.571 650.951 484.826
847 0 50.0157 13.2558 663 122.244 651.406 482.541
848 0 50.057 12.9453 648 125.023 651.029 481.699
849 0 52.0584 13.0815 681 122.966 650.808 479.84
850 0 54.0149 12.1633 657 124.956 651.753 480.467
851 0 56.0453 12.6505 709 122.719 651.257 479.231
852 0 58.1161 13.1633 765 121.722 651.298 477.997
853 0 60.1229 13.2396 796 122.133 651.548 475.991
854 0 61.0319 12.813 782 122.968 652.34 476.615
855 0 64.1151 12.7739 819 122.75 651.322 474.403
856 0 68.0888 13.0418 888 121.17 651.669 474.365
857 0 68.089 13.5998 926 121.123 652.003 473.664
858 0 72.1098 13.8261 997 120.343 651.784 471.242
859 0 74.1657 13.0249 966 123.494 651.672 470.032
860 0 75.1196 13.4053 1007 125.119 651.731 469.587
861 0 78.1175 12.7884 999 127.59 651.862 467.094
862 0 80.2861 12.8914 1035 127.338 652.812 466.559
863 0 80.4652 12.7011 1022 128.406 651.595 463.383
864 0 86.3598 13.3395 1152 125.279 652.133 461.736
865 0 88.4044 12.8274 1134 127.229 652.306 460.198
866 0 91.383 12.1029 1106 129.227 652.259 460
867 1 48.297 10.8495 524 123.628 653.534 482.294
868 0 49.2316 10.9889 541 126.641 652.248 480.244
869 0 52.3177 12.5388 656 120.819 653.334 479.3
870 0 53.2434 11.6446 620 123.873 652.556 480.337
871 0 56.2663 11.5877 652 122.701 653.228 479.182
872 0 56.3781 11.3697 641 124.139 652.948 478.445
873 0 57.2414 11.6699 668 123.575 653.193 478.225
874 0 59.2809 12.2299 725 122.192 654.054 476.159
875 0 63.2452 12.5859 796 118.41 653.573 475.386
876 0 65.2144 11.4085 744 120.763 653.789 475.106
877 0 66.2322 11.4597 759 120.219 653.535 474.654
878 0 68.1949 11.6724 796 120.819 653.73 471.795
879 0 70.2159 11.7637 826 119.496 652.741 472.597
880 0 72.1943 11.6491 841 120.696 653.144 469.333
881 0 73.2973 10.9417 802 122.105 652.834 467.581
882 0 78.343 12.0496 944 118.812 652.488 467.514
883 0 78.2453 10.8633 850 121.68 652.538 467.665
884 0 83.3746 11.5743 965 119.588 653.431 465.18
885 0 84.3632 10.5141 887 123.362 652.683 462.559
886 0 84.3919 11.1859 944 132.32 651.629 461.561
887 1 45.1102 11.0618 499 113.966 652.715 483.437
888 0 47.2692 12.6086 596 112.775 652.98 481.366
889 0 48.0957 11.893 572 115.6 652.869 481.621
890 0 50.1625 12.7785 641 110.694 652.844 481.064
891 0 50.0401 11.4708 574 117.861 654.826 478.728
892 0 53.0334 12.9352 686 112.305 654.657 480.864
893 0 53.1148 11.0704 588 118.753 653.83 480.158
894 0 53.048 11.0654 587 112.448 652.359 480.709
895 0 56.1023 12.2455 687 108.444 652.314 478.69
896 0 57.0436 11.237 641 112.044 652.435 477.491
897 0 58.0901 12.5495 729 110.615 652.27 475.925
898 0 59.1073 11.3015 668 113.597 652.264 476.356
899 0 63.0907 11.7133 739 111.851 652.072 475.563
900 0 65.0932 10.4619 681 113.73 651.912 476.313
901 0 67.071 11.5102 772 112.543 652.058 473.992
902 0 69.1377 11.224 776 113.593 652.289 472.604
903 0 72.187 12.3568 892 111.157 652.138 470.869
904 0 75.0528 12.0982 908 112.334 652.65 468.968
905 0 76.1443 12.0167 915 112.694 652.486 469.575
906 0 78.1634 10.5548 825 116.053 652.475 468.61
907 0 82.0802 11.6471 956 113.806 652.269 465.878
908 1 44.0408 11.1715 492 111.843 651.965 485.372
909 0 43.0599 11.9368 514 110.411 651.665 485.319
910 0 45.0387 10.924 492 110.415 652.439 485.533
911 0 46.0812 12.3044 567 107.665 652.474 482.672
912 0 47.1357 11.4775 541 109.712 651.996 483.229
913 0 51.0758 13.4114 685 103.953 651.235 480.669
914 0 50.1055 13.0724 655 107.394 651.577 481.368
915 0 54.1023 12.6797 686 109.987 654.421 482.937
916 0 52.1402 12.5815 656 113.86 653.657 480.527
917 0 54.0819 12.666 685 113.771 653.778 478.801
918 0 55.1433 12.531 691 116.645 653.317 479.316
919 0 55.0941 12.4151 684 117.105 654.095 480.082
920 0 59.0851 12.8459 759 115.534 653.325 478.918
921 0 59.0717 12.6118 745 117.915 653.766 476.886
922 0 61.0507 13.3496 815 117 653.833 476.265
923 0 62.0843 11.9515 742 121.554 653.784 476.315
924 0 65.1216 12.3769 806 119.711 653.452 474.452
925 0 69.0913 12.2591 847 118.831 653.66 473.791
926 0 71.0874 14.236 1012 114.671 652.687 471.003
927 0 71.0986 12.1803 866 120.136 652.971 471.323
928 0 75.0453 12.4458 934 119.086 653.393 467.472
929 0 78.0637 13.4762 1052 115.867 653.65 468.754
930 0 82.0961 14.2029 1166 113.977 653.367 467.018
931 0 84.0441 13.8261 1162 116.12 653.2 465.114
932 1 45.061 11.2514 507 118.107 653.467 486.012
933 0 45.072 12.8905 581 116.723 653.955 484.375
934 0 46.0701 13.6314 628 114.403 653.79 482.03
935 0 48.0922 13.2038 635 108.893 653.504 482.932
936 0 49.1365 12.2312 601 113.424 654.125 482.057
937 0 49.1431 12.7586 627 111.907 653.581 482.341
938 0 50.0722 12.4021 621 113.849 653.663 479.159
939 0 52.0875 12.6326 658 111.912 653.757 481.271
940 0 54.1668 12.4246 673 112.263 653.935 480.119
941 0 54.1618 11.761 637 116.915 653.567 477.488
942 0 55.0827 12.1272 668 115.349 653.275 478.819
943 0 58.1203 12.4913 726 113.959 653.343 477.04
944 0 61.1173 13.4332 821 110.711 653.519 475.529
945 0 61.1017 12.1764 744 114.606 653.391 475.59
946 0 65.1539 12.6163 822 112.676 653.169 474.018
947 0 67.1577 12.5674 844 111.111 653.603 474.331
948 0 67.2023 11.4579 770 115.735 653.249 472.138
949 0 72.1012 12.9124 931 110.999 653.552 471.347
950 0 73.1106 12.4059 907 112.439 653.35 469.182
951 0 76.2611 10.8574 828 109.513 653.523 467.132
952 0 77.1761 11.2859 871 109.918 652.772 464.063
953 0 82.1064 11.7409 964 108.475 652.574 463.975
954 1 49.1214 10.5453 518 106.591 653.805 480.512
955 0 49.0456 11.5607 567 111.138 653.741 481.721
956 0 52.09 11.4225 595 105.16 653.818 478.726
957 0 51.1233 11.3256 579 113.48 653.314 480.344
958 0 53.119 12.8203 681 110.463 653.561 478.753
959 0 58.1364 12.5911 732 107.128 653.27 480.738
960 0 56.2031 11.8143 664 111.895 652.517 477.715
961 0 60.1076 12.9601 779 107.99 652.738 476.86
962 0 61.0626 12.0696 737 109.982 652.635 475.984
963 0 63.1124 12.9293 816 108.597 652.915 475.512
964 0 63.1491 11.8925 751 113.567 653.622 472.945
965 0 66.0643 12.4878 825 111.937 652.982 473.394
966 0 68.1167 13.0364 888 110.092 653.032 472.958
967 0 71.1518 14.4902 1031 107.085 653.083 470.706
968 0 74.119 13.9101 1031 110.607 652.832 469.661
969 0 74.1726 12.6462 938 114.748 652.436 468.699
970 0 77.1597 13.1416 1014 113.274 653.132 466.322
971 0 80.193 13.1682 1056 113.212 652.355 466.806
972 0 84.1721 13.7932 1161 111.349 652.258 463.457
973 1 43.028 12.0387 518 112.975 653.344 484.973
974 0 47.0422 11.7767 554 112.722 653.202 484.585
975 0 44.0458 11.5561 509 117.279 653.446 482.481
976 0 44.1193 11.9222 526 111.224 651.983 482.728
977 0 49.0927 11.8144 580 109.876 652.297 481.912
978 0 49.1566 12.2466 602 109.837 652.319 481.538
979 0 51.0436 13.7529 702 106.828 652.477 479.718
980 0 52.0299 12.2622 638 111.29 652.346 480.045
981 0 54.068 13.8899 751 107.016 652.162 479.73
982 0 53.0832 12.471 662 113.06 652.627 478.476
983 0 56.1523 12.7688 717 112.536 651.886 476.423
984 0 58.0857 12.9292 751 111.493 653.18 477.644
985 0 59.0708 12.7136 751 113.395 652.9 476.961
986 0 59.0787 12.2041 721 115.485 652.73 475.384
987 0 62.0895 11.5962 720 116.969 652.612 474.712
988 0 63.0656 12.8913 813 115.597 653.224 473.672
989 0 67.0634 13.107 879 114.46 653.447 472.681
990 0 69.0969 13.7488 950 113.761 653.45 470.811
991 0 70.0838 14.1117 989 113.987 653.7 471.211
992 0 74.072 12.4068 919 118.533 653.567 468.485
993 0 76.1326 13.3057 1013 117.773 654.073 468.332
994 0 76.091 12.3405 939 120.961 653.047 467.626
995 0 81.1333 13.5086 1096 118.693 653.036 464.176
996 0 85.1031 13.7128 1167 118.457 652.191 463.941
997 1 45.1537 11.7377 530 122.906 651.998 482.868
998 0 45.0197 12.6167 568 120.505 652.037 482.275
999 0 47.0646 12.5997 593 119.622 653.786 482.371
1000 0 48.0812 12.3333 593 120.678 654.373 483.455
1001 0 50.0312 12.9919 650 119.398 653.635 481.222
1002 0 50.0248 12.094 605 123.084 653.54 481.056
1003 0 53.095 13.2216 702 118.521 653.5 479.142
1004 0 54.0676 14.1675 766 116.723 652.915 478.288
1005 0 55.0339 12.6831 698 121.877 653.656 478.553
1006 0 57.0634 12.7052 725 121.274 653.268 477.062
1007 0 59.0834 13.1678 778 119.731 653.28 476.216
1008 0 63.0293 13.3906 844 117.158 652.592 475.589
1009 0 62.165 12.4829 776 121.18 654.148 474.501
1010 0 66.0532 12.5959 832 120.004 652.65 473.903
1011 0 69.0599 13.3942 925 117.634 652.808 472.375
1012 0 69.1134 12.371 855 122.788 652.661 472.082
1013 0 73.0645 13.6181 995 119.051 653.086 470.042
1014 0 74.049 12.5187 927 122.594 652.507 470.241
1015 0 76.1357 13.1476 1001 122.273 652.992 466.878
1016 0 80.0966 13.8458 1109 119.341 652.497 465.86
1017 0 81.1065 13.1432 1066 121.983 653.211 462.449
1018 0 86.1649 13.3001 1146 120.65 652.33 462.711
1019 0 88.0655 13.8079 1216 118.765 653.112 461.573
1020 0 91.2678 13.0386 1190 121.297 653.056 459.983
1021 0 94.2154 13.5222 1274 119.368 653.133 459.94
1022 0 97.2286 13.6688 1329 119.581 652.698 454.865
1023 1 53.1078 11.3919 605 123.78 653.436 477.398
1024 0 54.2306 11.8568 643 125.154 652.63 474.652
1025 0 55.2123 11.7909 651 124.806 652.992 474.562
1026 0 58.0688 12.1408 705 123.567 651.035 474.008
1027 0 61.151 12.7063 777 123.893 651.522 474.974
1028 0 62.1247 11.831 735 128.121 651.611 473.576
1029 0 65.1161 11.9325 777 127.324 651.596 472.692
1030 0 68.2077 13.7521 938 122.187 651.882 471.093
1031 0 70.2559 12.5826 884 125.571 652.372 471.669
1032 0 72.367 12.9617 938 125.757 653.204 468.302
1033 0 75.4625 12.5493 947 127.016 652.867 465.84
1034 0 78.263 12.2152 956 126.695 653.235 464.528
1035 0 77.1332 11.5255 889 122.656 653.431 465.215
1036 0 81.1067 12.1445 985 122.402 652.152 463.554
1037 0 86.1933 12.4024 1069 121.05 651.945 463.789
1038 1 46.0489 9.94595 458 119.524 651.622 484.458
1039 0 48.0532 11.5081 553 117.42 651.81 482.665
1040 0 50.0939 11.8178 592 116.941 653.025 481.079
1041 0 52.0256 13.2242 688 113.269 652.312 480.16
1042 0 54.0366 13.3428 721 112.657 652.186 479.23
1043 0 52.0998 10.9405 570 122.116 651.879 478.474
1044 0 55.063 12.3495 680 117.776 651.637 478.126
1045 0 58.1639 12.0178 699 118.023 651.956 477.595
1046 0 58.0567 11.5577 671 120.303 651.541 476.098
1047 0 60.0856 11.3338 681 120.994 652.166 477.979
1048 0 61.0778 12.2303 747 119.655 652.07 477.264
1049 0 63.0517 11.324 714 121.714 652.083 475.06
1050 0 64.0344 11.119 712 121.131 651.872 475.107
1051 0 69.0575 11.7728 813 118.78 651.374 473.455
1052 0 69.0741 11.9003 822 119.601 651.629 472.584
1053 0 71.0345 11.1777 794 120.128 651.741 471.505
1054 0 74.0543 11.6671 864 117.24 651.786 472.008
1055 0 77.0648 10.4977 809 119.786 651.994 469.379
1056 0 80.1354 11.1312 892 119.693 651.985 466.943
1057 1 42.031 11.5867 487 119.117 651.593 485.715
1058 0 44.084 12.2267 539 116.406 651.13 484.143
1059 0 45.1036 12.1276 547 111.896 651.837 486.011
1060 0 44.0556 11.6217 512 114.967 652.107 485.742
1061 0 46.131 12.4862 576 113.302 651.785 483.585
1062 0 49.0907 12.4667 612 110.766 651.864 482.395
1063 0 52.0938 12.3815 645 110.701 651.988 481.71
1064 0 52.0361 12.6643 659 110.977 652.287 481.115
1065 0 52.04 12.548 653 112.715 651.789 480.629
1066 0 54.0218 14.2905 772 108.165 652.083 479.681
1067 0 57.0684 13.072 746 110.346 652.083 478.804
1068 0 54.0814 12.4812 675 122.058 653.793 479.499
1069 0 57.0977 12.61 720 120.607 653.797 478.994
1070 0 58.2171 13.8963 809 118.927 653.225 476.64
1071 0 60.1553 13.0496 785 120.433 654.208 478.01
1072 0 61.1271 11.9096 728 125.44 653.963 476.418
1073 0 65.0878 12.4754 812 122.281 653.8 475.759
1074 0 67.0856 13.1027 879 121.733 653.668 473.059
1075 0 69.1184 12.0084 830 125.727 653.354 470.964
1076 0 70.1281 12.0494 845 125.955 653.628 471.265
1077 0 73.1791 13.4601 985 122.237 652.923 470.064
1078 0 76.1541 13.0131 991 124.675 652.665 468.877
1079 0 78.1651 12.9725 1014 125.494 653.059 467.015
1080 0 84.3759 13.9021 1173 121.564 652.736 464.952
1081 1 43.3683 10.5838 459 126.34 651.667 481.656
1082 0 44.1202 11.1967 494 121.599 653.02 481.3
1083 0 44.027 10.6071 467 120.18 653.805 480.109
1084 0 46.0275 11.2541 518 117.998 652.774 478.239
1085 0 49.0595 11.4147 560 109.22 653.011 477.452
1086 0 51.0517 10.6755 545 108.339 652.785 476.958
1087 0 51.0735 10.9842 561 108.239 652.761 477.027
1088 0 53.0749 11.9831 636 107.113 652.236 474.686
1089 0 52.0843 12.2686 639 108.128 652.793 475.637
1090 0 54.0602 11.8017 638 109.506 653.176 474.221
1091 0 54.0854 10.9826 594 112.168 652.872 473.497
1092 0 57.0688 10.3209 589 113.19 652.514 472.924
1093 0 59.1466 11.649 689 110.634 651.97 470.647
1094 0 61.0628 12.0695 737 110.251 651.961 469.431
1095 0 62.0873 11.1939 695 112.118 651.839 468.85
1096 0 64.0662 12.0188 770 109.981 652.635 468.096
1097 0 68.0543 11.5643 787 110.654 652.78 467.74
1098 0 69.0958 12.3307 852 109.894 652.724 464.885
1099 0 71.062 12.1021 860 110.549 653.093 464.028
1100 0 73.1772 10.6454 779 113.48 652.815 462.574
1101 0 78.1157 12.6607 989 108.946 653.203 460.827
1102 0 80.0411 13.2307 1059 107.829 652.438 461.345
1103 0 83.0433 12.8487 1067 108.549 652.57 459.739
1104 0 86.1313 13.1311 1131 108.25 651.92 457.888
1105 0 90.0772 13.333 1201 107.794 652.405 455.416
1106 0 93.1324 13.4754 1255 108.276 652.328 455.835
1107 1 50.0436 10.9305 547 110.899 652.782 475.452
1108 0 52.0544 10.8348 564 112.223 652.741 474.897
1109 0 52.0422 11.4138 594 111.185 653.404 476.082
1110 0 55.0331 10.5391 580 103.217 653.428 474.991
1111 0 58.0716 12.4846 725 106.037 653.171 479.379
1112 0 58.0661 12.348 717 107.817 653.562 477.01
1113 0 61.1021 13.4693 823 104.642 653.478 473.994
1114 0 64.0896 13.9024 891 102.611 653.955 473.025
1115 0 66.0658 14.0769 930 101.953 653.784 474.197
1116 0 68.0654 11.9738 815 107.128 652.649 471.499
1117 0 71.0659 13.0302 926 104.172 652.309 471.015
1118 0 71.122 12.1481 864 106.917 653.266 469.164
1119 0 76.0901 12.9189 983 104.248 653.537 469.671
1120 0 78.1444 13.6158 1064 103.435 652.951 466.19
1121 0 80.2436 12.163 976 106.578 653.643 463.902
1122 0 84.0901 12.6412 1063 104.932 653.527 461.931
1123 0 88.1561 13.2833 1171 103.681 653.254 460.249
1124 0 89.1156 11.1653 995 108.506 651.401 458.742
1125 1 46.0208 8.51789 392 111.554 650.921 482.995
1126 0 48.0304 11.9508 574 104.174 651.162 481.448
1127 0 51.0321 12.0317 614 100.798 651.332 480.407
1128 0 51.0761 11.9821 612 101.768 650.691 478.291
1129 0 52.0894 11.7874 614 102.259 650.941 477.954
1130 0 54.0546 12.1729 658 101.784 650.649 478.403
1131 0 55.0534 12.5696 692 101.087 650.348 477.96
1132 0 57.0931 10.1238 578 105.965 650.619 478.595
1133 0 58.1216 11.9061 692 103.792 650.46 476.864
1134 0 60.0807 13.4819 810 101.451 650.91 473.911
1135 0 62.0855 11.5486 717 105.802 651.209 474.764
1136 0 65.0971 13.1649 857 101.924 650.917 473.922
1137 0 66.1348 12.5199 828 104.971 651.358 472.254
1138 0 70.0905 14.3386 1005 99.4955 651.004 472.877
1139 0 71.0895 12.7586 907 102.942 651.12 471.773
1140 0 73.0506 12.156 888 105.358 651.785 471.083
1141 0 75.2082 12.7247 957 104.482 652.002 468.851
1142 0 79.146 12.837 1016 104.745 651.726 468.544
1143 0 82.1328 13.1494 1080 104.281 651.173 465.296
1144 1 41.233 11.8837 490 108.373 651.114 486.286
1145 0 43.1909 11.5071 497 107.431 650.831 481.871
1146 0 47.0618 12.0905 569 106.965 650.137 485.541
1147 0 44.0267 11.493 506 111.551 650.472 483.294
1148 0 47.0399 12.0749 568 109.025 649.991 483.114
1149 0 47.0308 11.7795 554 112.229 649.875 480.991
1150 0 51.0425 13.6161 695 105.875 649.44 481.351
1151 0 53.016 12.5811 667 108.967 649.543 479.994
1152 0 55.2102 13.0411 720 107.711 650.121 478.957
1153 0 56.0668 11.9322 669 110.009 649.759 478.541
1154 0 56.0581 13.2006 740 107.772 649.795 477.228
1155 0 59.0933 13.1148 775 106.844 649.357 477.782
1156 0 59.1116 12.0958 715 110.088 650.343 476.997
1157 0 61.0091 12.2769 749 108.869 649.248 476.673
1158 0 65.1084 12.4101 808 108.03 649.813 475.155
1159 0 66.0725 12.7436 842 108.656 649.449 472.882
1160 0 69.07 12.6249 872 109.893 649.705 471.995
1161 0 71.0464 13.3997 952 110.497 649.161 469.117
1162 0 73.0798 13.0405 953 110.523 649.443 469.957
1163 0 76.0846 13.0776 995 110.248 649.647 469.406
1164 0 77.0694 11.2107 864 115.499 649.622 467.531
1165 0 80.0855 11.5002 921 114.708 650.158 466.75
1166 1 42.0855 10.9064 459 112.094 650.518 485.778
1167 0 42.072 12.0983 509 106.067 653.149 484.418
1168 0 42.1355 11.463 483 106.894 652.828 485.13
1169 0 45.0896 13.3068 600 101.98 652.128 483.792
1170 0 47.1074 11.5269 543 106.32 652.392 483.991
1171 0 47.1102 13.2031 622 103.783 653.133 482.399
1172 0 48.0984 11.9754 576 106.997 652.479 482.528
1173 0 50.1282 12.5279 628 105.225 651.799 481.748
1174 0 52.0451 12.7389 663 105.513 652.186 479.839
1175 0 53.1175 12.4253 660 105.9 652 480.908
1176 0 55.0713 12.3295 679 106.913 652.212 478.869
1177 0 55.2016 13.1699 727 106.78 653.018 477.458
1178 0 56.081 13.427 753 107.262 652.6 476.438
1179 0 59.1096 13.365 790 106.935 652.176 476.506
1180 0 62.226 12.6635 788 107.923 652.1 474.464
1181 0 64.2006 12.8504 825 109.697 652.541 474.605
1182 0 66.1514 14.1342 935 108.358 652.352 471.472
1183 0 68.341 14.0179 958 108.963 651.999 469.659
1184 0 69.0865 12.9693 896 112.988 652.17 470.107
1185 0 73.1739 13.5704 993 111.579 651.9 468.554
1186 0 77.098 14.3843 1109 108.687 651.888 467.719
1187 1 39.0154 10.9444 427 116.649 652.597 485.304
1188 0 39.0491 12.0361 470 113.023 652.585 486.557
1189 0 42.0621 11.483 483 107.843 652.731 483.625
1190 0 44.0951 11.4752 506 115.593 652.897 485.395
1191 0 47.0265 11.9082 560 115.014 653.034 484.145
1192 0 47.0276 13.0774 615 113.182 652.883 482.322
1193 0 48.0842 13.2892 639 113.322 652.768 481.998
1194 0 50.1308 11.7892 591 115.988 653.208 482.973
1195 0 50.1021 13.7918 691 113.599 653.34 480.347
1196 0 52.0932 12.7848 666 115.566 653.048 480.586
1197 0 54.1375 12.4498 674 115.515 652.825 480.828
1198 0 55.083 13.3798 737 115.047 652.573 479.242
1199 0 55.0643 13.9655 769 115.678 652.268 477.666
1200 0 56.1969 13.2036 742 118.787 652.012 477.643
1201 0 58.1894 13.0264 758 118.269 651.872 478.402
1202 0 60.0717 13.1676 791 118.377 652.531 475.101
1203 0 61.1347 14.1818 867 115.898 652.084 475.099
1204 0 65.124 13.4359 875 116.866 651.765 475.271
1205 0 66.1896 14.4887 959 114.842 651.417 474.477
1206 0 67.2915 13.1963 888 119.587 650.978 472.39
1207 0 70.3749 13.9538 982 116.922 650.828 472.777
1208 0 72.3095 13.539 979 118.666 651.572 472.312
1209 0 73.1882 13.8957 1017 119.9 651.126 468.965
1210 0 76.362 12.2836 938 125.21 650.403 466.307
1211 0 78.2673 13.2878 1040 122.825 650.564 464.95
1212 0 80.2403 11.665 936 126.223 651.206 467.185
1213 0 84.284 11.9833 1010 127.164 650.472 463.881
1214 1 43.2328 11.866 513 122.343 651.092 482.246
1215 0 44.1742 11.5452 510 123.365 650.345 481.541
1216 0 46.1582 11.8506 547 113.161 651.874 483.338
1217 0 46.1705 11.5658 534 115.077 652.356 482.075
1218 0 48.1919 12.0975 583 117.986 652.029 480.911
1219 0 50.1772 12.6153 633 116.866 651.186 480.613
1220 0 49.0863 12.3049 604 119.445 651.872 479.725
1221 0 53.1069 12.3148 654 117.856 652.18 479.442
1222 0 54.108 13.011 704 116.453 652.227 477.852
1223 0 56.1861 12.69 713 116.919 651.648 477.107
1224 0 58.133 12.3854 720 117.682 652.119 475.257
1225 0 61.1617 13.6033 832 114.2 652.292 474.168
1226 0 64.138 13.1591 844 110.139 652.706 473.246
1227 0 66.1487 12.487 826 111.389 652.634 471.283
1228 0 69.1485 12.9576 896 109.29 652.461 471.588
1229 0 71.223 12.2994 876 111.231 652.556 470.205
1230 0 72.2127 11.8954 859 112.492 651.892 468.078
1231 0 75.1759 11.2004 842 112.748 652.207 466.73
1232 0 79.1137 11.1106 879 112.231 652.026 465.162
1233 0 82.2003 11.5815 952 110.622 651.629 465.003
1234 0 84.1757 9.55145 804 115.111 652.429 462.92
1235 0 88.1098 10.5891 933 114.397 651.855 461.576
1236 1 47.0641 12.0262 566 103.267 653.034 482.592
1237 0 45.1834 10.0922 456 109.73 652.489 480.265
1238 0 49.1029 10.366 509 107.774 652.483 479.169
1239 0 49.1326 11.1128 546 109.181 652.923 479.225
1240 0 48.038 9.13861 439 113.954 651.982 479.665
1241 0 52.1195 10.0154 522 111.546 652.345 478.274
1242 0 54.0296 10.8644 587 108.884 652.516 479.325
1243 0 56.0896 10.9646 615 103.128 651.823 474.735
1244 0 59.0778 11.8488 700 101.321 651.877 474.969
1245 0 60.1098 11.2461 676 103.04 652.021 473.639
1246 0 61.0412 11.1892 683 103.51 652.408 473.777
1247 0 61.0698 10.2833 628 107.503 651.962 471.164
1248 0 65.0448 10.1315 659 107.197 652.498 468.249
1249 0 68.0707 9.0641 617 109.141 652.097 469.848
1250 0 71.1723 11.1841 796 104.529 651.428 469.108
1251 0 74.1649 11.6093 861 104.121 650.098 467.089
1252 0 76.1502 11.9763 912 104.237 650.974 466.269
1253 0 78.1612 11.1308 870 105.963 651.055 464.902
1254 0 80.1355 11.4556 918 107.073 651.156 462.9
1255 0 83.1025 10.6495 885 109.299 651.814 462.464
1256 0 86.067 11.2006 964 108.459 651.511 462.203
1257 0 89.1299 11.3318 1010 108.789 651.42 459.879
1258 0 94.186 12.6452 1191 106.997 651.788 459.563
1259 0 96.2091 10.7578 1035 113.321 651.592 455.885
1260 1 49.1301 11.439 562 104.847 652.221 481.416
1261 0 49.0892 10.0429 493 108.446 652.128 480.335
1262 0 53.2052 12.386 659 99.2276 650.017 477.986
1263 0 54.1502 11.3758 616 103.942 650.882 477.768
1264 0 56.1119 11.0315 619 104.816 651.36 475.922
1265 0 56.1939 10.8197 608 105.998 650.347 476.734
1266 0 61.1869 12.1595 744 102.372 650.801 476.336
1267 0 61.0893 11.1476 681 106.455 651.032 475.551
1268 0 64.0708 11.6278 745 106.001 650.832 473.401
1269 0 66.1182 11.9332 789 105.343 650.825 473.577
1270 0 66.0904 9.18439 607 112.333 650.338 473.466
1271 0 70.064 12.4315 871 105.364 650.612 469.764
1272 0 71.0585 10.2029 725 111.261 651.204 468.68
1273 0 73.139 9.69387 709 112.35 651.646 470.732
1274 0 76.2678 11.3547 866 109.069 651.852 467.841
1275 0 80.1273 12.555 1006 106.055 651.655 466.086
1276 0 81.1331 10.3287 838 112.526 651.736 465.147
1277 0 85.1434 13.1073 1116 106.881 651.482 462.478
1278 0 86.0941 11.5455 994 110.869 651.799 464.231
1279 0 91.2472 11.1017 1013 112.865 652.095 458.693
1280 1 49.1505 11.068 544 109.667 651.531 480.344
1281 0 51.1832 11.3514 581 109.726 652.515 477.671
1282 0 50.1776 11.2401 564 107.917 653.037 476.784
1283 0 54.1889 11.6814 633 105.801 653.562 476.833
1284 0 55.12 11.738 647 107.155 653.022 476.363
1285 0 56.0671 12.1462 681 106.564 653.558 476.179
1286 0 58.1393 11.5757 673 109.021 652.756 474.447
1287 0 60.1856 12.4116 747 107.483 652.284 474.308
1288 0 62.0797 12.2584 761 107.532 652.715 474.519
1289 0 63.1177 12.2786 775 107.043 651.817 474.359
1290 0 67.1988 13.4526 904 104.375 652.585 467.278
1291 0 68.145 12.2533 835 107.216 652.628 469.266
1292 0 71.2354 12.0586 859 107.807 652.62 469.538
1293 0 74.1764 12.5781 933 106.772 653.071 467.213
1294 0 77.1059 10.4143 803 110.668 652.235 467.487
1295 0 79.147 12.4578 986 106.698 653.045 462.475
1296 0 81.1943 11.8851 965 108.19 652.482 464.172
1297 0 84.1297 10.6502 896 106.015 650.964 459.961
1298 0 86.0616 11.2013 964 105.637 650.231 457.909
1299 0 91.0834 10.7045 975 105.848 650.518 457.427
1300 1 46.0557 9.8142 452 100.6 650.314 478.838
1301 0 46.0979 10.5428 486 103.87 650.554 480.381
1302 0 49.1013 11.629 571 105.345 649.482 479.107
1303 0 50.0827 11.4211 572 106.009 649.858 477.885
1304 0 51.1503 12.3167 630 104.668 650.592 477.398
1305 0 55.1492 12.6928 700 101.87 650.4 479.03
1306 0 52.0522 10.6816 556 109.93 649.921 477.013
1307 0 55.0872 11.4546 631 107.119 649.792 477.494
1308 0 58.0494 12.7995 743 104.128 650.184 475.74
1309 0 59.0324 11.9765 707 107.407 650.627 474.953
1310 0 62.0399 12.637 784 104.982 650.177 474.071
1311 0 64.0594 11.8484 759 106.78 650.094 472.813
1312 0 65.1648 12.7062 828 106.033 650.725 470.058
1313 0 68.1288 12.1241 826 106.512 650.763 470.622
1314 0 72.1705 12.8861 930 104.711 652.36 471.094
1315 0 73.197 13.3612 978 106.379 652.399 467.937
1316 0 76.1316 13.9101 1059 108.377 652.785 468.208
1317 0 77.1034 13.5792 1047 110.071 652.191 467.782
1318 0 80.0837 12.874 1031 113.223 652.953 465.95
1319 0 81.0689 12.8779 1044 115.462 652.893 462.931
1320 0 85.095 13.0795 1113 115.59 653.259 463.12
1321 0 90.3501 13.4588 1216 112.291 651.853 462.05
1322 0 90.1912 12.6398 1140 118.555 651.931 458.746
1323 0 93.1809 13.8762 1293 115.61 652.239 456.552
1324 1 50.1235 10.0951 506 120.259 652.597 480.846
1325 0 51.0368 10.5806 540 118.176 652.272 480.831
1326 0 52.1021 10.7481 560 122.098 652.162 478.227
1327 0 56.0842 13.7472 771 113.689 652.665 478.023
1328 0 56.0876 13.0689 733 117.109 652.793 476.898
1329 0 57.1184 13.4457 768 116.276 653.23 475.992
1330 0 59.0702 12.4598 736 119.501 653.42 475.042
1331 0 60.025 12.5781 755 117.829 652.923 476.372
1332 0 61.0704 12.0844 738 121.133 653.42 474.948
1333 0 65.0487 12.2216 795 120.692 652.741 472.558
1334 0 66.1024 12.647 836 119.293 652.929 472.167
1335 0 70.118 13.8909 974 114.991 652.514 470.503
1336 0 71.1685 13.5172 962 117.172 652.386 468.129
1337 0 72.1105 13.7428 991 117.7 652.6 466.858
1338 0 76.1808 13.6255 1038 116.028 652.555 466.676
1339 0 79.1237 14.1171 1117 114.553 651.652 465.414
1340 0 80.0959 12.6973 1017 120.253 652.395 463.216
1341 0 83.0866 12.4689 1036 119.814 653.051 463.466
1342 0 86.1417 13.0831 1127 118.892 652.158 460.216
1343 0 90.2011 13.3479 1204 117.958 652.429 460.301
1344 0 91.1069 13.0396 1188 117.887 651.95 457.89
1345 0 96.2164 13.1267 1263 117.39 652.063 455.307
1346 1 51.1569 11.2204 574 112.739 653.044 479.728
1347 0 52.0537 11.296 588 113.393 652.779 479.206
1348 0 53.1339 11.2546 598 116.87 651.308 477.14
1349 0 55.1642 12.49 689 112.361 650.428 479.65
1350 0 54.1002 11.0166 596 118.674 649.564 476.262
1351 0 58.0618 12.5384 728 114.6 650.727 476.661
1352 0 59.107 12.3843 732 115.16 650.514 476.245
1353 0 61.0755 12.5419 766 114.437 650.654 473.753
1354 0 64.1568 11.9707 768 115.486 650.521 474.435
1355 0 66.1499 13.6055 900 111.323 649.912 473.679
1356 0 67.182 13.1732 885 115.123 649.338 469.2
1357 0 69.0793 12.8403 887 115.027 650.036 471.976
1358 0 71.1389 13.2136 940 115.311 649.835 468.55
1359 0 73.0996 12.7224 930 119.115 650.063 467.067
1360 0 76.0967 13.5617 1032 116.176 649.72 466.018
1361 0 78.1148 13.6722 1068 116.694 649.864 464.785
1362 0 80.1841 13.4815 1081 117.01 649.565 464.364
1363 0 81.0917 12.9236 1048 119.106 649.267 463.897
1364 0 85.0384 14.1466 1203 115.776 649.668 464.091
1365 0 88.1528 13.7035 1208 116.057 649.261 459.924
1366 0 91.0932 14.5785 1328 114.029 650.047 458.616
1367 0 94.2762 13.7787 1299 115.737 650.016 455.223
1368 1 46.1055 10.7796 497 116.763 649.626 480.767
1369 0 48.1478 11.2985 544 111.612 649.983 479.057
1370 0 51.1537 12.8045 655 105.74 650.278 479.702
1371 0 53.0493 12.1962 647 106.498 650.402 480.606
1372 0 52.1887 12.2823 641 108.448 650.326 477.688
1373 0 56.1823 12.9222 726 105.388 650.898 477.767
1374 0 57.0956 11.9624 683 108.447 650.59 477.608
1375 0 59.1317 12.9372 765 106.308 650.526 474.105
1376 0 60.1639 11.0365 664 110.306 650.33 475.524
1377 0 63.1691 11.9362 754 108.35 650.576 474.121
1378 0 64.1018 11.5441 740 109.843 649.888 473.459
1379 0 66.0521 11.5515 763 110.107 650.119 473.186
1380 0 69.2144 12.3674 856 108.922 649.819 470.648
1381 0 71.1198 12.1766 866 109.775 650.471 469.538
1382 0 74.077 13.486 999 106.565 650.595 468.475
1383 0 75.2146 12.9496 974 108.647 650.394 467.433
1384 0 78.1581 12.1676 951 111.003 650.83 467.382
1385 0 79.1802 13.2104 1046 109.044 650.353 467.603
1386 0 83.2179 13.4226 1117 108.062 650.867 464.312
1387 0 85.0546 12.0628 1026 109.966 650.833 466.515
1388 0 88.0946 11.8849 1047 107.928 651.967 458.763
1389 1 44.0546 10.2827 453 106.256 652.044 481.64
1390 0 46.059 10.3129 475 106.069 651.853 481.299
1391 0 50.101 10.7583 539 106.866 651.772 480.759
1392 0 49.0606 11.2514 552 105.533 651.355 478.632
1393 0 51.1268 11.5595 591 106.081 651.523 477.655
1394 0 52.0328 9.99369 520 109.252 651.079 478.937
1395 0 54.0971 11.7566 636 109.862 650.843 478.744
1396 0 57.0543 12.7598 728 106.984 650.896 477.757
1397 0 58.0936 11.447 665 110.523 650.701 476.794
1398 0 61.109 12.1913 745 107.587 651.04 474.909
1399 0 62.3445 11.6129 724 108.783 650.605 474.12
1400 0 65.1504 13.0314 849 105.253 650.641 473.494
1401 0 66.0592 12.9278 854 107.063 651.61 471.562
1402 0 69.1079 11.4314 790 109.435 650.832 471.399
1403 0 74.2015 12.2774 911 105.591 651.081 469.2
1404 0 75.172 11.8262 889 108.1 650.271 466.591
1405 0 79.2066 13.1428 1041 105.974 650.762 465.19
1406 0 80.2112 11.6941 938 110.539 651.023 466.898
1407 1 40.0492 10.4122 417 111.424 650.609 485.734
1408 0 44.175 11.1149 491 110.413 651.54 483.963
1409 0 42.1672 10.7192 452 112.25 650.23 482.958
1410 0 46.1025 11.4744 529 111.025 649.427 479.696
1411 0 47.0493 12.4975 588 109.733 650.862 480.711
1412 0 48.1438 11.2579 542 113.782 651.851 478.459
1413 0 51.1143 12.4818 638 110.392 651.466 477.292
1414 0 52.1288 12.0279 627 111.088 650.831 477.762
1415 0 55.1799 13.5375 747 106.906 651.134 475.598
1416 0 53.0862 11.8487 629 113.086 650.642 476.733
1417 0 58.1193 13.8336 804 108.522 651.828 473.629
1418 0 58.0622 11.8321 687 114.109 651.371 473.777
1419 0 61.0826 12.9333 790 112.222 650.532 471.534
1420 0 63.2324 12.6043 797 113.709 649.994 470.098
1421 0 64.1268 12.2258 784 116.356 649.747 468.431
1422 0 68.1856 13.0526 890 113.633 650.17 469.103
1423 0 70.2208 13.3579 938 113.588 650.629 467.789
1424 0 70.2264 12.7872 898 115.266 650.206 467.641
1425 0 70.1432 12.6741 889 118.492 651.101 465.946
1426 0 73.1138 11.8856 869 119.542 651.804 466.906
1427 0 76.2048 13.07 996 117.692 650.834 464.082
1428 0 77.165 12.5445 968 120.137 651.449 461.638
1429 0 82.1235 13.4554 1105 117.076 651.303 460.997
1430 0 84.1573 13.6055 1145 117.673 651.596 461.195
1431 0 87.1268 14.2666 1243 116.982 651.242 458.204
1432 0 89.2827 13.2612 1184 120.09 651.235 456.906
1433 0 91.1994 13.0483 1190 121.249 650.594 453.899
1434 0 95.2583 12.5238 1193 121.924 650.941 454.363
1435 0 97.1779 12.6057 1225 123.11 651.056 451.656
1436 0 101.29 13.6439 1382 120.842 650.799 448.689
1437 1 53.1622 12.5841 669 120.993 650.1 472.83
1438 0 52.2859 11.7814 616 125.912 650.524 471.979
1439 0 56.1701 12.3019 691 123.511 650.47 469.993
1440 0 57.0997 13.1174 749 123.295 650.92 470.864
1441 0 59.3298 12.9277 767 123.177 652.286 471.096
1442 0 62.1297 12.8602 799 123.471 650.472 471.093
1443 0 63.0597 12.8608 811 123.909 651.052 470.401
1444 0 66.0293 13.4031 885 122.342 649.788 467.041
1445 0 68.0825 13.0871 891 123.586 650.122 468.21
1446 0 70.0831 12.1427 851 126.68 649.687 465.559
1447 0 73.0223 13.626 995 122.999 649.704 466.296
1448 0 73.0175 13.038 952 126.96 649.572 463.124
1449 0 75.0837 12.9589 973 127.547 649.704 463.803
1450 0 79.1246 13.4471 1064 125.376 650.669 462.986
1451 0 79.139 12.5981 997 129.137 650.703 462.887
1452 0 84.0842 13.1297 1104 126.377 650.41 462.873
1453 0 88.1104 14.5386 1281 121.617 650.097 459.315
1454 0 89.0957 12.4697 1111 127.851 650.22 456.573
1455 0 94.0874 12.7222 1197 126.118 650.053 456.351
1456 0 96.1082 12.8501 1235 125.789 650.465 455.799
1457 1 49.0787 10.7175 526 123.086 649.449 479.291
1458 0 51.0899 11.8027 603 119.915 649.977 477.577
1459 0 53.1611 11.9824 637 117.98 649.818 476.578
1460 0 55.0919 12.2704 676 118.093 650.016 475.3
1461 0 57.0425 13.6039 776 114.57 650.644 475.169
1462 0 58.0667 12.6234 733 117.115 651.175 475.673
1463 0 60.0502 12.8393 771 116.733 651.053 473.894
1464 0 61.082 14.1613 865 114.024 650.087 472.38
1465 0 64.1201 13.3032 853 115.355 650.14 471.771
1466 0 66.0696 12.4566 823 117.264 650.587 471.786
1467 0 68.0526 12.3581 841 117.768 650.271 470.551
1468 0 69.1219 13.3388 922 115.808 650.523 470.233
1469 0 70.0737 12.3442 865 118.482 649.902 469.303
1470 0 73.1044 13.255 969 116.324 650.635 467.446
1471 0 75.077 13.2131 992 116.089 650.59 467.595
1472 0 77.1039 13.1381 1013 116.925 650.525 464.878
1473 0 80.2708 12.9188 1037 117.028 650.254 463.634
1474 0 83.0904 13.1423 1092 117.744 650.766 461.566
1475 0 86.1281 13.9211 1199 122.922 650.916 462.18
1476 0 89.1349 13.5637 1209 123.835 650.878 460.274
1477 0 91.1488 13.7358 1252 123.678 650.291 457.822
1478 1 50.0304 11.3331 567 123.802 650.739 480.206
1479 0 50.0494 12.9472 648 120.616 651.054 478.772
1480 0 54.022 12.9947 702 115.993 650.104 479.071
1481 0 55.0394 12.0822 665 118.851 649.985 478.262
1482 0 56.1306 12.756 716 114.993 650.641 477.378
1483 0 59.0604 12.5296 740 114.974 650.368 476.316
1484 0 60.1397 13.1028 788 113.131 650.835 475.581
1485 0 61.239 12.6717 776 114.82 650.532 472.924
1486 0 63.0905 13.3301 841 112.977 650.491 473.886
1487 0 66.0701 13.077 864 114.157 650.262 473.894
1488 0 68.0444 12.2126 831 116.678 649.627 469.586
1489 0 69.0964 12.7937 884 117.449 650.003 470.226
1490 0 73.0844 14.4901 1059 111.951 650.208 469.574
1491 0 75.0792 13.4924 1013 115.863 650.525 469.253
1492 0 77.1137 14.3814 1109 116.13 650.769 467.296
1493 0 80.1934 14.6895 1178 118.03 650.019 466.995
1494 0 83.21 14.7578 1228 118.309 650.072 466.765
1495 0 85.1429 13.9178 1185 122.37 649.986 465.598
1496 1 44.0232 12.4707 549 125.423 649.863 485.271
1497 0 46.0298 13.5564 624 123.522 649.524 483.957
1498 0 46.0865 13.1058 604 127.061 649.747 484.238
1499 0 48.0536 12.7774 614 128.484 650.226 483.137
1500 0 49.1219 13.436 660 128.161 649.859 481.412
1501 0 51.2768 13.5734 696 126.994 649.527 481.296
1502 0 53.0927 13.9944 743 125.634 650.062 479.962
1503 0 54.1182 13.9509 755 120.379 651.115 477.155
1504 0 53.0576 13.3817 710 124.766 651.751 477.7
1505 0 54.0662 13.3355 721 127.433 650.849 478.409
1506 0 57.0911 15.0812 861 121.743 650.771 478.059
1507 0 56.0467 12.9535 726 134.464 650.85 477.337
1508 0 58.0412 14.9377 867 128.042 650.98 476.844
1509 0 58.0689 13.3979 778 136.117 650.129 476.297
1510 0 61.0616 14.772 902 129.49 650.15 475.533
1511 0 63.0337 13.8339 872 130.538 650.314 476.829
1512 0 64.1291 13.8627 889 131.466 650.427 473.308
1513 0 67.0875 14.6227 981 127.407 650.561 472.329
1514 0 68.2393 13.6725 933 129.823 650.833 472.196
1515 0 70.2626 13.9619 981 129.396 651.14 471.155
1516 0 71.0847 14.4194 1025 125.839 651.415 470.792
1517 0 74.1357 13.9069 1031 126.758 651.17 471.107
1518 0 76.0707 13.4875 1026 128.39 651.382 471.134
1519 0 76.056 13.753 1046 130.462 650.604 468.492
1520 0 79.0246 12.8694 1017 133.923 650.786 467.291
1521 0 82.1295 13.8562 1138 132.494 650.358 467.391
1522 0 83.1442 14.1682 1178 134.055 650.64 464.871
1523 0 85.1232 15.2485 1298 129.539 649.89 465.636
1524 0 88.1144 14.3336 1263 137.906 650.353 463.42
1525 0 89.1305 13.0932 1167 141.485 650.318 461.54
1526 1 48.1143 12.3456 594 138.03 650.352 482.32
1527 0 49.1913 12.2583 603 141.322 650.239 477.657
1528 0 51.0468 12.9489 661 138.295 651.404 482.8
1529 0 53.0609 12.3443 655 139.968 651.536 482.395
1530 0 54.0388 12.8056 692 138.789 651.163 482.837
1531 0 56.1041 13.1185 736 139.677 650.701 480.308
1532 0 58.0292 13.8896 806 137.494 650.074 479.571
1533 0 61.0736 12.2803 750 142.168 650.697 480.349
1534 0 60.1052 13.4098 806 142.346 650.257 477.292
1535 0 62.0348 12.219 758 147.815 649.979 476.859
1536 0 65.0859 13.7664 896 145.022 650.135 473.48
1537 0 67.0868 13.2664 890 146.622 650.019 474.476
1538 0 71.1607 14.7975 1053 139.997 649.771 473.542
1539 0 72.0795 13.1244 946 146.175 649.715 472.141
1540 0 76.0955 13.5356 1030 142.48 650.18 470.735
1541 0 79.0959 13.6417 1079 138.267 649.466 467.969
1542 0 82.1674 13.7281 1128 138.102 648.324 461.802
1543 1 40.1113 10.5706 424 144.476 648.625 483.894
1544 0 43.1269 11.1763 482 144.027 649.452 481.732
1545 0 45.0989 12.7941 577 139.258 649.052 480.128
1546 0 46.1589 14.0168 647 129.309 648.258 482.654
1547 0 46.0478 13.0951 603 133.768 649.149 483.504
1548 0 48.064 11.88 571 135.392 649.247 483.231
1549 0 49.0294 12.2376 600 133.368 649.312 482.982
1550 0 51.0541 13.5151 690 127.826 648.993 481.012
1551 0 51.0407 12.0296 614 132.226 649.254 480.274
1552 0 54.0431 12.4715 674 128.973 648.773 480.435
1553 0 55.0606 12.6225 695 128.335 648.328 478.435
1554 0 58.0054 12.154 705 127.81 648.789 477.634
1555 0 60.0699 12.2024 733 127.644 648.322 478.03
1556 0 62.1214 12.0088 746 129.273 648.26 473.768
1557 0 64.0704 12.7048 814 126.21 648.645 473.115
1558 0 68.0459 12.4475 847 124.875 648.604 472.543
1559 0 70.0492 12.7482 893 124.717 648.278 472.978
1560 0 70.1367 11.8626 832 127.965 647.994 470.869
1561 0 76.064 12.6735 964 124.507 647.682 469.825
1562 0 78.081 13.153 1027 123.677 648.253 466.538
1563 0 82.0754 12.1352 996 124.85 648.307 466.455
1564 0 84.0838 12.9752 1091 123.123 648.938 465.325
1565 0 88.1817 12.9278 1140 123.004 649.046 461.412
1566 1 46.137 12.3112 568 121.769 650.255 482.849
1567 0 49.093 11.3051 555 122.586 649.897 484.321
1568 0 51.1012 12.6611 647 118.348 650.076 483.051
1569 0 52.0653 12.6956 661 119.475 649.655 481.445
1570 0 52.0659 13.8286 720 118.111 649.724 480.072
1571 0 55.0581 13.5312 745 118.078 649.66 480.276
1572 0 57.0893 12.752 728 120.544 648.871 478.31
1573 0 58.0375 13.922 808 118.377 649.116 476.39
1574 0 60.0197 12.6292 758 121.47 649.156 478.534
1575 0 62.1721 13.8487 861 119.695 648.51 475.592
1576 0 63.0927 13.5039 852 121.379 649.1 475.234
1577 0 67.0397 13.4249 900 121.88 649.064 474.466
1578 0 68.1093 12.9498 882 124.317 648.968 472.898
1579 0 71.0827 12.9286 919 125.282 648.554 471.96
1580 0 75.265 13.6584 1028 123.713 647.112 468.766
1581 0 78.198 14.5656 1139 121.82 647.685 466.594
1582 0 79.1835 14.1317 1119 124.174 647.744 465.228
1583 0 82.2166 13.6104 1119 125.882 648.312 464.148
1584 0 85.1148 14.4863 1233 123.617 647.6 462.406
1585 0 87.2423 13.7777 1202 127.455 647.616 461.115
1586 0 90.2379 14.9937 1353 125.528 648.387 458.988
1587 0 93.1242 15.4632 1440 124.172 648.374 460.761
1588 0 95.3764 14.6367 1396 128.587 647.246 457.822
1589 0 97.2817 13.8258 1345 130.78 647.418 457.226
1590 0 102.166 13.8304 1413 131.565 647.256 455.765
1591 0 105.227 14.8631 1564 128.903 646.744 452.412
1592 1 57.1155 12.3784 707 129.354 647.501 477.878
1593 0 59.1708 11.6443 689 130.469 647.743 477.893
1594 0 61.158 12.5413 767 129.265 647.622 476.192
1595 0 64.0583 13.4409 861 126.023 648.286 476.488
1596 0 67.0803 12.6118 846 128.428 648.409 475.021
1597 0 68.0424 13.4475 915 127.099 648.019 473.457
1598 0 71.0944 13.2078 939 129.135 648.362 472.093
1599 0 73.065 13.7412 1004 128.077 648.383 469.233
1600 0 76.0988 13.0357 992 129.966 648.363 468.65
1601 0 77.1844 12.6062 973 131.989 647.854 468.171
1602 0 81.1552 12.7533 1035 131.236 648.03 466.699
1603 0 85.1247 12.981 1105 130.173 647.633 465.546
1604 0 88.2288 13.6803 1207 130.554 647.327 462.403
1605 0 90.1883 13.494 1217 132.402 647.91 461.854
1606 1 46.0823 11.3058 521 131.428 648.545 482.539
1607 0 48.0666 11.6921 562 129.829 647.874 482.815
1608 0 50.0791 11.9012 596 131.159 648.248 481.008
1609 0 53.07 12.964 688 126.892 648.167 480.82
1610 0 52.102 11.823 616 132.237 648.255 480.521
1611 0 55.243 12.7799 706 128.718 648.001 478.785
1612 0 55.0592 12.314 678 130.391 648.524 478.432
1613 0 58.0914 12.7213 739 128.119 647.533 478.808
1614 0 60.063 12.3037 739 128.97 647.141 477.3
1615 0 64.0209 12.121 776 127.594 648.119 476.959
1616 0 63.1581 11.8275 747 129.348 647.253 474.545
1617 0 68.0337 12.6849 863 125.801 647.293 473.196
1618 0 69.0556 12.6565 874 127 647.677 472.019
1619 0 72.0763 12.2925 886 127.172 647.55 468.894
1620 0 75.0948 12.7306 956 126.172 646.183 468.365
1621 0 79.0761 12.0896 956 127.594 646.958 467.044
1622 0 82.0482 12.7364 1045 126.027 647.112 465.799
1623 0 85.1201 12.8994 1098 125.499 647.08 465.308
1624 0 90.1011 13.2629 1195 123.072 647.059 463.708
1625 0 89.1177 12.5228 1116 127.631 646.772 460.736
1626 1 47.0632 11.7927 555 124.335 647.119 482.966
1627 0 49.3363 12.5465 619 121.525 648.546 478.643
1628 0 50.3663 12.2304 616 123.744 647.734 479.305
1629 0 51.4621 12.825 660 121.917 648.309 481.126
1630 0 54.383 13.221 719 120.579 648.321 479.595
1631 0 55.3087 13.7953 763 119.844 647.809 477.903
1632 0 55.3828 12.549 695 124.689 648.119 477.754
1633 0 58.3933 13.3063 777 121.907 648.457 478.126
1634 0 57.3176 12.0207 689 127.086 648.353 476.862
1635 0 61.2438 12.8339 786 124.274 647.425 476.29
1636 0 62.2212 13.2431 824 123.51 648.394 475.903
1637 0 63.1733 11.8246 747 128.3 648.323 475.09
1638 0 66.2753 13.9569 925 121.85 648.404 473.569
1639 0 67.2167 12.2142 821 126.485 648.877 474.213
1640 0 70.1748 13.5234 949 124.1 648.295 470.629
1641 0 71.2173 13.8871 989 124.146 647.869 472.026
1642 0 74.2396 13.7258 1019 123.592 647.464 469.77
1643 0 76.2653 13.0334 994 124.576 648.684 469.287
1644 0 78.2887 13.8462 1084 121.716 647.744 469.013
1645 0 81.1527 13.9737 1134 120.698 648.071 467.377
1646 0 83.1685 13.6831 1138 118.113 648.231 466.495
1647 0 84.2251 13.1315 1106 120.74 647.873 465.904
1648 0 88.2454 13.8931 1226 117.548 648.14 464.5
1649 0 91.2576 13.2482 1209 119.179 648.523 461.973
1650 0 94.184 13.8346 1303 117.282 648.184 462.632
1651 0 97.2675 12.7381 1239 120.202 649.036 459.701
1652 1 50.2554 11.8395 595 119.659 648.874 482.092
1653 0 54.0738 12.5569 679 117.686 648.919 480.138
1654 0 56.1659 12.0002 674 108.016 648.344 477.174
1655 0 58.1239 13.54 787 103.141 648.409 476.665
1656 0 59.0874 11.4407 676 108.592 648.478 476.404
1657 0 59.2184 12.7663 756 107.246 647.897 474.011
1658 0 62.1341 11.958 743 108.732 648.306 473.843
1659 0 65.2332 12.463 813 108.034 647.91 471.285
1660 0 68.12 12.6688 863 107.893 648.096 473.699
1661 0 70.0853 13.2838 931 107.141 647.749 470.583
1662 0 73.0989 13.3928 979 106.818 648.408 468.865
1663 0 74.1148 12.0759 895 110.747 647.755 469.166
1664 0 78.1436 12.8737 1006 108.252 646.884 468.608
1665 0 80.1357 13.6643 1095 107.983 647.647 467.212
1666 0 83.1448 12.9653 1078 108.327 648.354 462.805
1667 0 83.2127 12.0414 1002 112.746 647.83 462.212
1668 0 87.236 12.5407 1094 111.211 647.694 462.015
1669 0 91.3228 13.2278 1208 90.6531 647.938 462.876
1670 0 95.2019 13.277 1264 110.855 647.364 459.188
1671 1 47.0189 11.5911 545 112.002 646.784 482.464
1672 0 49.1452 11.4965 565 114.959 648.853 481.642
1673 0 51.123 13.4578 688 110.336 648.754 477.349
1674 0 52.2462 12.0966 632 114.038 649.12 481.334
1675 0 52.0758 12.3474 643 114.395 648.477 482.465
1676 0 55.1171 11.9382 658 113.588 649.138 477.916
1677 0 54.1559 11.9101 645 115.445 648.839 477.829
1678 0 58.1129 13.2329 769 114.251 648.495 477.205
1679 0 58.091 12.446 723 98.6058 649.267 478.716
1680 0 60.2609 11.4668 691 121.52 649.054 475.135
1681 0 60.1514 12.8343 772 119.734 649.389 475.043
1682 0 66.07 12.5624 830 119.71 649.261 466.975
1683 0 65.0962 12.2281 796 122.531 649.121 465.263
1684 0 68.1999 12.5807 858 122.921 649.101 465.693
1685 0 68.1669 12.2787 837 126.412 649.405 466.039
1686 0 73.22 13.8077 1011 121.355 648.786 465.444
1687 0 74.227 13.3914 994 124.42 648.45 465.816
1688 0 77.201 12.7848 987 126.626 648.715 464.829
1689 0 80.138 12.5284 1004 126.831 648.874 466.079
1690 0 82.1346 12.6378 1038 127.975 648.989 463.834
1691 0 86.2409 12.5579 1083 128.368 649.207 463.604
1692 0 89.2108 14.3144 1277 126.973 649.21 461.257
1693 1 47.0769 11.4069 537 130.961 649.32 483.441
1694 0 49.1182 12.3783 608 128.694 648.783 480.956
1695 0 49.193 11.648 573 133.021 649.265 480.82
1696 0 53.1096 12.5778 668 130.94 648.698 480.53
1697 0 54.1322 13.0606 707 130.997 648.402 479.651
1698 0 56.0473 12.9712 727 130.619 648.297 479.506
1699 0 57.0892 12.5243 715 133.104 648.964 476.856
1700 0 59.0922 12.5905 744 133.223 648.759 475.363
1701 0 61.1625 12.1153 741 133.826 649.277 476.642
1702 0 65.1201 13.5903 885 128.576 648.963 473.838
1703 0 65.1181 12.3161 802 133.58 648.728 472.929
1704 0 71.1412 13.0445 928 126.581 648.074 472.075
1705 0 72.1096 12.8277 925 127.588 648.541 470.788
1706 0 73.0974 12.8185 937 128.32 649.217 469.504
1707 0 76.0773 12.6845 965 129.914 648.573 467.197
1708 0 79.0671 13.3304 1054 127.059 648.277 468.732
1709 0 82.1523 13.0124 1069 129.17 647.623 465.985
1710 0 84.1223 12.6126 1061 131.801 647.761 463.752
1711 0 88.1703 12.5779 1109 130.755 648.013 464.61
1712 0 91.0736 13.2201 1204 129.73 647.785 462.802
1713 1 48.0404 12.0107 577 130.925 648.475 482.686
1714 0 51.0784 12.7843 653 129.53 648.548 481.309
1715 0 49.1048 10.9562 538 122.454 647.147 475.45
1716 0 50.0171 10.3365 517 124.874 648.05 475.702
1717 0 52.082 12.1731 634 121.677 648.319 476.199
1718 0 54.0564 13.1529 711 127.302 648.231 478.655
1719 0 57.1106 12.1694 695 128.826 648.899 477.872
1720 0 59.1123 12.4001 733 128.76 648.838 475.636
1721 0 61.124 12.9082 789 125.397 648.872 476.7
1722 0 63.1198 13.5457 855 124.579 648.788 473.557
1723 0 64.1059 12.9317 829 126.391 649.339 473.275
1724 0 67.1309 12.0958 812 127.502 648.762 472.132
1725 0 69.1247 12.9042 892 126.074 648.722 469.761
1726 0 72.1723 12.0406 869 128.278 648.194 470.78
1727 0 74.2025 13.261 984 125.082 648.541 468.249
1728 0 78.2424 12.653 990 127.157 648.499 466.823
1729 0 81.1306 12.7695 1036 127.134 648.829 465.485
1730 0 84.1808 12.9721 1092 127.238 649.668 464.202
1731 0 87.1346 13.4045 1168 127.192 649.375 461.2
1732 0 89.2557 12.4026 1107 130.844 649.07 460.484
1733 1 50.1485 10.7281 538 131.24 649.829 481.712
1734 0 50.1006 11.5767 580 131.022 648.964 480.888
1735 0 53.2362 12.9987 692 132.143 648.384 477.79
1736 0 54.077 11.8535 641 135.175 649.362 478.644
1737 0 55.068 13.5106 744 131.702 649.089 477.972
1738 0 57.0988 12.7323 727 134.414 649.509 475.953
1739 0 58.1207 11.7858 685 135.946 649.19 478.269
1740 0 59.0731 12.0021 709 136.752 649.647 477.707
1741 0 62.0847 13.3849 831 132.552 648.456 475.303
1742 0 61.0831 13.146 803 134.669 648.924 474.334
1743 0 67.088 12.7146 853 134.046 648.709 473.454
1744 0 67.0646 13.7778 924 131.176 648.649 473.354
1745 0 69.0642 12.7852 883 134.36 648.976 472.26
1746 0 73.0604 13.6052 994 131.341 648.262 470.151
1747 0 73.0566 12.9215 944 134.478 648.673 468.918
1748 0 76.0664 12.8966 981 133.206 648.629 469.438
1749 0 80.0955 13.8709 1111 129.314 648.924 465.596
1750 0 81.0657 12.9154 1047 132.117 648.423 465.126
1751 0 86.0996 13.9025 1197 127.662 647.814 464.163
1752 0 89.0853 13.9305 1241 127.923 648.152 462.993
1753 0 92.0808 14.0203 1291 127.267 647.711 459.352
1754 1 47.0186 10.8893 512 130.777 648.826 481.814
1755 0 48.0638 11.2559 541 127.547 649.41 481.296
1756 0 48.0374 12.178 585 127.978 649.863 480.925
1757 0 49.0368 11.7667 577 128.627 650.05 480.626
1758 0 52.0537 11.6034 604 129.185 649.798 478.058
1759 0 55.1122 12.0663 665 103.429 649.902 480.665
1760 0 55.0588 11.6421 641 128.215 649.286 480.364
1761 0 55.0298 11.3393 624 130.527 649.046 476.319
1762 0 59.067 13.6625 807 122.015 649.628 476.886
1763 0 60.0524 12.6223 758 125.422 650.165 475.967
1764 0 62.1311 11.9908 745 126.875 649.726 474.336
1765 0 65.1446 12.3418 804 125.27 649.478 472.001
1766 0 68.0972 12.5409 854 124.001 649.588 473.048
1767 0 70.0996 12.4965 876 124.253 649.11 471.581
1768 0 73.2204 13.1384 962 120.313 649.302 471.571
1769 0 74.0836 12 889 126.096 649.105 469.713
1770 0 77.1753 14.0719 1086 119.341 649.264 467.67
1771 0 78.1058 11.3564 887 126.015 648.953 468.822
1772 0 81.1245 13.0047 1055 118.617 648.882 464.457
1773 0 82.1731 11.2689 926 124.648 649.524 463.274
1774 0 85.1382 11.8983 1013 123.165 648.4 462.584
1775 0 89.1809 12.3345 1100 122.608 648.347 460.314
1776 0 90.2728 12.1299 1095 124.659 648.878 460.066
1777 0 94.1546 12.9256 1217 122.197 647.703 459.028
1778 0 98.4057 11.7371 1155 125.53 648.177 456.01
1779 1 51.2963 11.6773 599 116.159 649.31 479.467
1780 0 51.2414 11.7678 603 115.66 648.672 479.078
1781 0 52.1771 12.3426 644 116.236 648.598 477.241
1782 0 54.1312 13.3934 725 119.523 646.708 479.323
1783 0 56.1578 13.4443 755 120.245 648.272 478.679
1784 0 57.1516 13.053 746 122.244 647.744 476.78
1785 0 57.3346 13.4125 769 122.503 647.6 476.092
1786 0 59.3841 13.3369 792 122.802 648.002 473.009
1787 0 64.2928 13.9207 895 119.175 648.133 472.074
1788 0 63.4093 13.0738 829 124.22 647.724 469.849
1789 0 67.3426 14.3742 968 118.018 647.931 468.744
1790 0 66.2204 13.5759 899 121.15 646.974 469.239
1791 0 71.2484 13.6003 969 120.475 647.395 468.115
1792 0 73.2598 13.4999 989 122.367 646.682 464.344
1793 0 75.1807 13.8865 1044 118.085 646.651 463.668
1794 0 77.1413 13.0799 1009 121.929 646.284 460.493
1795 0 82.2538 14.5525 1197 117.42 647.344 459.52
1796 0 82.2236 13.889 1142 122.391 647.285 455.133
1797 0 85.2524 13.853 1181 121.966 647.506 457.013
1798 0 90.1564 15.096 1361 117.711 647.724 456.619
1799 1 49.1175 11.1162 546 121.097 647.764 475.335
1800 0 49.0935 11.6309 571 122.391 647.776 474.201
1801 0 51.2583 11.5884 594 122.542 648.293 472.525
1802 0 52.1805 11.556 603 122.373 648.473 474.745
1803 0 56.0557 13.4866 756 125.181 647.352 478.861
1804 0 57.0361 12.5535 716 129.216 647.031 476.638
1805 0 58.0345 12.4753 724 129.959 647.091 475.547
1806 0 61.0324 13.3208 813 126.958 647.251 475.17
1807 0 63.0442 14.2123 896 124.456 647.53 473.552
1808 0 66.0517 13.9133 919 123.738 647.34 473.351
1809 0 67.0742 13.6565 916 125.48 647.403 470.826
1810 0 68.0637 13.7371 935 124.847 647.074 471.288
1811 0 72.0432 13.5058 973 124.221 646.942 469.844
1812 0 74.0572 13.0845 969 125.483 647.071 468.482
1813 0 77.0343 13.7341 1058 123.849 646.354 465.971
1814 0 78.0293 13.354 1042 124.563 647.217 465.831
1815 0 82.0642 13.2335 1086 124.564 647.269 462.275
1816 0 84.0597 12.967 1090 123.651 646.828 463.269
1817 0 87.0731 12.4378 1083 125.13 646.815 461.532
1818 0 91.0878 13.5254 1232 121.848 646.88 458.101
1819 0 95.0444 14.5827 1386 117.763 646.962 457.725
1820 1 51.0436 12.8126 654 116.852 648.956 479.985
1821 0 51.0504 10.8129 552 120.565 649.446 479.4
1822 0 53.3409 11.9046 635 118.216 647.427 476.797
1823 0 54.0598 12.3567 668 113.998 647.087 477.367
1824 0 55.0269 13.5752 747 110.166 647.087 476.568
1825 0 58.1335 14.2947 831 109.274 647.53 476.632
1826 0 59.0354 13.1108 774 112.032 647.568 474.683
1827 0 62.0896 13.8671 861 110.66 647.196 474.697
1828 0 63.0739 14.2848 901 109.866 648.438 476.043
1829 0 67.145 13.3591 897 111.784 648.473 473.737
1830 0 68.1079 13.0969 892 113.732 648.28 471.489
1831 0 71.2268 14.3485 1022 110.921 648.011 466.487
1832 0 74.1215 13.4104 994 113.764 647.956 465.487
1833 0 73.3454 13.3751 981 115.784 648.103 465.461
1834 0 77.0611 13.0416 1005 116.895 646.902 467.081
1835 0 80.1801 14.3053 1147 114.264 646.499 465.437
1836 0 81.1717 13.4776 1094 116.968 647.69 465.508
1837 0 85.2062 13.438 1145 116.381 647.632 465.81
1838 0 88.2212 14.9171 1316 113.039 647.183 461.445
1839 0 89.2099 14.1352 1261 115.761 648.538 459.19
1840 0 92.338 13.8188 1276 116.471 648.341 458.712
1841 0 96.3363 14.3663 1384 116.611 647.831 454.43
1842 0 100.427 14.7669 1483 118.083 647.974 452.326
1843 0 100.4 13.7848 1384 121.82 648.27 453.324
1844 0 106.33 15.3579 1633 116.394 648.506 449.426
1845 0 109.409 13.4633 1473 121.04 647.903 449.547
1846 1 57.3165 11.3056 648 120.486 648.15 474.511
1847 0 59.3906 13.0324 774 115.769 648.283 474.771
1848 0 61.3411 12.9114 792 114.542 648.126 474.847
1849 0 65.2139 13.5554 884 111.552 648.478 474.354
1850 0 65.218 11.8372 772 118.446 648.591 472.383
1851 0 68.232 11.6807 797 118.596 648.93 470.977
1852 0 71.1531 12.8034 911 115.91 648.922 470.872
1853 0 74.1808 13.2649 984 115.153 649.08 468.054
1854 0 76.3545 12.9396 988 115.285 649.045 468.577
1855 0 79.2368 13.1126 1039 116.026 648.827 465.782
1856 0 83.1258 14.051 1168 113.703 648.669 464.114
1857 0 85.2181 13.0137 1109 116.12 649.135 463.754
1858 0 87.2256 11.9116 1039 118.725 648.465 462.241
1859 0 90.1732 14.1284 1274 113.73 647.664 460.133
1860 0 91.2248 12.661 1155 118.074 647.997 457.677
1861 1 50.2114 10.1371 509 117.629 649.012 479.703
1862 0 52.0958 11.3829 593 114.228 648.604 477.272
1863 0 55.1825 12.9208 713 107.123 648.032 476.574
1864 0 57.0203 11.3994 650 115.188 649.649 476.812
1865 0 58.024 12.7016 737 113.014 649.482 474.233
1866 0 61.0586 13.2823 811 111.122 650 473.127
1867 0 64.067 13.1581 843 110.753 648.883 476.376
1868 0 63.1221 12.3887 782 114.558 649.43 472.98
1869 0 67.158 12.1653 817 114.372 649.922 471.611
1870 0 69.059 13.3364 921 111.501 649.789 471.128
1871 0 70.0235 12.71 890 114.645 649.335 470.094
1872 0 73.0722 13.4388 982 111.479 649.43 469.324
1873 0 74.0636 13.4074 993 112.725 648.605 466.935
1874 0 78.0834 12.7172 993 114.394 648.998 466.45
1875 0 80.0627 13.1772 1055 113.338 649.072 466.982
1876 0 83.1444 13.23 1100 113.709 648.995 465.778
1877 0 84.0588 13.1099 1102 114.97 648.771 463.19
1878 1 44.0211 11.0856 488 113.369 649.619 484.816
1879 0 45.0413 10.8345 488 112.213 650.172 482.973
1880 0 44.0339 11.1732 492 104.726 648.872 480.496
1881 0 47.0286 12.2053 574 102.725 648.862 478.15
1882 0 49.0609 11.3736 558 98.8781 648.846 477.774
1883 0 49.0544 12.1294 595 98.7597 648.546 477.773
1884 0 52.0828 12.5761 655 106.412 649.276 479.647
1885 0 52.0695 12.8098 667 108.097 648.334 479.747
1886 0 54.0474 12.3965 670 107.907 648.445 479.545
1887 0 56.0507 13.9338 781 104.668 648.798 479.575
1888 0 58.0603 12.3837 719 108.287 648.853 478.903
1889 0 61.1147 14.3991 880 103.201 649.582 474.723
1890 0 61.1095 12.944 791 108.74 649.59 474.771
1891 0 62.0978 11.9811 744 111.175 649.348 475.511
1892 0 65.0774 13.1843 858 108.055 649.216 472.809
1893 0 67.0767 14.1778 951 106.838 649.359 470.293
1894 0 67.1394 12.973 871 110.698 648.652 468.959
1895 0 70.123 13.1483 922 109.588 649.829 470.098
1896 0 71.0833 13.3224 947 110.173 648.965 469.696
1897 0 72.0659 13.6819 986 110.987 649.148 466.654
1898 0 76.086 13.9185 1059 110.359 649.049 465.072
1899 0 79.1416 13.1284 1039 111.811 649.296 466.123
1900 0 79.0982 12.9965 1028 113.771 649.344 463.777
1901 0 82.0829 14.2173 1167 111.771 649.459 462.633
1902 0 83.1978 12.6686 1054 115.352 649.221 461.997
1903 0 86.1336 13.212 1138 114.89 649.281 460.176
1904 0 90.2816 14.3662 1297 111.907 648.845 459.206
1905 0 93.1302 14.7965 1378 112.372 648.856 456.472
1906 0 95.1339 13.9277 1325 117.131 648.549 455.7
1907 0 98.1697 14.3425 1408 116.871 648.204 454.259
1908 0 101.246 15.1216 1531 115.419 648.432 453.455
1909 0 101.226 13.7119 1388 120.328 648.075 451.543
1910 0 107.307 14.0531 1508 117.826 647.94 449.215
1911 0 107.454 14.0432 1509 119.545 648.431 448.526
1912 0 112.22 13.8033 1549 120.057 648.844 447.636
1913 0 116.24 14.4701 1682 116.85 647.718 446.382
1914 0 121.256 14.1271 1713 118.565 647.956 443.577
1915 0 125.317 13.7093 1718 113.747 646.629 437.921
1916 0 127.432 13.5523 1727 115.476 647.388 433.363
1917 0 133.414 14.4588 1929 112.328 647.247 434.923
1918 0 136.384 14.0412 1915 114.56 647.144 429.379
1919 0 140.372 14.3048 2008 114.058 647.52 428.059
1920 1 80.3265 11.0549 888 112.552 648.061 461.3
1921 0 82.1739 11.2201 922 111.536 648.164 464.294
1922 0 84.0625 10.6349 894 111.775 647.736 464.48
1923 0 85.0719 10.0856 858 112.848 647.909 460.005
1924 0 89.1196 11.5014 1025 110.25 648.336 455.812
1925 0 94.1648 11.7985 1111 108.509 647.916 456.282
1926 0 97.0699 12.2386 1188 107.676 648.189 453.042
1927 0 102.139 13.1585 1344 105.568 647.888 453.35
1928 0 103.148 10.4317 1076 112.388 647.614 455.66
1929 0 109.283 11.5937 1267 109.893 647.858 452.344
1930 1 56.0299 11.3511 636 106.78 649.039 474.409
1931 0 57.0957 11.5946 662 108.302 648.523 470.017
1932 0 60.0808 11.5844 696 110.023 648.649 470.105
1933 0 62.0848 13.2238 821 106.615 648.51 468.827
1934 0 66.1884 12.7213 842 106.353 648.314 469.749
1935 0 67.0231 11.2648 755 111.244 648.086 467.02
1936 0 70.0851 13.5549 950 106.382 649.068 465.005
1937 0 74.0702 12.0156 890 110.155 648.546 465.467
1938 0 74.0836 12.4859 925 111.192 648.256 463.897
1939 0 78.138 12.7339 995 112.503 648.317 462.719
1940 0 80.1288 12.6796 1016 114.278 648.011 461.094
1941 0 83.0772 11.8926 988 116.578 647.108 461.594
1942 0 87.0947 13.3074 1159 114.173 647.501 459.185
1943 0 88.0879 12.181 1073 118.868 647.76 456.226
1944 0 92.1139 11.7789 1085 120.977 647.892 457.271
1945 1 48.0807 10.4824 504 125.313 647.903 476.403
1946 0 51.1039 11.5842 592 123.421 648.296 473.936
1947 0 52.1159 11.3977 594 118.963 648.248 474.296
1948 0 55.1035 12.1771 671 114.787 648.384 474.815
1949 0 55.0833 12 661 116.818 648.313 475.424
1950 0 57.0798 12.4037 708 116.886 647.894 472.862
1951 0 59.0608 11.8861 702 119.084 648.521 473.593
1952 0 60.135 12.3056 740 119.226 647.641 473.28
1953 0 63.051 13.5922 857 116.806 648.223 471.415
1954 0 64.0773 12.563 805 120.719 648.458 468.162
1955 0 67.0555 13.6603 916 117.635 647.475 469.021
1956 0 67.0657 12.4057 832 122.769 647.959 468.579
1957 0 68.0631 12.8263 873 122.503 648.167 466.149
1958 0 71.0983 13.0383 927 120.453 648.088 467.217
1959 0 74.065 13.5422 1003 119.472 648.334 466.763
1960 0 78.0755 14.1145 1102 117.76 647.658 463.037
1961 0 80.0792 13.6864 1096 119.762 648.308 463.279
1962 0 83.043 15.0765 1252 117.782 648.617 461.24
1963 0 86.0529 13.3987 1153 122.996 648.512 459.496
1964 0 88.3572 12.6645 1119 125.219 648.663 456.54
1965 1 46.0236 11.7983 543 117.74 649.11 478.687
1966 0 47.1469 12.1323 572 133.082 649.315 477.874
1967 0 51.1216 12.4996 639 127.509 649.18 477.438
1968 0 53.0733 13.7734 731 125.405 649.843 475.568
1969 0 53.0215 13.3908 710 128.883 649.465 474.116
1970 0 55.0641 13.5842 748 128.23 649.361 474.937
1971 0 55.0842 13.2524 730 128.392 647.782 476.838
1972 0 58.0411 12.9219 750 127.96 648.143 477.072
1973 0 60.0862 12.765 767 128.231 648.947 476.089
1974 0 60.0255 12.8445 771 129.227 648.966 473.555
1975 0 63.0618 12.464 786 129.601 648.286 473.884
1976 0 67.0701 13.4337 901 125.972 649.039 471.789
1977 0 69.0651 13.6248 941 124.796 649.05 470.328
1978 0 71.0926 13.8411 984 124.483 648.514 469.375
1979 0 73.0926 13.5171 988 127.065 648.556 467.762
1980 0 77.0865 14.4902 1117 122.69 647.676 466.328
1981 0 79.122 13.6877 1083 125.383 648.392 465.368
1982 0 82.2595 13.9558 1148 124.17 648.016 465.721
1983 0 84.0496 12.2428 1029 130.689 647.594 462.284
1984 0 87.07 12.5761 1095 125.576 648.439 461.458
1985 1 46.1983 10.4333 482 112.942 648.357 480.21
1986 0 47.0395 12.3301 580 114.807 648.726 483.126
1987 0 49.108 13.5416 665 110.935 648.759 483.029
1988 0 50.0479 13.1874 660 112.908 648.217 481.747
1989 0 51.1065 11.6424 595 115.491 646.998 477.729
1990 0 52.2087 12.4309 649 109.393 647.706 474.884
1991 0 56.2455 12.9077 726 107.585 648.264 473.824
1992 0 57.3158 12.056 691 110.673 647.983 471.938
1993 0 56.2783 11.7097 659 112.188 647.654 471.985
1994 0 58.1323 11.9211 693 112.631 647.205 470.732
1995 0 61.1587 11.6909 715 112.105 647.814 467.793
1996 0 64.1801 12.6986 815 109.728 648.647 469.51
1997 0 67.0404 11.5304 773 112.812 648.247 466.448
1998 0 68.0725 12.2516 834 111.577 647.042 467.037
1999 0 71.1734 12.027 856 113.123 647.201 465.398
2000 0 73.1336 12.2516 896 113.339 647.456 464.44
2001 0 75.1839 11.0396 830 116.92 648.374 462.919
2002 0 80.1216 11.832 948 117.191 647.731 462.311
2003 0 83.1602 13.3117 1107 112.603 648.091 462.833
2004 1 41.0471 11.1092 456 113.805 648.004 477.393
2005 0 45.1482 12.5808 568 115.364 647.907 481.475
2006 0 45.1664 12.62 570 118.633 648.163 482.142
2007 0 48.0322 13.5742 652 116.081 648.299 480.271
2008 0 49.1016 12.912 634 118.208 647.913 475.409
2009 0 50.1933 12.9699 651 119.653 648.18 475.661
2010 0 52.2151 13.0231 680 119.128 647.885 476.15
2011 0 52.0506 14.7549 768 116.378 647.953 476.44
2012 0 54.1377 14.2599 772 118.166 647.911 474.084
2013 0 56.1505 15.2269 855 115.414 647.94 475.323
2014 0 55.2069 13.9656 771 120.875 648.358 476.061
2015 0 56.1231 13.2388 743 121.295 648.853 476.174
2016 0 61.1473 14.2934 874 116.962 649.032 475.217
2017 0 63.2706 14.5565 921 116.828 648.417 473.151
2018 0 64.0434 12.4291 796 115.504 648.515 472.96
2019 0 69.0472 14.1063 974 111.077 648.347 472.859
2020 0 69.1164 13.5568 937 113.682 649.047 471.333
2021 0 70.1049 14.5496 1020 112.61 648.71 471.187
2022 0 71.1479 12.6075 897 118.175 647.43 470.124
2023 0 75.0753 14.5454 1092 113.108 648.136 467.56
2024 0 76.2223 13.4869 1028 117.081 648.062 467.689
2025 0 77.1217 13.2777 1024 120.117 648.29 464.707
2026 0 79.354 12.6522 1004 121.757 648.644 464.327
2027 0 83.3596 13.2558 1105 120.065 649.257 461.928
2028 0 86.2571 13.367 1153 120.422 648.721 459.718
2029 0 89.277 14.6622 1309 118.8 648.599 456.527
2030 0 92.3497 13.9903 1292 123.158 648.809 457.629
2031 0 94.3388 13.3455 1259 125.623 649.52 454.253
2032 0 96.1849 13.682 1316 125.726 649.248 453.335
2033 0 101.27 15.3845 1558 120.807 648.831 451.879
2034 0 104.196 13.6378 1421 126.006 648.767 451.006
2035 1 54.0734 11.1515 603 122.836 648.469 478.272
2036 0 56.161 12.3751 695 121.417 648.404 476.06
2037 0 58.211 12.197 710 121.385 649.227 475.13
2038 0 63.1712 13.0598 825 122.282 648.887 473.577
2039 0 64.211 13.2376 850 122.479 648.899 471.985
2040 0 66.3839 12.6235 838 125.099 648.679 469.175
2041 0 69.1954 12.6164 873 125.564 648.966 468.314
2042 0 71.1354 13.9593 993 122.498 649.347 466.753
2043 0 74.2055 13.8804 1030 122.612 649.246 464.861
2044 0 77.1527 13.2335 1021 124.451 649.191 465.283
2045 0 79.2494 13.691 1085 123.759 649.294 462.807
2046 0 83.1533 13.2526 1102 125.036 649.398 460.326
2047 0 85.1837 12.9837 1106 127.265 649.923 461.955
2048 0 89.1686 13.7941 1230 125.424 649.627 459.393
2049 0 92.1608 13.433 1238 127.974 649.052 457.91
2050 0 96.213 13.4181 1291 129.075 648.538 456.369
2051 1 49.0888 11.7135 575 129.97 648.616 479.148
2052 0 52.0513 12.0458 627 129.499 649.169 478.303
2053 0 55.0908 12.6337 696 128.619 648.953 476.195
2054 0 55.1314 13.4588 742 128.416 648.956 476.639
2055 0 56.1694 11.8392 665 133.767 649.374 475.672
2056 0 58.1434 13.2087 768 130.135 649.102 476.199
2057 0 60.1788 12.4296 748 134.303 649.346 474.237
2058 0 62.1302 12.5221 778 134.495 649.136 473.136
2059 0 64.1535 13.3742 858 132.96 649.168 472.103
2060 0 64.1066 12.6508 811 136.317 648.953 471.191
2061 0 68.1199 13.5643 924 132.948 648.864 472.322
2062 0 71.1049 13.9934 995 133.128 648.926 470.204
2063 0 73.0992 14.8292 1084 130.943 649.072 470.123
2064 0 75.1303 15.5197 1166 130.47 648.613 468.294
2065 0 77.0646 13.9493 1075 135.698 648.343 466.913
2066 0 79.0946 13.3637 1057 138.065 648.826 465.707
2067 0 83.1191 15.171 1261 132.433 649.189 463.504
2068 0 84.0728 14.7848 1243 136.101 648.627 460.717
2069 0 85.1816 13.8762 1182 138.78 648.577 460.299
2070 0 92.1876 14.1451 1304 135.916 648.485 460.113
2071 0 93.1675 14.6081 1361 135.498 648.456 457.01
2072 0 96.1141 15.1279 1454 133.671 647.526 457.188
2073 0 99.1421 14.0606 1394 138.358 648.103 453.202
2074 0 103.212 14.32 1478 135.45 647.932 454.217
2075 0 107.18 14.7603 1582 135.534 647.344 449.513
2076 0 110.296 13.9443 1538 138.515 647.809 446.789
2077 0 115.305 14.8129 1708 135.114 648.456 447.458
2078 1 63.0855 11.952 754 137.13 648.31 471.086
2079 0 64.2685 12.0432 774 139.747 647.035 464.152
2080 0 68.2528 13.5233 923 134.209 646.795 464.154
2081 0 67.1115 12.591 845 137.046 647.536 465.243
2082 0 70.1552 12.6719 889 136.711 647.983 462.66
2083 0 71.0943 11.745 835 139.307 645.936 455.017
2084 0 73.0579 11.6483 851 140.018 646.813 455.149
2085 0 75.2044 12.6588 952 138.104 647.194 453.102
2086 0 79.1199 12.955 1025 137.227 647.693 452.941
2087 0 81.1272 11.71 950 141.699 647.454 450.246
2088 0 84.1838 11.9382 1005 142.039 647.784 448.216
2089 0 86.1563 12.5237 1079 140.439 647.677 447.186
2090 0 88.1643 12.1818 1074 141.956 648.006 446.613
2091 0 94.1226 11.8675 1117 142.371 647.157 445.362
2092 0 98.1631 11.7763 1156 140.442 646.978 444.915
2093 1 54.0715 9.22853 499 125.385 647.711 467.271
2094 0 57.0963 11.1391 636 129.777 647.146 472.124
2095 0 60.1723 12.7966 770 125.387 646.768 470.668
2096 0 62.1361 12.7623 793 122.368 648.784 472.817
2097 0 64.1059 12.2298 784 123.176 648.776 471.634
2098 0 67.2535 12.0291 809 129.482 648.917 470.743
2099 0 69.3203 12.4062 860 127.724 648.559 470.046
2100 0 70.2367 12.8281 901 127.188 648.805 467.893
2101 0 72.0835 11.6948 843 127.819 647.739 466.892
2102 0 74.2174 11.2642 836 129.746 648.504 463.519
2103 0 77.2709 11.4273 883 129.392 648.116 463.16
2104 0 81.2109 11.464 931 126.838 648.047 465.52
2105 0 83.14 10.765 895 129.92 648.301 462.171
2106 0 86.1111 11.0439 951 128.709 647.274 460.878
2107 0 89.2402 11.5307 1029 128.015 647.074 457.672
2108 0 91.2696 11.9645 1092 127.102 647.604 455.885
2109 1 50.1352 9.41454 472 120.617 646.691 480.441
2110 0 50.0618 10.7667 539 119.23 647.766 478.881
2111 0 49.0938 9.91979 487 123.793 647.922 478.405
2112 0 53.0636 10.6476 565 120.605 648.145 479.067
2113 0 53.2165 10.3539 551 122.488 647.338 476.176
2114 0 56.1329 10.582 594 120.537 647.316 476.971
2115 0 57.142 11.1127 635 120.899 647.124 475.359
2116 0 60.086 11.7665 707 117.833 647.839 475.4
2117 0 62.2126 11.0589 688 120.66 647.78 474.544
2118 0 63.074 12.0811 762 118.385 647.625 472.562
2119 0 65.1345 11.4839 748 121.467 648.188 471.017
2120 0 68.1204 12.8302 874 118.249 647.422 471.001
2121 0 70.1447 11.7044 821 122.378 646.971 469
2122 0 71.1901 11.4763 817 123.379 646.466 468.229
2123 0 75.1611 11.3623 854 123.333 647.09 465.35
2124 0 79.1503 10.777 853 124.292 647.222 466.782
2125 0 80.2092 12.4923 1002 121.031 647.563 466.233
2126 0 83.1414 12.0397 1001 123.362 647.388 463.925
2127 0 86.1974 12.8078 1104 120.793 646.79 464.932
2128 0 90.124 13.3816 1206 119.845 646.469 461.519
2129 0 92.1956 11.9203 1099 125.192 646.611 458.65
2130 1 52.0306 11.5509 601 121.775 646.829 479.85
2131 0 54.038 11.677 631 122.718 646.984 478.532
2132 0 56.1576 10.8801 611 119.079 648.579 473.394
2133 0 56.0774 11.1631 626 117.489 648.688 477.898
2134 0 58.0252 12.822 744 123.007 648.813 477.12
2135 0 61.1202 12.2545 749 124.777 649.027 475.045
2136 0 62.1222 12.7169 790 123.17 649.075 475.871
2137 0 64.128 12.8337 823 123.043 649.12 473.791
2138 0 65.0765 13.1077 853 123.499 648.569 473.967
2139 0 66.1881 12.1019 801 127.724 649.074 472.297
2140 0 69.1767 13.9353 964 121.955 649.47 471.75
2141 0 72.0565 13.9196 1003 121.449 648.657 470.905
2142 0 73.2528 13.5148 990 123.498 648.902 468.638
2143 0 75.1863 13.7392 1033 124.11 648.781 467.577
2144 0 77.1996 13.9379 1076 123.217 648.553 468.118
2145 0 79.2737 13.6742 1084 125.084 648.516 465.447
2146 0 82.2469 14.0188 1153 125.069 648.206 461.895
2147 0 86.3973 13.3338 1152 126.973 648.441 459.22
2148 0 87.2639 12.0898 1055 135.551 647.264 456.502
2149 0 92.376 13.0337 1204 131.581 647.83 456.425
2150 0 93.2914 11.9196 1112 135.037 647.723 453.018
2151 1 53.0941 11.3572 603 115.877 646.773 479.813
2152 0 53.1699 11.1529 593 118.489 647.401 478.199
2153 0 54.1438 11.1555 604 121.124 648.603 476.382
2154 0 56.1697 11.8213 664 113.78 648.084 473.745
2155 0 57.1574 10.6548 609 116.622 648.737 474.544
2156 0 61.1756 11.9656 732 113.059 647.604 473.723
2157 0 60.132 12.3395 742 115.602 648.274 474.532
2158 0 63.0917 12.2679 774 115.598 648.003 470.464
2159 0 63.1069 11.4409 722 117.652 648.055 470.452
2160 0 67.1366 11.4096 766 116.072 648.817 471.316
2161 0 67.1459 11.7952 792 115.778 648.886 469.22
2162 0 70.1461 12.5738 882 113.303 649.02 467.435
2163 0 74.1973 12.5207 929 113.292 648.083 467.099
2164 0 75.2143 10.8623 817 118.561 647.89 466.867
2165 0 77.2228 11.0848 856 118.244 647.6 462.319
2166 0 79.1533 12.3558 978 116.623 647.068 464.872
2167 0 84.2375 12.999 1095 114.127 647.32 461.617
2168 0 86.211 12.6202 1088 114.791 648.041 460.722
2169 0 89.1499 12.7426 1136 114.342 647.592 462.149
2170 0 92.1908 10.8796 1003 118.997 647.51 455.68
2171 0 97.1428 12.1265 1178 116.284 648.176 457.077
2172 1 53.1225 11.2193 596 114.091 648.78 478.366
2173 0 56.1733 11.3933 640 115.5 648.742 474.716
2174 0 58.2079 11.3558 661 112.592 648.9 477.725
2175 0 56.116 11.2446 631 114.491 648.572 475.754
2176 0 60.0471 11.2245 674 114.856 648.157 475.28
2177 0 61.0689 12.2648 749 112.128 648.155 473.531
2178 0 63.1464 12.4631 787 111.152 648.431 471.338
2179 0 67.1056 12.4431 835 110.399 648.819 470.157
2180 0 69.0802 11.7834 814 112.127 648.806 469.128
2181 0 72.1467 13.7775 994 107.529 648.752 468.207
2182 0 74.1157 11.6035 860 112.897 648.704 465.188
2183 0 75.0824 11.0012 826 114.173 648.944 465.287
2184 0 80.235 12.613 1012 109.251 648.813 463.978
2185 0 81.0908 12.0482 977 112.42 648.51 464.04
2186 0 83.1673 12.3606 1028 112.192 648.808 461.344
2187 0 87.1847 12.8348 1119 111.114 647.687 461.522
2188 0 90.127 13.0594 1177 111.096 648.918 460.954
2189 0 92.1252 11.5061 1060 116.445 648.088 458.48
2190 0 97.1244 13.1378 1276 114.12 647.544 455.83
2191 1 50.096 9.70137 486 114.23 646.965 477.652
2192 0 51.0928 8.94451 457 113.444 647.175 476.05
2193 0 52.1923 10.9595 572 110.329 646.795 468.145
2194 0 54.1497 10.4156 564 109.495 647.303 464.699
2195 0 58.071 10.7627 625 107.546 647.134 469.627
2196 0 59.148 12.2574 725 105.745 647.457 470.068
2197 0 59.0515 11.6847 690 107.617 647.856 466.351
2198 0 62.1191 11.8321 735 106.576 646.878 466.418
2199 0 63.0598 11.2591 710 108.718 647.099 464.551
2200 0 66.0988 10.8323 716 108.124 647.61 463.728
2201 0 70.1491 11.5326 809 105.921 646.897 463.96
2202 0 69.0823 10.8277 748 110.134 646.207 460.812
2203 0 73.0629 11.3738 831 108.386 647.025 461.017
2204 0 76.0393 11.231 854 108.882 647.08 455.224
2205 0 77.0892 12.1677 938 107.098 646.679 457.93
2206 0 81.1337 11.6228 943 108.208 647.121 454.774
2207 0 85.175 12.5858 1072 105.647 647.364 456.153
2208 0 89.17 12.2687 1094 107.186 647.004 452.283
2209 0 91.223 13.0559 1191 107.285 647.181 449.73
2210 0 93.2186 13.0017 1212 108.232 647.511 449.542
2211 0 97.1322 11.9631 1162 111.135 647.388 449.284
2212 0 101.221 12.5764 1273 110.57 648.254 442.581
2213 1 55.0738 10.5132 579 110.862 647.955 467.919
2214 0 59.0511 11.0582 653 109.305 647.64 466.443
2215 0 61.0493 12.9895 793 112.158 646.777 468.349
2216 0 63.3722 13.1761 835 116.587 647.795 473.947
2217 0 63.1732 12.4578 787 118.781 647.696 474.447
2218 0 66.2841 12.19 808 119.434 647.14 472.114
2219 0 70.1736 13.4808 946 115.929 647.286 470.911
2220 0 72.3245 12.8725 931 117.512 647.414 470.913
2221 0 74.3569 12.2248 909 117.327 648.504 470.227
2222 0 78.199 12.5705 983 119.942 648.445 467.585
2223 0 80.264 13.7671 1105 117.067 648.635 466.607
2224 0 82.2232 14.4363 1187 117.097 648.319 462.56
2225 0 85.2121 14.5754 1242 116.659 648.381 459.472
2226 0 88.2962 12.5034 1104 121.076 648.479 460.339
2227 0 93.4028 13.49 1260 117.567 648.636 454.687
2228 0 95.4609 13.241 1264 119.35 648.219 452.54
2229 0 98.5025 13.4616 1326 118.296 648.057 451.872
2230 0 99.3896 12.2347 1216 122.376 647.538 449.578
2231 1 52.2148 10.1887 532 121.602 647.669 473.88
2232 0 56.1474 13.0727 734 115.794 647.203 471.324
2233 0 56.242 11.575 651 121.235 647.699 470.232
2234 0 60.1092 13.8914 835 113.733 648.402 474.338
2235 0 60.2292 12.1702 733 118.427 648.66 475.106
2236 0 62.1764 11.5478 718 120.095 648.616 474.382
2237 0 62.1841 12.2378 761 120.06 648.692 472.427
2238 0 62.2834 10.7733 671 124.745 648.152 472.943
2239 0 67.2082 13.1234 882 116.965 648.102 471.742
2240 0 69.2789 12.9332 896 117.97 647.756 469.371
2241 0 71.2816 12.4997 891 119.08 648.398 468.036
2242 0 73.2859 13.8362 1014 116.371 647.859 468.312
2243 0 75.2515 13.1692 991 119.293 647.143 463.94
2244 0 79.3305 12.8828 1022 119.042 647.435 464.57
2245 0 83.3734 12.8698 1073 119.416 648.191 462.304
2246 0 86.3449 13.2839 1147 118.26 647.928 461.293
2247 0 89.2615 13.4772 1203 118.177 647.396 460.317
2248 0 92.3564 13.8377 1278 117.124 647.164 459.336
2249 0 93.2737 13.2942 1240 120.845 647.291 454.36
2250 0 95.3496 12.4489 1187 124.121 647.735 453.832
2251 1 50.1297 11.5301 578 120.341 647.848 478.955
2252 0 51.2276 12.3176 631 122.086 647.693 473.3
2253 0 55.1189 13.0627 720 119.808 646.575 476.974
2254 0 56.2478 13.6539 768 119.538 648.055 475.374
2255 0 57.2211 13.3692 765 121.337 647.671 473.587
2256 0 58.2405 13.5301 788 121.647 648.716 474.859
2257 0 60.251 13.6263 821 123.487 647.713 471.805
2258 0 60.2013 12.3419 743 126.945 648.135 475.082
2259 0 63.2042 13.3694 845 124.633 647.897 474.222
2260 0 67.2505 13.8735 933 123.185 647.695 469.62
2261 0 67.1822 13.2178 888 126.32 647.391 473.447
2262 0 68.2146 13.7947 941 126.967 646.973 471.471
2263 0 71.23 13.9127 991 126.14 647.27 474.872
2264 0 73.2056 14.2339 1042 128.328 646.594 475.606
2265 0 75.2665 14.1099 1062 129.783 646.981 474.724
2266 0 78.2227 14.2542 1115 129.93 645.945 474.444
2267 0 78.1261 13.0686 1021 132.609 646 475.88
2268 0 82.1582 14.3138 1176 129.179 645.778 474.173
2269 0 83.21 14.193 1181 131.086 645.579 473.809
2270 0 87.1783 14.4876 1263 130.633 645.014 473.434
2271 0 89.376 13.6278 1218 132.992 645.231 472.254
2272 0 91.246 14.0061 1278 133.23 644.443 470.864
2273 0 95.2551 13.3641 1273 135.06 644.496 469.735
2274 0 96.3717 14.2365 1372 134.302 644.402 467.413
2275 1 52.0116 13.0548 679 135.948 644.62 489.031
2276 0 55.1386 13.6021 750 133.94 643.884 486.629
2277 0 55.0352 13.3369 734 134.173 643.557 485.685
2278 0 56.1469 12.9304 726 135.647 643.596 484.66
2279 0 60.2052 13.2214 796 134.23 643.584 483.725
2280 0 61.0457 12.5152 764 134.859 642.686 483.194
2281 0 64.1365 13.1906 846 132.147 642.728 481.89
2282 0 67.1078 14.052 943 128.877 642.236 479.896
2283 0 67.1113 13.1722 884 131.528 642.534 479.057
2284 0 71.1357 13.3266 948 129.009 641.969 477.449
2285 0 72.1344 12.5876 908 132.134 641.265 474.7
2286 0 77.1068 14.1881 1094 124.939 641.65 471.461
2287 0 79.0307 12.4635 985 127.739 641.784 473.725
2288 0 80.1205 13.0803 1048 125.61 641.005 472.33
2289 0 86.0945 14.1124 1215 120.849 641.197 470.009
2290 0 89.073 13.6068 1212 121.038 641.06 471.842
2291 0 89.1309 11.8141 1053 127.048 641.212 471.962
2292 0 95.2813 14.4205 1374 119.43 640.907 468.771
2293 0 97.1696 13.3375 1296 122.417 640.509 467.485
2294 0 101.263 13.3415 1351 122.625 641.953 463.414
2295 0 106.106 13.6845 1452 120.467 641.404 464.094
2296 0 110.283 13.3747 1475 121.094 641.435 460.499
2297 1 57.0409 11.9388 681 131.671 641.913 485.354
2298 0 61.0174 14.668 895 122.639 642.061 482.59
2299 0 62.0752 13.8703 861 126.15 642.043 479.266
2300 0 65.0324 14.3313 932 123.895 642.443 479.588
2301 0 68.0878 14.4519 984 123.966 641.545 476.426
2302 0 70.0466 14.2619 999 125.577 641.281 475.829
2303 0 71.0758 13.8444 984 127.987 640.643 473.433
2304 0 76.1572 15.2316 1160 123.134 641.334 473.228
2305 0 80.0788 15.9093 1274 121.946 640.599 472.838
2306 0 81.0509 14.7438 1195 127.628 641.253 471.742
2307 0 84.1289 14.9176 1255 127.416 641.318 469.879
2308 0 88.0769 14.862 1309 127.791 640.729 466.34
2309 0 91.0698 14.7469 1343 128.633 640.691 465.287
2310 0 95.1021 15.2888 1454 125.89 640.596 465.955
2311 0 94.1801 14.1431 1332 132.148 641.086 462.891
2312 0 98.1493 14.8549 1458 130.957 641.156 460.242
2313 0 102.132 14.0896 1439 134.268 640.694 460.75
2314 0 105.06 13.4971 1418 135.63 641.577 460.588
2315 1 57.0275 11.7487 670 136.79 641.267 482.525
2316 0 61.0511 12.6615 773 135.097 641.521 481.025
2317 0 61.0269 13.2892 811 134.058 641.598 479.889
2318 0 63.0286 13.2955 838 133.547 640.6 478.85
2319 0 64.083 12.4838 800 137.338 640.448 475.492
2320 0 68.0212 12.9225 879 135.367 641.089 476.092
2321 0 70.0475 13.5765 951 133.212 640.91 472.722
2322 0 72.0711 13.6809 986 133.226 641.146 471.885
2323 0 73.1398 13.7682 1007 133.744 641.675 470.047
2324 0 77.1095 13.9801 1078 132.336 642.438 467.728
2325 0 79.0436 13.2838 1050 134.942 641.754 466.959
2326 0 82.1149 13.5907 1116 133.942 641.537 466.441
2327 0 82.1087 13.5552 1113 135.322 642.544 464.364
2328 0 87.1559 13.7111 1195 135.109 642.012 461.785
2329 0 89.0896 13.4696 1200 136.018 641.927 461.114
2330 0 92.0944 13.9314 1283 135.355 641.651 458.747
2331 0 96.1155 13.7023 1317 135.869 642.101 457.943
2332 0 99.1067 14.1565 1403 133.376 642.154 456.134
2333 0 103.105 13.5978 1402 134.13 642.093 452.7
2334 0 107.242 13.4649 1444 133.553 641.565 450.751
2335 0 111.232 14.1326 1572 131.92 641.975 448.344
2336 0 111.134 13.6682 1519 133.008 641.321 448.04
2337 1 59.0452 12.2279 722 129.076 641.929 473.587
2338 0 63.1026 12.6936 801 126.141 642.838 472.055
2339 0 66.0919 12.1346 802 126.148 642.923 470.747
2340 0 67.1303 12.8854 865 123.571 642.536 469.517
2341 0 68.0763 12.7798 870 124.078 642.456 468.49
2342 0 72.1437 12.9048 931 124.287 641.936 465.635
2343 0 74.1722 12.7002 942 125.707 641.687 463.255
2344 0 76.2451 12.3418 941 127.523 641.725 461.913
2345 0 78.375 12.1722 954 127.889 642.415 458.784
2346 0 82.1518 13.6455 1121 122.647 642.45 458.649
2347 0 83.1877 12.7663 1062 125.383 643.046 457.299
2348 0 89.2465 13.7036 1223 122.15 642.433 455.217
2349 0 92.1613 13.7151 1264 122.477 642.877 452.574
2350 0 94.2974 12.7045 1198 125.521 642.81 450.414
2351 0 97.2391 13.8936 1351 121.591 643.568 450.54
2352 0 101.265 13.124 1329 124.424 643.169 445.283
2353 0 105.25 14.2993 1505 120.979 642.935 442.054
2354 1 59.0574 10.9216 645 121.994 642.462 468.029
2355 0 62.1159 11.0439 686 120.913 642.977 467.418
2356 0 65.1112 12.0102 782 118.913 643.375 465.614
2357 0 67.1029 10.9086 732 121.27 643.447 464.337
2358 0 68.0877 12.6161 859 116.582 643.442 464.035
2359 0 74.101 12.6179 935 115.049 643.22 460.02
2360 0 75.2344 12.0822 909 117.284 643.349 459.138
2361 0 79.3023 12.5469 995 115.621 643.892 456.196
2362 0 81.1495 12.1381 985 116.661 643.823 457.074
2363 0 82.124 10.9712 901 119.893 643.565 452.957
2364 0 87.1265 13.0041 1133 114.567 643.923 450.395
2365 0 91.3028 13.844 1264 111.152 644.498 449.023
2366 0 94.0731 11.7568 1106 117.09 644.071 448.412
2367 0 95.1267 12.3519 1175 117.125 643.81 444.723
2368 0 96.0519 12.3787 1189 117.503 643.94 443.555
2369 0 101.111 11.8979 1203 116.859 643.59 444.49
2370 0 106.106 13.2227 1403 113.12 644.306 442.404
2371 0 111.133 12.7415 1416 114.179 644.604 439.346
2372 0 113.163 13.0784 1480 114.701 644.02 439.414
2373 0 114.087 12.2889 1402 118.145 644.428 434.287
2374 0 123.187 13.3861 1649 113.66 644.166 434.69
2375 0 124.156 12.2346 1519 117.394 644.015 431.848
2376 1 71.0391 9.06543 644 111.891 644.436 461.492
2377 0 72.0723 11.7521 847 103.377 644.221 457.718
2378 0 73.0602 10.3339 755 106.136 644.915 457.188
2379 0 78.047 11.4162 891 103.235 645.694 457.699
2380 0 79.076 11.2423 889 104.737 645.787 456.097
2381 0 82.1634 11.2094 921 105.71 645.835 456.608
2382 0 85.1239 10.843 923 107.403 645.739 453.438
2383 0 89.0877 11.7861 1050 106.204 646.136 454.581
2384 0 91.1782 12.1849 1111 106.134 646.194 453.037
2385 0 92.1579 12.5545 1157 106.652 646.324 453.116
2386 0 92.1579 12.4894 1151 140.815 647.332 453.17
2387 0 98.2479 11.2369 1104 112.672 645.926 448.59
2388 0 104.281 12.754 1330 110.644 645.73 446.338
2389 0 105.183 12.3118 1295 112.293 645.703 446.961
2390 0 109.22 12.7815 1396 116.014 646.398 440.585
2391 1 60.124 9.03134 543 110.783 646.105 470.14
2392 0 63.1181 10.7576 679 108.361 646.23 468.236
2393 0 64.0598 10.8492 695 103.719 646.368 465.822
2394 0 62.0556 9.34646 580 108.348 645.822 465.402
2395 0 68.0974 9.63326 656 107.515 646.27 464.593
2396 0 66.0862 9.18497 607 110.155 645.677 463.987
2397 0 71.0375 10.2763 730 106.079 645.74 466.37
2398 0 72.0898 9.37719 676 109.762 645.161 464.025
2399 0 77.205 10.0123 773 107.768 645.476 464.118
2400 0 76.1284 10.0488 765 110.451 644.876 459.724
2401 0 80.1448 10.768 863 108.576 644.864 461.443
2402 0 81.1003 9.67938 785 111.972 645.275 460.552
2403 0 86.1696 11.5006 991 109.398 645.294 458.117
2404 0 89.2362 12.663 1130 107.235 644.835 456.257
2405 0 91.1536 11.7165 1068 110.539 644.893 455.944
2406 0 93.1162 11.8776 1106 111.012 644.459 453.948
2407 0 97.1838 12.5124 1216 109.968 645.206 454.12
2408 0 102.222 13.4903 1379 107.823 645.194 453.136
2409 0 103.244 11.6714 1205 113.933 644.753 450.629
2410 0 106.129 10.8735 1154 113.986 644.958 451.7
2411 0 109.169 10.0761 1100 116.753 645.675 448.576
2412 0 109.166 10.0856 1101 136.008 646.686 448.457
2413 0 116.149 11.029 1281 112.907 645.256 443.679
2414 1 65.1102 10.6128 691 107.553 645.08 471.353
2415 0 67.1399 12.1686 817 107.191 647.133 468.012
2416 0 69.1089 13.0519 902 105.109 646.547 467.433
2417 0 69.1778 11.8535 820 108.868 646.962 467.105
2418 0 72.132 12.1721 878 107.421 646.749 465.366
2419 0 77.1414 13.5725 1047 102.27 646.554 464.192
2420 0 78.2184 12.3884 969 105.503 646.236 464.059
2421 0 80.1875 12.4957 1002 105.03 646.566 462.55
2422 0 82.1652 12.0367 989 105.808 646.816 461.505
2423 0 87.1648 13.3311 1162 102.584 646.911 459.845
2424 0 87.125 12.2927 1071 105.262 646.994 456.628
2425 0 92.1478 13.1528 1212 102.569 646.918 457.432
2426 0 94.251 12.6789 1195 103.88 646.598 456.87
2427 0 98.1496 12.5115 1228 103.191 646.547 454.085
2428 1 51.0698 11.5724 591 110.201 647.445 475.572
2429 0 54.1963 13.3588 724 105.523 648.173 475.943
2430 0 54.117 12.5284 678 108.125 647.177 474.198
2431 0 58.1519 12.5361 729 106.617 647.134 475.385
2432 0 59.1568 13.3374 789 105.228 647.692 474.209
2433 0 59.1217 12.5335 741 108.923 647.121 472.502
2434 0 63.203 13.9076 879 103.733 647.135 473.088
2435 0 64.1443 13.5788 871 105.897 647.542 471.199
2436 0 64.0624 13.003 833 107.75 647.257 471.294
2437 0 69.1099 13.833 956 104.742 647.793 469.048
2438 0 69.1429 12.7996 885 108.323 647.643 468.012
2439 0 71.0872 13.9125 989 105.271 647.074 469.182
2440 0 75.1497 14.0919 1059 105.17 647.324 465.849
2441 0 77.151 14.3615 1108 104.909 647.174 465.534
2442 0 80.0344 13.3193 1066 107.801 647.285 465.78
2443 0 82.0466 13.9555 1145 107.404 646.976 464.425
2444 0 84.0389 13.9935 1176 108.66 647.284 462.869
2445 0 87.11 13.2247 1152 110.848 646.603 459.621
2446 0 92.2035 13.3184 1228 110.523 646.897 458.292
2447 0 92.1479 12.8923 1188 112.771 646.893 459.295
2448 0 98.1483 13.5611 1331 109.358 646.294 458.286
2449 1 49.0695 13.9598 685 113.193 646.258 478.269
2450 0 51.1741 13.6983 701 110.913 645.973 477.97
2451 0 52.0875 13.8421 721 112.803 646.884 476.581
2452 0 53.0478 13.4219 712 114.813 647.038 476.628
2453 0 54.1347 13.5588 734 115.951 646.718 475.668
2454 0 55.0535 14.2225 783 115.393 646.894 473.16
2455 0 58.082 14.3418 833 114.957 646.142 473.998
2456 0 61.1228 14.9044 911 114.023 645.801 472.424
2457 0 63.2324 15.0239 950 112.294 646.183 473.146
2458 0 63.0957 15.0723 951 114.367 646.688 470.008
2459 0 65.1092 14.7598 961 114.767 646.096 471.928
2460 0 67.123 14.6299 982 116.392 646.398 469.951
2461 0 68.303 14.3918 983 117.295 646.874 466.678
2462 0 71.164 15.0638 1072 114.931 646.199 467.393
2463 0 76.1113 14.4131 1097 116.232 646.109 467.066
2464 0 76.1464 15.2076 1158 114.825 646.539 466.693
2465 0 79.132 14.7222 1165 115.797 646.723 465.058
2466 0 82.0683 15.7186 1290 114.059 646.556 462.567
2467 0 84.1291 15.179 1277 116.009 646.756 460.867
2468 0 87.2144 14.4242 1258 117.284 646.732 459.792
2469 0 90.2232 14.7191 1328 116.675 646.191 456.818
2470 0 94.1066 16.4282 1546 111.92 646.121 456.028
2471 0 96.1271 13.7214 1319 118.306 646.689 456.412
2472 1 54.0254 13.253 716 117.448 646.964 476.284
2473 0 54.1056 13.5661 734 118.301 646.511 475.495
2474 0 57.0488 14.4087 822 114.746 647.212 470.077
2475 0 60.19 14.0056 843 116.064 647.306 468.599
2476 0 62.1099 15.6658 973 111.618 647.1 466.488
2477 0 62.122 15.2925 950 113.961 647.416 465.712
2478 0 64.0379 14.429 924 116.353 647.348 466.199
2479 0 67.0505 14.3176 960 115.6 647.865 464.014
2480 0 71.0639 14.6347 1040 114.454 647.379 461.424
2481 0 74.1707 14.588 1082 114.107 647.785 462.349
2482 0 77.1126 14.7187 1135 113.367 647.366 459.85
2483 0 78.2677 14.4632 1132 115.204 647.314 459.459
2484 0 81.15 14.541 1180 114.98 647.168 456.78
2485 0 84.1303 15.0243 1264 112.603 647.474 457.198
2486 0 89.1438 13.8989 1239 114.425 647.584 454.945
2487 1 45.1078 12.4369 561 120.283 647.383 473.602
2488 0 47.0557 13.3459 628 118.678 646.951 472.032
2489 0 50.0283 13.5123 676 117.765 647.144 470.306
2490 0 51.1339 13.4744 689 118.428 646.363 470.612
2491 0 52.1612 14.9537 780 115.336 646.7 470.305
2492 0 54.0533 13.4127 725 119.331 646.619 469.932
2493 0 56.2957 15.6317 880 114.71 646.085 467.9
2494 0 57.2438 14.3072 819 118.079 646.393 467.056
2495 0 61.2152 14.4572 885 116.481 645.636 466.575
2496 0 61.1068 15.0556 920 116.162 646.874 464.371
2497 0 62.2409 14.2672 888 119.046 646.721 464.678
2498 0 66.0705 15.2262 1006 114.601 646.723 463.921
2499 0 67.1442 15.3103 1028 116.102 646.826 461.684
2500 0 70.1638 14.6657 1029 117.723 646.964 458.55
2501 0 70.1048 13.6225 955 121.4 647.201 459.092
2502 0 76.18 15.0696 1148 116.748 646.45 458.35
2503 0 78.1148 14.5939 1140 118.838 646.974 456.287
2504 0 80.0922 14.3584 1150 119.812 646.306 455.37
2505 0 83.2351 13.9725 1163 122.107 646.183 456.635
2506 0 84.1738 14.7671 1243 120.056 646.818 454.1
2507 0 90.146 14.1992 1280 119.599 647.39 453.133
2508 1 46.0642 11.853 546 129.361 647.736 475.377
2509 0 48.0302 13.1376 631 127.063 647.548 474.101
2510 0 50.0387 14.149 708 126.213 648.034 473.756
2511 0 50.0153 13.6958 685 130.48 647.746 471.147
2512 0 51.0427 13.7728 703 130.713 647.501 470.391
2513 0 54.0586 14.7988 800 127.301 647.83 469.409
2514 0 55.0308 13.447 740 132.645 647.896 470.15
2515 0 55.0273 14.3202 788 132.477 647.871 468.419
2516 0 57.0813 14.5582 831 130.966 647.911 468.705
2517 0 60.118 14.4715 870 130.936 647.292 467.641
2518 0 62.0536 14.5197 901 132.495 647.226 464.003
2519 0 62.0592 13.9705 867 135.505 648.125 464.374
2520 0 67.0458 14.1993 952 133.571 648.041 463.654
2521 0 67.0448 14.1547 949 136.318 648.078 461.986
2522 0 69.0354 13.9494 963 137.166 647.98 460.256
2523 0 71.039 13.9923 994 138.458 648.115 459.66
2524 0 72.0714 14.5411 1048 138.982 648.171 457.379
2525 0 77.0981 14.4491 1114 137.433 647.707 456.31
2526 0 81.0977 14.0571 1140 140.824 647.722 455.694
2527 0 80.0459 14.1419 1132 140.05 648.7 455.103
2528 0 84.0926 15.0073 1262 136.082 648.201 454.968
2529 0 87.0835 14.6871 1279 138.997 648.098 452.075
2530 0 87.0966 14.3174 1247 141.307 647.909 450.04
2531 0 90.2191 15.3737 1387 137.748 647.792 449.034
2532 0 97.1759 14.4583 1405 139.872 646.564 448.948
2533 0 98.2519 14.8191 1456 140.304 647.886 444.21
2534 0 101.173 15.5278 1571 138.866 648.37 442.939
2535 0 106.351 14.3205 1523 143.21 647.644 440.894
2536 0 109.201 14.2032 1551 144.538 647.434 440.075
2537 0 113.356 15.694 1779 139.148 648.225 440.275
2538 0 115.295 15.1351 1745 142.032 648.285 438.446
2539 0 119.142 16.3251 1945 139.317 646.969 433.048
2540 0 119.142 16.3923 1953 164.459 646.963 433.108
2541 0 124.16 15.1901 1886 145.935 647.232 426.06
2542 0 133.335 15.2173 2029 143.644 647.309 426.875
2543 0 137.342 15.647 2149 142.007 647.603 426.915
2544 0 141.253 14.7678 2086 145.905 647.694 422.582
2545 0 147.294 14.3862 2119 147.501 647.551 419.889
2546 1 69.1992 9.60993 665 152.904 647.711 455.143
2547 0 70.1653 11.7579 825 149.022 648.25 453.047
2548 0 77.2401 13.594 1050 139.512 648.671 454.027
2549 0 77.282 13.1725 1018 143.362 648.598 451.562
2550 0 82.3212 13.423 1105 140.276 648.476 451.253
2551 0 86.2299 12.803 1104 142.303 648.84 447.887
2552 0 87.226 13.8262 1206 139.094 647.986 448.632
2553 0 92.3196 13.5508 1251 139.444 648.251 444.839
2554 0 98.4402 12.6168 1242 141.356 648.026 442.572
2555 0 98.1903 12.4045 1218 144.022 648.632 438.922
2556 0 105.253 13.5483 1426 138.485 648.428 438.522
2557 0 107.296 13.3649 1434 139.669 648.798 437.871
2558 0 112.219 13.1261 1473 139.023 648.673 440.124
2559 0 112.179 11.9897 1345 145.401 647.765 434.954
2560 0 120.246 14.0545 1690 137.088 648.753 435.388
2561 0 124.452 14.5357 1809 136.291 648.726 433.378
2562 0 128.212 13.3451 1711 140.314 648.732 429.498
2563 0 131.323 13.1584 1728 142.369 648.213 424.721
2564 0 138.377 14.6195 2023 135.401 648.719 429.691
2565 0 140.304 14.2334 1997 138.82 649.118 423.966
2566 0 145.388 13.8664 2016 140.084 648.116 419.751
2567 0 149.264 13.6738 2041 140.85 647.599 419
2568 0 153.333 14.4261 2212 139.151 647.696 413.988
2569 0 158.507 14.0435 2226 140.319 647.97 413.294
2570 0 164.222 13.6827 2247 141.181 647.674 408.183
2571 1 43.1119 4.59269 198 105.086 650.202 478.061
2572 0 41.0224 4.36347 179 107.749 649.966 474.782
2573 0 48.063 9.05062 435 99.4506 649.545 472.651
2574 0 49.0303 8.11743 398 100.786 649.121 473.239
2575 0 49.021 7.48659 367 103.444 649.292 471.463
2576 0 52.0536 7.22333 376 102.181 649.753 469.641
2577 0 52.1575 8.7044 454 97.9053 649.092 473.317
2578 0 54.129 9.18176 497 100.988 647.93 471.803
2579 0 56.2087 8.96658 504 101.512 647.101 469.411
2580 0 59.1071 8.56073 506 103.144 646.854 467.18
2581 0 59.1554 8.28326 490 112.412 645.686 465.851
2582 0 62.1342 10.7992 671 106.453 645.56 465.861
2583 0 63.1387 9.77214 617 109.489 645.418 463.214
2584 0 65.1256 9.68897 631 109.777 646.03 462.822
2585 0 67.1552 9.69396 651 109.083 645.51 463.406
2586 0 68.0826 8.85688 603 111.63 645.718 462.35
2587 0 69.1321 9.74945 674 110.346 645.57 460.521
2588 0 73.0888 10.2888 752 109.734 646.613 460.452
2589 0 72.1031 10.3602 747 111.602 646.404 459.145
2590 0 75.1616 10.0583 756 113.112 646.278 458.239
2591 0 75.0985 9.32109 700 114.096 646.766 457.943
2592 0 78.1364 11.1984 875 110.696 647.336 457.141
2593 0 80.1516 9.50699 762 114.794 646.358 453.975
2594 0 82.1151 9.68153 795 117.055 647.886 451.548
2595 0 83.0906 10.9278 908 114.856 648.135 454.184
2596 0 88.1566 10.7763 950 115.066 648.259 450.485
2597 0 90.0926 11.8101 1064 113.471 648.966 451.685
2598 0 91.1268 8.40587 766 122.242 648.723 447.808
2599 0 92.1505 9.3217 859 119.542 649.215 448.814
2600 0 96.1477 9.67262 930 119.88 649.401 448.508
2601 0 100.127 8.43929 845 122.135 649.16 449.124
2602 0 101.133 8.24654 834 124.963 648.933 440.338
2603 1 59.1195 7.71319 456 116.987 649.496 464.024
2604 0 63.0567 8.05624 508 116.728 649.431 464.067
2605 0 65.0977 8.67926 565 115.448 648.595 462.651
2606 0 64.1085 7.84607 503 111.181 648.36 462.94
2607 0 66.1052 8.10829 536 110.562 648.545 463.452
2608 0 70.1914 9.73053 683 107.725 648.695 463.529
2609 0 70.154 8.63813 606 110.061 648.089 460.538
2610 0 71.0598 9.14723 650 110.612 647.815 460.388
2611 0 74.1246 9.2412 685 110.013 648.048 460.327
2612 0 77.056 9.92785 765 108.637 647.805 458.482
2613 0 76.0828 6.57179 500 114.84 648.322 454.544
2614 0 72.0346 7.06604 509 114.436 648.487 448.532
2615 1 83.0903 8.59306 714 110.053 648.874 455.399
2616 0 84.2153 8.38328 706 118.295 648.915 453.098
2617 0 83.1381 6.21857 517 120.12 648.416 453.288
2618 0 82.0854 2.81414 231 117.766 647.827 464.316
2619 0 82.0876 2.76534 227 116.141 648.251 466.709
2620 1 105.232 10.1395 1067 110.337 648.639 445.409
2621 0 111.392 11.4281 1273 107.303 647.872 443.221
2622 0 109.492 9.94591 1089 111.574 647.912 443.847
2623 0 115.418 10.7609 1242 111.44 648.189 439.548
2624 0 118.354 11.1276 1317 109.125 648.134 441.757
2625 0 120.608 10.7539 1297 110.282 647.49 441.712
2626 0 123.511 10.6954 1321 110.953 647.652 440.505
2627 0 127.331 10.2018 1299 113.575 647.169 440.219
2628 1 71.2344 10.5988 755 101.793 646.658 466.068
2629 0 74.3972 12.9575 964 111.173 646.13 464.049
2630 0 75.4333 11.7455 886 115.427 645.918 463.904
2631 0 76.2398 11.5556 881 117.369 646.686 463.519
2632 0 77.3814 12.7292 985 116.178 646.215 460.824
2633 0 79.373 12.1956 968 118.053 645.788 461.767
2634 0 83.2903 12.0062 1000 119.309 645.874 460.17
2635 0 85.4514 12.077 1032 120.897 645.537 458.853
2636 0 87.4276 11.9299 1043 120.983 646.454 458.486
2637 0 89.6997 12.8206 1150 120.912 646.802 455.282
2638 0 93.5258 12.3495 1155 120.261 646.642 451.012
2639 0 94.532 11.9854 1133 121.883 646.185 451.335
2640 0 97.2198 11.7569 1143 112.935 646.993 453.454
2641 0 96.3412 10.6497 1026 118.359 647.308 449.242
2642 0 102.314 12.3052 1259 114.199 646.581 450.405
2643 0 103.226 12.2353 1263 116.898 646.967 444.563
2644 0 106.229 12.3506 1312 118.82 646.922 447.412
2645 0 111.505 12.717 1418 118.326 646.978 446.276
2646 0 113.291 12.64 1432 118.934 646.256 444.626
2647 0 116.268 12.4969 1453 120.452 646.186 443.773
2648 0 115.25 11.9305 1375 147.222 647.09 442.366
2649 0 123.234 13.4216 1654 119.889 645.959 441.67
2650 0 126.212 12.3998 1565 121.933 645.96 439.754
2651 0 131.339 12.6467 1661 121.898 646.304 436.061
2652 0 134.182 12.3862 1662 124.275 646.557 433.406
2653 1 77.0885 9.83285 758 115.741 644.924 465.001
2654 0 79.1626 12.089 957 113.321 645.149 461.452
2655 0 83.2072 11.4053 949 115.168 644.792 462.858
2656 0 86.2568 11.5237 994 115.461 644.19 461.349
2657 0 87.1889 12.3869 1080 115.269 644.765 457.907
2658 0 92.0745 11.7948 1086 115.446 644.655 459.719
2659 0 94.1381 12.6304 1189 116.126 645.193 456.021
2660 0 96.179 13.0382 1254 113.312 645.27 455.62
2661 0 98.2054 10.7326 1054 120.571 644.268 453.545
2662 0 104.135 11.7636 1225 117.045 644.154 451.047
2663 0 106.137 12.0316 1277 117.489 644.157 448.891
2664 0 108.148 11.1699 1208 119.793 644.15 448.059
2665 0 111.125 12.0045 1334 117.42 644.136 449.369
2666 0 115.271 12.8219 1478 116.032 644.681 445.014
2667 0 117.08 12.5555 1470 116.831 644.374 443.661
2668 0 123.179 13.2734 1635 113.435 644.851 440.37
2669 0 125.123 11.9562 1496 117.192 645.009 441.701
2670 0 128.131 11.2151 1437 120.997 644.935 440.83
2671 1 76.0558 10.1636 773 113.739 644.881 465.7
2672 0 80.1169 11.4707 919 111.06 647.832 465.455
2673 0 82.154 11.162 917 113.128 647.642 463.197
2674 0 85.1047 11.903 1013 110.456 647.278 462.602
2675 0 86.1591 11.6645 1005 111.794 647.109 461.307
2676 0 89.0962 11.9085 1061 111.079 646.679 459.037
2677 0 89.216 11.2648 1005 113.25 647.012 456.116
2678 0 92.1531 11.3073 1042 113.618 646.656 455.41
2679 0 99.2474 12.9071 1281 107.759 646.878 456.571
2680 0 99.1967 11.6637 1157 113.638 647.115 451.588
2681 0 102.21 12.7482 1303 111.213 646.833 453.243
2682 0 107.171 12.522 1342 113.343 647.192 451.229
2683 0 107.203 13.4792 1445 115.167 647.158 448.734
2684 0 110.179 12.6703 1396 119.452 647.022 444.977
2685 0 111.186 11.7191 1303 123.367 647.259 441.741
2686 0 115.111 11.2674 1297 124.19 646.53 441.326
2687 0 118.211 11.0565 1307 124.604 646.668 441.09
2688 0 122.155 13.2291 1616 120.22 646.365 436.005
2689 0 127.221 13.1896 1678 117.973 646.242 438.398
2690 0 131.362 13.2002 1734 118.607 645.892 432.479
2691 0 133.25 12.2101 1627 121.973 646.052 430.537
2692 1 74.1209 8.91786 661 117.908 647.303 463.431
2693 0 71.0854 10.7476 764 110.626 646.806 454.312
2694 0 72.1015 9.87497 712 112.973 646.368 451.539
2695 0 78.0644 10.0686 786 111.313 647.017 450.174
2696 0 80.0804 9.32813 747 113.622 646.772 450.13
2697 0 76.095 9.82981 748 115.783 646.68 445.082
2698 0 84.1831 12.2115 1028 109.516 646.456 446.755
2699 0 93.2032 11.6734 1088 108.91 646.394 446.678
2700 0 90.1006 10.6437 959 114.605 646.674 443.332
2701 0 94.1518 10.3025 970 115.728 646.656 443.533
2702 0 96.0592 11.597 1114 112.996 646.389 444.032
2703 0 100.096 10.9195 1093 115.708 647.242 439.458
2704 0 102.083 11.2556 1149 115.882 647.433 436.755
2705 0 106.12 11.2137 1190 115.724 646.712 436.35
2706 0 111.142 12.6504 1406 113.127 646.434 436.419
2707 0 113.081 11.735 1327 116.758 646.907 434.956
2708 0 122.263 12.8085 1566 115.593 646.496 435.381
2709 0 124.091 12.378 1536 116.757 646.961 429.053
2710 0 130.127 12.4647 1622 116.006 647.001 428.928
2711 0 134.159 12.8505 1724 115.997 646.944 425.483
2712 0 138.223 13.5867 1878 113.224 647.063 425.484
2713 1 76.1991 9.80326 747 115.07 647.518 455.487
2714 0 77.223 11.551 892 110.908 646.262 456.576
2715 0 81.266 10.6318 864 113.919 646.034 454.65
2716 0 82.2034 10.7781 886 115.48 645.747 453.226
2717 0 83.2213 10.9107 908 116.643 645.666 450.722
2718 0 87.327 11.2909 986 115.245 645.38 450.493
2719 0 91.2023 12.1269 1106 113.642 646.243 449.787
2720 0 91.1947 12.3362 1125 114.101 645.953 448.989
2721 0 96.2404 12.1882 1173 114.577 646.012 446.41
2722 0 96.263 11.8945 1145 115.162 646.041 444.356
2723 0 101.306 11.8256 1198 114.935 646.106 443.639
2724 0 104.37 11.8617 1238 114.187 646.388 444.086
2725 0 106.22 12.7283 1352 112.591 646.218 441.063
2726 0 109.278 12.363 1351 114.28 647.198 438.897
2727 0 113.296 13.3368 1511 112.193 646.328 435.626
2728 0 114.239 12.7452 1456 115.354 646.489 435.466
2729 0 115.303 12.5322 1445 117.865 646.204 434.384
2730 0 118.264 13.25 1567 115.782 646.486 430.34
2731 0 126.326 13.2435 1673 114.783 647.136 429.106
2732 0 126.282 13.161 1662 116.755 647.138 426.306
2733 0 129.238 13.804 1784 115.572 646.424 422.629
2734 0 138.24 13.3753 1849 115.756 646.949 423.819
2735 0 139.483 14.0877 1965 115.133 647.116 420.126
2736 0 144.412 13.2191 1909 118.328 646.682 417.72
2737 0 151.284 14.0134 2120 115.866 646.111 417.855
2738 0 154.364 12.9693 2002 120.365 645.912 414.624
2739 0 158.237 13.2776 2101 121.184 645.328 411.936
2740 0 160.361 13.613 2183 122.056 646.287 412.253
2741 0 167.325 13.6621 2286 122.983 645.826 407.315
2742 0 165.254 12.4294 2054 128.217 646.313 401.52
2743 0 175.363 13.281 2329 125.552 646.277 402.271
2744 0 181.365 14.65 2657 122.615 646.57 400.847
2745 0 186.291 14.2305 2651 124.533 646.035 398.294
2746 0 188.347 13.4698 2537 128.613 646.344 395.67
2747 0 196.356 13.6894 2688 128.729 645.678 395.081
2748 0 201.229 13.4175 2700 129.69 646.209 386.094
2749 0 207.35 12.843 2663 131.66 646.452 383.129
2750 0 212.286 13.4018 2845 129.93 646.638 376.437
2751 0 224.297 13.4331 3013 128.581 646.472 374.578
2752 1 44.0757 9.02992 398 96.0327 648.734 466.535
2753 0 43.0639 8.80087 379 99.4881 648.504 466.821
2754 0 46.0385 8.66666 399 97.7845 648.945 468.885
2755 0 48.0337 9.41007 452 97.9248 649.221 467.575
2756 0 54.052 9.06535 490 97.5184 648.598 466.916
2757 0 54.1745 8.4357 457 98.8206 648.3 468.74
2758 0 55.0669 9.55203 526 98.1502 647.597 466.563
2759 0 59.0789 10.2236 604 102.48 649.381 473.464
2760 0 61.0429 10.0749 615 104.161 649.151 471.937
2761 0 62.0356 11.7191 727 99.7373 648.177 472.018
2762 0 65.1465 10.438 680 102.779 647.169 470.532
2763 0 67.0817 11.7171 786 100.874 647.197 468.635
2764 0 66.1177 10.1486 671 105.759 646.639 466.627
2765 0 72.1083 10.6923 771 104.354 646.198 466.178
2766 0 74.1722 11.0688 821 104.201 646.248 461.627
2767 0 76.0885 10.8426 825 104.973 646.605 461.981
2768 0 77.1566 10.3944 802 106.652 646.579 463.887
2769 0 78.0837 10.54 823 105.572 647.146 463.369
2770 0 80.1858 10.7874 865 105.601 647.484 464.021
2771 0 85.0716 11.602 987 102.957 647.024 461.272
2772 0 88.1079 11.1908 986 104.213 646.482 458.757
2773 1 53.0577 9.00906 478 105.757 645.575 476.711
2774 0 55.1053 9.58166 528 111.337 646.044 475.157
2775 0 57.135 11.7266 670 106.852 646.342 476.151
2776 0 58.1332 10.0975 587 107.332 645.56 475.324
2777 0 59.0946 10.7793 637 107.014 645.78 474.854
2778 0 60.2258 11.2576 678 106.088 646.249 474.305
2779 0 62.3692 10.3416 645 107.425 646.096 472.919
2780 0 63.2269 10.834 685 107.93 645.893 471.117
2781 0 65.3339 10.8213 707 108.539 646.066 469.287
2782 0 66.281 10.3499 686 110.51 645.869 467.464
2783 0 72.1308 13.0319 940 101.926 646.669 469.577
2784 0 71.3189 12.1987 870 105.867 646.569 467.791
2785 0 73.3865 12.3183 904 106.543 645.73 466.067
2786 0 74.3366 12.1474 903 106.911 646.538 467.826
2787 0 78.5552 12.8572 1010 106.37 645.411 462.938
2788 0 79.4886 13.222 1051 106.958 646.122 461.722
2789 0 79.5228 13.2289 1052 107.49 645.803 460.795
2790 0 82.6226 12.9262 1068 108.673 645.909 457.962
2791 0 83.5115 13.0042 1086 110.973 645.921 455.808
2792 0 84.7599 12.4351 1054 112.815 646.272 455.182
2793 0 89.3891 13.0888 1170 110.609 646.117 454.863
2794 0 88.5272 11.9511 1058 115.094 646.42 453.613
2795 0 93.4386 12.7677 1193 113.471 646.214 453.383
2796 0 95.6539 13.392 1281 118.938 646.936 448.85
2797 0 98.3793 13.885 1366 117.7 646.538 449.799
2798 0 101.524 11.6426 1182 124.412 646.379 445.865
2799 0 105.518 13.2395 1397 119.903 646.591 446.48
2800 1 61.313 9.16608 562 121.048 645.541 461.941
2801 0 63.1539 10.6248 671 117.404 646.204 463.647
2802 0 65.305 11.454 748 115.08 645.532 461.488
2803 0 67.1448 11.155 749 116.824 646.222 461.288
2804 0 66.098 10.2878 680 121.774 646.452 462.204
2805 0 69.1342 11.7597 813 117.855 645.9 462.448
2806 0 72.1197 12.091 872 117.901 645.818 459.107
2807 0 75.1192 11.4085 857 118.915 645.864 458.721
2808 0 76.1669 12.0131 915 117.401 645.682 456.924
2809 0 78.1639 11.719 916 119.062 646.09 456.92
2810 0 81.2284 12.3479 1003 117.363 646.512 455.347
2811 0 82.1497 12.465 1024 119.166 646.947 454.091
2812 0 86.2002 12.0997 1043 119.67 646.313 451.325
2813 0 88.1522 13.1817 1162 117.317 646.281 452.968
2814 0 89.0792 11.8097 1052 122.281 645.756 450.076
2815 0 91.2752 12.3911 1131 120.836 645.7 448.362
2816 0 97.3068 13.0104 1266 117.292 645.27 444.955
2817 0 101.638 13.5284 1375 115.655 645.874 444.168
2818 0 103.474 12.2156 1264 120.877 645.828 442.569
2819 0 107.45 12.4523 1338 119.777 645.765 442.418
2820 1 59.2532 8.13459 482 122.459 644.454 461.683
2821 0 62.0872 10.3403 642 115.182 645.122 467.516
2822 0 66.2131 10.1792 674 115.417 645.596 466.16
2823 0 65.1734 10.4337 680 117.444 646.394 464.735
2824 0 70.2197 12.703 892 114.362 647.013 464.72
2825 0 70.139 11.7338 823 118.577 646.2 459.938
2826 0 72.3512 12.2735 888 117.472 646.345 459.911
2827 0 76.2828 12.3881 945 116.27 647.204 462.519
2828 0 77.1146 12.9029 995 116.424 646.01 457.648
2829 0 79.2179 12.4846 989 118.115 646.417 455.171
2830 0 81.2511 11.7168 952 120.234 646.044 454.634
2831 0 83.1895 11.8044 982 121.258 646.064 452.668
2832 0 89.1733 12.4813 1113 117.798 645.754 453.15
2833 0 91.1931 12.3474 1126 118.909 645.52 451.985
2834 0 91.339 11.7365 1072 121.196 645.812 449.883
2835 0 96.4161 11.9793 1155 118.964 646.223 450.922
2836 0 98.3011 11.9836 1178 119.382 645.812 448.654
2837 0 105.227 13.105 1379 113.195 645.582 451.517
2838 0 105.246 12.143 1278 117.072 645.671 447.119
2839 0 107.264 11.8586 1272 118.737 645.229 447.72
2840 0 113.298 12.1627 1378 117.31 645.144 446.209
2841 1 64.2656 9.69414 623 111.746 645.111 473.266
2842 0 64.1611 8.29163 532 114.235 645.804 462.367
2843 0 68.367 9.56602 654 108.266 645.558 461.804
2844 0 69.2015 10.2888 712 105.459 645.824 466.489
2845 0 72.1303 10.9801 792 104.275 646.384 465.442
2846 0 77.241 11.2893 872 101.318 646.311 464.812
2847 0 77.2737 10.1716 786 106.136 646.191 458.86
2848 0 82.2428 11.4417 941 102.301 646.126 461.317
2849 0 83.1895 11.1673 929 104.538 645.461 457.73
2850 0 85.2264 11.3932 971 103.352 645.37 458.348
2851 0 88.2998 12.5708 1110 101.128 645.479 456.877
2852 0 91.2043 12.631 1152 101.045 646.766 455.431
2853 0 94.2892 12.0162 1133 102.595 645.97 452.601
2854 0 97.4885 11.7142 1142 103.603 646.11 450.15
2855 0 99.2555 11.143 1106 104.049 645.264 446.194
2856 0 103.232 12.0796 1247 102.358 645.302 446.071
2857 0 103.426 10.0459 1039 107.973 645.33 442.007
2858 0 109.338 11.3135 1237 104.543 645.251 443.693
2859 0 114.36 10.5894 1211 105.434 645.876 440.748
2860 0 115.26 11.3743 1311 104.029 645.558 438.203
2861 0 120.289 10.6244 1278 105.007 645.005 439.08
2862 1 69.1874 8.70101 602 98.5166 645.223 468.159
2863 0 73.1338 10.5833 774 95.3979 644.734 465.841
2864 0 73.1084 9.62953 704 97.5128 645.168 464.09
2865 0 76.0725 10.5031 799 96.0476 645.289 462.782
2866 0 78.1584 11.5535 903 94.3499 645.863 459.802
2867 0 83.223 11.319 942 94.0138 646.253 460.596
2868 0 83.1196 10.142 843 98.0214 645.694 458.945
2869 0 85.2062 10.9851 936 97.2981 646.048 455.663
2870 0 87.1696 11.3572 990 97.3121 645.623 457.703
2871 0 92.1485 12.0132 1107 96.0461 645.673 454.418
2872 0 96.2447 12.0007 1155 96.6468 645.024 453.004
2873 0 96.2097 10.6434 1024 99.8721 645.133 455.177
2874 0 100.299 12.3032 1234 98.41 645.45 448.306
2875 0 101.251 12.5134 1267 99.6172 645.324 449.181
2876 0 104.154 11.3582 1183 104.08 645.591 448.233
2877 0 106.152 10.4849 1113 107.571 645.984 448.891
2878 0 113.168 11.8674 1343 104.598 645.85 446.299
2879 0 115.205 11.4665 1321 106.519 645.54 443.557
2880 1 64.2485 10.9574 704 99.2443 646.365 469.334
2881 0 66.2108 12.1732 806 97.6911 646.051 468.806
2882 0 65.1946 11.2739 735 99.8884 645.906 466.895
2883 0 68.1926 12.4354 848 97.4399 646.1 468.818
2884 0 70.1474 11.1622 783 99.8633 646.211 466.685
2885 0 74.1536 11.2604 835 98.7425 646.479 463.753
2886 0 75.2464 11.2696 848 98.9434 646.222 463.252
2887 0 78.2296 12.6423 989 96.6542 646.651 461.661
2888 0 81.257 12.4543 1012 97.0138 647.118 461.265
2889 0 83.3478 13.1017 1092 97.0284 646.994 459.486
2890 0 84.2418 10.2087 860 103.809 647.402 457.815
2891 0 88.2682 12.2128 1078 100.485 646.754 454.843
2892 0 91.179 13.3035 1213 98.4394 646.115 456.296
2893 0 94.2086 11.793 1111 102.539 646.773 456.264
2894 0 95.1939 12.4903 1189 102.738 646.315 452.554
2895 0 98.0987 12.7728 1253 102.569 646.155 450.93
2896 0 100.185 13.0559 1308 103.652 646.74 451.911
2897 0 104.181 12.0944 1260 106.761 645.761 450.258
2898 0 104.248 11.3863 1187 110.096 645.621 447.521
2899 0 109.234 12.3222 1346 108.438 646.75 446.807
2900 0 110.187 12.2156 1346 110.738 646.163 440.995
2901 0 117.282 14.0516 1648 105.819 645.539 442.698
2902 0 121.302 12.4153 1506 108.624 645.946 441.375
2903 0 123.295 14.0962 1738 104.54 644.842 440.27
2904 0 128.3 14.4193 1850 104.881 644.341 439.631
2905 0 132.291 12.6614 1675 109.146 644.45 436.673
2906 0 134.392 11.8162 1588 112.678 644.64 434.96
2907 1 76.1398 11.5446 879 107.569 645.378 463.116
2908 0 78.1776 11.2692 881 108.631 645.297 463.243
2909 0 82.2742 12.6042 1037 106.221 645.627 462.29
2910 0 85.259 12.9371 1103 106.143 645.675 460.56
2911 0 88.2715 13.0733 1154 106.075 645.537 458.918
2912 0 91.281 12.5546 1146 107.926 645.583 456.389
2913 0 93.6324 13.4569 1260 106.14 645.763 456.773
2914 0 96.4269 13.6684 1318 107.688 645.42 449.465
2915 0 98.3392 12.823 1261 109.251 645.571 449.751
2916 0 99.4802 11.932 1187 112.833 645.22 445.88
2917 0 102.268 12.5749 1286 111.894 645.755 444.646
2918 0 105.388 13.0945 1380 110.44 645.401 446.096
2919 0 106.084 12.4052 1316 114.116 645.584 440.942
2920 0 110.183 13.2417 1459 112.441 644.971 441.428
2921 0 113.187 13.544 1533 112.8 645.57 438.228
2922 0 115.183 14.0385 1617 112.056 645.395 439.084
2923 0 117.16 13.537 1586 115.165 645.339 433.248
2924 0 123.312 14.0619 1734 113.631 645.07 431.926
2925 0 127.426 13.4353 1712 115.702 645.004 428.583
2926 0 132.301 13.4541 1780 115.708 645.647 427.417
2927 0 135.34 12.9452 1752 116.576 645.65 427.331
2928 0 139.56 13.17 1838 117.332 645.819 422.926
2929 1 79.2233 9.83297 779 119.511 645.193 452.836
2930 0 84.1662 11.9525 1006 114.634 645.365 450.693
2931 0 83.1457 11.8467 985 115.979 645.814 448.609
2932 0 88.1431 12.4457 1097 113.75 645.782 447.877
2933 0 92.1831 12.1497 1120 114.217 645.948 446.807
2934 0 96.1847 13.7028 1318 109.977 645.643 446.286
2935 0 100.124 12.6144 1263 112.944 646.034 443.918
2936 0 103.177 13.8693 1431 109.262 646.184 444.734
2937 0 103.117 12.3646 1275 114.838 645.58 437.419
2938 0 105.145 12.0786 1270 115.922 645.5 435.404
2939 0 112.135 11.9232 1337 114.867 645.21 436.93
2940 0 113.175 13.2096 1495 112.151 644.852 434.147
2941 0 121.166 12.9739 1572 111.424 645.184 433.733
2942 0 119.16 12.5713 1498 140.342 645.186 431.759
2943 0 130.218 11.7495 1530 114.775 645.103 426.776
2944 0 135.127 11.8408 1600 113.304 645.262 426.278
2945 1 79.1322 9.3388 739 104.501 645.218 457.844
2946 0 81.0529 9.74672 790 103.272 645.027 454.427
2947 0 85.1856 10.8821 927 100.587 646.127 453.717
2948 0 88.2636 11.9642 1056 99.2964 645.738 454.175
2949 0 89.1441 9.4566 843 104.885 645.002 450.773
2950 0 91.1825 9.62904 878 104.852 645.902 450.778
2951 0 95.2179 10.5127 1001 104.332 646.054 448.125
2952 0 99.1815 10.9295 1084 102.73 646.179 450.454
2953 0 102.149 11.6008 1185 102.013 645.264 445.089
2954 0 106.224 11.5699 1229 102.403 645.178 447.714
2955 0 109.124 11.6289 1269 103.377 645.211 444.061
2956 0 111.211 11.2399 1250 104.862 645.532 444.33
2957 0 114.13 10.7597 1228 107.222 645.064 439.655
2958 0 117.09 11.8968 1393 106.917 644.178 443.956
2959 0 121.103 12.2623 1485 107.601 644.556 436.796
2960 0 127.285 12.3345 1570 106.397 645.383 438.92
2961 0 129.247 11.9926 1550 108.171 646.228 432.252
2962 1 76.1471 10.2696 782 103.276 645.954 467.478
2963 0 78.2132 12.1591 951 100.833 646.316 466.465
2964 0 80.1207 12.3938 993 107.315 644.885 464.631
2965 0 80.0804 11.8006 945 107.441 644.92 463.315
2966 0 84.1441 11.7299 987 108.696 644.876 460.277
2967 0 84.1623 10.6461 896 111.733 644.357 460.326
2968 0 88.1591 12.8064 1129 107.203 644.454 459.641
2969 0 89.0971 11.8073 1052 110.734 644.04 457.116
2970 0 93.1526 11.508 1072 112.144 645.109 457.724
2971 0 96.2557 12.7681 1229 109.678 644.936 455.973
2972 0 99.1273 12.9631 1285 110.047 645.338 453.57
2973 0 102.196 13.7873 1409 108.637 645.174 452.605
2974 0 104.139 11.6768 1216 114.961 645.134 450.503
2975 0 105.157 12.0962 1272 115.116 644.682 449.01
2976 0 111.145 12.2543 1362 115.157 644.537 448.233
2977 0 113.209 13.0202 1474 113.909 644.94 443.892
2978 0 119.327 13.4672 1607 112.2 645.137 446.278
2979 1 71.1787 10.5931 754 115.464 644.696 466.45
2980 0 69.1707 10.2789 711 112.387 645.208 462.574
2981 0 71.2687 10.0465 716 115.895 644.965 457.499
2982 0 75.1875 11.877 893 102.727 646.443 462.885
2983 0 78.1304 10.5337 823 106.426 645.911 457.996
2984 0 82.1919 11.1082 913 105.218 646.453 457.46
2985 0 83.1333 11.4154 949 104.174 646.606 459.152
2986 0 87.2328 11.945 1042 104.371 646.682 457.237
2987 1 15.0026 5.39907 81 88.8148 648.346 494.951
2988 0 11.0015 7.36261 81 88.0988 648.148 494.852
2989 0 12.0028 6.24854 75 93.1733 648.84 493.813
2990 0 12.0018 2.74959 33 95.5758 648.303 495.152
2991 0 13.001 5.30729 69 92.6667 648.304 494.159
2992 0 15.0104 4.8633 73 93.0959 648.301 494.74
2993 0 12.0063 3.83131 46 94.1304 648.478 496.457
2994 0 13.0314 6.59944 86 90.9767 647.465 496.279
2995 1 71.1251 8.46396 602 107.231 646.369 470.561
2996 0 69.1152 8.07348 558 106.392 646.109 472.677
2997 0 68.115 6.98819 476 130.023 646.034 471.023
2998 0 70.1305 10.7371 753 104.112 645.842 466.013
2999 0 74.184 10.8784 807 102.582 645.662 466.2
3000 0 74.1348 10.7912 800 103.194 645.202 464.286
3001 0 75.1652 10.3904 781 104.464 645.453 462.266
3002 0 78.0958 8.8353 690 107.084 645.306 459.091
3003 0 80.1033 11.1606 894 102.957 646.502 461.047
3004 0 84.1051 10.1658 855 104.677 645.882 458.323
3005 0 87.1905 11.9394 1041 100.927 645.426 456.198
3006 0 89.1651 12.2918 1096 100.405 645.777 458.117
3007 0 91.1456 10.0828 919 104.84 646.143 456.903
3008 0 93.2051 11.0724 1032 103.785 645.545 456.223
3009 0 96.1816 11.2599 1083 104.353 645.752 454.352
3010 0 98.3376 10.647 1047 106.965 645.816 451.56
3011 0 101.243 11.5366 1168 105.914 645.027 449.42
3012 0 106.286 11.9489 1270 105.157 645.024 450.241
3013 0 108.273 11.5542 1251 105.847 645.612 449.099
3014 0 110.249 11.8277 1304 106.252 645.422 449.254
3015 0 114.176 13.3917 1529 104.246 645.788 448.299
3016 0 117.181 12.4338 1457 108.633 645.51 443.951
3017 0 121.179 12.4444 1508 112.274 645.588 442.614
3018 0 123.278 11.5268 1421 114.473 645.696 443.958
3019 0 128.347 11.2585 1445 115.502 645.645 439.773
3020 0 131.323 10.6988 1405 116.685 645.647 437.762
3021 0 136.235 11.282 1537 115.046 645.392 436.304
3022 0 136.234 11.216 1528 149.61 645.374 436.321
3023 1 82.1233 10.6791 877 105.01 645.946 463.763
3024 0 84.1419 10.102 850 106.082 645.869 464.332
3025 0 88.1672 11.603 1023 104.665 645.133 460.31
3026 0 87.2201 10.1697 887 108.789 645.667 459.89
3027 0 94.1948 11.4231 1076 105.562 645.382 459.274
3028 0 95.2474 11.6434 1109 106.181 645.923 459.538
3029 0 95.1807 9.89697 942 112.351 645.25 455.618
3030 0 103.353 12.2299 1264 106.473 645.993 455.658
3031 0 105.198 12.101 1273 107.612 646.27 452.113
3032 0 106.227 11.7107 1244 108.904 645.52 453.928
3033 0 110.323 11.1037 1225 110.714 646.046 451.666
3034 0 113.272 11.6445 1319 110.781 645.926 449.692
3035 0 119.225 11.7089 1396 110.9 646.358 448.152
3036 0 121.273 11.0247 1337 112.546 645.556 447.909
3037 1 70.1927 8.23448 578 111.723 646.519 472.41
3038 0 73.0739 12.1794 890 105.488 646.562 469.926
3039 0 75.1041 12.8755 967 105.037 645.385 467.012
3040 0 78.1801 11.1409 871 113.246 645.901 465.456
3041 0 82.2838 13.0281 1072 113.027 645.21 466.309
3042 0 82.284 12.6878 1044 115.511 645.647 464.34
3043 0 86.2154 13.2691 1144 114.161 646.23 463.157
3044 0 88.185 13.3129 1174 114.735 645.94 461.946
3045 0 88.2566 12.2824 1084 118.367 646.267 460.935
3046 0 92.1198 13.743 1266 108.658 645.801 459.184
3047 0 95.1684 14.1539 1347 111.056 646.065 459.845
3048 0 94.1659 12.17 1146 122.43 645.79 456.295
3049 0 97.2341 14.6965 1429 105.082 646.594 458.969
3050 0 96.2628 13.0892 1260 117.027 647.606 455.704
3051 0 97.1787 13.4392 1306 121.191 646.979 455.992
3052 0 96.1731 12.9766 1248 121.835 646.396 454.869
3053 0 99.1196 12.1873 1208 118.415 646.275 455.15
3054 0 100.171 11.9795 1200 119.741 646.599 455.437
3055 0 104.202 12.6294 1316 115.762 646.502 454.524
3056 0 106.148 12.558 1333 116.278 646.611 452.253
3057 0 108.293 10.8409 1174 119.602 647.072 449.21
3058 1 65.187 12.073 787 104.436 646.765 473.811
3059 0 66.186 10.0777 667 108.768 646.586 469.786
3060 0 69.1844 11.7223 811 104.354 646.693 469.718
3061 0 69.1587 11.7411 812 105.48 646.682 471.248
3062 0 71.133 11.2184 798 106.096 646.401 468.011
3063 0 74.0453 12.3303 913 105.755 646.54 469.212
3064 0 77.1387 12.3544 953 105.643 646.488 467.674
3065 0 78.1193 12.5833 983 106.393 645.904 467.132
3066 0 82.1098 12.9704 1065 105.908 646.247 464.728
3067 0 81.186 11.4059 926 112.01 645.276 463.471
3068 0 84.2022 12.1493 1023 112.415 645.8 461.9
3069 0 86.1801 11.9285 1028 114.795 646.353 460.419
3070 0 87.2253 11.3843 993 118.891 645.431 459.43
3071 0 91.1876 12.5127 1141 116.883 645.628 459.473
3072 0 94.2067 13.7464 1295 115.792 646.018 456.209
3073 1 52.0799 10.4455 544 119.09 646.597 479.596
3074 0 55.039 11.9188 656 116.723 646.998 478.922
3075 0 56.175 11.9448 671 120.152 645.736 474.452
3076 0 57.1412 11.6553 666 125.069 645.132 472.29
3077 0 60.221 11.956 720 125.126 645.375 473.201
3078 0 58.1765 11.4479 666 131.2 645.405 471.583
3079 0 59.2386 11.6309 689 132.126 644.891 472.055
3080 0 61.1082 12.4042 758 130.959 646.042 472.208
3081 0 62.1309 10.7193 666 136.692 646.173 470.524
3082 0 65.1563 12.0019 782 133.76 645.789 469.886
3083 0 68.1885 13.36 911 132.044 645.376 468.482
3084 0 68.1687 11.7796 803 137.578 645.415 469.6
3085 0 71.1289 12.8358 913 133.755 646.173 468.331
3086 0 74.1817 13.1569 976 132.943 645.835 467.619
3087 0 72.1529 12.5567 906 137.74 645.639 465.144
3088 0 75.2101 13.1365 988 135.804 645.896 462.526
3089 0 78.213 12.939 1012 134.56 645.767 464.056
3090 0 79.2079 12.7639 1011 135.222 646.237 464.254
3091 0 83.2072 13.2801 1105 131.496 646.432 463.148
3092 0 82.1365 13.1001 1076 136.267 646.201 460.719
3093 0 87.1379 14.4025 1255 131.399 646.12 460.601
3094 0 86.11 13.8195 1190 134.258 646.34 458.475
3095 0 88.2269 13.2953 1173 135.679 646.455 457.174
3096 0 92.2039 13.7304 1266 133.784 646.242 454.561
3097 0 92.1136 13.3205 1227 136.18 646.878 454.186
3098 0 95.1851 12.4494 1185 138.261 645.646 452.438
3099 0 98.2135 13.2568 1302 134.998 646.146 450.121
3100 0 100.272 12.9249 1296 135.914 646.272 449.058
3101 0 104.298 13.7491 1434 133.075 646.358 448.745
3102 0 104.167 13.0368 1358 135.531 646.24 447.264
3103 0 107.135 13.1703 1411 135.075 646.604 442.802
3104 0 112.267 13.6639 1534 131.181 646.229 443.388
3105 0 112.265 13.6106 1528 134.207 646.226 443.309
3106 0 119.247 13.0737 1559 131.563 646.495 438.849
3107 0 124.076 13.5159 1677 129.534 647.171 438.045
3108 0 127.159 12.9051 1641 131.041 646.79 434.45
3109 0 131.182 13.0505 1712 129.287 646.531 434.471
3110 0 137.15 13.2264 1814 127.374 646.357 431.952
3111 0 140.199 13.2097 1852 127.416 645.945 426.928
3112 0 145.172 13.639 1980 125.338 646.311 428.333
3113 0 149.26 12.0863 1804 130.599 645.412 420.775
3114 0 156.45 13.2566 2074 127.417 644.58 416.737
3115 0 160.181 13.2537 2123 127.838 645.069 413.131
3116 0 165.363 13.6548 2258 125.941 646.059 415.187
3117 0 171.186 13.4182 2297 126.427 645.879 412.403
3118 0 174.357 13.0938 2283 128.139 645.027 405.846
3119 0 180.248 12.5106 2255 129.354 645.995 399.535
3120 0 187.594 12.8789 2416 126.889 645.288 401.473
3121 0 193.406 12.9003 2495 128.943 646.012 393.05
3122 1 49.2221 10.0361 494 115.103 645.929 472.953
3123 0 50.1066 10.3978 521 115.198 646.394 473.818
3124 0 54.2391 10.9515 594 115.354 646.744 474.662
3125 0 54.1863 10.5008 569 116.228 647.515 474.722
3126 0 54.2337 10.5654 573 117.531 647.129 471.803
3127 0 60.3097 11.3083 682 114.496 646.943 472.16
3128 0 62.2432 11.2141 698 115.15 646.619 470.862
3129 0 62.3726 11.9123 743 115.206 646.118 468.397
3130 0 66.2325 12.6826 840 111.663 646.18 466.344
3131 0 69.4193 12.9647 900 110.409 646.182 467.422
3132 0 72.2611 12.7178 919 111.649 646.552 467.36
3133 0 73.3109 12.7812 937 112.25 646.649 464.751
3134 1 28.077 8.97531 252 99.9167 647.429 489.786
3135 0 27.2727 9.79 267 101.689 648.064 487.73
3136 0 28.0292 8.17004 229 103.843 648.214 488.668
3137 0 27.0174 8.73513 236 99.0975 647.958 490.525
3138 0 29.0178 9.54587 277 97.426 647.942 490.173
3139 0 30.1378 9.45657 285 99.6912 648.425 488.849
3140 0 30.0058 9.73144 292 98.0308 649.082 489.38
3141 0 30.019 10.3601 311 98.9711 648.45 488.553
3142 0 29.0544 10.4976 305 99.8066 648.915 489.495
3143 0 31.0395 10.6961 332 101.105 648.337 488.446
3144 0 31.0206 11.2828 350 102.797 648.497 488.866
3145 0 29.1167 10.6468 310 110.542 648.836 489.029
3146 0 31.1028 10.5457 328 109.07 648.582 490.061
3147 0 32.0557 11.6048 372 105.382 648.492 490.065
3148 0 30.0155 10.861 326 111.184 648.064 489.172
3149 0 30.0584 9.54809 287 118.589 648.697 489.321
3150 0 33.044 12.0143 397 111.086 648.214 489.982
3151 0 35.1018 12.3925 435 108.761 648.308 490.423
3152 0 33.0916 13.0547 432 112.056 648.032 489.817
3153 0 34.0331 12.7229 433 114.025 648.928 490.499
3154 0 36.0079 12.1918 439 116.92 648.563 486.023
3155 0 34.2208 12.2732 420 119.352 646.193 472.231
3156 0 35.1927 11.7922 415 120.002 645.622 472.125
3157 0 35.1748 13.2765 467 117.317 646.876 471.418
3158 0 38.198 14.3201 547 114.768 646.362 471.399
3159 0 35.2851 12.4132 438 124.888 646.274 471.605
3160 0 39.0693 14.5127 567 114.557 644.954 474.039
3161 0 37.038 13.3377 494 122.144 645.051 473.988
3162 0 38.0567 14.3207 545 118.745 644.85 474.642
3163 0 37.027 12.3153 456 126.754 644.445 474.502
3164 0 37.0322 13.2317 490 122.649 645.492 478.567
3165 0 38.0286 13.2795 505 122.032 645.634 479.321
3166 0 37.0274 13.2605 491 125.09 645.271 479.273
3167 0 38.0087 13.9968 532 123.295 645.224 479.983
3168 0 38.0627 13.3201 507 122.351 645.521 481.12
3169 0 37.0436 13.6056 504 121.532 644.931 488.921
3170 0 36.0264 12.4631 449 126.145 645.305 490.022
3171 0 37.1032 13.1255 487 123.832 644.643 488.361
3172 0 36.0405 13.2351 477 124.771 644.897 489.421
3173 0 36.1132 12.8762 465 126.727 644.789 488.789
3174 0 36.0844 13.1081 473 125.996 645.55 488.285
3175 0 35.0596 13.0064 456 127.98 645.671 487.684
