time division length width area intensity CMx CMy
0 0 30.02 11.559 347 157.914 356.04 479.533
1 0 31.0236 12.9579 402 152.423 356.488 478.361
2 0 32.0373 12.7352 408 151.583 356.939 479.324
3 0 33.0135 12.3586 408 154.1 356.811 478.765
4 0 36.0205 12.9371 466 148.178 356.736 478.092
5 0 36.0049 12.5261 451 150.255 357.184 478.871
6 0 34.0247 12.726 433 156.028 357.139 477.113
7 0 38.0155 14.0206 533 143.426 356.895 479.098
8 0 40.0696 13.0772 524 147.614 356.74 478.494
9 0 40.0632 13.1542 527 148.992 356.744 477.323
10 0 41.0256 13.1625 540 149.861 356.069 477.102
11 0 41.0714 13.0261 535 151.434 357.439 477.974
12 0 44.0325 13.49 594 146.936 356.71 477.049
13 0 43.0573 14.3762 619 147.446 355.903 476.502
14 0 46.0926 14.4058 664 145.062 355.828 476.863
15 0 46.0999 14.4252 665 147.956 355.741 476.424
16 0 48.0748 13.7494 661 147.722 355.198 475.706
17 0 47.0257 13.9073 654 150.592 355.355 475.219
18 0 50.0967 14.3922 721 146.494 355.687 475.348
19 0 50.0495 14.2459 713 149.576 355.669 474.931
20 0 50.0724 14.2194 712 150.732 354.42 473.664
21 0 55.0559 15.4933 853 141.791 353.993 470.183
22 0 56.0691 14.7318 826 147.149 354.47 473.054
23 0 59.1176 16.2896 963 139.194 355.016 471.444
24 0 59.0845 15.6725 926 140.64 353.708 472.778
25 0 60.0924 15.9088 956 140.689 353.635 470.696
26 0 63.0629 16.4439 1037 138.584 354.401 469.907
27 0 63.0775 14.3633 906 153.129 353.807 468.88
28 0 67.1233 15.911 1068 146.689 352.965 467.5
29 0 68.0529 15.7231 1070 148.22 353.407 466.314
30 0 71.1083 15.835 1126 146.099 353.44 467.244
31 0 73.0866 15.4201 1127 148.486 352.881 466.12
32 0 75.0918 15.2347 1144 148.891 352.263 464.554
33 0 77.1952 14.8714 1148 149.296 352.648 465.071
34 0 81.1058 15.1037 1225 147.393 352.33 462.945
35 0 83.1004 15.3309 1274 147.005 352.607 460.774
36 0 86.0996 15.5169 1336 145.049 353.43 458.986
37 0 91.0904 15.4681 1409 142.084 353.176 458.63
38 0 91.1746 14.6861 1339 146.325 352.667 455.523
39 1 45.0276 11.926 537 148.153 352.294 479.831
40 0 48.0802 13.0199 626 146.072 352.107 477.211
41 0 52.0566 13.0627 680 144.822 352.625 476.134
42 0 53.0303 14.0486 745 143.286 352.144 474.691
43 0 56.0312 13.3675 749 145.127 352.975 474.338
44 0 57.17 14.2732 816 142.202 352.585 472.668
45 0 61.1642 14.7799 904 138.81 352.115 472.798
46 0 62.045 14.7957 918 142.669 352.137 470.297
47 0 64.0967 14.9306 957 139.463 352.229 469.826
48 0 68.0712 15.0284 1023 138.346 352.531 467.562
49 0 70.1664 15.3635 1078 138.121 351.836 466.668
50 0 71.093 14.6287 1040 142.155 351.778 465.104
51 0 74.0964 15.0885 1118 139.159 351.901 465.315
52 0 77.1113 15.2896 1179 138.649 351.764 462.788
53 0 77.1594 13.5823 1048 144.829 351.544 462.044
54 0 81.1579 14.3794 1167 141.442 351.593 461.291
55 0 83.2242 14.1666 1179 141.949 351.569 461.053
56 0 87.1409 15.1594 1321 139.152 351.862 457.011
57 0 89.2292 15.3313 1368 138.716 350.904 455.522
58 0 91.0847 15.1507 1380 138.601 351.338 455.499
59 0 96.1487 14.2904 1374 138.26 351.931 452.457
60 0 100.093 14.5464 1456 136.907 351.204 450.135
61 0 104.163 13.9109 1449 137.035 351.146 449.878
62 0 109.398 14.8997 1630 133.506 351.098 446.639
63 1 58.1094 12.442 723 135.144 350.613 471.733
64 0 62.1163 13.7484 854 126.075 351.536 470.437
65 0 65.1621 13.382 872 130.491 351.95 473.972
66 0 65.2029 14.1251 921 129.833 350.672 469.937
67 0 68.2087 13.1801 899 126.506 351.303 466.687
68 0 71.1698 13.6856 974 129.494 351.68 467.401
69 0 74.2316 13.8081 1025 127.312 351.009 467.92
70 0 77.1465 14.2067 1096 125.384 351.552 466.046
71 0 78.2024 13.4139 1049 129.298 350.673 463.89
72 0 81.2661 13.9296 1132 127.398 350.564 462.434
73 0 85.2382 14.4419 1231 126.441 351.658 458.835
74 0 87.2562 14.1881 1238 126.627 351.695 458.717
75 0 91.3505 13.9463 1274 125.577 350.928 457.488
76 0 95.303 14.3752 1370 125.495 351.225 454.662
77 0 98.3543 13.8072 1358 125.839 351.138 453.697
78 0 102.283 13.6875 1400 125.271 350.938 453.958
79 1 52.0999 12.9943 677 117.799 351.21 476.51
80 0 56.194 12.2077 686 115.309 351.571 477.198
81 0 59.1171 12.2638 725 117.135 351.931 475.04
82 0 61.2099 12.3183 754 117.003 351.712 474.28
83 0 63.1974 12.6429 799 115.417 351.339 471.895
84 0 65.1311 12.2215 796 117.078 351.585 472.984
85 0 66.0611 13.3816 884 114.757 351.821 471.383
86 0 69.1406 13.0459 902 116.588 351.54 467.314
87 0 70.2059 12.2212 858 118.389 352.408 467.656
88 0 75.2443 12.9977 978 116.74 351.703 465.371
89 0 77.3038 12.7419 985 118.498 351.215 463.641
90 0 78.2725 12.5587 983 118.903 350.949 465.053
91 0 80.4388 12.3199 991 121.365 351.207 462.593
92 0 85.2835 13.7072 1169 117.503 350.637 461.334
93 0 88.2598 12.8371 1133 121.221 350.579 458.598
94 0 92.3313 13.4516 1242 119.308 350.944 456.68
95 1 46.1562 10.5078 485 116.86 351.202 479.713
96 0 49.1482 11.3941 560 118.179 350.529 479.862
97 0 49.0088 11.957 586 117.292 350.396 481.652
98 0 51.1617 11.9425 611 114.838 349.795 479.219
99 0 54.0594 11.2099 606 116.018 350.323 477.853
100 0 56.0536 11.6317 652 114.807 350.347 477.781
101 0 59.0121 12.1501 717 113.386 349.674 476.262
102 0 60.0271 12.7109 763 112.755 350.159 475.261
103 0 63.0831 12.9353 816 112.723 350.425 474.934
104 0 63.0825 13.2366 835 114.024 349.987 472.687
105 0 67.069 12.8226 860 118.094 349.835 474.019
106 0 69.0892 12.1727 841 119.61 349.413 472.169
107 0 72.0511 12.1303 874 120.719 349.789 470.194
108 0 75.1072 13.3809 1005 116.824 350.591 468.789
109 0 76.1502 12.8168 976 118.549 349.851 468.967
110 0 78.119 11.8537 926 121.181 349.323 467.07
111 0 82.1977 13.6379 1121 118.55 349.014 463.178
112 0 85.2202 12.673 1080 119.594 349.884 463.442
113 0 89.1688 12.8632 1147 119.132 349.228 462.66
114 0 89.1797 12.3683 1103 122.063 349.067 461.034
115 0 94.0687 13.2669 1248 119.7 349.804 460.02
116 0 97.1008 13.5529 1316 118.69 349.985 457.119
117 0 101.162 13.2559 1341 119.453 350.465 456.565
118 0 103.159 12.6116 1301 121.792 349.891 453.785
119 0 108.186 12.9314 1399 121.913 350.177 452.204
120 1 59.0877 11.9991 709 118.124 351.035 479.87
121 0 61.0592 13.3477 815 119.103 351.302 475.971
122 0 62.0604 12.0044 745 119.898 349.785 472.164
123 0 66.1495 14.0742 931 118.45 350.211 472.516
124 0 67.1327 13.8383 929 120.746 349.87 470.59
125 0 69.1339 13.2931 919 122.106 350.558 468.791
126 0 71.1607 12.5912 896 115.422 349.648 470.597
127 0 73.1844 11.7921 863 117.904 349.508 469.533
128 0 76.1983 12.5725 958 116.663 350.289 469.201
129 0 77.1607 13.3876 1033 122.614 348.927 465.972
130 0 80.2272 12.5768 1009 124.357 348.944 466.595
131 0 84.1645 13.0459 1098 123.438 348.813 465.519
132 0 85.1577 12.5884 1072 126.358 348.862 463.577
133 0 89.1903 13.2413 1181 125.35 349.449 460.865
134 0 92.2648 12.7568 1177 126.466 349.072 458.552
135 0 96.2349 13.571 1306 123.603 349.279 457.925
136 0 98.2893 13.3178 1309 125.002 348.816 456.19
137 0 102.394 13.1161 1343 125.147 349.279 454.956
138 0 106.447 13.4433 1431 123.79 348.851 453.799
139 0 109.309 14.1434 1546 122.31 348.462 452.174
140 1 58.1699 11.7071 681 119.999 349.756 477.445
141 0 59.1389 10.822 640 114.659 349.944 473.591
142 0 59.1546 11.901 704 115.061 349.872 475.932
143 0 62.087 11.5483 717 114.123 350.255 474.717
144 0 64.072 12.2362 784 111.856 349.867 475.024
145 0 67.0446 11.3059 758 116.621 350.359 471.697
146 0 69.0717 12.1323 838 114.578 349.847 470.019
147 0 72.1736 12.179 879 115.414 349.143 466.908
148 0 73.097 11.6284 850 116.414 349.769 467.829
149 0 76.0806 11.9478 909 115.459 349.495 466.182
150 0 80.0983 12.9091 1034 113.315 349.675 465.849
151 0 82.088 12.645 1038 115.283 350.2 464.377
152 0 87.0556 14.2897 1244 111.08 349.769 463.363
153 0 88.1194 12.9597 1142 115.279 350.1 462.752
154 0 89.1084 11.6936 1042 119.297 349.058 457.694
155 0 93.2088 11.2007 1044 120.769 349.056 458.176
156 0 98.1349 12.4522 1222 117.853 349.748 456.752
157 0 101.18 12.9176 1307 118.872 349.516 453.35
158 0 105.196 12.5575 1321 119.779 350.118 451.793
159 1 59.1492 11.2597 666 115.551 349.566 473.629
160 0 58.1444 10.5771 615 115.891 349.156 476.124
161 0 59.2238 11.1273 659 119.697 350.393 471.695
162 0 61.055 12.2512 748 119.465 349.972 472.005
163 0 62.0417 12.7656 792 116.869 350.001 470.981
164 0 66.0757 12.7127 840 116.161 350.458 469.215
165 0 69.1121 12.704 878 115.928 350.37 468.845
166 0 73.1719 13.9261 1019 111.987 349.506 467.402
167 0 74.0625 12.4895 925 117.734 350.179 466.677
168 0 74.095 13.4287 995 116.745 349.804 464.565
169 0 78.1293 14.4888 1132 113.547 349.91 463.328
170 0 79.1304 13.8 1092 117.456 349.751 461.41
171 0 83.1326 13.4725 1120 117.628 349.588 460.181
172 0 86.2322 13.8 1190 117.232 349.021 459.105
173 0 88.1414 14.6015 1287 115.671 349.505 458.329
174 0 87.1688 13.296 1159 121.72 348.928 455.913
175 0 91.1906 13.4773 1229 120.777 349.373 455.939
176 0 94.1396 12.4177 1169 124.123 348.859 455.654
177 0 99.1188 14.0639 1394 118.732 348.923 452.928
178 0 101.212 13.0815 1324 121.051 349.065 449.743
179 0 106.238 14.364 1526 116.493 349.59 448.004
180 0 107.262 13.6395 1463 88.2789 349.158 442.831
181 0 111.269 12.8517 1430 120.502 349.124 444.753
182 0 116.304 14.1525 1646 116.21 349.289 442.357
183 1 59.1034 11.2007 662 112.508 350.095 468.89
184 0 61.0503 10.9582 669 106.179 349.269 469.653
185 0 64.1298 12.35 792 108.24 348.365 470.755
186 0 63.042 11.5796 730 111.577 348.621 470.052
187 0 66.0508 12.0816 798 110.698 348.481 468.95
188 0 70.0453 12.7203 891 107.991 349.199 469.979
189 0 69.0582 11.874 820 112.3 348.529 467.243
190 0 72.0544 12.1575 876 110.32 348.666 466.309
191 0 76.0441 12.8741 979 108.805 348.886 463.619
192 0 79.1402 13.3308 1055 108.148 348.811 464.167
193 0 83.0486 15.0635 1251 103.206 349.189 462.568
194 0 84.0983 14.1382 1189 105.922 348.849 461.229
195 0 87.175 13.1116 1143 109.517 349.369 461.447
196 0 90.0955 13.1194 1182 109.405 350.537 459.066
197 0 91.0904 13.2615 1208 110.41 350.91 456.906
198 0 97.1779 13.8097 1342 107.586 350.392 457.053
199 0 98.1643 12.0105 1179 113.148 351.104 454.785
200 0 103.281 13.4972 1394 113.778 350.441 454.095
201 1 55.2428 12.255 677 108.517 350.84 476.121
202 0 56.131 12.0611 677 108.182 350.477 475.644
203 0 60.0918 11.1496 670 102.776 351.16 475.431
204 0 60.1016 11.4806 690 102.487 350.564 472.484
205 0 64.118 11.7596 754 101.966 350.603 473.424
206 0 64.1218 11.8057 757 102.355 350.436 471.199
207 0 66.2708 13.5354 897 98.4225 350.326 471.454
208 0 68.1094 11.7018 797 101.811 349.994 470.227
209 0 72.0998 11.8863 857 101.456 350.636 469.182
210 0 72.2965 13.1957 954 100.629 350.55 466.254
211 0 73.1796 10.9593 802 106.469 350.769 464.777
212 0 79.1053 12.2748 971 102.654 349.832 466.815
213 0 79.1493 11.3204 896 105.621 349.684 465.787
214 0 83.1876 11.9609 995 105.207 350.139 464.681
215 0 85.2148 11.2187 956 107.593 349.287 462.318
216 1 46.0853 9.69941 447 107.644 351.327 482.378
217 0 49.0368 12.5212 614 105.708 350.772 478.865
218 0 48.0441 11.5311 554 106.643 349.951 478.894
219 0 47.0843 8.62283 406 111.877 350.032 481.165
220 0 51.1372 11.0878 567 107.522 349.668 478.72
221 0 52.2334 11.2572 588 106.976 350.758 478.85
222 0 54.0907 11.5362 624 107.099 350.016 476.442
223 0 55.0768 10.4944 578 107.038 349.458 478.36
224 0 57.0467 11.2364 641 105.521 349.914 476.384
225 0 60.0723 12.3185 740 104.174 349.773 474.823
226 0 60.0259 11.6783 701 106.238 350.377 473.763
227 0 62.1394 11.3133 703 107.478 350.383 473.579
228 0 65.067 11.3575 739 107.346 350.011 471.413
229 0 65.0847 12.138 790 107.42 349.86 470.235
230 0 69.1065 12.1117 837 107.483 350.18 469.977
231 0 71.1001 11.3783 809 109.247 349.939 467.473
232 0 72.048 11.8671 855 108.724 349.931 468.591
233 0 76.08 12.6446 962 107.473 350.24 465.722
234 0 78.0756 11.9243 931 109.259 350.523 464.753
235 0 81.0729 12.9636 1051 107.376 350.509 463.885
236 0 83.0827 12.8908 1071 108.683 349.819 461.769
237 0 84.0629 11.6698 981 113.646 350.836 461.099
238 0 88.0756 12.7163 1120 113.446 350.408 459.06
239 0 91.3264 13.1835 1204 113.492 351.075 453.126
240 1 46.2571 9.62015 445 111.099 351.112 479.267
241 0 47.3769 10.5326 499 113.018 350.902 475.463
242 0 51.2788 11.6812 599 109.205 350.573 476.065
243 0 52.0541 11.4112 594 111.418 350.184 478.918
244 0 53.1027 13.2008 701 107.352 350.215 478.876
245 0 55.1638 12.2182 674 114.611 350.387 476.65
246 0 56.055 12.2737 688 115.458 350.416 475.454
247 0 57.1721 12.7685 730 116.019 350.718 475.568
248 0 61.1213 13.1869 806 114.403 350.278 474.422
249 0 61.2531 12.4239 761 122.577 350.244 472.045
250 0 61.1424 12.1356 742 124.185 350.625 473.171
251 0 65.2083 13.4339 876 120.492 350.711 471.58
252 0 68.1223 14.3859 980 117.736 350.553 469.928
253 0 68.2163 12.2698 837 124.67 350.025 469.857
254 0 71.1541 13.2389 942 121.4 350.032 468.638
255 0 72.2497 12.7475 921 123.161 350.28 468.01
256 0 74.1889 12.9669 962 122.844 349.2 465.16
257 0 77.2402 12.8172 990 122.563 349.518 466.49
258 0 79.3208 12.4936 991 123.819 350.572 462.435
259 0 82.1165 12.2752 1008 121.405 350.527 464.696
260 0 86.0765 13.0582 1124 120.251 350.558 461.869
261 1 46.0086 10.3459 476 115.987 350.979 483.884
262 0 47.0107 12.6992 597 112.054 350.717 481.111
263 0 47.0626 12.2178 575 115.383 350.569 481.664
264 0 47.1123 11.9926 565 112.89 351.019 479.788
265 0 48.1314 12.0919 582 113.266 350.204 480.608
266 0 50.0446 11.4698 574 115.395 350.336 478.549
267 0 51.0518 11.1455 569 115.613 351.422 478.761
268 0 51.0886 11.6073 593 114.29 350.378 477.728
269 0 55.0613 12.6041 694 110.927 350.274 476.8
270 0 55.0912 12.5791 693 113.189 350.172 475.33
271 0 56.0448 11.8298 663 114.872 350.315 475.502
272 0 60.0917 13.0301 783 110.453 350.699 474.487
273 0 60.1069 12.561 755 111.665 350.473 474.081
274 0 64.0653 13.0336 835 109.528 350.084 472.044
275 0 63.0738 12.4299 784 112.541 350.862 472.246
276 0 67.1568 12.374 831 110.919 350.64 471.395
277 0 69.1589 13.5196 935 107.91 350.483 471.92
278 0 68.093 11.2934 769 115.148 350.177 469.697
279 0 74.1305 12.0463 893 111.06 350.518 471.156
280 0 75.109 11.8628 891 113.68 349.985 467.163
281 0 78.1433 12.2979 961 111.917 350.006 466.719
282 0 80.2004 11.8703 952 111.412 349.663 465.953
283 1 45.0439 11.8773 535 109.355 351.056 482.858
284 0 45.0646 11.4724 517 110.586 349.689 482.509
285 0 47.0276 11.5889 545 111.066 349.791 481.442
286 0 47.0422 11.8617 558 109.414 350.036 480.219
287 0 48.0533 12.4029 596 106.144 350.579 478.696
288 0 49.0125 10.4871 514 111.759 349.261 479.461
289 0 52.0992 13.839 721 101.656 348.677 478.046
290 0 52.0954 11.6901 609 107.544 348.944 477.177
291 0 52.0716 12.9629 675 104.961 348.77 477.413
292 0 56.1042 13.7958 774 101.872 348.398 475.616
293 0 56.0444 12.1689 682 106.968 348.597 475.35
294 0 58.0204 11.9268 692 107.603 348.439 474.66
295 0 62.1118 13.3791 831 103.842 349.454 472.957
296 0 63.1021 12.1074 764 108.403 350.141 471.614
297 0 64.0866 12.2491 785 110.242 349.801 470.308
298 0 67.0508 13.542 908 108.5 350.264 467.931
299 0 69.0871 13.7508 950 108.975 349.335 468.133
300 0 72.0912 13.2194 953 111.409 349.39 468.426
301 0 73.1249 13.1966 965 114.304 349.016 465.613
302 0 76.0787 12.5922 958 115.815 349.85 466.362
303 0 79.0755 12.8105 1013 115.772 349.911 464.643
304 0 80.1233 13.317 1067 115.636 349.873 463.994
305 0 86.1331 13.8158 1190 112.725 350.145 461.088
306 0 86.201 11.9488 1030 117.972 349.876 457.845
307 1 46.1701 11.0678 511 113.317 349.247 475.245
308 0 48.2091 11.4086 550 112.544 349.038 475.022
309 0 51.251 12.5071 641 113.329 348.448 475.053
310 0 54.1939 13.4517 729 106.919 350.615 478.372
311 0 53.0573 12.9106 685 110.495 350.799 477.858
312 0 54.0485 12.2297 661 113.319 351.008 476.552
313 0 58.0785 12.4142 721 111.717 351.186 476.223
314 0 57.0877 13.5055 771 111.575 350.551 475.581
315 0 57.0314 12.537 715 116.862 350.576 473.401
316 0 60.0391 12.5085 751 116.546 351.162 474.684
317 0 62.0541 13.2787 824 114.367 350.252 474.606
318 0 64.0596 13.4718 863 114.539 350.343 472.323
319 0 66.1018 13.6456 902 115.909 350.323 471.295
320 0 69.1892 13.1812 912 116.891 350.613 470.995
321 0 70.097 14.0662 986 115.155 350.609 469.476
322 0 72.1225 12.6313 911 119.445 350.198 469.045
323 0 74.1684 13.0918 971 118.081 350.007 467.903
324 0 77.0771 13.48 1039 117.327 349.846 467.794
325 0 83.0822 13.8297 1149 115.006 349.63 465.726
326 0 83.1117 12.9825 1079 118.581 348.974 465.161
327 0 87.1981 14.7939 1290 113.539 349.118 463.011
328 0 91.1809 15.2335 1389 112.056 349.502 461.32
329 0 95.1476 14.2621 1357 114.314 350.026 457.554
330 0 97.0848 13.5037 1311 116.131 350.161 456.62
331 0 101.146 14.3752 1454 121.144 349.754 453.345
332 1 54.0508 11.7297 634 116.177 350.099 480.071
333 0 55.0554 12.1696 670 112.416 349.463 474.203
334 0 58.0662 13.5018 784 110.083 349.323 477.133
335 0 57.0476 11.99 684 114.901 348.202 477.23
336 0 60.0549 12.8549 772 112.045 349.392 475.541
337 0 61.0686 12.6579 773 111.766 349.432 474.79
338 0 63.0328 12.4062 782 112.307 348.88 473.918
339 0 65.0734 12.4321 809 112.333 349.446 473.832
340 0 66.2121 11.0403 731 116.698 349.624 472.176
341 0 69.0898 14.1844 980 108.521 349.3 470.415
342 0 70.1562 12.0018 842 114.15 349.537 470.234
343 0 73.1722 12.7917 936 111.458 349.514 469.231
344 0 76.1457 13.0933 997 109.795 349.498 467.579
345 0 79.1237 13.8391 1095 108.658 350.542 465.283
346 0 81.2456 12.5791 1022 112.174 350.292 464.195
347 0 84.0801 12.1075 1018 109.631 350.196 461.839
348 0 88.0917 11.8513 1044 108.585 350.721 463.465
349 0 89.2069 12.2973 1097 108.888 350.592 460.199
350 0 93.101 12.4596 1160 109.795 350.633 457.398
351 1 48.0539 8.51127 409 112.797 350.87 481.44
352 0 50.0243 11.9942 600 106.98 350.977 479.99
353 0 54.119 12.491 676 103.522 350.747 477.271
354 0 55.0336 12.9375 712 102.018 350.552 477.528
355 0 57.075 11.2133 640 106.223 350.42 477.522
356 0 59.0361 11.891 702 104.667 350.878 476.966
357 0 60.0639 11.8041 709 105.874 350.278 475.185
358 0 63.0831 12.7134 802 103.722 350.709 472.661
359 0 64.1415 11.802 757 106.173 350.733 473.104
360 0 67.0995 12.1163 813 105.86 350.733 471.365
361 0 68.0819 12.294 837 106.127 350.213 470.374
362 0 69.0716 12.002 829 107.378 350.495 468.683
363 0 75.1286 12.5385 942 105.701 350.219 468.685
364 0 77.0952 12.8802 993 105.336 350.757 466.373
365 0 79.0592 14.2425 1126 103.001 349.932 465.213
366 0 83.0445 12.981 1078 106.182 350.442 463.469
367 0 84.1422 11.8965 1001 108.5 350.28 462.051
368 0 87.0889 12.8604 1120 107.697 350.469 460.422
369 0 90.1424 14.8099 1335 103.807 349.094 458.94
370 0 91.1086 12.2162 1113 110.763 349.812 455.918
371 0 96.1343 12.1913 1172 109.972 349.696 456.045
372 1 50.0521 10.2293 512 109.201 350.486 480.953
373 0 51.1286 11.9698 612 105.521 350.435 478.938
374 0 53.0537 12.1575 645 106.558 349.482 479.448
375 0 55.0642 11.9134 656 107.604 350.62 478.552
376 0 54.0245 10.958 592 110.878 350.422 477.554
377 0 57.0242 12.4333 709 107.647 350.774 476.619
378 0 59.0253 13.2655 783 106.281 350.731 476.063
379 0 61.1014 12.3402 754 108.117 349.337 474.588
380 0 63.0698 13.16 830 106.967 348.969 474.694
381 0 65.2033 13.0208 849 107.575 349.492 473.862
382 0 66.0861 11.8028 780 110.746 349.217 473.573
383 0 69.1348 10.8773 752 113.291 349.573 470.395
384 0 70.1322 11.9203 836 110.793 349.299 472.673
385 0 73.0707 13.2064 965 110.303 349.579 468.81
386 0 74.0732 12.7442 944 111.985 349.779 468.337
387 0 76.1259 12.7158 968 112.347 349.659 466.357
388 0 80.1391 13.4142 1075 111.441 349.88 465.766
389 0 82.2181 12.7466 1048 113.45 349.645 464.337
390 0 84.2427 13.5086 1138 111.681 348.935 464.404
391 0 85.233 13.3282 1136 113.991 350.133 460.744
392 0 90.3739 13.7429 1242 112.105 349.443 462
393 0 94.3349 13.6641 1289 111.652 349.732 458.957
394 1 49.2162 11.3987 561 110.26 350.374 481.693
395 0 51.3254 11.6706 599 110.456 350.247 478.551
396 0 52.1743 11.2124 585 105.402 350.938 479.75
397 0 52.0513 11.2005 583 107.485 350.233 479.103
398 0 53.0181 11.6564 618 106.757 348.921 479.448
399 0 55.048 12.9705 714 104.139 349.997 477.265
400 0 58.0215 13.0296 756 102.981 349.843 477.143
401 0 58.0366 12.6989 737 105.476 349.32 475.882
402 0 61.0302 12.0104 733 107.291 349.256 475.731
403 0 62.1174 12.3154 765 108.061 349.148 474.418
404 0 64.0585 13.7218 879 103.677 348.826 472.593
405 0 67.0657 12.2566 822 107.498 349.373 471.959
406 0 69.1762 12.4609 862 105.27 349.739 473.271
407 0 70.0639 12.9311 906 105.994 348.953 471.311
408 0 72.1343 13.4887 973 105.356 349.292 470.275
409 0 73.0796 12.9174 944 107.818 349.085 468.469
410 0 75.1158 12.4741 937 109.4 349.889 466.11
411 0 79.1205 13.3847 1059 107.513 349.326 465.415
412 0 82.1159 12.4945 1026 109.37 348.929 465.047
413 0 84.1114 12.6737 1066 115.595 349.431 461.422
414 0 87.1371 12.1647 1060 116.883 349.637 461.034
415 0 90.1526 12.5232 1129 112.266 349.537 460.398
416 0 93.0697 12.2596 1141 117.173 350.122 458.283
417 1 50.0574 11.7066 586 114.235 350.959 479.42
418 0 50.1823 11.3387 569 114.346 350.302 481.148
419 0 53.0365 13.255 703 111.149 349.71 479.158
420 0 53.02 12.9951 689 109.344 349.955 478.875
421 0 55.0272 14.1385 778 105.878 349.427 477.192
422 0 56.0964 11.7655 660 110.888 350.009 477.724
423 0 59.1042 13.4339 794 107.73 350.082 475.121
424 0 61.0936 13.5693 829 107.979 349.953 475.349
425 0 62.0502 12.9895 806 109.866 349.608 473.185
426 0 62.0672 12.2609 761 113.102 349.796 471.156
427 0 66.0336 12.8874 851 110.604 349.902 474.428
428 0 69.0196 12.5616 867 112.804 349.82 471.931
429 0 72.0278 13.3421 961 112.244 350.253 469.753
430 0 73.0244 12.2562 895 116.799 350.864 467.607
431 0 77.0703 13.1568 1014 114.929 351.212 467.45
432 0 79.1101 14.3977 1139 113.057 350.845 465.185
433 0 82.058 13.5636 1113 115.188 350.951 467.24
434 0 87.116 12.9253 1126 121.814 350.591 462.393
435 0 89.1495 14.1223 1259 118.214 351.006 462.299
436 0 92.178 12.7905 1179 120.97 350.864 460.813
437 1 47.0206 10.7825 507 119.288 349.367 481.84
438 0 49.0651 10.3536 508 120.467 349.323 480.484
439 0 52.0315 11.6084 604 113.578 349.755 481.111
440 0 53.0401 11.6139 616 111.076 350.49 479.044
441 0 53.0438 10.595 562 116.564 351.383 477.441
442 0 55.0673 12.2396 674 112.712 350.984 476.341
443 0 58.023 11.8057 685 112.981 351.426 477.504
444 0 59.0868 11.3562 671 114.89 350.785 474.894
445 0 62.1778 11.8853 739 112.349 350.907 475.421
446 0 62.0942 11.3537 705 115.177 350.806 472.465
447 0 66.1258 12.2796 812 113.353 351.174 471.606
448 0 68.1357 12.0495 821 114.815 351.352 471.041
449 0 73.1343 12.8667 941 111.543 351.019 469.513
450 0 74.0781 13.7962 1022 109.846 351.587 469.793
451 0 76.1069 11.7204 892 112.827 351.734 470.418
452 0 82.0761 14.6815 1205 105.542 350.391 465.892
453 0 82.1484 13.6339 1120 110.371 350.996 463.155
454 0 86.0467 12.7838 1100 107.829 351.554 464.66
455 0 88.1315 12.4927 1101 108.803 351.36 462.048
456 0 88.1104 10.7252 945 113.074 351.286 460.479
457 0 94.1997 11.8578 1117 109.603 351.061 459.902
458 1 48.0246 11.5566 555 106.582 351.44 480.809
459 0 49.0333 11.4208 560 105.684 350.264 481.52
460 0 50.0095 10.7979 540 108.696 349.552 480.57
461 0 52.0705 11.8109 615 104.683 350.288 477.353
462 0 52.0729 11.8872 619 110.04 351.267 477.351
463 0 57.0435 12.5518 716 104.958 349.844 475.552
464 0 58.0913 13.3583 776 103.175 350.215 475.177
465 0 58.0471 11.4218 663 108.425 349.851 475.22
466 0 60.0608 11.6548 700 109 350.303 473.853
467 0 66.1343 13.3667 884 102.248 349.734 473.126
468 0 67.1298 12.8855 865 105.092 349.914 471.483
469 0 70.1313 13.4747 945 102.731 349.203 472.599
470 0 72.1283 13.1571 949 104.989 349.409 470.692
471 0 74.1706 12.3229 914 107.219 349.927 469.43
472 0 77.0644 12.8334 989 106.725 349.471 466.537
473 0 79.0879 14.0224 1109 103.711 350.158 466.062
474 0 82.0928 13.6675 1122 106.729 350.268 466.084
475 0 82.1037 12.3015 1010 111.465 350.361 463.228
476 0 87.1212 12.9704 1130 108.934 350.399 463.73
477 0 89.0938 12.1108 1079 111.918 349.659 460.449
478 0 93.0588 13.8837 1292 105.624 349.928 461.837
479 0 96.1727 11.7081 1126 109.574 350.17 460.409
480 1 52.0465 11.5474 601 105.567 349.399 479.89
481 0 52.0876 12.191 635 105.477 348.94 479.943
482 0 54.1168 11.3089 612 104.69 350.812 480.667
483 0 54.0723 11.0778 599 105.628 351.733 481.666
484 0 57.0391 11.2905 644 108.137 351.073 479.272
485 0 56.0387 10.582 593 110.594 350.767 477.599
486 0 60.0926 11.9316 717 107.297 350.425 477.121
487 0 62.0912 12.2401 760 107.361 351.266 475.684
488 0 59.04 9.87466 583 114.235 351.12 475.367
489 0 66.0212 12.1931 805 107.94 351.375 474.476
490 0 67.0515 12.3189 826 108.915 350.679 474.077
491 0 69.1184 11.5888 801 111.385 351.061 472.803
492 0 72.1526 13.0002 938 110.044 350.65 472.416
493 0 74.1422 13.4202 995 110.223 350.75 470.329
494 0 77.0654 12.1196 934 112.223 350.577 467.367
495 0 79.1844 12.1741 964 107.468 351.061 466.067
496 0 81.1008 12.2687 995 109.311 350.922 463.791
497 0 85.1247 13.862 1180 107.903 350.596 464.61
498 0 88.1403 12.8999 1137 108.869 350.156 462.054
499 0 91.1481 13.5384 1234 107.818 351.05 458.482
500 0 93.0706 12.1306 1129 116.277 351.2 457.339
501 0 96.1952 13.483 1297 116.362 351.685 456.655
502 1 52.0292 11.0515 575 115.261 351.637 479.99
503 0 53.1323 11.5184 612 124.66 350.776 475.809
504 0 54.2348 11.9849 650 121.658 350.555 473.566
505 0 55.1536 13.3808 738 119.087 350.194 472.154
506 0 57.0512 12.7955 730 117.566 349.873 479.367
507 0 58.2244 12.4175 723 119.956 350.512 476.109
508 0 62.0758 13.3385 828 116.599 350.36 476.539
509 0 63.1393 14.1117 891 114.896 350.031 475.226
510 0 64.1744 13.2763 852 118.255 349.913 474.327
511 0 66.1395 13.3657 884 118.336 350.13 474.493
512 0 70.0995 13.595 953 119.166 349.918 471.567
513 0 73.1178 14.5929 1067 116.553 349.62 471.25
514 0 73.0543 13.7706 1006 121.931 350.255 470.226
515 0 76.1248 14.5156 1105 121.704 349.588 469.209
516 0 77.1085 14.2526 1099 125.354 348.874 467.461
517 0 80.1246 14.2154 1139 123.361 351.069 462.379
518 0 83.2491 13.6938 1140 123.331 350.715 464.041
519 0 84.1764 13.8162 1163 122.91 350.254 460.402
520 0 88.069 14.4432 1272 120.189 350.928 460.619
521 0 90.114 13.4385 1211 123.734 350.162 460.239
522 0 94.1236 13.1954 1242 123.936 349.717 459.401
523 0 95.1025 13.2594 1261 127.752 350.906 455.82
524 0 99.1605 14.1891 1407 123.932 350.21 454.705
525 0 103.175 13.1427 1356 125.2 350.324 452.445
526 1 54.0248 11.2726 609 118.384 350.112 479.278
527 0 58.0713 12.7257 739 113.441 348.25 473.426
528 0 59.1687 12.6587 749 112.463 348.949 475.303
529 0 60.0815 12.8492 772 116.373 349.199 477.297
530 0 61.1016 13.3712 817 116.532 349.796 474.337
531 0 65.0388 13.0076 846 112.923 349.472 474.13
532 0 64.1404 12.192 782 117.536 349.621 474.311
533 0 68.0328 12.9055 878 114.716 349.877 473.206
534 0 69.0336 11.6031 801 118.419 349.416 474.217
535 0 74.1277 12.5729 932 115.982 349.723 472.675
536 0 73.0368 11.7886 861 121.249 349.526 470.912
537 0 77.1299 12.641 975 118.639 349.674 466.54
538 0 79.0854 13.2515 1048 118.454 349.867 465.527
539 0 81.1752 12.011 975 120.8 349.603 465.978
540 0 86.1351 12.4223 1070 119.372 350.211 465.506
541 0 88.1211 13.3339 1175 116.517 350.101 464.674
542 0 90.1789 12.1869 1099 116.799 350.685 458.353
543 0 93.1298 11.8115 1100 119.166 350.253 458.788
544 0 95.1213 12.4578 1185 119.83 349.535 458.258
545 0 99.193 12.39 1229 118.427 350.544 457.697
546 0 102.161 12.1965 1246 119.226 349.944 453.943
547 0 108.082 14.3687 1553 112.57 350.36 453.028
548 1 57.0399 11.8163 674 115.509 350.838 478.049
549 0 59.0179 11.9116 703 113.703 350.829 476.525
550 0 62.0535 12.457 773 112.295 351.171 474.089
551 0 64.1896 12.1515 780 112.086 350.601 477.21
552 0 63.1921 11.7736 744 113.565 351.137 474.21
553 0 67.1378 13.152 883 110.203 350.747 472.889
554 0 71.1165 12.7818 909 110.275 350.33 471.435
555 0 71.0679 13.9585 992 109.571 349.729 469.95
556 0 75.1445 13.148 988 111.389 350.804 469.149
557 0 77.1232 13.1608 1015 111.755 350.561 468.894
558 0 81.0736 14.2216 1153 108.951 350.394 467.355
559 0 82.0736 12.5619 1031 114.126 350.07 465.662
560 0 83.0894 12.8897 1071 115.566 351.085 463.782
561 0 87.0824 13.3552 1163 115.698 350.536 464.945
562 0 90.0865 13.8978 1252 114.321 349.053 464.124
563 0 94.2048 12.3454 1163 119.894 349.688 459.577
564 0 95.3064 13.0002 1239 120.571 350.28 457.61
565 1 50.1037 11.6159 582 123.863 349.094 481.11
566 0 51.0655 11.5538 590 124.561 349.108 480.207
567 0 54.0401 11.0473 597 124.206 348.499 477.554
568 0 56.0491 11.9717 671 123.466 349.584 477.595
569 0 57.0517 12.9532 739 121.598 349.049 477.179
570 0 60.0823 12.15 730 123.053 349.341 476.674
571 0 62.0845 11.6615 724 124.808 348.834 474.269
572 0 64.0703 12.7204 815 122.135 349.371 473.282
573 0 67.1268 13.1989 886 120.958 349.69 472.354
574 0 68.0464 11.9477 813 124.534 349.645 472.688
575 0 70.0878 11.9564 838 115.099 351.776 475.689
576 0 68.0765 11.3549 773 120.627 351.702 470.397
577 0 74.1127 13.0882 970 114.428 350.98 471.189
578 0 75.1069 11.9297 896 117.905 350.858 470.686
579 0 78.0843 13.2805 1037 115.455 350.842 468.77
580 0 80.0842 12.5618 1006 117.939 351.169 467.36
581 0 82.08 11.9883 984 119.09 350.705 466.914
582 0 85.0625 11.9677 1018 118.749 350.487 465.703
583 0 88.1712 13.0655 1152 117.357 350.011 462.552
584 1 45.0201 11.2839 508 118.687 351.004 484.213
585 0 47.0716 11.2382 529 119.48 350.715 483.713
586 0 48.0932 12.5174 602 118.359 351.731 481.319
587 0 50.0854 12.279 615 119.138 351.828 481.727
588 0 53.0543 12.6851 673 116.945 350.786 482.339
589 0 52.1146 12.9714 676 117.487 351.75 481.109
590 0 53.152 13.2074 702 118.313 350.651 478.632
591 0 56.0773 12.8394 720 118.782 350.803 479.55
592 0 58.0948 12.3591 718 120.27 351.358 479.006
593 0 59.1145 11.5031 680 123.425 351.912 479.219
594 0 59.0791 11.7639 695 123.308 351.715 479.255
595 0 65.3295 13.4396 878 116.969 351.159 476.17
596 0 65.1284 13.435 875 119.313 351.55 472.81
597 0 69.1001 13.7771 952 117.149 350.702 473.268
598 0 70.0648 12.8595 901 120.612 350.784 471.138
599 0 74.1129 13.6683 1013 118.277 350.656 471.645
600 0 73.0858 13.1216 959 121.223 351.083 470.914
601 0 77.1248 13.1086 1011 120.3 351.235 468.453
602 0 82.2012 13.4183 1103 118.621 350.542 469.076
603 0 83.1207 12.6322 1050 128.55 350.229 465.641
604 0 83.0892 12.1315 1008 131.14 350.932 465.431
605 0 89.1101 13.1747 1174 126.987 351.566 462.862
606 0 92.117 13.7651 1268 124.691 350.769 461.998
607 0 93.0816 12.8919 1200 128.401 350.217 459.159
608 1 52.079 12.6538 659 121.847 350.818 481.226
609 0 51.0618 11.8092 603 123.891 351.108 481.128
610 0 54.137 13.7429 744 120.407 350.706 476.921
611 0 55.0439 13.0623 719 118.513 350.883 479.417
612 0 57.0556 12.2687 700 119.394 351.197 479.15
613 0 58.0432 12.1461 705 120.163 350.374 478.674
614 0 62.1072 13.525 840 116.194 350.926 476.508
615 0 64.1283 12.6153 809 118.177 350.884 475.765
616 0 66.0535 12.172 804 118.358 350.897 474.745
617 0 70.0474 13.4338 941 115.55 350.646 473.205
618 0 71.0977 12.5039 889 117.477 350.448 473.774
619 0 73.1148 13.13 960 116.912 350.16 470.259
620 0 78.1177 13.5437 1058 113.92 350.466 471.404
621 0 78.1129 12.0851 944 118.41 351.288 470.323
622 0 80.152 12.3765 992 118.016 350.491 466.582
623 1 41.0681 12.881 529 114.202 351.616 487.873
624 0 42.1481 11.3647 479 118.896 350.539 487.132
625 0 45.0873 12.5313 565 117.106 350.761 485.901
626 0 45.0766 12.9779 585 120.909 350.945 483.885
627 0 45.0483 12.7197 573 117.888 350.623 486.466
628 0 47.04 12.0961 569 120.694 350.719 483.48
629 0 49.1611 13.0388 641 115.785 350.596 482.59
630 0 51.0442 13.4589 687 116.965 350.771 482.975
631 0 52.1243 12.7004 662 120.292 349.755 482.072
632 0 53.1333 13.4755 716 118.015 350.175 480.775
633 0 55.0724 13.5276 745 118.31 350.458 481.238
634 0 55.1449 12.9477 714 121.048 349.983 479.613
635 0 57.1346 14.3521 820 117.059 350.173 479.37
636 0 61.1336 13.4623 823 118.672 350.558 477.605
637 0 62.2817 13.182 821 120.553 350.916 475.686
638 0 63.1734 13.8033 872 119.173 349.587 475.891
639 0 65.0949 13.1347 855 121.658 350.812 474.102
640 0 68.1615 12.8812 878 121.954 351.128 474.779
641 0 70.0922 12.9544 908 123.143 350.108 470.926
642 0 74.1832 13.6689 1014 120.634 350.116 470.928
643 0 75.1164 13.0065 977 124.684 349.557 469.659
644 0 79.1593 12.3169 975 127.222 350.669 467.602
645 1 42.0137 9.99673 420 121.574 350.605 487.595
646 0 42.1256 11.6081 489 118.511 350.626 486.245
647 0 44.0055 12.3848 545 115.378 351.031 486.598
648 0 45.0779 11.824 533 119.886 350.705 485.416
649 0 47.1264 12.4134 585 119.887 349.48 484.263
650 0 46.0446 11.7278 540 121.744 349.872 483.813
651 0 48.0395 12.906 620 119.013 350.011 484.427
652 0 48.0916 12.2475 589 122.548 349.817 482.431
653 0 52.0387 14.1818 738 86.2453 350.728 482.173
654 0 53.1017 13.4647 715 117.596 350.596 479.705
655 0 56.0736 12.4479 698 119.921 350.514 479.211
656 0 57.0543 12.2866 701 121.127 351.204 478.884
657 0 61.0817 13.572 829 115.764 350.615 479.199
658 0 60.075 12.7507 766 120.569 349.82 476.889
659 0 63.0254 12.614 795 119.912 350.036 475.746
660 0 65.1563 13.2758 865 118.251 349.828 474.921
661 0 69.1047 13.8341 956 116.237 350.61 474.618
662 0 69.1415 12.9155 893 121.357 350.208 471.442
663 0 71.081 13.5057 960 119.438 350.011 469.747
664 0 74.1189 14.2474 1056 115.632 350.878 469.978
665 0 77.0552 13.5098 1041 116.205 350.177 468.607
666 0 79.1058 13.5768 1074 85.6769 350.979 469.852
667 0 80.0919 13.1224 1051 118.822 349.926 464.567
668 0 86.2243 14.01 1208 115.272 349.924 463.478
669 1 41.2935 11.1398 460 119.459 350.678 485.798
670 0 43.1294 12.1263 523 118.543 349.057 485.338
671 0 43.1133 10.6928 461 125.605 348.946 484.724
672 0 47.0817 12.1703 573 119.593 348.51 484.281
673 0 47.0287 11.7163 551 122.497 348.292 483.274
674 0 50.0281 12.533 627 120.258 348.16 483.464
675 0 53.029 12.974 688 118.747 349.212 482.638
676 0 53.0626 12.4758 662 122.518 348.708 481.089
677 0 55.0415 13.3899 737 119.682 348.357 481.251
678 0 55.0395 12.0641 664 126.709 348.304 478.452
679 0 59.0474 11.9565 706 126.33 348.367 478.16
680 0 60.0589 12.2879 738 125.489 347.999 478.725
681 0 60.1018 11.9797 720 91.5639 348.004 478.69
682 0 64.0337 12.5559 804 128.701 347.775 475.877
683 0 67.1011 12.1608 816 129.125 348.355 475.774
684 0 68.0214 12.5402 853 129.197 348.329 473.66
685 0 70.0245 11.9101 834 132.266 348.734 472.059
686 0 73.0575 13.0445 953 129.892 348.076 472.73
687 0 77.0801 12.3767 954 132.212 348.46 470.549
688 0 79.1134 12.4252 983 131.432 347.827 470.648
689 0 83.0419 14.6312 1215 125.305 347.822 467.555
690 1 43.0932 10.5353 454 131.632 348.46 488.52
691 0 45.0511 11.9642 539 128.803 348.896 486.994
692 0 46.0997 13.4274 619 121.638 348.977 485.998
693 0 47.0622 13.1528 619 119.556 350.515 483.654
694 0 49.0253 12.4222 609 120.716 350.525 484.821
695 0 51.0757 13.6268 696 117.253 350.542 481.886
696 0 52.1131 12.2618 639 121.869 350.246 480.851
697 0 54.0278 13.4375 726 118.915 350.146 481.302
698 0 55.0529 12.6061 694 122.568 350.496 480.997
699 0 56.0278 12.6723 710 120.88 350.339 481.697
700 0 58.0901 12.7216 739 120.332 350.256 479.687
701 0 60.0403 14.2571 856 115.683 350.544 477.444
702 0 61.0473 12.2036 745 121.855 350.981 478.085
703 0 64.1062 12.6977 814 119.681 350.444 475.41
704 0 66.0806 12.7572 843 119.247 350.657 475.017
705 0 69.0643 13.0024 898 119.293 350.935 472.648
706 0 72.0502 13.213 952 117.952 349.998 472.125
707 0 73.1311 12.922 945 119.812 350.481 471.122
708 0 76.1168 13.5056 1028 116.005 350.172 467.083
709 0 78.0922 12.3956 968 119.161 350.005 465.416
710 0 80.1431 13.0641 1047 117.575 349.946 466.696
711 0 84.1567 13.463 1133 117.693 350.285 465.068
712 0 85.1271 12.7574 1086 120.923 350.119 464.368
713 0 85.0508 13.2509 1127 122.652 349.949 464.726
714 0 89.1261 12.8694 1147 123.495 350.97 464.742
715 0 93.1705 12.7508 1188 122.845 350.221 461.179
716 0 98.1468 14.0402 1378 119.127 349.798 460.725
717 0 99.1441 12.618 1251 124.656 350.268 460.185
718 0 104.089 13.7478 1431 121.061 349.368 458.642
719 1 55.0192 11.4142 628 127.011 350.064 480.248
720 0 57.0869 12.297 702 127.108 349.036 480.885
721 0 59.0831 12.7617 754 131.529 349.435 477.354
722 0 62.1452 13.5489 842 129.682 350.5 477.08
723 0 64.1342 13.7992 885 127.363 351.226 478.049
724 0 66.1081 14.4007 952 127.003 350.592 474.234
725 0 70.1169 13.5488 950 127.562 349.783 472.996
726 0 72.0736 14.0412 1012 126.328 349.972 472.472
727 0 73.0367 13.7465 1004 127.194 350.622 472.192
728 0 77.0745 13.5972 1048 126.976 350.802 470.323
729 0 80.0869 14.4343 1156 124.658 350.568 468.943
730 0 81.0697 14.3334 1162 124.948 351.125 467.493
731 0 85.1114 13.4647 1146 127.3 350.947 466.722
732 0 87.0835 14.4804 1261 123.337 350.42 465.077
733 0 89.2255 12.6533 1129 120.976 350.353 465.282
734 0 93.091 13.0195 1212 120.875 350.329 464.085
735 1 47.1681 12.5084 590 127.551 349.993 482.666
736 0 49.0747 12.7968 628 125.072 349.518 480.748
737 0 50.0362 12.6309 632 129.429 350.41 483.078
738 0 53.184 13.0114 692 126.569 350.455 482.96
739 0 53.0539 14.1554 751 125.112 350.035 482.852
740 0 56.0915 13.3532 749 127.053 350.007 479.933
741 0 57.0242 14.0642 802 124.685 350.559 480.241
742 0 58.191 14.0228 816 126.35 350.093 477.637
743 0 62.2053 14.5165 903 122.566 350.292 478.025
744 0 61.0419 13.0075 794 129.485 350.82 476.63
745 0 64.1046 14.4451 926 124.755 350.555 475.788
746 0 65.0757 14.0606 915 126.472 350.509 474.209
747 0 70.095 14.4661 1014 123.89 350.135 474.31
748 0 73.117 14.5383 1063 123.032 348.917 470.634
749 0 77.3033 13.143 1016 124.568 349.22 471.064
750 0 78.1999 14.6164 1143 121.586 348.989 468.01
751 0 82.152 13.8159 1135 123.226 349.236 466.712
752 0 85.2503 14.6979 1253 119.836 349.145 464.165
753 0 86.1417 13.2456 1141 118.433 349.901 463.528
754 1 44.127 11.8295 522 115.113 351.115 485.644
755 0 46.0594 11.3983 525 114.082 350.122 484.575
756 0 48.0606 12.4634 599 110.384 351.147 484.456
757 0 49.2513 12.4464 613 110.086 350.654 483.883
758 0 51.1183 12.9699 663 108.557 349.949 481.926
759 0 51.2191 13.3739 685 110.68 349.686 481.01
760 0 53.0439 12.3294 654 113.405 349.154 481.913
761 0 53.0134 12.2799 651 113.143 349.276 482.599
762 0 56.0515 12.8275 719 112.25 349.006 480.541
763 0 59.0558 11.4129 674 111.668 350.01 477.659
764 0 60.1181 11.8267 711 111.861 349.065 478.364
765 0 63.0426 12.2615 773 109.675 349.298 477.673
766 0 66.0758 12.0619 797 109.205 349.646 474.98
767 0 69.1154 11.6182 803 110.408 349.676 471.706
768 0 71.0722 12.5506 892 109.622 350.041 472.979
769 0 73.1417 11.8127 864 111.163 350.044 472.005
770 0 77.0873 12.2199 942 110.536 350.072 468.764
771 0 79.0514 11.6759 923 112.794 350.652 468.278
772 1 40.0145 11.121 445 111.301 351.382 487.818
773 0 43.0218 11.9474 514 107.658 351.169 487.158
774 0 46.0399 12.0982 557 107.675 351.228 486.291
775 0 46.0758 11.8934 548 108.765 350.847 485.091
776 0 49.0682 12.8596 631 105.252 350.445 483.442
777 0 50.0198 11.5554 578 109.637 351.31 483.125
778 0 51.103 12.6803 648 107.568 351.503 482.56
779 0 54.0232 12.7908 691 107.415 351.12 481.64
780 0 55.0372 12.0282 662 109.181 351.394 481.616
781 0 58.0895 13.4276 780 105.896 351.197 480.503
782 0 55.0693 11.4583 631 113.353 351.074 479.372
783 0 60.1452 13.1515 791 108.188 351.158 477.492
784 0 62.1169 11.4462 711 112.565 351.198 477.146
785 0 64.0707 13.0325 835 109.999 351.796 475.463
786 0 67.0662 14.0458 942 107.653 352.022 474.456
787 0 70.1329 12.6046 884 111.456 350.564 474.172
788 0 70.0595 12.4466 872 112.942 351.163 474.125
789 0 75.2293 13.7712 1036 110.011 351.3 471.953
790 0 75.0947 11.5854 870 114.814 350.793 470.646
791 0 78.1028 11.344 886 116.313 350.872 469.286
792 0 81.1102 12.2549 994 115.789 350.885 466.659
793 0 79.0907 11.923 943 119.242 350.208 467.699
794 0 86.1986 12.796 1103 116.914 350.104 466.71
795 1 47.1757 10.5563 498 118.06 351.793 486.721
796 0 49.0844 12.5498 616 113.299 350.942 484.078
797 0 49.1624 11.3298 557 117.131 350.454 483.241
798 0 48.079 12.2299 588 115.449 349.59 483.974
799 0 52.0891 12.5746 655 113.139 349.728 481.966
800 0 55.1372 14.0377 774 110.54 349.879 480.596
801 0 53.0395 12.6698 672 116.673 350.621 483.429
802 0 55.1391 12.5501 692 114.954 350.319 483.682
803 0 57.0978 12.4523 711 115.404 350.692 481.504
804 0 57.1212 12.0971 691 117.369 350.672 480.425
805 0 58.1155 11.133 647 119.505 349.669 480.439
806 0 61.1256 12.8751 787 114.184 349.4 480.386
807 0 63.1224 12.452 786 115.009 349.931 478.113
808 0 67.0959 12.5492 842 112.672 349.259 476.361
809 0 70.0715 13.1865 924 112.607 350.262 474.656
810 0 73.1717 13.6665 1000 111.469 349.401 473.553
811 0 74.1434 11.6935 867 116.602 350.209 473.24
812 0 75.1906 12.0095 903 117.901 349.632 471.204
813 0 80.0976 12.2351 980 115.86 348.944 471.756
814 0 82.1464 13.7803 1132 113.422 349.635 468.17
815 0 84.1293 12.5402 1055 117.109 349.781 467.13
816 1 40.0165 10.9705 439 122.262 350.387 488.018
817 0 42.0931 10.6431 448 120.085 349.348 489.571
818 0 44.0347 13.8527 610 114.27 349.661 487.311
819 0 44.0188 11.6768 514 120.615 349.376 485.578
820 0 47.0363 13.564 638 114.53 348.411 485.063
821 0 48.0768 14.04 675 111.966 350.135 485.73
822 0 50.1229 12.8883 646 113.749 350.899 484.613
823 0 52.0436 15.5062 807 108.022 350.855 484.208
824 0 52.0427 12.874 670 115.545 349.503 483.515
825 0 54.1206 14.0612 761 111.892 350.305 483.637
826 0 56.0738 13.4109 752 114.423 350.395 481.816
827 0 57.0592 12.6535 722 115.85 350.384 481.384
828 0 58.0748 13.3965 778 115.891 350.743 480.85
829 0 62.0741 15.0304 933 111.732 350.73 478.639
830 0 63.0276 14.3905 907 114.755 350.406 476.888
831 0 66.0473 14.3079 945 114.504 350.089 476.79
832 0 65.0492 13.3284 867 120.088 349.392 476.967
833 0 68.1359 13.9721 952 118.903 350.63 475.1
834 0 71.0605 14.8606 1056 117.363 349.737 473.198
835 0 73.0965 14.9802 1095 117.323 350.665 471.918
836 0 75.0861 14.5833 1095 117.961 350.18 471.671
837 0 78.1427 15.9452 1246 113.862 349.79 470.399
838 0 80.15 14.7224 1180 119.102 349.48 469.646
839 0 83.1191 14.7259 1224 119.084 349.788 469.34
840 0 85.1196 14.18 1207 121.74 350.536 468.822
841 0 88.0962 14.575 1284 120.986 349.904 465.709
842 0 90.1615 14.6404 1320 123.051 350.046 464.836
843 1 48.0594 12.9007 620 129.052 350.263 484.698
844 0 51.0591 14.023 716 125.207 349.613 483.567
845 0 53.0698 14.2642 757 124.688 349.416 482.213
846 0 55.1252 14.8027 816 122.808 348.982 481.113
847 0 55.0743 13.6543 752 126.757 349.386 480.532
848 0 57.2155 13.9473 798 126.847 348.698 479.801
849 0 61.1857 15.0525 921 121.687 348.227 478.452
850 0 63.1518 13.9505 881 124.56 349.149 478.154
851 0 65.0965 14.4862 943 123.175 348.829 477.218
852 0 67.1806 14.915 1002 122.93 348.669 474.718
853 0 70.1513 14.6255 1026 123.738 348.758 475.47
854 0 73.0686 14.9038 1089 123.455 349.705 473.207
855 0 74.0243 13.9954 1036 127.577 349.09 471.025
856 0 78.0902 15.3028 1195 122.957 349.356 470.539
857 0 81.1069 14.5857 1183 125.431 349.566 468.474
858 1 42.0534 12.603 530 130.151 349.321 488.132
859 0 44.0544 13.0066 573 129.052 349.075 486.408
860 0 45.0867 13.0194 587 129.978 349.213 486.092
861 0 48.1161 13.9039 669 130.619 349.084 485.027
862 0 48.0629 13.0038 625 135.056 349.928 484.406
863 0 49.0522 14.3928 706 132.34 348.666 483.399
864 0 50.1574 14.3149 718 133.132 349.169 484.029
865 0 52.2075 14.4041 752 131.927 349.352 482.834
866 0 52.0716 13.8079 719 136.574 349.408 481.791
867 0 56.0714 14.1249 792 133.527 349.431 481.141
868 0 57.0625 13.8795 792 135.554 348.732 479.302
869 0 59.1168 13.8539 819 135.363 349.763 478.941
870 0 62.0995 14.8471 922 132.336 349.008 477.342
871 0 65.0671 14.3237 932 133.319 349.283 475.437
872 0 66.0607 13.7601 909 136.185 349.135 477.227
873 0 67.0268 14.3525 962 136.776 349.41 473.768
874 0 71.0447 14.8076 1052 135.467 350.285 472.278
875 0 74.1447 15.2809 1133 132.704 349.861 472.437
876 0 74.0452 14.14 1047 137.943 350.149 472.107
877 0 79.0591 15.3303 1212 133.427 349.692 470.045
878 0 82.1465 14.535 1194 135.407 349.989 469.016
879 0 83.1579 14.5747 1212 136.85 348.884 465.055
880 0 88.2005 14.9659 1320 134.855 349.191 463.713
881 0 90.2238 14.198 1281 137.506 348.995 462.294
882 0 94.263 15.5841 1469 134.304 348.573 459.942
883 1 47.1584 12.9139 609 138.45 348.614 480.7
884 0 49.129 13.0676 642 137.087 349.766 482.1
885 0 52.057 14.0423 731 135.469 349.475 482.995
886 0 54.0616 13.3921 724 138.517 349.146 481.144
887 0 55.0473 14.1878 781 135.451 348.99 481.595
888 0 57.0618 13.8446 790 137.715 349.454 479.432
889 0 58.0612 13.5547 787 139.1 348.651 477.296
890 0 60.0893 13.9459 838 138.066 348.859 476.173
891 0 62.1806 13.6377 848 138.59 349.525 475.566
892 0 63.2793 12.9584 820 142.655 349.512 473.289
893 0 67.1446 13.8358 929 137.766 349.32 473.508
894 0 70.2064 14.614 1026 135.748 349.516 470.559
895 0 74.2497 14.4916 1076 136.217 349.719 470.147
896 0 75.1104 13.9661 1049 138.111 349.744 470.005
897 0 77.2088 14.1953 1096 138.89 349.574 468.513
898 0 78.1386 13.3353 1042 144.049 349.595 466.415
899 0 81.1342 13.792 1119 142.059 349.314 464.258
900 0 84.1644 14.4954 1220 139.098 349.091 463.565
901 0 87.2324 15.1549 1322 138.573 349.442 460.756
902 0 90.2438 13.8514 1250 141.492 349.579 460.309
903 0 93.2147 14.472 1349 141.41 349.431 456.52
904 0 98.3623 14.8126 1457 139.437 349.773 455.519
905 0 100.321 14.1944 1424 139.939 349.82 455.762
906 1 54.1363 12.7456 690 135.014 349.803 478.181
907 0 56.109 13.4381 754 128.215 349.176 479.312
908 0 57.1121 12.957 740 126.018 349.945 478.822
909 0 60.0343 13.3924 804 123.678 349.802 479.157
910 0 60.0794 13.7651 827 124.069 350.675 478.235
911 0 62.0694 12.8727 799 126.615 350.477 476.815
912 0 65.13 13.1429 856 124.232 349.98 476.004
913 0 68.1162 12.0089 818 123.597 349.593 472.759
914 0 71.0474 13.498 959 122.22 349.552 472.652
915 0 74.119 13.0466 967 122.661 350.212 472.886
916 0 73.0878 11.7667 860 127.047 349.32 468.752
917 0 78.1833 13.187 1031 123.187 349.473 468.528
918 0 78.0613 12.0034 937 126.265 349.067 467.19
919 0 83.1827 13.1277 1092 121.11 349.701 466.396
920 0 86.1459 12.5833 1084 122.47 348.961 465.474
921 1 44.0951 10.9763 484 120.32 349.979 486.727
922 0 45.012 12.5522 565 115.832 349.577 484.25
923 0 47.0584 11.9214 561 116.053 349.701 484.592
924 0 48.1259 11.6361 560 116.491 349.786 485.173
925 0 49.1454 11.9238 586 115.297 349.961 482.872
926 0 53.0618 13.5125 717 110.428 348.865 481.089
927 0 52.1204 11.9531 623 114.209 348.976 480.17
928 0 55.0753 13.0004 716 110.363 349.418 478.548
929 0 57.0462 11.7273 669 113.272 349.818 478.952
930 0 60.0716 12.0689 725 111.261 349.408 477.528
931 0 62.0812 12.8219 796 110.15 349.285 474.778
932 0 62.0379 12.2667 761 111.386 349.213 476.971
933 0 68.1092 12.0835 823 111.572 349.514 474.581
934 0 68.0946 12.8498 875 109.878 349.45 474.856
935 0 70.2969 12.4045 872 112.903 349.439 470.587
936 0 72.0544 12.3934 893 113.264 350.216 470.832
937 0 74.1443 12.0576 894 115.422 349.935 469.824
938 0 78.0667 13.7703 1075 112.53 349.707 466.954
939 0 80.0594 12.8904 1032 115.472 349.985 467.075
940 0 84.0992 13.5911 1143 114.451 350.093 467.018
941 0 84.0626 13.6684 1149 117.748 349.757 463.974
942 0 86.0317 13.4253 1155 119.922 349.171 462.252
943 0 91.0704 13.8794 1264 117.975 349.315 462.513
944 0 94.1166 13.5576 1276 119.096 349.661 459.232
945 0 98.3157 14.5043 1426 114.458 349.532 459.096
946 0 98.1156 13.7899 1353 118.98 349.319 457.059
947 0 103.122 14.158 1460 120.765 349.736 457.047
948 1 51.0248 11.857 605 117.451 350.066 483.088
949 0 56.1168 12.0641 677 116.561 350.473 482.185
950 0 56.2098 12.6668 712 122.614 349.424 478.198
951 0 59.1963 13.2779 786 123.425 349.917 477.207
952 0 59.2038 13.614 806 122.768 349.388 478.434
953 0 63.2832 13.3843 847 121.932 349.092 476.558
954 0 65.0832 12.8451 836 124.574 349.786 474.848
955 0 67.1586 13.2671 891 123.854 349.54 475.947
956 0 70.1616 14.2956 1003 122.19 349.561 473.093
957 0 73.1504 14.436 1056 121.987 348.938 472.062
958 0 74.1865 14.0726 1044 123.565 349.165 470.905
959 0 77.1236 14.5481 1122 121.945 348.731 469.812
960 0 80.0959 13.8459 1109 124.872 348.088 467.185
961 0 82.0627 14.0502 1153 122.228 348.533 468.751
962 0 85.1751 13.3255 1135 124.271 348.186 464.049
963 0 86.2044 11.9947 1034 127.365 348.514 464.225
964 0 89.0786 12.9099 1150 123.64 349.415 460.711
965 1 44.0584 11.6436 513 116.852 349.429 484.743
966 0 48.0922 12.0394 579 111.62 349.314 484.297
967 0 49.1127 12.2983 604 113.209 349.356 482.649
968 0 51.114 12.9514 662 119.597 348.985 481.778
969 0 51.1952 12.8137 656 121.111 348.637 480.053
970 0 54.1934 13.3965 726 118.638 349.46 479.455
971 0 55.1996 12.0472 665 122.343 348.621 478.835
972 0 56.1496 12.9119 725 120.248 348.526 477.69
973 0 59.2 12.6182 747 120.217 349.185 478.485
974 0 61.2308 13.2613 812 119.222 349.084 474.959
975 0 63.2003 13.7025 866 118.314 349.284 473.486
976 0 67.1631 13.5491 910 118.24 349.311 473.571
977 0 67.1684 13.1461 883 120.134 349.627 472.943
978 0 69.16 12.9265 894 121.728 349.687 470.159
979 0 73.1644 13.2988 973 119.02 349.727 469.807
980 0 75.1556 13.8113 1038 119.105 349.569 469.542
981 0 75.1288 12.4054 932 124.064 349.736 466.525
982 0 79.1862 12.9694 1027 123.802 350.172 464.827
983 0 83.1937 13.114 1091 123.246 349.048 467.01
984 0 87.1637 13.5492 1181 122.775 349.006 463.219
985 0 89.2214 13.0238 1162 124.933 348.441 459.747
986 1 46.2998 11.8143 547 119.841 349.069 480.735
987 0 48.0962 12.3918 596 120.128 349.443 481.225
988 0 49.1304 12.3345 606 120.021 349.066 480.822
989 0 52.1449 12.0242 627 118.853 350.271 482.191
990 0 53.0873 12.7149 675 118.699 350.399 479.766
991 0 53.1297 12.1213 644 121.297 350.43 479.419
992 0 58.1171 12.8017 744 118.501 350.28 478.062
993 0 59.1315 11.6013 686 121.853 350.844 477.222
994 0 62.0769 13.5799 843 116.839 349.759 476.147
995 0 63.1176 12.247 773 121.216 349.856 474.101
996 0 66.1117 13.3108 880 118.986 349.889 473.417
997 0 68.0638 13.8693 944 117.585 350.047 472.554
998 0 70.1112 13.1791 924 119.824 349.516 471.895
999 0 73.1796 13.7743 1008 119.239 349.6 470.442
1000 0 75.2844 13.0837 985 121.401 349.54 466.362
1001 0 79.3238 13.6403 1082 119.267 348.908 463.069
1002 0 81.3521 12.9069 1050 120.575 348.671 464.68
1003 0 85.5155 13.0737 1118 121.473 348.816 461.044
1004 0 87.2606 12.8007 1117 123.932 348.278 460.278
1005 0 90.293 13.9213 1257 121.043 348.968 460.18
1006 0 93.358 14.1391 1320 121.169 348.868 460.157
1007 0 93.2003 13.7446 1281 123.827 349.222 459.055
1008 0 98.4164 12.7723 1257 126.394 348.17 452.555
1009 0 101.409 14.052 1425 123.1 349.516 451.792
1010 0 102.55 12.6377 1296 127.397 348.021 450.759
1011 1 54.3475 11.2609 612 123.075 348.408 475.931
1012 0 54.2065 12.6 683 121.471 348.309 474.564
1013 0 56.4468 11.3204 639 122.837 348.776 474.3
1014 0 57.0423 11.623 663 118.119 348.677 477.765
1015 0 59.0377 13.2797 784 115.607 349.44 475.841
1016 0 62.1149 13.314 827 114.102 348.821 475.318
1017 0 63.1002 11.9809 756 118.546 349.394 473.513
1018 0 66.1653 12.8768 852 116.168 349.119 472.786
1019 0 67.0765 12.3292 827 118.33 349.914 471.644
1020 0 70.2114 12.8896 905 116.143 349.811 470.57
1021 0 72.1804 12.0254 868 118.597 348.724 468.517
1022 0 75.2093 12.4453 936 117.491 348.731 468.358
1023 0 77.249 11.9354 922 119.144 348.625 466.064
1024 0 80.1987 12.2446 982 118.572 348.617 466.075
1025 0 80.1127 11.4089 914 119.298 349.415 466.407
1026 0 87.1345 12.6815 1105 116.509 348.864 462.107
1027 0 89.0562 12.217 1088 118.261 348.708 460.109
1028 0 92.0717 13.3048 1225 116.041 348.688 458.127
1029 0 94.0888 11.3935 1072 120.998 348.463 458.199
1030 0 96.0653 11.8357 1137 119.761 348.626 457.532
1031 0 105.131 12.5938 1324 116.057 348.886 455.329
1032 1 56.0775 11.1453 625 116.251 349.371 478.267
1033 0 58.1141 11.9076 692 114.029 349.132 477.512
1034 0 58.1505 12.6396 735 113.399 349.513 474.55
1035 0 60.0621 12.0209 722 114.666 348.535 475.285
1036 0 64.0735 13.0319 835 111.698 348.618 473.931
1037 0 65.0809 13.0146 847 112.418 349.017 473.046
1038 0 69.0898 12.9252 893 110.43 349.112 471.545
1039 0 72.1163 14.8094 1068 105.97 348.813 470.138
1040 0 73.0519 12.717 929 110.581 348.417 470.457
1041 0 76.1655 12.9849 989 111.672 349.316 468.025
1042 0 77.1336 13.1849 1017 111.913 348.778 466.463
1043 0 81.1693 13.4657 1093 109.979 349.25 464.803
1044 0 85.11 12.8422 1093 114.994 348.61 464.037
1045 0 90.1853 12.5741 1134 114.076 348.993 463.74
1046 1 44.0989 10.7712 475 111.406 348.825 484.364
1047 0 46.155 12.1764 562 110.13 350.155 481.797
1048 0 47.0137 11.2733 530 108.662 349.06 483.838
1049 0 50.0409 12.8095 641 106.766 349.42 482.504
1050 0 49.0087 11.8958 583 110.376 349.283 480.391
1051 0 51.0286 11.7385 599 110.457 347.72 479.928
1052 0 53.0594 12.6274 670 107.773 347.766 478.096
1053 0 54.0387 12.6576 684 108.697 348.111 477.26
1054 0 56.1379 12.8434 721 107.678 348.101 476.778
1055 0 59.0951 12.0145 710 109.099 348.141 475.534
1056 0 60.0958 13.0791 786 107.34 348.16 472.539
1057 0 62.0597 13.5515 841 106.095 348.188 474.096
1058 0 63.0849 12.2375 772 110.028 347.87 472.837
1059 0 65.0892 12.0143 782 111.023 348.634 472.336
1060 0 67.0876 12.8936 865 109.603 348.551 470.858
1061 0 68.0605 12.342 840 112.448 348.313 468.831
1062 0 73.1165 14.1555 1035 107.443 348.571 466.798
1063 0 74.1476 12.4481 923 112.928 348.717 468.873
1064 0 77.1489 14.31 1104 108.473 349.365 465.58
1065 0 80.1603 12.7744 1024 112.141 349.621 463.512
1066 0 82.3187 12.4516 1025 113.744 349.72 462.216
1067 0 83.2543 13.2366 1102 112.441 349.734 460.177
1068 0 84.158 12.4528 1048 116.426 349.752 457.649
1069 0 89.2762 13.7103 1224 116.497 349.596 458.021
1070 0 93.3536 14.0327 1310 115.912 349.207 453.864
1071 0 95.12 12.1741 1158 113.408 350.287 458.093
1072 0 97.2364 11.7651 1144 115.169 350.076 455.883
1073 0 102.228 12.5406 1282 113.241 349.93 452.333
1074 1 51.1142 9.39073 480 109.594 350.735 480.552
1075 0 52.1445 10.2024 532 107.968 350.4 480.165
1076 0 54.1378 10.6026 574 108.782 350.34 476.03
1077 0 58.0585 10.9717 637 107.451 349.843 477.457
1078 0 59.0843 11.7121 692 106.46 349.725 474.749
1079 0 60.0892 11.4663 689 106.411 350.179 475.221
1080 0 62.1138 11.3501 705 106.837 350.435 475.016
1081 0 65.0736 13.3695 870 102.423 349.956 472.248
1082 0 66.0936 11.1811 739 107.719 350.252 472.311
1083 0 70.1036 11.8824 833 106.224 350.049 471.376
1084 0 73.0963 13.5301 989 102.01 349.201 470.536
1085 0 75.1306 12.1255 911 105.696 349.768 468.133
1086 0 78.1716 12.6517 989 104.347 349.969 468.654
1087 0 79.1547 13.1136 1038 105.099 349.809 465.82
1088 0 82.0981 12.3145 1011 106.734 349.41 465.865
1089 0 84.2287 13.0122 1096 106.518 350.042 464.076
1090 0 87.21 12.7164 1109 107.033 350.222 462.43
1091 0 89.1684 11.5512 1030 109.71 350.005 462.231
1092 1 48.0237 11.3486 545 109.954 350.068 481.651
1093 0 48.0732 12.0025 577 115.407 349.692 481.12
1094 0 51.1018 11.1934 572 110.923 349.399 477.836
1095 0 52.0295 12.3776 644 114.11 349.351 478.592
1096 0 54.0412 13.2862 718 111.448 349.955 478.723
1097 0 56.1424 12.4505 699 114.655 349.973 477.556
1098 0 57.0887 12.9097 737 113.619 350.02 475.209
1099 0 59.1155 13.6174 805 111.826 350.031 476.183
1100 0 61.1585 13.5386 828 112.069 349.885 473.362
1101 0 63.1286 12.8151 809 114.115 350.383 472.938
1102 0 66.19 14.1411 936 110.171 349.422 471.927
1103 0 66.1272 12.7633 844 113.825 349.537 472.801
1104 0 68.1187 13.0361 888 114.682 348.986 470.232
1105 0 69.1299 12.2523 847 116.625 349.532 470.573
1106 0 73.1771 13.3512 977 113.667 349.291 467.632
1107 0 78.2421 13.0876 1024 112.548 349.785 467.989
1108 0 77.0733 13.1563 1014 114.982 349.66 465.019
1109 0 80.1663 12.4741 1000 116.415 349.799 464.888
1110 0 83.1898 13.5113 1124 113.296 349.524 464.924
1111 0 84.1567 12.4292 1046 108.09 348.32 464.214
1112 0 88.0848 11.2392 990 110.176 348.903 465.276
1113 1 45.0144 11.1964 504 109.464 348.115 484.222
1114 0 45.0989 12.7941 577 103.076 349.362 484.494
1115 0 48.0467 11.3431 545 106.848 349.831 483.222
1116 0 48.0934 11.0202 530 108.264 348.86 483.815
1117 0 50.1145 12.5912 631 104.984 348.995 482.404
1118 0 51.0581 12.143 620 106.074 349.055 481.303
1119 0 54.0401 13.0089 703 103.528 349.447 480.772
1120 0 54.0664 11.3194 612 109.389 348.837 479.371
1121 0 57.1243 11.9214 681 107.054 349.261 480.128
1122 0 58.0232 12.2365 710 107.628 349.038 478.37
1123 0 59.0659 12.4099 733 108.064 348.915 475.606
1124 0 63.0656 12.4632 786 107.712 348.891 475.441
1125 0 64.055 12.5517 804 108.927 348.998 475.297
1126 0 67.1081 13.4261 901 107.014 349.244 472.016
1127 0 68.1257 12.6237 860 109.737 349.873 473.06
1128 0 72.0747 13.6386 983 107.544 349.689 469.697
1129 0 75.0804 13.4389 1009 108.105 349.952 470.3
1130 1 40.0347 10.8406 434 115.184 350.09 487.219
1131 0 42.0319 10.4207 438 116.489 349.635 486.888
1132 0 44.0426 12.8058 564 108.83 349.546 485.621
1133 0 44.0556 11.5309 508 112.533 348.965 484.215
1134 0 45.1035 11.5069 519 112.254 350.173 482.139
1135 0 47.0232 12.6533 595 108.871 350.376 484.143
1136 0 46.0529 12.0079 553 113.268 350.166 482.497
1137 0 49.0632 11.903 584 112.704 350.476 481.385
1138 0 51.1373 12.4176 635 111.827 350.209 480.767
1139 0 52.0897 11.461 597 115.64 350.032 480.144
1140 0 53.096 12.694 674 114.691 350.834 480.108
1141 0 54.0548 12.3208 666 115.143 350.634 481.126
1142 0 54.0832 11.2604 609 118.213 350.775 481.529
1143 0 55.0452 11.318 623 118.987 349.998 479.239
1144 0 58.1121 12.4071 721 116.687 349.867 477.743
1145 0 59.0936 10.7118 633 121.859 349.327 477.133
1146 0 62.1895 11.063 688 120.052 349.158 477.24
1147 0 64.1733 11.8741 762 119.332 349.339 473.409
1148 0 68.2103 11.875 810 117.372 348.765 474.206
1149 0 69.18 11.6218 804 119.306 348.724 472.363
1150 0 73.1348 11.8685 868 119.219 348.551 472.526
1151 0 74.0852 11.9322 884 120.046 348.704 469.258
1152 0 74.0845 10.3395 766 124.389 349.415 469.892
1153 0 80.1194 12.5188 1003 115.807 348.769 467.739
1154 0 83.1477 11.2691 937 118.139 348.944 468.526
1155 1 42.0233 10.7797 453 119.876 349.433 485.552
1156 0 43.0247 11.8769 511 111.25 350.012 484.916
1157 0 44.0621 11.2568 496 111.831 349.236 483.528
1158 0 45.024 11.6604 525 111.848 349.17 483.615
1159 0 47.048 12.5191 589 109.589 349.09 482.351
1160 0 49.0782 12.0828 593 110.705 349.476 482.772
1161 0 49.0215 13.0759 641 110.902 348.875 479.674
1162 0 48.0758 11.0867 533 116.34 349.084 480.246
1163 0 51.1193 11.1504 570 116.382 349.258 478.967
1164 0 55.0751 11.2755 621 113.717 349.317 479.045
1165 0 54.0613 12.1899 659 111.97 349.765 478.049
1166 0 56.0713 11.8956 667 112.724 348.946 478.181
1167 0 58.0677 11.4005 662 112.237 349.391 475.645
1168 0 59.0737 11.3925 673 113.155 349.538 475.311
1169 0 61.1424 11.4814 702 114.43 348.433 475.833
1170 0 60.0854 10.4684 629 118.154 348.881 474
1171 0 65.0595 10.9746 714 115.19 349.608 473.078
1172 0 69.1736 12.5626 869 109.371 349.1 470.423
1173 0 70.0279 12.2951 861 111.267 348.659 469.209
1174 0 74.1478 11.9086 883 111.469 348.673 467.786
1175 0 76.1533 11.6476 887 111.357 348.674 469.338
1176 1 40.0503 11.4356 458 113.93 349.469 482.788
1177 0 40.0807 10.7034 429 117.266 350.009 483.392
1178 0 41.2956 12.011 496 103.754 348.804 480.093
1179 0 44.0875 11.273 497 99.326 348.746 480.861
1180 0 43.1511 10.1272 437 102.032 348.815 480.922
1181 0 46.0709 11.7211 540 99.6982 349.163 477.674
1182 0 48.095 11.6228 559 99.1306 348.975 478.716
1183 0 48.1119 11.4525 551 108.889 348.913 480.844
1184 0 49.0851 11.3069 555 109.059 348.782 479.843
1185 0 51.206 10.6238 544 111.276 348.688 478.987
1186 0 50.0837 9.12472 457 114.862 348.884 479.232
1187 0 51.1092 10.2917 526 112.916 348.827 478.781
1188 0 55.0985 11.0892 611 111.363 348.799 476.401
1189 0 59.0913 11.0338 652 109.213 349.143 476.413
1190 0 60.0766 11.4687 689 108.341 349.073 476.575
1191 0 63.1532 13.111 828 105.752 349.093 472.431
1192 0 66.1372 12.2473 810 107.78 349.052 471.12
1193 0 66.1549 12.4103 821 108.845 348.769 470.793
1194 0 71.2342 12.3817 882 106.921 349.376 469.943
1195 0 73.2039 11.6387 852 110.437 349.4 467.932
1196 1 40.0404 11.7381 470 110.84 350.045 484.647
1197 0 41.0415 11.2082 460 113.483 349.828 483.511
1198 0 42.0143 11.4723 482 111.668 348.73 485.205
1199 0 43.0172 13.018 560 106.388 348.641 484.216
1200 0 45.0318 12.6799 571 108.301 349.268 483.252
1201 0 48.0997 13.1186 631 106.65 349.005 482.613
1202 0 49.0551 12.5573 616 108.615 349.575 481.075
1203 0 51.0316 12.3257 629 109.385 349.259 481.672
1204 0 51.0579 12.476 637 108.466 348.537 481.601
1205 0 52.0486 11.6237 605 111.223 348.58 478.922
1206 0 53.1009 11.8265 628 111.535 348.447 479.059
1207 0 54.0457 11.6753 631 113.436 348.246 478.561
1208 0 57.0803 12.754 728 110.135 348.897 478.562
1209 0 58.1186 12.5261 728 112.93 348.647 475.896
1210 0 60.1247 12.5572 755 113.526 348 475.011
1211 0 63.1015 13.4545 849 110.773 348.284 474.322
1212 0 66.0661 12.9265 854 111.701 348.61 475.112
1213 0 67.036 13.4704 903 110.93 347.914 472.921
1214 0 69.1217 13.5269 935 110.452 347.846 470.034
1215 0 72.1276 11.6322 839 114.65 347.522 467.834
1216 0 74.1604 12.864 954 107.864 348.164 469.087
1217 1 39.0866 11.7176 458 108.116 349.039 487.421
1218 0 40.0333 11.4155 457 109.094 348.764 485.904
1219 0 42.0502 10.9393 460 110.785 348.3 486.624
1220 0 42.0364 12.2751 516 107.87 347.975 485.723
1221 0 45.0174 12.5507 565 107.614 349.566 485.2
1222 0 44.0351 12.2402 539 111.182 348.644 484.319
1223 0 47.0489 14.5381 684 105.488 349.175 482.551
1224 0 48.0991 12.9524 623 109.743 349.454 481.695
1225 0 50.0432 12.4093 621 112.264 349.894 481.301
1226 0 52.1109 13.951 727 107.175 349.656 481.747
1227 0 51.0784 13.5674 693 110.722 349.527 479.576
1228 0 53.024 12.9564 687 112.121 349.409 479.85
1229 0 54.048 13.599 735 111.103 349.488 479.516
1230 0 54.1152 12.6767 686 113.331 348.883 479.141
1231 0 58.0436 14.2135 825 107.047 349.246 479.072
1232 0 59.0504 13.4969 797 109.029 349.13 478.477
1233 0 60.0702 15.4153 926 104.878 348.787 477.327
1234 0 61.0797 13.6216 832 109.123 349.359 476.203
1235 0 64.1686 13.4957 866 108.657 348.888 474.075
1236 0 65.0889 13.7658 896 108.119 348.562 474.73
1237 0 69.1478 14.8233 1025 104.85 348.036 472.532
1238 0 70.1517 13.7844 967 107.633 347.954 471.04
1239 0 72.1149 12.9099 931 111.279 348.055 468.054
1240 0 74.2455 13.3072 988 110.281 347.324 468.007
1241 0 75.201 14.0025 1053 110.004 347.553 465.32
1242 0 78.1315 13.4773 1053 108.581 348.249 466.086
1243 0 81.0603 13.6071 1103 108.471 347.932 466.065
1244 0 84.1259 14.1336 1189 107.731 347.818 464.864
1245 0 85.0466 12.8988 1097 112.104 348.051 463.353
1246 0 88.1211 13.3566 1177 111.896 348.46 462.418
1247 0 89.0905 12.796 1140 114.755 347.978 461.929
1248 0 94.116 14.1209 1329 112.254 348.422 459.424
1249 0 95.138 13.78 1311 112.981 347.623 453.423
1250 0 97.123 12.7467 1238 117.174 347.12 451.91
1251 0 101.093 13.4133 1356 116.774 346.435 451.233
1252 0 103.135 13.177 1359 118.306 347.265 451.48
1253 0 108.112 13.9207 1505 116.921 347.957 452.581
1254 0 111.194 13.7777 1532 119.146 347.301 446.728
1255 0 116.239 13.5066 1570 119.932 347.387 445.269
1256 0 118.217 13.9151 1645 120.959 347.155 441.526
1257 0 122.299 13.9903 1711 120.932 347.25 440.915
1258 0 125.35 14.6709 1839 120.929 347.531 437.242
1259 0 129.358 14.1236 1827 123.593 347.438 435.122
1260 0 135.197 14.1497 1913 124.035 347.273 434.512
1261 0 140.257 14.6445 2054 123.519 347.171 432.877
1262 0 143.187 13.9049 1991 128.332 347.156 432.379
1263 0 148.323 14.9404 2216 126.458 347.356 424.157
1264 0 152.217 13.2968 2024 129.222 348.032 428.16
1265 1 80.1983 12.3693 992 127.231 346.938 462.256
1266 0 84.1415 13.4179 1129 125.469 348.181 461.231
1267 0 83.1455 13.1937 1097 131.361 348.398 456.861
1268 0 89.2722 13.7221 1225 128.186 348.504 457.871
1269 0 92.1437 12.958 1194 130.936 348.511 455.449
1270 0 94.1901 14.0885 1327 125.298 347.971 456.076
1271 0 98.2905 13.0531 1283 127.963 347.525 454.192
1272 0 101.248 13.4422 1361 126.521 348.036 450.972
1273 0 104.284 12.8687 1342 127.247 348.59 448.907
1274 0 106.132 12.852 1364 126.109 349.061 446.496
1275 0 111.253 12.9615 1442 126.193 348.217 443.144
1276 1 61.1123 10.6362 650 126.074 348.543 470.483
1277 0 62.1657 12.1289 754 121.981 348.353 466.886
1278 0 66.0828 13.1956 872 121.201 349.737 470.353
1279 0 69.0738 13.1454 908 121.109 349.088 472.719
1280 0 69.1106 13.0371 901 124.246 348.508 469.138
1281 0 72.1647 12.9149 932 124.655 349.423 467.083
1282 0 77.1313 13.0038 1003 122.891 349.144 467.789
1283 0 78.0665 12.1947 952 125.803 349.807 466.92
1284 0 82.091 13.5094 1109 122.796 349.277 463.952
1285 0 82.0694 13.0865 1074 125.854 349.926 463.164
1286 0 85.0797 13.3639 1137 126.481 349.281 460.456
1287 0 87.0506 12.487 1087 129.178 348.874 459.615
1288 0 89.1356 12.0266 1072 131.011 349.391 457.903
1289 0 93.0575 12.6159 1174 128.997 348.555 456.494
1290 0 96.1654 12.9153 1242 127.762 349.03 454.545
1291 0 100.083 13.9885 1400 123.884 348.979 453.63
1292 0 103.133 13.0414 1345 126.433 348.931 451.892
1293 1 54.114 9.79414 530 127.387 350.081 475.051
1294 0 57.1606 9.74448 557 120.621 349.099 471.828
1295 0 59.2102 11.6196 688 123.369 350.039 474.658
1296 0 60.0747 10.4703 629 117.486 347.76 473.326
1297 0 63.2015 12.4997 790 113.239 346.916 473.451
1298 0 65.0807 10.7866 702 117.627 346.48 471.306
1299 0 68.1482 12.0473 821 114.041 346.817 470.312
1300 0 70.0501 11.8915 833 113.591 346.432 469.378
1301 0 70.0992 9.65774 677 118.778 347.192 471.742
1302 0 75.1432 11.9904 901 114.406 346.696 468.105
1303 0 77.1361 12.5881 971 113.712 347.002 466.024
1304 0 77.0565 10.8622 837 119.894 347.757 464.176
1305 0 83.1235 12.0544 1002 116.387 347.544 464.971
1306 0 85.0855 11.3533 966 119.763 347.118 462.494
1307 0 88.1019 11.5435 1017 114.024 347.342 460.886
1308 0 90.1626 10.6253 958 116.732 347.574 458.729
1309 0 92.1841 11.3903 1050 115.145 348.431 459.008
1310 0 96.1718 11.0843 1066 117.244 347.852 456.406
1311 0 100.15 11.5926 1161 116.014 347.842 454.737
1312 0 104.157 11.9531 1245 114.14 348.318 454.504
1313 0 103.171 10.9818 1133 117.607 348.425 450.074
1314 0 110.284 12.096 1334 114.388 347.964 448.591
1315 1 57.1376 11.026 630 109.511 348.162 474.975
1316 0 58.332 10.2688 599 115.17 347.972 476.409
1317 0 63.1451 13.0335 823 113.112 347.33 474.547
1318 0 64.1737 12.6999 815 115.014 347.569 472.491
1319 0 65.329 12.1386 793 116.793 347.271 472.289
1320 0 69.1569 11.9005 823 117.25 347.751 470.314
1321 0 72.1468 12.1696 878 116.321 347.007 470.649
1322 0 72.1091 12.3147 888 117.017 347.027 469.239
1323 0 76.2013 12.7557 972 114.995 347.245 469.485
1324 0 77.1283 12.8228 989 116.22 347.001 464.15
1325 0 79.1879 12.8176 1015 116.139 346.612 463.923
1326 0 82.1725 12.559 1032 117.509 346.929 463.296
1327 0 86.2142 14.0696 1213 111.856 346.692 463.265
1328 0 89.1175 12.4218 1107 116.234 346.409 461.727
1329 0 91.1197 12.3354 1124 115.614 346.754 462.179
1330 0 94.1572 12.9358 1218 114.077 347.164 457.881
1331 0 97.2058 12.8696 1251 114.137 347.038 455.564
1332 0 101.198 12.8263 1298 113.791 347.324 455.391
1333 0 102.16 11.5407 1179 119.237 346.727 455.152
1334 1 53.1275 11.1807 594 122.135 346.719 476.323
1335 0 56.1395 10.6698 599 116.851 346.551 473.873
1336 0 57.2554 10.8811 623 109.629 347.655 470.807
1337 0 55.2078 8.31405 459 109.503 348.599 474.715
1338 0 59.1819 9.95236 589 106.321 348.431 473.744
1339 0 59.1518 9.51789 563 109.215 347.57 472.366
1340 0 64.2125 10.9947 706 104.674 348.28 471.39
1341 0 66.1785 11.1517 738 103.661 348.995 469.9
1342 0 65.164 10.205 665 107.777 348.188 466.848
1343 0 68.1615 10.7245 731 107.684 348.715 468.352
1344 0 71.2421 10.331 736 107.679 348.257 468.557
1345 0 73.1637 10.0323 734 109.341 348.646 465.183
1346 0 77.1621 11.1713 862 106.94 348.45 464.549
1347 0 81.1834 11.9975 974 104.829 348.432 463.907
1348 0 84.1091 11.1997 942 108.401 349.631 463.067
1349 1 42.0238 10.8986 458 106.672 350.317 485.212
1350 0 43.024 10.622 457 108.127 349.501 483.206
1351 0 45.1307 12.2533 553 104.014 347.962 481.351
1352 0 48.1297 11.2405 541 105.736 349.843 482.978
1353 0 49.0653 12.7993 628 101.457 350.242 482.218
1354 0 50.0472 11.3293 567 105.515 350.194 481.713
1355 0 51.0671 11.808 603 106.055 349.741 480.158
1356 0 53.1968 11.8052 628 106.475 349.126 479.651
1357 0 54.0382 11.8065 638 107.39 349.773 480.732
1358 0 55.102 12.2863 677 106.804 349.566 477.589
1359 0 58.0743 12.484 725 106.222 349.643 476.793
1360 0 58.1226 12.3016 715 107.958 349.364 475.481
1361 0 61.0551 12.3986 757 106.518 349.375 474.173
1362 0 62.0881 11.9508 742 107.631 349.073 475.828
1363 0 64.1213 11.7278 752 109.685 348.645 473.444
1364 0 66.169 12.2263 809 108.235 349.015 473.822
1365 0 67.0698 12.0621 809 109.66 348.546 472.005
1366 0 72.047 13.047 940 107.362 349.274 469.876
1367 0 72.0292 11.5509 832 112.666 349.218 468.115
1368 0 76.0262 12.2195 929 110.7 348.746 468.766
1369 0 76.211 11.3501 865 113.62 348.554 468.585
1370 1 41.056 10.9606 450 115.718 349.24 484.664
1371 0 41.0347 8.84618 363 120.931 349.118 485.901
1372 0 45.1216 10.7487 485 113.563 348.569 484.784
1373 0 45.0136 11.441 515 115.122 349.65 484.008
1374 0 45.1172 11.7694 531 114.793 348.674 481.058
1375 0 49.0481 11.9271 585 113.373 349.133 481.822
1376 0 50.0486 12.2681 614 111.923 348.811 480.363
1377 0 52.051 12.2572 638 112.422 349.06 479.92
1378 0 51.054 11.909 608 114.164 348.321 480.273
1379 0 55.0778 12.6367 696 111.328 348.374 478.361
1380 0 58.0468 13.0412 757 110.493 348.248 476.98
1381 0 57.0399 12.0091 685 114.25 348.644 476.74
1382 0 60.0738 11.902 715 113.957 348.825 476.064
1383 0 64.0528 12.5834 806 110.815 348.733 475.019
1384 0 65.0547 12.9583 843 109.896 349.113 474.055
1385 0 68.1542 13.3227 908 108.892 348.72 472.732
1386 0 70.1095 13.1651 923 108.917 349.21 471.726
1387 0 73.1178 13.0338 953 108.538 349.054 470.187
1388 0 75.2097 13.9743 1051 106.45 349.469 467.5
1389 0 76.116 13.2955 1012 109.637 349.856 466.991
1390 0 79.0862 13.1249 1038 109.31 349.551 465.707
1391 0 82.1002 13.8246 1135 106.685 349.396 464.256
1392 0 84.1108 13.3633 1124 107.892 349.292 462.787
1393 0 89.0554 12.8908 1148 108.199 349.291 463.275
1394 0 90.1108 13.3724 1205 108.28 348.495 461.405
1395 0 93.1711 13.7811 1284 107.639 348.727 459.436
1396 0 95.1545 14.0403 1336 107.141 348.566 457.166
1397 0 99.2208 13.0215 1292 109.796 348.35 459.141
1398 0 101.2 11.9466 1209 113.691 348.634 456.98
1399 0 104.239 12.5768 1311 112.019 348.36 454.006
1400 0 107.231 12.7855 1371 112.165 348.398 451.739
1401 0 110.291 13.5369 1493 109.429 348.405 451.175
1402 1 60.1412 11.9552 719 112.139 349.132 475.599
1403 0 62.1853 12.7361 792 109.366 349.122 472.648
1404 0 63.1023 13.1849 832 105.992 348.029 470.405
1405 0 64.1049 11.0912 711 110.774 349.162 471.301
1406 0 67.1283 12.5878 845 107.589 349.083 468.031
1407 0 71.0692 13.4939 959 104.791 348.138 468.563
1408 0 73.126 12.8135 937 106.329 348.931 467.789
1409 0 74.1253 12.8296 951 106.861 348.371 466.493
1410 0 77.1213 12.4998 964 108.795 347.606 463.619
1411 0 80.0886 12.6984 1017 107.862 347.798 463.64
1412 0 83.2198 13.3862 1114 107.094 348.01 460.087
1413 0 86.1794 13.2746 1144 107.917 347.817 459.545
1414 0 88.1558 13.8051 1217 107.191 347.382 459.886
1415 0 91.0764 12.9013 1175 109.557 347.751 456.561
1416 0 95.1962 13.8766 1321 108.501 347.702 454.165
1417 0 96.2681 11.6965 1126 114.493 348.551 456.872
1418 0 98.132 12.1265 1190 114.824 347.969 451.962
1419 0 102.179 12.1943 1246 114.683 347.957 453.885
1420 1 54.1067 11.0337 597 119.007 348.32 472.08
1421 0 55.0685 11.3313 624 117.149 347.923 473.728
1422 0 57.1473 12.179 696 116.983 348.322 468.878
1423 0 61.1872 13.8101 845 111.705 347.883 471.553
1424 0 63.3075 12.5735 796 114.408 347.436 469.72
1425 0 64.1981 12.6951 815 115.333 348.109 467.6
1426 0 64.1544 11.6126 745 119.06 348.976 466.667
1427 0 69.3043 12.4379 862 116.572 347.758 465.372
1428 0 70.1642 13.3686 938 115.464 348.547 463.261
1429 0 73.2042 12.9364 947 115.989 348.413 463.793
1430 0 75.334 13.0486 983 116.837 348.27 461.67
1431 0 78.1969 14.2589 1115 113.612 348.34 461.615
1432 0 78.2993 12.9503 1014 118.457 348.394 459.09
1433 0 80.2096 12.7541 1023 118.782 347.76 457.266
1434 0 85.2898 13.4483 1147 116.15 348.385 456.936
1435 0 88.2361 14.2799 1260 114.889 348.463 453.817
1436 0 89.0781 12.5508 1118 120.747 348.448 453.82
1437 0 92.0798 13.3254 1227 119.701 348.159 450.639
1438 0 94.1309 13.7893 1298 118.961 348.545 449.81
1439 0 99.2516 14.3877 1428 116.416 348.227 449.951
1440 0 100.224 13.819 1385 117.986 348.342 448.42
1441 0 99.0956 11.4637 1136 119.341 348.355 449.916
1442 0 104.074 12.7025 1322 116.574 347.657 448.61
1443 0 109.125 14.5246 1585 111.404 347.84 446.107
1444 0 113.156 13.4858 1526 113.776 347.269 444.366
1445 0 116.317 12.6894 1476 116.236 347.636 442.219
1446 1 60.4242 11.1876 676 117.309 347.694 466.645
1447 0 61.2621 11.9813 734 114.781 347.798 462.877
1448 0 66.3691 12.4455 826 114.14 347.228 462.178
1449 0 68.2415 13.8039 942 110.339 347.131 462.829
1450 0 68.1842 11.7769 803 116.441 347.691 462.99
1451 0 71.2491 13.4177 956 113.026 347.654 464.381
1452 0 72.1073 12.4121 895 117.085 347.164 462.899
1453 0 74.21 13.3944 994 114.227 347.613 461.444
1454 0 76.4749 11.6901 894 118.998 347.683 460.94
1455 0 79.264 12.9819 1029 115.15 347.405 460.015
1456 0 83.4297 12.5854 1050 116.797 347.691 456.266
1457 0 84.3058 12.5733 1060 117.581 347.304 454.527
1458 0 87.2832 12.786 1116 116.807 347.467 453.387
1459 0 92.2424 13.6271 1257 113.628 347.246 451.803
1460 0 94.3414 12.8894 1216 116.572 347.185 449.471
1461 0 96.4128 12.7058 1225 116.833 347.382 448.652
1462 0 100.233 13.9276 1396 113.55 348.358 444.952
1463 0 102.454 13.3035 1363 115.556 347.714 444.415
1464 0 105.316 13.132 1383 116.393 347.015 443.001
1465 0 108.267 12.8663 1393 117.236 346.905 442.301
1466 0 112.299 12.7428 1431 117.055 346.966 440.291
1467 0 118.363 12.4786 1477 115.719 346.835 439.066
1468 1 58.3595 10.2811 600 111.638 347.8 468.083
1469 0 61.0675 10.3328 631 112.32 347.838 469.621
1470 0 64.0299 11.7601 753 110.537 349.262 471.268
1471 0 67.0559 11.9602 802 108.953 349.328 470.485
1472 0 68.0716 11.8699 808 109.819 349.053 468.063
1473 0 72.0719 13.1535 948 105.465 348.766 466.207
1474 0 72.1042 11.7608 848 109.934 349.001 464.639
1475 0 75.1831 13.1945 992 106.528 348.716 462.062
1476 0 76.0774 12.1324 923 108.686 348.909 461.146
1477 0 78.157 11.656 911 110.609 348.209 459.346
1478 0 82.184 13.5306 1112 105.303 347.929 462.26
1479 0 87.1091 13.11 1142 104.922 348.718 460.641
1480 0 88.213 12.2658 1082 107.95 348.14 457.568
1481 0 90.3594 12.6938 1147 107.612 348.074 456.758
1482 0 95.393 13.0408 1244 106.822 348.364 453.895
1483 0 98.4174 13.3208 1311 106.178 348.087 453.379
1484 0 99.3137 12.677 1259 108.434 348.22 445.524
1485 0 102.268 12.389 1267 107.349 348.024 448.32
1486 0 103.246 12.4751 1288 105.005 347.739 447.069
1487 1 58.087 9.98503 580 106.483 348.71 470.791
1488 0 62.077 11.6146 721 103.483 348.162 470.743
1489 0 64.1 12.2621 786 103.006 349.046 469.678
1490 0 65.0442 11.054 719 106.526 349.033 468.7
1491 0 66.1105 11.8741 785 105.422 349.423 466.913
1492 0 68.0573 11.4903 782 107.345 349.21 468.133
1493 0 71.0726 12.0722 858 108.732 348.418 464.916
1494 0 77.3694 13.2352 1024 106.537 347.854 467.763
1495 0 79.1715 11.9361 945 107.161 348.034 466.557
1496 0 81.2089 11.3904 925 107.691 347.705 466.404
1497 0 84.273 11.4746 967 106.859 347.219 464.472
1498 0 84.3604 10.0995 852 111.5 347.532 462.719
1499 0 89.2668 10.6423 950 109.367 347.944 460.697
1500 1 46.096 10.4347 481 104.106 348.715 481.933
1501 0 48.0161 10.4548 502 103.777 348.245 484.544
1502 0 51.0345 11.0709 565 105.324 348.448 481.237
1503 0 52.0778 12.1549 633 91.5703 347.131 480.178
1504 0 52.0276 11.9744 623 92.5008 347.517 480.21
1505 0 53.0871 10.9631 582 96.0859 346.656 479.4
1506 0 52.0678 10.4287 543 99.3444 346.543 480.258
1507 0 51.0758 11.2969 577 101.915 346.822 478.617
1508 0 53.0127 12.148 644 99.5916 346.606 478.943
1509 0 54.0759 12.1681 658 101.123 345.913 480.175
1510 0 56.0263 11.9587 670 101.23 345.913 478.676
1511 0 57.0558 11.182 638 102.455 345.865 478.412
1512 0 59.0467 11.8381 699 99.8927 346.074 477.074
1513 0 62.0608 10.6186 659 101.568 346.24 475.813
1514 0 63.0547 11.7993 744 100.082 345.794 473.028
1515 0 63.0521 11.5143 726 101.191 346.123 473.128
1516 0 68.0697 12.9426 881 95.8502 346.28 473.753
1517 0 68.0796 11.4131 777 99.036 346.203 471.741
1518 0 71.1192 12.2611 872 96.5917 346.416 470.768
1519 0 72.0761 12.029 867 99.4925 345.766 467.622
1520 0 74.1357 12.005 890 99.336 345.924 468.207
1521 0 76.1094 11.4046 868 101.643 345.493 468.653
1522 0 81.0474 13.7327 1113 97.4313 345.765 465.602
1523 1 42.0213 10.5899 445 105.969 344.872 484.894
1524 0 44.0228 10.8353 477 107.792 345.644 483.484
1525 0 44.0235 12.0163 529 107.395 345.569 480.626
1526 0 44.0305 11.0605 487 113.556 345.419 481.368
1527 0 48.0137 12.0591 579 111.204 345.869 482.523
1528 0 46.0207 11.6687 537 114.972 345.97 481.048
1529 0 48.0223 12.8898 619 112.997 346.228 480.99
1530 0 51.0176 12.3879 632 114.62 345.915 480.848
1531 0 50.034 12.0718 604 117.702 345.455 480.93
1532 0 53.0171 11.6943 620 119.058 344.787 480.452
1533 0 53.0165 11.2229 595 122.059 345.321 478.985
1534 0 56.0289 12.0117 673 120.459 344.998 479.679
1535 0 58.0507 12.6097 732 119.56 344.593 478.369
1536 0 58.0262 13.6835 794 119.447 344.783 477.388
1537 0 59.0409 12.72 751 122.214 344.755 476.7
1538 0 61.0377 11.4356 698 125.781 344.542 477.284
1539 0 65.0746 13.4154 873 119.757 344.616 475.848
1540 0 67.0598 13.6445 915 119.031 345.338 475.248
1541 0 68.038 12.978 883 122.185 345.002 474.139
1542 0 69.0417 13.0646 902 122.555 344.055 472.137
1543 0 73.079 13.328 974 120.995 344.616 473.078
1544 0 73.152 14.0393 1027 120.747 345.413 472.225
1545 0 77.1108 13.4741 1039 122.744 345.189 469.412
1546 0 79.2355 13.1633 1043 123.57 344.944 468.351
1547 0 80.3069 13.4609 1081 123.958 344.989 466.683
1548 0 83.2207 13.0136 1083 124.396 345.02 467.84
1549 0 88.3031 14.2917 1262 120.897 345.294 465.832
1550 1 46.0895 11.5211 531 123.674 345.512 486.264
1551 0 49.2257 11.173 550 124.344 345.085 484.413
1552 0 50.1529 12.1827 611 122.324 344.938 482.944
1553 0 50.2034 13.1863 662 121.822 344.559 480.843
1554 0 55.1919 13.4621 743 119.082 345.128 481.55
1555 0 57.1738 12.8905 737 118.647 344.632 482.844
1556 0 56.1325 12.8446 721 122.125 344.682 480.402
1557 0 58.1783 12.7023 739 122.547 345.118 479.719
1558 0 58.1186 13.5069 785 121.344 344.833 478.154
1559 0 61.2395 12.8185 785 123.343 344.515 478.036
1560 0 63.1229 13.6876 864 120.968 344.591 475.954
1561 0 62.18 12.303 765 126.618 344.582 475.454
1562 0 67.1133 13.4698 904 121.336 344.844 475.788
1563 0 70.1793 13.7647 966 121.041 344.914 472.658
1564 0 72.0818 13.998 1009 119.512 345.393 473.372
1565 0 74.1769 14.3711 1066 119.492 345.125 470.761
1566 0 77.0929 14.7225 1135 117.975 345.626 470.137
1567 0 80.1372 14.4502 1158 117.746 345.531 469.118
1568 0 82.1729 14.2383 1170 117.826 345.547 468.371
1569 0 83.161 14.3096 1190 119.138 345.235 466.36
1570 0 85.0753 14.0699 1197 120.937 345.425 463.603
1571 0 88.074 13.8179 1217 121.239 345.371 462.22
1572 0 93.0878 13.1489 1224 121.529 344.547 461.223
1573 0 94.0954 13.1037 1233 121.641 344.92 460.014
1574 1 51.0294 12.2282 624 120.617 344.272 482.123
1575 0 52.038 12.5677 654 113.868 344.043 482.145
1576 0 54.102 13.5485 733 111.963 344.707 479.147
1577 0 56.0841 13.8185 775 109.465 344.787 479.822
1578 0 57.0732 12.8432 733 111.915 344.824 479.887
1579 0 58.0264 13.3905 777 109.461 344.409 477.911
1580 0 60.0681 12.952 778 110.377 343.909 477.057
1581 0 60.0661 12.6694 761 108.892 344.711 476.715
1582 0 64.0853 13.4508 862 106.766 344.633 474.901
1583 0 64.0699 12.1742 780 110.04 345.095 473.914
1584 0 69.0563 14.2203 982 104.032 344.741 471.41
1585 0 69.1244 13.0055 899 107.867 344.509 471.136
1586 0 73.1027 13.0365 953 107.497 345.346 470.288
1587 0 74.0405 12.7498 944 109.133 345.138 469.659
1588 0 79.105 12.9195 1022 106.414 344.678 464.219
1589 0 82.1882 13.1892 1084 105.474 344.89 464.244
1590 0 83.1546 13.6252 1133 105.37 344.491 461.238
1591 0 86.1053 13.4603 1159 105.939 344.152 461.318
1592 0 88.1047 12.8483 1132 107.437 345.034 459.63
1593 0 92.0521 13.0796 1204 107.299 345.058 460.15
1594 0 94.0596 12.2794 1155 109.768 344.811 459.991
1595 1 49.0923 10.9997 540 110.711 345.767 477.654
1596 0 53.1401 12.2694 652 107.451 345.893 477.14
1597 0 52.0954 11.8821 619 109.139 345.391 476.822
1598 0 56.2014 12.8466 722 107.547 344.803 477.442
1599 0 58.0497 12.7305 739 107.185 345.118 477.257
1600 0 61.0855 12.5889 769 106.489 345.151 476.841
1601 0 61.1086 13.3206 814 105.125 344.774 474.634
1602 0 64.1389 13.3772 858 103.864 345.014 474.768
1603 0 66.0589 12.943 855 102.937 344.716 471.856
1604 0 68.0487 11.5799 788 105.897 344.459 472.236
1605 0 71.0783 11.7617 836 105.957 345.205 470.433
1606 0 73.1166 11.721 857 106.487 345.818 470.604
1607 0 74.0708 13.0416 966 105.231 345.183 466.953
1608 0 78.1022 13.3287 1041 103.77 345.571 468.304
1609 0 81.0963 13.0092 1055 105.465 345.499 466.82
1610 0 84.0762 12.905 1085 105.562 345.696 465.435
1611 0 87.0759 12.9427 1127 106.261 345.234 465.21
1612 0 87.1118 11.3532 989 112.149 345.457 461.04
1613 1 49.1203 12.0317 591 104.506 345.491 478.7
1614 0 49.1614 12.103 595 105.378 344.681 479.04
1615 0 49.227 10.9696 540 103.398 346.154 482.063
1616 0 53.1021 12.2217 649 99.7997 345.743 481.137
1617 0 55.269 12.014 664 98.2982 345.676 478.614
1618 0 55.1358 9.88468 545 101.299 345.628 478.391
1619 0 59.1984 12.1118 717 96.0335 346.259 476.349
1620 0 59.2124 11.4503 678 97.7729 344.959 475.959
1621 0 61.1471 11.088 678 99.4498 345.618 472.071
1622 0 63.0916 11.9826 756 97.795 345.778 472.856
1623 0 63.0519 12.1963 769 98.342 345.678 472.671
1624 0 66.1416 11.6871 773 98.9845 345.812 472.921
1625 0 71.1946 12.1217 863 97.8065 345.249 470.203
1626 0 70.0592 12.2468 858 99.7692 345.128 467.794
1627 0 73.2084 11.4878 841 101.716 345.415 465.958
1628 0 77.1114 12.2161 942 99.6338 344.822 466.716
1629 0 78.0934 12.4979 976 100.395 345.008 463.893
1630 0 81.2386 12.0755 981 101.021 345.132 462.569
1631 0 85.1373 11.9924 1021 102.801 344.894 462.62
1632 0 88.2013 12.0293 1061 102.937 345.14 462.376
1633 0 93.0736 11.8508 1103 103.654 345.374 460.924
1634 1 53.0485 11.8571 629 103.882 345.827 478.479
1635 0 57.1248 12.9891 742 104.256 345.574 477.47
1636 0 58.0903 12.3945 720 106.353 345.783 477.231
1637 0 61.2296 13.4902 826 105.729 345.794 474.485
1638 0 61.2186 13.558 830 105.866 345.852 474.555
1639 0 64.2054 12.4756 801 108.061 346.192 472.439
1640 0 62.2175 10.1901 634 110.891 345.91 474.954
1641 0 67.1783 12.3552 830 105.498 345.225 473.194
1642 0 71.2529 12.5328 893 103.773 344.782 472.814
1643 0 72.1786 12.4829 901 105.532 345.898 470.003
1644 0 75.3691 11.8749 895 106.215 344.831 468.92
1645 0 77.2898 12.0844 934 106.454 345.29 468.037
1646 0 81.4219 12.1589 990 106.548 345.111 464.579
1647 0 83.1297 11.7768 979 107.941 344.954 464.032
1648 1 43.1448 10.824 467 110.088 345.128 481.976
1649 0 45.1553 10.8736 491 108.552 345.202 479.741
1650 0 48.0364 11.7619 565 107.805 346.193 480.227
1651 0 50.0888 12.1784 610 107.423 347.103 481.548
1652 0 50.0784 11.9413 598 109.915 346.311 480.237
1653 0 53.1166 13.1785 700 106.944 346.131 478.567
1654 0 52.0656 11.255 586 112.852 346.072 478.778
1655 0 56.1556 12.2873 690 110.413 345.936 476.63
1656 0 55.0767 12.8003 705 109.8 345.892 477.267
1657 0 58.1184 11.9755 696 112.181 345.428 475.289
1658 0 59.0475 13.3113 786 108.609 346.061 475.237
1659 0 63.0604 12.718 802 110.122 345.762 474.66
1660 0 64.073 12.0175 770 111.577 345.736 474.671
1661 0 66.06 14.2295 940 107.896 344.774 474.495
1662 0 67.1361 13.495 906 110.411 345.768 472.748
1663 0 68.1291 12.9754 884 114.362 344.43 470.49
1664 0 71.0844 12.8579 914 112.303 345.129 471.984
1665 0 74.23 13.1753 978 113.993 344.232 469.44
1666 0 75.3814 12.4965 942 116.797 345.394 465.531
1667 0 79.2343 12.5703 996 115.541 345.122 465.909
1668 0 82.2112 14.11 1160 112.289 345.053 464.95
1669 0 81.307 13.5905 1105 95.3457 345.345 464.348
1670 0 83.1553 11.7371 976 117.027 344.644 462.659
1671 0 90.1041 12.9295 1165 106.784 344.537 462.794
1672 0 91.1268 12.3564 1126 109.956 345.371 458.535
1673 0 95.1472 13.2532 1261 108.59 345.163 459.934
1674 0 96.144 12.0548 1159 112.823 345.457 459.238
1675 0 99.1485 12.5973 1249 112.02 344.891 458.273
1676 0 105.17 13.2928 1398 110.753 345.618 454.615
1677 0 108.262 11.8139 1279 114.38 345.281 451.861
1678 0 110.157 12.6638 1395 113.075 344.959 453.104
1679 0 116.364 13.3976 1559 93.0622 345.65 448.776
1680 1 62.1232 12.5396 779 110.139 345.949 471.982
1681 0 66.1248 12.8393 849 108.565 346.332 473.187
1682 0 67.0812 13.1483 882 111.935 344.262 472.218
1683 0 69.0771 13 898 112.058 344.296 471.71
1684 0 70.0603 11.9754 839 114.783 344.205 470.702
1685 0 74.1033 12.4016 919 113.766 344.621 469.567
1686 0 77.0727 14.2463 1098 108.712 344.108 467.403
1687 0 79.0908 12.8966 1020 112.943 343.806 465.11
1688 0 81.1103 12.7974 1038 113.499 344.191 465.169
1689 0 85.0968 13.6433 1161 110.849 344.248 463.364
1690 0 86.1395 13.6755 1178 111.616 344.357 462.99
1691 0 89.1744 12.4027 1106 114.71 344.466 462.565
1692 0 90.1157 13.638 1229 113.627 344.485 460.801
1693 0 95.115 13.0999 1246 114.278 344.111 459.81
1694 0 97.2422 13.5846 1321 114.163 343.946 457.808
1695 0 100.17 13.4172 1344 114.746 344.72 457.188
1696 0 104.423 14.3934 1503 112.491 344.27 452.859
1697 0 108.292 14.0823 1525 112.324 344.555 449.109
1698 1 60.071 10.6707 641 108.37 345.562 478.239
1699 0 61.0783 11.0023 672 110.56 345.741 475.583
1700 0 63.076 10.7014 675 105.847 345.415 473.147
1701 0 63.0749 11.0028 694 103.354 345.432 470.245
1702 0 66.0734 10.7608 711 102.433 345.225 470.679
1703 0 68.0967 11.7627 801 101.295 344.815 466.288
1704 0 70.1183 10.9672 769 100.334 344.049 464.858
1705 0 72.1398 10.5351 760 100.9 344.679 464.505
1706 0 79.1528 10.9914 870 98.1724 345.508 466.56
1707 0 80.1332 11.7429 941 98.5175 344.847 463.783
1708 0 81.1148 11.9953 973 98.3237 344.421 457.264
1709 0 86.0751 13.2675 1142 95.7539 343.954 459.283
1710 0 87.1546 11.7492 1024 98.9121 344.326 455.764
1711 0 92.0773 12.9999 1197 96.4394 344.855 457.208
1712 0 93.2412 11.7223 1093 100.232 344.546 455.867
1713 0 97.1224 12.2732 1192 100.245 345.185 456.284
1714 0 102.134 11.7787 1203 102.248 345.096 452.084
1715 1 52.101 10.2493 534 96.7678 344.646 477.21
1716 0 55.1154 11.1403 614 95.1612 345.463 475.979
1717 0 55.0429 11.2639 620 95.929 345.013 474.544
1718 0 56.2423 11.5927 652 97.5583 345.265 476.758
1719 0 56.1061 10.4089 584 99.9469 345.202 475.678
1720 0 61.1797 13.3051 814 93.3821 345.071 474.226
1721 0 63.1725 12.1572 768 95.1237 345.107 474.799
1722 0 66.1852 12.0269 796 95.6596 345.137 472.607
1723 0 68.1435 13.0753 891 92.8339 345.869 473.275
1724 0 71.1089 11.9676 851 95.3326 345.206 469.534
1725 0 71.0932 11.2247 798 97.5464 345.382 470.806
1726 0 74.1969 12.1838 904 95.365 344.514 467.663
1727 0 76.0825 11.7898 897 97.4983 345.098 468.606
1728 0 80.1326 11.9552 958 96.8685 344.996 464.1
1729 0 82.1038 12.4964 1026 96.7534 345.201 461.077
1730 0 84.1474 11.67 982 98.5428 346.096 461.552
1731 0 88.1141 11.7575 1036 98.5647 345.955 461.078
1732 0 91.2052 11.5564 1054 100.104 345.811 462.523
1733 0 93.2964 11.9083 1111 100.07 345.526 458.59
1734 0 98.1404 11.6058 1139 99.3626 344.752 456.569
1735 1 51.2254 9.956 510 93.5294 345.051 474.494
1736 0 52.0879 10.6935 557 92.535 345.359 477.309
1737 0 53.0826 11.0771 588 94.8282 345.398 480.061
1738 0 55.0428 10.9915 605 95.2744 346.089 477.617
1739 0 56.0963 12.4251 697 92.8881 345.638 477.684
1740 0 58.0857 13.6522 793 90.6456 344.426 474.8
1741 0 61.0436 12.3027 751 91.9907 343.14 476.38
1742 0 62.0741 12.9523 804 92.0062 343.767 470.404
1743 0 61.0681 12.0849 738 95.9539 343.598 472.78
1744 0 61.0876 11.1316 680 98.0382 343.475 470.876
1745 0 66.1372 13.6988 906 92.7925 343.745 468.387
1746 0 67.1157 12.173 817 96.5985 343.141 467.847
1747 0 70.1533 12.2874 862 96.152 343.472 466.137
1748 0 72.0778 13.3883 965 94.1513 343.66 464.813
1749 0 73.2565 12.1627 891 96.6566 343.81 464.178
1750 0 76.1135 12.5208 953 96.3442 343.361 464.358
1751 0 78.0921 11.845 925 97.2486 344.101 466.379
1752 0 81.0794 13.3203 1080 94.6593 344.62 464.257
1753 0 84.1996 13.2186 1113 95.1015 344.162 464.15
1754 0 85.2109 12.3224 1050 98.2705 344.548 461.593
1755 0 90.137 12.4921 1126 97.5213 345.347 462.34
1756 0 91.1712 12.504 1140 99.2228 345.746 458.191
1757 0 93.0712 13.162 1225 98.5967 345.789 455.921
1758 0 98.1188 12.4339 1220 100.363 345.531 454.804
1759 0 102.241 11.6294 1189 83.9664 345.749 454.64
1760 1 53.0799 9.89074 525 104.674 345.985 476.712
1761 0 57.0547 11.3926 650 103.397 345.231 474.158
1762 0 60.2732 11.9788 722 101.939 344.936 470.132
1763 0 61.0249 12.159 742 98.5027 346.805 473.787
1764 0 63.0683 11.987 756 99.5516 346.261 471.865
1765 0 64.099 12.5743 806 98.8598 346.297 471.104
1766 0 67.0901 11.9541 802 100.39 346.475 472.502
1767 0 71.0791 13.5905 966 97.3799 345.954 470.972
1768 0 73.1136 12.9935 950 99.0274 346.014 469.656
1769 0 73.0992 12.7088 929 101.76 345.811 465.917
1770 0 76.162 12.3159 938 102.627 345.945 467.086
1771 0 77.0914 11.0259 850 105.796 345.515 467.073
1772 0 81.2889 13.3352 1084 100.879 345.511 462.927
1773 0 84.1974 12.0788 1017 105.065 345.768 462.564
1774 0 87.2023 13.612 1187 102.184 344.626 459.963
1775 0 89.19 12.4005 1106 105.154 344.623 460.293
1776 1 47.0994 10.6371 501 109.252 346.07 479.058
1777 0 45.1128 10.8395 489 103.386 344.804 478.521
1778 0 51.1635 12.3135 630 100.802 345.143 474.706
1779 0 54.2369 11.6526 632 108.75 345.533 476.946
1780 0 56.2276 12.0759 679 108.353 344.951 475.454
1781 0 56.2445 11.29 635 111.093 345.211 476.266
1782 0 57.3366 11.6854 670 111.797 344.602 474.521
1783 0 59.201 12.0606 714 110.958 345.573 473.073
1784 0 61.2324 12.2158 748 111.377 344.959 472.072
1785 0 63.2223 12.1476 768 111.923 344.663 471.559
1786 0 64.3002 12.7838 822 111.569 344.639 468.526
1787 0 68.2167 12.3577 843 111.597 344.705 469.452
1788 0 70.2736 12.6363 888 111.791 344.158 467.564
1789 0 73.3468 12.9794 952 109.863 344.29 466.735
1790 0 74.3758 14.0099 1042 107.978 344.342 468.087
1791 0 75.2575 12.3044 926 114.527 344.46 463.026
1792 0 78.3929 12.0419 944 115.644 343.325 462.358
1793 0 82.3157 13.5576 1116 111.565 343.771 461.284
1794 0 83.16 12.482 1038 112.869 344.164 462.467
1795 0 86.1257 11.518 992 109.066 344.803 461.868
1796 1 44.0471 9.73957 429 111.357 345.688 483.149
1797 0 48.1081 11.6612 561 106.478 345.781 478.34
1798 0 49.1818 11.793 580 107.314 345.971 478.078
1799 0 49.0475 12.0088 589 106.691 345.98 480.11
1800 0 52.122 13.1039 683 104.382 345.933 479.135
1801 0 51.0386 11.8342 604 108.964 346.05 477.882
1802 0 53.0532 12.2518 650 108.755 346.551 477.883
1803 0 55.043 12.3358 679 107.49 345.814 478.797
1804 0 59.0238 13.1811 778 105.167 345.711 477.229
1805 0 59.0595 13.4271 793 105.754 345.851 476.148
1806 0 61.0683 14.0335 857 105.145 345.842 475.817
1807 0 61.0737 13.3118 813 107.934 346.002 474.577
1808 0 64.0548 14.7218 943 105.52 345.971 473.676
1809 0 63.0978 12.4568 786 112.889 345.983 472.069
1810 0 69.0664 13.9576 964 107.321 345.715 471.789
1811 0 70.0637 13.5734 951 109.539 345.788 469.921
1812 0 70.1087 13.5789 952 111.206 345.892 470.911
1813 0 76.2032 14.422 1099 107.593 345.101 469.382
1814 0 76.0788 14.9845 1140 108.068 345.75 465.335
1815 0 76.1074 12.7057 967 115.097 346.041 466.131
1816 0 82.0682 13.9274 1143 111.509 345.385 465.262
1817 0 83.2416 13.1184 1092 114.164 345.256 463.886
1818 0 84.1611 13.8187 1163 113.102 345.37 461.972
1819 0 89.1759 14.1967 1266 112.564 345.252 462.306
1820 0 89.1701 13.3565 1191 115.742 345.38 460.4
1821 1 48.0617 11.298 543 117.948 346.074 481.851
1822 0 50.0392 12.6101 631 112.254 345.553 481.694
1823 0 52.148 11.7167 611 116.992 344.192 478.329
1824 0 56.0634 13.4312 753 107.506 343.81 479.02
1825 0 56.0777 13.9449 782 107.202 344.363 476.515
1826 0 58.0936 13.0823 760 107.679 344.25 478.779
1827 0 60.1027 12.7449 766 109.851 344.05 475.745
1828 0 62.0948 14.1558 879 106.901 344.851 474.112
1829 0 62.117 11.6554 724 113.802 344.75 472.863
1830 0 65.0823 12.9375 842 111.046 344.058 471.667
1831 0 68.0989 14.288 973 108.302 343.38 470.731
1832 0 70.145 13.3865 939 111.435 343.489 469.368
1833 0 73.0633 14.0426 1026 110.285 343.808 470.138
1834 0 74.1592 12.1765 903 117.424 343.103 466.032
1835 0 76.1117 13.1517 1001 116.71 342.828 464.865
1836 0 79.1166 13.7898 1091 115.164 343.963 464.735
1837 0 81.1095 13.7099 1112 116.445 345.181 466.204
1838 0 85.1296 12.8745 1096 118.449 344.807 466.502
1839 0 87.1605 14.0201 1222 115.154 345.705 465.286
1840 0 88.0801 13.272 1169 118.416 345.548 460.559
1841 0 92.0874 12.7053 1170 121.337 345.165 460.126
1842 0 95.1476 12.8958 1227 121.084 345.119 459.82
1843 0 98.0827 13.8557 1359 120.296 345.313 456.979
1844 0 101.074 14.8209 1498 117.922 345.551 456.123
1845 0 105.174 14.4998 1525 119.163 344.657 455.144
1846 0 108.092 13.544 1464 122.402 344.671 453.688
1847 0 110.207 13.2296 1458 123.691 345.216 452.022
1848 0 117.169 13.9713 1637 121.414 344.503 449.338
1849 0 123.17 15.0524 1854 118.289 344.915 446.714
1850 1 65.0587 12.6194 821 124.654 345.504 473.597
1851 0 68.096 12.8348 874 126.071 345.952 471.178
1852 0 71.117 12.9364 920 127.139 345.771 470.467
1853 0 73.1883 13.3081 974 127.982 345.935 468.498
1854 0 77.1592 13.0639 1008 127.006 345.72 467.754
1855 0 80.1744 13.9072 1115 125.945 345.535 465.832
1856 0 81.1784 14.0431 1140 127.321 345.451 463.845
1857 0 85.2479 13.9358 1188 126.247 345.776 464.109
1858 0 86.3156 13.4391 1160 129.226 345.118 460.681
1859 0 92.1548 13.9222 1283 126.258 344.381 460.623
1860 0 94.1722 13.762 1296 127.759 344.823 458.762
1861 0 98.0731 13.2044 1295 126.496 345.332 456.951
1862 0 98.1193 12.76 1252 130.108 345.604 455.385
1863 0 103.111 14.2177 1466 125.617 345.503 452.406
1864 0 106.066 13.4633 1428 128.214 345.504 450.913
1865 0 111.189 14.8755 1654 125.781 344.136 450.67
1866 0 113.171 13.6873 1549 130.225 344.633 449.374
1867 0 117.091 13.0411 1527 129.363 344.726 446.535
1868 1 60.1042 11.4135 686 117.86 344.29 475.372
1869 0 61.0356 12.7794 780 116.21 345.164 473.478
1870 0 65.0648 11.1427 725 118.142 345.156 473.037
1871 0 65.1206 11.4864 748 116.598 344.861 470.285
1872 0 69.0507 12.7587 881 113.123 344.897 470.419
1873 0 72.0876 12.2767 885 113.777 344.015 468.803
1874 0 73.0613 12.5374 916 112.586 344.986 468.391
1875 0 75.1668 11.6142 873 113.754 345.092 460.417
1876 0 78.1889 12.4698 975 112.071 345.361 463.711
1877 0 80.1957 11.7213 940 114.254 345.069 463.829
1878 0 83.1781 13.1886 1097 112.443 345.152 461.362
1879 0 86.2187 13.7441 1185 111.092 345.715 461.216
1880 0 89.2586 12.6038 1125 114.972 345.054 459.107
1881 0 91.1924 12.7642 1164 114.735 345.128 457.314
1882 0 94.2985 12.8952 1216 114.263 345.347 457.219
1883 0 95.342 12.5233 1194 115.773 344.918 454.815
1884 0 100.396 12.869 1292 114.776 345.005 452.7
1885 0 102.355 12.7693 1307 115.973 344.662 451.278
1886 1 54.0123 11.7566 635 114.942 344.342 477.129
1887 0 57.049 11.7092 668 112.088 344.141 478.208
1888 0 57.0286 11.7836 672 112.711 346.006 477.713
1889 0 57.0946 10.7541 614 110.778 345.793 474.56
1890 0 59.1696 11.3065 669 111.157 345.526 471.713
1891 0 60.1957 11.2965 680 112.175 345.151 470.29
1892 0 63.1454 11.5448 729 110.636 345.144 468.855
1893 0 69.2066 13.6548 945 103.848 345.35 465.311
1894 0 69.196 12.3996 858 109.028 344.584 466.083
1895 0 70.1076 12.8089 898 109.169 345.704 464.577
1896 0 74.0732 12.6226 935 108.052 344.912 466.667
1897 0 75.1094 10.9573 823 113.921 344.999 462.279
1898 0 79.1065 12.8561 1017 108.127 345.086 464.047
1899 0 80.0937 11.549 925 112.405 345.006 462.053
1900 0 83.0726 13.1451 1092 109.364 345.244 460.103
1901 0 85.1031 12.1617 1035 111.865 345.404 459.811
1902 0 87.1097 11.6749 1017 113.009 345.255 458.076
1903 0 91.1434 12.5407 1143 110.29 345.476 458.549
1904 0 93.0644 12.1529 1131 114.197 344.878 446.442
1905 0 96.1168 12.9634 1246 112.331 345.147 446.366
1906 0 96.1979 13.2227 1272 112.554 344.769 451.472
1907 0 100.137 12.7925 1281 115.359 344.452 450.612
1908 0 103.09 13.3379 1375 115.431 344.653 451.352
1909 0 107.104 14.1077 1511 113.661 343.94 446.962
1910 0 112.15 14.008 1571 113.531 343.771 444.88
1911 0 116.171 13.3424 1550 115.53 344.436 441.104
1912 0 119.099 12.8045 1525 117.163 345.047 442.031
1913 1 65.0401 11.6697 759 115.883 344.328 468.269
1914 0 66.2221 11.7483 778 109.825 345.569 468.595
1915 0 68.0718 13.3976 912 115.182 344.474 465.204
1916 0 70.1946 14.0609 987 112.623 345.402 462.714
1917 0 71.0893 12.5898 895 117.508 345.121 461.238
1918 0 76.1461 13.4478 1024 115.537 344.981 461.044
1919 0 74.2091 12.9095 958 119.71 345.128 458.467
1920 0 78.1766 12.6125 986 119.884 345.194 459.791
1921 0 80.2112 13.078 1049 120.764 344.948 459.846
1922 0 82.2158 13.3551 1098 121.474 345.14 456.582
1923 0 87.1861 14.773 1288 117.053 345.375 455.728
1924 0 88.2742 14.6022 1289 117.843 345.771 456.543
1925 0 90.1693 12.4987 1127 124.788 345.461 452.21
1926 0 94.3668 13.9668 1318 120.519 345.437 450.767
1927 0 99.197 14.7383 1462 118.179 345.417 449.968
1928 0 101.105 13.8767 1403 120.497 345.073 448.685
1929 0 105.15 13.476 1417 121.095 345.383 446.81
1930 1 59.038 10.9082 644 119.96 346.559 473.814
1931 0 63.1034 11.9486 754 116.743 344.805 476.034
1932 0 65.0328 13.0396 848 117.975 344.696 472.462
1933 0 69.0862 13.4035 926 121.216 344.316 471.972
1934 0 69.1169 13.3687 924 123.489 344.171 469.277
1935 0 72.2079 12.5056 903 125.025 344.044 468.153
1936 0 74.1768 13.0903 971 123.31 345.135 466.372
1937 0 78.1366 12.0814 944 124.794 344.681 464.936
1938 0 80.2105 13.0407 1046 122.799 344.282 464.443
1939 0 79.1986 12.6391 1001 126.878 344.59 464.097
1940 0 84.1406 13.3586 1124 124.024 344.483 463.458
1941 0 85.1049 13.3952 1140 125.53 343.495 461.41
1942 0 86.1336 12.6548 1090 128.243 343.68 461.281
1943 0 92.191 13.7215 1265 122.877 344.189 460.326
1944 0 93.1249 12.8752 1199 127.063 344.429 457.918
1945 0 96.1562 13.3533 1284 125.762 344.093 454.815
1946 0 98.1058 11.7016 1148 129.653 344.594 456.051
1947 0 103.214 13.1765 1360 121.76 345.382 453.439
1948 0 106.139 14.1889 1506 120.568 344.889 450.738
1949 1 55.2223 10.5392 582 118.617 345.531 473.911
1950 0 60.2197 12.1389 731 114.312 344.777 471.793
1951 0 59.0886 12.2528 724 115.195 345.445 475.598
1952 0 59.2474 11.2916 669 119.027 343.792 474.184
1953 0 62.0617 12.2459 760 116.37 344.413 472.911
1954 0 63.1418 11.688 738 118.644 344.423 470.499
1955 0 67.1456 11.9591 803 117.933 343.707 469.838
1956 0 69.1017 11.5482 798 118.331 344.511 471.333
1957 0 72.0554 12.8929 929 116.571 344.357 467.972
1958 0 75.1306 13.1371 987 116.144 344.468 466.853
1959 0 75.0882 12.4787 937 120.065 344.836 464.951
1960 0 78.1027 12.5348 979 119.247 344.403 467.294
1961 0 80.1808 12.9956 1042 119.726 345.602 460.438
1962 0 83.164 13.6117 1132 118.794 345.958 458.712
1963 0 87.1062 12.4101 1081 121.973 345.842 458.52
1964 0 90.1462 12.6794 1143 120.739 346.013 454.873
1965 0 94.0967 12.806 1205 122.433 345.971 455.141
1966 0 95.0465 12.92 1228 124.138 345.61 454.9
1967 0 96.078 13.5307 1300 124.674 345.624 450.545
1968 0 98.203 13.5434 1330 125.273 345.928 449.176
1969 0 102.108 12.8589 1313 128.159 345.459 445.853
1970 0 103.151 12.7676 1317 129.957 344.949 448.457
1971 0 109.213 13.5698 1482 125.908 344.615 447.267
1972 0 111.226 13.1804 1466 127.613 345.31 446.211
1973 0 116.177 13.0405 1515 127.789 345.89 444.869
1974 0 122.218 13.5986 1662 125.449 345.735 439.927
1975 0 124.199 14.2997 1776 124.311 345.101 439.181
1976 0 129.323 14.4986 1875 122.436 346.321 431.901
1977 0 133.269 14.4745 1929 121.34 346.228 430.418
1978 0 136.352 13.5971 1854 123.839 345.662 429.588
1979 0 144.522 15.61 2256 116.032 345.456 423.617
1980 0 148.197 14.663 2173 118.505 344.742 425
1981 1 82.097 10.0126 822 114.719 345.186 465.544
1982 0 86.2758 12.4948 1078 110.584 345.348 459.599
1983 0 90.1444 12.4689 1124 112.335 344.432 459.723
1984 0 91.106 11.8982 1084 112.876 345.037 457.381
1985 0 96.0727 11.9805 1151 112.857 344.955 455.737
1986 0 96.103 11.4356 1099 115.514 344.738 452.591
1987 0 102.193 12.0458 1231 112.347 345.865 454.333
1988 0 103.103 11.2897 1164 116.704 345.265 448.799
1989 0 108.111 11.2847 1220 117.654 344.708 449.067
1990 0 111.107 11.7275 1303 115.012 344.936 446.11
1991 0 115.156 12.1053 1394 115.298 345.333 444.709
1992 0 117.16 12.3421 1446 118.748 345.212 443.898
1993 0 123.104 12.4286 1530 116.51 344.656 440.717
1994 0 128.231 11.799 1513 117.675 343.973 438.636
1995 0 130.261 11.6305 1515 119.556 344.539 431.865
1996 0 135.396 11.507 1558 120.202 345.313 432.121
1997 0 140.35 12.2479 1719 118.891 344.911 428.372
1998 0 143.24 12.1754 1744 121.683 343.795 423.885
1999 0 150.402 12.5264 1884 121.332 343.846 422.984
2000 0 156.303 12.0471 1883 123.988 344.169 422.245
2001 0 160.462 12.732 2043 124.007 344.894 418.491
2002 0 167.372 13.8613 2320 123.948 344.505 417.601
2003 0 169.381 13.1538 2228 125.712 344.874 415.753
2004 1 98.183 12.9554 1272 121.564 345.433 452.292
2005 0 100.082 12.8995 1291 122.431 346.352 451.848
2006 0 103.185 12.7441 1315 123.822 346.191 450.667
2007 0 105.069 13.6006 1429 123.038 346.041 447.796
2008 0 107.12 12.1546 1302 127.558 346.136 444.69
2009 0 112.158 13.3651 1499 123.535 345.938 445.352
2010 0 115.17 12.9808 1495 125.4 345.748 442.082
2011 0 121.187 13.5823 1646 123.228 345.675 442.676
2012 0 124.278 12.7859 1589 126.98 345.566 437.556
2013 1 71.1011 11.0828 788 124.561 345.706 466.213
2014 0 72.1446 10.8116 780 127.869 345.149 463.19
2015 0 75.2442 11.7484 884 125.208 345.715 463.67
2016 0 77.1734 11.8305 913 123.935 346.164 464.313
2017 0 81.2228 12.5088 1016 122.153 345.273 464.086
2018 0 82.136 11.8827 976 124.144 345.81 463.83
2019 0 84.235 11.9428 1006 125.674 345.459 460.498
2020 0 87.2203 11.855 1034 124.97 345.343 460.589
2021 0 91.3237 13.6657 1248 120.771 344.797 458.024
2022 0 95.28 12.521 1193 123.018 343.657 458
2023 0 99.2812 13.4567 1336 119.486 344.528 457.443
2024 0 101.409 14.0817 1428 121.542 344.391 452.78
2025 0 101.295 12.281 1244 127.861 344.71 448.244
2026 0 107.439 12.7235 1367 124.672 345.026 448.55
2027 0 110.322 12.8715 1420 121.863 345.506 447.261
2028 0 113.289 13.8319 1567 120.364 344.775 444.839
2029 0 116.343 13.7782 1603 118.394 344.536 444.483
2030 0 119.192 13.9104 1658 118.54 344.918 434.785
2031 0 124.131 12.519 1554 121.463 344.732 434.551
2032 0 126.212 13.9369 1759 116.495 344.762 426.568
2033 1 71.1504 10.3021 733 119.738 344.533 452.741
2034 0 73.1454 10.9371 800 118.516 344.505 451.142
2035 0 75.1397 11.2989 849 105.114 344.506 450.204
2036 0 78.0978 10.935 854 105.361 344.427 450.637
2037 0 80.0515 11.8549 949 104.122 345.259 449.59
2038 0 82.1936 12.6409 1039 103.744 344.662 449.317
2039 0 83.1337 12.1371 1009 107.196 344.685 444.564
2040 0 88.125 12.8454 1132 105.599 344.504 445.437
2041 0 90.2215 12.6356 1140 107.382 344.845 442.401
2042 0 96.1618 12.8013 1231 104.753 345.185 449.552
2043 0 98.268 12.0996 1189 106.262 344.738 452.368
2044 0 100.133 13.1725 1319 105.801 344.513 454.879
2045 0 104.176 12.9493 1349 106.455 344.679 454.698
2046 0 106.128 12.0892 1283 108.733 344.906 452.416
2047 1 56.0415 10.9205 612 103.373 345.489 477.139
2048 0 58.0208 12.1336 704 101.17 346.43 475.42
2049 0 58.1069 10.8077 628 107.424 345.454 474.476
2050 0 61.092 11.9165 728 117.32 345.901 472.819
2051 0 63.1532 12.9843 820 115.557 345.449 473.634
2052 0 64.1778 12.7147 816 116.382 346.023 473.184
2053 0 67.1383 13.7775 925 112.625 345.756 472.301
2054 0 68.1241 14.7085 1002 110.815 345.711 468.756
2055 0 70.1296 12.9474 908 115.089 346.334 468.496
2056 0 70.1087 12.3095 863 117.84 345.881 467.371
2057 0 74.1671 13.2943 986 114.632 346.085 467.583
2058 0 74.1191 13.4243 995 114.139 345.925 467.859
2059 0 76.1062 14.2695 1086 112.057 345.92 466.88
2060 0 80.2088 13.5771 1089 112.624 345.766 464.801
2061 0 82.1232 13.772 1131 113.49 345.512 460.136
2062 0 85.0824 14.3155 1218 111.893 345.498 458.979
2063 0 86.1742 13.8208 1191 114.06 345.622 457.312
2064 0 89.1722 13.7487 1226 114.584 344.78 454.17
2065 0 89.1242 13.4868 1202 116.285 344.315 452.689
2066 0 92.1577 13.0971 1207 116.055 344.662 453.191
2067 0 95.2858 13.3493 1272 115.689 344.957 450.618
2068 0 97.1326 13.95 1355 111.035 344.846 451.711
2069 0 100.138 13.791 1381 110.648 345.046 449.535
2070 0 101.043 13.9743 1412 111.953 344.846 446.684
2071 0 106.151 14.2061 1508 110.086 344.869 447.362
2072 0 111.128 14.1459 1572 110.294 343.934 446.004
2073 1 56.1457 11.5414 648 119.617 344.562 464.636
2074 0 61.1822 12.6834 776 115.26 343.67 465.134
2075 0 64.2332 13.1241 843 116.18 343.187 462.905
2076 0 66.1028 13.5244 894 108.54 344.233 462.169
2077 0 67.2753 12.0104 808 111.749 344.884 462.556
2078 0 71.2283 13.1549 937 107.766 344.703 460.867
2079 0 73.1523 12.9319 946 110.057 343.932 459.285
2080 0 75.1021 14.1807 1065 107.886 343.678 458.676
2081 0 79.2805 13.1684 1044 110.18 344.02 457.278
2082 0 81.2122 13.9511 1133 109.979 344.084 456.214
2083 0 82.2301 14.1919 1167 110.688 343.228 456.531
2084 0 84.1985 13.1119 1104 115.475 344.046 454.577
2085 0 86.2379 13.6599 1178 118.719 343.824 459.595
2086 0 89.2261 14.4689 1291 116.757 344.324 456.277
2087 0 94.3522 15.0182 1417 115.655 344.044 454.064
2088 0 96.2142 14.7068 1415 118.21 344.257 449.936
2089 0 98.3646 15.4324 1518 116.487 344.051 450.671
2090 0 100.342 13.9623 1401 121.854 344.228 445.332
2091 0 106.275 16.9748 1804 112.422 343.474 444.571
2092 0 107.179 13.5288 1450 124.49 343.168 440.896
2093 0 110.364 13.7454 1517 123.912 343.634 440.108
2094 0 116.18 14.6325 1700 120.188 343.896 441.836
2095 0 119.438 13.9571 1667 123.533 343.619 437.279
2096 1 64.1308 11.5545 741 128.108 343.842 461.831
2097 0 66.1366 13.079 865 120.733 344.407 465.51
2098 0 69.0438 13.7739 951 125.451 346.327 466.465
2099 0 71.0744 13.0005 924 128.267 346.01 465.744
2100 0 75.1291 14.5616 1094 124.06 346.237 465.974
2101 0 75.0851 13.5047 1014 128.164 345.406 464.928
2102 0 79.0918 13.8953 1099 128.24 346.274 463.222
2103 0 81.081 14.2943 1159 127.47 345.953 462.091
2104 0 83.1725 12.7807 1063 132.801 345.721 461.081
2105 0 86.1669 13.0328 1123 133.23 346.022 459.335
2106 0 89.1492 14.1112 1258 130.506 344.715 458.802
2107 0 91.1702 14.0835 1284 132.27 344.677 457.555
2108 0 94.1967 14.0663 1325 132.71 345.22 455.467
2109 0 94.143 13.9787 1316 136.483 344.192 452.63
2110 0 100.15 13.5696 1359 136.022 345.01 451.116
2111 0 103.126 14.0799 1452 136.459 344.722 438.077
2112 0 105.18 14.4704 1522 135.09 345.003 442.821
2113 0 107.11 14.3871 1541 136.17 344.413 444.323
2114 0 110.178 13.8321 1524 138.058 343.335 445.393
2115 0 115.143 13.3052 1532 139.268 343.652 441.027
2116 0 121.361 14.8813 1806 131.195 344.486 440.688
2117 0 125.202 13.2826 1663 136.563 343.915 433.429
2118 1 71.0546 11.7797 837 134.581 343.61 455.82
2119 0 71.3428 12.2087 871 135.318 344.482 461.188
2120 0 75.2657 12.9142 972 132.658 343.69 459.798
2121 0 78.3468 12.6106 988 133.271 343.181 459.888
2122 0 80.2451 12.9603 1040 131.857 342.791 457.177
2123 0 80.1438 12.7895 1025 133.909 343.447 454.815
2124 0 86.2184 13.5934 1172 128.606 343.721 454.982
2125 0 89.239 13.1893 1177 126.153 344.264 455.795
2126 0 89.302 12.3849 1106 131.442 344.054 451.392
2127 0 97.3789 13.6888 1333 124.309 343.797 450.151
2128 0 99.2507 13.7833 1368 125.071 343.497 446.64
2129 0 101.439 14.5408 1475 122.669 343.675 446.239
2130 0 104.351 13.5792 1417 125.373 343.858 444.252
2131 0 108.332 14.1232 1530 124.57 343.812 442.304
2132 0 111.267 14.2629 1587 124.473 343.934 441.152
2133 0 112.235 13.053 1465 129.919 343.758 440.821
2134 0 120.304 14.4883 1743 123.336 343.672 437.729
2135 0 122.324 14.1264 1728 124.193 343.847 437.781
2136 0 126.381 13.3169 1683 125.561 343.833 433.826
2137 1 70.1398 12.4038 870 126.561 344.705 461.602
2138 0 75.2714 12.8336 966 124.187 344.466 460.517
2139 0 78.0972 14.6996 1148 116.743 345.317 457.493
2140 0 79.4084 13.3109 1057 121.614 344.793 458.793
2141 0 81.1768 13.8586 1125 120.461 343.859 455.946
2142 0 82.3439 14.0265 1155 121.155 344.276 456.405
2143 0 83.5352 13.0963 1094 124.426 344.162 452.391
2144 0 88.3387 12.2596 1083 125.981 344.019 451.412
2145 0 90.2573 13.8604 1251 121.7 344.234 449.886
2146 0 92.3236 13.691 1264 122.142 344.118 448.889
2147 0 95.2218 14.1669 1349 120.464 344.698 448.356
2148 0 97.2721 13.416 1305 123.276 343.768 445.388
2149 0 99.2628 13.8622 1376 121.869 344.467 442.392
2150 0 102.21 13.4038 1370 122.509 344.348 442.078
2151 0 106.37 13.7351 1461 121.408 343.431 439.795
2152 0 110.28 14.2727 1574 119.827 343.905 439.037
2153 0 114.196 13.7658 1572 120.637 344.229 437.555
2154 0 116.326 12.7573 1484 122.962 343.866 434.608
2155 0 122.308 13.4987 1651 118.715 344.554 434.62
2156 1 70.1947 11.4824 806 121.47 343.918 460.381
2157 0 71.2399 12.0298 857 122.161 344.617 458.193
2158 0 79.3277 11.7739 934 118.536 344.383 459.512
2159 0 81.2381 14.6975 1194 110.402 344.836 457.673
2160 0 83.2125 12.8827 1072 115.509 345.205 457.256
2161 0 85.2562 13.1134 1118 114.152 345.482 455.296
2162 0 90.3437 14.0021 1265 111.171 345.604 456.272
2163 0 92.1094 13.9942 1289 111.908 344.645 453.141
2164 0 93.1521 12.8285 1195 115.243 344.388 452.067
2165 0 95.2212 12.6127 1201 116.012 344.292 450.106
2166 0 103.202 14.2537 1471 110.84 343.464 447.88
2167 0 104.247 13.4584 1403 113.066 343.577 444.51
2168 0 108.353 13.9267 1509 111.563 344.433 440.522
2169 0 110.313 13.9149 1535 111.624 344.294 440.21
2170 0 113.239 13.6173 1542 113.232 343.674 439.136
2171 0 118.182 14.7569 1744 110.066 344.15 440.59
2172 0 124.291 13.9431 1733 111.295 344.404 437.583
2173 0 127.234 14.886 1894 109.568 344.419 421.115
2174 0 133.352 14.0305 1871 110.921 344.108 423.92
2175 0 136.336 13.1733 1796 113.953 343.95 419.405
2176 0 138.307 14.6702 2029 111.031 343.576 418.139
2177 0 142.319 14.4815 2061 111.525 343.308 417.682
2178 0 147.375 14.4122 2124 111.48 343.549 411.078
2179 0 156.418 13.758 2152 111.73 343.97 412.554
2180 0 165.272 15.659 2588 106.109 344.238 412.653
2181 1 91.1109 12.8195 1168 108.454 344.586 454.15
2182 0 94.1768 13.2198 1245 108.323 344.255 453.879
2183 0 97.2314 14.7689 1436 105.494 344.595 454.098
2184 0 99.318 13.1396 1305 109.054 344.251 454.189
2185 0 102.232 13.4205 1372 109.228 343.778 453.44
2186 0 107.212 14.3174 1535 107.55 344.331 443.023
2187 0 111.318 14.4361 1607 106.175 343.285 450.182
2188 0 114.241 14.8196 1693 105.519 344.651 446.409
2189 0 118.284 14.2538 1686 107.782 343.88 443.071
2190 0 123.462 14.3526 1772 108.093 343.616 438.926
2191 0 126.349 14.0643 1777 109.088 343.981 438.759
2192 0 130.405 14.409 1879 108.318 343.893 433.425
2193 0 132.288 13.1833 1744 111.511 343.538 431.276
2194 0 139.241 14.0834 1961 109.718 343.764 430.896
2195 0 137.374 11.2321 1543 118.048 343.809 427.413
2196 0 143.306 12.093 1733 116.642 344.323 426.34
2197 0 147.395 11.8457 1746 118.482 344.6 420.208
2198 1 82.3275 10.3003 848 114.87 343.532 456.869
2199 0 85.3164 11.7445 1002 114.307 343.621 451.765
2200 0 87.2826 12.2705 1071 107.989 344.306 450.072
2201 0 88.1907 11.8493 1045 111.681 343.737 450.399
2202 0 92.3383 13.1473 1214 109.709 342.925 448.453
2203 0 95.3793 13.1894 1258 111.784 343.677 446.326
2204 0 96.3116 12.1377 1169 119.947 343.64 443.159
2205 0 100.493 12.8666 1293 117.791 343.195 444.791
2206 0 103.449 13.4945 1396 116.665 343.664 441.688
2207 0 107.467 12.7481 1370 118.281 343.959 443.812
2208 0 111.418 14.0103 1561 115.321 343.468 440.919
2209 0 113.509 13.717 1557 117.237 343.563 440.285
2210 0 113.291 12.9931 1472 121.399 343.733 436.146
2211 0 119.444 13.2866 1587 121.653 343.611 434.26
2212 0 122.405 13.2102 1617 121.888 344.527 436.026
2213 0 126.292 12.1068 1529 126.815 343.604 430.999
2214 1 73.4119 8.86777 651 117.496 343.839 461.997
2215 0 75.229 10.1158 761 116.859 344.078 457.9
2216 0 81.2112 11.0083 894 113.954 344.443 457.915
2217 0 84.1844 12.5558 1057 109.087 344.603 457.62
2218 0 86.2583 12.2423 1056 109.937 344.237 456.453
2219 0 88.1094 10.6799 941 114.317 343.676 457.348
2220 0 93.2682 11.4723 1070 113.607 343.316 453.819
2221 0 96.1604 12.1776 1171 112.904 344.702 455.258
2222 0 99.1921 11.6138 1152 117.037 344.458 453.161
2223 0 101.133 12.5775 1272 115.943 344.75 451.41
2224 0 102.27 12.203 1248 122.312 344.882 451.151
2225 0 107.164 13.2413 1419 118.189 345.035 448.427
2226 0 110.354 12.4237 1371 121.75 344.985 447.511
2227 0 112.215 12.2978 1380 122.407 345.299 444.589
2228 0 116.423 11.4239 1330 124.877 344.949 444.505
2229 0 120.264 12.9798 1561 121.331 345.07 438.739
2230 0 121.301 12.8853 1563 124.999 344.28 431.73
2231 0 126.253 12.7205 1606 123.627 344.346 430.933
2232 0 130.295 13.0856 1705 123.008 343.567 427.815
2233 0 135.26 13.0712 1768 122.301 343.899 430.62
2234 0 139.193 12.9964 1809 122.353 343.773 428.663
2235 0 145.246 13.935 2024 120.219 344.39 424.774
2236 1 82.3042 11.7977 971 111.182 344.818 462.978
2237 0 82.1502 10.1643 835 117.162 344.763 458.606
2238 0 85.0895 11.5995 987 114.224 344.209 460.87
2239 0 89.0696 11.7998 1051 118.397 344.312 458.336
2240 0 91.1393 11.7074 1067 117.554 343.035 461.048
2241 0 94.1996 11.1784 1053 120.286 343.758 456.703
2242 0 95.1698 10.8017 1028 121.503 343.371 456.53
2243 0 99.2424 10.6708 1059 121.511 342.878 453.901
2244 0 100.176 10.8808 1090 120.918 343.302 452.05
2245 0 106.195 12.1568 1291 117.575 344.507 449.026
2246 0 107.212 10.9316 1172 121.334 344.083 447.339
2247 0 111.241 11.5875 1289 120.333 343.649 447.019
2248 0 115.091 11.0695 1274 120.597 343.448 448.009
2249 0 116.283 10.2852 1196 123.615 343.53 443.253
2250 0 120.249 10.7776 1296 121.961 343.943 441.564
2251 0 125.303 11.5639 1449 120.579 343.378 438.123
2252 0 129.321 11.3439 1467 120.782 343.701 437.085
2253 0 133.267 10.8429 1445 121.642 343.129 434.606
2254 0 138.513 10.9521 1517 121.011 343.936 432.504
2255 0 146.378 10.9238 1599 119.733 343.467 433.82
2256 0 149.483 12.0749 1805 117.416 344.632 430.561
2257 0 155.416 12.1673 1891 117.991 343.622 427.279
2258 0 157.379 11.7614 1851 119.591 344.022 424.43
2259 0 163.253 11.4485 1869 119.804 343.826 427.433
2260 0 169.4 12.3671 2095 117.168 343.678 420.926
2261 0 172.458 11.0694 1909 120.036 343.401 420.4
2262 0 177.359 11.4908 2038 119.681 343.226 419.116
2263 1 106.345 11.284 1200 112.342 343.903 456.129
2264 0 110.18 11.0002 1212 119.339 343.069 446.734
2265 0 114.168 11.6232 1327 111.304 343.427 449.356
2266 0 117.188 12.8341 1504 107.1 342.701 451.716
2267 0 118.22 11.6224 1374 112.97 342.817 450.844
2268 0 120.264 11.8988 1431 114.899 342.56 449.549
2269 0 125.462 11.8761 1490 119.9 341.958 446.364
2270 0 132.25 12.7486 1686 116.928 341.492 446.838
2271 0 134.422 11.8284 1590 118.899 341.835 446.148
2272 0 139.381 11.8954 1658 119.419 341.03 443.448
2273 0 139.357 11.1943 1560 122.866 341.108 439.774
2274 0 149.479 15.7212 2350 109.864 340.982 435.583
2275 0 151.439 13.6491 2067 115.73 340.719 439.89
2276 0 154.529 12.9361 1999 118.461 340.153 435.37
2277 0 159.385 13.2196 2107 118.769 339.778 433.248
2278 0 165.361 13.7517 2274 118.367 339.795 428.306
2279 0 169.504 14.0882 2388 118.602 339.775 426.309
2280 0 175.271 12.5064 2192 122.253 338.874 423.707
2281 0 181.328 13.6107 2468 119.351 338.849 421.269
2282 0 184.351 13.0349 2403 122.25 338.432 415.167
2283 0 192.52 12.7779 2460 122.528 338.606 411.788
2284 0 196.32 12.1078 2377 125.465 338.02 406.731
2285 0 206.349 13.957 2880 120.27 336.974 409.215
2286 1 54.0778 10.263 555 106.964 337.041 484.874
2287 0 57.1938 10.2284 585 111.241 338.328 483.894
2288 0 60.0258 12.8112 769 105.51 336.584 485.772
2289 0 61.1306 12.3179 753 107.234 336.891 485.203
2290 0 61.0474 10.9423 668 110.304 336.314 487.677
2291 0 64.0711 11.6745 748 108.886 336.634 487.574
2292 0 64.127 10.9158 700 114.8 336.58 483.934
2293 0 68.086 11.9995 817 111.765 336.174 483.725
2294 0 70.1724 12.2128 857 111.292 337.722 481.505
2295 0 72.2685 12.841 928 110.391 337.205 480.277
2296 0 75.1949 12.554 944 110.739 337.104 480.936
2297 0 79.1928 12.0213 952 110.364 337.414 482.086
2298 0 81.1411 12.3858 1005 110.646 337.575 478.906
2299 0 83.2722 14.2424 1186 106.645 337.907 474.442
2300 0 86.2224 12.5374 1081 109.587 338.273 474.777
2301 1 49.1532 12.2881 604 105.27 337.25 493.957
2302 0 50.2644 10.405 523 104.86 338.671 489.627
2303 0 49.0195 9.42483 462 109.641 339.366 488.942
2304 0 53.0354 10.9738 582 109.241 339.684 489.577
2305 0 56.0402 11.7951 661 106.548 339.086 489.504
2306 0 56.0904 10.9823 616 109.791 339.472 488.26
2307 0 60.0708 12.7017 763 103.653 339.333 489.274
2308 0 61.044 11.762 718 106.067 339.089 486.845
2309 0 62.0331 11.0586 686 107.337 339.168 485.484
2310 0 64.0522 11.7092 750 105.015 339.292 485.077
2311 0 67.0277 11.2491 754 105.153 339.715 484.142
2312 0 69.031 12.5885 869 103.017 339.679 478.953
2313 0 71.0553 12.7788 908 101.754 339.189 481.714
2314 0 72.0799 12.3197 888 103.407 340.193 479.768
2315 0 73.0664 11.209 819 106.164 339.332 479.775
2316 0 83.1046 16.6176 1381 90.7726 339.43 474.143
2317 0 79.106 12.7171 1006 102.844 339.312 479.235
2318 0 81.0768 12.926 1048 103.851 338.37 477.107
2319 0 83.1143 13.0182 1082 104.324 338.291 474.232
2320 0 83.0613 14.1221 1173 101.238 338.876 475.451
2321 0 81.0832 11.3587 921 108.887 338.657 472.989
2322 0 78.1298 9.7402 761 112.93 338.569 474.093
2323 1 94.1751 13.6767 1288 104.927 339.16 464.418
2324 0 97.1135 13.3555 1297 105.561 339.621 470.232
2325 0 96.1509 11.2011 1077 98.8468 338.22 470.448
2326 1 112.147 14.9446 1676 86.4332 338.175 461.048
2327 0 111.259 16.6099 1848 84.7992 339.308 458.847
2328 0 112.065 15.4196 1728 89.4578 338.729 459.154
2329 0 113.114 15.2943 1730 91.5873 338.394 459.621
2330 0 114.115 14.7922 1688 94.3975 338.21 459.857
2331 0 114.17 12.7791 1459 101.008 338.676 460.447
2332 0 116.237 11.7432 1365 104.19 338.671 460.749
2333 0 121.205 13.011 1577 104.941 339.351 455.395
2334 0 123.275 12.8655 1586 105.935 338.744 453.455
2335 0 128.214 12.7989 1641 106.599 339.146 447.682
2336 1 70.2634 11.7415 825 103.999 339.173 475.136
2337 0 74.2937 12.6659 941 102.324 339.484 467.962
2338 0 76.1553 11.4765 874 103.45 340.014 468.192
2339 0 77.0977 12.5425 967 103.195 339.842 470.018
2340 0 82.2305 14.581 1199 97.839 339.715 472.259
2341 0 83.039 14.5715 1210 99.5893 339.55 470.122
2342 0 83.0484 12.5108 1039 106.599 339.061 470.95
2343 0 87.167 12.8718 1122 107.002 338.93 471.741
2344 0 92.1938 13.9272 1284 106.431 338.903 467.58
2345 0 94.1549 12.6281 1189 110.209 339.578 465.304
2346 0 97.1635 12.7723 1241 111.074 339.452 462.389
2347 0 101.227 12.9609 1312 110.275 340.181 461.79
2348 0 103.186 12.1237 1251 111.969 339.603 461.284
2349 1 55.0617 12.8765 709 107.951 340.535 483.268
2350 0 56.1458 12.6813 712 109.243 340.694 481.792
2351 0 60.237 13.6627 823 105.503 341.419 481.377
2352 0 60.0581 12.6211 758 109.562 340.861 479.364
2353 0 62.1285 13.5365 841 107.834 340.81 479.27
2354 0 64.1182 13.8338 887 107.981 340.212 476.537
2355 0 67.1459 14.327 962 105.842 340.773 476.104
2356 0 69.2488 13.4443 931 108.52 340.734 474.71
2357 0 70.0986 13.0388 914 109.351 341.038 473.764
2358 0 72.1235 13.2828 958 108.939 341.092 472.304
2359 0 76.1531 13.1708 1003 108.928 341.138 471.864
2360 0 78.1598 13.0374 1019 109.648 341.457 471.37
2361 0 80.1066 13.9689 1119 108.229 341.687 467.843
2362 0 81.1625 13.245 1075 110.407 341.657 468.366
2363 0 84.1827 12.4372 1047 112.777 341.554 464.916
2364 0 87.0942 13.1467 1145 110.708 342.046 464.245
2365 0 90.2012 13.9466 1258 109.604 342.328 458.939
2366 0 90.1368 12.9026 1163 113.631 342.116 457.531
2367 0 95.1325 13.56 1290 110.836 341.738 458.405
2368 0 97.1112 13.6544 1326 109.974 341.908 456.02
2369 0 98.149 12.9803 1274 112.308 341.61 454.329
2370 0 105.15 13.8564 1457 109.135 342.196 454.832
2371 0 107.206 14.3088 1534 107.84 342.465 453.27
2372 0 111.201 13.3092 1480 110.995 342.03 448.428
2373 0 115.242 13.5454 1561 109.148 342.454 451.137
2374 0 119.141 13.9583 1663 109.183 342.008 446.232
2375 0 123.28 13.8384 1706 108.372 341.946 445.412
2376 0 126.244 12.0402 1520 112.531 342.555 441.907
2377 0 132.245 13.9211 1841 107.649 341.934 440.091
2378 0 138.333 14.3567 1986 106.554 342.317 436.366
2379 0 141.158 13.9064 1963 109.021 342.854 433.098
2380 0 146.279 14.069 2058 108.108 342.913 432.727
2381 0 150.406 14.8465 2233 106.468 342.926 434.313
2382 0 156.307 14.5931 2281 106.619 342.769 431.761
2383 0 160.327 14.2771 2289 109.014 343.145 427.437
2384 0 169.55 15.0398 2550 107.241 343.129 426.049
2385 0 172.266 15.0929 2600 108.357 343.075 422.832
2386 0 179.545 15.6506 2810 108.457 342.653 420.729
2387 0 181.553 14.9047 2706 113.199 342.633 416.82
2388 0 190.41 16.2544 3095 112.406 342.428 414.5
2389 0 195.478 15.2038 2972 116.471 342.309 410.308
2390 0 201.459 15.7849 3180 115.069 342.936 407.888
2391 0 208.576 15.6825 3271 114.813 343.078 406.644
2392 0 213.387 16.0272 3420 115.035 343.141 398.289
2393 0 220.498 13.991 3085 119.563 342.895 398.862
2394 0 229.45 14.4912 3325 117.054 342.378 394.832
2395 0 236.371 14.8537 3511 115.184 342.857 393.585
2396 0 246.561 13.3517 3292 118.271 342.31 390.074
2397 1 64.1397 14.0163 899 117.477 342.88 471.465
2398 0 67.1459 14.1185 948 115.051 342.582 471.071
2399 0 73.2351 16.331 1196 110.649 342.594 468.09
2400 0 74.113 14.7343 1092 116.752 342.035 467.669
2401 0 77.122 14.2242 1097 117.985 342.047 467.036
2402 0 81.1366 14.7899 1200 116.501 342.535 464.593
2403 0 85.1343 15.5167 1321 114.241 342.572 464.165
2404 0 85.1118 13.5234 1151 116.858 342.282 463.818
2405 0 90.2206 14.5976 1317 114.067 342.576 460.687
2406 1 49.0755 13.469 661 115.756 342.726 481.277
2407 0 48.0426 14.05 675 116.381 343.458 479.973
2408 0 52.0876 14.994 781 112.191 343.143 478.416
2409 0 52.0843 13.5357 705 118.329 342.462 477.332
2410 0 55.054 13.4958 743 117.005 342.752 476.799
2411 0 57.0998 14.1156 806 115.476 343.45 475.169
2412 0 58.1059 12.8214 745 118.038 343.14 474.517
2413 0 59.0561 13.5126 798 116.679 342.662 472.594
2414 0 65.1043 14.8377 966 110.369 342.438 470.685
2415 0 63.1085 14.3562 906 111.44 342.561 469.587
2416 1 82.244 21.1687 1741 84.3682 341.744 455.784
2417 0 81.4477 19.7059 1605 90.3389 342.736 462.477
2418 0 84.2525 17.4594 1471 96.1971 342.608 462.196
2419 0 84.4903 22.2629 1881 86.9607 342.457 459.08
2420 0 83.2592 18.9529 1578 96.5894 342.292 460.053
2421 0 84.2302 18.1052 1525 99.5587 342.72 458.273
2422 0 86.546 16.3612 1416 104.755 343.025 458.402
2423 0 85.2414 13.7492 1172 114.218 343.133 460.477
2424 0 87.5055 14.102 1234 114.788 343.165 458.314
2425 0 91.3167 15.1232 1381 112.245 343.142 458.362
2426 0 91.6549 13.6272 1249 118.771 342.718 456.65
2427 0 95.4972 14.1994 1356 118.642 342.666 454.506
2428 0 100.462 14.2243 1429 119.029 342.865 453.252
2429 0 103.111 14.7802 1524 118.115 343.636 453.179
2430 0 105.41 14.4103 1519 121.275 342.81 447.583
2431 0 106.311 14.1566 1505 123.407 342.554 448.817
2432 1 55.0694 12.1665 670 127.03 343.19 472.909
2433 0 53.27 12.7464 679 128.278 342.661 471.947
2434 0 58.2057 13.0743 761 125.652 342.74 472.343
2435 0 60.1457 13.8996 836 123.529 343.127 470.885
2436 0 63.308 14.5479 921 121.159 342.996 469.52
2437 0 67.3697 14.7099 991 120.38 343.538 468.199
2438 0 68.1698 13.9505 951 123.732 343.453 466.405
2439 0 68.2361 13.8783 947 125.784 342.737 467.099
2440 0 71.2796 13.6364 972 127.665 343.115 464.79
2441 0 75.266 14.6813 1105 124.775 342.977 464.69
2442 0 78.3027 14.0608 1101 127.789 343.093 461.254
2443 0 82.3649 15.7227 1295 122.607 342.893 462.454
2444 0 83.3693 14.5737 1215 129.064 343.284 458.091
2445 0 85.3851 15.5999 1332 127.143 342.783 458.044
2446 0 88.315 14.0067 1237 131.948 343.302 457.589
2447 0 90.3883 15.0241 1358 130.172 343.253 456.678
2448 0 95.4588 14.9489 1427 128.858 342.775 454.683
2449 0 98.4165 15.4547 1521 127.101 343.189 453.118
2450 0 100.187 13.1454 1317 134.93 342.493 451.592
2451 0 106.171 14.9381 1586 128.224 342.936 449.91
2452 0 108.196 14.5385 1573 129.679 342.959 447.612
2453 0 113.146 14.9541 1692 127.688 342.696 445.798
2454 0 116.164 14.0319 1630 131.06 342.986 442.598
2455 0 124.287 15.7458 1957 123.716 342.778 442.355
2456 0 127.183 15.7018 1997 125.334 342.51 438.156
2457 0 130.114 14.8101 1927 127.165 342.898 436.017
2458 0 135.25 14.7726 1998 127.121 343.473 432.575
2459 0 140.206 14.5357 2038 127.72 342.783 432.243
2460 0 146.263 14.8158 2167 126.014 343.184 432.166
2461 0 147.348 13.8041 2034 129.93 343.585 427.958
2462 0 155.121 15.5169 2407 124.137 342.976 426.016
2463 0 159.25 13.9027 2214 128.97 342.831 424.281
2464 0 164.567 15.3433 2525 124.867 342.941 420.049
2465 0 169.224 15.6243 2644 123.749 343.143 418.425
2466 1 77.182 12.9305 998 131.799 343.567 461.975
2467 0 81.0608 12.7559 1034 133.545 343.758 460.681
2468 0 84.1316 15.1192 1272 126.687 343.78 458.334
2469 0 86.0844 13.1964 1136 132.283 343.118 457.64
2470 0 88.0906 14.1559 1247 130.768 343.075 455.936
2471 0 94.2317 13.955 1315 129.264 343.664 453.665
2472 0 95.1785 13.4484 1280 130.329 343.817 452.812
2473 0 99.1384 14.5756 1445 127.355 343.516 451.157
2474 0 101.335 13.0458 1322 132.64 344 447.262
2475 0 104.125 13.6278 1419 131.458 343.93 448.279
2476 0 106.304 13.2451 1408 133.643 343.739 442.485
2477 0 109.242 13.4106 1465 133.051 343.995 441.599
2478 0 115.356 14.8323 1711 128.647 343.887 441.217
2479 0 116.246 12.6714 1473 136.068 344.443 437.037
2480 0 119.287 13.0023 1551 136.037 343.928 434.37
2481 0 123.184 13.0943 1613 136.257 344.255 431.503
2482 0 130.475 15.0834 1968 129.559 343.924 431.721
2483 0 133.313 14.1621 1888 133.853 343.812 429.075
2484 0 140.314 12.9495 1817 136.714 343.802 429.123
2485 0 145.427 14.3164 2082 133.363 344.051 424.99
2486 0 149.495 14.3149 2140 133.191 344.278 425.065
2487 0 155.355 13.3758 2078 137.721 343.873 419.157
2488 0 157.441 13.1605 2072 139.551 343.692 413.642
2489 0 165.228 13.9384 2303 137.041 343.693 412.338
2490 0 171.284 13.8717 2376 136.761 343.092 410.78
2491 0 177.171 14.3421 2541 136.686 343.344 403.905
2492 1 129.231 10.9262 1412 141.824 343.29 427.997
2493 0 134.227 13.0003 1745 136.778 343.017 424.477
2494 0 140.147 12.9579 1816 136.9 343.265 425.556
2495 0 141.236 12.2136 1725 142.417 342.361 419.788
2496 0 147.214 12.295 1810 142.493 343.665 415.99
2497 0 154.155 13.0518 2012 140.735 343.46 415.113
2498 0 158.175 13.1184 2075 142.164 343.397 408.943
2499 0 161.318 11.3131 1825 149.914 343.421 403.198
2500 0 166.214 11.2686 1873 149.371 343.59 407.829
2501 0 174.328 13.9049 2424 142.607 343.799 396.76
2502 0 177.471 11.9963 2129 151.958 342.839 395.542
2503 0 182.53 12.1789 2223 152.198 343.365 396.479
2504 0 190.558 12.6418 2409 151.428 342.702 390.024
2505 0 196.587 13.592 2672 151.289 342.576 390.689
2506 0 204.643 13.3208 2726 151.3 343.226 386.514
2507 0 210.727 14.189 2990 149.696 343.683 381.043
2508 0 216.774 13.2534 2873 153.736 343.591 378.593
2509 0 223.676 12.992 2906 155.393 343.362 372.319
2510 0 228.815 11.9005 2723 160.05 343.813 366.916
2511 0 238.684 12.4349 2968 160.962 343.416 362.257
2512 0 243.791 13.0809 3189 159.69 343.246 358.799
2513 0 251.472 12.7489 3206 161.693 343.667 350.328
2514 0 257.5 13.9301 3587 157.857 343.917 354.426
2515 1 310.539 8.64625 2685 172.14 343.82 346.69
2516 0 307.657 7.99918 2461 172.654 343.828 349.547
2517 0 310.565 9.02549 2803 171.507 343.416 340.897
2518 0 310.764 10.2393 3182 167.953 343.369 340.295
2519 0 309.628 14.6531 4537 155.265 344.08 321.181
2520 0 320.68 14.4381 4630 156.251 343.989 315.493
2521 1 121.416 10.3858 1261 125.817 344.894 439.142
2522 0 123.618 10.2736 1270 128.436 345.194 435.97
2523 0 130.404 9.83866 1283 128.284 345.347 426.579
2524 0 132.636 9.99731 1326 127.222 345.538 430.745
2525 0 134.456 9.07359 1220 127.612 344.995 433.67
2526 0 133.743 8.64344 1156 128.362 345.188 431.785
2527 0 139.695 7.63805 1067 131.452 345.963 425.937
2528 0 148.382 9.54294 1416 126.629 345.525 421.621
2529 0 150.404 9.26835 1394 127.732 345.485 424.285
2530 0 153.172 9.32935 1429 127.467 345.318 422.595
2531 0 158.574 9.47824 1503 126.071 344.897 424.851
2532 0 163.551 9.04304 1479 127.116 343.488 424.924
2533 0 167.627 10.4757 1756 124.584 344.764 415.486
2534 0 169.566 9.68943 1643 126.599 345.148 415.179
2535 0 172.68 9.34097 1613 128.659 344.451 412.227
2536 0 180.701 9.10344 1645 127.956 344.085 412.178
2537 0 199.115 13.55 2698 110.463 344.6 384.825
2538 1 94.3181 10.8675 1025 122.096 346.093 449.659
2539 0 95.3659 11.0417 1053 121.973 344.969 449.405
2540 0 95.3659 11.0312 1052 159.374 343.968 449.541
2541 0 96.2712 10.3977 1001 124.205 345.187 450.438
2542 0 97.4775 11.4283 1114 121.095 345.247 449.567
2543 0 97.2886 11.1113 1081 123.185 345.516 448.396
2544 0 98.2046 11.1298 1093 122.204 345.665 450.605
2545 0 96.2488 10.4625 1007 126.533 345.279 447.521
2546 0 97.2914 10.5559 1027 124.891 345.285 450.778
2547 0 98.4646 11.1309 1096 122.747 345.439 449.72
2548 0 99.4202 10.2695 1021 123.596 345.774 451.216
2549 0 99.326 11.6787 1160 122.119 345.851 446.836
2550 0 98.3118 10.2022 1003 126.14 345.658 447.793
2551 0 101.504 11.6547 1183 121.269 345.995 447.152
2552 0 99.311 11.318 1124 122.336 345.026 450.292
2553 0 99.3463 11.3039 1123 123.447 345.42 447.57
2554 0 100.417 10.4962 1054 125.586 345.203 444.441
2555 0 99.3026 11.5203 1144 123.376 345.834 446.007
2556 0 101.321 11.3994 1155 122.106 345.518 447.445
2557 0 100.367 10.8203 1086 124.981 345.832 446.041
2558 0 101.305 11.184 1133 124.279 345.659 443.665
2559 0 103.511 11.419 1182 122.841 344.797 445.384
2560 0 102.523 11.2072 1149 123.31 345.715 445.254
2561 0 102.36 11.3228 1159 122.826 345.603 445.651
2562 0 100.421 10.7946 1084 125.124 345.792 444.022
2563 0 102.427 11.5887 1187 121.95 345.24 445.069
2564 0 103.399 11.4508 1184 123.269 345.668 443.398
2565 0 103.489 10.9577 1134 123.884 346.114 444.19
2566 0 103.361 11.2905 1167 123.122 345.274 442.566
2567 0 105.228 12.3827 1303 120.534 344.563 440.695
2568 0 103.455 11.1933 1158 123.956 344.879 443.321
2569 0 105.446 12.3002 1297 119.785 345.081 441.732
2570 0 105.507 10.4922 1107 124.802 344.851 443.132
2571 0 105.484 11.5752 1221 122.095 345.15 440.997
2572 0 105.383 11.3775 1199 121.564 345.063 444.432
2573 0 107.43 11.5704 1243 120.665 344.944 443.413
2574 0 108.527 11.564 1255 120.193 345.128 443.308
2575 0 107.485 12.5972 1354 118.139 345.555 441.793
2576 0 107.391 11.1555 1198 119.482 345.678 443.255
2577 0 106.349 10.569 1124 121.527 345.165 441.19
2578 0 107.306 11.593 1244 118.441 345.166 443.58
2579 0 108.45 11.8026 1280 116.69 344.542 442.576
2580 0 107.523 11.6998 1258 117.114 344.916 442.443
2581 0 109.588 12.3189 1350 115.604 344.611 440.856
2582 0 109.484 11.5086 1260 117.97 344.348 441.448
2583 0 108.43 10.8733 1179 118.913 344.261 442.178
2584 0 108.283 12.5135 1355 115.706 344.625 440.035
2585 0 110.387 12.891 1423 112.942 344.163 442.304
2586 0 110.365 12.0691 1332 115.272 344.324 439.809
2587 0 109.611 12.5444 1375 113.766 344.172 437.108
2588 0 109.438 12.2535 1341 114.957 345.156 438.91
2589 0 109.371 12.0142 1314 116.772 344.817 439.74
2590 0 109.594 11.7525 1288 118.984 344.539 437.109
2591 0 108.434 11.3987 1236 118.677 344.797 441.391
2592 0 109.385 12.1955 1334 117.219 345.242 439.297
2593 0 109.301 12.1866 1332 116.907 344.33 440.778
2594 0 109.464 11.9582 1309 118.617 344.629 439.621
2595 0 109.44 12.0706 1321 118.657 344.737 440.05
2596 0 108.458 11.7558 1275 119.56 344.984 440.433
2597 0 109.42 12.0088 1314 118.83 345.295 440.569
2598 0 109.558 11.7198 1284 119.227 344.931 440.453
2599 0 109.362 11.7134 1281 118.788 345.439 440.755
2600 0 107.48 11.6301 1250 119.809 345.622 439.414
2601 0 108.385 11.9482 1295 118.674 345.273 440.957
2602 0 108.508 11.9438 1296 118.521 345.174 440.44
2603 0 107.437 11.6254 1249 120.334 345.571 439.098
2604 0 109.352 12.2632 1341 117.821 345.495 438.609
2605 0 108.449 12.6326 1370 117.2 345.299 439.553
2606 0 110.334 12.571 1387 116.673 345.229 440.41
2607 0 108.395 11.0245 1195 120.874 345.472 440.233
2608 0 108.372 11.8112 1280 119.227 345.771 439.53
2609 0 108.35 12.312 1334 117.169 345.06 441.842
2610 0 107.309 11.3877 1222 118.814 344.79 444.076
2611 0 110.306 13.0274 1437 113.102 345.049 443.705
2612 0 109.489 11.6176 1272 118.259 344.649 440.572
2613 0 108.448 11.351 1231 118.238 345.388 443.255
2614 0 109.387 11.8387 1295 116.307 345.294 443.19
2615 0 111.428 12.2949 1370 114.277 345.736 443.692
2616 0 111.536 13.0092 1451 113.588 345.782 440.955
2617 0 111.266 12.1061 1347 115.435 344.851 442.693
2618 0 111.316 12.5948 1402 114.621 344.665 440.894
2619 0 110.376 12.0497 1330 114.935 344.99 444.535
2620 0 110.472 12.2656 1355 114.747 344.779 442.428
2621 0 112.464 11.8171 1329 116.766 344.223 442.728
2622 0 112.368 12.2366 1375 116.156 344.231 443.657
2623 0 110.377 12.9555 1430 115.173 344.552 442.736
2624 0 112.469 13.3015 1496 113.447 344.316 442.755
2625 0 110.383 12.2935 1357 116.324 343.797 443.858
2626 0 111.383 12.4076 1382 113.714 343.941 447.392
2627 0 110.424 12.0988 1336 115.478 343.758 447.184
2628 0 112.462 12.3864 1393 113.864 343.443 443.655
2629 0 111.292 11.5013 1280 117.319 343.895 445.003
2630 0 112.359 12.6647 1423 113.928 343.543 444.803
2631 0 112.394 12.0914 1359 115.029 344.214 446.249
2632 0 113.399 13.016 1476 112.178 343.593 446.678
2633 0 114.37 12.4421 1423 113.592 343.177 446.037
2634 0 112.293 12.0666 1355 114.57 343.164 446.995
2635 0 114.298 11.9162 1362 115.109 342.791 446.311
2636 0 113.283 11.6787 1323 116.485 343.644 445.468
2637 0 114.369 12.2585 1402 114.325 343.944 445.779
2638 0 114.312 12.221 1397 114.301 343.547 446.653
2639 0 115.356 12.8212 1479 113.808 342.898 443.126
2640 0 115.383 12.6189 1456 114.091 343.109 443.17
2641 0 114.315 12.5531 1435 113.1 343.337 445.712
2642 0 115.437 12.0845 1395 114 342.566 445.656
2643 0 115.32 13.2587 1529 111.08 342.925 445.398
2644 0 115.369 14.0506 1621 109.253 342.797 445.284
2645 0 117.257 13.6282 1598 110.303 342.98 444.897
2646 0 116.311 12.9996 1512 111.676 342.536 443.139
2647 0 115.4 12.409 1432 113.751 342.42 442.457
2648 0 114.295 12.0653 1379 114.797 342.152 442.566
2649 0 116.361 12.4698 1451 113.381 342.085 445.336
2650 0 117.283 12.2524 1437 113.141 342.233 445.208
2651 0 117.385 12.574 1476 112.87 342.521 443.084
2652 0 115.339 12.6757 1462 112.601 342.731 445.618
2653 0 115.527 11.7808 1361 115.877 341.978 442.758
2654 0 116.317 12.1478 1413 113.553 342.568 443.118
2655 0 115.331 11.5494 1332 116.417 342.329 442.162
2656 0 117.237 13.0505 1530 111.71 341.742 442.408
2657 0 116.331 11.4587 1333 114.782 342.23 445.326
2658 0 115.333 11.8873 1371 115.308 342.258 441.85
2659 0 114.363 11.2624 1288 116.609 342.754 443.727
2660 0 116.372 11.7897 1372 113.782 342.87 444.184
2661 0 117.311 12.1812 1429 111.94 341.831 444.829
2662 0 116.309 11.2631 1310 113.885 341.937 445.804
2663 0 115.327 10.9861 1267 115.209 341.788 444.646
2664 0 118.302 12.5442 1484 110.992 341.818 443.567
2665 0 120.378 12.9509 1559 109.58 341.757 442.466
