time division length width area intensity CMx CMy
0 0 38.1028 11.4427 436 137.273 279.798 476.094
1 0 39.0306 11.7856 460 136.493 280.37 474.683
2 0 42.0477 12.9377 544 131.906 281.007 473.445
3 0 43.0068 11.9981 516 134.789 280.952 474.994
4 0 43.0315 11.4102 491 137.851 280.58 474.552
5 0 45.0636 12.205 550 133.909 281.195 474.822
6 0 46.0149 12.4742 574 133.296 281.103 474.437
7 0 46.0552 11.877 547 136.199 280.625 474.068
8 0 47.0451 13.1363 618 131.665 280.629 473.636
9 0 50.0223 13.0942 655 130.823 280.886 471.959
10 0 49.0247 11.994 588 136.327 279.937 471.515
11 0 50.0255 13.0933 655 134.66 280.953 472.402
12 0 52.0097 13.4782 701 130.325 280.665 472.26
13 0 54.1229 13.0998 709 131.464 280.104 472.324
14 0 54.0996 13.05 706 132.823 279.958 471.19
15 0 55.082 13.6887 754 131.221 279.71 469.733
16 0 58.0186 13.6163 790 129.61 279.342 470.14
17 0 59.0771 14.2864 844 128.278 279.379 469.241
18 0 60.0154 13.5465 813 130.688 279.738 469.363
19 0 64.0962 14.6342 938 125.738 279.578 467.341
20 0 65.0695 13.524 880 128.735 278.331 466.249
21 0 66.0922 14.041 928 128.406 277.981 465.716
22 0 68.0848 12.7635 869 131.83 278.448 467.343
23 0 71.077 14.1537 1006 127.012 278.969 466.172
24 0 73.1252 14.2085 1039 125.94 277.788 465.821
25 0 75.054 14.1232 1060 126.942 277.75 465.282
26 0 80.1373 13.6141 1091 129.638 278.408 462.006
27 0 80.0805 13.6987 1097 130.654 278.224 461.225
28 0 85.1261 14.1085 1201 129.718 277.229 459.875
29 0 88.0892 15.4956 1365 125.81 277.673 458.539
30 0 90.0507 14.8361 1336 128.748 277.716 456.111
31 1 48.0986 12.4744 600 131.595 277.53 478.57
32 0 47.1161 12.0553 568 132.974 277.002 477.986
33 0 50.0217 12.7345 637 128.301 277.32 478.397
34 0 53.02 14.0325 744 126.462 276.839 476.46
35 0 53.0916 13.4673 715 128.614 277.169 475.759
36 0 57.0481 14.2862 815 123.882 277.777 475.844
37 0 58.0806 13.6706 794 128.137 277.838 472.992
38 0 60.0455 13.8062 829 125.855 277.414 472.49
39 0 64.0961 13.979 896 124.311 277.039 471.574
40 0 67.0298 13.9938 938 125.017 276.736 469.841
41 0 69.0914 14.3144 989 123.855 277.224 468.37
42 0 70.1523 13.1001 919 129.31 276.918 467.346
43 0 76.129 15.1191 1151 127.071 277.706 465.8
44 0 74.0706 13.7977 1022 133.965 277.328 464.874
45 0 79.0568 14.8501 1174 129.339 276.885 465.146
46 0 81.0421 15.1896 1231 130.359 276.95 462.089
47 0 85.0744 15.7274 1338 127.253 276.964 462.174
48 0 87.1709 14.4085 1256 131.795 277.246 460.458
49 0 91.1847 14.1471 1290 132.343 276.508 458.074
50 0 94.1827 15.1089 1423 129.92 276.496 456.986
51 0 95.0562 13.9076 1322 134.217 276.638 454.343
52 0 101.095 15.1936 1536 130.297 276.574 454.637
53 0 105.108 14.5469 1529 131.578 276.145 452.348
54 1 59.0306 12.4342 734 131.003 276.605 476.534
55 0 60.0616 13.919 836 127.042 276.41 473.969
56 0 61.1862 14.464 885 125.438 276.359 472.799
57 0 62.0513 12.8765 799 129.011 275.153 472.83
58 0 63.025 12.9314 815 129.8 275.552 472.377
59 0 68.118 14.4455 984 123.509 276.412 470.525
60 0 71.0585 13.2426 941 126.718 275.683 469.868
61 0 74.1286 13.9218 1032 124.95 275.437 469.646
62 0 76.1392 13.8693 1056 126.258 275.429 466.606
63 0 79.1371 14.0516 1112 126.208 275.067 465.17
64 0 81.11 13.2289 1073 128.01 276.472 464.235
65 0 86.1542 14.0214 1208 124.829 276.232 462.996
66 0 88.1809 14.9919 1322 123.597 275.353 460.606
67 0 92.1103 14.0701 1296 125.003 275.306 459.657
68 0 95.0689 13.8426 1316 125.008 275.828 456.323
69 0 98.1001 13.8226 1356 124.395 275.269 455.483
70 0 100.089 14.1874 1420 123.973 275.894 453.918
71 1 49.0199 11.1791 548 126.905 275.004 478.699
72 0 52.0439 12.72 662 123.214 274.547 476.356
73 0 53.0617 11.9295 633 127.319 275.758 478.482
74 0 56.0337 12.314 690 124.013 275.625 478.659
75 0 57.0886 11.9814 684 123.889 275.07 476.345
76 0 59.0414 13.6514 806 120.22 275.519 475.489
77 0 61.0492 12.6619 773 121.29 275.413 475.924
78 0 63.0705 13.4928 851 119.365 275.206 474.66
79 0 67.0608 14.0171 940 117.187 275.002 473.023
80 0 65.0363 11.1015 722 119.997 275.663 471.446
81 0 69.06 12.5109 864 115.806 275.492 470.89
82 0 72.0314 12.0225 866 116.701 275.803 471.066
83 0 75.1334 12.9769 975 113.868 275.348 469.397
84 0 75.1181 12.1542 913 117.759 275.498 467.502
85 0 78.1887 12.3803 968 116.316 275.219 467.92
86 0 82.1515 14.2055 1167 112.29 274.953 465.171
87 0 83.0948 12.5279 1041 117.021 275.785 465.465
88 0 86.1869 12.9718 1118 120.492 275.167 461.123
89 0 91.131 14.0567 1281 116.294 274.476 459.727
90 0 93.1007 12.4489 1159 118.462 274.371 459.569
91 0 96.1648 12.2914 1182 119.296 274.786 455.896
92 0 99.0929 13.0685 1295 118.248 274.112 454.097
93 0 104.414 14.3467 1498 115.984 274.84 448.941
94 1 52.08 11.6359 606 112.239 275.908 479.82
95 0 53.1347 10.7275 570 115.77 275.428 476.844
96 0 57.072 12.3528 705 110.62 275.06 478.159
97 0 57.0143 12.7512 727 112.036 274.839 477.461
98 0 59.0722 10.8003 638 116.976 274.056 476.58
99 0 62.0958 12.5935 782 112.136 274.634 476.483
100 0 64.0526 12.3492 791 113.061 274.652 474.814
101 0 67.1321 12.1402 815 113.409 273.939 472.952
102 0 69.048 12.8896 890 112.285 274.353 470.885
103 0 70.0515 13.2188 926 111.936 274.531 473.014
104 0 72.1374 12.7257 918 113.772 274.005 470.093
105 0 77.0902 13.4258 1035 111.821 274.241 469.249
106 0 79.124 13.6621 1081 111.573 273.799 466.627
107 0 83.0879 13.1307 1091 117.283 274.139 466.31
108 0 85.166 12.0823 1029 120.353 274.387 463.291
109 0 87.2111 12.5328 1093 118.205 273.958 463.74
110 1 47.0588 11.2625 530 115.804 273.279 482.287
111 0 47.1534 11.4732 541 118.226 273.213 481.545
112 0 49.0881 11.4284 561 120.713 273.665 479.241
113 0 50.0449 12.1491 608 115.888 274.645 481.406
114 0 53.0166 12.7884 678 113.373 274.289 480.086
115 0 55.0394 12.3911 682 115.425 274.748 478.129
116 0 55.0866 11.6725 643 118.166 274.442 477.63
117 0 58.0567 12.2122 709 116.051 274.846 478.08
118 0 60.0454 13.2733 797 113.558 274.435 476.443
119 0 62.074 13.6289 846 113.206 274.699 474.06
120 0 64.0769 12.048 772 116.915 274.882 474.715
121 0 66.1234 12.265 811 118.113 275.005 470.688
122 0 66.1174 11.9031 787 118.455 274.201 471.981
123 0 71.102 12.7282 905 116.383 274.825 472.136
124 0 73.1208 12.5546 918 116.958 274.554 470.044
125 0 76.1047 12.22 930 116.503 275.298 470.371
126 0 78.1929 12.8912 1008 115.895 273.938 465.893
127 0 80.1206 12.5436 1005 118.078 273.923 465.382
128 0 85.1347 14.1188 1202 113.895 274.46 463.084
129 0 89.1506 12.7537 1137 115.343 274.338 464.016
130 0 88.1493 11.4465 1009 118.978 274.43 462.624
131 0 92.1091 12.7023 1170 116.513 274.039 458.842
132 1 48.0337 9.90971 476 119.105 274.487 479.265
133 0 49.0396 11.2766 553 113.77 273.901 478.154
134 0 49.0832 11.7759 578 111.462 273.927 476.029
135 0 52.3295 12.3066 644 107.644 273.96 479.113
136 0 52.1961 11.1503 582 111.141 273.663 479.045
137 0 56.1051 12.1736 683 106.739 274.015 479.286
138 0 54.1423 10.0845 546 111.592 273.5 478.958
139 0 58.0736 12.0709 701 109.06 272.92 476.364
140 0 60.0834 11.8003 709 108.08 273.918 477.731
141 0 63.1207 12.2939 776 107.562 274.178 474.847
142 0 64.1408 13.408 860 105.955 273.47 472.801
143 0 66.0999 12.1634 804 107.713 273.898 472.076
144 0 70.1412 13.1306 921 105.334 273.438 469.93
145 0 72.0959 12.525 903 108.259 274.157 470.142
146 0 72.1124 11.8149 852 110.836 273.756 468.853
147 0 76.2129 12.1239 924 110.565 272.866 467.882
148 0 79.0646 12.0281 951 110.484 273.416 467.481
149 0 82.1221 13.0537 1072 108.239 273.036 464.538
150 0 84.2604 11.7968 994 112.24 273.407 462.07
151 0 88.1488 13.273 1170 110.318 273.842 461.697
152 0 89.0791 12.0792 1076 114.489 273.556 460.778
153 1 48.0526 11.1128 534 112.376 273.882 481.376
154 0 48.0966 11.6017 558 112.618 272.618 479.909
155 0 50.1014 11.6564 584 112.649 272.414 479.699
156 0 53.0824 12.5089 664 110.11 273.104 478.667
157 0 53.1133 13.4995 717 109.188 272.841 477.626
158 0 54.0221 12.7911 691 110.768 274.182 477.292
159 0 56.148 13.2329 743 111.11 273.567 475.536
160 0 58.0524 13.4189 779 110.538 273.151 474.91
161 0 59.1367 12.581 744 112.961 274.247 474.925
162 0 61.1457 12.1513 743 114.108 273.262 475.102
163 0 65.0572 13.5573 882 110.542 273.386 473.808
164 0 67.3007 14.1752 954 109.752 273.891 471.572
165 0 67.1914 13.3797 899 113.727 273.811 471.066
166 0 70.1235 14.2035 996 111.947 273.073 468.283
167 0 72.249 12.7753 923 115.375 273.746 468.731
168 0 75.2674 14.5083 1092 114.7 273.353 466.266
169 0 78.1508 12.9365 1011 119.763 273.583 464.436
170 0 80.0881 13.2979 1065 119.847 273.49 462.761
171 0 83.1671 13.4308 1117 119.262 273.34 461.316
172 0 86.2932 13.5816 1172 119.029 273.02 459.841
173 1 45.1132 10.8172 488 119.869 273.344 481.205
174 0 48.1142 11.4104 549 118.608 272.641 479.076
175 0 49.0936 13.6881 672 112.348 273.278 479.766
176 0 49.1411 11.2736 554 110.726 273.31 478.63
177 0 50.0591 12.4453 623 107.82 273.726 479.368
178 0 52.2023 10.8616 567 110.716 273.42 478.159
179 0 53.0427 11.6321 617 110.146 274.825 478.741
180 0 54.1943 11.754 637 79.2559 274.05 474.289
181 0 58.0713 12.1575 706 108.523 274.293 473.387
182 0 60.1447 10.8738 654 110.838 274.284 474.729
183 0 61.0701 11.757 718 111 274.26 471.985
184 0 65.0987 12.9649 844 106.697 274.219 473.017
185 0 67.0498 12.2297 820 109.534 274.449 471.729
186 0 68.117 12.1556 828 110.523 274.716 468.95
187 0 73.1223 12.2945 899 109.596 274.207 469.511
188 0 73.1217 11.8843 869 112.234 274.654 467.753
189 0 76.1253 12.532 954 110.43 274.13 466.801
190 0 81.0674 13.6306 1105 107.435 274.262 464.31
191 0 82.0692 12.5991 1034 110.398 274.557 461.835
192 0 86.0749 12.2335 1053 110.709 274.5 462.728
193 0 90.1238 12.8157 1155 109.407 274.642 462.443
194 0 92.3883 12.2526 1132 111.614 274.283 459.343
195 0 96.1739 14.0891 1355 108.169 274.851 457.461
196 1 48.1268 11.2204 540 111.08 274.87 481.202
197 0 52.0699 12.4064 646 108.17 275.121 479.197
198 0 51.1767 11.6069 594 109.465 274.138 479.283
199 0 54.0639 12.2448 662 107.628 274.701 478.082
200 0 55.0678 12.6027 694 106.941 274.366 477.265
201 0 58.0711 12.3814 719 107.748 274.672 475.328
202 0 60.1418 13.4349 808 106.621 274.004 475.27
203 0 61.138 12.9707 793 108.237 274.8 474.854
204 0 65.2214 13.6612 891 106.141 274.614 473.212
205 0 64.0914 12.451 798 111.882 274.395 473.118
206 0 69.0712 14.1014 974 107.48 274.265 470.716
207 0 72.0952 13.6209 982 110.465 274.268 469.747
208 0 75.1474 13.3471 1003 110.691 273.861 469.667
209 0 76.1362 14.4872 1103 109.28 274.535 466.69
210 0 79.0452 12.8787 1018 113.784 274.659 467.678
211 0 81.1177 12.7222 1032 114.437 274.7 464.777
212 0 85.0753 13.2118 1124 112.34 273.791 465.313
213 0 88.0663 12.1613 1071 115.674 273.676 464.001
214 1 48.0456 12.2592 589 114.278 273.416 480.53
215 0 50.0457 12.3887 620 116.589 272.708 480.106
216 0 50.079 12.1009 606 123.637 274.216 477.427
217 0 55.034 12.5559 691 117.99 274.062 478.608
218 0 55.0938 12.1792 671 119.416 274.075 478.048
219 0 57.0615 11.8118 674 119.767 273.217 476.573
220 0 59.0803 12.4068 733 118.034 273.074 474.089
221 0 60.0394 13.2413 795 116.512 274.245 473.518
222 0 62.0834 12.2738 762 118.133 273.483 472.635
223 0 66.0822 12.1213 801 116.526 273.315 473.303
224 0 66.0905 12.1046 800 116.829 273.592 473.112
225 0 69.0846 12.6656 875 115.367 273.473 471.066
226 0 70.0663 12.1599 852 115.102 274.039 470.763
227 0 74.0747 12.9869 962 112.552 274.14 468.532
228 0 75.1222 12.7659 959 113.838 273.713 466.095
229 0 77.0849 11.7922 909 116.057 273.4 465.969
230 0 80.1708 13.0471 1046 113.342 273.352 464.671
231 0 83.237 12.3383 1027 115.044 272.922 461.712
232 0 87.3111 13.0797 1142 112.801 272.888 461.038
233 0 91.2072 12.5867 1148 113.376 273.367 460.689
234 0 94.1424 12.5979 1186 113.646 273.714 456.439
235 1 47.047 10.6914 503 108.223 273.266 483.39
236 0 48.0317 10.8886 523 109.229 272.587 480.809
237 0 51.0437 11.3432 579 108.993 273.763 480.247
238 0 51.0651 12.2784 627 108.82 273.652 478.474
239 0 52.0985 11.9389 622 106.886 274.482 477.445
240 0 56.0725 13.6966 768 100.798 273.794 478.177
241 0 56.0672 12.1996 684 105.8 273.842 477.2
242 0 60.0479 12.8398 771 102.499 273.467 477.262
243 0 61.0265 12.8633 785 102.883 273.378 475.546
244 0 61.0868 12.3104 752 105.077 273.517 474.339
245 0 66.0333 12.4634 823 104.303 273.474 474.225
246 0 67.0606 13.2119 886 103.448 273.568 471.135
247 0 70.0666 13.3159 933 103.248 273.892 469.583
248 0 72.2116 12.0202 868 106.916 273.556 468.592
249 0 73.0888 12.9979 950 105.522 273.545 470.006
250 0 76.0648 11.1352 847 109.246 273.783 469.093
251 0 78.0412 11.8271 923 109.602 273.923 465.583
252 0 82.076 13.1707 1081 105.883 273.843 466.389
253 0 85.1215 12.3705 1053 110.312 273.442 463.251
254 0 86.1381 12.8515 1107 110.072 273.332 461.636
255 0 90.0499 12.7485 1148 109.999 273.742 459.469
256 1 49.2367 11.3939 561 104.668 274.257 479.668
257 0 49.1715 11.165 549 107.455 274.508 479.98
258 0 52.0393 12.4906 650 102.786 274.88 480.892
259 0 54.0486 11.2491 608 106.015 274.882 479.418
260 0 55.0747 12.3469 680 105.146 275.049 477.513
261 0 56.0517 13.3448 748 103.051 274.684 475.535
262 0 59.1321 13.1232 776 103.057 274.584 476.12
263 0 59.0975 12.1663 719 107.204 274.41 475.1
264 0 61.195 12.6971 777 105.672 274.598 474.57
265 0 64.166 12.982 833 103.589 274.473 474.251
266 0 66.0805 14.1797 937 102.307 274.319 472.272
267 0 70.0591 12.7178 891 105.369 274.963 471.265
268 0 71.0803 12.2819 873 107.033 274.065 469.884
269 0 73.0654 12.1946 891 107.461 274.178 467.767
270 0 76.1024 13.219 1006 105.548 274.329 467.945
271 0 78.0797 13.2941 1038 106.181 274.223 467.126
272 0 82.1526 12.9028 1060 106.618 274.777 464.713
273 0 83.123 12.9687 1078 107.861 274.199 462.755
274 0 86.1485 12.4204 1070 110.179 273.622 461.622
275 1 43.154 11.7023 505 106.323 274.865 483.931
276 0 45.1409 10.6998 483 108.596 274.712 483.988
277 0 45.0854 11.2453 507 106.68 274.454 481.667
278 0 48.0966 11.5809 557 103.695 274.205 482.381
279 0 47.0949 12.1032 570 104.004 274.46 480.795
280 0 51.0824 11.8045 603 102.675 274.187 480.415
281 0 51.0958 12.6625 647 101.07 274.267 479.839
282 0 54.174 12.7552 691 100.069 273.819 477.993
283 0 55.2723 11.6695 645 102.172 274.932 478.941
284 0 56.0375 11.7421 658 102.231 273.719 476.903
285 0 59.0621 12.3599 730 100.64 273.881 475.385
286 0 60.045 11.8411 711 101.938 274.196 475.294
287 0 63.043 12.8642 811 98.9803 274.355 475.154
288 0 66.2438 12.2578 812 100.99 273.626 473.892
289 0 67.0374 12.7541 855 100.63 273.122 471.987
290 0 71.0706 13.7047 974 98.4271 274.205 470.856
291 0 71.0597 12.2432 870 102.445 274.216 470.305
292 0 75.1722 12.7707 960 101.82 273.655 468.847
293 0 78.1227 11.6227 908 106.576 273.784 466.064
294 0 83.0967 13.4542 1118 100.623 273.096 465.983
295 0 83.1587 11.6885 972 108.783 273.018 462.881
296 1 40.0796 9.9053 397 107.045 274.04 484.771
297 0 42.0879 10.8107 455 105.989 273.73 484.369
298 0 44.0797 11.1843 493 107.085 273.87 482.231
299 0 46.246 12.8227 593 105.386 273.017 480.44
300 0 48.116 12.3867 596 101.924 273.631 481.398
301 0 48.2925 10.3122 498 107.38 273.265 482.647
302 0 50.1551 11.8034 592 105.147 273.873 481.61
303 0 52.0612 13.3497 695 101.633 273.849 480.773
304 0 53.0332 12.6336 670 103.881 274.106 478.539
305 0 54.1208 10.5505 571 108.625 274.483 478.765
306 0 56.1026 11.7107 657 106.075 274.306 478.218
307 0 58.0682 13.0019 755 104.274 274.273 474.211
308 0 61.1578 13.3589 817 103.412 274.073 474.018
309 0 63.1869 12.3602 781 105.241 273.845 475.125
310 0 66.1972 12.3419 817 110.996 274.1 472.993
311 0 67.1727 12.4902 839 110.859 274.445 472.126
312 0 68.1607 10.9007 743 115.732 274.723 470.949
313 0 72.0722 12.4459 897 107.19 275.177 470.074
314 0 73.0689 12.4677 911 108.765 274.44 468.956
315 0 74.0336 11.846 877 112.738 274.365 467.011
316 0 77.099 11.2453 867 112.918 274.931 463.351
317 0 81.085 11.7408 952 111.822 274.054 464.556
318 0 81.0894 11.6291 943 113.69 274.056 463.474
319 0 86.1842 12.0556 1039 113.755 274.539 462.119
320 1 45.0358 10.1031 455 109.369 275.418 484.193
321 0 46.0764 11.7631 542 107.72 275.428 481.862
322 0 47.141 10.8186 510 110.735 274.202 481.796
323 0 48.1192 11.9079 573 110.4 274.558 481.005
324 0 52.0733 12.0599 628 108.08 274.478 480.226
325 0 52.0938 11.94 622 109.055 274.161 479.389
326 0 55.1438 12.6578 698 106.799 273.602 478.999
327 0 55.0398 12.391 682 108.758 273.843 477.617
328 0 57.1281 12.1481 694 109.464 274.238 477.255
329 0 58.1429 11.9017 692 110.464 274.665 476.783
330 0 60.235 12.3682 745 109.356 274.745 475.417
331 0 64.1261 12.5534 805 108.694 274.594 474.92
332 0 65.0875 13.1515 856 108.176 274.188 473.001
333 0 68.0917 14.6126 995 104.775 273.84 471.449
334 0 69.0862 13.143 908 109.65 274.592 471.487
335 0 72.1499 14.2204 1026 106.751 273.597 469.634
336 0 75.1581 13.9173 1046 107.163 274.749 469.032
337 0 75.092 12.0918 908 111.807 274.611 468.978
338 0 77.0924 12.8288 989 111.093 274.023 466.843
339 0 81.1178 13.4373 1090 110.694 274.55 465.056
340 0 83.2289 12.796 1065 113.609 274.762 465.364
341 0 87.0996 13.0311 1135 113.411 274.122 463.883
342 1 47.1184 10.9724 517 114.679 274.903 482.273
343 0 48.0724 11.6075 558 113.427 274.658 481.584
344 0 51.09 11.8223 604 113.985 274.543 479.906
345 0 54.0673 12.9653 701 111.886 275.399 478.869
346 0 54.0955 12.6813 686 114.12 274.854 478.774
347 0 56.0803 12.8031 718 114.149 274.958 478.081
348 0 57.2686 12.9739 743 118.468 275.541 478.217
349 0 59.1881 13.1445 778 118.252 275.221 477.593
350 0 60.1885 13.4743 811 118.709 275.054 476.223
351 0 61.1426 12.5281 766 120.783 274.826 476.534
352 0 64.1395 13.1276 842 119.099 275.58 474.578
353 0 67.1106 13.5001 906 118.045 275.125 473.385
354 0 68.1307 12.7989 872 120.032 274.534 472.803
355 0 69.081 12.0728 834 122.076 274.258 472.456
356 0 73.0803 13.2868 971 118.366 274.941 471.614
357 0 74.1437 13.4738 999 119.225 274.218 469.56
358 0 76.117 13.0063 990 120.045 274.741 468.34
359 0 77.2446 12.2209 944 121.229 274.712 469.166
360 1 43.0801 10.8171 466 117.382 274.775 485.506
361 0 41.0846 10.88 447 118.544 274.273 485.098
362 0 42.0535 11.0098 463 117.998 274.212 485.156
363 0 44.1092 11.4035 503 119.573 273.803 482.163
364 0 46.1032 12.3636 570 118.586 274.349 481.965
365 0 50.2196 13.6003 683 116.224 273.835 480.694
366 0 50.0792 13.3788 670 121.346 274.655 479.397
367 0 51.1462 12.7282 651 122.358 274.135 480.26
368 0 52.1466 12.81 668 122.317 274.379 478.915
369 0 55.153 13.2903 733 120.49 273.7 478.409
370 0 55.1603 12.4365 686 123.462 274.36 479.092
371 0 58.1751 13.15 765 121.162 274.175 478.276
372 0 59.1829 12.7064 752 122.386 274.371 478.54
373 0 59.1008 12.8932 762 124.049 273.713 476.175
374 0 62.0656 13.7757 855 120.195 273.795 477.368
375 0 64.0678 13.2984 852 123.455 274.746 475.228
376 0 67.071 13.5081 906 121.882 274.377 475.024
377 0 67.097 14.0245 941 122.559 274.834 472.842
378 0 68.0694 13.1337 894 125.315 275.428 473.232
379 0 71.1675 13.4612 958 123.965 274.961 471.54
380 0 75.185 13.1143 986 123.119 274.695 471.373
381 0 75.2244 12.9878 977 125.389 274.427 467.607
382 0 79.174 14.1461 1120 120.391 274.319 467.818
383 0 80.1761 12.6222 1012 124.857 274.589 465.873
384 1 42.0688 11.1484 469 123.435 274.556 487.175
385 0 43.0667 11.8653 511 122.74 275.006 485.076
386 0 46.0771 13.3255 614 116.443 274.663 484.733
387 0 46.1064 11.7554 542 121.142 275.007 484.98
388 0 46.0256 12.7972 589 119.289 275.115 485.063
389 0 49.0191 13.1173 643 117.073 274.998 483.778
390 0 49.0435 12.1933 598 120.405 273.816 483.339
391 0 53.0838 13.3562 709 116.087 275.082 481.787
392 0 53.0678 12.8703 683 119.647 274.246 480.407
393 0 55.0225 13.1219 722 118.785 274.421 480.893
394 0 57.0485 13.2343 755 118.077 274.51 481.208
395 0 59.1146 13.2962 786 117.861 274.469 479.267
396 0 60.0347 13.2423 795 118.659 274.736 479.231
397 0 62.057 12.553 779 122.137 274.526 476.845
398 0 64.1264 14.1907 910 118.809 274.033 475.541
399 0 67.0604 14.3602 963 118.133 275.206 474.869
400 0 71.0331 14.4721 1028 117.142 274.988 474.646
401 0 72.0593 14.4603 1042 118.371 274.527 472.714
402 0 74.0683 13.9601 1034 120.828 274.564 471.979
403 0 76.145 14.3673 1094 120.029 274.25 471.023
404 0 79.1563 14.2882 1131 120.636 273.753 470.403
405 0 82.0574 14.0268 1151 121.309 274.138 469.168
406 1 40.0152 12.7951 512 126.131 274.691 486.457
407 0 41.0541 12.2034 501 126.034 273.719 487.196
408 0 45.104 13.4356 606 123.774 273.794 486.073
409 0 47.0152 13.7615 647 127.774 273.946 486.507
410 0 48.0693 14.0006 673 121.15 274.691 485.282
411 0 48.0545 13.5055 649 123.994 274.174 484.716
412 0 49.0653 13.4922 662 124.536 273.699 484.387
413 0 51.0267 14.1886 724 124.957 274.052 481.762
414 0 54.0471 14.4689 782 121.84 274.385 482.029
415 0 56.0584 14.1103 791 123.178 274.396 481.679
416 0 57.0507 13.0936 747 127.522 274.347 480.924
417 0 58.1541 13.4298 781 128.575 274.621 478.958
418 0 60.1027 14.442 868 126.505 274.856 477.191
419 0 63.1495 13.3176 841 128.687 274.79 478.39
420 0 65.0926 15.332 998 124.635 274.965 475.486
421 0 67.1458 13.776 925 128.428 274.256 473.954
422 0 71.0752 14.2244 1011 125.889 275.014 474.551
423 0 72.1393 14.1532 1021 128.444 274.834 472.145
424 0 75.1928 13.9242 1047 129.74 274.887 471.794
425 0 79.2326 14.4385 1144 128.844 274.434 469.54
426 0 81.2924 14.4663 1176 128.897 274.543 468.736
427 0 85.2066 14.858 1266 127.93 274.57 467.175
428 0 87.098 14.8913 1297 128.975 274.542 464.918
429 1 47.0957 12.103 570 130.744 275.091 486.044
430 0 48.0399 13.4055 644 129.065 275.519 484.637
431 0 51.0328 13.2268 675 130.901 275.69 483.462
432 0 53.0405 12.7261 675 134.673 275.067 481.997
433 0 56.0335 13.8846 778 130.057 275.028 481.842
434 0 57.0959 14.0465 802 129.939 275.363 479.723
435 0 60.0987 14.6925 883 126.974 275.822 478.032
436 0 60.0215 12.1123 727 134.971 275.593 478.382
437 0 63.0448 13.6252 859 132.256 274.981 476.724
438 0 67.0262 14.1885 951 129.988 274.971 475.363
439 0 68.0976 13.466 917 132.301 275.261 473.592
440 0 71.0989 13.207 939 132.551 274.587 473.911
441 0 74.0697 13.5008 1000 131.188 274.871 472.306
442 0 75.0402 13.4461 1009 130.73 274.58 471.735
443 0 78.1705 12.9716 1014 132.331 275.023 469.753
444 0 82.1617 13.4856 1108 130.695 274.258 468.04
445 1 43.0404 12.7322 548 125.146 274.529 487.464
446 0 44.1524 13.8384 611 122.517 274.581 486.489
447 0 46.0815 12.3043 567 125.668 274.608 486.961
448 0 46.0809 12.5432 578 128.078 275.074 484.766
449 0 48.0885 14.0158 674 125.145 274.628 482.818
450 0 49.0943 13.0361 640 135.133 275.073 482.548
451 0 51.1636 12.2157 625 137.795 275.17 481.41
452 0 54.1362 13.0227 705 134.506 273.969 480.4
453 0 56.0968 13.2093 741 132.32 275.308 480.484
454 0 59.2605 13.6685 810 129.536 275.22 479.474
455 0 58.1726 12.4629 725 134.404 275.139 479.262
456 0 61.1723 13.4538 823 129.939 275.224 478.084
457 0 62.2082 12.7154 791 132.397 275.119 477.109
458 0 65.0787 12.9689 844 130.395 275.404 475.469
459 0 66.0982 11.8309 782 133.289 275.436 474.458
460 0 70.1374 12.2046 856 129.894 274.878 474.569
461 0 71.1155 11.8118 840 132.046 275.487 471.589
462 0 71.1139 11.8402 842 151.528 276.488 471.36
463 1 36.0436 10.3763 374 128.965 275.308 488.658
464 0 41.0451 11.4752 471 125.321 275.531 487
465 0 42.0659 12.0763 508 123.892 275.283 486.898
466 0 41.0144 11.5569 474 129.536 275.409 486.329
467 0 44.0369 12.217 538 126.193 274.963 484.959
468 0 46.0518 13.1374 605 123.79 275.008 483.94
469 0 47.0744 13.5318 637 124.46 274.209 483.305
470 0 46.0545 12.3549 569 128.745 274.209 483.726
471 0 51.0367 12.3441 630 127.2 274.817 482.298
472 0 53.1096 13.99 743 122.106 274.301 481.723
473 0 55.0356 13.7366 756 123.639 275.127 479.66
474 0 55.0607 12.6406 696 127.958 275.182 479.088
475 0 58.1699 13.7528 800 124.464 275.365 478.495
476 0 60.1527 13.8647 834 123.723 275.364 477.476
477 0 60.1497 13.8987 836 125.181 274.73 476.449
478 0 63.0738 12.9689 818 128.369 275.165 474.43
479 0 65.0982 13.0418 849 127.761 275.442 475.273
480 0 68.1216 13.2557 903 126.395 274.614 474.303
481 0 68.0859 12.6017 858 129.935 274.282 472.392
482 0 71.0319 12.3325 876 130.987 274.515 471.446
483 0 76.0837 11.9999 913 129.468 275.487 471.826
484 1 36.0885 11.4718 414 127.722 275.432 489.978
485 0 37.0642 11.3047 419 128.745 275.043 488.876
486 0 39.1162 11.5297 451 129.055 274.772 487.217
487 0 39.1205 12.551 491 127.678 275.342 486.322
488 0 40.1842 12.0445 484 128.467 275.161 486.085
489 0 43.0936 12.5773 542 127.033 275.531 486.404
490 0 44.1619 12.6806 560 128.259 274.934 484.614
491 0 45.0539 12.5627 566 127.608 275.36 484.023
492 0 45.198 13.2085 597 128.194 275.047 483.534
493 0 49.0735 13.1435 645 128.606 275.208 481.949
494 0 52.1686 12.958 676 128.592 274.91 481.877
495 0 53.283 13.3251 710 129.627 275.272 479.655
496 0 55.1549 14.1601 781 126.138 275.128 478.858
497 0 55.1751 13.3212 735 128.801 274.921 478.386
498 0 57.0708 13.2292 755 128.225 274.429 477.607
499 0 61.1563 13.6862 837 125.06 275.425 475.425
500 0 62.0531 13.7946 856 129.104 275.543 475.126
501 0 64.0708 13.7036 878 132.383 275.913 474.278
502 0 66.0259 13.7522 908 132.036 275.326 473.659
503 0 69.0325 14.6018 1008 130.043 275.267 472.324
504 0 70.0425 13.8345 969 134.05 275.644 471.146
505 0 72.0686 14.4029 1038 131.825 275.393 468.667
506 0 74.0531 13.3958 992 134.453 274.626 467.702
507 0 78.0852 13.6518 1066 132.417 275.318 467.695
508 0 79.1061 12.7171 1006 136.349 275 466.286
509 0 82.117 14.4184 1184 131.856 274.816 463.16
510 0 84.2477 14.5404 1225 131.317 274.63 463.688
511 0 87.1511 14.3314 1249 132.028 274.799 462.05
512 0 89.0866 13.4813 1201 135.163 274.672 460.631
513 0 92.0804 13.0972 1206 135.525 274.174 460.465
514 0 97.1117 13.9839 1358 134.012 274.801 458.65
515 0 100.176 13.676 1370 135.53 274.223 458.07
516 1 50.0526 13.9653 699 136.68 273.569 479.568
517 0 51.0374 14.46 738 136.535 274.394 478.031
518 0 54.1973 13.1187 711 140.91 273.91 478.637
519 0 56.0587 14.2529 799 136.419 273.706 478.364
520 0 59.1114 15.0732 891 134.734 274.377 476.061
521 0 60.0381 14.141 849 138.47 273.609 475.653
522 0 63.0846 15.2811 964 132.69 273.246 475.567
523 0 65.0337 15.6996 1021 130.7 274.604 474.16
524 0 66.1021 14.6743 970 132.657 273.968 472.891
525 0 69.0338 14.6015 1008 130.915 274.298 473.242
526 0 70.0259 15.3372 1074 128.853 274.084 472.361
527 0 71.0522 14.3838 1022 132.57 273.426 470.531
528 0 74.1204 14.0177 1039 133.209 274.093 468.779
529 0 77.1236 14.4573 1115 130.681 274.089 469.288
530 0 79.0844 14.4023 1139 132.255 274.635 466.836
531 0 82.1546 13.8641 1139 132.297 274.251 466.422
532 0 85.1598 14.5139 1236 130.95 274.317 462.756
533 0 90.1156 14.9919 1351 128.284 274.369 461.566
534 1 46.1102 13.5328 624 131.779 274.231 483.28
535 0 47.0491 13.8366 651 132.628 274.492 482.21
536 0 46.0494 13.833 637 135.014 274.176 481.697
537 0 48.031 13.637 655 134.063 274.46 481.061
538 0 50.0564 14.5236 727 132.204 274.711 479.435
539 0 51.0366 14.7149 751 131.672 274.241 478.165
540 0 53.1332 13.6826 727 133.862 274.575 478.894
541 0 56.0426 13.5968 762 134.269 274.392 476.559
542 0 57.0377 14.2888 815 133.135 274.47 475.125
543 0 60.0621 14.535 873 131.836 274.241 474.507
544 0 61.0404 14.2529 870 135.164 273.771 471.845
545 0 63.0386 14.2928 901 135.496 274.62 471.176
546 0 67.1022 15.2603 1024 130.583 273.791 471.742
547 0 69.0295 12.5309 865 138.751 274.32 471.406
548 0 72.1107 15.92 1148 129.608 274.251 468.249
549 0 73.0591 14.2624 1042 136.404 275.422 467.103
550 0 76.1323 14.1727 1079 136.634 275.013 466.574
551 0 79.1317 13.9262 1102 137.746 274.363 464.354
552 0 82.0812 14.5709 1196 134.513 274.713 463.093
553 1 39.0641 11.9803 468 135.387 274.453 484.372
554 0 40.0408 12.2375 490 139.333 274.249 482.4
555 0 43.024 14.6662 631 129.293 273.83 483.146
556 0 44.0854 12.4077 547 138.459 275.033 481.753
557 0 45.0277 13.5916 612 136.74 274.639 480.404
558 0 45.1203 11.9237 538 142.591 274.489 480.532
559 0 49.0476 14.0068 687 134.962 274.15 479.131
560 0 51.0208 13.9551 712 135.228 275.087 478.338
561 0 51.0723 13.8235 706 138.627 274.725 476.722
562 0 54.0605 13.2999 719 139.458 273.709 475.245
563 0 55.0352 13.2824 731 140.067 274.161 474.956
564 0 57.0729 13.6142 777 139.889 274.306 475.432
565 0 59.0671 13.2222 781 142.863 273.814 473.657
566 0 62.1378 13.5666 843 141.734 273.925 472.809
567 0 64.0911 14.1985 910 140.886 273.569 471.176
568 0 68.0396 14.4622 984 139.759 274.665 469.663
569 0 69.096 14.7331 1018 139.862 274.03 468.536
570 0 72.1942 14.0039 1011 142.961 274.313 466.397
571 0 75.0805 14.3712 1079 141.187 273.984 464.146
572 0 76.079 13.9066 1058 143.323 274.343 462.78
573 0 79.0663 13.0144 1029 146.882 274.534 462.195
574 0 83.2115 14.0485 1169 142.808 274.554 460.583
575 1 42.1672 11.1698 471 136.431 274.868 482.558
576 0 45.0564 12.2513 552 132.743 274.64 481.935
577 0 46.061 12.6571 583 136.818 274.007 481.312
578 0 47.0345 12.055 567 139.601 273.951 482.511
579 0 48.1245 11.5534 556 140.604 273.896 483.178
580 0 51.0772 12.3539 631 138.087 274.347 480.883
581 0 51.0996 12.094 618 139.023 273.919 480.265
582 0 53.0347 12.5955 668 137.036 274.091 478.016
583 0 55.0433 11.4819 632 139.712 273.97 477.554
584 0 56.1388 11.9169 669 138.075 274.613 476.378
585 0 59.0777 13.0845 773 133.816 274.237 474.948
586 0 60.0443 12.1244 728 137.088 274.416 472.775
587 0 61.1127 11.5688 707 139.704 274.547 470.554
588 0 64.0978 11.7945 756 135.853 273.779 472.024
589 0 66.0657 12.5027 826 135.32 274.703 469.61
590 0 68.0616 12.474 849 135.583 273.879 470.463
591 0 70.0814 11.6151 814 138.665 274.147 467.183
592 0 72.0665 12.6827 914 135.005 274.763 467.742
593 0 75.0568 10.8051 811 139.718 274.982 467.499
594 0 78.0584 12.0679 942 136.561 274.952 465.242
595 0 83.1069 12.3455 1026 134.455 274.333 463.881
596 1 45.019 9.37382 422 131.867 275.251 482.427
597 0 45.0379 11.1906 504 130.98 274.306 482.496
598 0 48.0442 11.6351 559 127.154 274.639 484.971
599 0 49.0331 11.8899 583 127.847 274.816 482.844
600 0 50.0189 11.5356 577 129.36 274.906 483.109
601 0 51.014 12.1339 619 127.982 275.116 480.502
602 0 52.0472 11.1629 581 130.561 274.351 481.466
603 0 57.0443 12.3237 703 125.128 273.879 479.688
604 0 57.0608 12.3728 706 125.686 274.562 478.911
605 0 57.0375 12.4655 711 126.098 275.405 477.591
606 0 61.054 12.2187 746 125.851 274.834 477.158
607 0 63.0453 12.3086 776 124.688 274.385 476.099
608 0 63.0342 11.2637 710 127.369 274.297 475.53
609 0 68.0388 12.9779 883 120.941 274.649 474.251
610 0 69.0438 12.1083 836 123.932 273.705 471.519
611 0 73.0203 12.3938 905 122.055 273.783 471.494
612 0 76.0886 11.894 905 122.126 274.004 469.628
613 1 41.008 10.1931 418 122.88 273.144 488.146
614 0 42.0227 11.3272 476 120.006 273.824 486.382
615 0 40.0491 10.9615 439 116.517 274.515 486.827
616 0 40.0453 9.63908 386 119.622 274.554 487.451
617 0 43.0472 10.6395 458 117.662 274.397 486.655
618 0 43.0245 11.5051 495 116.285 274.327 484.481
619 0 46.0216 11.1687 514 116.49 274.033 483.502
620 0 48.0876 10.8968 524 117.763 274.227 483.903
621 0 49.0805 11.1653 548 118.088 275.058 482.85
622 0 52.0343 11.5885 603 116.564 274.126 481.72
623 0 51.1162 9.82076 502 122.845 274.928 482.345
624 0 52.0452 10.6254 553 121.758 273.955 481.383
625 0 55.0431 10.737 591 120.36 274.142 483.157
626 0 58.0846 11.4488 665 120.138 274.328 480.102
627 0 59.0336 11.7391 693 121.071 273.827 478.433
628 0 61.1684 11.64 712 120.529 273.705 479.358
629 0 62.0598 11.07 687 123.048 273.603 478.753
630 0 64.13 11.773 755 122.111 273.834 477.593
631 0 67.1918 13.0671 878 119.302 272.941 475.804
632 0 68.125 12.345 841 122.532 273.307 475.662
633 0 70.0879 12.3131 863 124.964 273.757 473.323
634 0 71.202 11.4884 818 128.213 273.194 473.244
635 0 75.1222 12.9123 970 124.729 273.51 472.238
636 0 75.2062 12.7383 958 127.271 274.032 469.967
637 0 77.1674 12.5053 965 128.821 274.297 469.269
638 0 79.1674 12.4294 984 129.29 273.092 468.275
639 0 82.3147 13.497 1111 126.731 274.27 467.25
640 0 85.1714 13.1147 1117 126.679 274.536 466.537
641 0 87.211 13.4043 1169 126.054 273.615 465.288
642 0 91.1286 13.245 1207 125.139 273.649 464.251
643 0 92.1598 12.0334 1109 129.178 273.183 461.246
644 0 96.1101 12.6209 1213 126.793 274.095 461.397
645 0 100.095 12.598 1261 125.814 273.532 458.577
646 0 104.073 13.8173 1438 122.134 273.49 457.444
647 1 44.0215 11.4489 504 123.893 274.401 485.675
648 0 45.0242 12.8597 579 121.055 274.862 486.098
649 0 43.0263 11.2489 484 119.994 273.041 486.837
650 0 43.0175 10.4376 449 122.245 273.345 486.078
651 0 44.0871 10.6607 470 122.247 273.489 484.66
652 0 49.0307 11.1359 546 118.416 273.251 484.976
653 0 50.0344 13.151 658 84.2781 274.447 484.058
654 0 50.1121 11.2548 564 120.535 274.103 483.016
655 0 51.0674 11.5142 588 119.995 274.019 480.976
656 0 54.1983 11.3657 616 119.278 274.7 482.065
657 0 54.0481 11.0087 595 121.082 274.007 481.366
658 0 56.1586 11.8593 666 118.572 273.351 480.068
659 0 59.0758 12.2724 725 117.196 273.618 479.149
660 0 60.0444 11.3916 684 118.373 273.538 480.595
661 0 61.1078 11.1933 684 120.892 273.684 479.247
662 0 64.2172 10.6358 683 120.843 273.224 477.389
663 0 67.1086 11.7124 786 117.111 273.023 475.985
664 0 70.1507 12.3591 867 114.947 273.967 474.2
665 0 72.0945 13.2465 955 115.124 272.749 473.509
666 0 74.139 15.4305 1144 84.3942 273.754 472.112
667 0 75.079 12.8798 967 117.639 272.623 473.884
668 0 78.1626 12.7683 998 116.787 272.66 472.493
669 0 82.0538 12.5527 1030 119.193 273.157 469.264
670 0 84.1097 12.8879 1084 119.387 272.649 467.089
671 0 87.0619 12.405 1080 120.615 272.933 465.894
672 0 90.1289 12.0938 1090 120.844 272.804 464.283
673 1 50.0644 10.7262 537 117.14 272.991 485.993
674 0 50.068 12.2434 613 114.387 274.274 486.028
675 0 48.0842 11.0847 533 116.493 274.114 484.608
676 0 48.0799 10.3578 498 118.08 273.462 484.227
677 0 51.1213 10.7392 549 117.051 273.117 484.22
678 0 53.0214 11.3916 604 114.849 273.207 483.834
679 0 55.0936 11.2899 622 116.855 273.211 481.268
680 0 58.0607 10.5924 615 116.782 272.917 481.01
681 0 60.1089 13.1927 793 79.0971 273.107 480.227
682 0 61.0777 11.821 722 113.244 272.719 480.88
683 0 64.1747 12.0764 775 113.57 273.401 476.252
684 0 65.0712 11.6027 755 114.424 273.185 475.049
685 0 69.1593 11.582 801 113.248 273.654 475.044
686 0 71.1369 11.8926 846 113.904 272.687 473.429
687 0 74.1565 11.705 868 114.9 273.043 471.833
688 0 79.0641 12.2685 970 111.229 272.605 471.616
689 0 80.0949 11.7486 941 111.341 273.072 470.339
690 1 41.0657 12.2487 503 109.368 273.831 486.907
691 0 43.1514 11.4944 496 111.036 274.304 487.78
692 0 43.029 10.063 433 113.58 274.316 489.785
693 0 46.0337 10.7964 497 112.006 274.457 488.044
694 0 46.0193 9.99582 460 114.867 274.343 488.276
695 0 48.0681 12.0246 578 111.685 274.443 485.478
696 0 51.0311 10.1703 519 114.775 274.069 485.2
697 0 53.1179 11.2956 600 112.553 274.178 484.718
698 0 54.0642 11.7453 635 113.441 274.368 482.589
699 0 55.0496 11.3534 625 115.93 274.189 481.486
700 0 59.0845 12.2536 724 112.423 274.391 481.829
701 0 59.0673 12.0033 709 115.367 274.877 479.45
702 0 62.0262 12.4947 775 114.591 274.732 478.312
703 0 64.1195 12.8822 826 114.538 274.04 478.345
704 0 65.09 12.2292 796 117.295 274.357 476.528
705 0 70.0622 13.7449 963 114.208 274.593 474.496
706 0 70.1171 11.6519 817 120.237 273.595 475.558
707 0 74.1566 13.2557 983 117.761 274.397 472.86
708 0 77.0389 13.6944 1055 117.05 274.222 471.478
709 0 80.0982 12.5471 1005 120.893 273.796 469.763
710 0 82.0914 12.7663 1048 119.867 273.667 468.887
711 1 43.0663 11.5636 498 122.823 273.853 487.175
712 0 44.0279 11.6063 511 124.155 273.503 486.423
713 0 48.1848 12.8049 617 123.587 273.3 485.927
714 0 49.12 13.3958 658 122.825 274.363 484.378
715 0 49.1143 12.1757 598 128.201 273.58 483.599
716 0 51.2603 12.5828 645 127.817 273.186 482.843
717 0 53.1744 12.4496 662 128.453 273.29 482.739
718 0 56.2394 13.6915 770 124.473 272.216 481.057
719 0 55.1484 13.0194 718 129.166 272.648 478.578
720 0 57.094 12.8385 733 130.435 273.041 477.184
721 0 61.1812 12.0135 735 130.239 273.188 476.412
722 0 62.1339 12.4409 773 130.285 273.019 475.266
723 0 63.2091 11.9761 757 131.664 273.736 475.119
724 0 66.287 13.7282 910 125.908 272.876 472.193
725 0 69.1859 12.835 888 127.777 272.211 471.249
726 0 72.2923 13.8327 1000 125.262 272.186 470.179
727 0 75.2468 12.8643 968 126.612 272.808 469.699
728 0 77.3233 13.6569 1056 125.136 272.801 468.339
729 0 79.318 13.9565 1107 124.944 272.783 465.434
730 0 82.3082 13.2794 1093 125.395 273.223 464.742
731 0 85.2128 13.566 1156 124.513 273.156 463.787
732 0 89.187 13.5558 1209 123.934 272.748 462.96
733 0 91.3281 13.4351 1227 124.181 272.896 460.757
734 0 94.273 14.1928 1338 122.438 272.784 459.507
735 0 99.2601 13.0465 1295 125.015 272.829 458.585
736 0 99.1474 13.3438 1323 126.373 272.322 453.853
737 0 105.438 13.6668 1441 123.078 272.613 454.052
738 1 53.1919 11.8439 630 119.856 272.951 479.949
739 0 56.1778 12.6563 711 117.729 272.788 480.004
740 0 57.0751 12.9654 740 115.188 273.272 477.323
741 0 59.0804 12.0514 712 116.872 274.327 475.211
742 0 59.1136 12.2645 725 116.65 273.778 473.96
743 0 61.0291 12.2728 749 115.876 273.833 474.21
744 0 63.0552 12.2908 775 117.143 274.332 473.577
745 0 66.0964 12.2246 808 119.627 274.673 471.1
746 0 67.0866 11.7907 791 122.619 274.416 472.12
747 0 72.1288 13.8225 997 119.79 274.229 471.794
748 0 73.1293 12.0882 884 124.505 273.1 470.473
749 0 77.1503 12.2099 942 123.364 273.264 469.436
750 0 79.1318 13.0036 1029 121.842 273.281 467.187
751 0 81.1858 12.3421 1002 123.794 273.583 467.735
752 0 86.2849 12.9687 1119 122.704 272.98 462.743
753 0 90.2284 13.7651 1242 121.663 273.501 460.18
754 0 91.2917 13.6267 1244 123.211 273.85 459.268
755 0 92.2524 12.6718 1169 128.007 273.004 457.316
756 1 53.063 10.7419 570 118.877 274.318 481.716
757 0 53.0889 11.3771 604 115.199 273.992 476.171
758 0 55.0854 11.8543 653 113.773 273.997 477.345
759 0 56.045 12.936 725 111.508 274.993 477.131
760 0 56.0952 11.4626 643 115.465 274.499 477.527
761 0 60.0926 11.9981 721 113.494 274.533 475.84
762 0 63.0741 13.3652 843 115.508 274.012 477.427
763 0 64.1394 12.6599 812 117.316 273.932 476.228
764 0 65.0829 11.8464 771 120.505 273.787 475.32
765 0 69.1049 13.834 956 114.027 273.657 474.002
766 0 69.085 13.0564 902 117.88 273.51 473.151
767 0 71.0738 12.677 901 119.557 273.537 471.838
768 0 73.0998 11.8058 863 112.326 273.065 473.109
769 0 77.0681 12.6252 973 111.065 273.238 469.565
770 0 80.0862 13.8601 1110 109.154 273.479 467.511
771 0 82.1078 12.2887 1009 113.42 273.644 469.255
772 0 84.1471 13.1436 1106 113.829 273.797 463.777
773 0 87.1376 11.9581 1042 116.165 273.658 466.094
774 1 48.0175 11.5166 553 111.179 273.772 484.423
775 0 48.0186 11.3289 544 113.441 272.884 484.189
776 0 50.0226 11.3948 570 109.56 272.654 484.54
777 0 51.0476 11.362 580 103.431 274.069 481.495
778 0 52.1026 11.2086 584 103.868 274.348 478.834
779 0 53.0877 10.3414 549 105.792 274.051 480.583
780 0 55.048 10.6271 585 105.73 274.236 479.082
781 0 57.0669 12.3189 703 102.808 274.174 477.683
782 0 57.0904 11.2979 645 107.729 274.087 476.357
783 0 59.101 11.7934 697 105.851 274.199 477.387
784 0 62.0881 11.8058 733 110.434 274.158 477.757
785 0 65.025 12.7336 828 107.428 274.658 476.841
786 0 65.0791 13.3069 866 105.447 275.113 477.268
787 0 67.1537 12.7915 859 109.028 273.567 474.483
788 0 70.0319 12.9512 907 107.634 274.105 474.413
789 0 73.0508 11.581 846 110.865 274.307 473.537
790 0 76.0916 13.0763 995 112.958 273.985 470.2
791 0 77.1218 11.6569 899 118.923 274.144 469.923
792 0 82.0772 12.9634 1064 114.63 274.281 468.911
793 0 83.1052 12.5263 1041 117.542 273.648 466.199
794 0 87.1075 12.8806 1122 116.306 273.408 465.111
795 0 91.1728 13.107 1195 116.238 274.382 464.577
796 1 45.0648 10.7179 483 113.853 273.7 484.899
797 0 47.069 11.3875 536 108.149 273.793 486.071
798 0 49.0444 10.5415 517 111.282 273.843 483.53
799 0 51.0265 12.2485 625 103.502 273.722 483.672
800 0 50.0216 11.0752 554 108.5 273.917 483.729
801 0 53.0259 11.8621 629 105.965 273.657 480.989
802 0 55.0696 10.9679 604 99.9801 273.801 479.381
803 0 56.0328 10.7259 601 101.539 274.191 478.012
804 0 56.0776 11.9656 671 100.303 274.227 477.364
805 0 58.041 11.6986 679 101.109 273.255 477.37
806 0 61.0502 11.4823 701 101.243 273.402 477.1
807 0 63.0282 11.9788 755 101.886 273.616 473.84
808 0 63.054 11.2126 707 104.583 273.195 473.255
809 0 66.0433 11.977 791 105.206 274.351 473.331
810 0 68.0439 11.4632 780 106.903 273.591 474.5
811 0 71.0527 13.0185 925 104.882 274.361 471.735
812 0 74.0556 12.3961 918 108.664 273.467 471.051
813 0 76.1084 12.272 934 111.671 272.671 468.751
814 0 78.087 12.5373 979 114.304 273.44 466.412
815 1 40.1116 10.1966 409 111.181 273.897 487.438
816 0 40.0677 11.1561 447 112.772 273.521 484.593
817 0 42.1831 10.976 463 118.199 272.721 485.318
818 0 43.2202 12.4248 537 116.02 272.94 484.194
819 0 43.0417 11.1752 481 109.748 274.794 481.703
820 0 44.0194 11.3359 499 109.85 274.371 480.786
821 0 45.025 10.6163 478 111.987 274.508 481.5
822 0 47.0295 12.035 566 111.042 274.781 479.299
823 0 48.0445 11.4477 550 112.38 275.084 479.007
824 0 51.0604 12.1033 618 110.204 274.351 478.099
825 0 51.047 11.2837 576 112.425 275.16 479.639
826 0 53.0309 12.3701 656 109.137 274.627 478.047
827 0 54.08 11.483 621 110.805 274.625 477.134
828 0 57.0262 12.1348 692 109.462 275.017 474.923
829 0 58.033 11.683 678 111.267 274.832 475.14
830 0 61.034 13.4515 821 105.822 274.268 473.117
831 0 64.0341 12.8057 820 105.237 274.087 474.494
832 0 62.1331 12.5215 778 107.937 273.445 471.999
833 0 65.0468 12.0375 783 109.12 274.516 470.656
834 0 67.058 11.1843 750 110.109 273.748 470.704
835 0 70.0289 12.2521 858 108.295 274.549 466.549
836 0 73.0341 13.1993 964 105.143 274.16 466.137
837 0 74.2075 12.3707 918 107.646 273.95 463.954
838 0 80.177 13.8319 1109 104.204 273.546 464.187
839 0 80.1515 11.9773 960 109.802 273.857 462.483
840 0 81.2423 11.8165 960 111.635 274.499 460.89
841 1 40.0564 9.43669 378 106.23 274.243 483.159
842 0 44.0192 10.609 467 104.672 274.546 481.208
843 0 44.0712 10.5965 467 104.244 274.51 483.732
844 0 45.0181 10.5513 475 104.865 274.145 481.829
845 0 47.0937 11.0843 522 103.699 273.626 480.791
846 0 48.0565 10.342 497 105.431 273.175 478.372
847 0 50.0627 12.7241 637 110.95 273.626 483.283
848 0 52.0689 11.4656 597 109.186 273.032 480.293
849 0 52.0411 13.0089 677 111.586 272.86 481.239
850 0 51.014 10.2717 524 107.781 273.786 477.229
851 0 54.0455 11.5458 624 105.154 273.33 476.944
852 0 57.0521 10.9549 625 105.963 273.459 476.781
853 0 61.0622 12.3317 753 104.019 273.51 474.653
854 0 62.1383 11.6997 727 104.689 273.981 474.952
855 0 64.092 11.7019 750 106.257 273.265 472.356
856 0 65.1319 12.0218 783 105.893 273.506 472.049
857 0 67.075 12.4637 836 106.572 273.75 469.584
858 0 70.0793 12.757 894 107.023 273.524 468.947
859 0 72.0602 12.0871 871 108.786 273.139 467.576
860 0 73.2147 12.6477 926 110.321 273.231 465.705
861 0 76.1592 12.9334 985 110.663 273.495 464.306
862 0 78.2638 11.6912 915 113.531 274.148 465.248
863 1 40.0439 11.3376 454 107.659 273.183 484.925
864 0 41.0211 10.8968 447 118.678 272.761 485.315
865 0 43.0479 12.0331 518 117.201 272.654 484.035
866 0 44.0233 12.5615 553 116.886 272.752 483.206
867 0 45.0663 12.0045 541 117.261 273.261 483.096
868 0 47.0443 12.095 569 118.172 272.466 480.64
869 0 48.0197 12.2033 586 118.664 273.628 482.398
870 0 51.042 12.813 654 116.459 272.934 482.269
871 0 54.0577 13.2266 715 114.417 273.284 480.785
872 0 54.0968 12.4776 675 117.784 273.145 479.419
873 0 56.0667 12.6813 711 117.923 273.419 478.207
874 0 57.0753 14.6648 837 113.232 274.281 476.725
875 0 59.1024 13.4681 796 115.357 273.977 476.784
876 0 61.1094 13.8931 849 113.698 274.548 476.022
877 0 63.1122 13.5948 858 114.288 274.388 476.058
878 0 65.2825 13.679 893 115.362 274.571 474.405
879 0 67.2374 13.9803 940 114.882 273.53 473.81
880 0 69.1465 14.2306 984 115.473 274.054 471.02
881 0 69.1653 13.0701 904 115.4 274.135 473.569
882 0 73.1283 13.4285 982 113.845 273.607 471.223
883 0 76.1128 12.9676 987 115.023 273.535 470.198
884 0 77.1278 13.6008 1049 114.203 274.288 467.725
885 0 78.0549 12.8115 1000 118.107 273.519 467.536
886 0 83.1019 13.3691 1111 118.883 273.333 466.061
887 1 41.0487 11.1087 456 115.789 273.704 485.083
888 0 40.0207 12.1937 488 117.922 274.125 484.107
889 0 42.0204 12.1132 509 116.686 273.462 484.141
890 0 44.0576 12.7787 563 115.824 273.666 483.055
891 0 44.0364 12.4897 550 117.993 274.491 482.787
892 0 47.0644 12.3023 579 117.102 274.435 481.085
893 0 46.0525 10.8355 499 110.531 274.058 482.168
894 0 47.0683 11.5577 544 108.318 274.294 479.537
895 0 53.0248 12.2018 647 104.903 274.292 481.15
896 0 53.073 11.2298 596 109.208 274.403 480.544
897 0 53.1227 11.0875 589 111.353 274.032 480.479
898 0 56.0557 13.3082 746 105.988 273.983 475.942
899 0 59.0374 12.7885 755 107.466 273.845 476.515
900 0 60.3064 11.7069 706 113.514 273.881 477.837
901 0 60.0607 11.9879 720 110.239 273.931 473.331
902 0 65.1743 12.3055 802 108.865 273.914 473.474
903 0 65.0706 11.4798 747 112.578 273.822 472.288
904 0 69.1917 13.3976 927 107.915 274.154 471.093
905 0 72.1823 13.4382 970 107.092 274.146 471.518
906 0 73.153 12.7814 935 109.47 274.079 467.544
907 0 76.1104 11.8249 900 111.663 273.857 467.719
908 0 78.0885 10.4241 814 114.48 273.953 466.446
909 1 40.0285 9.74305 390 110.215 273.949 486.492
910 0 42.0914 10.6435 448 108.516 274.877 484.25
911 0 44.0697 12.6845 559 105.14 274.778 482.467
912 0 45.0088 11.3978 513 106.211 273.862 482.706
913 0 45.0422 11.8112 532 105.586 273.338 483.295
914 0 47.0257 11.8871 559 105.925 273.562 481.64
915 0 47.094 10.1074 476 109.466 274.271 480.424
916 0 50.0269 12.5732 629 104.386 273.24 479.596
917 0 53.0953 12.4681 662 103.151 273.539 480.382
918 0 55.0234 12.1221 667 105.19 273.129 477.933
919 0 58.0084 13.3601 775 100.77 273.939 477.615
920 0 60.0684 13.5679 815 100.704 273.029 475.734
921 0 61.0601 12.5614 767 103.432 273.476 475.584
922 0 62.0698 12.5504 779 104.858 273.621 473.499
923 0 65.0498 12.0984 787 105.227 273.654 472.813
924 0 67.0487 13.2143 886 102.69 273.463 471.956
925 0 69.0263 11.7491 811 105.011 273.688 472.337
926 0 72.1331 14.1405 1020 100.875 272.766 467.974
927 0 75.0788 12.6933 953 103.283 272.876 468.004
928 0 76.1524 12.5144 953 104.271 273.358 466.029
929 0 76.0562 12.0306 915 106.054 273.623 463.532
930 0 81.075 12.0136 974 104.914 273.272 463.038
931 1 39.0597 8.62782 337 103.774 273.202 485.053
932 0 42.0664 10.3883 437 108.535 272.689 484.634
933 0 44.0322 12.4454 548 97.7591 273.61 484.89
934 0 44.0321 10.8784 479 99.7161 273.428 483.739
935 0 46.028 11.3192 521 99.4837 273.582 481.904
936 0 49.0726 12.777 627 95.9681 274.279 481.274
937 0 49.0276 10.6471 522 101.034 274.038 479.761
938 0 51.0664 12.5523 641 97.7754 273.769 480.154
939 0 51.0331 11.6003 592 101.812 273.686 478.88
940 0 54.0214 12.2174 660 100.845 273.859 476.48
941 0 57.0551 12.3214 703 100.97 273.509 475.457
942 0 60.0569 13.021 782 100.082 273.088 475.673
943 0 62.1666 12.4182 772 101.718 273.263 473.048
944 0 64.0607 13.3936 858 100.866 273.502 470.612
945 0 66.0731 14.1056 932 99.8691 273.292 471.513
946 0 67.0599 13.5252 907 102.895 273.14 471.644
947 0 71.0823 13.9556 992 101.185 273.707 470.045
948 0 72.0534 13.49 972 104.864 273.529 466.974
949 0 75.1001 13.2623 996 105.501 273.937 466.564
950 0 79.0515 13.7758 1089 103.466 273.783 465.79
951 0 79.1182 12.9553 1025 106.64 273.808 464
952 0 84.0726 13.1791 1108 105.872 273.257 461.504
953 1 45.0655 12.1379 547 101.501 273.112 482.448
954 0 45.0298 11.9476 538 108.922 273.123 481.755
955 0 46.1321 11.5538 533 109.619 273.469 478.379
956 0 46.0853 11.7391 541 108.481 273.582 479.213
957 0 49.1092 10.9756 539 109.685 273.032 478.352
958 0 48.0581 10.5081 505 112.174 273.418 477.586
959 0 52.1214 11.3197 590 108.795 273.03 476.522
960 0 54.0905 11.7026 633 108.397 272.428 476.057
961 0 54.1085 12.0683 653 108.429 272.629 474.554
962 0 56.0477 10.8479 608 109.773 272.411 473.62
963 0 59.1089 11.8087 698 106.689 272.794 474.639
964 0 62.1355 13.1648 818 103.621 273.444 473.231
965 0 64.0633 12.2067 782 106.262 272.817 470.632
966 0 67.0724 13.1649 883 103.851 272.656 469.335
967 0 68.0746 12.2513 834 106.934 272.948 470.098
968 0 72.0388 11.827 852 108.304 272.493 468.658
969 0 75.0356 12.5807 944 105.99 272.345 469.061
970 0 78.1453 13.1166 1025 105.497 273.236 466.454
971 0 80.0679 13.014 1042 103.744 272.508 463.861
972 0 83.1428 13.8797 1154 101.315 272.773 464.279
973 0 85.0391 12.8176 1090 105.261 273.104 462.548
974 1 45.0755 12.3348 556 101.718 272.845 480.924
975 0 47.1142 11.5676 545 103.677 273.2 480.29
976 0 49.0617 12.7798 627 100.29 273.278 482.123
977 0 50.033 11.5724 579 103.532 273.629 479.731
978 0 50.1871 12.5132 628 102.409 273.9 478.231
979 0 50.0095 12.2377 612 103.116 273.542 476.971
980 0 55.0621 13.2941 732 99.959 273.578 475.836
981 0 55.0629 12.295 677 103.024 273.64 474.53
982 0 59.2046 13.7489 814 105.516 273.994 476.21
983 0 59.078 13.5753 802 108.581 272.988 475.459
984 0 62.2218 12.8733 801 109.212 273.454 476.869
985 0 63.2028 13.1956 834 109.48 273.126 476.68
986 0 67.1921 13.3349 896 107.629 273.752 473.338
987 0 69.1038 13.6027 940 105.777 273.705 473.338
988 0 71.0537 12.7369 905 107.55 273.45 472.972
989 0 73.0592 12.004 877 109.883 273.769 470.203
990 0 75.1434 12.8687 967 107.936 273.806 468.814
991 0 81.1177 13.7331 1114 105.767 273.846 467.419
992 1 40.1258 11.5387 463 110.309 273.92 485.006
993 0 43.0629 10.4963 452 103.281 275.004 486.971
994 0 46.1375 11.9859 553 105.613 274.165 484.678
995 0 47.0163 12.6339 594 102.441 274.288 482.702
996 0 48.0366 12.3864 595 103.985 274.565 482.649
997 0 49.08 13.6308 669 102.387 274.628 482.155
998 0 53.0464 13.4222 712 100.782 274.233 481.563
999 0 53.0833 12.5652 667 103.346 274.52 481.162
1000 0 55.041 12.2091 672 103.824 275.076 479.985
1001 0 56.0528 12.399 695 103.852 274.564 477.793
1002 0 59.1704 12.4386 736 102.84 274.257 478.61
1003 0 60.0482 11.9904 720 104.411 274.247 478.61
1004 0 64.0889 12.0458 772 103.179 273.611 476.558
1005 0 65.1657 13.6115 887 100.78 274.284 474.626
1006 0 66.0607 12.2463 809 104.81 273.933 473.786
1007 0 67.169 12.4462 836 106.188 274.019 471.25
1008 0 72.1577 13.5259 976 103.565 273.11 469.91
1009 0 73.1434 12.7421 932 106.818 274.473 469.382
1010 0 77.1474 12.7289 982 106.745 272.982 467.588
1011 0 79.2273 12.8112 1015 108.403 273.178 466.03
1012 0 82.2826 12.4449 1024 110.436 273.012 464.527
1013 0 85.179 13.3718 1139 109.007 273.442 462.607
1014 1 45.133 12.9838 586 103.773 272.758 483.292
1015 0 44.0594 12.12 534 108.933 273.348 484.356
1016 0 49.1422 14.4072 708 99.8856 272.562 481.174
1017 0 47.1129 12.3109 580 104.967 273.46 482.236
1018 0 49.0499 11.7228 575 106.904 272.911 482.082
1019 0 52.1212 12.1256 632 105.617 273.669 480.57
1020 0 53.0659 12.5693 667 106.897 273.775 481.372
1021 0 55.0923 12.2703 676 108.173 273.717 478.456
1022 0 57.1402 12.4606 712 108.494 273.295 477.249
1023 0 59.2346 12.5602 744 108.55 273.301 477.854
1024 0 63.1269 12.0868 763 110.054 273.244 476.364
1025 0 60.1268 11.9747 720 113.203 273.901 473.496
1026 0 66.0794 11.8645 784 112.023 273.511 473.967
1027 0 68.1441 13.4861 919 109.399 273.415 472.782
1028 0 68.1191 13.1388 895 112.059 273.254 471.522
1029 0 74.154 13.5933 1008 109.277 273.184 471.127
1030 0 74.1201 13.7075 1016 109.92 273.253 469.211
1031 0 77.2167 14.1938 1096 109.343 273.654 468.247
1032 0 80.0922 12.2733 983 113.81 274.258 467.753
1033 0 83.3039 13.0966 1091 112.824 273.687 465.688
1034 0 86.1712 13.5892 1171 112.39 273.977 465.518
1035 0 92.2252 13.4887 1244 113.043 273.458 464.353
1036 0 93.2779 14.698 1371 111.767 273.577 459.071
1037 0 98.2206 13.8871 1364 113.955 274.26 458.729
1038 0 100.271 13.992 1403 113.627 274.355 458.418
1039 1 51.1552 12.7455 652 110.756 274.442 480.402
1040 0 53.2067 10.7129 570 115.016 273.889 482.572
1041 0 55.094 13.3771 737 110.969 274.518 480.077
1042 0 56.0286 13.5467 759 111.385 273.843 478.265
1043 0 58.0442 13.3002 772 111.592 274.396 478.315
1044 0 60.0625 12.5536 754 113.288 273.806 478.568
1045 0 63.0384 13.2142 833 111.154 274.329 477.504
1046 0 65.0927 13.5038 879 111.486 273.752 474.827
1047 0 68.1609 13.0867 892 112.228 274.45 474.748
1048 0 69.1152 12.689 877 114.251 273.954 471.611
1049 0 73.113 13.4449 983 111.601 274.178 472.253
1050 0 75.0925 13.4368 1009 113.369 273.676 469.016
1051 0 75.1316 12.924 971 115.933 273.48 469.589
1052 0 78.1268 12.4669 974 118.547 273.455 468.261
1053 0 82.0919 13.022 1069 119.42 273.6 465.438
1054 0 87.1449 14.1488 1233 115.391 273.745 465.653
1055 0 89.2077 13.5975 1213 118.596 273.886 461.625
1056 0 91.2955 12.7279 1162 120.599 273.854 460.929
1057 0 96.2162 14.3323 1379 116.658 273.943 458.438
1058 1 47.1756 10.0688 475 115.621 273.817 484.509
1059 0 51.0461 10.8725 555 112.514 274.029 481.748
1060 0 51.1401 11.2632 576 113.917 274.014 478.151
1061 0 53.0208 10.7505 570 114.284 273.932 478.335
1062 0 56.0597 11.2023 628 111.662 274.049 480.062
1063 0 58.0899 11.7921 685 111.182 274.048 478.042
1064 0 60.1049 11.4134 686 111.964 274.305 477.192
1065 0 62.0977 12.1744 756 110.62 273.713 476.071
1066 0 62.0448 11.3789 706 112.551 273.881 476.783
1067 0 64.0848 11.9061 763 112.318 273.969 473.16
1068 0 67.0234 13.264 889 110.351 273.816 472.097
1069 0 68.0794 11.7363 799 113.781 273.736 473.598
1070 0 73.154 12.6719 927 111.03 273.371 469.798
1071 0 76.0536 12.8988 981 110.351 274.266 469.504
1072 0 76.0649 12.2921 935 113.703 273.876 467.64
1073 0 80.0676 12.377 991 112.638 273.885 466.118
1074 0 80.0378 12.5816 1007 112.81 273.502 464.439
1075 0 86.0404 13.238 1139 110.544 273.209 464.582
1076 0 90.0611 12.758 1149 112.2 273.486 462.581
1077 0 92.0763 13.0218 1199 111.896 272.972 459.055
1078 1 47.0888 10.1298 477 112.811 273.568 483.612
1079 0 50.1002 12.1556 609 109.217 273.993 481.314
1080 0 53.0271 10.9001 578 107.785 273.196 477.313
1081 0 52.0308 11.7046 609 107.105 273.049 477.563
1082 0 54.075 11.1882 605 107.631 273.253 476.603
1083 0 56.0517 11.8284 663 106.953 273.662 477.186
1084 0 56.0558 11.7918 661 107.389 272.47 474.033
1085 0 58.0951 11.8082 686 106.681 273.496 474.108
1086 0 61.0794 11.2313 686 107.367 273.439 474.746
1087 0 63.0455 12.2768 774 107.178 273.487 472.451
1088 0 63.0997 12.4565 786 107.922 272.901 473.523
1089 0 64.027 11.214 718 112.614 273.631 472.921
1090 0 66.2549 11.7425 778 112.032 273.877 470.132
1091 0 68.1305 11.5807 789 113.989 273.64 471.587
1092 0 69.0848 12.6077 871 113.643 273.392 471.82
1093 0 69.158 12.0449 833 119.315 272.91 469.8
1094 0 73.2098 13.4818 987 115.458 272.616 469.306
1095 0 73.0976 15.3493 1122 111.542 272.542 468.61
1096 0 72.1067 13.4245 968 119.785 273.376 468.686
1097 0 75.0712 13.4939 1013 120.265 273.892 469.013
1098 0 74.0833 14.3352 1062 120.927 273.849 469.255
1099 1 39.0266 10.6594 416 130.781 273.849 487.404
1100 0 38.0136 11.4959 437 127.535 274.625 485.135
1101 0 39.0234 11.7109 457 127.621 275.083 485.864
1102 0 38.1657 11.7383 448 131.993 273.859 486.661
1103 0 40.0119 11.2466 450 128.862 274.587 486.32
1104 0 40.0089 11.1975 448 130.453 273.911 484.558
1105 0 41.0908 11.3164 465 128.14 274.606 486.258
1106 0 42.0084 11.5691 486 127.023 274.607 484.891
1107 0 42.0735 11.6701 491 125.572 274.633 484.505
1108 0 42.0956 11.3789 479 126.443 274.397 483.852
1109 0 42.051 11.7476 494 126.063 274.496 484.19
1110 0 40.067 10.782 432 132.192 274.368 483.773
1111 0 42.0377 12.2033 513 125.69 273.71 483.848
1112 0 42.0683 11.8141 497 126.217 273.976 484.137
1113 0 43.0311 12.2702 528 124.513 274.453 483.515
1114 0 43.0742 11.19 482 132.214 274.485 484.981
1115 0 45.066 12.1821 549 127.989 274.525 485.665
1116 0 45.0432 11.8997 536 129.321 273.618 486.099
1117 0 44.0351 12.2402 539 126.028 274.019 483.119
1118 0 42.0386 11.537 485 128.258 274.231 483.635
1119 0 46.0186 13.0817 602 123.287 274.402 484.156
1120 0 44.0646 12.8448 566 124.314 273.993 482.76
1121 0 44.1001 11.6553 514 124.714 274.257 482.393
