time division length width area intensity CMx CMy
0 0 157.461 13.5843 2139 115.963 357.944 410.683
1 1 82.1733 12.5101 1028 119.312 358.323 448.183
2 0 86.3211 13.0675 1128 117.692 357.728 444.93
3 0 90.1103 13.1949 1189 114.176 357.891 443.466
4 0 91.1672 13.02 1187 114.158 357.837 445.316
5 0 95.2009 12.4474 1185 115.319 357.173 444.941
6 0 98.0746 13.245 1299 113.844 358.353 440.477
7 0 101.176 14.1437 1431 111.697 358.567 438.201
8 0 104.305 13.2016 1377 114.065 358.177 435.3
9 0 107.175 12.8295 1375 114.281 358.114 435.305
10 0 111.252 12.5392 1395 113.727 357.989 435.507
11 0 116.222 12.4245 1444 114.593 358.68 427.688
12 0 121.141 12.3328 1494 112.229 360.42 429.729
13 1 67.0889 11.8649 796 114.131 359.666 453.935
14 0 69.0491 12.6721 875 112.955 359.819 452.688
15 0 68.0948 11.3665 774 117.404 359.751 451.339
16 0 71.0224 12.7565 906 114.994 359.429 448.943
17 0 75.1605 11.9611 899 116.763 359.712 447.511
18 0 78.1941 12.7503 997 114.88 360.192 445.321
19 0 77.0595 10.9526 844 119.974 359.956 445.596
20 0 82.1417 12.7828 1050 113.604 359.161 445.297
21 0 85.0993 11.4807 977 118.79 359.405 439.209
22 0 88.1351 12.1404 1070 117.761 359.315 434.804
23 0 90.072 12.6676 1141 117.036 359.152 435.584
24 0 94.05 12.4933 1175 116.631 360.402 436.359
25 0 97.1398 11.3239 1100 121.888 360.586 432.922
26 0 96.1142 12.4956 1201 119.346 360.358 433.868
27 0 103.179 11.7853 1216 121.322 359.618 427.461
28 0 108.353 12.1178 1313 119.874 359.588 427.261
29 0 111.274 12.2041 1358 120.266 359.213 426.735
30 1 63.1231 8.06361 509 129.972 360.263 447.073
31 0 63.0891 11.2856 712 120.383 360.603 445.319
32 0 67.1361 12.2289 821 115.72 359.942 446.625
33 0 69.1768 12.3307 853 113.395 360.524 448.035
34 0 73.0565 12.1824 890 112.908 360.007 449.333
35 0 70.0776 11.5443 809 119.044 359.24 442.669
36 0 68.101 10.7047 729 124.115 359.232 440.217
37 0 77.1406 12.017 927 117.615 358.991 440.351
38 0 76.2224 11.414 870 122.497 359.356 436.955
39 0 78.0897 12.9595 1012 118.557 359.652 437.833
40 0 86.0854 14.5785 1255 109.602 359.781 436.25
41 0 80.3257 13.1714 1058 119.022 360.753 435.693
42 0 82.1108 12.13 996 123.823 360.279 431.963
43 0 89.1335 11.6567 1039 123.128 360.148 433.426
44 0 90.1261 11.8168 1065 123.653 360.431 431.512
45 0 91.0822 11.9672 1090 125.199 360.273 428.022
46 0 95.1505 12.6221 1201 122.291 360.295 427.704
47 0 95.0949 12.3351 1173 124.579 360.386 424.506
48 0 101.281 12.3419 1250 123.055 360.474 424.147
49 0 104.138 13.2996 1385 119.834 360.238 424.173
50 0 104.123 11.8609 1235 125.02 360.118 422.185
51 1 116.174 12.464 1448 119.032 360.242 417.805
52 0 120.093 12.557 1508 119.251 359.922 413.43
53 0 124.242 12.2824 1526 121.09 360.72 415.842
54 0 124.234 12.6294 1569 121.889 360.367 412.848
55 0 132.455 12.0796 1600 121.507 360.569 411.129
56 0 132.32 12.243 1620 121.196 360.411 407.216
57 0 142.258 14.9166 2122 112.21 360.309 409.045
58 0 147.264 12.4946 1840 119.212 359.784 407.948
59 0 151.291 13.6889 2071 115.814 359.082 405.204
60 0 159.222 12.6239 2010 117.97 359.44 401.817
61 0 164.285 12.4905 2052 118.973 359.666 396.996
62 0 170.267 13.6139 2318 115.234 360.447 399.467
63 0 175.29 13.047 2287 117.798 360.493 397.133
64 0 183.374 13.6715 2507 115.657 360.447 390.356
65 0 184.324 11.5937 2137 121.404 359.45 384.341
66 0 192.29 14.0569 2703 114.529 359.863 388.648
67 0 200.271 12.8376 2571 118.367 359.781 380.535
68 0 209.444 12.5809 2635 117.554 360.377 381.002
69 0 217.249 12.6123 2740 117.742 360.643 379.21
70 0 224.217 11.4487 2567 121.303 360.053 367.822
71 0 227.437 9.93683 2260 122.345 360.092 376.346
72 0 226.409 9.27085 2099 159.828 361.135 378.77
73 1 181.432 9.43604 1712 118.297 359.277 394.01
74 0 190.231 11.2021 2131 114.73 359.675 387.115
75 0 192.634 10.5381 2030 118.976 359.691 383.441
76 0 199.41 12.3264 2458 115.066 360.148 385.784
77 0 206.479 11.0326 2278 117.85 359.867 380.602
78 1 65.1619 9.71426 633 99.3033 359.479 459.248
79 0 62.1266 9.52893 592 102.269 358.968 455.863
80 0 69.1206 10.2285 707 100.069 358.932 455.543
81 0 66.1433 9.61548 636 102.726 359.591 456.458
82 0 71.0884 8.36986 595 104.4 359.271 451.064
83 0 70.1027 10.0281 703 101.954 360.09 453.976
84 0 70.1392 8.96788 629 105.107 360.296 452.72
85 0 75.0999 9.20108 691 103.476 359.994 452.987
86 0 74.1077 7.85344 582 106.838 359.51 449.392
87 0 81.0967 9.43318 765 101.19 360.018 453.037
88 0 81.2345 10.8698 883 99.5991 359.967 451.366
89 0 83.2566 8.70802 725 103.727 359.076 446.782
90 0 83.2434 11.8928 990 97.8404 359.852 445.723
91 0 88.2754 9.06255 800 101.83 359.215 442.244
92 0 94.3379 8.64976 816 99.5895 359.922 439.066
93 0 94.3702 6.93016 654 99.5673 359.271 437.956
94 0 97.2507 7.74288 753 95.7065 358.867 443.082
95 0 99.1921 4.63747 460 100.939 359.391 432.617
96 0 99.2671 6.29614 625 98.9248 359.339 431.763
97 0 102.314 6.3432 649 98.9276 359.857 430.427
98 1 57.0744 9.23356 527 84.4231 359.199 462.04
99 0 62.2232 8.74272 544 81.0331 358.923 462.818
100 0 63.1598 10.6397 672 75.6637 359.356 464.652
101 0 62.038 10.4452 648 77.8318 359.35 461.741
102 0 66.1052 10.1354 670 78.1209 359.551 461.849
103 0 68.0975 10.0591 685 78.9022 359.647 460.642
104 0 71.1809 10.3539 737 79.4532 360.014 458.455
105 0 73.1395 10.4184 762 79.7231 359.677 459.365
106 0 74.154 11.8133 876 77.5685 359.305 455.395
107 0 75.0755 10.6826 802 80.4888 359.611 457.006
108 0 77.1379 10.0599 776 82.6765 360.041 456.339
109 0 79.101 10.3791 821 83.0292 359.752 453.756
110 0 80.1325 10.7073 858 82.965 359.86 456.688
111 0 83.1654 10.942 910 83.4176 360.266 453.412
112 0 88.2247 12.3662 1091 82.3987 359.45 427.373
113 0 90.1813 11.8095 1065 83.9117 358.691 415.375
114 0 93.0881 13.31 1239 81.5028 359.119 414.998
115 0 95.2233 12.56 1196 83.25 358.493 415.364
116 0 96.1479 11.2535 1082 86.2828 359.359 414.589
117 0 101.252 12.5627 1272 84.9253 359.081 415.182
118 1 53.0994 10.3579 550 86.7345 358.444 436.189
119 0 54.1739 11.4077 618 84.8608 358.625 436.259
120 0 58.1523 11.3151 658 84.7842 358.74 435.605
121 0 59.1433 12.2753 726 82.292 360.107 433.985
122 0 59.2618 11.7445 696 84.6293 360.217 438.591
123 0 61.3176 12.8185 786 83.084 360.046 442.235
124 0 63.2296 12.1937 771 84.4695 359.425 442.995
125 0 64.1835 11.5762 743 86.7443 359.135 446.174
126 0 66.2505 13.1471 871 84.3754 359.712 446.258
127 0 67.1193 13.6176 914 83.6532 359.637 446.502
128 0 69.0736 13.9127 961 83.488 359.219 446.307
129 0 70.2024 13.2047 927 85.1909 358.285 446.867
130 0 73.1777 13.843 1013 83.6426 358.662 448.962
131 0 74.1034 12.2127 905 85.7127 358.69 450.046
132 0 77.2268 13.4021 1035 84.257 359.756 447.064
133 0 78.191 13.7228 1073 84.6869 358.876 446.066
134 0 80.1854 12.0221 964 88.3766 359.802 445.307
135 0 84.2722 13.9666 1177 84.051 359.593 448.596
136 0 88.1368 13.9669 1231 83.3656 359.444 446.562
137 0 87.3743 13.94 1218 84.4417 359.196 447.619
138 0 89.1625 11.8884 1060 87.3179 359.525 450.822
139 0 95.2539 13.1333 1251 85.2854 358.935 449.135
140 0 97.1476 12.8567 1249 86.2058 359.295 445.429
141 0 99.2027 13.2355 1313 86.4433 359.95 445.071
142 0 101.204 13.0331 1319 87.047 359.171 446.689
143 0 107.254 16.0553 1722 81.2799 359.553 440.627
144 0 109.211 13.4968 1474 86.5638 359.913 439.494
145 0 109.112 12.006 1310 90.3061 359.805 442.336
146 0 113.139 13.9917 1583 87.8275 358.377 440.874
147 1 61.1302 11.6309 711 95.0591 358.09 463.443
148 0 59.2355 10.6693 632 90.5839 357.788 457.18
149 0 63.1793 11.3328 716 79.1788 358.866 457.039
150 0 61.1241 13.3172 814 77.9079 359.468 455.939
151 0 67.1522 11.7643 790 79.1089 359.489 447.457
152 0 69.1532 12.494 864 77.7674 358.476 447.38
153 0 67.2375 9.90519 666 83.6787 359.219 447.182
154 0 73.1921 12.0915 885 78.8124 358.579 452.785
155 0 73.0506 9.89726 723 84.1798 358.282 448.138
156 0 80.0596 11.4789 919 80.1948 358.375 448.837
157 0 80.1109 11.2594 902 82.7051 359.257 447.246
158 0 83.175 10.9769 913 82.3363 358.687 446.711
159 0 87.1514 12.1513 1059 80.6648 358.652 447.192
160 0 86.3412 11.2113 968 85.0289 358.629 442.23
161 0 89.1579 12.2928 1096 83.5894 358.409 440.726
162 0 92.1381 11.6456 1073 85.2563 357.623 438.242
163 0 95.1559 11.9278 1135 86.6564 358.173 439.228
164 0 98.1612 11.8275 1161 87.6598 358.13 432.641
165 0 99.2164 13.0724 1297 87.734 358.316 432.372
166 0 102.449 12.0547 1235 90.0211 358.406 433.158
167 0 106.226 12.1722 1293 90.4687 358.803 429.182
168 0 109.237 11.5711 1264 91.3932 358.719 430.704
169 1 61.1655 11.7386 718 94.5515 358.783 461.167
170 0 62.2154 12.1353 755 93.6146 358.197 459.332
171 0 68.289 15.2587 1042 86.2073 358.517 457.258
172 0 68.3288 13.2887 908 92.3689 359.196 458.844
173 0 73.2862 18.1207 1328 81.2056 358.48 453.31
174 0 69.121 11.8632 820 97.1463 358.262 454.01
175 0 72.2269 12.4192 897 90.9275 359.446 460.459
176 0 72.1618 11.7514 848 93.8797 358.505 458.09
177 0 72.1716 12.0685 871 94.7623 358.148 454.264
178 0 77.244 12.8554 993 92.2729 357.297 446.667
179 0 79.3854 11.6016 921 94.1346 358.469 451.068
180 0 80.3181 12.1268 974 94.194 358.387 450.974
181 0 83.0887 10.9401 909 95.7107 358.931 451.233
182 0 87.0963 11.5275 1004 94.3835 359.338 451.361
183 0 92.1009 12.5515 1156 91.4429 358.785 442.482
184 0 93.1245 11.8658 1105 93.6643 358.518 447.211
185 0 96.1251 11.7867 1133 92.9047 358.394 444.683
186 0 99.1753 13.8139 1370 89.8752 358.28 440.582
187 0 100.104 10.8887 1090 94.133 358.799 441.635
188 0 106.126 12.8809 1367 90.2963 358.334 437.958
189 1 58.0866 11.2935 656 94.7713 357.869 460.727
190 0 60.1059 11.7459 706 92.3909 357.557 457.863
191 0 63.0678 12.2725 774 89.0788 357.364 461.647
192 0 62.1719 11.5808 720 90.3889 356.86 463.233
193 0 66.0893 11.9838 792 90.5253 357.669 460.16
194 0 64.0693 9.64581 618 95.9288 356.929 460.049
195 0 68.0602 11.9306 812 91.367 357.278 458.222
196 0 72.1131 11.898 858 90.8601 358.128 456.805
197 0 75.107 12.3424 927 88.8954 357.517 456.47
198 0 77.0666 12.1583 937 89.8762 356.953 453.98
199 0 79.1427 12.3322 976 89.375 356.631 453.748
200 0 81.205 12.3884 1006 90.4404 356.825 451.583
201 0 82.1305 11.3478 932 92.3852 356.714 452.865
202 0 88.1503 12.0136 1059 90.6837 357.092 449.324
203 0 87.0663 11.3477 988 93.1225 356.685 448.117
204 0 92.087 10.5335 970 94.2443 357.813 447.757
205 1 55.1347 11.0275 608 94.1974 358.998 462.151
206 0 54.2212 11.4346 620 92.6387 358.108 462.229
207 0 51.0575 11.8102 603 94.0464 357.617 457.665
208 0 54.1493 11.7453 636 92.8302 358.058 459.399
209 0 54.0489 10.8975 589 95.4177 357.475 457.993
210 0 59.1563 12.0528 713 91.8331 357.921 459.969
211 0 60.0513 11.4902 690 94.9783 357.525 455.887
212 0 60.1246 11.3764 684 96.1988 358.393 456.943
213 0 62.0603 11.6338 722 96.6607 358.233 454.42
214 0 66.0898 12.4376 822 95.2445 359.139 454.268
215 0 67.0536 12.8852 864 95.9028 359.404 453.59
216 0 69.07 11.9444 825 98.1273 359.933 451.805
217 0 69.0549 12.8014 884 97.112 359.617 451.798
218 0 77.1081 13.0077 1003 100.256 359.246 453.213
219 0 77.0929 11.8688 915 105.561 358.891 451.016
220 0 81.079 14.9854 1215 97.3218 359.359 448.71
221 0 86.0858 15.0431 1295 97.6224 359.223 444.598
222 0 87.1074 12.7084 1107 105.446 360.062 447.318
223 0 90.1354 12.4923 1126 106.638 359.243 450.115
224 0 95.2187 13.8418 1318 104.688 358.744 448.008
225 0 98.1074 14.637 1436 102.953 359.175 447.545
226 1 53.114 11.4471 608 105.755 358.436 465.992
227 0 56.0962 12.1755 683 96.5783 358.13 468.114
228 0 57.0843 14.0494 802 95.1434 357.032 465.298
229 0 60.0461 13.2232 794 96.2443 357.611 464.97
230 0 60.0917 12.7971 769 98.4486 358.238 464.486
231 0 60.1017 12.3291 741 100.853 358.821 463.677
232 0 62.0451 12.6198 783 100.72 359.464 463.478
233 0 66.0698 13.516 893 98.4076 359.626 463.636
234 0 66.0286 12.434 821 102.982 358.968 461.365
235 0 67.0843 13.0135 873 102.719 359.342 460.961
236 0 69.0465 13.2519 915 102.499 358.57 459.094
237 0 72.1925 13.6302 984 100.655 359.388 460.351
238 0 73.0865 12.6426 924 103.748 359.452 460.064
239 0 75.1215 13.4848 1013 103.654 359.404 457.145
240 0 78.0661 13.5398 1057 103.12 358.757 454.108
241 0 82.1216 13.8453 1137 102.243 358.7 452.766
242 0 84.1038 12.7343 1071 103.783 358.661 453.51
243 0 88.2079 13.3548 1178 102.968 358.51 448.593
244 0 90.2076 12.959 1169 104.182 358.151 447.308
245 0 92.102 12.2907 1132 106.004 358.837 446.679
246 0 97.1166 14.0141 1361 101.031 357.564 442.874
247 0 94.1395 12.0566 1135 107.63 358.001 440.395
248 0 101.187 12.8377 1299 104.959 358.285 440.236
249 0 100.147 14.1492 1417 102.577 358.44 438.572
250 0 101.238 14.1252 1430 103.578 358.715 433.683
251 0 105.162 14.7202 1548 99.7933 358.296 431.167
252 0 101.36 12.865 1304 105.883 357.676 428.559
253 0 107.093 11.9429 1279 106.719 358.03 431.293
254 0 110.3 12.321 1359 105.899 358.313 429.545
255 0 113.161 13.0875 1481 104.426 358.37 427.888
256 0 120.3 12.4272 1495 105.187 358.237 420.451
257 0 129.278 14.5191 1877 97.6414 358.344 415.241
258 1 73.1308 10.2556 750 98.732 358.703 451.273
259 0 77.1898 12.8385 991 97.4975 358.785 451.303
260 0 80.1436 12.6149 1011 93.3136 357.773 455.714
261 0 82.1264 11.4458 940 95.8181 358.466 452.669
262 0 86.1349 12.701 1094 93.4707 358.171 450.171
263 0 86.1018 12.5781 1083 96.0923 358.581 446.315
264 0 94.0834 12.8928 1213 99.5507 358.073 448.225
265 0 96.17 12.3531 1188 100.678 358.395 448.084
266 0 102.101 12.3408 1260 100.169 358.44 444.299
267 0 102.093 12.6061 1287 100.714 357.796 441.635
268 0 107.074 14.1585 1516 96.2394 357.909 444.245
269 0 107.162 12.3178 1320 101.409 357.85 441.323
270 0 112.115 12.8796 1444 99.2091 358.413 438.791
271 0 116.119 12.315 1430 99.7531 358.983 438.241
272 0 120.089 13.7732 1654 98.6034 359.187 436.238
273 0 121.158 12.8675 1559 102.429 359.128 427.134
274 0 126.171 13.2598 1673 101.347 359.353 420.427
275 0 129.133 13.0098 1680 101.564 359.013 425.347
276 0 132.255 13.6252 1802 101.086 359.632 424.193
277 0 139.208 12.7723 1778 102.195 359.296 420.476
278 0 142.184 13.5247 1923 102.153 359.456 418.342
279 0 145.324 14.5744 2118 99.9042 359.324 416.107
280 0 148.261 12.6803 1880 105.02 359.641 416.821
281 0 156.246 13.6004 2125 102.225 359.801 413.995
282 0 162.159 14.2144 2305 100.443 359.334 407.983
283 0 167.205 14.0905 2356 100.016 359.536 404.176
284 0 172.221 14.1156 2431 100.12 359.391 406.951
285 0 178.33 13.4919 2406 101.76 358.26 404.976
286 0 184.198 14.2564 2626 100.834 358.181 395.594
287 0 189.265 13.0452 2469 104.053 357.803 395.362
288 0 195.161 14.3472 2800 103.355 358.073 393.569
289 0 200.309 14.1082 2826 107.822 358.322 396.05
290 0 200.457 13.1499 2636 77.2868 358.297 393.744
291 1 102.061 10.5036 1072 89.7929 359.047 441.058
292 0 103.109 10.5616 1089 94.0808 359.058 446.354
293 0 106.077 10.7563 1141 95.1876 359.068 436.974
294 0 112.335 11.1008 1247 92.2382 357.911 439.379
295 0 115.177 10.4622 1205 92.1685 358.665 436.735
296 0 120.098 11.2908 1356 93.1431 357.827 428.701
297 0 127.248 11.9059 1515 93.0231 358.387 428.588
298 0 130.395 11.3042 1474 94.2469 358.164 426.191
299 0 136.426 11.1049 1515 94.5894 359.094 424.933
300 0 143.217 12.1075 1734 90.4423 358.992 422.839
301 0 145.312 10.2814 1494 94.9552 358.53 419.45
302 0 148.15 9.30811 1379 99.5917 358.265 423.658
303 0 152.174 11.4211 1738 98.2572 358.769 415.078
304 0 157.397 10.8388 1706 99.0991 358.633 412.218
305 1 70.0882 11.2858 791 95.5954 360.223 457.793
306 0 72.0815 11.7922 850 94.1506 359.975 456.876
307 0 72.0447 11.5067 829 95.7853 359.767 456.276
308 0 72.0889 11.6107 837 96.7288 359.319 453.108
309 0 78.0802 12.628 986 92.3093 360.227 451.423
310 0 80.1091 13.3942 1073 91.4259 360.075 450.882
311 0 79.1453 11.7253 928 97.1002 360.769 451.444
312 0 82.2039 11.7878 969 97.2797 360.829 449.005
313 0 85.2032 11.7953 1005 95.5552 360.6 450.082
314 0 87.1234 12.9701 1130 93.9469 359.949 446.877
315 0 89.1756 11.8194 1054 95.2059 360.14 448.643
316 1 50.0567 10.4082 521 91.6737 360.582 469.766
317 0 51.1196 10.0353 513 90.9786 360.164 468.669
318 0 52.202 10.6893 558 86.6039 359.674 469.532
319 0 54.0152 10.423 563 93.0835 360.824 466.041
320 0 54.0804 12.1856 659 90.1047 361.127 466.161
321 0 52.0787 10.6569 555 94.4577 360.715 463.193
322 0 57.0682 12.0908 690 90.8478 360.094 463.071
323 0 58.0625 11.8665 689 91.2032 360.257 464.261
324 0 61.0634 9.77672 597 96.0938 360.382 463.37
325 0 65.0741 11.8019 768 90.8568 360.514 462.352
326 0 62.0324 11.5423 716 93.3184 360.806 460.499
327 0 69.0571 12.048 832 90.8425 361.017 461.332
328 0 70.0481 12.8626 901 89.333 361.233 463.006
329 0 70.0509 13.2903 931 90.9506 361.24 458.562
330 0 71.0675 12.1997 867 92.4856 361.113 460.76
331 0 76.1162 13.3217 1014 88.7456 360.777 455.767
332 0 75.0689 12.6417 949 91.8409 360.009 455.492
333 0 79.1673 12.442 985 92.1431 360.127 456.759
334 0 81.0745 13.7528 1115 90.3112 360.114 452.919
335 0 82.0629 12.7463 1046 92.4761 361.177 453.906
336 0 84.1412 13.7388 1156 91.2448 360.935 452.984
337 0 86.0927 13.6132 1172 92.2295 360.741 452.969
338 0 89.1524 13.1685 1174 92.5894 359.914 450.682
339 0 93.3255 13.8762 1295 90.8795 360.331 450.413
340 0 94.1542 13.9452 1313 91.5857 359.57 446.112
341 0 99.1424 12.9914 1288 92.2205 359.561 448.063
342 1 49.0582 10.9869 539 87.436 360.187 472.852
343 0 51.1547 11.69 598 85.7291 360.343 471.186
344 0 53.034 11.0684 587 84.414 358.787 470.724
345 0 54.0947 11.6277 629 85.3752 358.596 465.674
346 0 56.2667 12.5474 706 83.8201 358.508 464.404
347 0 58.0795 11.5015 668 84.6856 358.729 465.428
348 0 60.1593 11.3199 681 85.7709 358.768 466.811
349 0 61.0832 12.2947 751 84.0959 358.081 465.309
350 0 64.0896 11.4059 731 85.9316 359.19 464.257
351 0 65.1017 12.9643 844 82.6315 358.834 461.855
352 0 68.0877 12.3077 838 84.0573 358.901 463.574
353 0 71.2238 13.2259 942 82.672 359.48 462.307
354 0 71.0681 12.2981 874 85.6396 358.506 459.355
355 0 74.068 12.7856 947 84.9324 357.78 459.069
356 0 75.1229 12.5927 946 86 358.086 458.914
357 0 78.0867 12.3068 961 83.5036 358.392 453.284
358 0 82.3057 13.3162 1096 81.1925 359.051 453.026
359 0 84.091 12.9978 1093 82.8207 358.658 450.366
360 0 85.1805 13.5125 1151 81.4405 358.571 454.585
361 0 89.0809 13.6842 1219 82.1148 358.84 445.129
362 0 93.1531 13.4295 1251 82.3205 358.82 445.725
363 0 93.1632 12.4298 1158 84.5527 358.694 445.918
364 0 96.2143 12.6177 1214 85.3072 358.353 444.617
365 0 98.1141 11.9351 1171 87.3356 358.88 449.252
366 0 102.204 11.3792 1163 88.0929 358.574 440.433
367 0 105.205 12.2047 1284 86.8217 358.344 443.452
368 0 109.127 12.151 1326 86.6916 358.823 436.79
369 0 114.185 12.9789 1482 85.6046 359.022 435.872
370 0 117.196 10.7938 1265 89.4372 359.436 437.734
371 0 120.336 12.2906 1479 89.2319 358.748 432.628
372 1 64.1442 10.5543 677 87.4919 358.641 461.573
373 0 68.1305 12.388 844 82.3614 358.507 462.7
374 0 68.1179 12.2288 833 82.9964 358.508 461.86
375 0 73.1496 11.9755 876 81.887 358.134 463.264
376 0 73.1303 12.047 881 83.1351 358.789 458.742
377 0 77.1916 12.7345 983 81.1882 358.355 458.291
378 0 79.0753 11.2551 890 82.9618 359.035 458.025
379 0 80.1899 10.8368 869 83.4499 358.133 451.632
380 0 84.1352 11.9094 1002 81.479 358.81 454.387
381 0 87.3004 11.7983 1030 81.6641 358.223 451.232
382 0 90.1048 11.7863 1062 81.8861 358.187 453.734
383 0 92.2168 10.8657 1002 84.0509 358.955 450.997
384 0 94.2375 12.5109 1179 84.2443 358.268 446.474
385 0 97.3084 11.3145 1101 84.3324 358.665 445.701
386 1 111.229 14.2139 1581 76.2732 358.018 438.677
387 0 113.198 17.6505 1998 70.6466 357.725 430.548
388 0 115.368 16.3391 1885 73.817 358.013 435.328
389 0 111.139 12.7678 1419 81.809 358.374 435.931
390 0 115.195 13.7766 1587 80.6106 358.002 441.476
391 0 111.181 8.82349 981 87.2029 358.211 436.292
392 1 67.1239 10.1752 683 78.8097 358.637 465.719
393 0 70.123 12.1073 849 77.139 359.029 463.528
394 0 72.3479 10.6983 774 78.6835 358.393 459.494
395 0 76.1816 11.2626 858 77.0723 358.612 461.226
396 0 76.1811 10.5144 801 79.4719 358.499 459.75
397 0 81.341 11.4211 929 79.2702 358.591 451.87
398 0 81.1997 10.0739 818 82.2531 358.127 446.592
399 0 84.0933 11.3445 954 81.3585 357.573 445.143
400 0 88.1574 11.2639 993 81.7684 357.677 446.675
401 0 92.2768 11.1729 1031 81.6062 358.008 450.815
402 0 92.3204 12.5108 1155 80.8952 358.605 449.837
403 0 97.3006 12.3946 1206 81.3267 358.628 449.646
404 0 97.1639 10.6315 1033 84.0213 358.001 447.886
405 0 101.335 11.1413 1129 86.1975 358.689 444.464
406 0 102.388 12.4526 1275 84.8588 357.818 447.661
407 0 104.185 10.7405 1119 88.9589 358.06 450.937
408 0 105.221 12.374 1302 89.0691 358.452 446.745
409 0 107.333 13.0622 1402 89.3602 357.724 443.243
410 0 105.479 12.7324 1343 91.5123 357.771 445.028
411 1 55.1253 11.2834 622 90.5177 357.752 470.429
412 0 57.0363 13.2547 756 86.2646 358.029 471.59
413 0 57.1067 11.6273 664 91.8328 357.411 470.688
414 0 60.1476 12.3363 742 90.8868 357.906 470.12
415 0 56.172 10.2364 575 97.3739 358.108 470.097
416 0 60.1673 11.4015 686 95.3965 358.198 468.848
417 0 62.1129 12.7188 790 92.9658 357.363 469.477
418 0 62.1533 12.5014 777 94.5264 357.575 469.516
419 0 64.0997 12.3402 791 94.8534 357.166 468.616
420 0 65.0921 12.6744 825 94.0618 357.641 467.402
421 0 64.1054 13.0566 837 96.6631 357.443 467.411
422 0 67.1466 13.2844 892 94.9877 357.985 468.677
423 0 67.1712 12.818 861 98.2149 357.933 466.286
424 0 70.1432 14.4989 1017 95.118 358.266 463.768
425 0 69.2202 13.002 900 100.601 357.571 465.517
426 0 69.1571 13.1006 906 103.193 357.276 463.317
427 0 71.2864 13.4808 961 102.673 357.609 463.439
428 0 74.1059 14.0744 1043 101.495 357.818 461.03
429 0 77.1268 14.353 1107 101.617 357.894 460.674
430 0 77.1055 12.7877 986 106.534 358.186 460.262
431 0 78.0924 13.6761 1068 105.887 357.887 459.411
432 0 80.1248 13.4915 1081 107.006 358.098 457.992
433 1 45.0862 12.5537 566 102.482 357.542 474.286
434 0 42.135 12.8871 543 105.694 357.105 473.599
435 0 42.2059 11.3965 481 116.037 357.289 474.324
436 0 45.1013 12.4609 562 112.984 356.603 472.55
437 0 45.128 13.6944 618 111.471 357.898 472.411
438 0 45.1107 11.8375 534 118.249 357.91 472.047
439 0 45.1313 12.4747 563 117.036 357.082 472.959
440 0 48.0645 13.4403 646 114.452 357.788 471.63
441 0 47.0956 13.5894 640 114.831 357.644 469.867
442 0 46.1134 13.6403 629 114.103 357.571 470.639
443 0 47.0811 13.5511 638 116.119 357.779 470.226
444 0 47.1788 13.2687 626 114.342 357.604 471.938
445 0 46.0525 11.5086 530 114.277 357.296 466.549
446 0 48.1361 12.9217 622 110.566 357.598 466.661
447 0 48.0704 12.4193 597 112.543 358.73 463.794
448 0 48.0236 12.7021 610 113.625 358.941 463.352
449 0 48.1581 12.0437 580 117.471 359.04 462.536
450 0 49.1094 12.686 623 113.549 359.178 463.669
451 0 47.0289 11.9076 560 120.138 358.773 464.157
452 0 49.0553 11.9457 586 119.616 358.776 462.304
453 0 49.1381 12.9228 635 117.236 358.644 458.885
454 0 49.0512 12.2321 600 120.272 358.96 466.012
455 0 47.1417 12.1973 575 128.393 358.282 467.694
456 0 49.0954 12.6285 620 125.755 358.256 467.256
457 0 50.0514 12.7469 638 124.53 358.723 466.807
458 0 50.0607 12.9043 646 124.009 358.317 466.46
459 0 49.1149 12.0126 590 127.571 358.02 465.824
460 0 49.0471 12.3963 608 126.993 357.891 465.845
461 0 51.0549 12.8489 656 124.559 357.573 465.581
462 0 50.1377 12.8047 642 132.731 357.326 464.707
463 0 49.1013 13.3194 654 137.361 357.356 463.806
464 0 49.0987 12.5869 618 142.396 357.529 463.607
465 0 50.0809 12.4199 622 140.897 357.519 465.196
466 0 51.0962 13.0147 665 138.174 357.565 462.863
467 0 51.1053 13.9907 715 127.766 357.439 463.576
468 0 50.1897 12.8712 646 131.967 357.608 462.859
469 0 51.0955 12.5451 641 126.68 358.356 461.844
470 0 51.0424 13.5378 691 121.871 357.219 463.563
471 0 50.0947 11.1988 561 129.943 358.2 463.888
472 0 52.071 12.1757 634 123.987 358.514 462.273
473 0 51.0487 12.5762 642 125.486 358.179 461.544
474 0 52.0631 12.216 636 119.418 357.376 461.858
475 0 50.0367 11.9512 598 130.365 357.436 461.294
476 0 51.055 11.7325 599 150.003 356.831 458.87
477 0 52.1411 11.7374 612 149.418 357.905 459.712
478 0 53.0536 12.2706 651 144.74 357.584 459.409
479 0 56.1381 11.2579 632 148.766 356.9 456.889
480 0 56.0238 12.4054 695 143.721 357.627 455.862
481 0 56.0808 11.9114 668 143.981 357.653 456.001
482 0 59.0347 12.3317 728 139.808 357.872 455.577
483 0 59.0811 13.1176 775 136.28 357.014 455.535
484 0 60.081 13.1489 790 134.228 357.371 453.547
485 0 62.0813 13.579 843 129.209 357.078 452.743
486 0 58.0401 11.8539 688 134.5 357.147 454.618
487 0 63.0823 12.7611 805 129.555 358.158 458.612
488 0 63.0843 13.1253 828 126.527 358.143 460.668
489 0 67.1489 14.5795 979 131.964 358.253 466.166
490 0 69.1821 14.2667 987 130.411 358.273 466.868
491 0 70.0649 13.1164 919 134.015 358.224 466.672
492 1 38.0156 11.6794 444 134.428 358.622 480.698
493 0 39.0554 11.0356 431 131.309 358.162 481.527
494 0 40.0717 11.18 448 130.846 358.239 480.161
495 0 42.0558 12.9352 544 124.551 358.917 478.165
496 0 43.0264 12.3413 531 122.456 359.281 478.676
497 0 41.018 13.0431 535 118.564 358.411 479.493
498 0 41.0746 12.4895 513 119.774 358.6 479.938
499 0 44.0485 13.2127 582 114.531 358.242 479.182
500 0 45.1001 13.459 607 113.455 358.211 478.371
501 0 45.0401 13.4547 606 112.729 357.932 478.036
502 0 44.0398 12.9883 572 115.902 358.727 477.577
503 0 47.0649 13.4708 634 113.431 358.237 475.926
504 0 47.0898 13.2725 625 113.326 358.565 475.605
505 0 47.0565 13.2182 622 113.055 357.793 474.921
506 0 48.1537 13.9761 673 110.419 358.758 475.073
507 0 51.1238 13.6531 698 110.907 358.228 471.751
508 0 52.0279 13.4735 701 111.174 358.328 473.318
509 0 53.0735 14.2821 758 108.869 358.095 468.766
510 0 53.0286 12.7667 677 114.576 357.818 471.08
511 0 52.1272 13.2368 690 113.88 358.649 471.104
512 0 57.0434 14.1471 807 111.037 358.222 466.959
513 0 55.0232 13.8124 760 114.254 359.258 468.82
514 0 58.0499 14.367 834 110.67 358.734 464.926
515 0 57.0502 13.9351 795 114.447 359.468 464.299
516 0 58.0535 13.6081 790 115.411 359.177 463.614
517 0 59.0455 14.1924 838 113.592 358.388 462.699
518 0 60.0539 13.8043 829 115.723 358.357 460.107
519 0 65.0617 15.4469 1005 108.457 358.336 455.949
520 0 69.0429 17.0039 1174 102.199 357.728 451.676
521 0 73.1156 18.4092 1346 95.9354 358.025 447.262
522 0 74.1317 17.0103 1261 101.796 357.401 449.708
523 0 73.1105 16.6324 1216 104.709 357.775 448.876
524 0 74.0942 14.9 1104 110.949 357.547 453.23
525 0 72.0862 13.9416 1005 116.18 358.645 451.53
526 0 77.0693 14.2858 1101 114.812 358.078 453.566
527 1 44.0852 12.8842 568 117.713 358.296 470.243
528 0 44.093 12.2015 538 119.946 357.621 468.732
529 0 47.0791 13.5942 640 115.233 357.681 468.306
530 0 47.0865 13.4646 634 115.738 357.046 469.891
531 0 50.0348 13.3107 666 113.911 358.15 469.323
532 0 52.0392 14.2777 743 112.525 357.217 464.907
533 0 51.0625 13.2778 678 116.429 358.279 466.767
534 0 53.0491 13.5723 720 115.667 357.975 466.879
535 0 54.0717 13.0013 703 118.444 357.819 465.835
536 0 52.0609 12.8119 667 120.937 357.687 464.52
537 0 56.0469 12.7572 715 119.843 358.189 464.046
538 0 59.0645 13.5276 799 116.8 357.571 465.308
539 0 61.0626 14.5425 888 115.286 357.412 464.97
540 0 62.0991 14.8794 924 115.363 357.788 462.137
541 0 60.0665 13.0689 785 122.828 358.146 460.706
542 0 66.0923 13.9956 925 116.985 357.796 461.668
543 0 66.1006 14.5082 959 118.067 357.868 460.906
544 0 69.064 13.1183 906 120.955 357.754 460.275
545 0 71.0771 14.0692 1000 118.859 358.138 460.151
546 0 71.0588 12.9329 919 124.106 358.554 458.161
547 0 74.0894 13.2408 981 123.093 358.264 454.533
548 0 79.2328 13.656 1082 121.921 358.419 454.435
549 0 82.0733 13.9875 1148 120.452 357.693 452.891
550 1 39.0977 10.9469 428 114.54 357.963 475.61
551 0 40.0626 11.0577 443 115.643 358.339 474.332
552 0 41.0875 10.7089 440 114.241 358.534 476.318
553 0 41.104 11.3371 466 114.393 358.614 475.146
554 0 45.0462 13.8524 624 108.636 357.99 470.846
555 0 45.06 12.2503 552 108.341 358.558 471.627
556 0 46.052 12.8116 590 113.898 359.066 471.122
557 0 46.1374 12.2894 567 118.467 358.139 471.838
558 0 48.0509 12.3619 594 106.648 358.458 474.064
559 0 48.0404 13.9466 670 108.227 359.288 473.013
560 0 47.0363 12.6073 593 113.558 358.791 473.11
561 0 48.1069 12.3891 596 115.035 359.106 472.633
562 0 48.0304 13.075 628 114.476 358.175 473.576
563 0 47.0776 12.2776 578 119.927 358.296 472.915
564 0 47.0615 12.0268 566 121.671 356.912 471.519
565 0 52.0256 13.2627 690 116.367 358.274 472.271
566 0 52.0985 13.4745 702 115.932 357.682 473.242
567 0 52.0138 13.631 709 115.849 357.505 472.207
568 0 55.0856 12.8527 708 116.198 357.696 472.006
569 0 55.1113 13.4818 743 114.6 358.417 471.524
570 0 56.1794 14.8809 836 111.828 358.749 470.322
571 0 56.1347 13.7883 774 115.106 358.859 468.035
572 0 56.1254 13.8084 775 115.262 358.671 470.523
573 0 59.0917 14.0798 832 113.98 358.963 470.418
574 0 60.0932 14.2279 855 114.905 358.187 469.575
575 0 61.1211 14.4467 883 114.883 358.401 468.088
576 0 63.2481 14.0083 886 116.018 358.076 467.519
577 0 63.0857 13.5213 853 118.496 357.594 466.671
578 0 64.1358 13.9859 897 119.054 358.035 467.094
579 0 65.0896 13.7042 892 121.38 358.01 465.731
580 0 66.0758 14.3774 950 122.509 357.782 464.526
581 0 65.275 13.5427 884 127.362 357.8 465.769
582 0 68.1153 13.2863 905 129.218 357.302 465.438
583 0 72.1231 15.0021 1082 124.086 357.187 464.091
584 0 73.1858 14.7433 1079 127.654 357.061 462.3
585 0 74.1893 13.3442 990 132.755 356.659 461.39
586 0 77.2143 14.4274 1114 129.768 356.981 463.07
587 0 77.1839 13.8241 1067 133.298 358.136 461.486
588 0 81.183 14.4612 1174 131.741 358.443 460.264
589 0 83.1392 14.4817 1204 134.288 357.24 458.055
590 0 85.1019 14.1595 1205 137.55 356.701 455.234
591 0 89.1038 14.5673 1298 136.63 357.689 456.096
592 0 90.0805 14.7313 1327 138.628 357.002 453.388
593 0 91.1683 14.1497 1290 141.069 357.208 453.775
594 1 52.0582 13.5617 706 138.844 357.136 473.142
595 0 53.1068 13.7459 730 137.926 357.879 473.045
596 0 55.0585 13.3858 737 139.019 356.984 472.602
597 0 54.1246 13.6722 740 142.055 357.084 470.92
598 0 56.1438 13.2339 743 143.183 357.401 471.445
599 0 57.1361 12.6365 722 146.381 357.417 471.13
600 0 58.089 13.9441 810 143.59 357.372 469.056
601 0 60.161 13.3309 802 146.627 357.335 469.779
602 0 62.1204 13.5221 840 146.786 357.896 468.308
603 0 64.1024 13.9308 893 147.073 357.458 466.719
604 0 66.2714 14.8329 983 145.097 357.694 467.318
605 0 68.1293 14.5752 993 146.514 357.495 465.568
606 0 69.1208 14.3228 990 147.654 357.035 464.075
607 0 72.1186 14.5732 1051 147.822 357.884 463.043
608 0 74.2204 14.8207 1100 147.173 357.379 461.831
609 0 77.1349 14.4033 1111 147.726 357.644 461.14
610 0 77.1171 13.7194 1058 152.694 357.766 459.734
611 0 82.096 15.2504 1252 145.544 357.274 457.537
612 0 85.2271 14.8896 1269 146.118 357.489 457.855
613 1 50.0559 12.2663 614 148.217 358.02 475.816
614 0 50.0977 13.3938 671 146.27 357.592 474.443
615 0 51.1608 13.2132 676 146.978 357.262 473.871
616 0 53.1937 13.667 727 145.279 356.945 473.319
617 0 56.1342 13.7706 773 142.974 357.477 471.792
618 0 56.1452 13.1089 736 146.645 357.766 470.357
619 0 59.2012 14.0369 831 142.019 357.614 470.136
620 0 60.1046 13.9091 836 142.584 357.23 470.139
621 0 62.1213 13.7473 854 143.454 357.335 467.972
622 0 64.1137 14.4431 926 140.773 357.295 468.055
623 0 67.2344 13.6389 917 142.454 357.253 467.202
624 0 69.1524 14.6777 1015 139.487 357.658 465.783
625 0 70.2637 15.3564 1079 137.905 356.375 463.87
626 0 72.14 13.3352 962 145.596 356.867 463.705
627 0 76.1313 15.5389 1183 135.178 356.923 465.061
628 0 76.1886 14.3066 1090 142.062 356.981 461.918
629 0 79.232 14.1105 1118 142.436 356.34 460.732
630 0 81.142 14.7396 1196 140.743 357.964 459.387
631 0 86.1252 14.3512 1236 138.887 357.144 458.748
632 0 88.2291 14.655 1293 139.324 356.926 456.851
633 0 92.217 14.8996 1374 136.523 356.88 456.478
634 1 43.0736 11.9099 513 126.797 357.179 481.329
635 0 43.0376 12.0592 519 129.79 357.659 479.437
636 0 45.0585 13.4492 606 128.639 358.018 478.898
637 0 47.0159 12.8042 602 129.44 358.279 477.254
638 0 48.0715 13.7503 661 126.533 358.16 478.03
639 0 50.0828 12.3795 620 129.708 358.276 477.305
640 0 50.0271 13.2528 663 128.992 357.609 475.13
641 0 49.037 12.358 606 133.454 358.144 475.366
642 0 52.0458 12.758 664 132.105 357.081 474.956
643 0 54.0528 13.2093 714 129.807 356.887 473.667
644 0 55.0519 13.2784 731 131.122 357.056 473.844
645 0 57.0362 13.6755 780 129.519 357.481 474.276
646 0 58.0727 13.1732 765 133.648 357.535 471.752
647 0 59.0837 13.1847 779 132.772 358.24 473.991
648 0 60.1054 13.1269 789 135.901 357.668 470.303
649 0 62.0842 13.9005 863 133.338 358.331 472.141
650 0 63.0882 13.6159 859 136.097 358.05 469.906
651 0 65.0562 13.7727 896 137.079 357.248 468.843
652 0 68.0592 14.3404 976 135.949 356.726 468.613
653 0 67.1596 14.9197 1002 136.63 357.628 466.755
654 0 69.0737 13.3481 922 140.851 357.79 467.64
655 0 70.1027 13.1236 920 142.128 356.751 465.904
656 0 72.0632 14.0987 1016 141.265 356.87 464.071
657 0 74.0906 14.5902 1081 141.583 357.743 462.465
658 0 78.0282 14.341 1119 139.826 357.88 462.351
659 0 79.106 13.9433 1103 141.976 357.704 460.89
660 0 80.1044 14.918 1195 140.254 356.828 461.045
661 0 83.1646 14.1527 1177 142.737 357.337 459.717
662 0 85.0781 15.045 1280 140.111 356.616 457.645
663 0 87.1415 15.4461 1346 141.032 356.754 456.256
664 0 90.0791 14.1209 1272 145.051 357.609 455.714
665 0 93.1835 15.6787 1461 140.073 357.452 453.798
666 0 94.1798 15.9057 1498 140.428 357.722 453.061
667 0 96.1151 15.4606 1486 142.551 357.622 451.717
668 0 100.187 15.3712 1540 142.092 357.964 450.79
669 0 103.298 15.3827 1589 142.044 356.711 448.366
670 0 105.156 15.653 1646 142.272 356.872 446.917
671 0 109.208 15.5758 1701 140.885 357.071 445.587
672 0 114.196 15.7186 1795 139.634 356.981 443.694
673 0 117.188 15.5562 1823 139.988 356.851 443.34
674 1 66.09 11.8626 784 146.114 357.409 465.992
675 0 69.1781 14.1085 976 140.114 357.63 465.222
676 0 72.2716 12.6606 915 141.41 357.817 463.091
677 0 75.0749 13.2667 996 139.963 357.352 462.633
678 0 76.083 13.6167 1036 138.649 357.069 461.893
679 0 80.0543 14.5276 1163 135.831 357.25 460.591
680 0 81.0947 13.1698 1068 140.685 357.86 458.512
681 0 85.1127 14.3339 1220 136.4 357.811 456.29
682 0 87.0896 14.4564 1259 135.949 358.027 455.961
683 0 90.1869 13.6827 1234 139.498 357.411 453.748
684 0 92.1219 13.6124 1254 139.246 357.437 452.935
685 0 96.2751 13.8977 1338 137.231 357.774 450.214
686 0 99.1886 13.066 1296 138.741 357.253 448.897
687 0 102.424 13.5905 1392 136.667 357.114 447.21
688 0 106.355 13.9156 1480 135.947 357.78 445.607
689 0 107.206 12.9564 1389 139.748 357.192 444.26
690 0 114.326 14.1612 1619 137.33 358.247 442.164
691 1 63.2515 12.6954 803 135.941 358.417 466.329
692 0 66.3409 13.3703 887 132.705 358.751 463.632
693 0 68.1512 13.4701 918 130.203 358.778 465.995
694 0 67.0364 11.2476 754 135.488 358.443 465.227
695 0 70.0439 12.9347 906 135.323 358.427 462.738
696 0 73.0653 13.3716 977 131.467 357.434 461.402
697 0 76.1119 12.3108 937 136.206 357.52 461.351
698 0 76.1496 12.6199 961 133.953 357.825 461.254
699 0 80.2347 13.0243 1045 135.704 357.683 458.468
700 1 41.0873 11.4147 469 129.584 358.736 478.701
701 0 42.1988 11.043 466 131.41 358.521 478.247
702 0 43.0731 11.1206 479 134.169 359.056 476.088
703 0 42.0466 10.3457 435 136.253 358.851 478.131
704 0 45.083 12.2884 554 129.318 358.394 475.511
705 0 45.0528 10.5876 477 133.075 358.587 476.296
706 0 46.0284 11.2974 520 128.831 358.027 475.208
707 0 47.0516 11.7318 552 125.165 358.607 474.803
708 0 49.0761 11.961 587 123.44 358.56 475.83
709 0 49.1301 10.7877 530 125.753 358.458 476.058
710 0 50.0359 9.85292 493 128.174 358.207 475.197
711 0 52.043 11.9517 622 122.576 357.696 472.727
712 0 53.0612 11.9485 634 122.021 358.144 473.424
713 0 54.0533 12.6727 685 119.307 357.984 471.969
714 0 53.2375 11.383 606 123.521 358.738 471.98
715 0 58.0942 12.8756 748 118.037 358.382 470.944
716 0 58.1868 12.6489 736 120.412 357.716 470.477
717 0 59.1003 12.6734 749 120.16 358.238 469.865
718 0 61.0984 11.6697 713 123.275 358.607 469.346
719 0 63.0739 12.2713 774 123.677 358.324 468.339
720 0 63.1666 12.095 764 123.331 358.887 468.228
721 0 65.1625 12.0008 782 122.982 358.482 465.831
722 0 66.0933 11.8771 785 123.62 358.629 466.685
723 0 68.1489 13.133 895 120.028 358.527 464.525
724 0 70.1157 12.622 885 121.129 357.911 464.261
725 0 71.1604 12.6194 898 123.157 358.763 462.765
726 0 70.1555 12.5008 877 122.746 358.343 463.17
727 0 74.1594 12.554 931 118.954 358.553 463.525
728 0 76.2688 12.2593 935 120.349 357.82 461.006
729 0 78.2886 12.6583 991 120.104 358.496 461.583
730 0 80.2897 11.0724 889 123.848 358.025 461.706
731 0 80.1137 11.4462 917 124.043 357.435 458.855
732 0 83.1017 13.0563 1085 119.908 357.419 455.994
733 0 86.1361 12.2829 1058 122.732 356.917 457.317
734 0 88.3334 13.3245 1177 120.972 357.77 457.099
735 0 90.0721 13.1783 1187 122.7 356.891 454.17
736 0 92.1491 12.9681 1195 125.495 357.096 452.803
737 0 94.2762 13.2589 1250 126.534 357.572 453.623
738 0 95.2214 12.2661 1168 129.612 357.667 451.896
739 0 100.137 12.6727 1269 128.913 358.095 447.968
740 0 103.343 13.2084 1365 128.423 356.755 447.948
741 0 106.237 13.018 1383 130.646 357.856 446.536
742 0 108.164 13.9788 1512 128.372 356.817 447.032
743 0 110.331 13.1513 1451 133.039 357.53 443.779
744 0 112.309 12.7862 1436 134.038 357.734 443.794
745 0 117.31 13.8521 1625 132.109 357.902 440.866
746 0 120.257 14.153 1702 131.371 357.599 439.711
747 0 121.437 13.3567 1622 133.381 357.333 438.205
748 0 126.262 13.67 1726 132.908 356.776 436.031
749 0 125.268 13.531 1695 146.605 356.755 436.527
750 0 135.246 14.7878 2000 128.744 357.016 430.766
751 0 137.283 14.4301 1981 130.273 357.322 431.32
752 0 142.262 13.6719 1945 133.141 356.729 427.634
753 0 146.229 14.0875 2060 132.005 357.528 423.773
754 0 149.23 13.0134 1942 134.664 356.978 420.468
755 0 155.28 13.1376 2040 134.506 357.791 420.228
756 1 60.1299 11.841 712 121.444 358.104 466.281
757 0 61.0971 12.4883 763 120.274 357.494 464.229
758 0 62.0489 12.3451 766 122.872 356.732 460.446
759 0 67.0571 13.7644 923 118.746 356.767 452.715
760 0 68.1627 12.8809 878 124.047 356.237 446.721
761 0 69.0741 14.1153 975 121.97 356.36 447.109
762 0 70.0455 13.6054 953 125.389 356.641 444.456
763 0 72.2076 14.029 1013 124.995 356.095 441.004
764 0 74.0435 14.3024 1059 125.949 356.256 433.123
765 0 73.0673 13.3439 975 130.147 356.272 432.43
766 0 75.15 15.1697 1140 122.711 356.418 431.523
767 0 73.1617 12.7662 934 132.165 355.501 432.127
768 1 185.263 14.6926 2722 119.406 355.238 372.117
769 0 189.198 16.7391 3167 114.178 356.028 367.764
770 0 197.245 17.8154 3514 110.574 355.982 363.899
771 0 200.203 16.733 3350 114.807 355.647 356.439
772 0 205.126 16.9164 3470 115.848 355.988 357.075
773 0 207.166 17.2036 3564 116.435 355.991 356.919
774 0 212.35 15.9124 3379 121.956 355.666 363.28
775 0 222.157 19.0045 4222 111.68 356.115 359.115
776 0 223.222 16.889 3770 120.106 355.848 353.908
777 1 61.1005 8.77244 536 135.274 356.313 448.696
778 0 62.0572 10.1519 630 132.557 356.287 448.089
779 0 60.1252 11.5093 692 131.224 356.179 444.851
780 0 61.0561 13.5613 828 126.864 356.289 437.88
781 0 62.1046 13.4773 837 128.252 356.584 434.608
782 1 89.1569 9.91511 884 122.67 356.926 433.439
783 0 85.1754 15.1804 1293 104.902 356.458 421.23
784 0 87.3224 17.6014 1537 98.6161 356.924 418.582
785 0 89.4035 16.3976 1466 101.222 356.606 416.464
786 1 107.494 15.7219 1690 93.016 356.171 401.737
787 0 192.778 13.9228 2684 208.371 354.574 372.17
788 0 195.668 8.13112 1591 113.574 355.29 371.702
789 0 81.0991 17.4108 1412 109.682 355.751 361.576
790 0 82.1551 17.1627 1410 110.696 355.605 345.735
791 0 84.1044 17.1216 1440 109.419 355.681 334.735
792 0 110.071 12.1194 1334 112.163 355.501 305.216
793 1 77.0687 10.7307 827 103.617 356.345 295.873
794 0 79.1885 13.2469 1049 93.4395 356.81 295.231
795 0 73.3365 19.9764 1465 78.6785 355.114 289.419
796 0 80.1424 11.5544 926 102.03 355.95 304.059
797 0 81.0904 12.1223 983 101.375 355.177 305.466
798 0 87.6636 12.6278 1107 95.6612 355.779 304.135
799 1 51.0619 15.3343 783 114.151 355.241 313.894
800 0 53.1269 15.8865 844 112.254 355.851 313.904
801 0 55.226 16.1518 892 111.293 355.015 314.971
802 0 57.0511 16.6517 950 109.179 355.892 315.448
803 0 58.0319 16.2152 941 110.358 355.549 316.429
804 0 57.0849 15.7835 901 113.872 356.018 316.327
805 0 59.0262 15.5524 918 113.732 355.496 317.113
806 0 61.0558 15.6906 958 113.331 355.858 317.771
807 0 62.0469 15.9557 990 113.162 356.454 316.315
808 0 63.1211 16.0802 1015 114.259 356.017 316.921
809 0 66.1292 16.5131 1092 111.95 356.376 315.995
810 0 66.1153 15.9872 1057 115.076 355.585 317.208
811 0 70.1007 15.92 1116 114.408 356.436 318.132
812 0 71.0832 16.2204 1153 114.517 355.107 317.546
813 0 73.1159 16.3849 1198 114.418 354.843 319.773
814 0 75.0508 16.3356 1226 115.387 354.843 319.035
815 0 79.0409 16.5864 1311 114.23 355.067 320.14
816 0 80.0736 16.3974 1313 115.63 354.952 319.797
817 0 83.1188 16.2177 1348 116.135 354.447 320.187
818 1 96.0307 5.55031 533 120.585 354.6 350.689
819 0 99.1157 6.35621 630 114.098 354.208 353.438
820 0 45.0384 15.2536 687 110.408 354.451 354.763
821 1 76.6429 13.191 1011 94.458 353.991 350.282
822 0 72.2469 15.627 1129 91.7724 354.936 352.642
823 0 82.4343 16.1219 1329 83.7118 355.22 344.45
824 0 82.2195 13.1721 1083 94.9114 355.548 350.921
825 0 85.2138 17.0512 1453 85.1211 355.237 353.738
826 0 86.1755 14.0063 1207 95.5178 355.047 357.587
827 0 93.7831 14.107 1323 91.2744 355.157 351.181
828 0 104.099 15.2259 1585 85.9748 354.175 351.035
829 1 182.036 5.08142 925 121.304 355.229 353.597
830 0 184.042 5.29226 974 121.527 354.806 352.539
831 0 183.188 5.63903 1033 128.324 354.824 336.403
832 0 185.069 6.32196 1170 123.186 355.014 339.17
833 1 145.861 10.5032 1532 97.9504 355.783 350.037
834 0 146.521 9.78698 1434 104.183 353.851 355.107
835 0 150.245 11.7541 1766 92.2933 353.677 337.181
836 0 70.2657 16.7649 1178 118.98 354.824 362.583
837 0 74.0609 17.6882 1310 115.929 354.547 361.091
838 0 76.0805 17.2712 1314 117.774 355.409 359.455
839 0 79.0756 16.7561 1325 118.845 355.134 359.1
840 0 81.1761 16.8399 1367 118.474 355.143 358.083
841 1 46.0077 11.9763 551 124.385 355.243 377.935
842 0 49.0558 12.6387 620 121.79 355.798 378.608
843 0 55.0457 17.658 972 102.552 355.858 373.226
844 0 63.099 17.639 1113 97.9829 356.52 368.518
845 0 62.1122 20.7528 1289 93.0434 356.244 366.383
846 0 65.3839 20.5249 1342 93.1349 356.077 366.074
847 0 67.1081 18.4031 1235 97.0883 356.353 365.138
848 1 79.2265 15.7523 1248 98.8894 355.81 362.651
849 0 79.2932 18.9171 1500 92.4513 356.238 361.214
850 0 79.2833 19.033 1509 119.057 356.194 361.212
851 0 85.1357 17.5485 1494 96.579 355.947 360.28
852 0 90.4483 17.5349 1586 95.6179 355.711 359.269
853 0 85.1509 18.3087 1559 98.5125 356.61 358.967
854 0 82.1163 18.7174 1537 101.391 356.656 362.006
855 0 87.1584 21.7535 1896 93.0749 355.661 361.51
856 0 96.23 21.168 2037 90.2214 355.893 354.885
857 1 142.077 7.46072 1060 123.826 355.675 363.112
858 0 143.037 7.34774 1051 124.628 355.34 364.268
859 0 145.061 10.2371 1485 109.477 356.566 358.879
860 0 141.193 12.5643 1774 100.72 355.615 343.064
861 0 140.35 16.0884 2258 90.1825 356.135 330.286
862 1 74.0506 7.8865 584 119.354 356.531 376.658
863 0 72.0612 8.60379 620 118.431 356.048 374.706
864 0 73.0433 9.54229 697 113.521 356.567 375.066
865 0 65.0418 17.0045 1106 93.2712 355.959 366.522
866 0 70.3638 15.5762 1096 94.6578 356.311 359.651
867 0 70.3002 23.2574 1635 78.7352 355.413 351.757
868 0 75.3344 16.1281 1215 93.4049 355.919 356.707
869 0 77.4269 11.9984 929 107.342 356.597 358.637
870 0 74.0426 16.8957 1251 95.1367 356.659 354.998
871 1 100.061 11.4231 1143 101.511 356.202 356.625
872 0 102.642 13.5422 1390 93.1201 356.024 349.773
873 0 98.2301 13.6618 1342 96.8554 356.023 353.056
874 0 94.4039 17.3934 1642 89.2424 356.287 349.917
875 0 96.6947 17.3536 1678 89.5721 355.784 345.51
876 1 107.383 15.4121 1655 91.9565 356.075 345.516
877 0 94.0563 15.2568 1435 101.056 356.511 348.685
878 0 113.262 15.5039 1756 93.1515 356.001 344.341
879 1 151.059 8.169 1234 112.942 356.071 345.027
880 0 148.157 9.82744 1456 103.821 356.514 331.8
881 0 146.265 12.5526 1836 93.3214 355.738 322.633
882 1 48.0739 16.3082 784 102.781 355.828 350.152
883 0 57.1001 15.9895 913 96.7371 355.487 343.715
884 0 57.1175 15.6344 893 99.7928 355.803 334.726
885 0 58.0357 17.92 1040 94.2625 355.344 328.784
886 0 64.1987 17.1187 1099 92.4941 356.143 323.298
887 0 64.0855 19.3648 1241 88.9903 355.787 315.803
888 0 70.1752 18.0976 1270 90.3394 356.646 312.498
889 0 73.1818 21.0982 1544 83.544 355.137 306.679
890 0 71.1149 17.4225 1239 94.9443 355.698 311.099
891 0 80.2096 14.2252 1141 100.782 355.117 308.756
892 0 83.8552 18.4723 1549 88.3247 354.915 305.73
893 1 98.6029 15.0807 1487 93.0377 354.486 307.288
894 0 102.666 14.1819 1456 95.1223 355.602 303.677
895 0 102.424 16.2267 1662 91.7473 355.076 301.919
896 0 104.021 14.1991 1477 99.4746 356.401 293.961
897 0 103.541 19.3354 2002 87.8786 356.179 284.753
898 0 115.324 14.5589 1679 98.6653 356.393 285.742
899 0 115.474 16.3326 1886 93.7524 356.32 279.163
900 0 119.524 17.4024 2080 91.7918 355.906 278.422
901 0 138.391 16.5329 2288 86.4104 355.563 259.855
902 0 139.275 18.3665 2558 83.4523 354.82 256.92
903 0 145.815 14.8956 2172 94.6137 355.576 267.455
904 0 140.221 18.4636 2589 88.4284 355.709 264.998
905 0 144.347 22.9516 3313 79.2252 355.198 256.302
906 0 155.471 20.9685 3260 80.7785 355.028 253.943
907 0 152.458 15.1582 2311 97.2432 356.069 258.76
908 0 154.077 18.03 2778 90.0788 355.613 253.299
909 0 157.6 22.1003 3483 82.8777 355.338 251.709
910 0 151.518 21.2253 3216 87.6032 355.695 251.488
911 1 63.0582 19.5217 1231 104.254 356.248 299.307
912 0 66.4423 19.8518 1319 102.098 356.124 300.781
913 0 71.1219 16.1413 1148 110.698 356.372 299.667
914 0 69.5309 21.2999 1481 98.5517 355.046 297.598
915 0 75.1721 21.9097 1647 95.0893 355.896 295.197
916 0 74.1802 20.2345 1501 102.233 356.789 299.929
917 0 78.1466 18.2094 1423 107.043 355.332 298.444
918 0 83.1615 17.3999 1447 107.666 356.423 297.979
919 0 93.2599 21.113 1969 93.7141 356.006 290.215
920 0 89.2322 21.7635 1942 96.1432 356.282 290.354
921 0 94.178 22.0965 2081 93.4032 356.316 282.651
922 0 102.1 26.2781 2683 84.2203 355.407 280.019
923 0 104.36 16.4814 1720 109.804 356.259 287.976
924 0 105.481 18.8754 1991 104.028 356.316 284.729
925 0 99.2088 19.5346 1938 108.018 355.83 284.527
926 0 101.123 19.2538 1947 110.479 356.566 286.411
927 0 105.449 21.783 2297 103.44 356.324 283.368
928 0 110.117 17.9628 1978 112.855 357.399 281.775
929 0 105.14 22.0183 2315 105.892 357.26 281.719
930 1 132.682 19.9048 2641 98.418 356.157 266.124
931 1 58.0571 17.0005 987 123.059 356.627 293.741
932 0 60.0892 16.0761 966 126.076 356.917 291.267
933 0 62.0381 17.2797 1072 121.935 356.71 291.343
934 0 66.0342 16.2946 1076 123.326 355.589 289.612
935 0 67.0395 17.5717 1178 120.374 355.892 289.974
936 0 70.2762 17.3458 1219 120.345 356.751 289.007
937 0 69.282 16.0936 1115 126.524 356.231 287.267
938 0 75.1143 17.6664 1327 119.3 356.569 287.776
939 0 78.225 19.8146 1550 112.917 356.998 286.351
940 0 81.0302 16.9073 1370 123.228 356.68 289.035
941 0 84.0739 18.2815 1537 119.537 356.571 288.71
942 0 88.2479 20.1138 1775 113.352 356.042 285.597
943 1 42.0595 13.1956 555 134.323 356.373 309.481
944 0 46.0395 15.7691 726 123.627 356.292 305.685
945 0 49.0377 15.5391 762 123.178 356.15 302.929
946 0 50.1238 16.5391 829 120.344 355.835 303.065
947 0 52.0416 16.2562 846 121.184 355.336 301.689
948 0 54.0606 15.9821 864 121.701 356.278 302.198
949 0 52.0252 16.7995 874 123.756 354.975 302.2
950 0 58.1149 17.9816 1045 116.486 355.06 300.724
951 0 60.0937 17.4394 1048 117.941 355.263 300.774
952 0 60.0426 17.2044 1033 119.994 356.041 301.971
953 0 65.0747 18.2559 1188 114.919 356.17 301.718
954 0 73.1141 18.6011 1360 108.55 356.035 299.171
955 0 75.1459 20.0676 1508 104.801 356.068 294.813
956 0 75.255 20.4505 1539 105.902 356.327 293.311
957 0 75.1136 19.6902 1479 109.784 355.97 294.554
958 0 78.0754 22.1837 1732 104.462 357.033 296.423
959 0 79.1338 18.2602 1445 115.001 357.103 297.898
960 0 87.1364 21.8967 1908 101.221 356.852 291.564
961 0 87.0894 20.8406 1815 106.581 356.545 291.787
962 1 167.137 7.38915 1235 127.833 355.739 292.815
963 0 162.065 7.57721 1228 128.289 356.755 290.252
964 1 47.0471 14.4324 679 127.133 356.926 299.115
965 0 52.0866 16.2806 848 118.476 356.763 278.929
966 0 58.092 17.6444 1025 109.6 356.299 266.023
967 0 57.0775 18.1157 1034 111.542 357.044 263.731
968 0 64.0927 19.7995 1269 102.325 356.442 252.764
969 0 66.0932 18.1562 1200 108.515 356.87 240.6
970 0 68.1577 18.692 1274 105.429 356.567 236.194
971 0 72.1468 18.296 1320 106.806 356.444 234.488
972 0 76.1511 18.7785 1430 104.639 356.472 232.532
973 0 78.4365 19.519 1531 102.543 356.939 226.654
974 0 80.1174 21.0441 1686 99.4526 356.267 226.036
975 0 81.2148 20.6366 1676 102.788 356.205 226.686
976 1 37.0413 12.8505 476 128.349 355.557 250.668
977 0 38.0498 12.326 469 131.394 356.203 245.625
978 0 38.0515 12.5619 478 132.464 356.577 239.115
979 0 42.0614 15.2396 641 121.443 356.218 232.42
980 0 50.1019 17.4445 874 106.262 355.864 193.802
981 0 46.1009 16.5507 763 116.266 356.414 179.394
982 0 48.0755 16.2661 782 118.119 356.252 177.332
983 0 48.0662 16.2484 781 120.169 356.56 174.237
984 0 48.0247 15.138 727 126.442 356.891 172.644
985 0 48.0413 14.2794 686 130.37 356.019 172.086
986 0 48.0838 14.246 685 132.575 356.302 172.515
987 0 51.0291 14.286 729 131.845 357.195 173.39
988 0 52.052 14.6584 763 130.79 356.685 174.902
989 0 54.0606 14.5947 789 131.937 356.973 174.989
990 0 55.0252 15.1749 835 130.898 356.732 176.543
991 0 56.0364 14.4906 812 133.933 357.233 177.345
992 0 59.0838 14.4202 852 134.781 356.977 178.846
993 0 60.0224 15.0277 902 133.424 356.826 180.034
994 0 60.0585 14.6191 878 136.9 356.418 179.682
995 0 64.1143 15.2852 980 133.209 356.468 180.472
996 0 66.0531 15.2907 1010 134.56 356.483 177.843
997 0 65.1067 16.7571 1091 129.216 356.665 169.293
998 0 69.0892 18.0346 1246 123.084 356.713 165.039
999 0 72.0812 17.8826 1289 124.317 356.915 158.758
1000 0 73.1032 17.3043 1265 126.384 356.847 157.847
1001 0 74.0738 17.8336 1321 126.391 357.24 156.044
1002 0 75.1295 18.6345 1400 124.862 356.56 156.184
1003 0 76.1287 19.073 1452 124.782 356.364 156.236
1004 0 78.1727 19.2522 1505 124.229 356.211 157.076
1005 0 79.1456 18.9019 1496 127.551 356.822 157.733
1006 0 81.0328 19.7574 1601 125.731 356.593 158.851
1007 0 82.184 17.9719 1477 132.327 356.859 159.431
1008 0 86.0824 20.5849 1772 122.036 356.939 161.033
1009 0 87.1865 18.6153 1623 129.914 356.6 161.852
1010 0 91.1115 19.5365 1780 125.72 355.97 163.442
1011 0 58.0855 15.0124 872 133.366 357.015 185.575
1012 0 61.0281 14.4524 882 134.269 356.366 188.129
1013 0 63.0631 14.2397 898 134.715 356.484 187.856
1014 0 65.1361 15.2143 991 134.014 357.057 184.69
1015 0 67.0701 17.4444 1170 123.723 356.557 179.306
1016 0 69.0501 17.9001 1236 121.139 357.589 154.926
1017 0 72.03 19.0198 1370 117.569 357.458 155.544
1018 0 75.1158 19.9159 1496 114.768 357.501 156.243
1019 0 76.0532 22.0241 1675 111.158 357.504 156.986
1020 0 76.0173 18.43 1401 122.277 356.598 156.919
1022 0 44.041 13.6918 603 129.919 357.098 177.317
1023 0 47.0771 14.0196 660 130.215 356.435 175.991
1024 0 46.0467 13.3343 614 133.801 357.002 175.919
1025 0 49.0244 15.0537 738 127.431 356.844 176.516
1026 0 51.0126 14.9767 764 127.949 356.991 173.14
1027 0 53.0604 14.4929 769 130.179 356.612 170.921
1028 0 53.0379 14.5179 770 133.422 356.897 169.978
1029 0 56.0359 14.6692 822 130.507 357.023 171.563
1030 0 59.0377 15.4477 912 129.977 356.812 171.809
1031 0 58.0594 14.6402 850 135.072 357.308 171.462
1032 0 61.032 14.8447 906 135.575 356.72 171.021
1033 0 63.1016 15.7365 993 132.639 356.358 170.955
1034 0 64.0806 17.8525 1144 123.296 356.63 168.516
1035 0 66.0496 17.0932 1129 126.554 356.941 166.167
1036 0 69.0243 17.9357 1238 123.476 357.263 163.351
1037 0 71.0581 17.7601 1262 124.628 356.99 159.483
1038 0 73.054 18.0004 1315 125.099 357.954 158.23
1039 0 75.0904 17.1527 1288 128.453 357.008 156.675
1040 0 78.1472 19.8344 1550 120.432 356.241 157.538
