time division length width area intensity CMx CMy
0 0 53.0236 12.4284 659 151.951 125.797 478.856
1 0 55.0411 13.063 719 148.815 125.967 476.62
2 0 56.0478 13.774 772 146.93 126.782 476.154
3 0 58.0586 13.4692 782 147.499 126.629 476.367
4 0 60.0483 13.0895 786 146.383 125.766 476.816
5 0 60.0615 13.636 819 147.37 126.545 474.8
6 0 63.1937 13.3083 841 146.348 126.203 472.897
7 0 65.076 14.0605 915 143.132 126.484 472.432
8 0 66.0727 12.6225 834 145.546 126.412 473.144
9 1 32.0051 10.9045 349 149.198 126.774 488.768
10 0 35.0434 10.5298 369 148.919 125.919 488.645
11 0 35.0207 12.3356 432 142.644 126.586 489.132
12 0 37.0252 12.0458 446 142.489 125.516 488.191
13 0 36.0221 13.0475 470 141.445 125.298 487.262
14 0 37.0552 12.5488 465 142.258 125.656 488.151
15 0 39.0782 13.3067 520 136.148 125.75 487.652
16 0 39.0975 13.3257 521 138.706 124.655 488.63
17 0 39.032 13.4761 526 138.568 124.844 488.422
18 0 40.0439 13.0107 521 141.747 124.441 487.39
19 0 41.0131 12.9958 533 140.608 124.996 488.083
20 0 41.0368 12.501 513 145.306 124.111 486.963
21 0 44.0178 13.1992 581 140.365 124.119 487.819
22 0 45.0216 13.438 605 140.717 124.021 487.126
23 0 45.0335 12.524 564 144.307 124.135 488.351
24 0 47.0241 12.3766 582 145.261 123.034 486.83
25 0 47.0261 12.525 589 144.119 122.752 487.304
26 0 49.0205 12.505 613 145.409 123.516 485.277
27 0 53.0125 12.7706 677 140.479 123.885 485.465
28 0 51.0258 12.6407 645 145.357 122.864 482.307
29 0 54.0206 13.3653 722 141.494 123.294 483.398
30 0 55.1057 13.828 762 139.14 122.728 483.612
31 0 58.0896 13.2726 771 139.586 122.341 482.218
32 0 60.052 13.6049 817 138.825 122.126 480.894
33 0 61.0511 13.6443 833 140.453 122.898 479.569
34 0 63.1303 13.385 845 141.291 122.159 479.646
35 0 67.0712 14.164 950 137.102 122.802 478.185
36 0 69.0661 14.3486 991 136.74 122.594 475.758
37 0 69.0536 13.3375 921 141.778 122.426 475.092
38 0 73.0433 14.7994 1081 135.714 121.994 474.012
39 0 76.1132 14.2945 1088 137.036 122.631 474.063
40 0 78.1196 13.7994 1078 139.421 122.107 471.85
41 0 82.1105 13.5427 1112 139.79 121.598 471.6
42 0 84.0614 14.0017 1177 139.159 121.544 470.45
43 1 44.0612 13.0273 574 137.287 122.552 490.949
44 0 45.0159 13.062 588 141.486 122.344 488.9
45 0 47.0885 13.103 617 144.13 122.569 488.123
46 0 47.0514 13.2833 625 144.09 122.346 487.67
47 0 49.091 13.2 648 137.804 122.707 488.699
48 0 52.0265 14.7233 766 135.034 122.275 487.55
49 0 52.0514 13.3714 696 139.099 121.343 485.835
50 0 55.071 13.2556 730 139.001 121.415 485.745
51 0 57.0649 13.5986 776 138.237 122.088 483.894
52 0 58.0263 14.5279 843 136.848 121.461 482.408
53 0 60.1136 13.3248 801 147.387 121.864 480.271
54 0 64.12 13.9582 895 143.855 121.571 480.771
55 0 65.0524 14.0963 917 142.997 121.642 480.663
56 0 66.0918 13.2997 879 146.179 121.792 479.051
57 0 71.0987 13.643 970 142.259 120.542 478.267
58 0 73.2431 14.5679 1067 137.543 121.358 477.222
59 0 75.0934 12.864 966 144.03 122.091 475.18
60 0 80.1316 13.4654 1079 139.842 121.876 474.084
61 0 80.0872 13.323 1067 141.408 122.021 472.612
62 0 83.0524 12.0165 998 143.456 121.571 473.201
63 0 89.1265 14.5299 1295 134.917 120.836 469.099
64 0 89.0784 12.416 1106 141.684 121.392 468.837
65 0 93.1024 12.685 1181 140.378 121.836 466.924
66 1 51.0298 11.4835 586 135.932 121.439 486.817
67 0 53.117 12.256 651 133.665 121.366 484.664
68 0 54.1292 12.7288 689 132.216 121.415 484.906
69 0 57.0656 12.8799 735 128.34 120.113 486.087
70 0 55.0315 12.2294 673 133.954 120.6 484.7
71 0 59.0601 12.7667 754 130.666 120.049 482.573
72 0 62.0423 13.2651 823 126.871 119.612 481.028
73 0 65.0548 13.4348 874 125.359 120.178 481.347
74 0 67.0991 12.7423 855 127.06 120.985 480.815
75 0 68.114 12.4057 845 128.322 120.446 478.108
76 0 70.0849 12.6133 884 129.088 120.17 475.423
77 0 73.21 12.7442 933 127.855 120.342 476.079
78 0 79.1874 13.3228 1055 123.155 120.514 475.076
79 0 80.0771 12.1008 969 127.591 120.345 475.143
80 0 84.0874 12.9508 1089 124.893 120.42 472.101
81 1 42.0779 11.0747 466 123.382 120.075 493.378
82 0 43.0504 10.9407 471 127.017 120.605 492.178
83 0 44.0628 11.3928 502 118.05 121.197 492.612
84 0 45.0645 12.0494 543 117.262 121.46 491.355
85 0 46.0137 12.3007 566 117.115 120.922 490.007
86 0 46.0475 11.7922 543 119.192 120.35 491.217
87 0 47.0371 11.6291 547 119.943 120.484 490.532
88 0 51.054 11.5368 589 117.453 119.812 490.706
89 0 50.0212 12.0549 603 118.468 119.965 489.164
90 0 52.0431 12.0669 628 119.18 119.815 489.479
91 0 53.0342 12.6334 670 118.228 120.355 487.61
92 0 55.0477 11.6081 639 119.352 119.393 488.205
93 0 58.0448 12.7832 742 115.563 119.844 487.02
94 0 59.0738 11.4094 674 120.878 119.819 485.123
95 0 60.1364 12.3552 743 119.559 119.287 485.172
96 0 63.1267 13.4016 846 118.609 119.005 483.658
97 0 65.1283 12.3756 806 120.556 119.664 483.89
98 0 67.11 12.8595 863 120.152 119.022 481.826
99 0 70.1233 13.1055 919 118.529 119.544 481.85
100 0 70.078 11.9153 835 122.657 119.577 479.717
101 0 73.0786 11.8229 864 123.116 120.274 479.316
102 0 77.1671 13.6716 1055 119.587 120.538 475.35
103 0 81.2267 12.9268 1050 120.886 120.615 476.554
104 0 81.1579 12.5804 1021 123.283 119.693 474.267
105 0 85.1428 12.8255 1092 122.361 119.557 473.207
106 1 44.0811 11.2293 495 124.533 119.861 492.994
107 0 46.0554 11.3559 523 124.937 119.606 492.075
108 0 49.1046 12.4225 610 116.77 120.497 492.848
109 0 49.1188 11.462 563 120.854 119.719 491.458
110 0 49.1413 12.0265 591 120.426 119.541 490.376
111 0 52.0637 11.4475 596 120.213 120.248 491.3
112 0 53.0606 11.2513 597 121.273 120.358 489.492
113 0 54.0985 12.3294 667 118.189 120.016 488.915
114 0 57.1314 11.7799 673 118.802 119.932 488.045
115 0 58.0697 11.5034 668 120.469 119.993 486.708
116 0 59.1008 12.0472 712 118.948 119.678 484.986
117 0 61.1136 12.2722 750 118.741 119.765 483.801
118 0 64.152 11.7845 756 119.044 119.999 483.762
119 0 66.0808 11.8643 784 119.541 119.445 484.105
120 0 67.1443 12.421 834 119.511 119.836 482.803
121 0 70.0729 12.0303 843 121.017 119.689 481.442
122 0 72.1304 12.006 866 121.177 119.375 479.516
123 0 76.0439 13.5054 1027 117.686 120.053 478.098
124 0 78.0585 11.3248 884 122.204 119.896 477.923
125 0 79.0934 11.2778 892 123.626 119.098 475.224
126 0 83.0679 12.4597 1035 118.691 118.367 476.618
127 1 47.0931 10.4474 492 121.522 119.341 492.091
128 0 48.1452 10.946 527 120.717 119.063 491.649
129 0 49.133 11.9879 589 114.161 119.601 488.842
130 0 49.095 11.6712 573 119.609 119.728 489.862
131 0 50.0877 10.8809 545 121.624 119.433 490.411
132 0 52.211 11.0513 577 122.127 119.049 488.161
133 0 53.0722 11.6068 616 122.336 119.455 486.662
134 0 56.0926 12.6576 710 119.052 118.425 486.472
135 0 59.0702 12.883 761 118.116 119.071 485.904
136 0 60.2219 13.251 798 80.9361 119.232 487.509
137 0 61.0657 11.7906 720 123.585 119.411 483.5
138 0 63.0588 12.2425 772 121.929 119.412 482.238
139 0 65.1079 12.2105 795 121.664 118.735 481.675
140 0 68.1222 13.4024 913 118.516 119.049 480.129
141 0 71.1016 12.7283 905 119.106 119.145 479.294
142 0 73.1204 12.0623 882 122.071 118.223 477.822
143 0 78.0641 12.7331 994 119.51 118.828 475.191
144 0 78.0912 12.05 941 122.525 119.385 473.253
145 0 82.028 12.2885 1008 121.417 119.35 474.016
146 0 85.0566 12.4153 1056 122.562 119.603 470.068
147 0 89.1311 13.4745 1201 119.604 118.349 468.987
148 0 91.073 13.0115 1185 121.024 119.476 469.38
149 0 93.1536 12.6887 1182 122.376 119.27 466.047
150 1 48.0601 10.9654 527 116.824 119.395 486.639
151 0 50.0209 10.9754 549 114.552 119.271 488.942
152 0 54.0381 12.2691 663 110.968 119.526 487.63
153 0 53.0155 11.7324 622 113.887 119.244 485.186
154 0 54.031 11.3638 614 114.679 119.358 485.22
155 0 57.098 11.9619 683 113.297 119.293 483.04
156 0 61.1498 13.3606 817 108.141 119.919 482.469
157 0 62.0418 11.2988 701 112.25 119.387 483.692
158 0 66.1001 12.3752 818 109.09 119.452 481.476
159 0 68.0636 12.9732 883 107.332 119.096 479.012
160 0 68.0779 11.5603 787 112.211 118.402 475.593
161 0 70.0922 12.5692 881 110.166 119.234 475.102
162 0 75.0989 13.0894 983 106.466 118.454 475.281
163 0 76.129 11.9665 911 110.212 118.386 474.221
164 0 77.0457 11.292 870 112.032 118.417 473.438
165 0 80.1529 11.9272 956 110.191 118.224 472.412
166 0 84.1306 12.1002 1018 109.55 117.728 471.125
167 0 87.0567 11.9922 1044 110.392 118.165 466.608
168 0 89.0806 11.237 1001 111.919 118.105 467.724
169 0 93.0974 12.6427 1177 108.557 118.093 465.086
170 0 96.094 12.0507 1158 110.106 118.382 462.92
171 0 98.1114 10.539 1034 113.695 118.184 461.486
172 0 102.149 11.5224 1177 110.227 118.388 461.449
173 1 55.0506 10.4994 578 107.116 119.825 486.31
174 0 55.0933 10.5639 582 107.452 119.259 482.589
175 0 58.0355 11.7342 681 103.797 118.655 482.433
176 0 60.0637 10.7552 646 106.978 119.043 481.68
177 0 62.0877 11.677 725 105.284 119.026 479.206
178 0 64.0821 11.6725 748 104.535 118.746 478.976
179 0 66.1187 11.2374 743 105.254 118.771 477.61
180 0 68.1207 11.0392 752 105.36 118.648 478.541
181 0 73.0969 12.3808 905 101.819 118.64 475.077
182 0 74.075 12.3793 917 102.712 118.55 474.759
183 0 77.0775 11.6766 900 104.512 118.633 473.518
184 0 77.0917 12.1673 938 104.21 118.206 474.756
185 0 84.0984 11.6649 981 106.257 118.38 470.139
186 0 85.298 11.5243 983 107.758 118.728 469.442
187 0 90.3611 12.5164 1131 108.096 119.831 462.506
188 0 92.3746 12.7091 1174 107.539 119.85 462.305
189 1 49.1569 9.39848 462 106.535 119.816 483.814
190 0 50.2202 11.0513 555 105.198 119.782 482.214
191 0 52.1083 11.8791 619 102.559 118.624 485.17
192 0 54.2434 11.4853 623 102.791 118.604 485.347
193 0 52.0817 11.1172 579 103.579 118.693 485.95
194 0 57.1348 11.7092 669 100.895 119.031 485.308
195 0 59.1048 11.6742 690 100.888 119.517 483.526
196 0 59.1029 11.4038 674 103.723 119.524 482.289
197 0 60.0924 11.6654 701 104.448 119.622 480.193
198 0 61.1282 11.206 685 106.498 119.504 479.18
199 0 66.1051 11.8902 786 103.046 119.052 480.799
200 0 65.2445 11.1274 726 107.393 119.079 477.43
201 0 69.0764 12.7974 884 103.371 118.883 477.853
202 0 71.2193 12.9038 919 104.845 118.663 475.671
203 0 73.0305 11.5979 847 108.79 119.218 475.15
204 0 76.134 11.8475 902 107.401 119.12 475.757
205 0 76.0955 11.7221 892 111.234 119.572 471.611
206 0 80.1248 12.2684 983 109.163 119.132 472.885
207 0 82.396 10.486 864 113.493 119.196 470.128
208 0 82.2514 10.5044 864 114.385 119.439 466.293
209 0 88.2782 11.2599 994 111.75 119.328 463.918
210 1 48.3416 10.6947 517 100.611 119.694 484.801
211 0 47.2719 9.18094 434 104.463 120.387 484.528
212 0 49.112 9.48851 466 102.715 118.734 487.736
213 0 49.0706 10.4136 511 96.7397 119.023 484.358
214 0 52.1538 11.562 603 99.9967 118.978 484.108
215 0 55.1165 11.4122 629 98.6789 118.194 484.258
216 0 54.0753 9.96759 539 102.514 118.883 484.579
217 0 56.1454 10.5975 595 100.926 118.776 481.961
218 0 59.0713 11.7147 692 97.3309 119.182 482.668
219 0 59.1268 11.1794 661 99.0726 119.142 481.386
220 0 60.0817 10.0696 605 100.909 119.415 480.795
221 0 62.0372 10.1552 630 101.033 119.838 478.116
222 0 64.1228 10.012 642 101.016 119.497 477.305
223 0 66.0601 11.6258 768 97.1523 119.5 475.854
224 0 69.1898 10.6374 736 98.5149 120.139 478.648
225 0 70.0496 12.1771 853 96.2474 119.924 475.638
226 0 69.0709 9.49749 656 101.584 120.227 476.521
227 0 73.1287 11.8148 864 97.956 120.037 474.396
228 0 75.1216 11.3949 856 99.7886 119.702 471.183
229 0 78.0931 10.3594 809 101.917 119.852 471.067
230 0 80.1533 10.3926 833 101.768 120.582 470.69
231 0 85.0957 10.0593 856 102.69 119.506 468.964
232 1 41.0844 8.7868 361 102.08 119.615 489.69
233 0 44.1859 10.7727 476 97.3256 120.779 488.378
234 0 46.1301 9.84173 454 99.3194 121.275 486.949
235 0 48.1282 11.9888 577 93.9757 120.518 485.492
236 0 47.1396 10.2674 484 98.9793 120.378 486.217
237 0 51.1667 11.3941 583 95.9245 120.966 485.763
238 0 51.127 11.3052 578 97.0069 120.678 483.668
239 0 53.3163 11.4787 612 97.7157 120 483.547
240 0 54.1676 11.206 607 98.2339 119.804 483.262
241 0 56.1536 10.8987 612 99.152 119.899 484.002
242 0 56.1942 10.2858 578 101.631 119.619 480.708
243 0 60.1151 12.0103 722 97.7964 119.698 480.906
244 0 62.2311 12.2125 760 96.8592 120.037 482.433
245 0 63.1194 11.5337 728 101.505 119.15 479.959
246 0 64.1772 11.811 758 99.2968 119.951 479.241
247 0 67.2472 12.8184 862 98.6102 120.057 477.348
248 0 68.113 11.525 785 101.94 119.39 476.762
249 0 70.1706 10.7737 756 104.423 119.708 475.943
250 0 71.2106 11.5573 823 105.724 118.786 473.825
251 0 72.3128 12.197 882 105.048 119.017 473.075
252 0 78.1867 12.2399 957 102.666 119.817 472.659
253 0 78.052 11.7358 916 106.379 119.701 470.555
254 0 82.1827 13.3118 1094 103.061 119.21 470.646
255 0 81.1587 10.7937 876 115.291 119.926 469.791
256 0 87.2038 11.089 967 112.981 119.569 468.176
257 0 90.1531 11.8021 1064 113.322 119.352 466.186
258 0 91.2359 11.7717 1074 110.863 119.03 465.411
259 1 49.0203 11.2402 551 108.862 119.987 487.212
260 0 49.0649 11.658 572 108.178 119.867 487.063
261 0 52.0475 11.2782 587 108.47 120.02 485.784
262 0 55.1105 12.0848 666 112.392 118.167 484.119
263 0 55.2738 11.0722 612 115.572 118.261 485.376
264 0 58.0915 12.3082 715 112.358 118.22 483.036
265 0 58.166 12.5675 731 112.694 118.159 482.062
266 0 61.0375 12.3203 752 112.661 118.137 480.156
267 0 62.1616 11.7114 728 114.117 118.843 481.372
268 0 65.1051 13.747 895 108.273 118.19 480.294
269 0 67.1172 12.8879 865 111.205 118.455 478.299
270 0 71.1148 13.1899 938 108.737 118.522 479.642
271 0 70.1115 12.6513 887 111.282 117.991 476.536
272 0 74.1144 13.3982 993 108.902 118.896 476.007
273 0 75.07 12.2286 918 111.227 118.714 475.208
274 0 77.1222 11.8643 915 105.158 119.179 476.611
275 0 79.1054 11.9967 949 105.709 119.596 475.907
276 1 39.0158 10.7649 420 102.467 120.757 493.631
277 0 39.0086 10.0234 391 103.432 119.813 494.675
278 0 42.1076 12.3968 522 78.8276 119.383 490.347
279 0 42.0242 10.9699 461 102.826 118.089 492.334
280 0 43.036 11.9435 514 103.34 118.123 490.593
281 0 46.0586 11.6808 538 101.983 117.816 490.481
282 0 47.0799 11.7035 551 102.848 117.653 488.782
283 0 48.021 12.7028 610 100.016 118.823 488.616
284 0 50.1762 12.0376 604 100.795 118.222 487.401
285 0 51.1637 11.7857 603 101.315 118.685 486.421
286 0 52.1937 11.7064 611 99.0606 118.18 487.159
287 0 54.0507 12.2478 662 98.0982 118.915 485.027
288 0 55.0172 11.3964 627 99.1707 118.553 485.199
289 0 57.1154 12.0633 689 97.8244 117.938 483.267
290 0 58.1109 11.3748 661 99.5325 118.911 482.679
291 0 61.095 12.5215 765 99.5033 118.242 480.987
292 0 62.0943 12.2717 762 100.407 117.756 481.01
293 0 64.0273 12.5728 805 101.342 118.496 477.929
294 0 66.1585 11.8201 782 103.206 118.142 479.721
295 0 69.0705 13.1749 910 100.57 118.01 475.455
296 0 69.241 11.525 798 104.49 118.056 475.717
297 0 73.2749 11.5729 848 103.689 118.222 475.535
298 0 75.1163 11.5554 868 103.766 118.485 474.361
299 0 78.2145 11.6602 912 103.762 118.204 471.462
300 0 83.1326 12.2575 1019 102.213 117.741 471.12
301 0 86.2139 12.817 1105 102.916 117.863 467.347
302 1 46.1066 10.5408 486 96.1029 119.84 487.2
303 0 45.1411 10.5004 474 101.369 119.907 488.749
304 0 49.1769 10.7774 530 99.9132 120.266 488.042
305 0 50.1212 10.7739 540 100.263 120.504 487.811
306 0 50.1172 10.4555 524 103.534 120.765 485.721
307 0 51.0566 10.5177 537 104.179 120.7 484.806
308 0 54.1284 12.027 651 101.455 120.68 483.129
309 0 57.1823 12.259 701 101.382 120.641 482.294
310 0 58.0428 11.147 647 104.4 120.284 483.281
311 0 61.1816 11.8173 723 102.707 120.79 481.947
312 0 63.1826 12.1078 765 103.32 120.272 480.425
313 0 64.2134 11.8667 762 104.9 120.226 478.532
314 0 68.1641 13.3501 910 101.705 119.989 479.036
315 0 68.1384 11.0217 751 107.61 119.489 480.208
316 0 71.1564 12.9293 920 104.471 119.673 477.21
317 0 72.1737 11.8603 856 108.116 119.348 475.407
318 0 75.1809 12.3835 931 107.798 119.42 475.559
319 0 75.1435 12.0835 908 110.62 119.953 474.279
320 0 78.1672 12.3709 967 109.973 119.766 474.689
321 0 80.2019 12.3937 994 111.302 119.428 472.344
322 0 84.2073 13.2649 1117 110.941 119.71 469.934
323 0 84.2073 13.1936 1111 143.511 119.705 469.936
324 1 43.0246 11.3888 490 110.324 120.045 492.124
325 0 44.0589 11.3712 501 111.711 119.774 491.186
326 0 46.0358 11.6214 535 109.056 120.308 490.364
327 0 46.0584 11.5723 533 111.148 120.976 489.961
328 0 47.1256 11.9044 561 109.604 120.478 490.783
329 0 48.1094 11.2036 539 112.861 120.672 489.063
330 0 49.062 12.8001 628 109.038 120.987 489.049
331 0 52.0788 11.9818 624 111.583 120.832 488.506
332 0 53.0888 11.1511 592 113.003 120.13 488.497
333 0 54.0872 11.9807 648 112.56 120.165 486.506
334 0 55.1257 11.8094 651 111.765 120.625 486.806
335 0 58.0969 13.7185 797 107.314 119.896 484.252
336 0 59.0755 12.0524 712 111.063 120.501 483.78
337 0 61.0607 12.332 753 110.369 120.424 482.554
338 0 64.1079 13.4773 864 105.936 120.553 483.419
339 0 65.1463 11.5586 753 111.081 121.074 481.713
340 0 66.0632 11.3528 750 111.912 120.743 481.345
341 0 67.1013 10.5959 711 115.02 120.343 480.039
342 0 68.0871 10.2075 695 110.727 120.446 474.377
343 0 73.1032 11.6 848 111.14 120.462 478.295
344 0 76.0875 13.4188 1021 107.456 120.082 475.736
345 0 76.0529 12.4124 944 113.57 119.79 475.608
346 0 80.1351 13.602 1090 108.546 119.487 474.086
347 0 81.0448 11.7959 956 114.673 118.308 472.544
348 1 42.1207 11.2771 475 106.282 121.387 491.404
349 0 44.1319 11.1258 491 104.933 120.635 491.66
350 0 45.1214 10.4828 473 105.712 120.848 488.581
351 0 47.1089 11.2505 530 101.208 120.692 491.768
352 0 48.0989 12.308 592 99.2956 120.829 488.878
353 0 47.1027 10.8274 510 125.108 122.067 490.694
354 0 51.0526 11.0278 563 102.742 120.018 489.378
355 0 52.0268 10.4562 544 103.272 119.836 488.013
356 0 54.0506 11.4522 619 101.338 120.473 486.942
357 0 56.0684 13.0377 731 97.7114 120.04 486.692
358 0 55.1729 11.1468 615 102.185 119.811 485.99
359 0 60.1047 12.029 723 99.8382 120.613 484.826
360 0 60.0499 11.5237 692 101.402 120.822 484.486
361 0 62.0543 11.0065 683 101.395 120.145 482.675
362 0 65.0556 12.62 821 97.9123 119.817 480.551
363 0 67.0838 11.2397 754 101.081 120.107 481.241
364 0 68.0934 10.5297 717 103.37 119.985 481.286
365 0 69.048 10.9924 759 103.108 119.406 478.235
366 0 74.0666 11.6787 865 101.536 119.886 478.213
367 0 75.0368 11.3678 853 102.94 119.947 476.821
368 0 77.1126 11.5156 888 103.889 119.655 472.239
369 0 81.0545 11.8315 959 104.283 119.943 471.942
370 0 83.0713 10.6535 885 112.523 119.718 472.168
371 0 86.0882 11.6973 1007 109.95 119.324 470.431
372 0 89.2506 10.7674 961 113.2 119.634 467.923
373 0 92.349 12.2037 1127 110.934 119.928 463.803
374 1 47.2563 9.41673 445 107.573 120.09 487.654
375 0 50.349 11.3607 572 103.913 120.607 487.173
376 0 52.1152 12.1462 633 102.273 119.747 488.791
377 0 53.0624 11.7786 625 103.603 120.245 489.221
378 0 53.0804 11.6992 621 104.755 119.958 488.523
379 0 57.2062 10.5583 604 105.313 119.561 487.194
380 0 58.0536 10.6798 620 106.635 119.771 486.871
381 0 60.1233 11.8423 712 105.44 119.876 484.934
382 0 60.1618 10.9704 660 108.529 119.942 483.192
383 0 65.0969 12.9499 843 103.305 120.301 483.957
384 0 65.1731 11.4004 743 109.257 120.118 481.996
385 0 66.1778 11.0158 729 111.067 120.051 481.365
386 0 70.3887 10.9677 772 111.434 120.496 479.105
387 0 72.3893 12.0874 875 108.645 120.633 479.015
388 0 75.4917 12.2927 928 109.649 120.4 476.593
389 0 76.4745 12.1217 927 111.033 119.86 475.502
390 0 80.3012 12.5652 1009 109.839 119.313 474.911
391 0 82.2496 10.6748 878 114.61 120.157 473.917
392 0 86.3881 11.5872 1001 112.819 119.723 473.783
393 0 88.3877 12.6262 1116 112.027 120.075 469.823
394 0 92.2931 11.8969 1098 113.146 120.131 470.032
395 1 48.233 10.1797 491 107.631 121.031 492.275
396 0 47.2192 10.0171 473 109.423 120.848 491.926
397 0 50.0931 11.0993 556 106.018 120.397 490.246
398 0 50.0759 10.3643 519 109.572 119.676 487.586
399 0 53.1694 11.4163 607 106.26 120.7 487.386
400 0 54.1183 11.6781 632 105.573 121.429 488.769
401 0 55.0594 12.7862 704 103.81 120.739 486.18
402 0 57.2513 11.86 679 106.641 120.901 485.37
403 0 59.128 11.2975 668 107.073 120.37 486.323
404 0 62.2455 11.6635 726 105.663 120.165 484.496
405 0 62.0927 11.9499 742 106.598 120.19 484.306
406 0 63.1192 12.1041 764 107.329 120.589 482.126
407 0 66.1133 12.887 852 104.762 120.021 483.067
408 0 68.1509 12.6337 861 106.3 120.161 480.649
409 0 69.1719 12.1726 842 107.614 120.097 479.767
410 0 72.3388 12.1788 881 107.468 120.024 479.807
411 0 73.231 11.8666 869 108.331 120.07 478.735
412 0 76.2133 12.3863 944 108.263 119.607 477.564
413 0 78.269 11.9332 934 108.887 120.281 474.242
414 0 81.1932 12.7351 1034 106.822 119.631 473.561
415 0 83.2489 12.829 1068 116.448 119.604 472.208
416 0 86.381 13.6951 1183 114.233 120.377 470.749
417 0 88.3103 12.8864 1138 116.224 120.326 468.94
418 0 91.3177 13.0095 1188 116.6 120.359 468.332
419 0 93.3438 13.0057 1214 116.113 119.937 467.717
420 0 96.4004 12.7904 1233 117.183 119.937 464.944
421 0 98.3236 13.1708 1295 116.584 119.888 462.442
422 0 103.213 13.7289 1417 106.405 120.627 462.658
423 0 106.249 13.5437 1439 107.557 120.555 461.175
424 0 110.198 13.0311 1436 109.18 120.112 458.549
425 0 113.225 12.6208 1429 111.998 119.928 455.982
426 0 117.405 12.5293 1471 111.848 120.09 456.725
427 1 63.1883 10.4608 661 104.374 119.89 481.572
428 0 64.2879 11.7752 757 101.956 120.716 482.404
429 0 64.1138 11.7759 755 102.976 120.927 482.873
430 0 67.1009 10.7003 718 105.792 120.163 480.946
431 0 69.2195 11.4996 796 105.144 120.455 479.607
432 0 72.1932 11.4277 825 104.941 120.105 479.128
433 0 75.1574 11.589 871 105.28 120.359 479.762
434 0 75.1133 11.5692 869 106.69 120.428 478.804
435 0 78.1023 11.1008 867 108.508 120.58 475.427
436 0 82.1201 12.1164 995 106.807 120.579 474.44
437 0 82.165 11.0388 907 110.364 119.544 471.889
438 0 86.1721 12.5911 1085 109.535 119.676 470.459
439 0 91.2106 11.8188 1078 111.438 120.469 470.734
440 0 93.1105 10.8903 1014 113.212 120.148 468.799
441 0 97.1787 10.6196 1032 115.11 119.641 464.525
442 0 100.302 9.54123 957 116.786 119.38 465.236
443 0 105.27 12.6817 1335 112.828 120.053 462.349
444 0 105.227 11.2613 1185 115.522 119.514 457.841
445 0 109.406 13.3357 1459 113.714 119.667 458.217
446 1 60.168 11.7837 709 115.639 120.85 484.199
447 0 62.1373 13.0356 810 113.889 120 482.762
448 0 63.2345 12.8885 815 113.982 120.25 482.644
449 0 66.263 12.6466 838 114.727 120.11 479.953
450 0 68.224 13.529 923 112.694 120.024 479.364
451 0 69.3661 12.5277 869 115.84 120.223 478.74
452 0 73.4068 14.2085 1043 110.66 119.668 477.13
453 0 73.2677 11.4921 842 113.57 120.741 478.786
454 0 76.3339 12.0654 921 112.28 120.887 477.246
455 0 79.2728 12.539 994 111.03 120.414 475.841
456 0 81.1986 11.6012 942 113.392 120.486 473.949
457 0 85.2962 12.0873 1031 110.644 120.57 474.152
458 0 87.2148 12.3603 1078 107.513 119.831 470.506
459 0 89.1743 12.1672 1085 108.503 120.173 469.924
460 1 45.0675 10.1847 459 104.015 120.107 493.442
461 0 48.09 11.0834 533 101.677 119.964 494.863
462 0 48.0392 11.0327 530 103.277 119.589 492.287
463 0 50.2374 12.0229 604 101.377 120.742 489.897
464 0 52.1257 12.1054 631 101.29 121.181 490.331
465 0 51.2099 11.8727 608 104.533 120.901 490.98
466 0 51.1432 10.5977 542 108.387 120.314 489.559
467 0 56.1582 12.6072 708 102.665 119.445 488.363
468 0 54.2653 10.3565 562 109.596 120.358 488.37
469 0 59.1795 11.7608 696 105.967 119.823 488.315
470 0 60.1826 12.3624 744 106.055 119.961 484.461
471 0 60.2082 11.2775 679 109.169 119.701 484.935
472 0 62.1085 11.7375 729 109.427 119.418 483.7
473 0 65.1985 12.0862 788 109.382 119.831 482.925
474 0 67.2237 11.8113 794 110.673 119.819 482.568
475 0 69.1785 12.7641 883 109.447 120.31 481.99
476 0 70.1077 11.3254 794 114.714 119.753 481.256
477 0 72.2341 12.2103 882 113.705 119.251 479.613
478 0 77.4089 12.9572 1003 112.008 119.448 476.478
479 0 77.1816 12.3605 954 114.671 119.296 476.767
480 0 81.2557 12.2945 999 115.019 119.365 474.325
481 0 84.4654 12.7626 1078 114.061 119.455 474
482 1 38.2924 9.94975 381 115.273 119.793 495.144
483 0 40.2759 10.9743 442 113.525 120.176 494.07
484 0 42.2697 12.5385 530 111.304 119.921 493.843
485 0 43.1482 12.1674 525 110.352 119.994 495.303
486 0 45.1041 12.4157 560 109.507 119.255 493.37
487 0 46.1346 12.4852 576 110.059 119.46 493.385
488 0 49.1355 12.7606 627 107.794 119.041 493.879
489 0 51.2024 13.1244 672 106.339 119.854 493.147
490 0 53.1406 13.342 709 106.446 119.638 491.255
491 0 52.175 13.3972 699 107.876 119.449 489.578
492 0 53.0418 12.1791 646 110.255 120.404 490.78
493 0 55.0982 13.1402 724 108.157 120.486 489.141
494 0 57.0502 14.6888 838 104.852 120.345 488.74
495 0 60.0319 12.61 757 114.583 120.485 487.712
496 0 60.0403 13.5243 812 110.284 119.834 486.52
497 0 61.0592 12.9383 790 111.91 120.142 486.17
498 0 62.0777 12.436 772 115.685 120.241 483.291
499 0 64.116 12.7737 819 114.795 120.763 483.67
500 0 68.113 12.6701 863 117.101 120.181 484.026
501 0 70.1707 13.1251 921 118.532 120.754 482.783
502 0 70.116 12.7503 894 121.237 120.459 482.69
503 0 74.211 12.7205 944 121.351 121.022 481.681
504 0 75.1916 13.2329 995 121.842 120.916 479.861
505 0 77.1625 12.5968 972 125.285 121.033 479.274
506 0 80.2099 14.0257 1125 121.838 119.907 476.817
507 0 81.1793 13.2176 1073 126.015 120.074 476.823
508 0 87.1519 14.687 1280 122.598 119.688 471.17
509 0 90.2472 14.7927 1335 122.545 119.204 469.98
510 0 92.1205 14.2314 1311 125.603 119.349 467.839
511 0 96.2294 13.5717 1306 128.561 119.165 465.74
512 1 48.0956 12.9534 623 126.785 119.08 490.149
513 0 49.09 13.078 642 128.544 118.637 489.385
514 0 52.06 13.0042 677 129.108 119.677 489.669
515 0 53.0566 13.0804 694 130.39 119.15 489.664
516 0 55.0282 13.6839 753 131.371 119.402 487.114
517 0 58.0647 13.0888 760 132.018 120.117 486.92
518 0 60.0751 13.2501 796 132.815 120.139 485.06
519 0 64.078 14.3419 919 129.02 119.785 484.476
520 0 63.0646 13.4465 848 133.901 120.192 483.65
521 0 64.1071 12.7755 819 136.989 119.705 482.138
522 0 68.1311 13.1218 894 135.426 118.632 479.191
523 0 72.1421 13.4457 970 133.259 120.001 478.736
524 0 75.0534 13.8035 1036 131.161 119.809 477.741
525 0 77.076 13.4932 1040 132.623 120.107 475.967
526 0 79.2008 13.8004 1093 132.194 119.926 473.573
527 0 83.168 13.8876 1155 131.234 119.299 472.378
528 0 86.0766 13.0001 1119 132.823 119.332 471.885
529 0 90.1605 13.2652 1196 131.744 119.354 469.062
530 1 49.0825 11.6946 574 131.695 120.563 489.84
531 0 51.0271 12.1112 618 129.93 120.081 488.406
532 0 52.0522 12.1609 633 132.518 120.341 487.959
533 0 56.1277 13.4515 755 126.457 119.754 487.909
534 0 56.0747 12.3763 694 119.448 119.814 489.61
535 0 56.0207 12.3347 691 120.201 119.566 487.527
536 0 60.027 11.8113 709 118.26 119.326 485.415
537 0 61.0556 11.9072 727 119.58 119.329 483.065
538 0 63.0736 12.2238 771 117.598 119.564 483.969
539 0 64.0628 10.5834 678 119.323 119.112 482.407
540 0 68.0963 13.3047 906 112.507 119.619 481.063
541 0 67.1417 11.8257 794 120.293 119.236 479.264
542 0 73.0349 12.0217 878 118.54 119.424 478.074
543 0 73.0781 11.563 845 121.22 119.447 477.837
544 0 76.0826 13.3539 1016 118.618 118.941 474.71
545 0 80.0541 13.0037 1041 118.563 119.405 475.378
546 0 82.183 12.314 1012 121.995 119.333 472.751
547 0 86.0938 12.4283 1070 121.098 118.782 473.723
548 0 87.1717 12.2287 1066 122.989 119.24 471.428
549 0 92.1978 13.048 1203 122.831 118.969 468.25
550 0 94.098 12.4657 1173 126.46 118.775 467.981
551 0 97.0879 12.6483 1228 126.668 118.194 465.857
552 0 101.194 13.2123 1337 127.298 119.3 460.402
553 0 103.092 13.3764 1379 129.896 118.708 460.637
554 0 107.082 13.4663 1442 129.502 118.035 458.978
555 0 112.245 14.3971 1616 126.286 118.194 455.794
556 0 116.126 13.5973 1579 129.253 118.326 452.101
557 0 120.188 14.0862 1693 126.769 118.07 450.67
558 0 124.266 14.2838 1775 126.092 118.39 447.535
559 0 125.164 13.1827 1650 129.647 118.598 444.94
560 0 132.271 13.6764 1809 126.473 119.155 443.096
561 0 138.145 13.7537 1900 125.977 119.064 440.365
562 0 143.188 14.5612 2085 124.433 118.227 437.541
563 0 145.247 13.3428 1938 128.869 118.261 432.503
564 0 152.224 13.605 2071 127.296 118.731 432.817
565 0 157.349 13.2 2077 128.967 118.545 429.445
566 0 164.346 14.147 2325 126.308 118.352 425.662
567 0 167.385 11.7215 1962 132.427 117.543 424.089
568 0 173.346 13.3317 2311 129.536 118.428 419.808
569 0 178.292 13.4611 2400 129.683 118.004 415.633
570 0 186.355 12.9806 2419 130.485 118.506 415.252
571 0 192.196 15.5778 2994 123.767 118.575 409.998
572 0 198.258 15.1066 2995 125.211 118.248 410.377
573 0 204.321 13.6011 2779 130.964 118.714 405.12
574 0 211.315 13.0043 2748 132.699 119.439 406.144
575 1 139.253 12.0643 1680 129.506 118.996 440.349
576 0 143.376 12.1638 1744 129.204 119.001 435.869
577 0 148.396 12.0623 1790 130.32 117.985 435.477
578 0 153.355 12.4743 1913 130.977 118.409 427.935
579 0 160.378 13.5367 2171 127.646 118.382 428.957
580 0 164.249 11.9696 1966 132.513 118.668 422.783
581 0 172.238 12.7208 2191 129.574 118.176 423.472
582 0 179.344 13.1367 2356 128.877 118.604 419.268
583 0 184.376 13.7436 2534 128.963 118.262 414.602
584 0 190.521 13.1482 2505 129.861 119.046 413.188
585 0 198.466 13.7102 2721 128.876 118.678 409.878
586 0 207.417 13.9574 2895 127.974 118.551 407.599
587 1 50.0519 11.1484 558 114.649 118.661 489.622
588 0 50.194 10.5192 528 118.953 118.25 487.026
589 0 48.023 9.37051 450 114.669 120.018 490.973
590 0 50.0336 10.0732 504 111.956 119.716 491.409
591 0 52.0477 11.1244 579 111.014 119.244 488.276
592 0 54.0564 10.822 585 110 119.344 488.735
593 0 55.0353 10.3207 568 111.039 119.665 489.303
594 0 56.041 10.2603 575 111.963 119.551 485.327
595 0 59.0307 12.2648 724 106.365 119.164 485.758
596 0 59.0468 10.4493 617 110.757 119.049 484.149
597 0 60.0818 10.9018 655 109.211 119.035 484.156
598 0 62.0412 11.1539 692 108.656 118.999 483.883
599 0 64.0636 11.0515 708 108.531 119.583 483.14
600 0 66.0593 11.6865 772 107.874 118.422 480.24
601 0 71.0859 11.2821 802 106.796 119.054 479.425
602 0 74.0431 12.4792 924 103.106 118.446 479.333
603 0 76.053 12.0837 919 104.731 118.309 475.379
604 1 40.009 10.0477 402 105.649 118.764 494.572
605 0 39.0436 10.0401 392 109.296 118.898 493.365
606 0 41.0389 10.4535 429 99.7203 119.217 493.522
607 0 42.0411 10.8941 458 99.1441 117.489 491.771
608 0 42.0423 10.7035 450 100.276 116.769 491.216
609 0 42.0315 9.35013 393 104.267 117.977 491.466
610 0 46.0527 10.0103 461 102.39 117.191 491.642
611 0 48.0608 11.5479 555 99.564 120.44 490.996
612 0 50.0654 12.4038 621 97.4042 120.288 490.639
613 0 49.0279 10.9733 538 102.314 119.939 489.559
614 0 50.0814 11.2617 564 103.023 120.564 490.342
615 0 53.1408 11.8553 630 100.213 120.51 490.225
616 0 54.0948 11.0916 600 102.13 120.095 489.482
617 0 54.0586 11.765 636 102.376 120.333 489.097
618 0 55.0572 10.6071 584 105.38 120.195 488.079
619 0 58.1078 12.0982 703 101.418 120.233 487.326
620 0 58.0792 12.7757 742 101.33 120.301 484.995
621 0 61.1684 12.5065 765 101.626 120.899 484.582
622 0 62.0464 13.8284 858 100.125 119.985 482.845
623 0 65.067 12.2796 799 103.141 120.39 484.834
624 0 65.0356 12.9314 841 102.977 119.303 482.243
625 0 66.0848 11.8787 785 105.701 119.493 482.833
626 0 69.0834 11.3631 785 108.219 119.934 478.883
627 0 73.1465 13.1517 962 104.182 120.043 478.481
628 0 72.1254 11.2166 809 111.089 119.511 476.675
629 0 75.1702 11.893 894 109.22 118.852 475.088
630 1 41.0212 10.1899 418 113.629 120.06 495.17
631 0 43.0842 11.7909 508 103.087 119.563 495.764
632 0 43.09 12.4855 538 104.004 119.976 494.736
633 0 44.0405 12.2842 541 105.22 119.42 494.438
634 0 44.111 10.995 485 110.804 119.328 493.736
635 0 45.1415 11.7409 530 110.779 119.709 493.142
636 0 48.0738 13.188 634 106.828 119.669 492.83
637 0 47.1349 11.8172 557 112.828 119.603 492.849
638 0 50.1195 12.6697 635 111.586 118.802 490.835
639 0 51.1636 12.6457 647 113.179 119.68 489.487
640 0 53.1428 12.457 662 113.388 120.205 490.136
641 0 53.1087 12.3144 654 115.998 119.318 490.339
642 0 55.1626 11.022 608 119.345 119.566 489.212
643 0 56.1084 11.9946 673 119.346 118.738 487.486
644 0 59.0453 13.5489 800 114.825 119.25 486.152
645 0 57.0804 12.4912 713 120.971 119.529 486.456
646 0 62.1125 13.7492 854 116.708 119.68 485.594
647 0 64.0824 13.4982 865 117.338 118.862 486.568
648 0 65.0572 12.9425 842 120.987 119.616 484.052
649 0 67.0558 12.5865 844 122.769 119 483.564
650 0 69.0689 13.349 922 121.274 118.882 482.794
651 0 71.1306 13.8478 985 120.231 118.691 480.237
652 0 72.1258 11.8543 855 127.002 118.778 480.85
653 0 76.1267 14.3839 1095 120.816 119.215 478.515
654 0 80.139 12.653 1014 124.321 119.117 478.262
655 0 82.0661 13.7206 1126 124.093 119.056 475.278
656 1 44.0272 11.3112 498 132.773 119.779 494.05
657 0 46.0959 11.6713 538 131.619 119.494 493.455
658 0 48.138 11.8825 572 134.691 119.488 491.227
659 0 52.0754 11.9058 620 131.548 119.795 490.797
660 0 54.1794 12.5509 680 129.628 119.843 487.5
661 0 54.116 12.7504 690 130.591 120.161 486.851
662 0 57.0653 12.915 737 128.035 119.877 486.878
663 0 58.0944 12.91 750 128.231 119.884 486.66
664 0 60.1147 13.1748 792 126.003 120.217 484.905
665 0 60.155 13.432 808 124.042 120.244 485.04
666 0 63.1261 12.0394 760 126.786 119.696 485.097
667 0 65.1257 11.9615 779 128.089 118.906 481.973
668 0 68.1236 13.4021 913 122.635 118.766 482.359
669 0 69.1183 13.3684 924 124.419 119.456 479.917
670 0 72.2025 14.4593 1044 120.374 118.74 478.768
671 0 75.0952 14.3285 1076 121.212 117.956 477.866
672 0 78.3802 14.3786 1127 120.65 117.613 476.296
673 0 79.1635 13.15 1041 125.556 117.475 475.852
674 0 82.1227 12.8466 1055 125.63 117.674 477.177
675 0 85.1864 13.3472 1137 124.803 118.464 474.558
676 0 89.2554 14.1504 1263 123.022 117.625 473.572
677 1 49.0518 11.6204 570 125.063 117.389 490.986
678 0 52.0417 13.3931 697 119.257 118.072 490.663
679 0 53.0452 12.6307 670 121.706 118.17 490.693
680 0 55.0545 12.9871 715 120.966 119.982 489.246
681 0 53.0582 12.0622 640 121.045 119.602 490.233
682 0 57.0306 12.7125 725 115.349 118.219 489.335
683 0 58.0413 13.0941 760 114.107 118.601 489.174
684 0 58.2291 12.8286 747 117.424 118.082 486.221
685 0 60.0802 12.9327 777 118.319 118.39 485.05
686 0 61.0906 13.3081 813 118.145 118.123 486.351
687 0 64.0502 12.7868 819 119.328 118.349 484.427
688 0 66.0496 12.7177 840 120.374 117.826 484.595
689 0 69.0394 13.485 931 119.099 118.281 482.867
690 0 70.1091 12.6374 886 122.549 118.694 482.251
691 0 70.0189 13.3535 935 122.338 118.125 483.121
692 0 73.0799 13.93 1018 122.412 118.381 480.731
693 0 75.0645 12.6158 947 127.209 118.471 478.365
694 0 78.0728 13.6539 1066 125.209 118.531 478.195
695 0 83.1319 14.1221 1174 122.734 118.445 476.062
696 0 85.1564 14.2209 1211 122.258 118.247 476.145
697 0 86.1142 12.5299 1079 128.588 118.917 474.362
698 0 91.1385 13.4082 1222 126.205 118.436 471.54
699 0 95.1149 13.9831 1330 124.789 119.117 470.236
700 0 96.1454 13.1572 1265 128.775 118.576 470.983
701 0 101.242 13.4232 1359 132.631 118.708 466.77
702 1 52.022 12.6101 656 127.729 118.532 490.982
703 0 53.0376 12.8777 683 130.212 118.045 487.548
704 0 57.0374 13.6752 780 129.478 118.783 487.404
705 0 58.131 13.504 785 130.413 119.29 486.075
706 0 62.1345 14.7905 919 124.886 118.422 485.514
707 0 63.1468 13.6349 861 129.368 118.934 484.548
708 0 66.0985 13.7976 912 127.32 118.446 483.86
709 0 67.1249 13.9293 935 128.598 118 480.775
710 0 70.1564 14.5674 1022 126.509 118.822 480.405
711 0 70.1384 13.0029 912 132.385 118.838 480.532
712 0 73.0611 14.3989 1052 127.899 118.519 479.056
713 0 74.0744 13.5404 1003 131.513 118.666 477.255
714 0 77.1294 13.3672 1031 130.919 118.993 476.752
715 0 80.1363 14.4254 1156 128.753 118.423 473.483
716 0 82.0974 13.8372 1136 129.932 118.282 472.423
717 0 87.2674 15.1374 1321 125.136 119.186 471.621
718 0 88.1756 14.0515 1239 127.384 118.331 471.239
719 0 91.0978 13.3373 1215 125.559 118.729 471.497
720 0 93.1095 14.1446 1317 125.105 118.532 469.055
721 0 96.085 14.2582 1370 124.045 118.531 467.844
722 0 99.1016 13.7939 1367 123.264 118.536 469.136
723 0 103.185 14.6726 1514 122.45 118.401 462.238
724 1 55.0536 12.5877 693 123.619 119.557 485.723
725 0 56.042 12.4371 697 118.71 118.103 484.293
726 0 57.0759 10.2495 585 115.638 117.887 480.863
727 0 58.1029 12.3402 717 110.397 117.851 480.883
728 0 62.0582 12.7622 792 108.306 117.933 479.024
729 0 64.0852 11.6564 747 109.788 118.343 478.573
730 0 65.1016 11.9813 780 109.215 118.692 476.84
731 0 70.0616 11.4613 803 109.849 118.483 474.522
732 0 71.1465 12.0175 855 109.641 118.455 472.669
733 0 74.1065 12.1852 903 108.419 118.432 471.875
734 0 74.1062 11.2946 837 111.63 118.471 470.846
735 0 80.2552 12.8714 1033 109.976 118.397 470.104
736 0 83.1353 11.8963 989 112.654 117.859 468.789
737 0 87.1415 12.5084 1090 118.802 118.484 471.499
738 0 89.2156 12.5427 1119 118.193 118.56 470.786
739 0 93.2367 13.1601 1227 116.455 119.095 467.81
740 1 45.0244 11.3272 510 114.68 119.569 491.029
741 0 48.0201 12.6822 609 107.836 119.816 491.627
742 0 50.0253 11.914 596 108.523 119.475 490.101
743 0 51.0497 12.145 620 107.376 118.635 490.955
744 0 52.0458 12.4314 647 107.748 119.176 488.793
745 0 53.0401 11.1237 590 109.092 119.519 490.634
746 0 55.0301 11.212 617 109.955 119.198 487.669
747 0 58.0491 12.0932 702 107.412 118.732 487.295
748 0 59.0681 12.0877 714 109.254 118.941 485.244
749 0 59.0548 12.4291 734 110.315 119.029 485.188
750 0 62.069 12.1156 752 110.598 118.981 483.891
751 0 64.0633 12.4252 796 110.951 119.335 482.465
752 0 66.112 11.8435 783 112.608 118.838 482.298
753 0 69.1405 12.8579 889 110.774 119.943 480.727
754 0 69.1049 12.879 890 112.411 119.306 479.796
755 0 71.1513 12.6913 903 115.034 117.848 476.299
756 0 76.1358 13.2001 1005 112.632 118.564 476.871
757 0 75.2829 12.7917 963 115.809 118.761 474.972
758 0 79.1665 13.3769 1059 114.845 117.941 473.072
759 0 81.1155 12.5007 1014 117.663 118.5 471.455
760 0 84.1224 14.7761 1243 113.053 117.423 470.932
761 0 84.1892 12.3294 1038 119.581 118.64 468.673
762 0 87.1096 12.4785 1087 120.15 118.484 468.802
763 0 90.2204 12.6468 1141 121.779 118.91 465.351
764 0 93.2021 13.7229 1279 118.488 118.916 463.069
765 0 96.2942 12.7734 1230 121.25 118.741 461.328
766 0 99.1216 12.8933 1278 123.106 118.163 459.258
767 0 104.344 13.053 1362 123.01 118.228 454.713
768 1 59.1187 11.3162 669 117.351 118.031 481.442
769 0 59.0643 11.9531 706 115.763 118.35 479.424
770 0 61.2544 12.4726 764 116.525 118.27 480.479
771 0 62.1408 11.9728 744 121.833 118.188 479.708
772 0 67.1317 14.3747 965 113.653 118.968 478.835
773 0 66.3077 12.1253 804 122.95 118.361 478.842
774 0 69.2108 12.2958 851 123.588 118.637 476.001
775 0 73.2582 13.2954 974 120.226 118.515 476.47
776 0 75.2738 12.3815 932 123.619 118.263 474.044
777 0 77.2644 13.4862 1042 122.483 118.402 473.288
778 0 78.2415 12.8576 1006 125.879 118.514 472.347
779 0 83.2371 13.8039 1149 123.561 119.462 475.204
780 0 85.0496 14.2858 1215 122.352 119.4 475.304
781 0 85.0774 12.471 1061 130.437 119.896 472.959
782 0 88.1887 13.5505 1195 128.434 118.936 471.495
783 0 90.2113 12.4818 1126 132.907 118.863 470.036
784 0 91.2244 13.0228 1188 132.212 119.032 467.38
785 0 94.1919 12.2197 1151 133.639 119.277 466.422
786 0 101.293 14.0583 1424 128.19 119.553 465.156
787 0 103.243 14.2092 1467 129.868 118.142 463.577
788 0 105.331 13.88 1462 130.953 118.726 460.592
789 0 109.195 13.4988 1474 129.37 119.289 463.544
790 0 113.193 14.4973 1641 126.578 118.243 458.615
791 0 116.248 12.9206 1502 130.177 118.397 457.5
792 0 120.182 13.1634 1582 125.461 117.999 453.506
793 1 63.1263 12.3562 780 121.465 119.4 483.703
794 0 64.1284 11.5549 741 123.323 119.435 484.81
795 0 67.1474 13.4183 901 118.43 119.916 482.26
796 0 69.0838 12.8684 889 120.17 119.277 479.999
797 0 71.1393 13.1994 939 118.706 117.637 480.447
798 0 72.0739 12.0848 871 123.099 117.546 480.401
799 0 74.0633 12.9484 959 120.245 117.76 478.199
800 0 77.1612 12.6359 975 121.181 117.979 477.172
801 0 81.141 12.62 1024 119.744 118.098 476.432
802 0 84.1446 12.5142 1053 120.178 117.653 472.681
803 0 88.1782 12.8036 1129 118.67 117.231 472.725
804 0 90.164 11.9227 1075 120.591 118.026 471.037
805 0 93.1209 12.8435 1196 118.212 117.818 467.776
806 1 52.1157 10.6302 554 119.93 117.54 488.493
807 0 53.038 11.143 591 109.729 117.553 485.347
808 0 53.0552 9.85766 523 107.91 117.235 482.04
809 0 56.1119 11.281 633 102.869 118.494 482.142
810 0 59.1442 11.6495 689 116.787 117.689 485.094
811 0 61.1145 11.6339 711 117.394 118.437 483.937
812 0 63.0777 12.2706 774 116.169 117.664 483.645
813 0 65.0693 13.0015 846 113.155 117.369 483.566
814 0 68.1022 12.1288 826 116.666 116.962 480.724
815 0 68.1065 12.3043 838 117.252 117.084 479.802
816 0 72.0932 12.9554 934 115.573 117.849 477.562
817 0 74.116 12.386 918 116.722 117.16 479.185
818 0 77.1834 12.6711 978 117.297 117.989 477.229
819 0 81.0682 12.8164 1039 117.119 118.013 475.213
820 1 43.0179 10.4375 449 117.178 117.428 495.666
821 0 45.0294 12.5918 567 113.266 116.794 493.192
822 0 47.0836 11.7875 555 112.452 118.357 493.378
823 0 49.0202 11.9747 587 116.404 117.578 491.32
824 0 51.0606 13.1608 672 114.362 117.667 491.997
825 0 53.0423 12.3298 654 116.63 118.075 491.281
826 0 54.0888 12.5719 680 118.162 117.903 489.837
827 0 55.1024 13.484 743 115.241 117.857 490.303
828 0 56.0991 12.4244 697 121.261 117.977 487.928
829 0 58.0551 12.6087 732 121.164 117.755 487.366
830 0 59.0885 12.8451 759 120.325 117.13 488.773
831 0 59.1113 11.9943 709 124.898 116.535 486.63
832 0 64.0665 13.1582 843 121.295 117.257 486.136
833 0 65.0567 12.589 819 123.231 117.582 486.332
834 0 65.2046 13.4346 876 122.366 117.736 483.854
835 0 69.1652 14.2123 983 119.268 117.921 483.426
836 0 71.1128 15.3278 1090 115.802 117.686 481.526
837 0 70.1717 13.3815 939 122.154 117.636 480.829
838 0 75.0643 13.4551 1010 121.479 117.728 480.316
839 0 76.0873 13.4056 1020 122.587 117.677 477.769
840 0 79.1097 13.0831 1035 121.436 118.095 478.589
841 0 81.2116 14.2467 1157 118.33 117.608 477.957
842 0 85.0549 14.4377 1228 118.204 117.829 475.669
843 0 84.1155 14.0878 1185 121.608 117.505 474.18
844 0 87.0926 13.0551 1137 124.051 117.549 472.341
845 0 91.1157 14.2017 1294 121.305 117.943 471.826
846 1 52.1185 12.414 647 120.68 117.104 491.961
847 0 51.0544 12.3006 628 124.156 117.006 490.412
848 0 53.0902 12.9968 690 121.658 117.261 489.499
849 0 54.0728 11.2441 608 112.275 116.942 488.237
850 0 57.0644 12.3895 707 108.693 118.453 487.871
851 0 59.0731 12.8146 757 108.469 118.218 487.695
852 0 59.0386 12.4495 735 111.246 117.663 486.893
853 0 61.069 13.9678 853 109.26 118.134 484.608
854 0 62.0341 13.009 807 112.097 118.259 483.859
855 0 65.075 12.4164 808 113.616 117.728 483.088
856 0 66.0625 13.2753 877 111.379 118.543 482.315
857 0 71.1504 14.111 1004 109.232 118.519 480.307
858 0 70.0403 12.9782 909 114.122 118.41 479.787
859 0 75.1052 13.1283 986 112.744 117.859 477.574
860 0 77.071 13.7276 1058 113.404 118.038 477.397
861 0 80.0782 14.1237 1131 114.821 118.135 476.021
862 0 84.0586 14.014 1178 114.653 118.448 474.959
863 0 86.204 13.1896 1137 117.792 117.617 472.208
864 0 88.089 12.8506 1132 120.185 117.927 472.92
865 0 93.1032 14.4678 1347 116.776 118.239 469.42
866 0 98.2357 13.4574 1322 120.041 118.319 468.336
867 1 53.0514 12.6858 673 124.407 118.432 491.083
868 0 54.1347 12.8383 695 126.813 117.639 490.26
869 0 57.1609 13.8206 790 124.924 118.327 488.584
870 0 57.1475 12.669 724 130.262 117.732 487.608
871 0 60.2491 14.6724 884 123.92 117.831 485.959
872 0 63.1483 13.4129 847 127.632 118.1 485.073
873 0 64.3515 14.5917 939 125.273 118.57 484.304
874 0 66.2113 14.6501 970 125.997 117.922 481.554
875 0 69.1523 14.1282 977 126.385 117.858 480.948
876 0 70.1857 13.5498 951 128.463 117.647 479.351
877 0 71.2742 14.3109 1020 127.993 117.35 475.541
878 0 74.2763 13.8267 1027 129.15 117.575 476.166
879 0 77.2702 13.8605 1071 127.413 117.514 476.217
880 0 77.1061 12.5671 969 123.227 117.788 477.72
881 0 82.0398 12.8352 1053 123.002 117.859 475.408
882 0 83.0542 13.8464 1150 121.003 117.63 474.802
883 0 88.19 13.2101 1165 122.529 117.639 473.004
884 0 91.2676 13.8823 1267 122.772 118.249 470.291
885 0 91.1176 12.2589 1117 127.729 117.825 469.654
886 0 97.1272 14.0537 1365 122.98 118.204 467.863
887 1 49.0697 11.9626 587 120.799 117.574 489.273
888 0 50.1551 13.2987 667 120.417 117.685 488.064
889 0 52.192 13.4503 702 125.913 117.86 487.084
890 0 51.1567 12.1783 623 121.148 118.175 489.14
891 0 54.1608 12.6106 683 120.338 118.552 486.876
892 0 55.0535 12.0065 661 122.537 118.115 487.124
893 0 59.0465 12.8543 759 120.241 118.458 485.166
894 0 61.0297 12.7315 777 120.371 118.193 484.171
895 0 61.0844 12.229 747 122.95 118.905 483.677
896 0 64.092 13.1998 846 120.725 118.924 484.515
897 0 66.2172 12.9876 860 121.458 118.578 481.14
898 0 68.1637 13.3062 907 119.996 118.931 478.901
899 0 70.3304 12.9389 910 121.008 119.077 477.274
900 0 74.2561 13.6285 1012 118.434 118.467 477.686
901 0 75.2052 13.4166 1009 121.082 118.927 474.72
902 0 78.2236 13.1546 1029 121.009 119.075 475.327
903 0 80.3951 13.272 1067 121.919 118.944 471.3
904 0 83.2531 13.1527 1095 121.987 118.247 472.642
905 0 84.4096 13.1265 1108 123.537 118.614 470.873
906 0 86.2414 13.497 1164 123.126 118.716 469.815
907 0 89.3482 12.8598 1149 124.764 118.586 468.755
908 0 94.2675 13.7587 1297 122.665 118.544 467.229
909 0 95.1841 13.3741 1273 124.706 118.593 465.258
910 0 98.3611 13.4098 1319 124.336 118.701 464.559
911 0 101.171 14.8066 1498 121.885 118.437 461.741
912 0 105.334 15.2182 1603 119.914 118.429 460.392
913 0 110.42 14.0644 1553 122.368 118.276 458.833
914 0 113.347 14.5218 1646 122.03 118.283 455.64
915 0 116.268 14.1054 1640 123.105 117.691 454.918
916 0 119.331 12.612 1505 126.999 117.797 453.205
917 0 126.347 13.7241 1734 122.369 118.135 452.29
918 1 72.2524 12.3456 892 117.753 118.277 478.53
919 0 76.1886 12.3641 942 120.639 118.379 476.193
920 0 77.3119 12.6759 980 120.714 118.445 474.471
921 0 81.4079 12.8857 1049 118.857 118.485 475.5
922 0 84.2368 13.7944 1162 118.065 118.752 471.413
923 0 86.2495 13.4957 1164 119.127 118.639 471.166
924 0 90.4348 13.7668 1245 119.373 117.839 468.894
925 0 92.1455 12.502 1152 122.693 118.631 468.955
926 0 98.3059 13.2444 1302 120.637 118.098 465.777
927 0 97.2183 12.1273 1179 125.344 118.165 463.236
928 0 103.281 13.0131 1344 122.682 118.284 463.248
929 0 106.238 13.2627 1409 122.122 118.392 460.511
930 0 110.278 12.7315 1404 123.076 118.581 459.424
931 0 113.365 13.064 1481 123.138 118.392 457.372
932 0 116.3 12.5366 1458 124.888 118.576 455.977
933 0 121.417 13.1448 1596 122.73 118.127 456.856
934 0 124.29 12.9375 1608 123.949 118.691 452.202
935 0 130.205 13.1716 1715 124.465 118.591 447.68
936 0 136.323 15.1552 2066 119.736 118.771 444.923
937 1 69.2749 11.4038 790 118.122 118.441 477.703
938 0 73.4136 12.559 922 114.073 118.257 478.541
939 0 77.077 12.014 926 114.511 118.539 476.841
940 0 79.1316 13.0416 1032 112.728 118.589 475.944
941 0 81.1886 12.28 997 116.046 118.511 474.123
942 0 87.083 13.045 1136 112.783 118.616 474.331
943 0 90.1392 12.5916 1135 113.931 118.528 470.822
944 0 90.1046 11.2536 1014 118.581 118.532 469.088
945 0 95.1825 12.0085 1143 116.081 118.648 468.242
946 0 99.21 12.1359 1204 116.804 118.213 466.197
947 0 102.321 12.0014 1228 117.433 118.808 465.508
948 0 107.319 13.7161 1472 113.211 118.448 463.885
949 0 108.235 11.5951 1255 115.691 117.981 460.616
950 1 57.3024 11.3433 650 109.434 118.337 486.485
951 0 60.096 12.1972 733 107.044 118.368 487.025
952 0 61.1542 12.7383 779 107.362 117.875 483.327
953 0 63.0466 11.6263 733 109.915 117.825 484.584
954 0 66.2047 11.9629 792 108.672 118.702 482.045
955 0 67.1912 11.0134 740 112.431 119.009 481.149
956 0 71.2752 12.3465 880 110.003 118.684 479.673
957 0 73.1948 12.05 882 114.31 118.525 477.084
958 0 76.1285 11.5069 876 116.326 118.616 476.784
959 0 79.1799 11.3918 902 115.145 118.394 478.619
960 0 80.3 11.1083 892 118.742 117.879 473.561
961 0 86.3332 12.7529 1101 113.504 118.112 473.53
962 0 88.2412 12.4885 1102 114.795 118.439 471.871
963 0 89.263 11.7182 1046 117.331 118.097 470.472
964 0 92.4561 11.93 1103 117.956 118.614 466.409
965 1 48.2134 11.4284 551 110.354 118.345 491.004
966 0 50.0238 11.0348 552 112.639 117.576 489.884
967 0 53.0589 12.2882 652 108.824 118.094 489.623
968 0 57.1921 10.8931 623 110.01 118.226 490
969 0 56.0586 11.8626 665 110.429 117.931 486.251
970 0 57.0823 12.0002 685 110.35 118.86 486.641
971 0 60.2234 11.4407 689 111.459 118.286 485.646
972 0 63.1218 11.5966 732 111.631 118.178 484.988
973 0 65.0892 12.0911 787 113.656 118.672 481.447
974 0 67.2746 12.1889 820 111.984 119.116 483.42
975 0 68.2017 12.1258 827 113.283 118.52 480.001
976 0 72.318 13.3577 966 109.924 118.695 479.456
977 0 73.2581 12.7085 931 111.501 119.666 478.147
978 0 75.2998 13.0147 980 111.976 118.866 477.054
979 0 78.2001 12.5703 983 113.579 118.716 476.138
980 1 40.0594 11.8075 473 114.6 118.609 493.243
981 0 43.1047 11.6229 501 112.982 118.89 495.194
982 0 45.1162 11.814 533 112.887 119.049 493.578
983 0 45.1504 12.3587 558 115.306 118.516 491.722
984 0 47.0837 12.4035 584 116.175 118.18 489.947
985 0 48.0577 13.2341 636 115.305 117.687 489.855
986 0 48.0324 10.9718 527 120.522 118.586 490.672
987 0 50.0791 13.0593 654 117.185 118.632 488.924
988 0 54.1452 12.3557 669 118.202 118.822 488.294
989 0 55.0827 12.8897 710 118.387 118.951 486.6
990 0 57.1725 13.468 770 117.148 118.543 485.609
991 0 59.1317 13.2754 785 118.251 118.256 484.418
992 0 61.2678 13.5634 831 117.474 117.928 483.611
993 0 63.0966 12.6156 796 120.069 118.621 482.982
994 0 65.1088 14.0073 912 117.581 117.671 479.511
995 0 66.1802 13.4481 890 119.442 118.048 480.719
996 0 71.2512 13.305 948 119.071 118.295 479.271
997 0 73.1129 13.3082 973 119.752 118.525 477.111
998 0 75.1954 13.1923 992 120.981 117.603 476.089
999 0 78.1121 13.391 1046 118.579 118.135 477.341
1000 0 81.2139 13.3105 1081 119.783 118.462 473.019
1001 0 83.1056 13.2362 1100 118.55 117.749 471.574
1002 1 44.0551 12.4617 549 116.816 117.834 488.944
1003 0 47.0772 11.9591 563 116.996 118.737 490.364
1004 0 48.0641 13.0659 628 117.269 118.299 490.922
1005 0 49.1207 13.1309 645 117.371 117.972 487.189
1006 0 50.0547 14.0247 702 115.87 118.264 488.913
1007 0 50.1357 12.8052 642 120.547 118.4 490.377
1008 0 51.1612 12.4117 635 123.131 117.647 489.805
1009 0 54.0866 13.2196 715 121.259 118.578 488.79
1010 0 58.0842 13.5321 786 119.641 118.525 487.342
1011 0 57.1095 12.9576 740 123.764 117.869 485.873
1012 0 60.0934 12.3475 742 124.708 118.089 485.439
1013 0 63.077 14.7439 930 118.888 118.1 483.38
1014 0 65.1587 14.6258 953 118.417 117.157 483.609
1015 0 66.0776 13.8322 914 122.743 118.437 482.824
1016 0 70.0736 14.6846 1029 120.308 118.16 480.526
1017 0 71.1594 14.1794 1009 123.207 118.486 479.272
1018 0 74.2242 13.3784 993 125.998 119.022 477.791
1019 0 78.2022 13.4267 1050 125.813 118.928 476.413
1020 0 80.1504 14.0985 1130 124.683 118.603 473.895
1021 0 83.1499 13.5178 1124 126.598 118.367 474.188
1022 0 86.1236 14.3166 1233 125.587 118.488 473.101
1023 0 88.1567 14.3154 1262 127.979 118.578 471.572
1024 0 90.2349 13.9192 1256 131.95 118.618 469.522
1025 0 94.1876 13.6748 1288 130.957 119.381 469.52
1026 0 95.1492 13.6102 1295 133.647 118.046 466.682
1027 0 102.197 14.4623 1478 129.873 118.728 466.968
1028 0 104.151 14.0181 1460 132.812 117.673 464.371
1029 1 55.1998 13.4964 745 124.542 118.722 490.263
1030 0 56.1177 13.6855 768 126.391 118.751 488.048
1031 0 58.1026 14.44 839 124.441 119.192 486.759
1032 0 59.1081 13.1792 779 128.856 119.359 485.809
1033 0 60.0976 13.1453 790 128.022 118.923 486.611
1034 0 64.1229 14.0823 903 125.262 118.914 485.092
1035 0 66.077 14.7706 976 124.402 118.407 483.457
1036 0 67.0819 13.9382 935 127.359 118.303 481.913
1037 0 69.0886 13.6347 942 128.415 119.053 481.396
1038 0 70.0969 12.8679 902 130.771 119.09 479.973
1039 0 73.0673 12.5774 919 130.804 118.642 479.753
1040 0 74.1396 12.6113 935 131.29 118.376 477.979
1041 0 78.0662 13.591 1061 128.615 119.179 476.078
1042 0 81.2094 13.5945 1104 128.287 117.474 473.665
1043 0 84.1924 13.3266 1122 128.759 118.619 472.379
1044 0 89.1665 14.1421 1261 126.146 118.634 471.783
1045 0 89.1612 13.7504 1226 127.647 118.613 471.838
1046 0 93.0802 14.2565 1327 126.223 118.219 467.126
1047 0 98.1194 14.7066 1443 126.622 118.27 467.435
1048 0 102.207 12.8954 1318 130.668 118.217 465.77
1049 0 105.308 13.8451 1458 128.203 117.773 462.644
1050 1 55.0863 12.2717 676 125.41 119.09 486.547
1051 0 60.0621 13.7857 828 120.781 117.866 484.192
1052 0 61.0576 13.6756 835 119.356 117.916 485.083
1053 0 63.1096 13.1834 832 120.757 118.085 484.174
1054 0 66.1464 12.7596 844 120.799 118.069 483.57
1055 0 67.1256 13.4971 906 119.764 118.275 481.189
1056 0 70.0416 13.4777 944 119.556 118.222 479.547
1057 0 71.1198 12.9922 924 120.457 118.285 479.447
1058 0 75.0625 13.6819 1027 118.826 118.509 476.391
1059 0 78.0861 13.959 1090 118.72 118.454 475.049
1060 0 81.1307 12.7202 1032 121.982 118.092 474.732
1061 0 86.0704 14.4765 1246 117.908 117.643 472.124
1062 0 86.2233 12.9663 1118 122.962 117.55 470.91
1063 0 91.1448 13.2646 1209 122.289 117.513 465.306
1064 0 95.3372 13.2477 1263 120.857 117.865 465.785
1065 0 98.3523 14.4786 1424 118.104 117.89 464.235
1066 0 101.199 13.676 1384 119.291 118.34 461.905
1067 1 55.1229 12.0821 666 121.234 118.339 484.134
1068 0 56.2682 11.6229 654 123.196 118.037 481.962
1069 0 58.129 11.3197 658 123.555 118.172 480.497
1070 0 60.1346 12.3722 744 121.351 117.681 480.685
1071 0 63.146 12.6215 797 119.08 117.872 480.056
1072 0 63.2687 12.6919 803 121.902 117.909 479.365
1073 0 67.1394 13.7326 922 123.202 117.72 479.232
1074 0 71.2514 13.2769 946 123.419 117.274 475.92
1075 0 73.3006 13.9972 1026 121.279 117.319 473.389
1076 0 75.1807 12.2106 918 123.256 117.049 470.199
1077 0 79.2418 12.4051 983 121.995 116.195 470.738
1078 0 81.209 12.9789 1054 119.631 116.568 469.104
1079 0 82.1339 12.2118 1003 122.082 117.067 468.561
1080 0 85.2223 13.5059 1151 119.454 116.359 467.512
1081 0 89.317 14.4877 1294 116.684 117.361 465.474
1082 0 92.2748 13.5682 1252 118.641 116.709 463.817
1083 0 95.2496 13.6799 1303 118.893 116.358 463.18
1084 0 99.2551 14.0849 1398 117.427 116.217 461.388
1085 0 101.185 14.4883 1466 116.752 116.647 460.404
1086 0 104.263 14.0893 1469 119.337 116.474 458.346
1087 0 107.17 14.1924 1521 119.007 116.187 458.247
1088 0 108.237 13.4519 1456 122.293 116.798 456.729
1089 0 113.342 13.7813 1562 120.94 116.412 456.77
1090 0 117.265 13.6955 1606 120.529 116.994 455.156
1091 0 121.32 13.2624 1609 123.295 117.079 450.759
1092 0 126.275 15.4662 1953 117.424 117.136 448.512
1093 0 130.287 14.2685 1859 121.08 116.307 445.887
1094 0 136.2 14.2878 1946 120.536 115.846 444.515
1095 0 139.331 14.2539 1986 121.165 115.244 441.109
1096 0 145.37 16.028 2330 115.688 116.715 439.387
1097 0 149.271 14.6512 2187 119.737 116.946 436.054
1098 0 155.323 14.3958 2236 119.424 116.851 434.107
1099 1 88.3691 13.4436 1188 118.322 118.184 467.051
1100 0 91.305 13.1209 1198 117.391 117.935 465.624
1101 0 93.2152 12.0903 1127 120.075 117.987 461.5
1102 0 99.394 13.4817 1340 114.523 117.519 460.485
1103 0 102.601 13.645 1400 113.494 117.343 458.596
1104 0 103.287 13.0801 1351 116.483 117.363 455.048
1105 0 105.36 12.3576 1302 118.689 117.697 454.464
1106 0 110.391 12.2383 1351 118.499 117.824 453.397
1107 0 114.315 14.67 1677 113.273 118.363 452.674
1108 0 118.263 13.9097 1645 115.069 117.511 450.489
1109 0 121.479 14.2494 1731 114.786 117.923 448.18
1110 0 127.369 14.6425 1865 112.604 117.477 448.483
1111 0 130.263 14.0485 1830 115.149 117.317 444.614
1112 0 135.397 14.9708 2027 112.777 117.815 442.325
1113 0 139.512 14.5508 2030 114.628 117.76 439.431
1114 0 144.217 13.7363 1981 116.936 117.664 436.815
1115 1 80.2309 9.7344 781 115.455 118.945 470.233
1116 0 83.1963 11.9957 998 110.094 117.566 468.246
1117 0 87.2001 12.7637 1113 105.509 117.466 469.873
1118 0 88.276 11.6566 1029 111.481 116.703 468.375
1119 0 92.3278 13.3329 1231 107.787 117.231 466.66
1120 0 93.3436 11.8701 1108 111.904 116.417 465.321
1121 0 98.2701 11.621 1142 112.837 116.894 463.124
1122 0 99.3545 12.088 1201 113.445 116.582 459.62
1123 0 103.227 12.5064 1291 112.483 115.986 460.001
1124 0 108.344 12.8942 1397 111.168 116.554 460.18
1125 0 112.208 13.1185 1472 110.787 117.322 458.463
1126 0 114.362 12.4516 1424 112.36 117.763 457.119
1127 0 119.389 13.3345 1592 110.02 117.315 455.071
1128 0 124.253 13.4806 1675 110.006 116.83 449.704
1129 0 130.431 13.049 1702 109.815 116.939 447.618
1130 0 135.153 13.3922 1810 107.856 117.036 444.097
1131 1 71.1295 10.038 714 99.8319 118.143 476.669
1132 0 72.1304 11.9506 862 96.6624 117.886 475.014
1133 0 75.1811 11.4257 859 103.446 116.214 473.414
1134 0 78.1597 10.8496 848 104.232 115.485 476.765
1135 0 82.2793 11.4367 941 104.067 116.247 472.691
1136 0 80.2123 11.3449 910 106.424 115.775 471.373
1137 0 85.2543 11.5419 984 105.479 116.032 472.492
1138 0 87.2202 11.1786 975 108.053 116.514 466.944
1139 0 90.2428 11.9123 1075 108.146 116.02 466.833
1140 0 91.294 11.6656 1065 108.436 116.358 468.781
1141 0 96.3519 12.2675 1182 107.637 116.491 463.992
1142 0 99.2188 11.9735 1188 108.939 116.912 464.15
1143 0 101.26 11.5544 1170 111.232 116.119 460.452
1144 0 110.297 12.9922 1433 105.493 116.669 461.518
1145 0 110.429 11.6726 1289 110.036 116.285 458.414
1146 0 115.31 13.6589 1575 104.876 115.9 457.31
1147 1 63.116 10.8372 684 108.927 115.73 482.279
1148 0 67.1118 11.8608 796 106.687 115.249 480.642
1149 0 67.2507 12.3567 831 102.286 116.249 477.256
1150 0 69.1448 13.8694 959 101.924 114.547 480.254
1151 0 70.0576 12.9322 906 102.823 115.06 480.019
1152 0 73.0487 13.4705 984 102.092 114.956 476.695
1153 0 72.0247 11.4683 826 107.751 114.927 476.424
1154 0 78.0525 13.3884 1045 103.188 114.788 475.401
1155 0 79.0567 12.6239 998 106.708 114.817 473.673
1156 0 82.0672 13.5377 1111 104.993 115.084 472.335
1157 0 86.081 12.8948 1110 106.59 114.803 472.327
1158 0 87.0982 12.2161 1064 109.8 114.305 471.104
1159 0 89.2853 13.2273 1181 110.243 114.9 469.272
1160 0 90.1432 12.935 1166 113.599 115.696 467.751
1161 0 94.2288 12.7031 1197 115.09 114.525 464.266
1162 0 99.1513 13.6055 1349 112.391 114.671 464.67
1163 0 100.283 13.2027 1324 114.866 114.881 460.94
1164 0 101.147 14.3455 1451 112.636 114.611 456.422
1165 0 103.318 12.7761 1320 115.111 115.754 455.699
1166 0 107.222 13.3461 1431 113.83 115.943 454.238
1167 0 112.296 12.3601 1388 116.932 115.665 450.855
1168 0 101.21 11.5403 1168 123.32 115.858 443.28
1169 1 66.1928 9.78958 648 112.134 116.215 474.46
1170 0 66.1498 9.8413 651 113.41 117.124 475.579
1171 0 67.1529 10.8558 729 104.525 117.584 473.254
1172 0 70.0862 11.757 824 103.351 117.199 470.903
1173 0 74.1317 11.2637 835 104.473 116.85 471.34
1174 0 77.0755 11.4433 882 104.365 116.941 468.735
1175 0 77.0811 10.716 826 107.211 116.228 467.392
1176 0 79.1001 10.9861 869 108.199 115.606 467.997
1177 0 82.0704 11.9653 982 106.382 116.905 464.748
1178 0 85.0541 11.3692 967 107.654 116.807 465.203
1179 0 89.1922 11.9069 1062 105.186 115.739 462.151
1180 0 89.1341 10.501 936 109.639 116.163 459.511
1181 0 95.1508 11.8444 1127 105.318 117.006 459.382
1182 0 97.1445 11.5086 1118 106.755 116.793 457.105
1183 0 98.1035 11.6204 1140 108.063 116.352 456.522
1184 0 100.27 10.6911 1072 110.428 116.575 454.984
1185 0 103.214 10.0374 1036 113.858 116.25 452.226
1186 0 101.183 9.65582 977 117.622 115.949 448.472
1187 0 108.208 10.8494 1174 114.261 115.948 448.331
1188 0 110.107 10.5988 1167 116.042 116.073 442.137
1189 0 114.111 11.4274 1304 113.831 116.034 441.661
1190 0 121.201 11.98 1452 111.531 116.473 441.122
1191 1 63.0588 8.84888 558 111.606 116.289 469.679
1192 0 66.0794 9.50372 628 109.365 116.943 468.344
1193 0 69.0652 10.0919 697 107.846 116.993 467.202
1194 0 71.0148 9.68812 688 108.834 117.049 464.956
1195 0 70.0799 9.54624 669 110.975 116.398 464.656
1196 0 76.0905 11.0658 842 107.017 116.363 464.298
1197 0 82.0968 11.4986 944 104.841 116.739 465.645
1198 0 84.095 11.3681 956 105.924 116.469 462.753
1199 0 84.0911 10.6432 895 108.521 116.861 461.92
1200 0 89.1377 11.342 1011 107.272 116.592 462.271
1201 0 90.0781 10.9461 986 109.418 116.805 460.412
1202 0 95.1804 11.8512 1128 108.909 116.656 457.253
1203 0 97.1495 11.4154 1109 112.207 116.335 455.875
1204 0 99.2261 13.051 1295 110.272 116.222 456.344
1205 0 102.238 11.7471 1201 118.993 115.997 454.278
1206 0 104.284 12.4276 1296 119.167 116.604 453.06
1207 0 111.168 12.9174 1436 119.552 116.469 449.253
1208 0 113.193 12.2092 1382 120.947 116.26 449.444
1209 0 119.198 14.2452 1698 116.128 115.778 447.255
1210 0 122.175 13.055 1595 117.996 115.748 447.164
1211 0 125.208 11.5647 1448 121.973 115.014 442.717
1212 1 66.1206 11.6 767 108.668 117.343 481.275
1213 0 70.1037 12.667 888 109.383 117.357 477.243
1214 0 72.176 13.0791 944 109.261 117.006 477.844
1215 0 72.2273 12.5022 903 112.22 116.989 475.437
1216 0 75.1499 12.8277 964 110.206 116.551 476.551
1217 0 77.2134 13.6505 1054 108.764 117.22 473.345
1218 0 79.4153 12.655 1005 112.215 116.901 472.944
1219 0 82.1839 12.9101 1061 112.812 116.884 472.091
1220 0 84.162 12.7968 1077 113.524 116.733 471.474
1221 0 86.389 13.7286 1186 112.489 117.319 470.305
1222 0 88.217 12.5826 1110 116.408 117.459 469.721
1223 0 90.1684 11.8889 1072 119.243 117.295 465.127
1224 0 94.3013 13.7008 1292 114.854 117.772 462.313
1225 0 97.1426 13.9692 1357 114.725 117.506 463.822
1226 0 99.1192 13.2265 1311 117.698 117.36 463.352
1227 0 101.181 12.1465 1229 122.304 117.036 460.708
1228 0 105.204 13.4596 1416 118.51 117.386 460.263
1229 0 104.197 13.5705 1414 121.709 117.813 457.11
1230 0 109.142 12.4059 1354 120.784 117.995 456.981
1231 0 111.264 12.2951 1368 120.647 117.871 453.528
1232 0 116.217 14.4127 1675 116.041 117.678 452.373
1233 0 121.228 14.4933 1757 115.869 117.25 448.999
1234 0 123.17 13.2256 1629 119.419 117.664 447.451
1235 0 127.196 12.8385 1633 120.217 117.173 446.617
1236 1 72.1292 11.2576 812 121.745 116.352 470.453
1237 0 73.0798 12.2332 894 121.426 116.332 466.866
1238 0 76.2213 11.8077 900 122.988 117.136 470.681
1239 0 80.1614 12.7992 1026 121.904 117.375 467.114
1240 0 84.1638 12.8321 1080 120.519 116.394 465.685
1241 0 86.1361 13.5948 1171 119.044 116.693 464.642
1242 0 90.1517 13.3885 1207 119.087 117.489 465.379
1243 0 92.13 13.3181 1227 119.644 117.171 463.376
1244 0 93.2132 13.6032 1268 119.802 116.842 461.147
1245 0 97.1443 12.5689 1221 123.038 117.172 460.515
1246 0 100.173 12.9476 1297 121.904 116.729 458.277
1247 0 104.26 14.0611 1466 119.235 116.679 454.985
1248 0 106.148 12.9442 1374 122.025 116.941 455.826
1249 0 107.156 12.7851 1370 121.077 116.415 454.701
1250 0 109.172 13.9871 1527 118.935 115.403 448.937
1251 1 60.1102 10.4974 631 120.147 115.231 472.599
1252 0 62.1062 10.4659 650 119.114 115.385 472.788
1253 0 65.1777 10.8166 705 117.609 115.818 474.244
1254 0 68.1302 10.7001 729 118.808 116.502 470.006
1255 0 69.2208 12.2073 845 114.955 116.686 470.09
1256 0 68.0864 11.0595 753 120.076 116.011 468.267
1257 0 73.1379 12.1004 885 115.98 115.498 469.068
1258 0 75.1429 13.2414 995 113.909 115.729 467.486
1259 0 78.1323 12.4916 976 115.783 115.685 467.433
1260 0 80.1232 12.306 986 116.267 115.587 467.258
1261 0 81.1517 12.1871 989 118.51 115.422 466.394
1262 0 85.0702 12.3545 1051 118.147 115.625 463.237
1263 0 85.0727 10.8966 927 119.658 116.098 463.417
1264 0 89.1681 10.3288 921 120.005 115.813 463.447
1265 0 88.0523 11.6862 1029 120.245 115.733 458.958
1266 0 94.1814 10.7346 1011 122.476 115.574 460.331
1267 0 99.0569 12.0537 1194 118.645 115.631 459.759
1268 0 99.0867 11.8987 1179 122.123 115.765 453.319
1269 0 104.3 12.023 1254 119.968 116.175 458.62
1270 0 107.132 12.7319 1364 119.185 116.29 452.051
1271 1 58.0867 10.2433 595 112.667 117.012 476.513
1272 0 59.4211 9.71035 577 115.688 117.291 472.411
1273 0 59.0943 10.3394 611 114.111 117.614 472.894
1274 0 65.0706 11.7104 762 120.457 118.319 480.925
1275 0 66.1293 11.6892 773 119.652 118.05 481.172
1276 0 69.1262 11.602 802 120.133 118.191 478.1
1277 0 71.1899 12.8108 912 117.636 117.115 476.066
1278 0 72.1946 11.9538 863 119.651 117.736 476
1279 0 75.1682 12.7314 957 118.525 117.242 473.226
1280 0 76.0983 11.4589 872 121.407 117.428 471.432
1281 0 80.2249 12.4026 995 118.905 117.016 468.944
1282 0 82.2441 12.9736 1067 117.591 117.309 469.886
1283 0 86.2077 11.7275 1011 120.198 117.968 468.667
1284 0 88.138 11.8564 1045 119.322 117.885 470.868
1285 0 93.1304 12.5093 1165 115.246 117.704 464.711
1286 0 93.2046 12.3492 1151 117.043 117.481 460.676
1287 0 97.2334 11.2616 1095 119.326 116.987 460.458
1288 0 101.152 12.7828 1293 115.003 117.552 461.044
1289 0 103.126 11.4036 1176 119.072 117.053 458.713
1290 1 59.2172 10.4699 620 120.916 117.663 479.153
1291 0 58.2753 10.519 613 116.117 117.33 478.02
1292 0 62.1769 11.6442 724 109.744 117.483 480.066
1293 0 64.0311 10.6823 684 112.5 117.49 480.991
1294 0 65.069 10.6502 693 113.302 115.329 477.613
1295 0 68.0737 10.8999 742 112.796 117.213 478.836
1296 0 69.1446 10.7601 744 113.536 117.853 474.927
1297 0 72.1726 11.6526 841 110.109 117.822 477.602
1298 0 76.2286 11.7279 894 110.538 117.199 474.942
1299 0 79.12 12.4874 988 108.824 117.473 474.185
1300 0 78.0878 11.5639 903 112.953 117.089 472.975
1301 0 83.1223 12.6801 1054 110.217 118.061 472.168
1302 0 84.1598 11.3475 955 114.042 118.074 471.864
1303 0 87.2752 12.9017 1126 111.381 117.858 470.907
1304 0 88.1999 12.4717 1100 115.558 117.894 467.196
1305 0 91.2462 12.0115 1096 117.006 118.213 464.693
1306 0 94.1683 12.3608 1164 118.29 117.843 465.667
1307 0 97.2058 12.4478 1210 120.132 117.214 465.169
1308 0 101.299 12.9123 1308 119.642 115.644 459.718
1309 0 105.215 12.5742 1323 121.557 115.621 458.386
1310 1 59.1606 10.5983 627 123.081 115.86 480.923
1311 0 62.1435 11.4413 711 123.761 116.153 480.609
1312 0 65.1555 12.4625 812 122.709 116.323 481.635
1313 0 67.1451 12.9272 868 120.962 117.052 481.303
1314 0 68.1042 13.2738 904 121.507 116.824 479.226
1315 0 70.226 12.7873 898 124.206 117.283 477.224
1316 0 71.2146 13.7753 981 122.35 117.663 476.828
1317 0 72.1919 12.7438 920 125.07 117.342 476.392
1318 0 76.239 13.0248 993 124.494 117.031 473.47
1319 0 80.1308 13.5653 1087 121.549 117.013 473.227
1320 0 82.1151 14.0047 1150 121.843 117.707 472.003
1321 0 84.0606 12.372 1040 127.052 116.859 471.255
1322 0 85.1044 12.7608 1086 126.394 116.98 472.018
1323 0 88.1269 12.9246 1139 126.795 117.183 468.047
1324 0 92.0737 13.0113 1198 126.012 117.194 467.586
1325 0 94.2949 13.3305 1257 125.837 116.687 466.103
1326 0 98.1904 13.372 1313 126.809 117.028 463.804
1327 0 99.1938 12.9343 1283 129.196 115.927 462.32
1328 0 103.195 12.9076 1332 129.001 116.227 461.393
1329 0 105.288 13.8858 1462 126.755 116.635 460.203
1330 0 107.216 13.3748 1434 127.881 117.085 459.022
1331 0 111.178 14.0586 1563 126.143 116.566 456.733
1332 0 112.182 14.2803 1602 125.666 117.287 457.169
1333 0 116.162 13.5501 1574 125.998 116.032 454.494
1334 0 120.119 13.5865 1632 118.637 116.608 454.917
1335 0 123.258 13.7273 1692 118.335 115.873 453.123
1336 1 69.1903 12.1115 838 118.221 116.469 480.635
1337 0 71.1413 12.7774 909 116.072 117.153 480.752
1338 0 73.1198 13.3753 978 114.78 117.078 478.445
1339 0 77.1823 12.9045 996 115.19 116.294 477.664
1340 0 76.1093 13.4543 1024 115.577 116.644 475.222
1341 0 80.0904 14.5086 1162 112.008 116.919 472.879
1342 0 82.1575 13.8514 1138 114.366 117.114 472.741
1343 0 87.0782 14.0678 1225 112.56 116.966 472.301
1344 0 91.1571 14.2282 1297 111.316 116.864 470.178
1345 0 92.1385 13.534 1247 113.507 116.888 466.656
1346 0 94.2297 12.9683 1222 115.549 116.861 464.855
1347 0 96.1841 13.6821 1316 113.651 116.992 465.867
1348 0 99.158 14.2097 1409 112.63 117.639 460.527
1349 0 102.192 12.7309 1301 115.306 116.764 462.158
1350 0 105.198 11.7018 1231 114.922 117.283 460.745
1351 0 109.198 13.9838 1527 110.664 117.902 456.428
1352 0 113.217 12.2067 1382 113.582 117.47 455.152
1353 0 118.189 14.2146 1680 107.876 117.051 454.029
1354 0 122.28 14.2706 1745 108.537 117.975 452.124
1355 0 125.209 11.7484 1471 114.449 117.553 448.298
1356 0 130.25 12.906 1681 112.704 117.17 445.958
1357 0 134.289 12.3019 1652 117.208 117.518 443.012
1358 0 141.255 12.4597 1760 115.821 117.977 439.791
1359 1 74.1714 11.8644 880 104.183 117.25 476.672
1360 0 76.1913 10.5918 807 106.854 116.881 477.602
1361 0 79.1912 10.8219 857 106.805 117.19 474.366
1362 0 81.1835 11.2338 912 107.122 116.616 472.902
1363 0 83.2982 11.4768 956 103.702 116.558 469.085
1364 0 86.2321 10.7269 925 106.056 116.857 469.085
1365 0 89.23 10.3216 921 106.442 116.504 467.749
1366 0 93.1435 10.8435 1010 106.862 116.497 464.984
1367 0 96.1383 11.7435 1129 106.899 116.845 463.154
1368 0 98.2725 11.9362 1173 107.398 116.957 464.85
1369 0 102.223 12.3846 1266 107.343 116.385 461.865
1370 0 106.189 12.5249 1330 108.171 116.769 460.203
1371 0 108.141 10.4956 1135 113.642 117.502 457.451
1372 0 110.113 9.85354 1085 114.059 116.975 457.012
1373 0 115.159 11.9313 1374 110.742 117.462 455.585
1374 1 69.0629 11.6995 808 110.219 118.004 479.356
1375 0 72.0728 11.9185 859 107.708 117.705 476.107
1376 0 73.2044 10.9146 799 99.8523 116.437 472.92
1377 0 74.1343 10.0089 742 103.019 116.717 469.879
1378 0 75.1402 9.92811 746 103.543 116.109 469.103
1379 0 80.1622 11.3021 906 101.051 116.002 470.724
1380 0 82.1969 11.4481 941 101.153 116.431 469.316
1381 0 83.1568 10.9672 912 104.179 116.07 463.407
1382 0 89.126 11.1303 992 101.997 116.768 464.994
1383 0 91.3232 12.735 1163 99.4987 116.099 464.127
1384 0 94.1781 12.3596 1164 101.397 116.149 460.002
1385 0 98.3098 11.7994 1160 103.213 116.942 457.483
1386 0 102.505 12.5653 1288 101.57 116.518 458.691
1387 0 101.261 10.8828 1102 107.266 116.386 454.941
1388 0 106.249 12.3671 1314 103.729 117.691 453.19
1389 0 110.321 11.1946 1235 107.399 117.197 451.807
1390 1 61.1238 10.6669 652 105.646 117.979 476.857
1391 0 59.283 9.81732 582 107.411 117.5 476.285
1392 0 60.0899 8.40408 505 112.487 117.741 473.469
1393 0 66.1131 11.8736 785 102.654 117.682 475.383
1394 0 67.1916 10.671 717 105.734 117.614 474.504
1395 0 70.1727 10.7734 756 105.696 116.892 474.987
1396 0 71.1268 10.0525 715 108.291 117.104 473.25
1397 0 73.1037 10.8339 792 107.097 116.684 470.299
1398 0 76.0804 10.042 764 108.338 116.846 469.162
1399 0 79.0862 10.5707 836 105.842 116.288 470.962
1400 0 82.1075 10.0965 829 107.502 116.727 469.123
1401 0 84.1026 9.42896 793 110.368 116.566 464.144
1402 0 87.1263 11.4432 997 105.537 116.753 463.924
1403 0 89.1 10.9764 978 106.306 117.1 464.105
1404 0 91.2031 11.2825 1029 106.316 116.009 457.421
1405 0 92.0894 8.87182 817 112.479 115.585 454.972
1406 0 96.1924 11.2899 1086 107.392 116.139 456.064
1407 0 101.283 11.4432 1159 105.612 115.167 458.725
1408 0 105.161 11.782 1239 105.77 116.014 456.06
1409 0 108.197 11.3682 1230 106.146 115.911 456.132
1410 0 107.156 10.3587 1110 109.693 115.383 453.058
1411 0 112.231 11.6545 1308 107.119 115.947 450.027
1412 0 117.09 12.6227 1478 105.198 115.565 448.331
1413 1 63.1748 9.44997 597 99.6198 115.74 470.737
1414 0 63.1636 10.5757 668 102.588 116.084 471.635
1415 0 63.1251 9.40988 594 100.534 116.13 470.123
1416 0 66.202 10.1054 669 99.1091 115.991 469.973
1417 0 67.1438 9.82965 660 101.229 116.033 467.839
1418 0 73.1642 10.866 795 99.7686 115.98 464.711
1419 0 75.0486 10.8729 816 100.168 115.575 467.463
1420 0 78.1425 11.7222 916 99.5011 115.75 466.784
1421 0 79.1333 11.7776 932 101.857 115.62 462.808
1422 0 84.2101 12.5519 1057 100.247 116.133 464.619
1423 0 86.1799 12.4623 1074 101.477 116.331 462.143
1424 0 88.2682 11.1139 981 104.122 115.947 462.673
1425 0 91.1212 12.2913 1120 102.653 116.734 462.557
1426 0 92.1882 12.507 1153 103.866 117.445 459.997
1427 0 96.1454 12.7827 1229 104.33 116.064 458.655
1428 0 99.1268 13.0742 1296 105.449 117.248 455.302
1429 0 101.213 13.2592 1342 105.741 116.564 457.139
1430 0 106.101 12.5258 1329 109.199 116.779 454.04
1431 0 108.269 12.9307 1400 110.014 116.851 450.721
1432 0 111.106 13.5816 1509 110.575 116.294 445.504
1433 0 114.132 13.9312 1590 110.855 115.562 445.843
1434 0 120.197 13.8107 1660 111.138 115.964 446.752
1435 0 119.123 13.4315 1600 116.752 116.537 445.048
1436 0 124.216 14.2655 1772 115.666 116 439.939
1437 1 67.0984 11.7737 790 121.227 115.708 466.765
1438 0 72.0387 13.6454 983 117.675 115.657 468.828
1439 0 75.0401 13.686 1027 118.786 115.271 465.88
1440 0 77.4492 13.4411 1041 116.58 116.854 470.78
1441 0 80.3638 14.3846 1156 115.172 116.588 469.843
1442 0 80.2054 12.5054 1003 121.973 116.55 469.102
1443 0 84.3461 13.2905 1121 119.128 117.178 467.994
1444 0 87.2343 12.8046 1117 120.756 117.583 466.365
1445 0 90.2848 13.3688 1207 120.751 116.92 464.272
1446 0 90.213 12.5592 1133 124.648 116.599 462.337
1447 0 96.2236 13.8324 1331 120.367 117.121 461.145
1448 0 99.1472 13.5153 1340 121.182 117.132 459.944
1449 0 102.161 13.4297 1372 122.431 116.297 456.237
1450 0 104.141 13.9906 1457 121.262 116.876 454.179
1451 0 107.239 12.4302 1333 125.369 117.202 453.248
1452 0 112.207 14.3752 1613 120.216 116.337 451.851
1453 0 114.258 12.7605 1458 124.595 116.991 451.001
1454 0 117.186 13.1329 1539 123.172 115.697 449.111
1455 1 65.0285 11.2258 730 120.004 115.973 473.116
1456 0 65.0756 12.6315 822 118.46 116.732 472.361
1457 0 70.1795 11.6131 815 109.908 116.618 472.665
1458 0 70.3283 11.2615 792 113.005 116.327 470.405
1459 0 73.1236 11.7746 861 112.127 115.803 470.819
1460 0 74.1377 12.1126 898 113.543 115.64 469.546
1461 0 78.0876 12.3579 965 112.639 115.964 468.496
1462 0 80.0884 12.1865 976 113.776 116.251 468.566
1463 0 81.107 12.1814 988 113.992 116.282 467.611
1464 0 86.0618 12.2586 1055 114.116 115.514 464.933
1465 0 89.119 12.6011 1123 113.397 115.078 464.941
1466 0 90.1017 13.0408 1175 113.967 114.924 462.719
1467 0 91.0579 12.6952 1156 116.138 115.132 460.47
1468 0 95.0741 13.0319 1239 115.657 115.738 461.48
1469 0 97.0909 13.2865 1290 115.991 115.843 459.07
1470 0 98.1369 12.3501 1212 119.424 115.465 457.064
1471 0 105.133 13.2784 1396 115.71 116.158 455.89
1472 0 109.117 13.2976 1451 116.933 116.272 454.983
1473 0 112.162 13.6321 1529 117.005 115.998 453.526
1474 0 115.166 12.8596 1481 116.921 115.922 451.8
1475 0 119.198 13.5153 1611 117.482 115.071 449.73
1476 1 69.0288 9.89442 683 110.612 115.783 477.04
1477 0 71.0936 11.084 788 110.798 116.416 475.536
1478 0 74.1982 12.9114 958 104.617 116.118 471.964
1479 0 75.1516 12.1089 910 107.02 116.562 469.952
1480 0 80.2512 12.3238 989 104.7 116.252 471.457
1481 0 82.1352 11.8341 972 106.986 115.492 469.67
1482 0 84.306 12.5614 1059 111.147 116.114 473.019
1483 0 86.2232 13.2563 1143 110.486 115.676 468.006
1484 0 88.1341 12.6739 1117 110.809 116.166 470.116
1485 0 91.1878 12.1617 1109 111.59 115.801 468.698
1486 0 95.0993 12.4081 1180 109.631 115.46 468.887
1487 0 97.0544 10.9938 1067 108.519 114.902 461.542
1488 0 103.109 12.0261 1240 105.199 114.883 459.44
1489 0 105.147 11.6028 1220 106.182 115.133 459.432
1490 0 108.299 11.0527 1197 108.088 114.789 457.009
1491 0 111.126 11.6985 1300 106.982 115.763 457.578
1492 0 117.271 12.825 1504 107.475 115.364 450.604
1493 0 119.203 12.7849 1524 109.094 115.382 450.685
1494 1 69.0886 11.3043 781 104.915 115.506 476.552
1495 0 70.1048 10.9265 766 107.388 115.385 475.148
1496 0 72.1429 12.2119 881 107.35 114.959 477.275
1497 0 75.0789 11.3347 851 109.134 114.938 472.537
1498 0 77.2062 12.1752 940 107.841 115.715 473.339
1499 0 80.1137 11.4088 914 109.252 115.667 473.311
1500 0 84.0579 12.7769 1074 105.788 114.834 472.385
1501 0 85.0834 11.4006 970 108.696 115.026 473.198
1502 0 88.067 13.0128 1146 104.525 115.346 472.634
1503 0 90.1343 12.5923 1135 102.467 115.68 465.431
1504 0 95.2715 12.2912 1171 108.048 115.85 466.304
1505 0 95.3565 12.1649 1160 109.858 115.274 465.112
1506 0 96.2806 12.3182 1186 102.408 115.77 468.399
1507 0 97.1814 12.4921 1214 108.813 115.418 463.218
1508 0 99.1708 12.302 1220 109.848 116.09 464.367
1509 0 100.15 11.3629 1138 113.624 115.341 461.018
1510 0 103.225 10.6466 1099 115.589 115.812 460.987
1511 1 54.0879 9.9098 536 108.957 116.226 485.952
1512 0 58.1408 10.2854 598 106.084 116.398 485.214
1513 0 59.1308 9.85951 583 104.334 116.834 482.813
1514 0 62.1653 10.8742 676 103.615 115.925 479.783
1515 0 61.0632 10.5137 642 103.838 116.864 483.656
1516 0 65.1059 11.7655 766 98.2402 116.689 481.798
1517 0 66.0832 12.3329 815 100.44 116.676 479.303
1518 0 65.0573 10.0988 657 106.154 116.569 481.728
1519 0 68.0819 10.223 696 106.932 116.348 479.55
1520 0 71.131 10.7829 767 106.033 117.261 480.557
1521 0 74.0811 11.6764 865 105.943 117.084 478.561
1522 0 76.2015 11.3777 867 107.993 116.834 476.685
1523 0 79.173 10.6476 843 110.441 116.287 477.255
1524 0 79.0877 11.7212 927 112.127 116.346 474.014
1525 0 82.1282 11.7865 968 112.347 116.852 476.552
1526 0 85.0716 11.8959 1012 113.777 116.73 474.971
1527 1 47.0886 11.1492 525 114.754 117.179 491.499
1528 0 49.1252 11.0127 541 116.397 116.73 492.848
1529 0 50.111 11.4147 572 111.295 115.664 488.736
1530 0 51.0488 10.8915 556 120.692 115.772 483.709
1531 0 50.1454 10.9681 550 123.105 115.322 486.136
1532 0 54.1246 11.7137 634 121.025 115.959 485.085
1533 0 55.078 12.4188 684 121.788 115.727 484.596
1534 0 56.0664 11.7718 660 124.248 115.286 484.768
1535 0 55.0769 12.0559 664 126.875 114.383 483.148
1536 0 55.0318 11.5206 634 131.314 114.845 481.423
1537 0 59.0568 11.8191 698 128.86 113.933 480.968
1538 0 60.083 11.6505 700 128.91 114.483 480.409
1539 0 64.1302 12.1004 776 128.863 115.061 480.884
1540 0 64.107 11.9332 765 130.812 114.94 480.165
1541 0 66.0719 12.2594 810 130.991 114.579 476.307
1542 0 69.1062 12.271 848 129.973 114.268 476.818
1543 0 71.0898 13.3915 952 128.557 114.107 476.097
1544 0 73.1086 13.4321 982 130.005 115.005 473.241
1545 0 74.1452 12.8532 953 133.183 114.87 471.712
1546 0 76.1765 13.0749 996 133.209 114.221 472.398
1547 0 81.1427 13.7412 1115 131.452 113.634 472.288
1548 0 83.0974 13.7068 1139 132.585 113.867 469.889
1549 0 86.1816 14.5275 1252 130.836 114.01 468.098
1550 0 91.1038 14.0499 1280 130.938 113.403 468.127
1551 0 91.2739 13.4759 1230 134.267 114.011 466.497
1552 0 94.1439 13.2351 1246 135.642 113.783 465.808
1553 0 97.1559 14.2863 1388 132.253 113.419 463.607
1554 0 100.103 13.6259 1364 130.834 113.352 464.186
1555 1 52.0364 11.6841 608 129.457 114.762 489.696
1556 0 55.1146 12.1383 669 126.749 114.981 489.508
1557 0 57.0595 12.0751 689 128.739 114.464 488.006
1558 0 58.1849 13.9211 810 123.184 114.746 486.256
1559 0 60.1734 12.6468 761 126.13 114.924 485.997
1560 0 62.1174 13.394 832 123.868 115.094 483.885
1561 0 62.0795 13.225 821 124.22 115.664 483.029
1562 0 65.0792 11.9239 776 125.75 114.909 484.192
1563 0 66.0372 13.2198 873 122.653 115.252 481.322
1564 0 70.0882 14.0823 987 118.531 114.923 480.171
1565 0 71.0594 12.3699 879 124.027 115.511 479.289
1566 0 75.0623 12.483 937 127.59 115.293 478.789
1567 0 78.0507 13.5681 1059 123.678 115.414 477.258
1568 0 79.0898 12.1887 964 127.43 115.103 475.552
1569 0 82.1936 11.6432 957 127.545 114.458 473.519
1570 0 86.0774 12.2099 1051 125.287 114.232 472.949
1571 0 86.1323 13.0265 1122 120.47 114.554 469.35
1572 0 90.1047 12.7629 1150 120.397 113.583 468.806
1573 0 92.1035 12.3557 1138 120.295 114.393 468.77
1574 0 93.2818 12.8964 1203 120.474 114.22 464.556
1575 0 99.2289 12.4964 1240 120.951 113.445 461.575
1576 0 101.262 12.9269 1309 121.157 113.675 455.85
1577 0 105.217 13.0587 1374 120.407 113.932 458.025
1578 0 109.18 12.136 1325 122.729 112.758 456.273
1579 0 108.256 12.3688 1339 122.485 113.885 454.623
1580 0 115.268 12.6748 1461 121.398 113.621 451.403
1581 0 119.26 14.9756 1786 116.314 114.022 449.177
1582 0 122.32 12.2792 1502 124.001 113.606 447.356
1583 0 125.297 13.1448 1647 121.649 113.356 444.781
1584 1 70.1374 11.0497 775 120.858 113.476 473.499
1585 0 74.1802 12.6314 937 117.583 113.624 469.569
1586 0 75.105 12.862 966 117.302 114.218 467.669
1587 0 76.1008 10.6569 811 110.239 114.252 471.921
1588 0 79.1458 12.079 956 108.88 113.519 470.172
1589 0 80.1053 11.1104 890 112.599 113.503 468.9
1590 0 84.128 11.2685 948 111.626 113.681 469.537
1591 0 86.2165 10.5084 906 113.754 113.374 467.129
1592 0 91.1543 11.475 1046 112.449 114.141 466.177
1593 0 94.1221 12.1757 1146 110.484 114.356 465.73
1594 0 97.1188 12.3148 1196 112.071 114.27 462.972
1595 0 99.1455 11.8714 1177 113.89 114.385 461.212
1596 0 102.145 11.7872 1204 113.595 114.596 461.5
1597 0 108.132 13.1506 1422 109.609 114.596 460.264
1598 0 110.148 11.6752 1286 112.847 114.191 457.285
1599 0 115.213 12.5853 1450 113.326 114.359 457.305
1600 0 117.165 11.9661 1402 116.613 114.862 455.224
1601 0 123.165 12.4467 1533 114.56 114.47 453.709
1602 1 65.0956 10.8917 709 106.79 115.087 481.767
1603 0 69.1176 10.6775 738 106.722 115.034 479.927
1604 0 71.0223 11.1796 794 106.361 115.276 477.853
1605 0 75.0811 11.3344 851 106.471 115.004 474.917
1606 0 75.0906 11.4795 862 106.753 115.596 475.858
1607 0 78.1079 11.4713 896 106.775 115.331 473.055
1608 0 82.1439 12.3807 1017 104.612 115.691 474.236
1609 0 86.1893 11.2311 968 107.088 115.131 472.661
1610 0 86.1331 11.459 987 107.562 114.359 472.109
1611 0 90.236 12.6889 1145 105.434 114.61 469.089
1612 0 93.168 12.4721 1162 105.448 114.807 467.719
1613 0 94.13 11.601 1092 108.715 114.094 466.601
1614 0 100.128 12.7336 1275 105.592 113.777 466.213
1615 0 103.1 13.0068 1341 106.813 114.594 463.459
1616 0 102.121 11.5549 1180 111.438 114.123 461.962
1617 0 107.184 12.3992 1329 109.627 114.008 456.707
1618 0 110.254 12.8068 1412 108.867 114.482 456.13
1619 0 116.191 12.841 1492 108.622 114.41 452.936
1620 1 64.055 11.8804 761 102.217 114.013 482.714
1621 0 66.131 11.0387 730 106.618 113.814 478.323
1622 0 67.0871 10.0616 675 107.517 114.79 480.834
1623 0 69.1464 12.1047 837 103.455 114.927 479.968
1624 0 73.1442 12.0857 884 102.423 114.206 477.98
1625 0 76.1587 12.881 981 101.009 114.152 474.708
1626 0 78.2073 12.1216 948 103.001 114.261 472.165
1627 0 80.2287 12.2649 984 102.957 114.642 470.765
1628 0 83.1612 13.0109 1082 101.446 114.462 470.562
1629 0 83.3236 12.0974 1008 104.689 114.237 469.768
1630 0 86.064 11.7703 1013 108.346 114.474 469.028
1631 0 92.1336 12.5796 1159 105.421 114.213 468.752
1632 0 94.3002 11.8876 1121 105.829 114.033 465.66
1633 0 96.2308 12.0855 1163 105.372 113.961 466.301
1634 0 99.0628 12.0328 1192 108.794 114.411 464.034
1635 0 101.281 11.0287 1117 111.893 113.99 462.097
1636 0 106.221 11.8432 1258 110.125 114.697 459.526
1637 0 110.279 11.5344 1272 110.105 113.871 458.884
1638 1 59.2736 10.2069 605 102.479 115.078 483.114
1639 0 61.2208 12.0221 736 98.9891 114.467 482.027
1640 0 61.1509 11.4471 700 102.614 115.023 482.549
1641 0 65.1611 12.6916 827 98.792 114.272 483.143
1642 0 66.2107 11.116 736 102.003 114.757 483.41
1643 0 69.2224 12.337 854 100.657 115.608 479.184
1644 0 68.1821 10.5893 722 104.747 114.508 478.195
1645 0 73.1342 11.349 830 102.394 115.035 477.802
1646 0 74.1723 11.0149 817 102.767 115.023 478.274
1647 0 75.1835 11.7978 887 102.143 114.616 475.884
1648 0 78.1626 12.1414 949 101.761 115.531 474.04
1649 0 78.1186 11.7002 914 103.689 115.26 473.252
1650 0 82.0854 11.0617 908 103.341 114.681 474.993
1651 0 85.2033 11.232 957 103.195 115.357 472.239
1652 0 86.2129 10.5785 912 106.497 114.743 468.044
1653 0 90.2861 10.9319 987 104.415 114.189 469.654
1654 0 90.2698 11.0447 997 106.534 114.684 466.22
1655 0 96.183 12.3619 1189 103.155 114.264 463.766
1656 0 98.1455 10.7799 1058 106.851 114.452 464.024
1657 0 100.201 10.7783 1080 108.169 113.929 462.228
1658 0 104.197 11.1615 1163 107.277 114.439 460.53
1659 0 108.2 10.5822 1145 108.591 114.075 457.912
1660 0 110.201 11.5153 1269 107.187 114.46 454.377
1661 1 63.0653 9.73594 614 103.785 114.52 484.572
1662 0 65.2028 11.5179 751 102.236 113.254 478.963
1663 0 69.0836 11.7249 810 100.904 112.357 478.236
1664 0 70.1539 11.6458 817 102.077 112.116 476.149
1665 0 70.1005 10.5135 737 106.372 112.703 475.81
1666 0 76.1216 12.0071 914 101.268 112.949 474.788
1667 0 75.1045 11.1844 840 104.301 112.885 475.252
1668 0 79.092 12.4286 983 102.751 112.688 473.544
1669 0 82.1022 12.8498 1055 103.03 112.755 471.209
1670 0 85.0775 12.9411 1101 104.585 112.383 469.349
1671 0 88.1356 12.5942 1110 105.171 111.534 468.312
1672 0 92.0545 12.3297 1135 105.869 113.225 464.885
1673 0 91.0736 11.0131 1003 110.706 113.325 464.646
1674 0 97.1217 11.3878 1106 109.561 112.783 460.861
1675 0 101.2 13.1422 1330 106.664 113.346 462.414
1676 0 103.335 12.4449 1286 112 114.366 459.961
1677 1 56.1531 8.54805 480 109.108 113.592 477.462
1678 0 56.161 8.76052 492 110.955 113.463 478.323
1679 0 53.0947 8.32475 442 117.767 113.312 472.796
1680 0 63.2831 11.2826 714 106.256 113.829 477.882
1681 0 64.245 11.2849 725 108.163 113.517 472.905
1682 0 65.1717 10.1424 661 110.498 113.504 473.283
1683 0 67.0915 11.0297 740 109.697 113.114 473.484
1684 0 70.1942 11.1405 782 108.875 113.944 474.554
1685 0 68.177 10.4874 715 114.246 112.775 470.038
1686 0 73.2215 11.8408 867 109.33 113.01 471.915
1687 0 74.2296 11.1546 828 113.231 112.506 468.513
1688 0 78.218 11.6086 908 111.969 113.354 468.195
1689 0 79.1947 11.4275 905 112.021 113.305 470.024
1690 0 80.1399 11.3177 907 115.097 113.348 466.528
1691 0 83.2083 11.6334 968 114.183 113.098 464.974
1692 0 88.1181 11.8477 1044 114.256 112.869 466.207
1693 0 90.2021 12.3944 1118 113.521 112.354 464.249
1694 0 91.1252 11.369 1036 116.28 113.031 464.622
1695 0 93.121 11.7589 1095 116.159 113.932 463.552
1696 0 97.1449 12.5997 1224 115.2 112.999 460.036
1697 0 100.171 12.8979 1292 115.062 112.888 458.965
1698 0 104.096 12.0466 1254 116.266 113.671 460.218
1699 0 105.367 12.2049 1286 115.644 111.929 453.978
1700 0 109.133 12.8651 1404 114.374 112.69 450.486
1701 0 113.249 11.8235 1339 117.287 113.089 448.179
1702 0 115.174 12.1034 1394 116.866 112.938 448.303
1703 0 118.105 12.201 1441 117.938 112.002 442.235
1704 1 66.1658 10.2168 676 105.604 112.91 475.984
1705 0 70.1713 10.1751 714 107.627 112.679 475.852
1706 0 73.1607 11.8233 865 107.689 113.014 475.176
1707 0 77.126 12.512 965 106.628 112.928 475.782
1708 0 80.0665 12.7894 1024 103.974 112.562 473.115
1709 0 82.1654 12.9495 1064 103.928 111.929 473.367
1710 0 84.0912 12.7243 1070 104.114 112.037 472.547
1711 0 86.1179 12.5177 1078 105.873 112.846 467.732
1712 0 87.0829 12.1149 1055 106.792 112.269 468.689
1713 0 91.1268 11.3029 1030 109.291 112.614 467.559
1714 0 93.1496 12.5926 1173 107.095 112.966 464.583
1715 0 98.0643 13.4198 1316 104.922 112.125 463.634
1716 0 100.114 12.5457 1256 108.632 112.428 461.828
1717 0 102.107 12.9178 1319 108.416 112.541 461.067
1718 0 104.243 12.4901 1302 110.32 112.518 461.313
1719 0 108.123 13.3737 1446 108.959 112.065 458.194
1720 0 113.107 13.9161 1574 108.374 111.917 457.686
1721 0 118.157 13.152 1554 110.385 112.286 456.552
1722 0 120.19 12.8879 1549 111.923 112.163 454.646
1723 1 68.2425 12.6168 861 113.711 114.973 476.561
1724 0 69.1082 12.6903 877 110.794 114.238 480.082
1725 0 71.1127 12.9935 924 110.506 114.614 477.756
1726 0 75.1136 12.8738 967 110.883 114.281 478.169
1727 0 75.1628 13.0783 983 113.083 114.34 474.216
1728 0 77.0894 12.8033 987 115.275 114.624 475.541
1729 0 81.1328 13.9031 1128 113.595 114.353 471.941
1730 0 82.1554 13.584 1116 115.553 114.813 473.181
1731 0 85.1004 14.2185 1210 115.755 114.656 470.502
1732 0 88.2493 14.9576 1320 114.214 114.217 469.349
1733 0 88.1151 14.1633 1248 118.526 114.016 468.658
1734 0 91.165 13.7992 1258 119.638 113.3 467.3
1735 0 95.1211 14.6235 1391 118.381 113.916 464.503
1736 0 97.1002 13.3985 1301 123.119 113.759 464.362
1737 0 100.124 15.0913 1511 119.006 113.52 462.308
1738 0 101.131 13.6062 1376 124.632 113.572 460.967
1739 0 105.249 13.7388 1446 124.494 113.721 459.471
1740 0 109.265 15.1284 1653 119.998 113.782 460.093
1741 0 113.207 14.5839 1651 122.701 112.592 458.072
1742 0 115.236 14.4573 1666 124.122 113.405 456.347
1743 0 117.253 15.1126 1772 123.499 113.357 454.464
1744 0 123.24 15.0194 1851 124.543 112.954 453.046
1745 0 125.133 14.8162 1854 125.798 113.022 449.019
1746 0 129.231 14.2768 1845 129.48 112.491 448.159
1747 0 137.193 14.5999 2003 128.958 112.438 445.69
1748 1 72.1877 10.5974 765 132.443 113.502 477.323
1749 0 76.098 12.2079 929 117.234 113.506 472.477
1750 0 77.1543 11.9501 922 117.707 112.944 469.267
1751 0 80.1548 11.7273 940 117.496 112.653 469.848
1752 0 83.1698 12.1679 1012 116.58 112.921 468.329
1753 0 86.1067 13.2858 1144 114.114 112.591 466.114
1754 0 88.0974 13.0197 1147 114.76 113.273 464.147
1755 0 91.126 12.17 1109 117.1 112.833 462.183
1756 0 93.0555 13.1749 1226 114.673 113.495 462.281
1757 0 97.0956 13.2962 1291 112.753 113.431 461.59
1758 0 100.167 13.178 1320 113.759 113.405 458.963
1759 0 103.068 13.1661 1357 114.52 113.843 456.704
1760 0 104.215 12.3687 1289 116.877 113.179 455.919
1761 0 108.175 11.9898 1297 119.016 112.772 454.999
1762 0 112.157 12.5092 1403 118.657 113.304 452.077
1763 0 115.204 13.7235 1581 116.066 113.98 452.119
1764 0 117.123 13.0119 1524 119.514 113.228 450.695
1765 0 123.147 14.2269 1752 116.059 113.449 448.912
1766 0 128.125 14.7824 1894 115.724 113.039 446.203
1767 0 130.188 13.4421 1750 120.817 113.641 447.423
1768 0 134.141 14.3803 1929 118.363 113.51 443.436
1769 0 139.36 14.3872 2005 124.334 113.483 441.952
1770 0 142.123 13.1084 1863 121.974 113.056 441.815
1771 0 146.169 13.5186 1976 122.91 113.193 441.353
1772 0 154.217 14.6417 2258 121.913 112.918 437.292
1773 1 82.233 11.0783 911 116.21 114.71 474.495
1774 0 84.2046 12.1609 1024 115.963 113.811 472.816
1775 0 88.2051 12.4029 1094 116.261 113.804 470.933
1776 0 90.1064 11.9192 1074 118.669 113.746 468.926
1777 0 92.0914 12.1075 1115 119.257 113.698 468.317
1778 0 96.1719 11.6666 1122 121.43 113.529 465.61
1779 0 98.2899 12.3105 1210 120.812 113.531 464.703
1780 0 100.24 12.9589 1299 119.988 113.212 462.868
1781 0 105.201 12.4714 1312 121.018 113.611 461.38
1782 0 107.264 12.4832 1339 122.633 113.92 457.373
1783 0 109.216 11.9305 1303 125.125 113.844 455.009
1784 0 115.222 13.6086 1568 121.121 113.851 453.601
1785 0 117.225 14.1266 1656 119.641 113.519 452.464
1786 0 120.193 12.6546 1521 124.702 113.402 450.066
1787 0 123.185 13.1997 1626 123.493 113.292 448.487
1788 0 129.208 12.2516 1583 124.697 113.358 449.711
1789 0 132.215 12.3057 1627 123.473 112.52 443.535
1790 0 137.147 12.7673 1751 122.154 113.27 442.927
1791 0 141.227 13.0924 1849 122.072 113.234 441.3
1792 0 148.432 13.5146 2006 120.353 112.661 438.555
1793 1 60.2008 11.3786 685 114.488 113.146 478.355
1794 0 62.3598 12.1232 756 108.882 114.017 481.577
1795 0 64.1873 10.9367 702 106.399 113.509 478.197
1796 0 64.2377 11.1617 717 107.905 113.866 475.452
1797 0 64.2938 9.81432 631 112.33 114.151 473.835
1798 0 68.1893 12.1427 828 107.254 113.716 472.237
1799 0 72.2039 11.5506 834 108.207 114.312 474.811
1800 0 72.3139 11.9064 861 109.837 114.518 469.822
1801 0 74.3237 10.6561 792 113.487 114.678 470.673
1802 0 78.0576 12.6445 987 113.675 115.059 472.762
1803 0 79.3104 11.7765 934 114.645 114.597 471.196
1804 0 82.2135 12.577 1034 113.88 113.928 468.701
1805 0 84.0761 12.2389 1029 118.226 114.83 472.31
1806 0 87.3988 12.0253 1051 120.827 114.288 470.617
1807 0 91.3304 12.6026 1151 126.023 114.66 469.56
1808 0 94.324 12.1814 1149 124.605 114.513 464.546
1809 1 51.2677 10.2404 525 120.632 114.943 487.404
1810 0 54.2089 9.88767 536 116.631 114.938 487.931
1811 0 56.0149 11.8004 661 114.065 114.956 486.743
1812 0 59.1487 11.2429 665 115.421 114.722 484.779
1813 0 62.0669 11.3265 703 114.169 114.71 484.319
1814 0 64.0738 12.7665 818 110.784 114.8 483.385
1815 0 66.1341 12.3839 819 113.009 114.564 481.421
1816 0 66.0532 12.1871 805 114.671 114.643 479.306
1817 0 69.1828 12.6187 873 112.789 114.608 480.714
1818 0 71.1624 12.1553 865 114.45 114.807 478.282
1819 0 73.1428 12.8926 943 114.367 114.324 477.534
1820 0 75.056 12.3241 925 116.104 114.947 478.952
1821 0 76.1301 12.4392 947 117.24 114.713 477.568
1822 0 78.1364 11.8639 927 120.195 114.702 475.506
1823 0 81.1389 12.6696 1028 118.667 115.169 473.061
1824 0 84.1545 12.7266 1071 119.608 115.138 472.418
1825 0 87.0734 13.0924 1140 118.104 115.246 474.301
1826 0 90.1108 13.4945 1216 118.552 114.28 471.423
1827 0 91.1557 12.4183 1132 122.197 114.099 471.379
1828 0 93.2821 12.5426 1170 124.675 114.177 467.174
1829 0 98.2211 13.775 1353 121.319 114.534 466.582
1830 0 98.4101 13.6368 1342 124.037 114.316 465.635
1831 0 99.241 13.5025 1340 125.308 113.553 465.498
1832 0 103.332 13.1421 1358 126.457 114.127 464.359
1833 0 109.243 14.097 1540 124.134 114.095 462.564
1834 0 110.216 14.1722 1562 125.168 113.685 461.761
1835 0 113.065 14.328 1620 126.068 112.85 459.013
1836 0 117.244 14.2267 1668 126.541 114.337 456.252
1837 0 121.121 14.3988 1744 126.21 114.54 456.768
1838 1 67.1342 14.0912 946 122.332 114.635 482.682
1839 0 67.0383 11.5755 776 128.037 114.862 480.718
1840 0 71.39 12.8589 918 124.095 115.247 480.844
1841 0 74.0801 13.2424 981 123.351 114.932 479.837
1842 0 75.1396 14.1071 1060 123.559 113.886 476.257
1843 0 79.1648 13.2887 1052 124.235 113.839 477.025
1844 0 81.1667 13.6509 1108 124.234 114.171 474.514
1845 0 83.1672 13.2384 1101 126.939 113.433 474.355
1846 0 86.2734 13.5152 1166 125.882 113.73 470.021
1847 0 90.1646 13.3312 1202 126.878 113.671 467.696
1848 0 91.1844 12.8969 1176 129.184 113.756 465.83
1849 0 94.2524 13.3259 1256 127.654 113.198 464.888
1850 0 97.229 13.6379 1326 126.913 113.57 463.498
1851 0 100.254 14.4732 1451 125.745 113.442 460.944
1852 0 103.412 13.364 1382 128.853 113.665 460.184
1853 0 108.456 13.8858 1506 127.576 113.914 459.082
1854 0 111.404 14.9636 1667 125.124 113.27 458.098
1855 0 115.405 14.5574 1680 127.38 113.407 456.683
1856 0 118.434 13.155 1558 133.094 113.001 451.625
1857 1 62.1073 13.686 850 129.151 113.881 479.696
1858 0 63.3175 12.7769 809 135.617 113.449 475.745
1859 0 66.145 13.032 862 132.995 113.736 474.86
1860 0 69.3548 14.3465 995 129.335 113.482 474.575
1861 0 71.1954 13.793 982 132.873 113.624 475.867
1862 0 73.2898 13.9992 1026 132.775 113.665 473.821
1863 0 74.3737 13.5128 1005 135.215 113.517 472.916
1864 0 77.287 14.0774 1088 134.285 113.881 472.203
1865 0 79.2602 14.2568 1130 134.644 113.652 471.034
1866 0 82.3387 15.3634 1265 132.038 114.504 469.489
1867 0 82.1721 13.7151 1127 138.613 114.248 468.671
1868 0 86.2406 14.2856 1232 137.041 113.569 467.483
1869 0 89.214 14.6165 1304 136.583 114.094 466.67
1870 0 90.2293 14.1307 1275 139.922 114.149 464.556
1871 0 94.2994 14.2313 1342 140.044 114.372 463.909
1872 0 97.2891 14.8218 1442 136.917 113.719 461.046
1873 0 98.3643 13.8872 1366 141.113 112.898 459.698
1874 0 103.283 15.6947 1621 134.597 113.669 459.325
1875 0 105.271 14.2679 1502 139.266 113.348 458.457
1876 0 106.238 14.1004 1498 140.706 113.671 457.558
1877 0 112.184 14.7615 1656 138.396 113.37 453.676
1878 0 117.281 16.2174 1902 133.634 114.279 452.251
1879 0 119.24 14.4415 1722 142.041 113.054 450.144
1880 1 65.1282 13.8342 901 142.264 113.508 478.194
1881 0 65.1578 13.1373 856 147.636 114.194 473.397
1882 0 70.0586 14.7591 1034 142.055 114.239 473.674
1883 0 71.2058 13.7348 978 147.573 113.747 472.835
1884 0 74.1856 13.8841 1030 146.921 113.705 471.496
1885 0 74.1707 13.8869 1030 149.392 113.672 466.46
1886 0 77.1937 14.6126 1128 147.535 113.749 465.213
1887 0 81.0924 13.3798 1085 147.084 113.313 462.174
1888 0 85.116 14.3099 1218 143.292 114.162 463.184
1889 0 85.1592 13.9386 1187 146.005 113.843 465.5
1890 0 89.1779 14.8579 1325 143.125 114.249 463.405
1891 0 90.0962 14.318 1290 146.84 114.076 462.778
1892 0 95.2202 14.7973 1409 143.129 114.339 461.688
1893 0 99.1133 16.1532 1601 138.919 114.31 458.523
1894 0 101.119 15.3778 1555 141.143 114.246 458.239
1895 0 105.09 14.8064 1556 141.891 113.846 458.357
1896 0 107.152 14.3815 1541 143.731 113.65 455.62
1897 0 111.088 14.8711 1652 142.586 114.07 452.749
1898 0 116.215 14.2409 1655 143.8 113.917 451.062
1899 1 64.316 12.9517 833 144.552 113.511 475.389
1900 0 67.1481 13.2245 888 143.259 113.842 474.691
1901 0 71.176 14.3166 1019 140.4 113.827 471.92
1902 0 72.1367 14.5141 1047 137.548 113.902 469.89
1903 0 75.0485 14.3241 1075 137.528 113.142 470.409
1904 0 77.1339 14.7665 1139 137.274 113.823 468.55
1905 0 77.2099 14.0137 1082 140.49 113.635 467.498
1906 0 81.1358 14.2354 1155 138.375 113.737 467.063
1907 0 83.0694 14.8791 1236 137.489 113.6 464
1908 0 85.1872 14.3918 1226 139.338 113.638 463.352
1909 0 90.1341 15.1663 1367 135.021 113.364 462.241
1910 0 92.2023 14.9346 1377 136.036 113.065 460.937
1911 0 93.1151 13.9075 1295 140.201 113.014 459.256
1912 0 97.2643 13.7872 1341 140.229 113.324 456.617
1913 0 102.2 15.3131 1565 133.367 113.271 457.697
1914 0 103.235 13.6873 1413 139.117 113.237 456.14
1915 0 107.083 13.8678 1485 137.863 112.729 454.289
1916 0 111.299 14.5015 1614 134.934 113.042 451.63
1917 0 116.222 14.3949 1673 133.898 113.242 448.39
1918 0 117.181 13.6285 1597 137.796 113.045 448.903
1919 0 123.193 14.3515 1768 135.243 113.363 446.073
1920 0 127.134 14.6302 1860 134.685 113.241 444.661
1921 0 129.283 13.2345 1711 139.24 113.414 443.996
1922 0 136.244 13.8208 1883 137.55 112.864 440.172
1923 0 141.223 14.5939 2061 135.702 113.408 438.862
1924 0 146.19 14.9053 2179 136.184 113.285 435.965
1925 0 150.224 14.9776 2250 139.017 112.31 433.295
1926 0 153.151 14.0319 2149 142.393 113.074 432.724
1927 0 158.233 14.9274 2362 140.515 113.456 427.638
1928 0 165.302 15.4626 2556 138.511 113.104 427.64
1929 0 169.165 14.7962 2503 142.363 113.358 423.626
1930 0 174.188 15.4661 2694 144.31 113.549 418.246
1931 0 180.219 14.4602 2606 148.637 113.593 418.931
1932 0 186.203 14.8494 2765 151.247 112.957 416.731
1933 0 194.263 15.1136 2936 152.221 113.205 411.747
1934 0 200.308 15.9405 3193 148.681 113.097 406.992
1935 0 208.37 15.722 3276 148.506 113.258 405.153
1936 1 154.234 13.6805 2110 154.718 113.462 434.784
1937 0 160.332 14.6571 2350 153.072 112.855 429.617
1938 0 167.164 14.3571 2400 155.377 113.174 428
1939 0 171.138 15.5664 2664 152.949 113.065 424.647
1940 0 177.13 14.9946 2656 156.527 112.87 420.695
1941 0 185.282 14.9933 2778 156.96 112.766 417.876
1942 0 190.133 14.8317 2820 159.124 112.373 413.116
1943 0 197.183 15.7975 3115 156.289 113.006 411.361
1944 0 202.203 14.9701 3027 160.648 112.863 407.412
1945 0 211.21 15.2408 3219 159.261 113.548 403.496
1946 0 217.267 15.4418 3355 160.198 113.227 401.374
1947 0 225.204 15.9589 3594 158.478 113.693 396.145
1948 0 232.155 16.7474 3888 157.104 113.129 394.945
1949 0 242.186 16.2396 3933 159.324 113.03 388.063
1950 0 249.39 15.8066 3942 161.478 112.408 385.238
1951 0 256.25 14.6185 3746 165.657 112.329 384.852
1952 0 263.284 14.7483 3883 166.581 112.265 376.739
1953 0 273.389 15.7285 4300 162.956 112.378 373.45
1954 0 280.316 14.8761 4170 165.252 113.009 369.904
1955 0 281.472 13.6426 3840 167.737 112.635 376.586
1956 0 281.16 10.7128 3012 171.654 112.532 392.972
1957 1 316.544 18.0291 5707 151.679 113.094 347.358
1958 0 325.343 16.7054 5435 156.241 112.284 342.636
1959 1 350.334 26.0894 9140 121.823 112.498 309.746
1960 0 362.52 25.8855 9384 122.572 112.479 306.863
1961 0 350.436 11.2603 3946 166.768 113.784 361.897
1962 0 347.423 10.2411 3558 167.298 113.393 369.045
1963 0 348.437 11.9534 4165 165.353 112.861 356.767
1964 1 388.573 11.55 4488 164.872 113.547 343.367
1965 0 388.77 11.2689 4381 166.433 113.384 350.084
1966 0 389.066 12.0108 4673 166.594 113.633 338.817
1967 0 380.359 15.9928 6083 153.535 113.151 300.985
1968 0 392.773 17.3459 6813 148.486 113.992 304.207
1969 0 394.187 16.2918 6422 152.618 113.937 303.009
1970 0 404.807 17.433 7057 148.612 114.491 299.053
1971 0 418.065 16.7151 6988 149.932 114.049 290.711
1972 0 430.132 17.1854 7392 148.644 114.539 282.944
