time division length width area intensity CMx CMy
0 0 45.0318 11.503 518 146.633 353.427 481.741
1 0 46.1188 12.2076 563 144.622 353.554 480.378
2 0 47.0254 12.0361 566 145.436 354.352 480.943
3 0 49.0566 12.6589 621 142.659 354.127 480.478
4 0 49.0252 13.2177 648 140.816 353.262 480.005
5 0 49.0257 13.238 649 144.268 352.265 479.965
6 0 53.0517 11.8564 629 145.614 353.72 477.029
7 0 56.093 13.1032 735 139.765 353.663 477.054
8 0 56.0899 12.7117 713 141.212 353.247 477.391
9 0 56.0259 12.6906 711 142.093 353.329 477.308
10 0 59.086 12.6764 749 141.575 352.447 475.969
11 0 60.0923 12.5307 753 142.167 353.238 476.947
12 0 63.0647 12.4792 787 140.639 352.262 474.053
13 0 64.1134 13.9128 892 136.08 351.722 475.368
14 0 65.1072 13.5008 879 140.984 351.932 473.096
15 0 68.168 13.4081 914 139.035 352.51 472.117
16 0 71.1944 13.8494 986 135.509 351.874 471.773
17 0 74.1817 14.0331 1041 134.486 352.075 470.678
18 0 76.217 13.5796 1035 132.077 351.742 469.076
19 0 79.0998 12.4526 985 133.135 352.148 466.627
20 1 40.1755 11.848 476 125.355 351.464 485.017
21 0 42.0877 11.5948 488 128.807 351.719 485.738
22 0 44.0589 12.1428 535 131.77 351.675 489.086
23 0 43.0307 12.3865 533 127.679 351.929 489.206
24 0 45.1006 12.1728 549 127.617 350.661 488.197
25 0 46.1191 13.4435 620 124.577 350.492 486.765
26 0 45.0241 11.4605 516 131.26 351.37 487.537
27 0 47.0734 11.6626 549 130.434 351.667 486.836
28 0 48.0711 11.7534 565 131.181 350.789 485.43
29 0 52.0518 11.258 586 131.811 351.068 485.423
30 0 53.0878 12.338 655 128.985 350.351 483.924
31 0 54.0638 12.0043 649 129.559 350.099 483.992
32 0 56.0178 11.9426 669 128.854 349.931 483.631
33 0 60.0576 12.9209 776 125.399 350.633 482.019
34 0 60.0696 12.9184 776 127.037 349.862 480.619
35 0 64.0826 12.6087 808 126.632 350.452 479.901
36 0 67.0485 13.4828 904 124.017 350.179 478.194
37 0 70.0804 14.255 999 120.992 350.046 476.873
38 0 73.0295 14.2956 1044 121.26 349.532 476.223
39 0 75.1169 13.6055 1022 132.547 349.94 474.476
40 0 77.1445 12.9108 996 134.581 349.416 474.088
41 0 82.1058 13.4217 1102 131.652 348.89 471.549
42 0 84.2641 13.5645 1143 131.759 348.796 470.132
43 0 86.0873 13.5095 1163 132.445 349.55 467.13
44 0 91.06 13.9359 1269 129.049 349.658 467.603
45 1 48.0243 11.9315 573 129.796 349.96 489.168
46 0 50.0643 11.7649 589 131.131 349.876 487.256
47 0 50.2015 12.4299 624 134.215 349.776 485.152
48 0 50.0493 11.9882 600 131.758 348.965 483.855
49 0 53.1209 13.2151 702 128.524 348.309 484.272
50 0 55.0373 13.827 761 126.648 348.018 484.155
51 0 56.0565 14.2892 801 125.668 348.688 482.889
52 0 58.0585 12.9525 752 128.737 348.036 481.106
53 0 60.0762 13.0002 781 126.246 348.784 480.891
54 0 62.035 13.2022 819 126.122 348.359 479.114
55 0 66.0838 13.0592 863 124.959 348.349 478.935
56 0 67.1269 13.7948 926 124.963 348.566 477.051
57 0 70.1723 13.2388 929 126.161 347.284 475.405
58 0 73.1322 12.9218 945 126.114 348.061 475.855
59 0 77.2765 13.497 1043 124.957 348.83 472.566
60 0 79.3043 12.8114 1016 126.044 348.635 471.189
61 0 82.2166 13.5131 1111 125.695 348.702 470.663
62 0 84.0805 13.6774 1150 125.044 348.123 470.415
63 0 89.1324 13.9904 1247 120.646 347.521 465.5
64 0 90.2212 12.425 1121 123.957 348.2 464.55
65 1 47.2173 10.3352 488 115.992 349.102 485.908
66 0 47.1165 9.93283 468 115.165 348.254 484.868
67 0 49.0554 10.906 535 121.538 348.078 488.454
68 0 50.1515 10.8471 544 120.009 348.278 488.662
69 0 52.1155 12.031 627 118.193 348.124 486.951
70 0 56.1522 12.0565 677 117.409 348.672 486.086
71 0 59.0696 12.8492 759 115.928 348.22 484.64
72 0 61.0579 14.56 889 111.819 348.053 483.323
73 0 62.1366 13.1163 815 118.237 348.553 481.254
74 0 63.061 12.591 794 121.361 349.404 482.825
75 0 66.0334 13.0086 859 120.701 348.785 480.799
76 0 70.1781 14.4204 1012 117.326 348.618 480.258
77 0 70.0421 13.035 913 122.273 348.704 480.051
78 0 74.1356 13.88 1029 120.712 348.756 479.975
79 0 76.095 13.4174 1021 126.243 348.504 477.328
80 0 77.1314 14.2873 1102 126.186 347.769 476.247
81 0 80.069 13.5758 1087 128.696 347.54 475.026
82 0 83.1039 15.7754 1311 122.558 348.455 473.722
83 0 86.1417 14.4181 1242 126.675 347.963 472.933
84 0 89.0479 13.8689 1235 128.847 348.351 470.836
85 0 92.2203 14.2051 1310 128.282 347.85 470.384
86 0 95.1324 14.1277 1344 130.086 347.237 468.714
87 0 96.1634 14.0802 1354 131.128 347.405 467.395
88 0 100.069 13.6906 1370 131.084 346.928 465.77
89 0 104.23 14.7654 1539 128.57 346.669 463.101
90 0 107.1 14.0616 1506 131.458 347.112 460.89
91 0 111.113 15.1828 1687 126.966 347.389 461.506
92 1 55.0904 12.9061 711 129.148 346.428 485.812
93 0 58.0963 10.9473 636 130.2 347.003 488.305
94 0 59.0901 11.3894 673 115.527 347.106 483.168
95 0 60.099 11.9802 720 122.262 347.372 485.185
96 0 62.0747 12.9844 806 117.618 347.47 483.326
97 0 63.0292 12.0262 758 119.739 347.571 485.222
98 0 66.0486 11.4764 758 120.807 347.088 481.745
99 0 70.0135 13.0403 913 123.738 347.927 482.16
100 0 70.076 12.201 855 128.269 347.361 479.373
101 0 72.134 12.1025 873 119.718 347.59 478.235
102 0 77.109 11.7885 909 120.76 347.96 476.875
103 0 77.079 12.9218 996 125.231 347.981 475.171
104 0 81.1205 13.2642 1076 123.57 347.404 473.539
105 0 82.0717 12.3063 1010 126.006 347.129 472.391
106 0 87.1867 12.8345 1119 123.291 346.965 471.55
107 0 88.1437 12.3435 1088 123.948 346.899 470.571
108 0 92.1839 12.2473 1129 122.074 347.135 470.012
109 0 93.1367 12.122 1129 122.057 346.454 466.438
110 1 50.0512 9.45031 473 118.856 346.592 492.721
111 0 51.0493 11.7533 600 116.893 347.428 488.508
112 0 53.0165 11.487 609 118.654 347.596 488.102
113 0 55.1432 11.8963 656 118.643 346.91 488.22
114 0 55.1989 12.2466 676 118.256 346.655 487.098
115 0 58.2001 13.1443 765 116.322 347.042 486.161
116 0 59.2836 10.863 644 121.983 346.554 483.413
117 0 61.1914 11.7337 718 120.496 347.106 483.258
118 0 63.2318 12.6993 803 117.057 347.271 483.029
119 0 66.1588 12.9386 856 117.888 346.805 482.138
120 0 66.1998 12.3263 816 120.815 346.949 479.451
121 0 68.0681 12.2671 835 112.595 347.103 479.249
122 0 71.0571 12.7644 907 111.043 346.947 478.44
123 0 73.1213 12.8417 939 112.351 347.644 477.642
124 0 74.0399 11.7909 873 115.758 347.425 476.259
125 0 75.1026 11.3711 854 118.472 346.959 476.902
126 0 79.0413 12.3227 974 116.766 346.188 473.508
127 0 82.1893 12.386 1018 116.815 346.3 472.726
128 0 85.1783 12.8084 1091 117.109 346.687 471.983
129 0 88.2064 12.2667 1082 120.505 346.792 468.414
130 0 91.1268 13.366 1218 117.401 346.794 467.895
131 0 95.1308 13.287 1264 119.044 346.462 466.956
132 0 99.0676 12.4561 1234 120.999 346.348 464.772
133 0 101.072 12.6445 1278 120.114 346.534 464.286
134 0 105.216 13.1349 1382 120.09 345.653 460.842
135 0 108.192 12.4963 1352 125.486 345.913 459.297
136 0 115.107 15.4465 1778 83.4376 345.591 454.023
137 1 60.1086 12.0449 724 114.301 347.072 483.936
138 0 64.1738 12.4973 802 115.269 347.456 481.809
139 0 63.0767 12.8415 810 112.76 346.244 483.059
140 0 67.0863 12.6404 848 112.752 346.637 481.226
141 0 69.086 12.1009 836 114.733 346.785 480.498
142 0 71.1942 12.487 889 114.61 346.199 477.944
143 0 74.1428 11.869 880 116.12 346.667 476.825
144 0 77.0405 12.3831 954 114.994 346.903 476.956
145 0 77.081 12.7788 985 115.291 347.246 475.745
146 0 81.2644 11.4564 931 119.434 347.303 474.236
147 0 82.0795 12.3051 1010 117.998 346.061 472.208
148 0 86.0747 12.5472 1080 116.726 346.728 470.333
149 0 89.1396 13.1591 1173 124.023 347.149 468.991
150 0 93.1705 13.0621 1217 123.855 346.516 467.993
151 0 97.1078 12.4089 1205 125.039 346.653 465.92
152 0 98.1275 12.6876 1245 124.629 346.324 462.405
153 0 102.171 12.4693 1274 123.597 346.421 462.996
154 0 104.112 12.4 1291 123.446 346.881 459.808
155 0 108.101 13.4874 1458 119.254 346.157 458.329
156 0 112.102 13.2201 1482 118.249 346.708 456.747
157 0 114.176 12.4632 1423 117.127 345.967 453.019
158 0 118.143 12.3918 1464 117.184 346.048 451.344
159 0 123.086 12.5685 1547 116.766 345.84 449.783
160 1 68.0842 10.9423 745 106.435 345.754 480.252
161 0 70.0527 12.4192 870 109.434 346.668 478.444
162 0 73.126 12.5947 921 111.455 347.121 478.673
163 0 73.2655 12.8437 941 117.048 346.986 476.926
164 0 78.1411 11.7352 917 117.201 347.224 477.508
165 0 82.1995 12.5548 1032 115.986 346.928 473.868
166 0 83.2116 12.4382 1035 116.816 346.285 472.225
167 0 85.2782 12.6293 1077 116.441 346.555 471.343
168 0 90.3876 12.8447 1161 113.638 346.601 469.817
169 0 92.2003 11.9739 1104 116.885 346.535 469.219
170 0 96.1619 12.5518 1207 116.882 346.097 465.384
171 0 99.1475 12.8596 1275 115.755 346.148 465.151
172 1 49.053 10.6823 524 115.168 347.143 488.786
173 0 50.0426 11.1105 556 113.935 347.71 489.061
174 0 52.0606 12.3126 641 107.027 347.133 487.178
175 0 53.1038 11.1668 593 105.192 347.25 486.669
176 0 55.0759 12.7824 704 103.089 346.553 486.584
177 0 57.0876 12.1042 691 104.64 346.359 486.328
178 0 57.0347 11.8174 674 105.218 346.982 486.328
179 0 58.0293 11.0806 643 107.131 347.283 486.722
180 0 60.0748 12.318 740 105.445 347.005 486.238
181 0 60.1183 11.8433 712 108.188 346.94 481.69
182 0 62.0459 12.4907 775 106.72 346.874 482.477
183 0 66.1504 12.6681 838 105.011 346.939 481.706
184 0 66.0738 11.1542 737 109.446 346.503 481.152
185 0 69.0748 12.4503 860 107.256 346.557 479.843
186 0 69.1051 10.7083 740 112.268 346.596 479.476
187 0 75.0663 12.6821 952 108.377 347.175 478.292
188 0 76.0737 12.4222 945 108.397 347.199 477.36
189 0 80.0449 12.493 1000 109.295 346.499 475.682
190 0 80.1722 12.2611 983 111.397 346.694 474.685
191 0 83.0985 12.2626 1019 111.595 346.87 474.472
192 0 85.1009 12.4323 1058 114.723 346.688 472.406
193 0 89.0746 12.787 1139 114.154 346.811 470.262
194 0 91.1444 11.97 1091 117.159 347.1 468.67
195 0 94.1993 13.1954 1243 115.375 347.405 466.327
196 0 96.1841 11.8315 1138 118.932 346.988 466.447
197 1 50.1043 12.2345 613 117.08 347.625 487.638
198 0 52.0803 12.0007 625 117.075 347.6 488.33
199 0 56.1082 13.2957 746 112.678 347.241 488.631
200 0 55.068 13.6377 751 113.952 346.933 486.667
201 0 56.178 13.1546 739 115.461 346.127 487.191
202 0 57.0454 13.9538 796 114.633 345.691 485.104
203 0 59.0766 13.7956 815 114.767 346.537 484.412
204 0 61.1535 12.0353 736 118.557 345.982 482.06
205 0 61.0725 11.56 706 121.327 346.919 483.69
206 0 63.1037 12.9945 820 117.443 346.201 482.863
207 0 67.0712 13.7018 919 114.059 345.582 481.679
208 0 69.1934 12.7902 885 116.365 346.607 480.795
209 0 71.1045 13.9232 990 113.36 346.426 479.504
210 0 73.1588 13.6415 998 113.794 345.95 478.767
211 0 75.194 14.456 1087 112.137 346.462 476.462
212 0 78.1337 13.5665 1060 113.544 346.157 474.904
213 0 81.0805 13.7024 1111 110.97 346.021 474.37
214 0 83.1492 14.1673 1178 110.133 346.468 472.707
215 0 86.2207 14.1265 1218 109.35 345.454 470.617
216 0 88.1403 12.5936 1110 112.489 346.106 471.885
217 0 92.2347 13.9752 1289 108.676 345.876 469.199
218 0 95.187 14.2982 1361 108.051 346.189 465.717
219 0 98.267 14.5318 1428 108.832 345.235 466.029
220 1 50.0722 11.6232 582 110.742 345.326 488.62
221 0 52.0734 12.5592 654 109.446 346.018 488.498
222 0 52.1141 12.3959 646 110.424 345.743 486.751
223 0 53.0077 12.3001 652 103.219 345.908 489.413
224 0 54.0211 12.7172 687 103.079 346.434 487.346
225 0 57.092 12.8389 733 103.311 346.345 485.7
226 0 60.0901 13.3466 802 101.661 346.608 484.403
227 0 62.0348 12.7348 790 104.324 346.295 483.943
228 0 62.0348 12.7509 791 135.632 345.302 483.996
229 0 65.0698 13.57 883 103.922 346.527 481.85
230 0 67.0442 13.5433 908 104.139 347.064 480.384
231 0 70.0562 14.4313 1011 102.872 346.578 480.071
232 0 71.1037 14.1343 1005 104.669 346.219 478.705
233 0 72.1091 13.6876 987 107.717 346.621 478.183
234 0 75.0618 13.9219 1045 107.058 347.349 478.637
235 0 80.1669 13.1975 1058 109.698 347.355 475.97
236 0 80.1669 13.1476 1054 154.342 346.372 475.916
237 0 84.1209 13.8729 1167 113.166 346.88 471.861
238 0 86.1178 14.7124 1267 113.985 346.912 471.672
239 0 92.1657 14.5065 1337 114.453 346.352 470.581
240 0 95.14 13.7692 1310 116.328 346.233 470.222
241 0 98.1764 14.3619 1410 116.267 346.229 466.333
242 0 101.254 15.0216 1521 114.78 346.036 464.797
243 1 51.0902 11.6852 597 116.764 346.796 490.328
244 0 53.0324 12.7469 676 115.507 347.299 487.93
245 0 56.1015 15.0976 847 110.164 347.301 487.021
246 0 57.1733 13.7127 784 114.27 347.682 486.162
247 0 58.112 14.1451 822 116.442 347.751 482.81
248 0 61.2273 13.0661 800 117.975 347.038 482.672
249 0 64.1424 13.3453 856 117.387 347.484 482.384
250 0 66.0927 15.5236 1026 112.514 347.51 481.231
251 0 67.1731 15.1698 1019 115.453 347.723 480.409
252 0 69.1638 14.068 973 119.25 347.6 479.426
253 0 71.19 14.2014 1011 120.715 347.453 476.2
254 0 75.1952 14.4424 1086 120.337 346.782 475.884
255 0 78.2514 14.1851 1110 121.133 347.558 475.638
256 0 78.3123 14.672 1149 122.116 347.244 473.802
257 0 79.3182 13.137 1042 127.456 347.087 473.54
258 0 84.306 14.8032 1248 121.337 346.713 471.566
259 0 87.2379 14.3745 1254 122.495 346.884 471.752
260 0 87.2265 15.2362 1329 121.49 346.817 470.109
261 0 91.3326 14.157 1293 124.06 346.97 467.78
262 0 94.3309 14.1841 1338 122.258 347.065 468.06
263 0 97.2367 15.0252 1461 121.126 347.016 464.595
264 0 100.461 14.7421 1481 121.47 346.987 461.894
265 1 53.1985 12.5568 668 124.156 347.54 488.126
266 0 57.1673 13.959 798 119.867 347.427 485.491
267 0 59.1302 13.7662 814 119.652 348.208 485.221
268 0 58.1479 13.3625 777 122.039 347.36 485.153
269 0 63.1318 14.8103 935 117.185 347.722 482.246
270 0 65.1046 13.1788 858 121.024 347.578 482.527
271 0 68.1757 13.5679 925 119.938 347.152 479.822
272 0 69.381 13.7358 953 120.537 347.887 478.804
273 0 70.1859 13.678 960 121.867 347.726 477.288
274 0 74.1852 13.9516 1035 121.143 347.201 475.921
275 0 77.3181 14.6925 1136 118.71 347.655 476.334
276 0 79.2132 14.7829 1171 120.022 347.566 471.149
277 0 83.2485 14.2825 1189 120.3 347.04 471.905
278 0 88.3043 18.0059 1590 90.4138 347.125 471.27
279 0 88.2683 15.3283 1353 118.974 346.659 467.853
280 0 90.1971 14.5127 1309 120.555 346.717 468.268
281 0 93.1606 15.1674 1413 119.035 346.42 466.053
282 0 95.1714 12.6719 1206 125.068 346.238 467.434
283 0 97.228 13.5249 1315 123.29 347.119 465.03
284 0 102.306 14.1146 1444 121.221 346.451 461.783
285 1 50.1222 12.1104 607 122.293 347.578 486.786
286 0 53.1576 12.4159 660 121.417 346.791 484.841
287 0 55.1108 12.0303 663 120.959 347.201 483.003
288 0 56.0312 13.0999 734 117.943 346.612 481.403
289 0 60.147 12.8519 773 117.449 346.096 481.254
290 0 61.0602 12.4631 761 118.405 347.016 481.736
291 0 62.1365 13.0358 810 118.677 346.542 479.98
292 0 66.1913 14.1862 939 116.087 346.218 477.718
293 0 68.1022 13.656 930 116.794 346.922 478.249
294 0 69.1087 13.3268 921 118.752 346.479 476.291
295 0 72.145 13.8748 1001 117.242 346.377 476.2
296 0 73.0596 13.2221 966 120.349 346.245 473.769
297 0 75.1165 13.4591 1011 120.807 346.376 470.636
298 0 79.162 14.085 1115 118.686 346.548 470.761
299 0 80.184 12.7332 1021 122.303 346.274 469.2
300 0 85.1804 12.9138 1100 120.362 345.854 469.823
301 0 87.1565 12.816 1117 120.926 345.929 468.524
302 0 94.0956 11.4458 1077 123.082 346.462 466.103
303 0 95.1436 12.6861 1207 121.052 346.273 464.065
304 0 99.1499 13.1922 1308 119.657 346.428 462.721
305 1 54.1597 10.469 567 110.533 347.691 485.963
306 0 57.1095 10.9439 625 108.411 347.88 485.248
307 0 58.1163 12.3029 715 105.334 347.765 483.418
308 0 60.052 11.107 667 104.265 347.837 485.741
309 0 59.0773 10.7317 634 107.17 347.849 484.719
310 0 62.0987 11.6589 724 106.349 347.481 481.355
311 0 63.0965 10.3017 650 105.791 347.997 482.422
312 0 66.0643 11.8067 780 103.582 347.413 481.072
313 0 68.1226 11.0242 751 105.935 347.202 478.527
314 0 71.0634 11.4546 814 105.249 347.181 478.743
315 0 73.2353 11.3743 833 106.7 346.043 475.366
316 0 76.1233 11.3237 862 106.382 346.447 475.038
317 0 78.128 10.6748 834 107.558 346.266 475.537
318 0 82.1352 11.9194 979 105.882 346.327 472.672
319 0 85.1996 11.6432 992 107.516 346.944 469.955
320 0 86.1498 10.563 910 110.109 346.807 471.703
321 0 91.1388 11.1039 1012 108.004 346.714 470.864
322 0 93.176 10.4855 977 108.885 346.678 467.426
323 0 93.176 10.3889 968 130.166 347.665 467.436
324 0 95.2824 10.5581 1006 117.423 346.139 464.39
325 0 99.1131 11.7442 1164 113.482 346.697 464.404
326 1 46.0294 8.08178 372 112.03 346.134 491.212
327 0 47.0548 9.81835 462 109.959 346.874 490.035
328 0 50.0527 9.3901 470 111.262 346.596 487.987
329 0 51.0858 9.21979 471 112.335 347.166 487.686
330 0 52.0488 9.12605 475 111.771 347.265 490.116
331 1 119.263 10.7158 1278 122.986 346.505 453.131
332 0 124.47 11.6092 1445 120.127 345.927 451.045
333 1 57.0456 10.0095 571 112.147 346.569 484.088
334 0 60.1435 10.1757 612 111.461 347.276 484.631
335 0 63.1766 11.2858 713 111.442 346.823 480.523
336 0 63.1823 11.6647 737 120.094 345.864 480.931
337 0 65.0663 10.3279 672 111.866 347.019 481.75
338 0 66.0472 11.8854 785 109.341 347.127 480.134
339 0 65.0998 10.0154 652 113.06 347.718 482.888
340 0 71.039 9.6989 689 114.139 347.549 479.595
341 0 72.0812 10.0997 728 114.42 347.089 476.478
342 0 75.0662 10.7372 806 113.315 347.504 475.999
343 0 76.1323 10.0089 762 115.386 347.304 474.412
344 0 79.0342 9.50222 751 115.864 346.991 475.875
345 0 80.1184 8.96174 718 115.603 348.238 474.688
346 0 86.0688 10.2476 882 112.227 347.701 473.015
347 0 86.1324 9.78726 843 113.996 346.884 471.818
348 0 90.0685 10.9139 983 113.07 348.097 466.697
349 0 94.1846 9.90608 933 113.12 347.204 469.597
350 1 47.0286 11.1209 523 106.09 347.998 489.08
351 0 50.0522 11.1883 560 107.396 347.655 490.725
352 0 49.113 9.93626 488 112.928 347.102 492.104
353 0 49.113 9.97699 490 131.229 347.12 492.033
354 0 54.0704 10.9302 591 111.829 346.284 489.753
355 0 55.2397 11.0247 609 110.944 346.062 489.739
356 0 58.2392 11.6931 681 110.206 346.675 487.463
357 0 59.0762 11.5783 684 112.101 346.414 486.145
358 0 60.1373 11.5735 696 113.27 346.262 485.922
359 0 63.1078 12.9303 816 110.989 347.074 484.694
360 0 65.1061 12.518 815 113.031 347.231 484.515
361 0 66.1234 12.1893 806 115.667 346.614 482.787
362 0 69.1274 11.4282 790 117.31 346.37 482.881
363 0 70.0697 12.3734 867 116.241 346.772 482.132
364 0 71.1078 12.3756 880 118.576 346.522 480.859
365 0 75.1224 12.0603 906 120.503 346.057 477.59
366 0 80.1321 12.6666 1015 118.583 346.611 478.44
367 0 81.1401 12.9529 1051 118.627 347.326 475.728
368 0 83.1139 12.2001 1014 122.386 347.4 473.54
369 1 43.0268 12.4573 536 119.862 347.918 493.974
370 0 45.0197 11.9725 539 121.219 347.694 493.312
371 0 43.0411 11.0127 474 126.608 347.454 492.557
372 0 47.0318 12.1407 571 120.939 347.627 492.098
373 0 48.0161 12.9956 624 120.159 347.074 491.667
374 0 48.0558 12.2358 588 123.388 346.776 491.007
375 0 49.0488 11.6822 573 126.923 347.199 489.812
376 0 51.0487 12.3411 630 124.648 347.079 490.37
377 0 54.03 13.4925 729 120.871 347.704 489.361
378 0 55.0217 13.5765 747 120.569 347.364 488.969
379 0 58.0161 13.7031 795 119.599 346.848 487.741
380 0 58.0413 12.9908 754 123.167 347.028 486.495
381 0 61.0193 14.4053 879 118.943 347.208 485.089
382 0 61.0598 13.2821 811 122.321 346.841 485.086
383 0 63.1067 12.772 806 124.614 346.56 481.408
384 0 65.0512 12.9129 840 123.567 347.001 484.067
385 0 66.0893 12.8916 852 125.756 346.926 481.749
386 0 68.0765 13.147 895 124.516 346.934 480.849
387 0 71.0474 12.5832 894 124.195 346.884 480.71
388 0 73.0536 12.8399 938 123.397 346.774 479.186
389 0 75.0649 12.6291 948 124.309 346.333 478.356
390 0 75.0583 13.4029 1006 122.422 345.813 478.028
391 0 77.0308 12.4755 961 125.596 346.726 476.441
392 0 80.1576 13.0992 1050 124.184 346.146 475.047
393 0 85.0998 12.5735 1070 123.023 346.544 474.599
394 0 85.1191 13.1933 1123 125.077 346.307 470.411
395 0 89.1418 14.4713 1290 122.818 346.312 470.042
396 0 91.1049 14.2363 1297 122.295 346.305 470.6
397 0 94.0908 13.7633 1295 125.201 345.915 466.693
398 0 95.1554 13.8931 1322 126.153 345.268 465.75
399 0 97.0994 12.7704 1240 127.72 346.54 466.337
400 0 100.137 14.4202 1444 124.754 346.821 461.334
401 0 105.127 15.6477 1645 120.307 346.476 461.867
402 0 108.161 14.0994 1525 124.558 346.852 459.889
403 0 112.184 12.0784 1355 129.158 346.081 457.902
404 1 62.0728 10.2944 639 122.887 346.283 484.21
405 0 64.1795 11.8106 758 123.583 346.231 481.773
406 0 67.2557 12.0138 808 119.76 346.6 481.449
407 0 69.093 11.9404 825 118.05 346.594 482.225
408 0 69.0885 12.4768 862 118.919 346.825 480.754
409 0 70.0754 11.8444 830 120.912 346.772 479.053
410 0 75.1603 12.3602 929 118.881 346.768 476.497
411 0 77.0979 12.0496 929 119.086 346.631 477.645
412 0 80.0782 12.4004 993 118.944 346.154 477.169
413 0 81.0654 11.8176 958 120.827 346.784 474.639
414 0 86.0914 12.661 1090 117.322 346.203 473.94
415 0 87.0902 11.1149 968 119.665 346.566 474.209
416 0 90.0991 11.8203 1065 119.179 347.065 468.438
417 0 93.1181 10.8679 1012 119.723 347.1 469.468
418 0 98.2113 12.2898 1207 115.89 347.128 467.495
419 0 101.104 11.8492 1198 116.578 346.658 465.817
420 0 105.223 12.1742 1281 116.074 346.729 464.183
421 0 107.084 11.1408 1193 119.744 346.721 460.7
422 0 112.241 11.9475 1341 118.406 347.182 456.794
423 0 115.203 11.2063 1291 119.39 347.189 457.612
424 0 120.209 12.262 1474 118.444 346.716 454.222
425 0 123.219 11.7758 1451 119.351 346.458 453.32
426 1 66.0938 11.7863 779 116.757 347.262 480.952
427 0 69.1461 12.2928 850 114.202 347.085 477.605
428 0 71.1636 11.9724 852 115.378 346.619 477.854
429 0 74.2024 11.8594 880 116.964 347.247 478.56
430 0 75.1515 12.6411 950 115.872 346.585 477.167
431 0 77.1097 12.9945 1002 112.634 346.258 477.488
432 0 78.0687 12.0279 939 114.449 347.181 476.315
433 0 81.1525 10.9547 889 117.973 347.298 475.084
434 0 83.1036 11.5518 960 117.955 347.373 475.442
435 0 86.0835 11.5585 995 118.423 347.575 472.449
436 0 89.0717 12.2822 1094 117.992 347.67 469.501
437 0 92.0929 11.8359 1090 119.315 346.523 469.261
438 0 94.1648 12.3188 1160 119.26 346.844 469.346
439 0 97.098 11.4111 1108 121.08 347.55 466.312
440 0 102.107 11.8405 1209 119.466 347.222 465.559
441 0 105.191 10.9991 1157 121.965 347.044 463.378
442 0 108.283 11.6823 1265 118.562 346.853 459.847
443 0 111.176 11.7292 1304 120.719 347.277 457.672
444 1 60.0949 10.6997 643 117.684 347.322 484.869
445 0 63.2722 12.4225 786 115.384 346.809 483.011
446 0 64.0209 11.0901 710 116.575 348.893 480.78
447 0 64.0198 9.38772 601 140.366 349.889 482.732
448 0 65.0627 9.45242 615 104.091 347.623 482.293
449 0 69.1186 9.9539 688 112.145 346.224 482.972
450 0 71.1231 11.8105 840 109.465 346.381 479.802
451 0 74.1483 12.3941 919 107.724 346.564 478.175
452 0 75.1589 11.8283 889 110.394 346.018 478.409
453 0 80.104 12.3589 990 108.645 346.844 478.962
454 0 80.1138 10.6723 855 113.878 346.959 473.385
455 0 84.2497 11.8932 1002 110.475 346.67 473.777
456 0 87.0949 11.5391 1005 112.088 346.636 471.997
457 0 89.1165 12.2424 1091 111.155 346.739 470.152
458 0 91.1456 11.8272 1078 111.827 346.631 469.555
459 0 96.1264 12.0362 1157 111.29 346.931 469.672
460 0 97.1496 12.0536 1171 114.062 346.646 466.183
461 1 54.2433 11.6881 634 110.765 348.174 486.926
462 0 52.0396 9.66572 503 106.837 348.185 482.911
463 0 54.0554 9.26826 501 103.589 347.665 483.86
464 0 56.085 10.8229 607 100.881 347.944 483.623
465 0 56.088 10.2339 574 102.845 347.584 483.319
466 0 59.0733 10.597 626 102.558 347.264 483.28
467 0 61.0366 10.5019 641 101.331 346.37 481.8
468 0 62.0984 11.4496 711 100.591 347.298 481.083
469 0 62.0573 10.9093 677 103.081 346.814 479.681
470 0 65.0898 10.0784 656 102.992 347.079 479.8
471 0 67.0892 10.1507 681 102.537 347.088 479.41
472 0 70.0699 10.5038 736 102.885 346.758 476.734
473 0 70.049 10.5069 736 104.14 347.132 473.647
474 0 71.0961 9.66297 687 105.758 346.953 473.68
475 0 76.1087 10.6952 814 103.704 347.619 474.151
476 0 77.1248 11.5657 892 103.35 347.086 473.289
477 0 81.1366 11.1787 907 104.841 346.568 470.197
478 0 83.2051 10.9248 909 105.639 346.916 469.493
479 0 87.1255 11.1563 972 104.815 346.908 469.752
480 0 90.1972 11.497 1037 104.495 346.366 466.701
481 0 92.1581 10.7316 989 106.352 346.442 465.719
482 0 94.1236 11.1237 1047 106.283 345.918 460.446
483 0 99.1023 11.6445 1154 104.702 346.692 459.627
484 1 51.0869 10.2179 522 101.021 347.234 484.567
485 0 54.0975 10.7029 579 101.402 347.107 483.506
486 0 57.1221 12.5696 718 103.652 345.829 486.344
487 0 60.1599 11.619 699 104.092 346.937 484.578
488 0 60.1302 12.0405 724 103.438 346.637 484.199
489 0 63.1365 12.7185 803 100.715 347.445 483.842
490 0 66.1159 12.0697 798 100.796 347.404 482.576
491 0 66.0929 13.1028 866 98.6594 347.201 479.204
492 0 70.1232 14.3462 1006 95.8042 347.494 478.318
493 0 71.0705 12.7479 906 98.6711 347.595 476.847
494 0 74.064 12.1517 900 98.7756 347.694 476.328
495 0 76.2479 13.8496 1056 96.446 347.366 473.33
496 0 79.2151 12.3966 982 99.4369 346.954 473.715
497 0 82.1921 11.9476 982 101.244 347.785 473.499
498 0 86.1603 12.9874 1119 98.1591 347.668 471.054
499 0 88.1393 12.3101 1085 99.8323 348.285 470.455
500 0 90.3361 11.8779 1073 105.819 347.482 467.515
501 0 95.1887 13.6361 1298 104.329 348.193 465.069
502 0 99.0983 12.7853 1267 105.534 347.733 464.707
503 0 103.104 13.0257 1343 104.81 348.121 462.836
504 1 53.1039 11.7317 623 104.114 348.907 486.538
505 0 55.0723 9.36949 516 100.938 347.818 483.14
506 0 57.0954 11.4895 656 96.5366 347.288 484.5
507 0 58.1455 10.5253 612 103.515 348.288 485.145
508 0 58.1455 10.5941 616 116.659 349.282 485.06
509 0 62.0806 11.4045 708 104.02 347.688 481.493
510 0 65.1375 12.7116 828 100.694 347.96 483.1
511 0 67.1341 11.1866 751 103.788 347.752 481.229
512 0 72.1117 12.2726 885 101.016 347.216 480.386
513 0 71.157 11.1163 791 105.523 347.254 478.981
514 0 75.1591 11.336 852 105.371 347.346 475.853
515 0 79.2101 13.0918 1037 101.293 346.889 475.636
516 0 83.0912 12.2155 1015 103.242 347.175 474.205
517 0 86.1625 12.2327 1054 101.815 347.689 474.9
518 0 90.2049 13.037 1176 100.494 347.756 472.554
519 0 91.0807 12.6371 1151 102.979 347.189 467.315
520 0 96.1256 12.7021 1221 102.383 347.465 467.045
521 0 99.1852 12.643 1254 101.244 346.699 463.313
522 1 47.057 10.7317 505 106.099 346.404 490.269
523 0 51.0605 11.6528 595 100.148 347.087 488.563
524 0 53.0597 11.9488 634 96.9763 346.476 487.924
525 0 53.0401 11.1991 594 98.5673 346.261 488.412
526 0 56.075 11.6451 653 96.6723 346.237 486.158
527 0 57.0329 10.8884 621 98.6023 345.63 486.283
528 0 62.0819 13.0312 809 93.1496 345.781 483.743
529 0 61.1131 10.996 672 98.0759 345.862 483.466
530 0 63.0662 11.3056 713 97.8205 346.44 482.219
531 0 66.0542 11.9145 787 96.324 346.334 480.402
532 0 68.0352 11.3471 772 98.2332 346.311 481.57
533 0 72.1194 11.9663 863 97.759 346.173 480.056
534 0 74.0786 12.7432 944 97.9333 345.971 477.401
535 0 77.1472 12.4049 957 101.303 346.392 477.56
536 0 80.1556 13.3989 1074 99.325 346.021 475.385
537 0 82.163 12.9985 1068 101.478 346.262 474.229
538 0 85.0446 11.7585 1000 105.317 346.18 473.855
539 0 88.1158 12.0296 1060 109.786 345.468 468.556
540 0 89.194 10.9424 976 113.553 346.263 469.463
541 1 46.0816 10.872 501 105.02 346.774 492.329
542 0 49.1426 10.5611 519 106.054 347.73 490.511
543 0 52.0832 12.8448 669 108.111 347.069 488.653
544 0 51.0889 12.2532 626 105.248 347.264 489.866
545 0 51.1046 10.1165 517 110.321 347.805 490.702
546 0 54.0975 11.5532 625 108.245 347.662 490.285
547 0 58.1348 11.955 695 106.443 347.167 489.888
548 0 57.0493 11.5865 661 108.363 347.402 490.316
549 0 59.1781 12.1329 718 108.946 347.28 486.408
550 0 62.0942 12.1589 755 109.466 347.189 486.506
551 0 63.1388 11.2926 713 112.596 346.656 486.355
552 0 67.1265 11.2921 758 108.408 347.375 483.094
553 0 68.1668 11.4279 779 110.673 346.999 481.339
554 0 71.067 11.6932 831 111.724 346.714 479.746
555 0 73.0466 11.6775 853 111.848 346.705 478.981
556 0 75.0911 12.1719 914 111.276 346.697 479.232
557 0 78.0924 11.4992 898 114.062 346.295 475.885
558 0 81.0806 11.5687 938 114.228 346.486 476.614
559 0 84.1901 12.0442 1014 113.851 346.715 472.721
560 0 87.1327 12.1768 1061 113.858 347.404 472.116
561 1 47.1014 10.8489 511 115.53 347.217 494.736
562 0 48.0668 11.6505 560 114 346.407 492.005
563 0 50.1425 10.5699 530 113.317 346.206 488.955
564 0 52.0285 12.8583 669 109.404 346.864 491.037
565 0 54.0284 12.0677 652 112.017 346.736 489.169
566 0 55.0372 11.9374 657 113.314 346.604 490.473
567 0 54.0315 10.753 581 118.814 345.979 488.024
568 0 58.0777 11.3985 662 116.104 346.775 488.625
569 0 59.0246 11.9272 704 114.538 346.379 487.952
570 0 62.0872 11.0007 683 116.887 346.931 486.496
571 0 62.0276 12.3493 766 116.132 346.913 483.879
572 0 65.064 11.1121 723 118.461 346.515 483.246
573 0 67.0226 12.0556 808 117.944 347.158 482.218
574 0 70.0737 13.129 920 114.322 347.615 483.229
575 0 71.0712 11.4955 817 119.169 347.031 482.125
576 0 76.0819 12.802 974 115.244 346.978 479.988
577 0 76.0705 12.6462 962 116.928 346.724 479.702
578 0 80.238 13.5472 1087 115.431 347.193 476.725
579 0 80.238 13.5347 1086 143.98 347.149 476.636
580 0 83.2084 12.5708 1046 120.011 347.603 475.181
581 0 88.1065 12.78 1126 121.698 346.941 472.652
582 0 90.205 13.0259 1175 122.381 347.469 469.643
583 1 50.1834 11.1989 562 118.979 347.874 492.011
584 0 54.074 11.8726 642 116.178 348.078 491.724
585 0 55.1502 12.4932 689 116.488 348.081 489.453
586 0 56.1524 12.1633 683 119.064 347.969 488.204
587 0 57.1203 11.9047 680 120.016 348.282 487.603
588 0 58.0875 12.3951 720 118.969 347.381 486.594
589 0 59.14 12.4789 738 120.748 347.641 485.332
590 0 63.119 11.9299 753 120.437 347.418 486.486
591 0 64.0429 12.1325 777 120.837 346.659 485.875
592 0 64.1382 11.7247 752 123.024 346.965 483.843
593 0 67.0484 13.0652 876 120.031 347.338 484.433
594 0 68.1246 12.7267 867 120.255 347.798 482.702
595 0 71.0787 13.1404 934 119.914 347.04 482.375
596 0 74.1135 13.4254 995 119.273 347.222 480.125
597 0 76.3006 12.7129 970 122.122 346.901 477.746
598 0 77.0285 13.2289 1019 123.714 346.864 478.188
599 0 80.1063 13.919 1115 121.934 347.639 473.968
600 0 83.2492 12.853 1070 125.917 347.265 473.749
601 0 85.2873 12.37 1055 127.625 347.058 471.086
602 0 89.2084 13.0817 1167 124.456 346.728 472.551
603 0 91.2417 13.0861 1194 125.251 346.578 469.909
604 0 95.1711 12.8821 1226 126.596 346.531 466.694
605 0 99.2583 13.8125 1371 122.131 347.204 465.718
606 1 52.1829 11.613 606 119.855 347.728 489.771
607 0 54.1565 10.9682 594 120.352 347.503 489.882
608 0 56.1493 12.3777 695 117.224 346.58 488.678
609 0 59.0783 12.3903 732 116.642 347.557 488.202
610 0 58.0886 12.4809 725 119.236 346.839 486.145
611 0 61.0735 12.2312 747 119.127 347.185 487.071
612 0 62.0594 13.2293 821 116.296 347.03 487.356
613 0 65.0813 13.6752 890 115.739 346.565 483.769
614 0 67.1317 12.6617 850 118.524 347.094 484.135
615 0 68.1957 13.2706 905 117.452 347.158 481.793
616 0 70.1199 11.7513 824 121.322 346.866 482.718
617 0 73.1009 12.982 949 118.6 347.183 481.714
618 0 75.0709 13.2808 997 119.598 346.975 477.917
619 0 78.0567 14.0283 1095 117.258 347.065 478.467
620 0 82.1226 12.9441 1063 120.457 347.285 476.238
621 0 85.0955 13.7375 1169 118.845 347.844 474.175
622 0 87.1042 13.26 1155 120.163 346.971 472.279
623 0 89.0631 12.8785 1147 122.15 347.295 471.87
624 0 94.1766 13.0818 1232 121.708 346.26 470.861
625 0 95.1072 13.122 1248 124.637 346.497 468.732
626 0 97.1787 12.4822 1213 126.26 347.03 468.701
627 1 51.0399 11.2461 574 123.118 347.962 492.016
628 0 52.0951 11.575 603 124.189 346.441 489.051
629 0 54.024 11.9762 647 122.21 346.351 488.294
630 0 58.0694 12.2095 709 121.176 346.797 487.769
631 0 58.079 12.4486 723 122.477 346.657 487.354
632 0 60.1051 11.9956 721 125.158 346.649 486.133
633 0 61.0702 11.9535 730 127.584 346.385 486.025
634 0 66.0935 12.3008 813 124.434 346.624 484.153
635 0 66.0917 11.5748 765 128.516 346.793 481.472
636 0 71.1141 12.9651 922 123.756 347.296 481.326
637 0 72.0958 12.4556 898 125.878 347.017 480.106
638 0 75.1482 12.828 964 125.132 346.381 479.05
639 0 76.0858 12.4728 949 126.86 347.239 478.9
640 0 80.1398 12.9524 1038 125.316 347.762 476.38
641 0 82.1617 12.8649 1057 126.588 346.784 473.639
642 0 85.0861 11.8938 1012 127.826 346.905 473.164
643 0 89.1518 13.2471 1181 124.602 346.133 471.515
644 0 90.0779 13.1442 1184 125.704 346.733 469.783
645 0 93.1275 13.4869 1256 124.869 346.94 468.615
646 0 95.1085 13.963 1328 123.486 346.996 467.913
647 0 98.1516 11.9305 1171 128.559 346.158 466.707
648 0 103.083 12.5239 1291 127.617 346.84 461.88
649 0 106.262 12.0928 1285 128.557 346.412 462.945
650 1 60.0742 11.336 681 121.499 346.799 486.903
651 0 61.107 12.699 776 119.469 346.505 484.448
652 0 62.1545 12.5011 777 119.227 346.73 483.68
653 0 63.0871 12.1736 768 119.685 347.467 484.292
654 0 67.109 14.0071 940 114.633 347.161 482.27
655 0 68.2246 12.0045 819 120.799 347.066 480.615
656 0 72.1232 11.6051 837 120.638 346.996 479.589
657 0 75.1084 12.462 936 117.441 346.88 478.964
658 0 75.0952 12.6906 953 119.553 346.21 475.441
659 0 77.1416 12.0817 932 120.913 346.628 479.031
660 0 79.1071 10.8713 860 124.574 346.419 477.208
661 0 82.1627 11.0634 909 123.92 346.652 475.405
662 0 84.233 11.0052 927 125.04 346.41 472.367
663 0 90.1192 12.5278 1129 120.219 346.344 469.068
664 0 92.1012 11.9868 1104 120.579 346.492 466.992
665 0 96.3812 12.077 1164 118.937 346.412 464.031
666 0 101.18 12.206 1235 120.484 345.83 462.125
667 0 102.169 11.3146 1156 123.428 344.856 460.362
668 0 108.299 11.9945 1299 120.356 344.751 458.563
669 0 113.213 12.3042 1393 119.813 345.294 458.46
670 0 117.427 10.9259 1283 122.752 345.031 459.73
671 1 63.137 11.8789 750 121.605 345.325 485.1
672 0 63.1381 11.8154 746 122.717 345.111 483.656
673 0 64.2171 12.956 832 120.702 344.871 480.638
674 0 67.3541 12.8723 867 119.971 345.074 482.784
675 0 70.1171 13.3634 937 117.893 345.862 479.358
676 0 71.2057 12.9203 920 120.195 344.997 479.671
677 0 74.2631 13.2771 986 119.191 345.181 478.225
678 0 77.1465 13.3253 1028 118.221 345.619 479.094
679 0 80.2192 13.9867 1122 116.71 345.647 476.738
680 0 77.1822 12.3733 955 118.723 345.917 474.548
681 0 83.2887 12.1385 1011 116.819 345.953 475.226
682 0 85.102 11.8916 1012 118.53 344.331 470.313
683 0 89.2272 12.2608 1094 115.726 344.98 471.755
684 1 46.1003 9.63118 444 118.734 345.047 490.023
685 0 49.0211 10.8321 531 115.089 345.072 490.22
686 0 50.0179 11.176 559 115.494 345.109 486.934
687 0 52.0653 11.0054 573 115.81 345.337 485.653
688 0 53.0554 11.8932 631 108.437 346.254 489.422
689 0 53.0493 12.2905 652 108.336 346.73 487.834
690 0 57.0674 11.3199 646 109.512 347.802 487.505
691 0 58.0178 12.3066 714 107.794 346.625 486.99
692 0 61.1645 12.9814 794 105.762 347.105 485.863
693 0 61.0404 10.5012 641 111.732 346.913 486.317
694 0 63.0816 10.637 671 111.139 347.124 486.922
695 0 65.0611 10.8667 707 111.652 347.438 485.331
696 0 68.0988 11.9092 811 110.625 347.118 481.122
697 0 72.1898 12.107 874 110.068 347.804 481.422
698 0 73.1053 11.203 819 113.737 347.26 480.557
699 0 76.1047 10.7221 816 115.386 347.969 478.312
700 0 80.1479 11.7657 943 113.631 347.281 475.645
701 0 83.1393 12.6294 1050 112.5 347.409 473.257
702 0 85.2187 11.8636 1011 114.722 346.834 474.172
703 0 88.1656 13.055 1151 113.666 346.674 472.377
704 0 92.1367 12.0473 1110 116.77 346.656 468.492
705 1 52.1697 11.1367 581 115.484 347.69 490.167
706 0 52.0658 11.3702 592 111.488 346.356 488.492
707 0 54.135 12.1548 658 115.082 346.748 488.412
708 0 56.048 11.5258 646 110.382 346.316 487.156
709 0 59.0473 11.821 698 110.01 345.96 487.928
710 0 60.0661 12.9025 775 108.783 346.674 484.619
711 0 62.0796 12.8706 799 108.597 346.582 486.005
712 0 63.1161 12.5166 790 110.803 346.46 481.963
713 0 66.0963 11.8615 784 108.307 346.434 480.582
714 0 68.1533 12.1344 827 106.904 346.405 480.175
715 0 69.0457 11.9196 823 109.881 345.945 479.587
716 0 73.1524 11.6059 849 109.059 345.973 480.347
717 0 77.0596 12.8602 991 107.352 347.139 478.133
718 0 77.1549 12.3907 956 109.8 346.141 475.026
719 0 81.201 13.5836 1103 109.457 346.113 476.892
720 0 84.1624 12.8323 1080 112.644 345.742 474.243
721 0 85.0651 12.7432 1084 113.009 346.232 472.32
722 0 88.0405 12.0853 1064 114.677 346.355 468.932
723 0 93.1261 13.6911 1275 108.739 346.71 469.41
724 0 96.0993 12.7888 1229 111.636 346.309 467.33
725 1 50.1136 11.3342 568 110.435 346.387 491.014
726 0 50.134 10.5318 528 116.509 346.795 489.646
727 0 53.0888 12.1306 644 110.401 347.005 488.174
728 0 56.2542 11.5547 650 109.538 344.885 487.875
729 0 58.0248 13.1668 764 108.657 345.571 486.944
730 0 59.0828 11.9155 704 111.805 345.814 486.548
731 0 62.2105 13.6311 848 107.421 345.544 485.416
732 0 61.0842 11.7706 719 114.26 345.453 484.915
733 0 63.1153 12.691 801 110.576 345.6 485.315
734 0 66.129 10.6459 704 109.771 345.815 479.781
735 0 68.1056 11.6437 793 107.648 345.834 479.936
736 0 72.165 11.6261 839 107.141 345.237 479.502
737 0 72.1165 11.1902 807 108.283 345.737 476.824
738 0 73.156 12.2205 894 104.365 345.905 476.791
739 0 76.1423 10.2308 779 108.635 346.252 474.779
740 0 79.1937 11.6171 920 106.934 345.915 470.983
741 0 82.0497 12.3584 1014 106.569 346.567 469.734
742 0 82.067 11.2347 922 108.947 346.292 470.678
743 0 87.0842 10.3233 899 116.065 345.993 466.845
744 0 91.069 13.0231 1186 120.339 346.096 470.813
745 1 50.0344 10.6127 531 119.672 345.377 491.994
746 0 50.0528 12.4469 623 116.539 345.039 490.475
747 0 52.0423 12.9894 676 114.822 344.527 490.118
748 0 53.0729 12.2285 649 118.211 344.633 487.627
749 0 55.0897 12.3254 679 111.757 344.644 487.585
750 0 55.0611 13.1127 722 106.823 345.183 488.421
751 0 56.1396 11.5248 647 112.675 346.958 488.883
752 0 58.1036 12.0819 702 110.09 346.47 487.407
753 0 59.0423 11.6865 690 106.916 346.472 485.307
754 0 61.0545 12.2677 749 104.976 346.093 482.606
755 0 61.0361 13.3036 812 109.177 344.807 483.691
756 0 63.1063 10.823 683 114.057 345.632 484.202
757 0 67.1343 12.0952 812 109.659 345.904 482.924
758 0 70.0569 13.3035 932 106.374 345.353 480.564
759 0 72.0276 11.7177 844 109.981 345.838 481.296
760 0 76.0893 13.2082 1005 106.249 344.727 478.929
761 0 74.1443 10.7898 800 112.749 345.55 480.01
762 0 80.1985 11.6336 933 109.141 344.99 477.478
763 0 82.1597 12.1714 1000 109.514 345.554 473.22
764 0 86.1644 13.5323 1166 106.944 345.696 472.578
765 0 90.1248 12.4161 1119 108.374 345.729 473.662
766 0 90.2372 11.7468 1060 111.535 345.07 469.299
767 1 49.0878 11.9174 585 108.212 345.578 490.968
768 0 52.1043 11.381 593 108.583 344.761 491.331
769 0 51.0697 10.6325 543 107.37 345.44 484.891
770 0 52.1229 11.0508 576 105.917 345.545 482.118
771 0 52.0332 10.378 540 108.62 345.613 482.991
772 0 54.1052 11.644 630 105.917 346.678 483.435
773 0 57.1081 11.3469 648 107.809 346.119 481.397
774 0 59.0525 12.8022 756 104.611 346.407 480.696
775 0 63.1192 11.7872 744 106.523 346.016 479.555
776 0 66.0801 13.0145 860 103.735 345.696 478.745
777 0 68.1014 12.2611 835 107.408 345.895 476.14
778 0 71.1422 13.2973 946 105.665 345.897 474.303
779 0 71.064 12.3128 875 109.659 346.761 474.89
780 0 73.136 12.7024 929 109.889 346.316 473.708
781 0 75.097 11.6782 877 113.269 346.954 473.437
782 0 82.1874 14.2114 1168 106.472 345.961 470.827
783 0 83.1039 12.9717 1078 110.218 346.325 470.674
784 0 83.1167 12.0192 999 113.769 346.392 468.343
785 0 90.232 13.4764 1216 116.534 346.7 470.591
786 0 91.2652 12.5349 1144 120.787 346.802 469.138
787 0 96.1298 14.8653 1429 109.39 345.518 461.295
788 1 52.0367 11.857 617 110.593 346.543 484.835
789 0 53.0607 10.9497 581 112.253 346.921 484.059
790 0 55.1622 11.4571 632 119.903 346.419 489.85
791 0 59.0515 11.8371 699 117.95 346.599 488.923
792 0 60.0433 13.2904 798 116.846 346.35 486.835
793 0 60.1008 13.2111 794 117.363 346.508 486.865
794 0 62.0634 13.3573 829 118.61 346.532 483.691
795 0 66.0993 12.4056 820 118.498 347.143 485.365
796 0 67.1217 13.3191 894 117.493 346.615 481.746
797 0 70.0465 13.3483 935 114.97 346.703 482.693
798 0 72.0855 14.2331 1026 114.392 346.559 478.906
799 0 75.112 13.8859 1043 115.037 346.449 477.733
800 0 74.1099 12.8593 953 118.939 346.667 477.107
801 0 81.1807 14.942 1213 110.586 346.893 477.046
802 0 81.1453 14.0858 1143 114.786 346.304 472.303
803 0 85.1021 12.5496 1068 117.499 345.941 474.115
804 0 89.0825 13.2237 1178 115.708 346.724 471.072
805 0 91.083 12.9113 1176 115.697 346.628 471.073
806 0 93.128 12.7029 1183 117.828 346.396 467.102
807 0 98.13 13.9611 1370 114.044 346.131 465.139
808 0 100.189 13.6841 1371 113.599 345.486 463.436
809 1 52.0946 10.9224 569 113.406 346.411 481.78
810 0 50.0828 11.4011 571 114.483 345.701 480.59
811 0 54.0704 10.8747 588 113.252 347.073 481.488
812 0 56.0281 11.2265 629 107.173 346.032 481.889
813 0 59.0606 11.4797 678 105.608 345.65 481.062
814 0 59.0669 12.2065 721 106.632 345.392 478.566
815 0 60.0184 10.0136 601 111.399 345.436 478.814
816 0 65.0396 10.2707 668 110.973 346.153 477.747
817 0 66.0539 11.5663 764 109.292 345.323 476.294
818 0 71.0531 12.5821 894 107.358 346.185 475.84
819 0 72.2039 11.8276 854 109.986 346.128 473.717
820 0 76.2083 11.6392 887 109.334 346.277 476.869
821 0 79.0912 12.6436 1000 108.857 345.589 473.544
822 0 81.0747 12.507 1014 111.005 346.794 471.345
823 0 83.1643 12.0003 998 112.459 346.374 470.324
824 0 86.1402 12.3636 1065 113.176 345.978 469.635
825 0 91.1262 12.7186 1159 112.73 346.313 467.848
826 0 92.0689 14.0113 1290 120.771 346.116 471.732
827 0 96.1362 14.3026 1375 118.914 345.745 470.5
828 0 98.1614 13.2842 1304 123.857 346.073 466.432
829 0 102.164 13.5077 1380 123.238 345.875 463.145
830 0 107.212 14.5506 1560 120.672 344.985 461.456
831 0 112.136 14.4289 1618 120.23 344.364 461.889
832 1 56.0204 11.3352 635 121.729 345.746 488.929
833 0 60.0957 13.0625 785 117.259 345.503 487.242
834 0 63.1682 13.4403 849 115.943 346.69 481.734
835 0 64.1699 13.4331 862 117.022 346.92 483.259
836 0 65.0522 13.2048 859 117.716 346.405 483.942
837 0 68.1074 13.7724 938 115.499 346.45 481.679
838 0 69.0291 12.9076 891 119.686 346.414 480.327
839 0 72.133 13.2533 956 118.068 346.393 480.802
840 0 73.0256 13.3104 972 118.647 346.664 478.482
841 0 78.1375 13.1307 1026 117.102 346.184 478.48
842 0 78.1033 13.687 1069 117.379 346.413 474.919
843 0 82.1181 13.4684 1106 117.913 346.007 474.2
844 0 85.1305 14.5306 1237 113.838 345.875 474.215
845 0 86.1884 13.1224 1131 118.9 346.212 473.588
846 0 89.2198 14.4475 1289 115.184 345.436 472.068
847 0 90.1594 13.343 1203 115.592 345.623 469.375
848 0 92.2163 13.2948 1226 117.325 345.799 469.358
849 0 96.1362 13.1792 1267 116.774 344.964 468.675
850 0 99.0956 12.7251 1261 118.855 346.082 465.51
851 0 104.111 13.1687 1371 117.939 346.055 462.18
852 0 108.121 14.2248 1538 112.971 345.281 462.132
853 0 111.167 12.1709 1353 115.709 345.744 457.567
854 1 60.0708 9.77179 587 109.336 345.235 480.881
855 0 62.1601 10.7947 671 107.472 344.496 480.264
856 0 64.0712 10.5976 679 111.772 346.666 483.87
857 0 67.1718 12.2968 826 109.638 346.591 480.435
858 0 71.1798 11.8432 843 109.759 346.533 480.682
859 0 71.1076 11.7849 838 112.921 345.871 477.757
860 0 75.118 11.4487 860 110.044 345.885 476.883
861 0 81.2056 11.5263 936 109.393 345.915 476.131
862 0 82.1043 10.7181 880 111.674 346.17 472.761
863 0 86.0726 10.4447 899 110.378 345.488 474.661
864 0 89.1255 11.8372 1055 107.987 345.602 469.517
865 0 91.0594 11.2454 1024 108.654 346.061 471.353
866 1 51.0869 10.4528 534 105.642 346.728 490.712
867 0 53.0517 11.5359 612 104.598 346.621 488.085
868 0 55.0818 13.961 769 100.059 345.442 486.459
869 0 57.2069 11.7119 670 102.088 346.482 485.151
870 0 59.1678 11.6448 689 102.511 345.964 484.009
871 0 59.1359 10.5689 625 104.483 346.096 486.773
872 0 62.2164 12.7941 796 100.127 346.353 484.122
873 0 64.1515 11.8781 762 102.161 346.759 482.954
874 0 65.1363 11.8521 772 102.351 346.097 480.63
875 0 67.1228 11.5013 772 102.819 346.141 479.918
876 0 71.1747 11.8581 844 101.711 345.959 478.963
877 0 73.1768 12.6543 926 100.49 345.567 477.19
878 0 74.109 11.3482 841 104.099 345.672 477.477
879 0 78.1241 12.4033 969 101.915 345.421 477.297
880 0 79.1421 12.5471 993 103.342 345.539 474.458
881 0 83.122 11.6816 971 105.56 345.619 471.944
882 0 85.1168 11.8778 1011 106.731 345.224 472.236
883 0 90.115 12.2288 1102 105.588 345.26 470.568
884 0 93.1104 12.8557 1197 105.709 345.998 468.639
885 0 96.1401 11.036 1061 109.551 345.599 470.147
886 1 52.018 10.8232 563 105.972 346.158 489.964
887 0 51.0948 10.0402 513 103.103 345.027 484.942
888 0 54.0454 11.5458 624 99.9728 345.223 484.367
889 0 58.0805 11.4841 667 113.717 345.729 485.138
890 0 59.2244 12.4442 737 111.666 345.343 484.761
891 0 61.2156 12.4151 760 111.52 345.732 483.764
892 0 60.2386 11.9691 721 115.183 345.721 484.094
893 0 62.3001 12.9374 806 113.277 345.782 480.886
894 0 66.1321 13.4428 889 110.386 345.645 482.831
895 0 66.1225 12.3861 819 114.922 346.271 481.055
896 0 70.0741 14.4847 1015 110.043 346.156 479.524
897 0 72.1379 13.6821 987 111.533 345.546 478.762
898 0 73.2035 13.2917 973 113.522 345.708 476.23
899 0 77.3603 14.3226 1108 110.379 345.547 475.134
900 0 78.2643 13.48 1055 113.504 344.865 473.276
901 0 79.416 12.743 1012 112.688 345.803 474.469
902 0 84.1424 12.4907 1051 107.067 346.375 473.835
903 0 88.1138 12.4498 1097 106.976 346.53 472.789
904 0 88.1187 11.8136 1041 109.38 345.646 469.478
905 0 92.0952 11.9985 1105 107.081 345.978 468.028
906 0 94.078 11.2247 1056 108.789 346.003 465.765
907 0 99.1076 12.1181 1201 106.469 345.944 465.806
908 0 101.146 11.1423 1127 111.004 345.643 464.179
909 0 106.171 12.5552 1333 107.42 345.675 462.03
910 0 111.099 12.7094 1412 106.277 345.771 459.912
911 1 60.0944 11.8647 713 101.969 346.171 485.809
912 0 61.0699 10.8073 660 103.106 346.082 482.652
913 0 62.0542 12.9242 802 97.8728 346.085 481.958
914 0 64.0361 11.8527 759 99.2306 346.14 482.082
915 0 67.1641 12.2238 821 97.9756 345.56 480.739
916 0 70.1037 12.1106 849 97.9128 345.616 480.574
917 0 74.1369 12.9355 959 95.1105 345.848 478.735
918 0 76.1086 11.9435 909 97.802 345.319 476.477
919 0 80.1166 13.5927 1089 94.3848 345.485 475.696
920 0 82.1863 12.5203 1029 96.8931 345.781 474.982
921 0 84.1879 12.187 1026 98.2018 345.71 473.901
922 0 88.3398 12.6557 1118 97.5698 345.985 469.47
923 0 89.1183 13.2745 1183 97.8757 345.971 470.743
924 0 93.1866 13.4247 1251 98.478 345.106 467.977
925 0 94.1158 13.0371 1227 99.5306 345.813 470.957
926 0 99.1786 11.8271 1173 102.54 345.555 467.427
927 0 101.129 12.4494 1259 102.342 345.377 464.324
928 0 102.134 12.0136 1227 104.686 345.329 460.492
929 0 105.356 11.4943 1211 107.139 345.401 458.495
930 0 110.46 12.7648 1410 104.652 345.385 457.194
931 1 57.1815 11.7695 673 103.591 345.293 487.236
932 0 60.1849 11.8634 714 105.545 345.197 481.994
933 0 62.1935 13.0721 813 103.704 345.065 482.012
934 0 64.1398 12.426 797 101.402 346.398 483.094
935 0 66.0932 13.133 868 100.399 346.434 481.351
936 0 68.0482 11.4037 776 104.916 346.383 481.995
937 0 70.0694 12.6731 888 103.231 345.73 478.584
938 0 73.0684 12.7415 931 103.557 344.692 478.999
939 0 77.0647 13.7806 1062 102.659 344.683 477.524
940 0 80.0869 14.0223 1123 101.738 344.618 475.931
941 0 80.0834 12.1498 973 108.837 344.648 475.116
942 0 83.1036 12.707 1056 108.375 344.884 473.865
943 0 85.1603 12.9403 1102 109.789 344.801 472.443
944 0 88.0832 13.7824 1214 109.974 344.956 472.392
945 0 92.1337 14.1316 1302 109.17 345.127 470.409
946 0 95.0705 13.7266 1305 111.923 344.68 469.355
947 0 96.0942 13.237 1272 115.802 345.304 469.836
948 0 98.1202 13.4019 1315 118.819 345.014 467.467
949 0 101.241 12.732 1289 122.69 344.666 465.857
950 0 107.289 13.1328 1409 123.443 344.416 462.396
951 0 108.224 13.8878 1503 123.021 344.528 461.52
952 0 111.294 11.9863 1334 128.154 343.694 461.558
953 0 115.269 14.2189 1639 123.946 343.755 456.922
954 0 120.287 13.3348 1604 125.914 344.469 456.43
955 0 123.176 13.16 1621 127.777 344.936 453.092
956 0 125.252 13.8282 1732 127.96 344.488 448.891
957 0 130.206 13.8857 1808 127.879 344.457 448.378
958 0 134.169 13.5948 1824 129.198 344.707 447.489
959 0 140.326 13.6254 1912 129.516 344.526 445.424
960 0 144.161 13.693 1974 131.083 344.111 441.953
961 1 77.0633 12.4313 958 127.956 344.335 475.596
962 0 80.1641 12.3621 991 128.387 344.703 475.345
963 0 85.303 13.0007 1109 131.715 344.485 471.628
964 0 86.097 14.2049 1223 132.325 345.13 469.456
965 0 88.2307 13.8614 1223 134.659 344.684 467.816
966 0 91.1927 13.6963 1249 136.294 344.878 471.051
967 0 95.2407 14.4476 1376 134.841 344.999 468.877
968 0 96.2541 13.267 1277 141.2 344.864 465.503
969 0 100.135 12.8826 1290 131.227 343.969 466.537
970 0 102.186 11.9096 1217 134.213 345.728 467.276
971 0 105.213 13.0403 1372 134.171 344.05 461.641
972 0 109.233 13.8236 1510 131.912 344.026 460.542
973 0 113.25 13.5364 1533 133.496 344.564 458.509
974 0 117.208 14.0519 1647 131.22 344.964 457.923
975 0 121.089 13.8328 1675 130.799 345.021 457.044
976 1 68.0291 12.1566 827 133.6 345.08 482.903
977 0 69.0703 12.538 866 139.769 345.281 480.845
978 0 72.0903 14.5096 1046 133.798 344.703 479.496
979 0 75.0775 13.3595 1003 138.243 344.806 477.495
980 0 77.08 13.6741 1054 137.477 344.787 477.488
981 0 77.1644 13.5036 1042 139.002 345.297 476.459
982 0 82.1008 13.5931 1116 139.125 345.34 472.108
983 0 85.2078 13.1678 1122 140.991 345.608 473.217
984 0 86.0922 12.928 1113 142.189 345.927 472.031
985 0 90.1791 13.8502 1249 139.046 344.97 470.066
986 0 93.27 14.0988 1315 139.827 345.941 468.513
987 0 96.2347 13.4255 1292 142.099 346.038 467.741
988 0 100.07 14.33 1434 132.825 346.093 465.109
989 0 102.16 13.0873 1337 137.921 346.233 463.96
990 0 106.257 13.138 1396 138.125 345.911 461.276
991 0 109.21 13.6343 1489 136.161 345.525 459.332
992 1 58.0682 11.7448 682 134.531 345.984 481.664
993 0 56.0403 11.3133 634 134.2 346.476 479.484
994 0 58.0228 11.8057 685 133.648 345.728 476.942
995 0 63.0336 12.2633 773 130.184 345.947 476.82
996 0 66.0841 12.9835 858 119.587 346.029 477.781
997 0 64.0488 11.0697 709 126.769 346.192 476.759
998 0 68.1185 11.6268 792 125.183 345.234 476.369
999 0 71.1004 12.9957 924 121.942 345.639 473.952
1000 0 73.0668 12.1533 888 125.154 345.986 472.536
1001 0 73.0729 12.4123 907 125.689 345.05 469.01
1002 0 79.1567 12.81 1014 130.279 345.509 472.27
1003 0 82.0616 14.3429 1177 130.244 346.59 473.022
1004 0 86.1007 13.6817 1178 131.424 345.722 471.7
1005 0 87.1017 13.1685 1147 132.542 345.847 471.412
1006 0 91.0854 13.2513 1207 132.998 345.137 467.289
1007 0 95.2958 14.7331 1404 128.221 345.406 468.271
1008 0 98.0599 14.0017 1373 130.228 344.713 464.248
1009 0 100.072 13.4004 1341 132.034 345.56 462.971
1010 0 105.14 13.5819 1428 129.39 345.581 461.094
1011 0 109.157 14.4562 1578 127.498 344.886 457.755
1012 0 111.138 13.1548 1462 131.3 345.072 456.88
1013 0 116.157 13.8692 1611 127.966 345.173 452.821
1014 0 119.199 13.4985 1609 128.15 343.492 451.716
1015 0 122.155 13.3438 1630 128.986 344.615 447.627
1016 0 130.128 14.2322 1852 124.418 344.643 445.597
1017 1 66.0596 11.7924 779 124.809 345.338 476.63
1018 0 70.1378 12.5752 882 121.997 346.096 471.829
1019 0 75.1246 14.1898 1066 122.826 345.525 475.655
1020 0 77.1589 12.9603 1000 125.865 345.204 474.297
1021 0 79.1334 13.4836 1067 124.468 345.162 474.229
1022 0 83.066 14.2417 1183 121.774 345.292 473.641
1023 0 84.0754 13.9755 1175 125.226 345.353 470.837
1024 0 88.1822 14.436 1273 123.484 345.618 471.917
1025 0 89.1774 13.8824 1238 124.293 346.589 467.153
1026 0 93.1881 13.9181 1297 126.33 345.096 465.145
1027 0 96.1619 12.8637 1237 129.312 345.781 465.631
1028 0 99.2052 13.7392 1363 127.698 344.817 463.932
1029 0 105.235 14.1778 1492 124.269 345.243 461.353
1030 0 108.098 14.0428 1518 125.629 345.393 458.75
1031 1 58.038 12.2678 712 121.389 346.296 484.597
1032 0 62.1224 11.7993 733 117.922 347.048 483.378
1033 0 63.1078 11.9953 757 124.285 346.135 479.822
1034 0 64.0569 11.4586 734 120.286 346.428 480.361
1035 0 68.1131 12.215 832 117.478 346.256 479.91
1036 0 68.1164 12.3612 842 118.811 346.135 479.258
1037 0 72.0909 12.3317 889 120.012 346.931 477.088
1038 0 74.082 13.4581 997 117.491 347.029 473.834
1039 0 76.0704 11.5945 882 128.762 346.027 473.286
1040 0 81.1278 13.4109 1088 123.301 345.43 472.451
1041 0 82.1592 12.7557 1048 125.838 346.12 473.01
1042 0 85.0889 12.9629 1103 126.941 344.464 469.417
1043 0 88.2181 13.6367 1203 124.705 344.957 468.052
1044 0 93.1994 13.1224 1223 125.048 345.038 466.517
1045 0 93.2037 13.1003 1221 125.526 344.939 467.691
1046 0 96.2067 12.8473 1236 127.358 344.605 464.52
1047 0 98.1869 13.8206 1357 125.918 344.648 463.307
1048 0 101.206 12.9934 1315 128.184 344.466 461.432
1049 0 104.2 12.572 1310 129.475 344.211 459.737
1050 0 107.119 13.0322 1396 128.234 345.036 459.176
1051 0 110.195 12.3327 1359 129.869 344.618 458.152
1052 0 116.213 13.2688 1542 126.768 343.846 455.624
1053 0 121.186 14.4571 1752 124.064 344.052 451.612
1054 0 123.199 13.6608 1683 126.332 343.969 450.188
1055 1 65.0771 9.92669 646 124.961 343.754 477.529
1056 0 70.1712 11.6857 820 121.337 345.649 476.029
1057 0 72.2152 11.6734 843 121.083 344.995 476.216
1058 0 71.1088 11.2222 798 119.127 346.316 474.499
1059 0 73.1798 11.3283 829 115.549 346.509 474.379
1060 0 76.0967 11.9716 911 114.839 346.103 472.595
1061 0 78.1247 11.3408 886 116.414 345.888 473.099
1062 0 82.221 11.9677 984 113.447 345.685 471.177
1063 0 85.1435 12.5553 1069 112.67 345.699 471.546
1064 0 85.2964 11.7004 998 115.764 345.838 468.777
1065 0 89.1924 12.0862 1078 115.706 345.851 466.28
1066 0 92.1993 12.0717 1113 115.457 345.8 465.116
1067 0 95.1551 12.3062 1171 115.152 345.594 465.398
1068 0 98.1062 12.0686 1184 116.135 345.399 463.637
1069 0 100.106 12.357 1237 116.807 345.66 462.055
1070 0 104.201 12.092 1260 117.45 345.201 461.364
1071 0 108.191 13.0972 1417 114.778 345.663 458.61
1072 0 111.251 12.3953 1379 117.072 345.943 458.189
1073 0 114.349 12.2782 1404 118.129 345.636 454.94
1074 0 119.376 12.1213 1447 118.251 345.441 453.78
1075 1 65.1123 9.15341 596 118.898 345.985 478.836
1076 0 69.2722 10.2061 707 116.679 345.622 477.523
1077 0 71.1774 11.5627 823 114.236 344.951 477.735
1078 0 74.183 12.0378 893 114.194 344.241 475.129
1079 0 76.0336 11.6922 889 116.436 346.125 473.687
1080 0 79.1264 13.0551 1033 112.123 345.485 473.394
1081 0 81.1366 12.633 1025 113.367 346.331 474.093
1082 0 83.1393 12.1844 1013 116.038 345.852 474.163
1083 0 86.145 11.6896 1007 117.939 345.142 471.54
1084 0 89.09 11.9879 1068 116.527 345.409 469.275
1085 0 89.1823 11.9643 1067 118.935 345.811 466.112
1086 0 92.1489 11.8504 1092 120.271 345.521 464.529
1087 0 94.0967 11.9133 1121 119.888 345.332 463.052
1088 0 100.095 13.2974 1331 115.463 345.845 463.752
1089 0 99.0928 11.3934 1129 122.2 345.322 464.87
1090 0 103.115 11.4048 1176 122.068 345.991 459.169
1091 0 106.106 11.9409 1267 121.459 345.931 456.228
1092 0 110.102 12.1251 1335 120.635 345.982 455.122
1093 0 111.076 11.1725 1241 123.691 345.066 455.532
1094 0 114.187 11.7964 1347 123.331 344.399 450.901
1095 0 119.248 11.8241 1410 122.548 343.744 447.852
1096 0 123.173 12.6002 1552 120.435 344.82 445.72
1097 0 127.138 12.4353 1581 120.524 345.012 442.164
1098 0 131.127 11.7291 1538 122.766 344.483 440.434
1099 1 76.0636 10.7016 814 114.058 346.165 472.264
1100 0 80.0896 12.0365 964 116.898 346.251 474.749
1101 0 81.0964 12.6886 1029 118.685 344.579 473.422
1102 0 85.2595 12.7376 1086 117.587 344.314 473.55
1103 0 88.1376 12.072 1064 119.114 344.276 472.836
1104 0 90.1764 11.6328 1049 120.625 344.072 471.571
1105 0 93.1467 12.271 1143 119.412 344.477 469.901
1106 0 94.2417 11.6085 1094 121.803 344.66 466.55
1107 0 100.354 12.6851 1273 118.621 345.368 464.185
1108 0 101.18 12.2652 1241 120.218 344.421 464.928
1109 0 104.272 12.1509 1267 121.534 344.846 462.441
1110 0 108.305 12.9542 1403 119.488 344.423 460.923
1111 0 110.192 13.6852 1508 118.403 344.278 458.942
1112 0 113.181 11.5744 1310 124.483 344.722 457.869
1113 0 119.405 13.45 1606 119.448 344.811 456.288
1114 0 120.212 11.7543 1413 125.03 344.661 454.223
1115 0 127.198 13.4515 1711 120.168 344.978 449.727
1116 0 132.369 13.2055 1748 119.521 343.571 448.195
1117 0 135.423 12.9373 1752 121.617 343.651 443.639
1118 0 141.573 13.2653 1878 120.034 344.355 443.005
1119 1 78.3338 10.6084 831 118.48 344.951 474.164
1120 0 77.1169 12.1893 940 111.352 343.995 467.711
1121 0 79.2646 9.17181 727 116.106 344.748 466.638
1122 0 85.2721 10.5896 903 112.396 344.586 467.187
1123 0 87.1766 9.94533 867 116.105 343.887 461.369
1124 0 91.1421 10.917 995 112.557 344.861 464.177
1125 0 93.2304 10.3185 962 115.813 345.521 460.432
1126 0 96.2145 11.3081 1088 114.412 345.861 457.78
1127 0 98.1799 11.316 1111 115.498 345.288 456.601
1128 0 98.1438 9.98534 980 120.493 344.689 453.539
1129 0 103.154 10.1789 1050 119.393 344.948 455.578
1130 0 104.223 10.4584 1090 121.008 344.91 451.161
1131 0 107.2 10.737 1151 120.891 344.229 449.162
1132 0 111.133 11.1399 1238 120.225 344.081 449.006
1133 0 117.119 12.6879 1486 116.251 344.771 448.902
1134 0 119.173 11.521 1373 119.871 344.364 448.955
1135 0 122.299 11.2102 1371 120.81 344.742 449.805
1136 0 125.182 10.7364 1344 124.934 343.949 444.612
1137 0 129.139 11.8322 1528 122.389 344.443 446.019
1138 0 134.165 12.7529 1711 121.906 344.363 441.696
1139 0 138.241 12.9556 1791 123.81 343.511 440.575
1140 0 144.259 12.3666 1784 124.445 343.841 439.378
1141 0 147.234 12.7892 1883 124.52 344 435.952
1142 1 85.1532 11.3443 966 116.535 344.138 468.742
1143 0 87.0975 11.2977 984 118.799 343.309 468.879
1144 0 88.2348 10.9707 968 121.85 344.414 463.573
1145 0 93.1289 12.3592 1151 120.515 345.2 466.978
1146 0 97.1629 13.4516 1307 119.503 344.862 467.69
1147 0 98.1547 12.7656 1253 122.237 345.14 464.686
1148 0 100.107 12.4567 1247 124.275 344.654 460.955
1149 0 106.176 12.5451 1332 123.442 344.649 461.312
1150 0 108.147 12.9638 1402 124.673 343.595 460.903
1151 0 110.254 12.8975 1422 125.362 344.02 458.036
1152 0 112.233 12.6166 1416 126.395 343.828 456.272
1153 0 117.304 13.6909 1606 122.356 343.991 454.539
1154 0 121.288 14.379 1744 120.448 343.707 452.725
1155 0 124.274 14.0738 1749 120.946 343.754 451.174
1156 0 126.229 13.1111 1655 120.923 344.219 449.885
1157 0 130.103 14.0811 1832 111.573 344.228 449.116
1158 0 133.187 12.4412 1657 116.165 343.572 443.9
1159 0 136.217 11.5184 1569 119.86 344.155 442.116
1160 0 143.183 12.3618 1770 118.114 344.505 438.313
1161 0 148.193 12.9426 1918 118.019 343.248 436.826
1162 0 152.09 12.3348 1876 119.458 343.206 436.756
1163 0 156.205 11.9459 1866 121.954 342.447 433.183
1164 0 163.258 12.0178 1962 121.827 342.225 431.01
1165 0 170.353 12.8146 2183 119.066 343.1 428.861
1166 1 95.2809 11.3244 1079 120.506 343.037 463.369
1167 0 91.1768 10.2329 933 111.723 343.785 451.702
1168 0 95.1442 10.1005 961 111.77 344.034 451.378
1169 0 98.1897 11.05 1085 110.039 343.776 451.719
1170 0 98.1521 10.9116 1071 112.674 343.447 448.335
1171 0 106.069 11.5679 1227 109.986 344.712 451.8
1172 0 110.098 11.4988 1266 110.679 344.466 449.113
1173 0 107.251 12.4288 1333 111.772 344.314 444.886
1174 0 115.076 11.4272 1315 112.544 344.5 445.103
1175 0 118.184 10.9575 1295 115.679 343.691 440.927
1176 0 125.106 11.4143 1428 113.35 342.629 443.507
1177 0 129.184 10.4425 1349 115.526 343.853 440.534
1178 0 135.192 10.511 1421 115.877 343.873 441.113
1179 1 77.1123 9.28516 716 110.31 343.527 465.98
1180 0 78.0424 8.5979 671 111.3 344.447 466.958
1181 0 81.1153 10.7871 875 106.142 344.815 464.304
1182 0 85.0663 12.3903 1054 102.932 344.518 460.094
1183 0 84.0554 9.91012 833 109.49 344.196 460.78
1184 0 90.3006 11.0631 999 106.928 344.209 458.21
1185 0 92.1826 9.85002 908 111.99 344.007 455.332
1186 0 97.181 11.1339 1082 109.043 343.981 455.205
1187 0 99.1589 11.4362 1134 109.21 343.749 453.316
1188 0 103.255 10.9825 1134 111.774 343.84 449.995
1189 0 105.178 10.2208 1075 114.817 343.89 448.154
1190 0 110.207 9.95402 1097 115.616 344.271 448.334
1191 0 115.197 9.9308 1144 115.257 343.791 445.184
1192 0 117.336 11.2327 1318 112.743 344.266 443.926
1193 1 61.1439 9.35499 572 107.694 344.315 470.159
1194 0 70.1459 12.8304 900 110.591 344.059 478.104
1195 0 70.1347 12.1766 854 111.631 343.417 477.896
1196 0 73.2965 12.0879 886 112.121 342.913 476.865
1197 0 74.1232 12.6816 940 112.485 343.332 472.964
1198 0 78.3679 12.8369 1006 110.558 342.971 473.511
1199 0 81.2583 12.9464 1052 109.309 343.523 471.774
1200 0 82.3418 12.5331 1032 111.675 343.271 469.332
1201 0 84.5164 12.5656 1062 111.209 343.772 469.044
1202 0 88.4796 13.9467 1234 107.938 343.869 466.942
1203 0 90.5238 13.3777 1211 110.13 343.588 465.319
1204 0 91.4794 11.7294 1073 114.672 343.392 463.031
1205 0 95.5191 12.1232 1158 112.808 343.237 463.064
1206 0 96.1096 12.6938 1220 110.212 343.471 464.009
1207 0 99.155 11.7291 1163 113.959 343.529 461.558
1208 0 103.155 12.4861 1288 111.849 343.22 460.127
1209 0 107.259 13.239 1420 110.371 342.846 457.247
1210 0 107.193 12.7154 1363 114.291 342.643 455.532
1211 0 112.271 11.499 1291 116.366 342.682 452.338
1212 0 116.337 12.6099 1467 115.569 343.385 444.381
1213 0 120.278 13.9427 1677 114.458 343.857 453.623
1214 0 124.417 11.4213 1421 121.852 343.484 447.467
1215 1 70.0598 10.5481 739 103.857 344.769 481.022
1216 0 73.1097 11.941 873 103.117 343.187 476.505
1217 0 73.2267 11.4712 840 104.717 343.539 475.146
1218 0 76.2125 11.8484 903 105.102 342.967 472.018
1219 0 79.1488 11.51 911 106.362 343.356 471.661
1220 0 83.1095 11.4066 948 106.325 342.99 473.214
1221 0 86.2133 11.9819 1033 106.478 343.626 470.672
1222 0 86.1559 11.9899 1033 107.836 344.024 468.228
1223 0 87.1513 11.0956 967 132.195 343.954 469.307
1224 0 93.1176 12.4037 1155 108.421 343.557 464.056
1225 0 95.2349 11.8234 1126 111.893 343.207 464.385
1226 0 101.271 13.0145 1318 107.553 344.758 465.438
1227 0 102.154 11.6393 1189 112.506 344.409 462.68
1228 0 108.157 12.3801 1339 110.984 344.661 459.813
1229 0 112.188 12.7821 1434 109.751 345.024 458.65
1230 0 114.121 12.8635 1468 109.175 345.139 457.943
1231 1 64.0602 10.5214 674 110.211 345.816 482.813
1232 0 66.0977 11.7402 776 109.829 345.153 482.406
1233 0 67.0254 11.0406 740 110.169 344.97 482.765
1234 0 71.1615 12.6332 899 106.185 346.138 479.733
1235 0 73.1345 13.2359 968 105.821 345.611 477.072
1236 0 73.1003 12.517 915 108.357 344.936 478.038
1237 0 75.1642 13.4239 1009 107.859 344.168 476.272
1238 0 78.1684 12.7033 993 109.509 345.006 475.916
1239 0 80.1386 13.0773 1048 110.277 345.19 475.559
1240 0 81.1398 12.5956 1022 112.531 344.113 472.94
1241 0 82.1561 11.9042 978 114.855 344.34 471.485
1242 0 83.1585 11.6164 966 116.668 344.963 468.967
1243 0 89.2515 12.9073 1152 113.604 344.69 469.9
1244 0 92.1278 12.1679 1121 115.434 344.538 468.906
1245 0 93.2266 12.0674 1125 117.77 344.816 465.897
1246 0 96.2561 12.3421 1188 116.908 344.469 465.06
1247 0 101.188 13.9543 1412 113.788 344.407 461.807
1248 1 58.1159 11.3394 659 117.709 345.519 484.563
1249 0 58.1098 12.3559 718 114.989 345.404 482.577
1250 0 60.0995 12.3795 744 113.543 344.848 482.663
1251 0 63.142 11.7671 743 110.564 344.287 483.857
1252 0 63.1017 11.9648 755 111.797 344.109 481.476
1253 0 63.147 11.2753 712 114.126 343.919 480.937
1254 0 66.1393 10.9012 721 114.99 345.555 478.705
1255 0 70.1152 11.2529 789 112.212 345.753 478.904
1256 0 71.1657 12.4077 883 110.241 344.956 477.044
1257 0 74.2108 12.3297 915 110.27 344.407 475.909
1258 0 76.2034 13.1884 1005 109.099 344.648 472.857
1259 0 77.2152 12.5623 970 110.767 344.755 474.84
1260 0 80.1819 12.2846 985 111.464 344.812 474.421
1261 0 82.1086 12.3982 1018 112.638 344.334 469.526
1262 0 85.1649 12.2938 1047 113.59 344.684 471.664
1263 0 84.1681 11.9404 1005 116.077 345.031 469.188
1264 0 89.1863 13.5671 1210 111.921 344.795 467.645
1265 0 91.1309 12.1803 1110 116.131 344.623 466.127
1266 0 95.1456 12.5912 1198 115.918 344.605 465.386
1267 0 97.2174 12.292 1195 117.972 344.592 462.92
1268 0 99.1694 12.8366 1273 118.39 344.709 460.32
1269 0 103.197 13.2271 1365 117.847 344.401 460.075
1270 0 107.186 13.248 1420 118.801 344.494 457.78
1271 0 110.319 13.751 1517 122.454 344.489 453.426
1272 0 116.199 14.544 1690 118.355 344.702 453.122
1273 0 119.252 13.4337 1602 122.851 344.646 452.331
1274 0 124.253 13.6657 1698 121.551 345.319 448.749
1275 1 70.1306 10.8084 758 116.421 345.625 477.674
1276 0 72.1762 11.3888 822 113.033 346.21 476.19
1277 0 73.026 11.6534 851 110.821 343.404 474.831
1278 0 76.1993 11.8505 903 109.296 345.434 464.578
1279 0 80.0472 12.4926 1000 107.329 345.222 463.823
1280 0 79.1365 11.4865 909 109.633 344.979 469.602
1281 0 83.1191 11.4775 954 109.864 344.697 470.052
1282 0 88.2002 12.3469 1089 107.273 345.111 469.909
1283 0 89.1364 11.0393 984 110.968 345.863 468.619
1284 0 92.1567 11.589 1068 110.962 345.583 467.517
1285 0 94.1326 11.3032 1064 111.996 344.916 465.607
1286 0 99.0905 11.6156 1151 112.44 344.957 465.126
1287 0 100.184 11.429 1145 115.472 344.631 463.971
1288 0 103.187 11.6778 1205 114.802 345.14 462.62
1289 0 107.185 11.1303 1193 115.719 344.806 462.443
1290 0 110.14 11.4491 1261 115.82 345.386 459.018
1291 0 114.12 11.6193 1326 115.86 344.912 456.008
1292 0 118.253 13.0821 1547 113.153 343.812 455.495
1293 0 121.17 11.9089 1443 115.656 344.942 455.099
1294 0 125.166 12.1439 1520 114.821 344.111 450.366
1295 0 135.181 16.8219 2274 101.238 345.062 444.097
1296 1 76.0562 11.1759 850 113.251 345.339 473.733
1297 0 77.0838 11.9221 919 111.138 344.929 473.828
1298 0 81.0732 12.2235 991 111.194 344.594 472.414
1299 0 81.0453 12.1043 981 111.64 345.052 472.578
1300 0 85.0841 13.8569 1179 106.092 344.649 470.246
1301 0 88.0875 13.1801 1161 108.89 345.6 467.817
1302 0 91.0967 13.6668 1245 106.663 345.716 470.035
1303 0 92.1602 13.1076 1208 108.587 345.401 467.041
1304 0 96.0745 12.8858 1238 109.561 345.427 465.56
1305 0 94.1794 11.9028 1121 113.783 345.868 462.386
1306 0 97.1402 11.9003 1156 114.279 345.347 465.76
1307 0 100.155 10.953 1097 117.201 344.954 462.082
1308 0 103.134 11.5578 1192 115.454 344.836 456.842
1309 0 110.097 12.2347 1347 112.684 344.637 454.771
1310 0 110.093 11.7809 1297 114.77 344.601 455.578
1311 0 112.177 11.8741 1332 113.351 345.405 452.881
1312 0 115.178 11.8165 1361 111.623 344.378 447.616
1313 0 117.174 10.4118 1220 113.78 345.032 447.958
1314 1 68.1503 10.4328 711 105.536 344.671 469.789
1315 0 71.2241 9.68773 690 108.661 344.736 468.838
1316 0 72.0829 13.1099 945 105.48 345.854 468.225
1317 0 75.06 12.6032 946 106.596 345.468 468.854
1318 0 77.1419 11.6539 899 108.376 344.9 468.093
1319 0 81.119 12.0317 976 108.692 344.206 463.941
1320 0 83.0373 11.6333 966 110.555 344.894 463.794
1321 0 83.1153 10.5997 881 114.098 343.998 461.722
1322 0 88.0705 11.9563 1053 111.256 344.109 459.481
1323 0 92.1929 11.4325 1054 111.663 343.571 456.765
1324 0 95.1729 12.0728 1149 111.372 343.54 456.165
1325 0 99.1546 13.3025 1319 108.86 343.312 456.532
1326 0 102.24 11.8545 1212 113.234 343.577 454.021
1327 0 104.102 12.9776 1351 111.794 342.596 450.492
1328 0 110.189 12.6056 1389 112.508 343.014 450.459
1329 0 111.302 12.5873 1401 113.271 343.449 449.053
1330 0 119.151 13.3779 1594 110.518 343.827 447.804
1331 0 118.139 13.4249 1586 112.296 343.517 447.756
1332 0 123.17 12.6817 1562 114.964 344.257 442.336
1333 1 66.0949 11.7407 776 107.035 344.035 475.213
1334 0 65.1418 10.2546 668 114.772 344.347 472.873
1335 0 71.135 11.2743 802 110.234 343.944 473.298
1336 0 71.2016 11.1374 793 102.483 343.718 473.206
1337 0 74.0846 12.1348 899 100.974 344.485 472.486
1338 0 78.1589 10.9904 859 103.822 344.221 468.854
1339 0 78.1186 10.7657 841 104.807 343.509 467.463
1340 0 82.092 11.3531 932 103.866 343.986 466.03
1341 0 86.1135 11.4732 988 103.285 344.49 465.383
1342 0 89.1452 11.7112 1044 102.711 344.624 465.903
1343 0 91.1112 11.8866 1083 103.77 344.759 464.269
1344 0 92.0839 11.7827 1085 104.525 344.515 461.769
1345 0 96.1054 11.5706 1112 106.451 344.683 459.806
1346 0 97.157 12.0012 1166 107.644 344.984 458.382
1347 0 101.243 11.6057 1175 108.368 344.999 456.94
1348 0 102.083 11.2458 1148 110.494 345.712 455.393
1349 0 106.257 10.3146 1096 113.737 344.796 455.255
1350 0 110.179 11.5085 1268 111.752 344.659 453.23
1351 0 113.282 11.9525 1354 113.972 344.219 451.038
1352 0 116.194 13.1332 1526 113.104 344.068 448.001
1353 0 122.466 13.7589 1685 111.458 343.904 444.309
1354 1 69.1845 10.407 720 113.474 344.682 468.049
1355 0 74.3152 10.2805 764 110.789 344.281 469.137
1356 0 74.1686 10.7593 798 104.013 343.895 466.994
1357 0 77.1555 11.924 920 98.5152 344.638 467.062
1358 0 80.2158 11.5189 924 98.7446 344.926 465.609
1359 0 82.1745 11.2565 925 100.562 343.611 461.476
1360 0 85.2437 10.1122 862 103.068 343.271 464.133
1361 0 87.1297 11.8329 1031 101.3 343.553 457.178
1362 0 89.2639 11.2027 1000 103.908 342.905 456.528
1363 0 94.2915 13.0446 1230 99.7114 343.348 457.737
1364 0 94.2554 11.2566 1061 104.767 343.546 457.493
1365 0 96.2066 10.966 1055 106.64 343.041 453.168
1366 0 105.256 13.3485 1405 101.691 343.397 452.711
1367 0 104.256 12.2871 1281 106.277 343.549 448.995
1368 0 110.35 13.4571 1485 103.676 343.646 451.14
1369 0 112.187 11.8374 1328 108.174 343.054 449.217
1370 0 114.36 12.5393 1434 107.432 343.626 445.553
1371 0 120.196 13.1119 1576 106.456 343.847 445.544
1372 0 125.208 13.8569 1735 105.952 343.341 442.137
1373 0 127.234 12.5989 1603 116.101 344.081 447.281
1374 0 137.189 15.8176 2170 104.462 343.607 440.285
1375 0 135.473 11.84 1604 116.252 343.368 440.007
1376 0 143.305 12.7212 1823 113.756 343.462 436.818
1377 0 146.312 14.3461 2099 110.617 343.762 433.738
1378 1 84.3044 10.0825 850 111.694 343.589 460.953
1379 0 91.2868 12.9592 1183 112.622 343.176 464.921
1380 0 95.3282 14.6966 1401 107.37 343.45 466.366
1381 0 99.4125 13.9218 1384 109.129 343.329 465.145
1382 0 102.415 13.5038 1383 109.672 343.783 459.913
1383 0 103.333 12.9774 1341 109.791 343.185 457.984
1384 0 105.308 13.7406 1447 105.709 343.317 454.398
1385 0 106.148 11.663 1238 114.943 343.962 448.446
1386 0 110.148 13.3184 1467 109.472 343.626 448.957
1387 0 115.121 13.2817 1529 109.03 343.506 451.059
1388 0 122.304 13.5646 1659 107.28 344.863 445.314
1389 1 63.2469 9.48664 600 107.747 344.09 471.618
1390 0 66.1776 10.0789 667 98.2639 344.891 473.028
1391 0 66.1419 10.3716 686 98.7901 344.004 468.92
1392 0 64.183 10.7038 687 100.077 344.218 466.157
1393 0 69.1723 11.2473 778 97.8805 344.373 470.839
1394 0 69.1021 11.2153 775 100.517 344.252 467.764
1395 0 77.228 11.7833 910 97.9484 344.114 466.354
1396 0 79.2437 11.004 872 99.7626 344.393 466.886
1397 0 77.1867 11.1677 862 101.824 343.88 465.502
1398 0 83.1528 11.5691 962 100.121 344.083 459.975
1399 0 84.1334 11.4342 962 101.238 343.506 460.751
1400 0 90.1597 11.6571 1051 101.013 343.814 461.463
1401 0 92.079 12.7282 1172 100.311 343.468 462.029
1402 0 101.168 14.5797 1475 92.3871 344.179 453.814
1403 0 99.1902 14.5377 1442 94.7455 344.454 453.302
1404 0 98.1704 11.1133 1091 105.228 343.32 454.94
1405 0 101.211 11.5699 1171 105.999 342.54 451.343
1406 0 105.21 12.1661 1280 104.988 343.28 450.075
1407 0 105.163 10.2413 1077 110.329 342.399 450.994
1408 0 111.414 13.0594 1455 104.167 343.211 446.242
1409 0 114.224 13.3334 1523 106.773 342.955 441.435
1410 0 118.2 11.9796 1416 108.59 342.662 443.494
1411 0 119.216 11.3407 1352 111.577 342.951 436.148
1412 0 127.262 12.6432 1609 112.217 342.796 436.589
1413 1 69.2773 8.97841 622 111.889 342.846 461.998
1414 0 74.2382 12.1905 905 106.177 342.734 462.655
1415 0 75.3077 10.0255 755 110.852 343.106 460.811
1416 0 81.2354 11.2882 917 107.244 343.007 458.288
1417 0 84.2183 10.6153 894 109.576 343.038 456.048
1418 0 84.2159 10.5681 890 105.215 343.23 455.238
1419 0 89.203 11.9727 1068 101.478 342.742 455.346
1420 0 88.1358 11.0284 972 104.253 343.024 451.79
1421 0 94.1632 10.5986 998 104.429 343.237 455.694
1422 0 103.173 11.5728 1194 112.484 343.685 454.848
1423 0 108.296 12.8814 1395 109.694 343.803 455.237
1424 0 112.198 12.5849 1412 110.108 343.393 454.433
1425 0 113.201 12.2172 1383 112.142 344.135 450.523
1426 0 116.235 11.7865 1370 112.482 344.69 449.883
1427 0 120.177 12.9725 1559 110.641 343.318 444.112
1428 1 62.0298 9.91459 615 111.076 343.984 473.48
1429 0 62.1177 9.93275 617 112.629 342.634 470.721
1430 0 69.052 9.93454 686 100.418 345.249 473.789
1431 0 72.1155 11.4539 826 97.477 345.295 472.511
1432 0 74.3127 10.7384 798 99.1942 344.863 471.925
1433 0 77.2161 9.45399 730 100.448 343.979 466.384
1434 0 78.1628 10.2223 799 99.5094 344.607 468.967
1435 0 81.3098 10.1341 824 97.7233 344.826 462.462
1436 0 82.1694 9.82118 807 99.4213 344.294 458.05
1437 0 86.2269 11.6553 1005 96.1124 344.54 460.128
1438 0 88.2459 12.0799 1066 96.3302 344.419 460.121
1439 0 92.238 11.6763 1077 97.3918 343.999 459.289
1440 0 94.3157 11.4721 1082 97.5481 344.242 457.605
1441 0 99.2237 11.2574 1117 97.6643 343.975 459.317
1442 0 100.304 10.7573 1079 100.389 344.009 456.678
1443 0 103.265 11.5721 1195 99.5105 344.582 451.533
1444 0 107.29 12.2471 1314 98.3341 344.843 453.296
1445 0 110.294 11.9318 1316 99.9567 344.201 453.729
1446 0 112.305 10.801 1213 104.319 343.646 449.652
1447 0 115.326 10.8735 1254 108.194 343.631 442.109
1448 0 119.223 10.9962 1311 114.108 343.522 445.282
1449 0 123.342 13.3044 1641 110.233 342.703 439.047
1450 0 128.376 13.3982 1720 110.945 343.419 440.613
1451 0 132.44 14.3839 1905 107.662 343.668 440.849
1452 0 137.457 14.7609 2029 104.952 342.838 439.707
1453 1 71.1898 10.0155 713 107.09 343.24 468.327
1454 0 74.1906 10.3922 771 105.72 342.961 467.578
1455 0 76.2004 10.9317 833 104.938 342.824 468.822
1456 0 79.1877 11.1633 884 104.75 343.853 468.207
1457 0 83.0918 12.2635 1019 102.981 345.053 472.339
1458 0 86.162 14.0665 1212 99.9513 344.598 468.279
1459 0 90.1658 13.5417 1221 101.551 344.183 468.279
1460 0 89.1028 13.2544 1181 103.571 344.101 468.848
1461 0 92.1616 12.8145 1181 105.569 344.515 466.975
1462 0 94.1079 12.2838 1156 106.714 344.706 467.62
1463 0 99.2493 13.1689 1307 104.758 344.914 465.067
1464 0 100.163 12.7093 1273 107.061 344.178 460.687
1465 0 103.183 13.5197 1395 106.253 343.697 460.1
1466 0 106.29 13.0586 1388 107.339 343.373 459.54
1467 0 108.264 11.7952 1277 106.522 342.986 453.99
1468 0 111.121 12.4009 1378 106.692 343.655 454.247
1469 0 114.267 12.5146 1430 106.638 343.755 451.138
1470 0 116.25 12.542 1458 107.567 343.214 448.572
1471 0 118.238 12.3226 1457 109.079 343.815 446.097
1472 0 123.289 12.6207 1556 108.545 343.772 446.506
1473 0 125.212 11.3728 1424 112.94 343.175 440.582
1474 0 129.186 10.9687 1417 113.963 343.126 443.565
1475 0 134.39 11.9131 1601 111.493 342.429 437.071
1476 0 138.25 12.1953 1686 113.01 342.954 435.591
1477 0 143.281 11.9834 1717 115.256 342.399 430.334
1478 1 61.1961 8.49727 520 99.4308 343.885 481.662
1479 0 59.3471 8.55981 508 111.055 343.63 476.852
1480 0 62.2949 10.2095 636 107.259 343.34 475.003
1481 0 63.2068 10.9166 690 111.862 343.091 482.039
1482 0 64.1045 11.1693 716 111.885 344.074 482.784
1483 0 67.1026 12.1158 813 110.493 343.662 481.093
1484 0 68.2101 11.0248 752 113.073 343.416 478.315
1485 0 73.0493 12.3341 901 110.28 342.527 475.367
1486 0 73.1052 9.87618 722 116.565 342.23 479.501
1487 0 75.1039 11.4908 863 115.306 341.863 475.738
1488 0 76.1718 11.8417 902 115.497 341.861 475.174
1489 0 80.1028 12.2842 984 114.954 342.402 475.104
1490 0 81.1332 11.931 968 116.866 341.791 473.306
1491 0 83.3321 12.0122 1001 116.808 342.516 473.66
1492 0 87.3289 13.0655 1141 118.06 342.348 470.02
1493 0 89.2967 12.7776 1141 120.463 342.38 469.283
1494 0 91.3932 12.0468 1101 123.498 342.48 468.728
1495 0 95.324 13.3859 1276 119.911 342.279 466.275
1496 0 98.5514 12.4199 1224 122.693 342.244 465.524
1497 0 102.39 14.6988 1505 116.427 342.126 464.724
1498 0 102.347 12.9168 1322 124.426 342.644 461.924
1499 0 106.35 14.377 1529 119.508 342.779 460.848
1500 0 110.485 13.0515 1442 123.041 342.431 458.748
1501 0 113.562 12.3457 1402 121.616 342.494 451.892
1502 1 64.3812 10.6864 688 114.826 342.375 476.672
1503 0 64.2474 10.5685 679 111.378 341.853 471.62
1504 0 66.2743 11.045 732 110.611 342.411 475.84
1505 0 70.2709 11.4841 807 112.178 342.128 476.243
1506 0 67.2642 11.6853 786 109.67 342.243 478.237
1507 0 67.2301 11.8548 797 116.341 341.979 472.556
1508 0 65.4353 10.988 719 121.316 342.442 472.441
1509 0 71.4881 10.3933 743 123.67 342.245 473.353
1510 0 70.3096 11.4067 802 123.309 342.589 472.798
1511 0 75.2646 12.0375 906 117.241 342.206 473.001
1512 0 76.2502 12.0131 916 118.33 342.032 469.157
1513 0 75.216 11.5933 872 118.022 342.589 468.976
1514 0 80.5091 10.9677 883 117.3 342.273 468.231
1515 0 81.2784 12.1927 991 114.082 342.878 466.722
1516 0 85.3387 11.9055 1016 113.465 342.564 466.47
1517 0 88.1154 12.6993 1119 112.444 342.461 468.418
1518 0 88.3085 11.5731 1022 112.228 342.403 462.856
1519 0 90.3043 12.8122 1157 110.158 342.242 463.237
1520 0 93.2355 12.5918 1174 112.328 343.014 461.284
1521 0 95.406 13.301 1269 112.075 342.955 461.213
1522 0 98.3094 12.0029 1180 117.196 342.621 457.996
1523 1 55.4202 9.1122 505 113.846 342.341 481.713
1524 0 57.1635 10.8811 622 108.408 343.686 484.873
1525 0 58.1204 11.6654 678 110.534 344.004 484.494
1526 0 59.0786 9.66509 571 112.832 344.27 483.24
1527 0 63.1456 11.1488 704 109.482 344.379 483.851
1528 0 65.0594 11.8661 772 108.407 343.815 483.863
1529 0 65.1581 11.6332 758 110.602 343.766 481.516
1530 0 66.094 12.8453 849 108.704 343.485 481.424
1531 0 69.0807 11.8557 819 111.274 343.374 481.502
1532 0 68.1006 11.762 801 112.854 343.846 478.562
1533 0 71.0414 11.1344 791 115.18 343.622 478.081
1534 0 73.0659 12.3861 905 113.777 343.31 477.498
1535 0 73.1621 12.0828 884 115.691 342.017 475.052
1536 0 76.2537 11.5798 883 117.243 342.11 475.695
1537 0 78.1026 12.1891 952 116.673 341.638 475.15
1538 0 80.2481 11.4769 921 119.839 341.769 473.542
1539 0 80.1966 11.185 897 121.609 342.435 472.78
1540 0 83.1908 11.3474 944 121.894 342.251 472.448
1541 0 85.1077 12.772 1087 119.197 342.356 472.764
1542 0 88.1419 12.0487 1062 122.477 342.044 470.976
1543 0 89.1707 11.607 1035 124.805 341.817 468.85
1544 0 93.1026 11.6968 1089 124.77 342.688 471.691
1545 0 98.1547 13.2546 1301 120.499 342.492 467.31
1546 0 100.209 12.4241 1245 122.93 341.84 463.834
1547 0 104.164 12.7203 1325 121.882 341.214 463.327
1548 0 105.247 13.1595 1385 121.679 341.328 461.607
1549 0 108.255 12.4151 1344 128.827 341.412 460.925
1550 0 110.238 12.2643 1352 131.144 340.876 457.595
1551 0 115.192 12.5356 1444 129.172 341.505 457.224
1552 1 63.1011 11.9649 755 118.423 341.861 480.559
1553 0 63.0936 10.5082 663 118.62 341.679 479.499
1554 0 64.1444 12.2224 784 117.413 341.351 476.23
1555 0 64.1508 11.0521 709 121.645 341.08 472.935
1556 0 68.1513 11.269 768 120.224 341.314 473.56
1557 0 68.0648 10.7985 735 123.709 340.777 468.457
1558 0 73.0572 10.5807 773 124.027 341.576 471.656
1559 0 80.1225 12.4809 1000 116.132 341.495 468.859
1560 0 80.0789 11.2389 900 120.136 341.781 467.582
1561 0 82.0456 12.1762 999 119.024 341.976 466.43
1562 0 85.1194 11.7365 999 123.257 341.313 468.981
1563 0 91.1173 13.1698 1200 124.286 341.908 469.423
1564 0 94.0773 14.1905 1335 116.691 341.675 469.658
1565 0 96.1201 13.8369 1330 118.502 342.314 468.514
1566 0 97.0703 14.3504 1393 118.924 341.939 465.01
1567 0 100.129 14.5512 1457 119.062 342.086 463.916
1568 0 102.117 13.3082 1359 122.607 341.861 463.478
1569 0 105.12 13.0042 1367 123.859 340.9 460.066
1570 0 109.087 12.9896 1417 123.827 340.648 458.199
1571 0 113.066 13.4877 1525 122.736 341.14 456.562
1572 0 118.193 12.7165 1503 124.128 341.063 456.1
1573 0 122.288 12.6096 1542 124.265 341.433 450.612
1574 1 61.1207 10.8147 661 123.065 341.225 479.085
1575 0 62.1658 12.8366 798 116.593 340.842 476.365
1576 0 63.21 10.9951 695 116.108 341.659 477.491
1577 0 67.2148 11.1136 747 116.072 341.815 475.28
1578 0 68.2286 11.5934 791 117.124 340.64 473.97
1579 0 72.2448 10.8797 786 117.767 341.757 473.142
1580 0 70.0442 10.1507 711 123.2 341.378 469.149
1581 0 73.2432 10.39 761 121.443 342.106 470.428
1582 0 79.2415 11.8877 942 117.332 341.638 470.24
1583 0 80.2171 11.6933 938 120.257 341.425 466.263
1584 0 85.2872 11.8306 1009 117.456 341.408 468.052
1585 0 85.1962 11.7024 997 119.719 341.345 464.865
1586 0 88.1642 11.3538 1001 122.134 341.769 464.154
1587 0 92.1967 12.8746 1187 117.596 342.171 463.875
1588 0 96.0928 12.8105 1231 117.56 340.664 466.238
1589 0 100.17 13.6068 1363 119.29 340.375 466.72
1590 0 103.075 13.3204 1373 120.353 340.417 463.224
1591 0 105.188 13.224 1391 117.877 341.042 461.167
1592 0 107.089 13.0359 1396 119.617 341.459 459.617
1593 0 111.224 12.4703 1387 122.197 341.91 457.505
1594 0 114.23 13.3065 1520 119.995 341.88 455.869
1595 0 120.219 14.0992 1695 118.385 341.897 452.197
1596 0 122.346 11.7209 1434 124.862 341.937 451.096
1597 0 128.244 13.9733 1792 118.599 342.092 449.533
1598 1 75.1224 10.8623 816 114.817 342.415 477.661
1599 0 77.0902 12.2584 945 111.817 342.672 477.829
1600 0 79.1141 11.9195 943 114.28 343.259 474.524
1601 0 81.1088 11.7373 952 116.11 342.85 474.458
1602 0 85.1701 12.0465 1026 116.211 342.665 472.096
1603 0 87.1022 13.6851 1192 113.301 342.329 468.862
1604 0 92.0637 13.1105 1207 114.949 341.041 469.995
1605 0 95.1556 14.2083 1352 112.422 340.709 467.356
1606 0 96.1271 12.3586 1188 119.665 341.264 465.418
1607 0 100.106 13.0861 1310 118.095 340.955 464.305
1608 0 103.213 11.5877 1196 121.901 342.877 463.478
1609 0 107.242 11.2363 1205 123.776 342.6 461.542
1610 0 111.146 13.7118 1524 117.207 341.974 458.258
1611 0 114.243 11.1955 1279 125.299 342.233 458.349
1612 0 118.155 13.33 1575 118.725 342.467 458.171
1613 1 68.097 12.5556 855 117.195 342.192 480.199
1614 0 68.0965 11.4103 777 121.514 342.148 477.864
1615 0 68.0796 11.5012 783 122.964 343.101 476.028
1616 0 73.1399 12.7837 935 119.301 342.247 475.252
1617 0 76.2785 12.6641 966 118.351 341.812 475.751
1618 0 79.1251 12.6256 999 117.999 342.146 473.006
1619 0 81.1244 12.2405 993 119.925 341.995 470.306
1620 0 83.295 12.0175 1001 119.694 340.789 469.819
1621 0 87.2162 13.0022 1134 116.935 341.775 465.578
1622 0 89.5243 12.3542 1106 118.384 341.26 466.017
1623 0 93.4234 12.9411 1209 116.22 341.109 464.206
1624 0 97.2672 13.355 1299 114.976 340.296 464.756
1625 0 99.4343 12.6817 1261 116.734 340.354 463.006
1626 0 102.533 13.9565 1431 113.773 340.342 459.193
1627 0 104.386 13.1627 1374 115.048 340.753 456.739
1628 0 107.401 13.1284 1410 115.091 340.555 455.673
1629 0 111.445 12.5174 1395 116.726 340.39 449.338
1630 0 114.549 12.9639 1485 115.801 340.599 451.088
1631 0 112.239 12.91 1449 117.029 341.005 443.76
1632 0 118.289 12.909 1527 115.546 340.995 445.496
1633 0 120.283 12.0299 1447 118.65 340.707 442.131
1634 0 128.195 14.0723 1804 112.145 341.039 434.614
1635 0 128.286 12.667 1625 117.938 340.785 438.614
1636 0 132.213 12.7067 1680 117.723 341.488 437.827
1637 0 140.2 12.1612 1705 117.798 340.594 435.881
1638 1 77.0821 10.7418 828 114.83 341.738 465.039
1639 0 80.1372 10.4571 838 114.993 341.328 465.517
1640 0 84.1854 12.0092 1011 112.746 341.842 462.336
1641 0 85.0457 11.8172 1005 111.93 341.524 464.079
1642 0 88.0739 11.9559 1053 109.464 341.785 462.184
1643 0 95.1332 12.9082 1228 105.712 342.881 462.142
1644 0 97.1748 12.1225 1178 108.261 341.756 459.838
1645 0 99.1804 12.4319 1233 108.503 342.115 457.619
1646 0 101.034 13.4014 1354 107.203 341.829 456.076
1647 0 103.148 14.135 1458 106.182 341.228 453.665
1648 0 109.151 14.2464 1555 104.632 342.317 454.338
1649 0 109.151 14.2097 1551 141.605 343.316 454.373
1650 0 115.157 13.4512 1549 107.343 341.26 451.494
1651 0 118.121 15.5519 1837 102.933 342.056 449.569
1652 0 121.098 12.9647 1570 109.794 341.178 448.889
1653 0 124.093 12.9339 1605 109.592 340.556 446.159
1654 0 130.213 13.6699 1780 106.689 341.089 444.007
1655 0 134.186 13.8464 1858 106.305 340.441 443.468
1656 0 136.373 12.4291 1695 110.581 340.398 435.181
1657 1 74.3296 11.1396 828 111.024 340.598 470.347
1658 0 77.2112 11.8636 916 108.056 341.448 469.334
1659 0 81.1412 12.2256 992 105.116 341.381 468.29
1660 0 80.0578 13.153 1053 105.005 341.853 466.335
1661 0 81.0936 12.2328 992 108.868 341.25 464.126
1662 0 81.0265 11.8603 961 111.076 341.521 461.72
1663 0 83.0965 11.8296 983 111.02 340.492 461.851
1664 0 92.1715 12.6829 1169 107.953 340.005 458.976
1665 0 90.1189 11.6735 1052 113.51 340.596 455.444
1666 0 95.0508 12.3408 1173 110.908 340.753 454.586
1667 0 99.1407 11.6905 1159 111.669 340.781 455.685
1668 0 100.129 11.9147 1193 112.325 340.494 449.943
1669 0 106.344 13.1649 1400 107.862 340.637 451.801
1670 0 110.155 13.1996 1454 107.576 340.38 450.535
1671 0 114.219 13.9907 1598 104.52 339.47 451.727
1672 0 117.151 13.3076 1559 106.835 340.902 445.106
1673 0 118.325 12.5756 1488 110.264 341.02 443.788
1674 0 123.201 12.4756 1537 109.811 340.37 442.7
1675 0 129.177 12.479 1612 110.559 340.815 441.618
1676 0 135.369 12.1372 1643 109.418 341.466 438.894
1677 1 78.2104 11.1366 871 96.147 342.405 472.641
1678 0 75.2324 10.2748 773 98.4243 342.016 466.373
1679 0 81.2998 11.3653 924 95.6266 342.03 464.984
1680 0 83.2388 11.3769 947 96.3073 341.92 464.654
1681 0 83.0745 10.641 884 98.8643 341.549 460.45
1682 0 86.115 10.8111 931 99.2019 341.419 460.114
1683 0 90.2591 10.6139 958 101.145 340.96 458.445
1684 0 92.23 10.6798 985 102.011 341.904 459.342
1685 0 97.2595 9.42838 917 104.137 340.956 459.663
1686 0 100.229 10.7554 1078 102.728 341.122 456.23
1687 0 100.137 11.3644 1138 103.608 340.691 453.573
1688 0 106.164 10.3331 1097 104.87 341.505 453.15
1689 0 109.228 10.1164 1105 105.858 341.402 452.31
1690 0 113.18 10.6468 1205 106.321 341.478 450.927
1691 0 115.137 11.5775 1333 106.452 341.491 449.503
1692 0 116.221 9.97236 1159 111.852 341.182 445.848
1693 0 118.13 10.7678 1272 111.553 340.436 441.756
1694 0 125.233 11.6902 1464 108.24 341.092 444.789
1695 0 125.19 10.4801 1312 112.436 341.739 441.925
1696 0 134.247 11.1213 1493 111.833 340.75 437.744
1697 0 140.272 10.501 1473 113.038 340.729 437.532
1698 0 141.269 10.8941 1539 112.335 341.148 436.853
1699 0 149.317 11.9544 1785 110.839 339.667 434.112
1700 0 155.309 11.1906 1738 113.989 340.474 432.467
1701 0 161.313 11.4622 1849 116.103 340.683 436.533
1702 1 93.096 11.472 1068 111.661 339.803 466.527
1703 0 96.1867 11.3737 1094 111.221 340.298 465.402
1704 0 100.12 12.8247 1284 102.59 339.638 466.157
1705 0 101.212 11.6489 1179 106.915 339.611 464.166
1706 0 104.213 12.8103 1335 104.822 340.097 462.787
1707 0 105.2 11.8251 1244 108.316 340.346 460.991
1708 0 110.068 13.1374 1446 106.106 339.185 459.288
1709 0 113.051 13.3303 1507 106.825 338.603 455.406
1710 0 116.171 12.955 1505 109.132 338.642 451.359
1711 0 119.069 12.7657 1520 110.531 339.458 451.401
1712 0 122.244 13.694 1674 108.168 339.243 450.935
1713 0 124.262 12.4012 1541 111.987 339.938 453.541
1714 0 130.185 14.2028 1849 107.937 339.287 441.507
1715 0 132.119 13.1019 1731 110.07 338.7 444.783
1716 0 138.232 12.8263 1773 111.289 339.036 442.514
1717 0 140.2 11.5977 1626 115.361 339.215 436.62
1718 0 143.162 10.8758 1557 115.958 339.175 440.037
1719 0 149.198 11.7696 1756 114.54 338.776 432.991
1720 0 155.227 12.4849 1938 113.425 338.648 431.283
1721 0 157.2 12.1692 1913 114.388 339.124 428.598
1722 0 164.149 12.0988 1986 115.151 338.959 427.529
1723 0 168.192 12.0874 2033 117.476 340.371 418.349
1724 0 178.245 12.7802 2278 115.188 339.484 419.588
1725 0 178.268 10.9442 1951 118.399 340.07 411.524
1726 1 96.0984 10.9887 1056 110.762 340.733 455.61
1727 0 104.173 12.3544 1287 113.742 340.974 459.795
1728 0 106.145 11.3807 1208 117.704 340.922 458.316
1729 0 110.307 12.8097 1413 115.032 340.989 456.28
1730 0 114.235 12.5268 1431 115.868 341.075 455.566
1731 0 112.302 11.4601 1287 121.506 340.272 448.477
1732 0 118.339 11.9656 1416 118.214 339.939 449.328
1733 0 122.154 11.8047 1442 116.202 340.832 451.704
1734 0 125.237 12.4085 1554 110.143 340.136 450.909
1735 0 129.234 12.0479 1557 111.835 340.776 448.92
1736 0 133.241 12.7964 1705 111.296 340.721 447.565
1737 0 136.149 11.7298 1597 113.455 340.466 444.82
1738 0 142.177 12.2031 1735 111.931 340.565 442.167
1739 0 147.356 12.5275 1846 110.466 339.395 437.199
1740 0 149.183 12.4277 1854 111.761 339.54 436.706
1741 0 152.307 13.44 2047 110.242 338.455 436.007
1742 0 160.264 12.1425 1946 113.105 339.069 431.397
1743 0 166.411 12.7275 2118 112.005 339.016 425.836
1744 0 169.24 11.4926 1945 115.674 338.778 422.472
1745 0 176.178 12.8677 2267 112.928 338.891 419.241
1746 0 180.301 12.1519 2191 114.498 338.452 419.377
1747 0 187.384 12.824 2403 113.06 338.595 416.211
1748 0 190.319 11.3336 2157 117.784 339.026 406.744
1749 0 198.272 12.0642 2392 116.472 340.138 407.041
1750 0 204.263 12.7923 2613 115.182 339.226 404.244
1751 0 209.309 12.3549 2586 116.445 338.872 401.28
1752 0 215.345 11.9436 2572 118.072 339.213 397.385
1753 0 222.279 11.9714 2661 118.669 339.1 395.092
1754 0 228.354 12.3274 2815 117.656 339.9 394.184
1755 0 238.437 13.3368 3180 114.948 339.836 393.861
1756 0 242.39 12.2447 2968 118.643 340.64 389.675
1757 0 253.523 13.1073 3323 115.684 340.623 389.453
1758 1 59.2568 8.92725 529 104.374 342.389 475.788
1759 0 54.0397 7.25393 392 108.301 343.12 469.26
1760 0 61.06 8.99116 549 103.457 342.333 470.049
1761 0 66.0308 8.64747 571 106.69 342.305 473.63
1762 0 66.0334 9.99493 660 100.347 342.997 479.159
1763 0 71.0639 10.6242 755 99.6199 343.493 477.638
1764 0 72.0204 10.2332 737 101.09 342.318 478.817
1765 0 76.0638 11.9373 908 98.7555 342.613 475.373
1766 0 77.1033 10.7778 831 102.379 342.213 476.03
1767 0 79.2157 9.5057 753 98.4236 342.243 469.005
1768 0 81.0508 10.6353 862 98.1473 341.841 467.92
1769 0 82.0737 9.67423 794 101.237 341.597 469.426
1770 0 87.1691 11.0819 966 98.9275 340.821 462.096
1771 0 89.0504 10.0505 895 102.428 340.24 464.74
1772 0 91.0948 10.275 936 102.654 339.957 463.591
1773 0 91.0696 10.5304 959 102.923 342.162 466.263
1774 0 94.079 10.9482 1030 102.928 341.2 463.703
1775 0 97.1408 10.912 1060 104.351 341.376 460.104
1776 0 102.117 10.9971 1123 103.334 340.553 457.996
1777 0 106.157 12.1518 1290 100.398 340.111 447.181
1778 0 105.213 10.3504 1089 106.129 340.118 447.404
1779 0 107.099 9.69199 1038 108.303 340.418 450.856
1780 0 115.053 12.0988 1392 101.144 340.052 442.734
1781 0 114.137 10.4085 1188 106.715 340.26 449.431
1782 0 124.22 17.0182 2114 89.6656 340.459 438.36
1783 1 74.1119 10.2413 759 97.2925 341.568 472.696
1784 0 76.068 11.2137 853 108.941 342.022 473.495
1785 0 76.0485 10.9009 829 103.893 340.99 475.709
1786 0 82.2585 13.0564 1074 96.0466 341.838 468.771
1787 0 78.1596 10.2611 802 103.847 342.162 473.668
1788 1 95.2127 14.1578 1348 89.1877 341.706 462.973
1789 0 93.1907 13.4563 1254 92.6419 340.97 464.517
1790 0 90.1186 13.8928 1252 94.3802 341.698 464.941
1791 0 87.2074 10.045 876 105.205 341.825 467.571
1792 0 90.2604 10.8132 976 103.782 341.051 464.485
1793 0 95.1421 12.2974 1170 100.216 341.397 463.465
1794 0 97.1709 11.9583 1162 101.249 341.577 463.702
1795 0 99.1452 11.3167 1122 103.885 341.486 461.583
1796 0 99.17 11.324 1123 144.244 341.487 461.483
1797 0 104.171 12.9882 1353 102.254 342.433 457.758
1798 0 107.127 11.6404 1247 106.13 341.948 457.508
1799 0 110.216 11.6045 1279 106.371 342.378 458.455
1800 0 113.195 12.7833 1447 105.341 342.679 456.691
1801 1 66.0828 11.2737 745 102.105 343.528 479.283
1802 0 71.1436 13.6344 970 96.8804 343.447 479.622
1803 0 72.1324 12.1859 879 101.794 343.294 476.35
1804 0 72.1711 12.3318 890 102.584 342.79 474.624
1805 0 75.087 12.0926 908 103.567 343.478 475.91
1806 0 75.1749 12.7303 957 109.065 343.038 474.562
1807 0 80.07 16.1858 1296 97.6366 343.248 471.319
1808 0 80.0758 13.3748 1071 105.986 343.18 474.463
1809 0 82.0803 13.2553 1088 105.978 343.454 471.029
1810 0 82.0472 12.2978 1009 108.716 343.375 470.2
1811 0 85.087 13.4803 1147 105.171 342.781 471.259
1812 0 88.1525 13.3065 1173 102.877 342.403 470.118
1813 0 89.0936 12.7282 1134 105.783 342.196 467.807
1814 0 93.0851 13.0955 1219 104.709 342.158 465.095
1815 0 93.1332 13.6364 1270 104.671 341.943 465.18
1816 0 95.0762 12.7582 1213 106.185 342.104 464.612
1817 0 99.1051 13.5916 1347 103.582 342.058 463.062
1818 0 99.0504 12.6198 1250 106.15 342.168 459.799
1819 0 105.145 14.4847 1523 100.61 341.726 460.338
1820 0 105.133 12.8124 1347 104.33 341.901 456.687
1821 0 110.22 14.099 1554 100.274 341.843 458.625
1822 0 111.112 13.3379 1482 102.356 341.921 457.077
1823 0 111.132 11.9497 1328 106.881 342.325 457.04
1824 0 115.181 11.1911 1289 105.979 342.27 455.247
1825 0 120.244 12.591 1514 102.502 342.208 453.956
1826 0 120.125 11.9875 1440 104.957 341.922 452.617
1827 0 125.194 13.0038 1628 103.869 341.551 449.335
1828 0 128.18 12.8569 1648 105.598 341.699 447.137
1829 0 133.254 12.4124 1654 108.09 341.826 439.554
1830 1 72.1201 8.80475 635 109.304 342.783 477.694
1831 0 77.0756 11.8196 911 106.91 341.805 472.187
1832 0 78.0806 11.7059 914 107.089 342.421 470.344
1833 0 81.064 12.5827 1020 107.588 342.208 472.136
1834 0 81.1391 10.4512 848 114.314 341.9 471.042
1835 0 84.0328 11.6621 980 113.189 340.916 467.131
1836 0 89.1197 12.1634 1084 111.955 342.253 466.787
1837 0 91.0877 12.1861 1110 112.477 342.543 466.612
1838 0 93.2108 12.2411 1141 113.248 341.699 463.21
1839 0 95.2401 12.0327 1146 114.396 342.051 463.792
1840 0 99.1599 13.5841 1347 111.759 342.756 462.318
1841 0 98.2394 12.0929 1188 118.904 342.25 458.985
1842 0 103.187 12.1623 1255 118.129 341.765 461.245
1843 0 105.105 13.6625 1436 115.292 342.04 459.683
1844 0 108.2 13.7893 1492 115.588 342.455 456.117
1845 0 110.197 13.5213 1490 117.724 341.83 454.245
1846 0 114.111 14.2055 1621 116.643 342.58 453.765
1847 0 117.247 12.64 1482 121.808 342.345 451.863
1848 0 120.204 11.9048 1431 123.764 342.31 450.204
1849 0 124.272 13.0117 1617 119.608 341.847 451.179
1850 0 130.299 15.1804 1978 113.653 341.965 443.954
1851 0 132.162 12.7116 1680 122.036 341.977 446.392
1852 0 136.199 13.3114 1813 121.248 341.847 441.281
1853 0 139.255 12.7464 1775 123.766 342.028 437.694
1854 0 145.282 13.9934 2033 119.566 341.444 437.401
1855 0 151.238 13.5217 2045 121.359 341.429 436.962
1856 0 154.415 14.4351 2229 120.295 341.068 433.85
1857 0 158.39 12.8038 2028 125.699 341.54 430.033
1858 0 162.248 12.9 2093 124.451 341.004 430.174
1859 0 168.506 13.145 2215 124.083 341.346 426.239
1860 0 172.202 12.6827 2184 124.95 340.796 423.291
1861 0 178.164 13.3753 2383 120.502 340.21 421.538
1862 0 183.284 13.2418 2427 121.493 340.276 419.414
1863 0 188.275 12.4711 2348 123.278 340.064 417.606
1864 0 192.334 11.74 2258 127.341 340.508 412.418
1865 0 200.381 13.4094 2687 124.113 340.932 409.828
1866 0 205.378 13.9353 2862 122.516 341.741 407.526
1867 0 208.598 13.5955 2836 125.408 341.365 401.575
1868 0 215.321 12.688 2732 128.382 340.224 400.826
1869 0 223.31 13.2596 2961 126.386 340.517 397.651
1870 0 229.572 13.2203 3035 126.913 340.749 397.123
1871 0 238.296 12.3208 2936 130.142 340.935 387.404
1872 1 62.072 12.0022 745 110.464 339.2 480.314
1873 0 65.1686 10.8334 706 112.429 339.727 482.099
1874 0 65.2077 12.6212 823 110.036 341.902 479.475
1875 0 66.1922 12.7356 843 110.509 341.434 476.61
1876 0 71.2202 13.2547 944 108.768 341.824 477.314
1877 0 73.2883 14.0404 1029 106.864 341.722 475.742
1878 0 71.2415 11.6645 831 116.813 342.057 476.637
1879 0 74.2798 12.2644 911 114.696 341.638 475.704
1880 0 77.2063 13.7165 1059 111.005 341.635 472.563
1881 0 78.2492 11.6934 915 117.292 342.331 473.948
1882 0 78.1234 11.0722 865 117.471 342.877 470.986
1883 0 83.0994 12.816 1065 112.479 342.214 473.739
1884 0 83.1796 11.5894 964 118.371 342.165 468.183
1885 0 85.1106 12.5014 1064 116.287 342.097 468.484
1886 1 113.325 9.05362 1026 117.317 342.052 469.053
1887 0 113.098 10.9993 1244 112.859 341.391 466.747
1888 0 114.443 18.0003 2060 91.017 342.284 450.652
1889 0 111.174 18.8802 2099 93.2058 341.767 455.069
1890 0 110.269 15.562 1716 102.459 341.941 453.848
1891 0 106.351 13.4554 1431 111.973 341.401 451.063
1892 1 53.0728 9.4964 504 109.827 343.03 477.052
1893 0 53.1285 8.58296 456 113.175 342.546 474.2
1894 0 52.0533 9.08685 473 113.448 342.945 472.011
1895 0 58.238 10.0106 583 110.353 342.849 471.724
1896 0 57.0449 10.5531 602 110.125 342.651 469.676
1897 0 65.083 12.3688 805 112.128 341.52 478.745
1898 0 66.1631 12.046 797 112.744 341.412 477.112
1899 0 68.1314 11.7567 801 113.19 341.041 476.316
1900 0 68.1428 10.5954 722 117.429 340.972 473.378
1901 0 72.1896 10.8326 782 116.34 340.638 470.426
1902 0 71.2415 10.2749 732 118.149 340.56 473.488
1903 0 79.1306 15.7082 1243 101.279 339.996 471.966
1904 0 82.2884 13.8416 1139 104.508 340.759 470.635
1905 0 82.1352 15.0971 1240 102.352 340.491 470.687
1906 0 84.2643 13.9917 1179 105.562 339.998 468.122
1907 0 87.1836 15.2437 1329 102.782 340.111 468.895
1908 0 87.1629 14.2262 1240 106.795 340.081 468.662
1909 0 86.3515 14.3599 1240 108.089 340.009 469.071
1910 0 87.2769 12.0994 1056 113.552 339.787 465.982
1911 0 93.4243 13.444 1256 108.084 340.158 467.498
1912 0 94.3569 13.3642 1261 109.858 340.341 464.39
1913 0 96.2742 13.4304 1293 109.987 340.604 462.534
1914 0 98.2408 12.6628 1244 112.604 340.81 456.894
1915 1 49.1229 11.115 546 108.465 341.322 482.289
1916 0 52.0709 10.4665 545 108.354 340.609 485.057
1917 0 55.2763 11.7591 650 104.946 340.114 483.282
1918 0 57.2181 11.5173 659 106.986 339.918 482.055
1919 0 57.2228 11.9707 685 106.766 340.455 481.048
1920 0 57.1224 12.2019 697 107.562 340.472 479.116
1921 0 59.239 11.5464 684 108.608 340.557 479.251
1922 0 62.1834 11.4822 714 108.763 340.141 479.293
1923 0 64.0871 11.6404 746 107.678 340.649 479.865
1924 0 65.1725 11.3852 742 108.367 340.586 478.83
1925 0 69.1543 12.3926 857 106.263 339.837 478.152
1926 0 69.0861 11.2179 775 110.505 340.485 475.813
1927 0 69.1385 11.9181 824 109.061 341.016 476.078
1928 0 75.1147 13.6458 1025 104.18 340.744 476.276
1929 0 75.1894 12.9008 970 107.342 340.96 474.198
1930 0 76.1784 11.9063 907 108.391 340.952 473.806
1931 0 78.0592 12.5674 981 108.515 340.879 471.547
1932 0 82.1107 12.337 1013 110.591 340.506 471.689
1933 0 84.1719 13.1517 1107 110.016 340.76 468.721
1934 0 85.1919 12.8181 1092 111.62 340.692 468.921
1935 0 89.2766 12.8365 1146 111.675 340.975 468.004
1936 0 89.1494 11.9238 1063 114.766 340.912 465.585
1937 0 93.1586 12.6988 1183 112.771 340.416 464.744
1938 0 95.2604 12.0407 1147 115.018 340.833 464.898
1939 0 99.3818 12.8696 1279 113.298 340.874 464.919
1940 0 102.257 13.0847 1338 112.707 340.755 462.275
1941 0 105.19 13.1001 1378 113.208 340.661 461.688
1942 0 108.31 13.1198 1421 113.718 340.235 458.957
1943 0 111.384 13.1348 1463 113.936 340.966 458.524
1944 1 64.1897 10.7805 692 115.389 341.118 481.533
1945 0 66.1316 12.3844 819 111.769 341.386 480.071
1946 0 65.0996 11.2904 735 103.019 340.997 476.467
1947 0 66.0898 10.3344 683 106.546 341.471 473.694
1948 0 69.1077 11.3012 781 105.078 341.394 474.426
1949 0 71.2072 10.6731 760 106.721 341.334 474.051
1950 0 72.1022 11.0815 799 108.323 340.542 471.924
1951 0 75.2716 10.6282 800 109.794 340.339 471.19
1952 0 76.131 11.0862 844 110.877 340.52 469.12
1953 0 81.1674 12.2833 997 108.543 340.624 469.477
1954 0 83.2646 12.6464 1053 110.59 341.378 465.945
1955 0 83.1004 12.6113 1048 114.269 341.139 462.969
1956 0 85.1582 12.6353 1076 115.619 340.819 463.48
1957 0 87.1694 12.5847 1097 117.998 341.478 463.704
1958 0 89.2074 12.3196 1099 120.132 340.715 462.853
1959 0 94.2172 13.3203 1255 122.598 341.339 461.273
1960 0 97.167 13.5334 1315 120.384 340.898 457.027
1961 0 101.23 13.5434 1371 120.018 341.841 455.495
1962 0 105.31 14.3766 1514 116.972 341.402 454.557
1963 0 108.25 14.0323 1519 117.934 340.89 452.29
1964 0 112.283 14.7752 1659 114.733 341.659 452.01
1965 1 60.0488 10.3749 623 113.929 341.873 479.889
1966 0 62.3228 11.4565 714 117.415 341.826 479.751
1967 0 65.1495 12.8167 835 108.762 341.436 481.692
1968 0 66.1423 12.0195 795 112.507 342.096 480.657
1969 0 67.1439 12.6892 852 111.603 341.772 478.332
1970 0 71.0514 13.7928 980 109.041 342.923 478.996
1971 0 71.0819 13.3649 950 111.6 342.359 477.938
1972 0 76.0853 14.4706 1101 107.262 342.378 476.59
1973 0 78.1181 13.6588 1067 110.327 342.143 474.679
1974 0 79.1396 13.9753 1106 109.481 341.401 469.607
1975 0 83.1763 14.0304 1167 109.269 340.953 472.658
1976 0 84.0727 13.1553 1106 113.102 342.28 470.606
1977 0 86.0987 14.3672 1237 110.714 342.728 469.816
1978 0 88.0479 13.7198 1208 113.205 342.361 466.899
1979 0 90.1214 13.4929 1216 113.914 342.233 467.217
1980 0 92.1102 13.777 1269 113.834 341.391 465.049
1981 0 96.1581 14.3826 1383 110.821 341.913 462.431
1982 0 98.2963 13.7238 1349 112.329 341.478 458.769
1983 0 99.3327 12.7148 1263 115.122 341.667 458.338
1984 0 102.196 12.9261 1321 115.248 341.812 453.88
1985 1 54.0727 10.3194 558 114.765 341.298 480.063
1986 0 57.0762 10.0743 575 116.788 342.207 481.449
1987 0 61.1024 13.371 817 113.501 341.819 483.207
1988 0 65.1169 14.2667 929 113.05 341.41 480.72
1989 0 66.1564 12.3646 818 117.4 341.227 479.512
1990 0 70.1302 12.6764 889 116.459 341.647 478.328
1991 0 71.1527 13.7732 980 113.943 342.208 477.226
1992 0 73.1128 13.8416 1012 113.804 342.064 477.32
1993 0 75.1052 13.3013 999 116.584 340.78 476.031
1994 0 79.2479 14.3979 1141 113.078 341.008 475.819
1995 0 79.1743 12.5546 994 120.1 340.972 473.709
1996 0 82.053 13.7838 1131 116.628 342.401 473.253
1997 0 82.0305 12.7636 1047 120.311 341.989 472.795
1998 0 89.1622 16.0045 1427 110.933 341.296 468.448
1999 0 94.1158 16.0441 1510 110.292 341.889 464.986
2000 0 93.1558 14.1483 1318 118.058 341.508 465.697
2001 0 95.1966 12.7736 1216 121.726 342.344 467.097
2002 0 98.1756 14.0463 1379 119.381 341.922 465.322
2003 0 102.225 13.2648 1356 121.088 341.642 464.667
2004 0 104.275 11.8341 1234 124.555 341.559 462.882
2005 0 108.294 12.6508 1370 121.419 340.91 460.888
2006 0 111.478 11.8767 1324 123.992 341.351 457.47
2007 0 115.415 12.4507 1437 120.758 341.367 454.983
2008 1 64.0928 11.9514 766 113.551 340.915 481.3
2009 0 68.216 13.3253 909 109.888 341.573 479.424
2010 0 70.1237 12.1357 851 111.135 340.979 479.283
2011 0 73.0946 13.161 962 107.976 341.426 479.934
2012 0 76.1069 13.1131 998 109.27 341.291 477.367
2013 0 74.214 11.3725 844 115.116 342.134 475.152
2014 0 78.1558 11.8737 928 113.114 341.477 473.76
2015 0 83.2008 13.3172 1108 108.636 341.56 472.582
2016 0 86.0979 13.7518 1184 107.532 341.568 470.047
2017 0 89.1015 12.5475 1118 112.31 341.298 469.252
2018 0 90.075 12.3564 1113 113.464 341.813 467.629
2019 0 94.1172 12.7394 1199 111.657 341.866 467.52
2020 0 97.0605 12.7549 1238 111.731 341.754 466.72
2021 1 50.0546 10.4686 524 112.292 341.784 488.998
2022 0 52.0614 11.7554 612 108.892 342.141 486.784
2023 0 53.1687 10.6078 564 114.576 341.585 484.789
2024 0 54.1366 11.0461 598 117.682 341.06 481.221
2025 0 57.2827 12.0455 690 113.916 341.241 480.552
2026 0 57.2057 12.0443 689 113.186 342.106 481.626
2027 0 58.2085 10.8403 631 117.532 341.861 479.699
2028 0 61.1836 11.5063 704 114.656 341.607 479.751
2029 0 64.2042 12.3824 795 113.031 340.989 477.123
2030 0 65.1923 11.2743 735 113.016 341.811 477.472
2031 0 66.388 12.1106 804 111.805 342.454 475.642
2032 0 71.1496 12.2137 869 110.533 341.732 474.708
2033 0 72.1176 12.3409 890 111.39 341.528 474.253
2034 0 76.3018 13.499 1030 107.986 341.626 472.514
2035 0 79.1613 12.9735 1027 109.436 341.467 473.131
2036 0 80.2848 12.1941 979 113.267 340.73 470.519
2037 0 83.19 12.4414 1035 112.757 341.394 470.241
2038 0 86.1498 13.1747 1135 112.392 341.538 469.154
2039 0 90.2513 13.0081 1174 113.609 341.04 468.473
2040 1 46.0624 10.9634 505 115.315 341.945 490.164
2041 0 47.0727 10.5794 498 116.092 341.351 491.544
2042 0 47.0774 12.4264 585 115.906 341.974 489.552
2043 0 49.0353 11.3388 556 115.996 341.757 488.815
2044 0 48.0397 9.53378 458 117.227 341.913 484.797
2045 0 50.1255 11.2717 565 114.667 341.124 482.743
2046 0 50.1468 11.247 564 119.317 340.739 480.004
2047 0 53.1199 12.4436 661 114.909 341.921 482.357
2048 0 56.0964 11.8546 665 115.788 341.18 481.05
2049 0 58.0741 13.0179 756 113.329 341.484 479.556
2050 0 60.045 12.474 749 114.299 341.379 479.563
2051 0 61.0965 13.1759 805 114.106 340.799 476.745
2052 0 62.0529 11.8931 738 118.107 341.669 475.816
2053 0 65.1133 12.6241 822 115.72 341.455 475.14
2054 0 69.0593 12.0766 834 117.514 341.207 473.182
2055 0 67.1149 11.607 779 120.311 340.788 471.895
2056 0 73.1456 12.7417 932 117.028 340.44 471.337
2057 0 76.1139 13.0988 997 115.568 341.012 469.595
2058 0 78.1244 12.9153 1009 115.555 340.73 470.959
2059 0 81.137 12.9288 1049 116.585 340.899 467.772
2060 0 85.1059 12.3846 1054 117.433 341.077 467.144
2061 0 86.1683 12.2899 1059 119.199 341.3 465.822
2062 0 91.1037 14.4561 1317 112.813 341.194 464.172
2063 1 43.0499 9.59352 413 115.891 341.082 487.3
2064 0 46.0581 9.16234 422 117.749 340.543 485.713
2065 0 50.1339 11.8483 594 116.956 340.816 485.641
2066 0 51.0685 12.5909 643 116.006 341.044 484.179
2067 0 50.087 9.8828 495 113.535 341.232 484.135
2068 0 55.0327 11.3387 624 114.707 341.763 487.019
2069 0 56.0862 12.9265 725 111.259 341.47 484.474
2070 0 57.0572 12.8818 735 112.208 341.029 483.09
2071 0 61.0596 13.1347 802 109.853 342.064 481.713
2072 0 62.0906 12.3368 766 111.837 341.997 479.974
2073 0 63.1653 11.8261 747 113.218 341.988 481.842
2074 0 67.1431 13.0915 879 109.941 341.751 478.769
2075 0 69.0709 12.9577 895 111.38 341.39 476.991
2076 0 72.1702 12.5259 904 111.463 342.058 474.487
2077 0 76.2245 13.3159 1015 109.851 341.704 475.829
2078 0 77.2188 13.8567 1070 108.165 342.044 476.886
2079 0 78.2243 12.1573 951 114.609 341.522 472.415
2080 0 80.2373 12.2387 982 113.186 340.577 473.106
2081 0 84.125 11.5542 972 115.511 340.628 470.142
2082 1 44.0344 10.4691 461 110.269 341.551 494.108
2083 0 45.0557 10.6313 479 110.658 340.741 491.618
2084 0 47.0598 11.751 553 108.705 341.186 490.354
2085 0 48.1523 11.5675 557 111.189 340.574 486.153
2086 0 51.0771 12.7846 653 105.842 340.029 487.049
2087 0 51.0894 11.6071 593 109.523 340.371 490.067
2088 0 54.1736 12.663 686 108.112 340.7 486.724
2089 0 55.0806 12.5997 694 109.001 340.277 486.769
2090 0 57.1262 13.3039 760 107.495 340.663 486.495
2091 0 58.125 11.9054 692 112.085 340.279 483.545
2092 0 60.0503 12.4229 746 111.551 340.169 484.472
2093 0 60.0729 12.0354 723 113.903 340 483.752
2094 0 65.1388 13.3561 870 109.332 340.682 483.002
2095 0 65.0399 13.2073 859 111.121 340.976 482.783
2096 0 67.1007 13.0252 874 112.104 341.184 480.74
2097 0 69.0647 12.539 866 114.759 340.615 480.483
2098 0 72.1042 12.8564 927 113.63 341.252 478.822
2099 0 74.037 12.0615 893 117.021 340.692 479.06
2100 0 76.1127 12.8888 981 115.649 341.317 476.06
2101 0 77.0772 11.1836 862 118.705 340.814 476.089
2102 0 80.1534 11.9146 955 119.514 340.911 472.042
2103 0 83.0661 13.5073 1122 116.47 340.192 472.115
2104 1 43.0315 10.9687 472 117.746 340.792 493.278
2105 0 44.0338 11.037 486 117.323 340.648 493.963
2106 0 44.0451 11.6472 513 120.374 339.372 492.224
2107 0 47.0215 11.633 547 121.377 339.879 489.739
2108 0 49.1244 12.8653 632 115.435 340.755 490.051
2109 0 50.0712 12.5022 626 117.088 340.243 489.954
2110 0 51.0617 12.3184 629 118.633 340.598 490.444
2111 0 53.0311 12.8415 681 117.576 339.582 489.269
2112 0 54.1854 12.6602 686 118.267 339.2 487.777
2113 0 57.0672 12.6868 724 116.791 339.793 487.674
2114 0 58.0839 11.8794 690 120.333 339.845 486.31
2115 0 59.0609 12.0723 713 120.463 339.746 484.703
2116 0 60.1034 11.5468 694 121.086 340.739 486.12
2117 0 63.0485 12.6252 796 118.808 340.741 483.698
2118 0 62.0383 11.8798 737 124.16 340.141 483.125
2119 0 65.2141 11.6846 762 123.207 340.365 483.971
2120 0 66.067 12.7901 845 121.922 340.115 482.685
2121 0 72.1113 13.7565 992 117.539 340.314 478.325
2122 0 72.1344 12.6153 910 123.96 340.122 479.292
2123 0 75.1026 12.3831 930 123.748 340.23 480.178
2124 0 77.1253 13.1345 1013 123.389 340.536 477.045
2125 0 81.1102 13.6727 1109 122.067 341.155 477.054
2126 0 81.1102 13.7344 1114 150.491 342.164 477.063
2127 0 84.1895 13.1251 1105 126.658 340.681 472.562
2128 0 87.2008 12.6375 1102 128.437 340.416 472.686
2129 0 91.3485 14.0451 1283 124.995 340.279 466.23
2130 0 94.2182 14.8167 1396 123.025 340.683 465.321
2131 0 96.4024 13.4436 1296 128.109 340.376 465.12
2132 0 100.222 12.9612 1299 133.797 340.246 465.078
2133 0 104.368 13.759 1436 132.354 340.081 460.966
2134 1 55.281 12.4274 687 129.738 340.668 486.501
2135 0 55.1308 13.5677 748 126.824 340.727 486.203
2136 0 57.0947 14.1519 808 125.778 339.797 486.219
2137 0 57.0123 14.3478 818 127.104 340.677 485.081
2138 0 60.0779 13.5324 813 128.624 340.287 485.766
2139 0 61.05 13.3661 816 130.516 339.76 485.191
2140 0 65.0526 14.004 911 127.456 340.777 483.874
2141 0 65.081 13.4755 877 130.763 340.054 482.615
2142 0 67.1229 13.0805 878 133.186 340.522 482.069
2143 0 71.0577 13.9464 991 130.872 340.264 480.807
2144 0 73.0667 13.6177 995 132.614 339.326 479.338
2145 0 75.0447 13.6585 1025 133.794 339.494 478.419
2146 0 79.0812 14.4156 1140 131.031 339.807 478.102
2147 0 78.1562 12.3087 962 140.157 339.414 477.47
2148 0 83.1426 15.0825 1254 129.93 339.206 475.895
2149 0 85.173 13.4198 1143 137.771 339.842 472.952
2150 0 88.1693 13.7236 1210 135.865 340.2 473.152
2151 0 91.0821 14.0642 1281 135.918 339.416 469.996
2152 0 94.1437 13.4263 1264 139.025 339.703 468.907
2153 0 96.0978 12.3728 1189 142.586 340.365 467.774
2154 0 101.143 13.6243 1378 138.455 339.696 465.564
2155 0 104.18 13.2942 1385 139.261 340.627 464.921
2156 0 106.139 13.586 1442 140.076 340.365 461.34
2157 1 59.1016 12.3854 732 140.041 341.495 486.027
2158 0 58.0549 11.3169 657 137.391 339.26 480.968
2159 0 62.035 12.4607 773 122.9 339.997 481.568
2160 0 64.0419 12.7417 816 121.027 341.028 482.401
2161 0 64.0419 12.6948 813 135.613 342.007 482.321
2162 0 67.0362 12.7991 858 122.466 341.425 478.633
2163 0 71.1249 12.0633 858 123.882 340.953 479.077
2164 0 71.0993 12.5036 889 123.434 340.495 475.432
2165 0 75.0972 13.4892 1013 119.174 339.846 475.132
2166 0 78.0721 13.3979 1046 118.456 340.148 475.673
2167 0 78.0598 13.3872 1045 119.253 339.847 472.87
2168 0 83.0768 13.3009 1105 118.214 340.314 470.726
2169 0 86.1798 13.7387 1184 115.022 340.355 470.06
2170 0 88.2561 13.5401 1195 116.87 340.064 468.506
2171 0 89.0509 12.9589 1154 118.608 340.664 467.306
2172 0 95.1504 13.2737 1263 116.033 340.777 466.349
2173 0 97.0369 13.2115 1282 116.903 340.729 464.674
2174 0 99.2306 12.6171 1252 118.173 340.734 464.485
2175 0 102.105 12.5459 1281 119.384 340.294 461.972
2176 0 104.11 13.0535 1359 118.529 340.175 460.989
2177 0 105.078 13.5613 1425 118.354 340.23 459.613
2178 0 109.042 13.9028 1516 117.93 340.259 455.396
2179 0 115.117 14.2464 1640 115.004 341.324 456.512
2180 0 116.071 12.544 1456 121.207 340.356 457.817
2181 0 119.123 13.5827 1618 120.925 339.983 453.857
2182 0 123.282 13.246 1633 125.64 339.999 450.576
2183 0 128.171 13.4741 1727 126.307 340.031 448.482
2184 0 131.175 13.6992 1797 125.943 340.651 447.926
2185 0 136.329 14.6924 2003 123.582 340.424 445.502
2186 0 141.262 13.4289 1897 126.54 340.166 443.478
2187 0 145.304 13.0485 1896 130.366 339.372 442.392
2188 0 150.256 13.883 2086 127.853 340.249 438.384
2189 0 156.204 14.001 2187 126.582 339.888 437.227
2190 0 160.26 13.8899 2226 129.037 339.56 431.812
2191 0 167.242 13.7944 2307 129.268 340.297 427.609
2192 0 173.265 13.2745 2300 128.826 340.105 429.077
2193 0 178.255 13.2058 2354 131.435 339.726 421.114
2194 1 100.235 12.6403 1267 124.919 340.007 464.389
2195 0 104.203 13.4161 1398 123.999 339.687 465.511
2196 0 108.241 13.1558 1424 123.682 339.909 461.735
2197 0 110.156 13.1177 1445 125.652 340.735 458.491
2198 0 116.081 14.2142 1650 123.581 340.336 458.374
2199 0 119.205 13.5229 1612 131.586 340.752 455.468
2200 0 123.206 14.8288 1827 127.993 340.987 452.227
2201 0 128.277 14.3751 1844 129.578 340.196 448.512
2202 0 133.252 14.0561 1873 129.677 339.697 448.639
2203 0 141.243 18.4292 2603 114.974 340.391 438.997
2204 0 145.136 15.6543 2272 119.763 340.592 434.791
2205 0 150.25 13.6839 2056 124.877 340.759 438.373
2206 1 82.2619 11.8889 978 121.76 339.864 475.18
2207 0 85.1314 13.6378 1161 121.615 340.81 469.838
2208 0 87.1159 14.1191 1230 122.183 340.572 466.869
2209 0 90.0608 14.4458 1301 119.377 339.692 470.466
2210 0 93.0979 13.6523 1271 121.356 339.951 468.095
2211 0 96.1476 12.7928 1230 122.989 339.998 468.59
2212 0 96.1476 12.72 1223 147.251 338.994 468.684
2213 0 103.233 12.7285 1314 124.582 339.922 462.804
2214 0 107.163 13.9507 1495 121.626 340.203 461.544
2215 0 109.272 13.6723 1494 126.261 339.584 457.945
2216 0 114.141 13.4921 1540 125.676 339.355 459.575
2217 0 119.178 13.4672 1605 124.226 339.541 456.873
2218 0 122.278 13.0195 1592 118.799 339.453 455.169
2219 0 124.15 12.1224 1505 120.509 339.871 455.945
2220 0 129.313 12.8912 1667 119.981 339.717 450.614
2221 1 73.1222 11.98 876 118.919 340.215 479.224
2222 0 78.088 13.6385 1065 115.055 340.254 477.408
2223 0 76.1407 12.2274 931 117.764 339.855 476.358
2224 0 81.2003 13.6945 1112 111.831 340.238 477.433
2225 0 85.0669 13.4365 1143 114.156 340.473 474.216
2226 0 86.2072 13.108 1130 115.583 340.722 474.488
2227 0 89.1329 13.2387 1180 116.133 340.137 472.98
2228 0 93.0918 13.6532 1271 116.248 340.102 470.123
2229 0 95.1708 11.9154 1134 121.413 339.494 470.534
2230 0 96.0936 11.6033 1115 124.889 338.691 469.042
2231 0 100.084 12.8792 1289 123.499 339.236 465.291
2232 1 55.1148 11.6847 644 128.174 339.315 487.581
2233 0 56.082 11.5902 650 124.428 339.82 485.603
2234 0 57.137 11.1486 637 119.611 339.549 487.777
2235 0 59.0356 11.9928 708 116.394 340.96 488.613
2236 0 61.0582 11.9558 730 117.123 341.386 488.829
2237 0 63.0489 10.6901 674 119.294 341.246 486.975
2238 0 66.1488 12.0335 796 117.111 341.097 479.754
2239 0 70.0804 12.771 895 114.531 340.86 481.306
2240 0 71.1168 12.135 863 117.591 340.809 483.746
2241 0 72.0799 11.0017 793 120.1 340.992 481.46
2242 0 73.075 11.6456 851 120.74 340.597 479.135
2243 0 79.0975 11.8209 935 118.605 340.999 478.294
2244 0 81.1451 13.2602 1076 116.181 340.553 475.406
2245 0 84.1367 12.7174 1070 117.68 341.59 473.567
2246 0 86.1051 12.2757 1057 122.867 340.964 474.784
2247 0 89.1679 12.5718 1121 118.546 340.514 472.536
2248 0 93.2555 12.2352 1141 119.893 340.463 469.338
2249 0 97.2108 13.0232 1266 118.173 340.476 467.468
2250 1 51.0888 11.94 610 119.379 341.784 492.175
2251 0 53.0967 11.9405 634 119.784 341.241 491.256
2252 0 55.0767 12.4191 684 118.376 340.648 489.863
2253 0 58.08 11.9663 695 119.296 340.399 487.698
2254 0 59.1836 12.2331 724 118.678 340.229 487.264
2255 0 62.1287 13.1501 817 116.25 340.335 486.19
2256 0 63.1037 13.0896 826 117.421 341.08 485.815
2257 0 65.0937 12.9045 840 116.731 341.154 481.86
2258 0 68.1763 13.0397 889 116.263 340.677 482.249
2259 0 70.1001 14.9073 1045 111.022 341.168 485.299
2260 0 71.0795 13.3794 951 116.223 341.484 485.872
2261 0 74.2122 13.3536 991 116.102 340.82 481.961
2262 0 76.1718 13.3383 1016 116.165 340.945 481
2263 0 79.2381 12.4183 984 119.631 340.351 481.441
2264 0 82.0925 12.5834 1033 122.801 340.507 480.967
2265 0 84.0887 12.6533 1064 126.835 340.164 482.778
2266 0 86.1213 12.1108 1043 127.108 340.263 482.918
2267 1 44.0469 12.464 549 121.645 339.678 502.754
2268 0 47.1563 12.8933 608 119.438 338.951 502.745
2269 0 47.1198 11.5026 542 124.941 338.723 503.384
2270 0 48.1115 12.8867 620 121.544 338.234 502.771
2271 0 53.048 13.271 704 118.94 337.435 500.237
2272 0 57.0855 14.1542 808 114.698 337.415 500.751
2273 0 55.1884 13.4449 742 120.399 336.977 499.162
2274 0 57.1082 12.345 705 122.94 337.407 497.745
2275 0 60.0356 12.6258 758 122.104 336.979 498.631
2276 0 60.1991 13.0235 784 123.055 335.894 496.29
2277 0 64.1668 12.9662 832 122.791 336.011 495.457
2278 0 64.0445 13.194 845 125.098 335.48 493.953
2279 0 67.0924 13.6528 916 125.718 335.278 491.561
2280 0 70.0854 14.1542 992 122.876 334.588 491.852
2281 0 72.1722 14.2299 1027 124.849 334.726 489.836
2282 0 76.1652 13.4445 1024 125.117 334.995 489.258
2283 0 76.1511 12.8954 982 128.567 334.782 486.191
2284 0 80.1837 13.731 1101 125.836 334.601 483.929
2285 0 83.0642 13.6882 1137 125.83 334.264 482.818
2286 0 86.1579 13.6377 1175 124.692 334.179 482.629
2287 0 87.1548 12.7589 1112 127.544 334.142 481.91
2288 0 91.1479 13.7579 1254 125.163 333.401 479.035
2289 0 91.1441 13.7036 1249 150.65 332.383 478.999
2290 0 98.1822 13.3425 1310 125.589 332.972 480.44
2291 0 99.2925 12.9113 1282 128.028 333.482 478.702
2292 0 105.154 13.1711 1385 126.583 333.543 476.679
2293 0 108.194 13.3002 1439 125.543 333.122 473.576
2294 1 57.0936 11.1046 634 124.823 335.298 500.077
2295 0 59.0708 11.8333 699 124.215 335.232 499.409
2296 0 64.099 12.4963 801 120.528 335.119 497.452
2297 0 66.1006 13.5248 894 117.566 335.254 496.323
2298 0 69.0873 12.8388 887 118.109 334.967 493.909
2299 0 70.099 12.4538 873 119.472 335.06 492.732
2300 0 74.0465 12.4246 920 118.374 334.828 490.951
2301 0 77.1302 12.5502 968 117.253 334.762 488.86
2302 0 79.2245 12.1175 960 118.884 334.711 487.349
2303 0 84.0895 12.8791 1083 116.941 333.977 486.644
2304 0 85.1281 12.0877 1029 119.909 334.601 484.31
2305 0 89.2556 12.3466 1102 118.591 334.212 485.074
2306 0 94.3204 13.2845 1253 114.967 334.324 484.631
2307 0 96.2888 12.5248 1206 118.701 333.855 480.555
2308 0 101.469 13.7481 1395 115.552 333.741 478.433
2309 1 56.1383 12.6295 709 116.219 333.691 498.66
2310 0 58.0419 12.646 734 115.067 334.495 500.177
2311 0 60.0268 14.3103 859 114.21 334.575 498.446
2312 0 60.1427 12.5036 752 120.209 334.943 497.348
2313 0 63.049 13.5767 856 117.028 335.033 496.236
2314 0 66.0674 13.0624 863 117.611 335.132 495.374
2315 0 67.0394 12.5299 840 119.799 334.511 493.656
2316 0 71.0512 13.7084 974 116.776 335.161 491.298
2317 0 72.0825 13.3874 965 118.11 335.298 491.04
2318 0 74.1238 12.5601 931 121.053 335.072 488.356
2319 0 77.1053 12.6321 974 120.852 334.544 488.502
2320 0 80.0799 12.9496 1037 119.699 335.396 486.513
2321 0 82.0494 12.1268 995 122.713 335.096 485.399
2322 0 86.0443 13.8649 1193 117.544 335.129 485.705
2323 0 89.1116 13.3653 1191 119.645 335.997 483.552
2324 0 91.1005 13.4467 1225 120.764 336.045 480.108
2325 1 50.0707 10.8047 541 124.815 336.105 500.597
2326 0 52.0308 10.8397 564 116.324 335.348 496.385
2327 0 52.0915 11.2302 585 114.041 335.359 493.904
2328 0 54.118 10.7728 583 114.053 335.184 495.48
2329 0 56.1039 10.8549 609 112.544 335.434 497.862
2330 0 58.0644 11.7283 681 119.164 335.918 497.571
2331 0 58.0633 10.9363 635 123.879 335.795 495.03
2332 0 63.0813 11.398 719 118.708 335.629 496.65
2333 0 63.0567 12.1319 765 117.908 336.336 494.095
2334 0 67.0749 13.0153 873 115.9 335.607 492.506
2335 0 67.0726 11.4205 766 120.933 336.009 490.783
2336 0 69.0427 11.6884 807 121.75 335.747 489.763
2337 0 73.055 13.045 953 117.789 335.18 486.345
2338 0 75.0303 11.8219 887 121.169 336.006 484.941
2339 0 79.0732 12.2418 968 118.69 335.888 484.441
2340 0 80.2587 11.8866 954 115.966 335.532 477.985
2341 0 85.143 13.5302 1152 110.714 335.622 479.064
2342 0 86.1331 12.3878 1067 116.047 335.579 476.202
2343 0 89.0846 12.4825 1112 116.174 335.853 474.712
2344 0 92.2105 13.1221 1210 114.597 335.803 472.235
2345 0 96.184 13.0999 1260 113.478 336.3 470.848
2346 0 97.219 12.0141 1168 118.279 336.172 465.178
2347 0 100.216 12.3732 1240 118.489 336.415 464.666
2348 0 104.186 12.7752 1331 117.807 335.993 466.499
2349 0 107.329 13.016 1397 118.132 336.667 464.631
2350 0 111.261 13.7784 1533 116.686 336.918 462.842
2351 0 114.182 12.8655 1469 123.041 336.403 459.133
2352 1 62.2016 12.2505 762 120.862 337.127 484.537
2353 0 63.2357 12.2083 772 123.776 336.728 480.733
2354 0 67.2079 14.4477 971 120.862 336.788 481.461
2355 0 70.1648 13.3685 938 124.652 336.972 479.151
2356 0 73.1565 13.0405 954 124.239 337.029 479.55
2357 0 75.1265 13.5106 1015 121.363 337.463 477.959
2358 0 78.1437 13.552 1059 119.873 337.617 477.914
2359 0 79.1826 13.6267 1079 119.627 337.54 476.457
2360 0 81.1251 13.2265 1073 121.083 338.023 473.552
2361 0 81.1113 13.2287 1073 121.212 338.477 472.674
2362 0 86.2745 13.6657 1179 119.754 338.126 470.936
2363 0 90.109 13.2617 1195 120.52 338.256 468.734
2364 0 91.1674 14.062 1282 118.591 338.322 467.398
2365 0 94.1475 14.2011 1337 118.484 338.704 466.044
2366 0 96.1582 13.8314 1330 120.632 338.28 464.83
2367 0 101.199 15.3658 1555 116.325 337.562 462.87
2368 0 103.189 15.2439 1573 116.166 337.92 461.962
2369 0 106.068 14.8678 1577 118.196 338.053 461.453
2370 0 108.257 13.0523 1413 122.778 338.698 460.018
2371 0 113.159 14.546 1646 115.612 338.809 457.78
2372 1 63.1914 11.1566 705 115.715 339.356 484.328
2373 0 63.1263 11.5166 727 118.224 339.381 481.431
2374 0 66.1552 11.7602 778 117.067 339.315 480.609
2375 0 71.1802 13.1778 938 112.722 339.214 477.958
2376 0 71.1282 11.4441 814 118.055 339.5 477.495
2377 0 75.161 11.4022 857 119.159 339.088 474.228
2378 0 76.2567 12.3792 944 117.56 338.278 469.745
2379 0 81.5132 11.9245 972 117.064 339.178 473.128
2380 0 82.2858 12.2986 1012 118.304 339.509 466.139
2381 0 86.432 12.3797 1070 122.291 339.446 467.208
2382 0 90.4454 13.2566 1199 119.282 339.29 465.471
2383 0 92.546 13.0422 1207 120.465 339.102 463.257
2384 0 96.3408 12.5388 1208 120.915 340.129 460.294
2385 0 99.6544 11.6302 1159 122.829 340.063 460.026
2386 1 55.4627 9.82642 545 116.818 340.347 479.774
2387 0 56.4282 11.1824 631 115.239 339.699 480.082
2388 0 58.5666 11.6619 683 114.29 339.703 479.792
2389 0 61.3833 12.1694 747 112.938 339.604 479.954
2390 0 62.4116 12.049 752 114.328 340.053 482.637
2391 0 63.2689 11.8384 749 115.897 339.264 481.694
2392 0 62.2156 12.2477 762 116.999 339.68 481.122
2393 0 66.2178 12.1116 802 114.728 339.555 480.688
2394 0 66.2785 11.9194 790 114.189 338.971 479.323
2395 0 67.308 10.7417 723 117.838 338.842 476.981
2396 0 71.4199 12.6575 904 113.85 339.152 475.241
2397 0 72.3426 10.7406 777 117.771 338.66 475.82
2398 0 73.3693 11.0809 813 118.325 338.983 472.189
2399 0 76.4917 12.2235 935 114.789 338.828 468.553
2400 0 79.6826 11.9474 952 115.893 338.116 467.155
2401 0 82.7365 12.1349 1004 115.761 338.321 464.619
2402 0 85.4676 11.7705 1006 114.101 338.112 466.879
2403 0 87.6942 12.4068 1088 113.782 338.296 464.643
2404 0 91.5736 12.7766 1170 111.214 337.701 464.72
2405 0 94.2086 11.2729 1062 105.789 338.762 467.281
2406 0 97.1399 11.6224 1129 107.702 338.137 464.619
2407 0 98.1819 10.2972 1011 111.732 338.259 461.966
2408 0 103.367 11.0383 1141 109.303 337.906 457.04
2409 0 104.228 9.35452 975 113.413 338.039 454.305
2410 1 60.4212 10.3275 624 103.529 338.825 476.188
2411 0 61.3746 10.6396 653 103.913 339.047 478.488
2412 0 62.1451 10.3307 642 102.445 339.916 481.352
2413 0 65.1845 10.6467 694 101.294 338.926 480.161
2414 0 67.205 8.63032 580 104.114 339.447 481.447
2415 0 70.2701 10.2889 723 102.047 339.162 477.387
2416 0 74.2532 11.0164 818 101.035 339.119 476.358
2417 0 74.1799 10.2723 762 103.295 339.428 472.702
2418 0 78.1268 10.6238 830 103.427 339.126 473.053
2419 0 79.0962 9.69705 767 105.939 339.316 474.266
2420 0 81.1188 9.94838 807 107.116 338.82 470.934
2421 0 86.2539 10.8169 933 104.917 338.782 469.293
2422 0 90.2988 11.473 1036 104.483 338.536 467.055
2423 0 91.2361 9.79875 894 109.513 338.716 466.506
2424 0 95.2838 10.39 990 108.719 337.547 462.463
2425 0 96.3758 9.46295 912 111.697 337.942 457.43
2426 0 98.4549 9.05998 892 112.1 338.322 456.166
2427 1 56.3464 8.92693 503 105.722 338.573 480.227
2428 0 58.2599 10.23 596 102.832 338.906 478.747
2429 0 62.1356 12.4244 772 97.9249 339.624 482.426
2430 0 61.1036 11.2759 689 102.453 337.975 481.193
2431 0 63.1033 10.9345 690 104.216 338.326 481.586
2432 0 63.1336 10.8025 682 104.987 338.84 481.39
2433 0 68.0636 12.2826 836 100.923 338.207 480.494
2434 0 69.105 11.5042 795 102.371 338.236 481.062
2435 0 72.1278 11.7569 848 102.756 338.526 478.954
2436 0 74.2004 11.6441 864 103.435 337.668 479.456
2437 0 74.118 11.5222 854 105.355 338.14 478.348
2438 0 78.1436 12.669 990 102.057 338.509 477.081
2439 0 79.1464 11.9778 948 105.858 338.056 474.437
2440 0 81.0543 11.6589 945 107.781 338.871 473.675
2441 0 85.0875 12.4225 1057 106.618 339.072 471.87
2442 0 85.1506 11.8613 1010 109.767 338.459 471.27
2443 0 89.1386 12.991 1158 107.695 338.575 470.889
2444 0 90.152 11.891 1072 113.198 338.615 470.16
2445 0 94.0845 12.7757 1202 111.351 338.239 467.948
2446 0 97.2258 12.3835 1204 112.705 338.065 466.671
2447 0 98.1032 11.3554 1114 116.469 338.363 464.698
2448 1 52.1388 9.68569 505 117.511 337.731 487.103
2449 0 52.1352 9.437 492 120.449 338.26 487.565
2450 0 56.075 11.5916 650 113.6 337.614 486.885
2451 0 57.0941 11.6825 667 112.184 337.486 485.612
2452 0 58.0215 11.8232 686 112.888 337.841 484.028
2453 0 60.0653 12.2533 736 112.061 338.387 483.777
2454 0 61.0868 11.0007 672 116.141 338.463 478.188
2455 0 63.1181 12.643 798 111.614 339.011 477.281
2456 0 65.1608 11.9857 781 113.729 338.475 476.926
2457 0 67.1749 12.1921 819 113.3 338.394 475.919
2458 0 68.0923 11.8075 804 114.486 338.347 478.884
2459 0 73.1687 12.888 943 112.481 338.146 471.994
2460 0 74.1892 12.7512 946 114.071 337.975 471.72
2461 0 76.0932 12.8658 979 113.637 338.693 471.548
2462 0 77.1973 12.7077 981 114.016 338.579 471.648
2463 0 80.2424 12.5245 1005 116.286 338.411 465.591
2464 0 81.0596 11.8678 962 119.647 338.526 468.736
2465 0 85.1157 12.2187 1040 118.295 339.65 468.029
2466 0 87.163 11.4498 998 119.745 339.334 469.893
2467 0 90.0861 11.489 1035 120.463 339.953 468.288
2468 0 94.1576 12.1074 1140 118.945 340.739 467.514
2469 0 94.1942 11.3807 1072 121.218 340.506 466.76
2470 0 102.151 14.6841 1500 111.943 339.901 461.226
2471 0 101.122 12.8558 1300 117.471 340.482 462.198
2472 0 104.185 12.2762 1279 117.757 341.257 463.103
2473 0 115.281 15.8916 1832 105.683 340.144 452.466
2474 1 57.0911 10.7723 615 118.872 341.397 478.769
2475 0 59.1371 10.873 643 115.142 340.689 476.988
2476 0 61.1687 11.4928 703 104.145 340.869 477.565
2477 0 63.0878 12.6332 797 102.405 340.831 475.325
2478 0 66.0527 11.7633 777 104.179 340.779 474.29
2479 0 68.0398 11.0817 754 106.548 341.021 473.322
2480 0 69.1199 11.8634 820 105.691 339.774 471.088
2481 0 73.128 11.8559 867 105.982 339.843 469.987
2482 0 75.0939 12.491 938 105.396 339.944 468.762
2483 0 77.1261 12.6805 978 105.646 339.798 468.01
2484 0 82.1042 11.9117 978 106.984 340.472 468.021
2485 0 85.0885 13.6564 1162 109.194 341.065 469.131
2486 0 87.137 12.8648 1121 112.37 340.432 467.729
2487 0 90.1081 13.4505 1212 111.015 340.658 467.406
2488 0 92.2005 13.4273 1238 111.522 340.13 467.341
2489 0 94.1608 13.0628 1230 114.902 339.926 464.54
2490 0 99.2054 13.1848 1308 120.946 339.601 462.106
2491 0 101.178 12.6015 1275 122.973 340.469 460.224
2492 0 104.222 12.4062 1293 123.782 340.12 458.278
2493 0 106.218 12.7944 1359 123.459 340.01 456.074
2494 0 110.348 13.3214 1470 121.482 339.876 454.224
2495 0 112.264 13.4059 1505 121.693 339.092 453.798
2496 0 115.259 12.1379 1399 123.13 339.703 452.562
2497 0 120.368 12.8522 1547 116.879 339.584 446.265
2498 0 125.265 12.5574 1573 120.121 339.514 442.293
2499 0 125.265 12.5015 1566 146.677 339.504 442.223
2500 1 72.4543 12.4768 904 114.243 339.178 471.15
2501 0 75.5671 12.3996 937 113.288 339.615 473.459
2502 0 77.3904 12.831 993 111.235 339.153 470.293
2503 0 78.516 11.7683 924 115.443 339.653 470.851
2504 0 81.3507 13.1775 1072 112.096 339.734 468.4
2505 0 83.3905 12.3515 1030 115.528 339.281 464.924
2506 0 86.4394 12.4596 1077 115.776 339.433 462.271
2507 0 88.4072 12.8496 1136 115.341 339.952 462.829
2508 0 91.3089 12.0361 1099 118.166 339.747 459.912
2509 0 93.3576 13.8928 1297 114.202 339.309 459.865
2510 0 95.4778 12.537 1197 118.961 339.521 458.954
2511 0 96.2516 11.8959 1145 122.066 339.519 455.492
2512 0 102.393 12.7938 1310 118.602 340.208 454.731
2513 0 106.41 13.3164 1417 117.525 340.088 452.299
2514 0 109.336 13.463 1472 117.628 340.673 450.577
2515 0 110.341 12.2438 1351 122.053 340.186 449.539
2516 0 110.048 10.2409 1127 128.888 339.881 450.067
2517 0 115.192 10.9556 1262 126.682 339.641 447.726
2518 0 117.253 11.5648 1356 126.761 339.746 442.917
2519 0 124.221 12.1718 1512 124.019 340.316 441.956
2520 1 67.2164 10.191 685 120.876 340.454 472.134
2521 0 67.147 11.1844 751 118.703 340.771 468.959
2522 0 72.3872 11.1898 810 117.814 340.772 468.478
2523 0 72.1226 12.2708 885 120.183 340.856 464.525
2524 0 72.2584 10.7116 774 123.885 340.163 464.793
2525 0 78.3158 11.8112 925 120.188 339.411 462.533
2526 0 80.2565 11.4134 916 121.821 340.118 459.549
2527 0 86.2825 12.6793 1094 117.276 340.53 459.484
2528 0 87.2947 13.3227 1163 116.844 339.961 458.57
2529 0 86.4308 10.9336 945 126.019 340.066 455.858
2530 0 93.2293 13.2791 1238 118.696 339.957 453.957
2531 0 93.0903 11.8057 1099 122.858 339.712 450.672
2532 0 98.2891 11.7307 1153 120.518 339.291 452.134
2533 0 102.341 11.5008 1177 122.184 340.769 451.132
2534 1 52.2183 9.57518 500 116.632 340.85 475.046
2535 0 53.1153 10.8255 575 117.626 341.661 473.692
2536 0 56.1785 10.8048 607 117.315 341.717 473.156
2537 0 56.265 11.0548 622 118.659 341.868 473.818
2538 0 58.254 11.3984 664 118.244 341.904 472.148
2539 0 59.2842 10.1713 603 120.682 341.239 471.441
2540 0 63.2272 12.0992 765 115.554 342.046 469.588
2541 0 65.2276 11.7895 769 116.943 342.039 468.056
2542 0 66.1742 11.7115 775 117.312 341.739 465.957
2543 0 69.2109 12.7581 883 114.101 341.78 465.727
2544 0 70.2232 11.4634 805 118.062 342.621 464.056
2545 0 73.1403 13.1528 962 113.617 342.606 463.845
2546 0 73.1263 11.8425 866 118.415 342.018 462.276
2547 0 77.1955 13.0448 1007 115.133 342.306 462.485
2548 0 81.1891 12.9451 1051 114.577 343.095 461.26
2549 0 84.2689 12.4957 1053 115.497 342.874 461.225
2550 0 86.2167 13.3733 1153 112.526 341.965 457.488
2551 0 87.1897 11.9624 1043 116.408 342.168 456.277
2552 0 91.282 13.3761 1221 111.705 341.559 456.312
2553 0 94.3239 14.1322 1333 109.9 341.639 452.604
2554 0 96.2706 12.3714 1191 114.114 341.759 450.014
2555 0 100.384 12.4124 1246 112.741 341.453 448.185
2556 1 55.2938 8.28303 458 118.214 341.64 472.779
2557 0 56.2892 9.78874 551 114.926 341.285 474.361
2558 0 57.1428 10.5525 603 113.612 341.516 471.295
2559 0 62.2633 11.6923 728 108.9 341.161 470.794
2560 0 62.1636 12.9658 806 107.207 341.759 468.988
2561 0 65.1452 11.9732 780 108.277 341.341 467.028
2562 0 67.2012 12.6188 848 106.93 340.412 465.906
2563 0 68.2117 11.6842 797 108.93 340.674 465.449
2564 0 70.1255 12.2495 859 107.002 340.986 464.902
2565 0 74.1562 12.9591 961 103.807 341.401 463.85
2566 0 73.1452 11.9488 874 107.269 340.475 460.966
2567 0 79.1026 11.9212 943 105.078 341.169 462.156
2568 0 85.1433 13.4714 1147 100.143 340.874 460.77
2569 0 87.2059 13.061 1139 102.446 340.404 457.682
2570 0 90.3077 12.9446 1169 102.329 340.198 454.065
2571 0 92.2556 11.8367 1092 104.576 340.744 455.862
2572 0 93.1889 12.3405 1150 103.86 340.917 452.732
2573 0 98.098 11.8861 1166 104.146 340.704 452.635
2574 0 103.235 12.5829 1299 102.084 340.935 450.647
2575 0 104.151 12.8084 1334 102.96 341.172 447.632
2576 1 54.1208 9.10926 493 102.84 341.647 473.097
2577 0 56.1557 10.2928 578 99.0052 340.754 472.815
2578 0 57.2327 12.5103 716 96.0978 341.208 472.249
2579 0 60.136 10.127 609 100.422 340.768 467.888
2580 0 60.2878 11.4949 693 97.4892 341.39 470.596
2581 0 63.2074 10.3785 656 99.8735 341.073 466.985
2582 0 64.1603 10.5985 680 100.518 341.072 466.949
2583 0 72.1587 12.3201 889 94.4927 341.064 469.069
2584 0 72.1622 11.682 843 97.1803 341.409 467.862
2585 0 74.2119 11.6693 866 97.5312 341.157 466.314
2586 0 74.3418 11.0301 820 100.861 341.709 462.857
2587 0 78.3744 11.0113 863 101.105 342.093 461.417
2588 0 79.1529 11.4715 908 102.668 342.455 460.618
2589 0 86.1399 13.1414 1132 97.8604 342.304 460.863
2590 0 88.1973 11.8144 1042 101.419 341.278 460.119
2591 0 91.2292 11.5533 1054 103.359 341.656 458.278
2592 0 93.1306 11.3389 1056 104.267 341.102 455.688
2593 1 51.2584 8.64249 443 99.7178 341.228 476.46
2594 0 53.2042 9.24739 492 97.3069 341.789 477.807
2595 0 57.2534 10.2177 585 94.5248 341.405 477.26
2596 0 56.063 10.6666 598 94.2609 342.35 474.692
2597 0 56.0617 10.7917 605 94.6446 342.622 474.65
2598 0 58.0591 11.5744 672 93.8229 342.83 473.068
2599 0 58.0654 10.6776 620 96.6387 342.679 473.397
2600 0 60.0661 11.4041 685 95.8715 343.012 469.928
2601 0 62.0739 11.8568 736 95.5476 343.192 471.318
2602 0 64.0707 12.2677 786 95.556 342.308 469.556
2603 0 64.0895 11.5308 739 98.3383 342.337 468.919
2604 0 69.0487 11.5136 795 97.6679 342.075 468.633
2605 0 74.0516 13.207 978 93.6094 342.261 468.805
2606 0 74.0732 13.1222 972 95.3251 341.656 467.47
2607 0 76.0583 12.4247 945 97.8286 342.248 466.621
2608 0 78.1337 13.0801 1022 98.3229 342.671 463.037
2609 0 79.1215 12.2344 968 101.295 341.507 464.122
2610 0 85.2 13.885 1183 96.9907 341.149 460.199
2611 0 87.2271 13.7228 1197 98.751 341.636 460.551
2612 0 89.1656 14.0189 1250 99.424 341.171 460.399
2613 0 95.2232 12.5915 1199 101.906 341.636 458.696
2614 0 97.1342 13.5791 1319 101.871 341.712 458.277
2615 0 101.129 13.8437 1400 105.869 341.871 457.113
2616 0 100.293 13.5603 1360 109.157 342.296 453.868
2617 0 108.384 15.7772 1710 101.868 341.526 452.69
2618 0 112.386 14.4502 1624 105.569 340.914 451.697
2619 1 62.2747 12.7339 793 104.144 341.391 475.41
2620 0 66.09 11.3028 747 105.474 341.438 476.104
2621 0 68.1211 12.4925 851 102.557 340.59 475.21
2622 0 65.1128 11.6721 760 100.218 340.991 471.795
2623 0 71.1096 11.8409 842 98.2316 341.169 472.463
2624 0 74.195 12.8715 955 97.0932 341.036 470.637
2625 0 76.0638 11.7139 891 100.645 341.111 470.633
2626 0 78.1773 13.0728 1022 99.0186 340.733 468.042
2627 0 82.3589 12.2998 1013 101.152 340.834 469.999
2628 0 84.1802 12.2119 1028 103.771 340.256 466.421
2629 0 87.2107 12.9342 1128 103.383 340.624 463.071
2630 0 92.3636 12.8297 1185 105.107 340.467 464.453
2631 0 93.3284 13.9186 1299 105.261 340.657 462.516
2632 0 97.3825 13.7704 1341 105.512 340.392 459.944
2633 0 101.221 13.2186 1338 107.144 339.651 459.646
2634 1 50.2307 9.99388 502 104.972 340.285 484.187
2635 0 54.2106 9.59222 520 105.223 339.946 483.433
2636 0 56.1395 10.937 614 99.7704 340.831 480.668
2637 0 57.2297 11.2529 644 101.036 340.713 479.488
2638 0 58.2146 11.8871 692 99.9436 340.444 479.475
2639 0 60.2696 12.5271 755 99.5629 340.331 478.971
2640 0 61.107 12.6499 773 100.7 340.092 478.021
2641 0 63.1233 12.6578 799 101.368 340.252 476.526
2642 0 64.1225 11.9927 769 104.507 340.925 474.104
2643 0 67.1523 12.077 811 102.856 339.873 475.206
2644 0 71.1326 12.9898 924 101.577 339.96 473.38
2645 0 73.101 12.257 896 104.605 339.703 471.773
2646 0 75.2394 13.1713 991 103.026 339.309 470.513
2647 0 76.0864 13.9052 1058 102.878 339.302 467.61
2648 0 78.1778 12.6634 990 106.384 339.486 469.366
2649 0 81.1368 13.4834 1094 104.02 339.895 467.22
2650 0 84.0957 13.9246 1171 103.139 339.363 465.715
2651 0 85.2165 12.3098 1049 107.384 339.538 464.566
2652 0 87.0645 12.7377 1109 106.537 339.843 461.729
2653 0 88.1598 11.9215 1051 109.45 338.823 461.761
2654 0 90.1816 11.8428 1068 109.444 339.375 460.843
2655 0 95.0548 12.2456 1164 107.865 339.557 459.229
2656 0 99.0617 12.3458 1223 107.105 338.768 458.368
2657 0 105.085 12.9038 1356 104.637 339.517 453.857
2658 0 107.101 13.52 1448 103.006 339.166 451.816
2659 0 112.191 14.0474 1576 100.799 339.615 451.4
2660 0 115.116 12.6134 1452 103.185 339.567 449.288
2661 1 62.2155 12.4567 775 101.654 338.951 479.485
2662 0 63.0349 12.4693 786 103.134 340.114 476.971
2663 0 66.0667 12.4722 824 101.893 340.377 476.278
2664 0 67.1283 13.5412 909 100.837 339.383 473.773
2665 0 69.0398 12.3986 856 102.22 339.611 476.411
2666 0 71.1296 14.0729 1001 99.3586 339.727 472.512
2667 0 73.1139 13.2943 972 100.582 339.562 469.587
2668 0 74.125 13.7875 1022 98.9481 339.778 471.929
2669 0 77.2172 13.9606 1078 98.0074 339.217 467.922
2670 0 81.1768 13.6246 1106 99.1899 339.537 468.071
2671 0 84.1896 13.8259 1164 99.2912 339.075 465.08
2672 0 85.2044 13.9782 1191 100.019 339.88 463.646
2673 0 87.1935 13.5216 1179 101.205 339.485 462.71
2674 0 88.1888 13.3577 1178 132.349 338.487 462.715
2675 0 89.1107 11.3903 1015 107.116 339.246 460.659
2676 0 96.2822 12.4841 1202 103.541 339.27 459.207
2677 0 100.323 12.7189 1276 103.443 339.935 456.369
2678 1 56.0446 11.8834 666 102.165 340.098 480.254
2679 0 58.2343 11.282 657 100.658 339.198 478.294
2680 0 56.2485 10.098 568 104.771 339.616 478.084
2681 0 61.1708 11.4597 701 100.973 339.923 479.225
2682 0 64.0534 12.6769 812 97.4902 340.905 479.605
2683 0 65.1685 11.8462 772 100.339 340.74 476.207
2684 0 69.1686 14.1683 980 94.6041 340.696 475.738
2685 0 70.1511 13.2428 929 98.1701 340.493 473.768
2686 0 74.2073 13.4353 997 97.5858 340.206 473.304
2687 0 77.1286 14.8064 1142 95.3485 338.843 473.675
2688 0 76.4003 13.0497 997 100.606 338.952 472.473
2689 0 78.2957 12.7338 997 102.605 338.785 466.333
2690 0 82.2886 13.4648 1108 101.142 339.046 465.858
2691 0 85.3532 14.1412 1207 100.875 339.511 464.209
2692 0 85.3804 12.7078 1085 105.562 339.054 463.483
2693 0 88.3148 13.5991 1201 104.058 338.868 462.07
2694 0 95.5813 14.2183 1359 101.6 338.981 461.185
2695 0 96.4301 14.0309 1353 103.15 338.914 459.284
2696 0 97.3293 13.7677 1340 105.113 338.59 454.778
2697 0 100.527 12.325 1239 108.634 339.052 453.744
2698 1 55.4276 9.6342 534 110.376 338.82 478.974
2699 0 58.1976 12.5091 728 105.494 339.852 475.865
2700 0 59.2347 13.4212 795 105.055 339.914 476.091
2701 0 61.1696 12.0485 737 106.996 340.106 473.674
2702 0 63.1676 11.9998 758 106.313 340.173 472.847
2703 0 65.2088 13.3418 870 102.77 340.209 471.177
2704 0 67.1416 12.5258 841 102.518 341.149 472
2705 0 70.0877 13.7827 966 99.4234 340.299 470.506
2706 0 69.0699 12.1326 838 104.447 339.204 468.124
2707 0 73.1448 13.4801 986 100.617 339.663 468.77
2708 0 75.0879 12.7717 959 101.824 339.379 468.542
2709 0 77.0476 11.9796 923 104.2 340.182 465.295
2710 0 79.0864 12.9352 1023 101.726 340.161 465.607
2711 0 81.2854 12.1916 991 102.78 340.065 464.584
2712 0 85.3295 12.8678 1098 100.696 339.891 461.54
2713 0 88.1573 12.6705 1117 101.625 339.998 459.061
2714 0 92.2332 13.9971 1291 98.3075 340.289 458.459
2715 0 94.178 12.625 1189 101.666 339.865 458.591
2716 0 96.2282 11.93 1148 103.951 339.965 454.291
2717 0 99.3712 12.1262 1205 102.643 339.82 453.814
2718 0 104.348 12.8512 1341 101.175 340.014 453.792
2719 0 106.157 11.6808 1240 103.311 340.54 453.91
2720 0 107.269 12.6132 1353 102.305 339.806 449.928
2721 0 114.237 11.6337 1329 103.465 340.335 447.558
2722 0 120.304 12.751 1534 100.614 340.019 447.786
2723 0 124.355 11.8129 1469 102.839 340.672 444.25
2724 0 128.526 12.0287 1546 103.734 339.695 443.752
2725 1 70.3521 11.7836 829 103.304 339.984 466.561
2726 0 73.3051 11.4726 841 102.83 340.673 468.841
2727 0 74.4035 12.6607 942 101.523 340.569 463.5
2728 0 76.2557 12.3663 943 101.775 339.446 462.192
2729 0 78.4596 12.0062 942 103.038 339.534 461.877
2730 0 81.1853 12.1697 988 103.486 340.365 463.313
2731 0 87.487 13.682 1197 98.9131 340.693 460.921
2732 0 89.3809 13.5488 1211 100.791 340.797 455.983
2733 0 92.2334 11.807 1089 104.609 339.861 457.247
2734 0 96.2771 14.2921 1376 99.2827 340.154 455.917
2735 0 99.337 12.7042 1262 103.845 340.082 451.397
2736 0 102.37 14.2718 1461 100.747 339.535 451.65
2737 0 107.262 13.3599 1433 103.029 339.657 451.396
2738 0 109.383 12.3693 1353 106.05 340.032 451.681
2739 0 112.234 13.4451 1509 104.652 339.89 447.999
2740 0 116.236 14.3243 1665 103.437 340.944 447.942
2741 0 119.258 13.3073 1587 106.881 339.9 442.865
2742 0 123.189 12.6878 1563 108.516 340.244 441.878
2743 0 129.26 12.8037 1655 107.509 340.242 439.067
2744 0 137.255 15.0669 2068 100.975 340.565 440.08
2745 0 138.411 12.5712 1740 110.726 340.678 437.232
2746 0 144.347 12.844 1854 112.812 340.094 431.636
2747 0 151.423 13.1089 1985 111.987 340.015 431.255
2748 1 84.2626 12.0575 1016 112.74 340.631 459.738
2749 0 88.2423 13.6329 1203 109.829 340.714 458.924
2750 0 89.1852 12.4796 1113 112.847 340.677 459.791
2751 0 93.1566 12.3341 1149 114.385 341.196 454.978
2752 0 96.3496 12.984 1251 112.934 341.317 456.458
2753 0 99.1571 13.0399 1293 114.387 340.681 454.503
2754 0 102.382 13.7915 1412 113.429 340.85 450.96
2755 0 104.29 13.405 1398 116.243 340.921 450.383
2756 0 109.284 13.991 1529 115.541 340.757 448.553
2757 0 111.213 13.0381 1450 119.341 340.382 444.79
2758 0 116.236 13.051 1517 118.011 340.12 446.188
2759 0 119.116 12.9285 1540 119.501 340.563 444.595
2760 0 119.094 12.9981 1548 121.919 340.751 438.277
2761 0 128.314 13.085 1679 119.143 341.39 441.173
2762 1 68.1878 9.9138 676 114.635 342.203 470.683
2763 0 69.1637 10.1354 701 116.168 341.715 467.611
2764 0 69.1128 10.8663 751 116.818 340.98 464.415
2765 0 75.1555 11.4296 859 109.568 341.35 465.332
2766 0 79.1218 11.9815 948 109.389 341.677 464.054
2767 0 78.1062 11.574 904 114.147 341.237 463.393
2768 0 84.0844 13.7957 1160 109.109 341.049 460.466
2769 0 84.1706 11.6905 984 116.303 341.234 457.533
2770 0 90.1128 12.1736 1097 114.685 341.599 458.738
2771 0 90.0717 11.8461 1067 115.717 340.243 456.68
2772 0 93.2926 12.8628 1200 114.947 339.675 451.065
2773 0 96.215 12.4409 1197 117.295 339.932 451.257
2774 0 98.1822 11.8046 1159 119.474 339.748 449.855
2775 0 104.168 13.5262 1409 114.042 340.117 451.668
2776 0 106.37 13.312 1416 115.966 339.111 447.59
2777 0 108.253 12.9511 1402 116.431 339.882 449.275
2778 0 112.305 13.3476 1499 114.74 339.946 448.234
2779 0 114.383 13.1313 1502 115.836 339.569 444.327
2780 0 121.524 12.6312 1535 116.003 339.526 443.148
2781 1 65.273 11.1072 725 105.566 340.859 475.102
2782 0 66.2655 9.3563 620 109.665 340.276 472.723
2783 0 72.3014 10.8573 785 103.289 340.417 476.345
2784 0 73.3793 12.0197 882 101.382 340.605 472.865
2785 0 77.3347 11.7541 909 101.828 339.982 471.759
2786 0 78.3035 12.7453 998 101.963 340.735 467.343
2787 0 79.2545 11.0278 874 106.582 340.356 467.079
2788 0 84.1183 12.4349 1046 102.172 339.075 469.717
2789 0 87.1555 11.5655 1008 103.153 339.354 469.557
2790 0 86.103 10.6036 913 106.455 339.877 466.381
2791 0 91.1364 11.5322 1051 112.163 338.892 466.344
2792 0 94.2728 10.4908 989 114.145 338.916 465.071
2793 0 98.2666 11.5299 1133 112.094 339.005 462.677
2794 0 100.225 10.1672 1019 114.982 339.381 460.733
2795 0 104.272 10.7891 1125 113.127 339.243 461.771
2796 0 106.325 10.9099 1160 113.81 339.912 457.165
2797 1 62.1528 11.3913 708 106.301 338.905 482.23
2798 0 63.24 9.51929 602 111.347 339.548 480.44
2799 0 66.2128 12.7921 847 104.528 339.582 476.708
2800 0 61.1296 10.8622 664 107.373 340.542 470.547
2801 0 65.1377 8.76605 571 111.233 339.618 470.135
2802 0 70.088 11.6853 819 100.305 340.603 470.725
2803 0 74.0609 10.964 812 101.904 340.688 471.464
2804 0 76.2227 11.2171 855 101.261 341.14 475.768
2805 0 75.0751 9.98999 750 104.256 341.369 475.332
2806 0 81.1344 12.3499 1002 99.3673 341.184 472.907
2807 0 81.0853 10.4211 845 103.809 340.851 473.211
2808 0 84.1976 10.9267 920 104.616 339.94 470.718
2809 0 87.2907 12.1662 1062 102.445 340.358 469.964
2810 0 95.1636 14.7956 1408 94.1875 340.862 463.52
2811 0 100.106 14.8143 1483 93.7741 340.833 464.262
2812 0 98.2195 13.1135 1288 101.133 339.921 463.158
2813 0 101.222 10.8771 1101 106.583 340.114 464.693
2814 0 101.177 10.6249 1075 107.945 340.431 461.607
2815 0 108.224 12.7976 1385 102.029 340.474 460.503
2816 0 114.225 13.8674 1584 98.9905 339.312 453.885
2817 1 64.1705 10.7838 692 101.889 340.818 481.399
2818 0 65.1818 11.046 720 103.354 340.519 480.549
2819 0 67.1134 10.9814 737 102.318 339.711 476.605
2820 0 67.2077 11.7695 791 100.705 339.571 480.07
2821 0 70.1266 11.7502 824 100.089 340.256 481.239
2822 0 74.1686 12.566 932 97.6813 339.629 477.802
2823 0 75.1609 13.1984 992 92.8942 340.817 477.709
2824 0 79.1212 12.0069 950 96.321 339.931 476.478
2825 0 80.0706 13.638 1092 93.848 339.449 473.075
2826 0 82.0813 12.4998 1026 96.8148 340.057 474.028
2827 0 84.2279 12.0269 1013 94.9566 340.297 470.288
2828 0 86.2154 12.5732 1084 94.0821 339.653 468.653
2829 0 89.2101 11.6803 1042 96.9175 339.781 467.923
2830 0 92.157 12.4136 1144 95.868 339.177 465.364
2831 0 92.1977 11.8007 1088 98.6526 339.519 466.181
2832 0 95.2104 12.6982 1209 98.2159 339.332 462.701
2833 0 100.111 13.2253 1324 96.1873 338.829 464.02
2834 0 101.075 12.466 1260 99.7373 339.04 459.163
2835 0 106.191 13.3251 1415 97.4311 338.643 459.43
2836 0 109.143 13.0929 1429 99.1337 338.591 456.441
2837 0 112.139 12.8323 1439 100.591 338.59 454.617
2838 1 65.14 10.8382 706 98.8428 339.28 480.214
2839 0 64.0914 9.7673 626 104.992 338.367 478.331
2840 0 66.0723 10.3069 681 105.291 338.702 475.138
2841 0 70.0924 12.0698 846 100.134 338.892 473.861
2842 0 72.1843 12.385 894 99.3456 339.529 474.771
2843 0 73.1241 11.7198 857 101.397 339.021 472.623
2844 0 76.1622 12.3946 944 100.5 338.812 470.751
2845 0 77.1891 11.7892 910 101.996 338.606 469
2846 0 79.2455 11.7862 934 102.135 338.359 468.536
2847 0 83.3004 12.1008 1008 100.746 338.814 467.589
2848 0 86.1483 12.7339 1097 99.2142 339.191 466.016
2849 0 88.075 11.8422 1043 101.504 339.29 464.812
2850 0 92.1101 12.2571 1129 100.627 338.387 458.669
2851 0 94.2398 10.5157 991 104.201 338.152 458.622
2852 0 99.3809 12.4068 1233 100.161 339.034 458.651
2853 0 101.178 9.93298 1005 105.479 338.273 455.623
2854 0 107.244 11.7116 1256 101.559 337.978 454.748
2855 1 57.0511 9.04453 516 94.9593 338.211 481.407
2856 0 59.0437 9.02721 533 96.2101 338.659 478.42
2857 0 60.0709 10.5042 631 95.3597 338.515 476.666
2858 0 60.0395 11.5924 696 93.4238 339.389 476.654
2859 0 67.0309 11.9646 802 91.1608 339.652 476.009
2860 0 67.1204 10.2651 689 95.8563 339.09 474.077
2861 0 70.1334 11.2785 791 94.2655 339.315 473.723
2862 0 70.0721 10.7889 756 96.3664 338.888 471.242
2863 0 77.106 12.6968 979 91.3984 338.809 471.399
2864 0 77.3282 11.3542 878 95.5342 339.095 468.31
2865 0 80.1727 12.5105 1003 93.4945 337.974 471.706
2866 0 81.1634 12.1114 983 95.1088 338.629 469.887
2867 0 83.2242 12.4483 1036 96.501 338.456 466.02
2868 0 86.1689 12.5335 1080 97.0602 338.497 466.841
2869 0 88.1048 11.9517 1053 98.8063 339.465 465.591
2870 0 88.1238 11.2115 988 101.399 338.523 463.296
2871 0 91.209 12.1589 1109 99.9369 338.28 463.096
2872 0 95.1861 12.2707 1168 100.191 338.146 461.055
2873 0 98.1034 12.4257 1219 100.596 338.09 462.327
2874 0 100.129 12.9733 1299 102.841 338.406 457.147
2875 0 101.162 11.6843 1182 108.84 338.417 456.368
2876 0 103.16 11.2932 1165 111.421 338.579 455.606
2877 0 107.118 11.5947 1242 111.053 338.403 454.205
2878 0 113.069 12.5499 1419 107.665 338.691 450.811
2879 1 62.128 9.36776 582 106.21 338.868 477.132
2880 0 65.0703 12.0024 781 106.849 338.533 474.081
2881 0 66.1786 11.9072 788 112.058 338.108 472.518
2882 0 71.3457 12.04 859 109.12 339.134 471.542
2883 0 71.0976 11.6882 831 111.947 338.903 469.136
2884 0 73.1501 11.948 874 111.874 338.971 470.388
2885 0 76.2133 13.4622 1026 109.046 339.388 468.557
2886 0 80.195 13.0307 1045 110.365 339.551 467.472
2887 0 81.1678 11.5563 938 116.377 338.761 465.14
2888 0 84.1627 12.7966 1077 113.915 339.032 464.946
2889 0 83.1456 12.6285 1050 114.653 338.828 461.815
2890 0 87.1806 11.9751 1044 119.153 339.021 460.209
2891 0 92.1276 13.6441 1257 113.8 338.199 459.612
2892 0 94.1676 12.3291 1161 116.127 338.014 458.778
2893 0 95.1643 12.9986 1237 116.886 338.297 458.88
2894 0 98.3185 13.4868 1326 116.504 338.02 456.441
2895 0 102.336 13.2407 1355 117.758 337.955 453.64
2896 0 107.388 13.4652 1446 116.431 338.119 454.091
2897 0 108.429 13.3544 1448 118.474 337.901 452.539
2898 0 113.272 13.0924 1483 119.307 337.813 450.088
2899 0 123.26 15.4307 1902 110.137 338.118 445.195
2900 1 67.2463 10.5433 709 118.488 338.346 473.773
2901 0 70.2471 11.1037 780 116.049 337.895 474.186
2902 0 71.1356 11.2461 800 115.311 339.3 469.09
2903 0 74.1727 11.1631 828 114.891 339.255 469.284
2904 0 78.1565 11.4002 891 114.908 338.617 470.604
2905 0 82.1885 14.0166 1152 108 338.705 468.174
2906 0 83.1359 11.9684 995 112.22 338.592 465.882
2907 0 85.1059 12.1613 1035 113.016 338.878 463.78
2908 0 89.1886 12.7146 1134 110.696 339.418 465.65
2909 0 90.1803 11.976 1080 114.386 339.451 461.353
2910 0 92.1863 12.0842 1114 114.383 339.244 459.928
2911 0 95.2369 11.9911 1142 115.469 338.874 459.558
2912 0 99.2122 13.7785 1367 111.237 338.298 454.332
2913 0 102.243 12.9594 1325 114.42 338.909 455.292
2914 0 105.194 12.3962 1304 116.341 338.795 456.2
2915 0 113.18 12.3078 1393 117.875 338.459 460.192
2916 1 60.0804 12.1837 732 112.572 338.583 481.273
2917 0 61.0803 10.5435 644 116.648 338.385 481.306
2918 0 65.0483 13.2363 861 110.847 338.167 480.102
2919 0 65.1304 11.3925 742 118.133 340.799 482.321
2920 0 68.0719 12.3987 844 116.851 339.988 480.944
2921 0 69.1592 13.0568 903 117.007 339.578 478.827
2922 0 71.0808 13.7449 977 115.838 339.87 477.052
2923 0 72.0293 12.7726 920 120.011 339.513 476.953
2924 0 75.0863 12.8785 967 120.485 339.715 473.513
2925 0 77.1591 13.3361 1029 120.25 339.201 473.847
2926 0 80.1309 14.1893 1137 118.501 339.931 472.062
2927 0 83.2105 12.7388 1060 121.925 339.472 471.351
2928 0 83.2149 13.0746 1088 124.164 338.385 465.551
2929 0 87.2624 14.21 1240 120.88 338.457 464.898
2930 0 89.2373 13.7498 1227 123.141 338.394 465.483
2931 0 93.1228 14.8084 1379 120.821 338.473 463.041
2932 0 94.1834 14.0683 1325 122.961 337.763 458.31
2933 0 97.0702 14.4741 1405 122.121 337.91 455.604
2934 0 101.186 14.241 1441 121.924 338.761 460
2935 0 105.223 14.455 1521 121.638 338.531 458.279
2936 0 105.144 14.3613 1510 121.596 338.525 453.954
2937 1 59.0657 10.446 617 123.259 338.6 475.365
2938 0 62.2131 10.898 678 120.953 339.006 475.031
2939 0 65.1155 11.3491 739 120.252 339.576 470.58
2940 0 67.0585 12.0641 809 117.557 338.583 470.808
2941 0 68.1231 12.1838 830 118.429 338.924 469.337
2942 0 71.1108 11.6438 828 119.86 339.05 468.203
2943 0 76.2485 11.8166 901 117.766 338.383 468.869
2944 0 76.1729 12.2747 935 117.553 338.734 465.255
2945 0 80.1915 11.909 955 117.738 338.04 464.569
2946 0 81.3303 12.0496 980 118.587 337.521 461.448
2947 0 86.1918 12.2866 1059 114.646 337.936 464.353
2948 0 90.3429 11.9987 1084 116.887 337.769 459.329
2949 0 92.2493 11.4147 1053 112.606 338.32 461.146
2950 0 96.1094 12.0488 1158 111.764 337.892 460.421
2951 0 99.1489 13.2528 1314 109.06 337.928 456.916
2952 0 101.122 12.0152 1215 111.671 338.239 459.072
2953 0 103.26 12.115 1251 111.65 337.874 457.173
2954 0 104.147 11.0229 1148 115.617 337.493 454.796
2955 0 110.204 12.0775 1331 114.092 337.146 454.197
2956 0 113.245 12.7335 1442 112.678 337.735 452.652
2957 0 118.178 12.7688 1509 113.313 338.091 452.311
2958 0 122.206 12.3644 1511 117.261 337.717 446.997
2959 0 123.263 11.7148 1444 119.56 337.895 445.69
2960 1 67.106 9.64147 647 111.199 339.323 474.49
2961 0 66.2327 8.56072 567 118.028 338.346 469.676
2962 0 74.1287 11.3316 840 107.875 338.838 473.252
2963 0 74.2058 11.3468 842 109.88 339.325 469.325
2964 0 75.1436 10.4467 785 112.589 338.874 470.003
2965 0 78.0777 11.591 905 112.113 339.222 466.773
2966 0 80.1846 11.4985 922 112.078 338.773 468.133
2967 0 83.0822 12.1687 1011 111.492 339.067 467.821
2968 0 85.1012 11.7507 1000 114.852 338.808 466.337
2969 0 89.2022 12.3988 1106 112.703 338.8 467.239
2970 0 89.1925 11.3799 1015 117.146 339.638 463.165
2971 0 93.1764 11.827 1102 116.149 339.298 461.11
2972 0 97.186 12.7488 1239 112.814 339.397 460.914
2973 0 98.2334 11.2589 1106 118.043 338.992 456.174
2974 0 102.226 12.3159 1259 114.67 339.207 455.264
2975 0 105.087 12.9132 1357 113.707 339.038 456.322
2976 0 108.195 11.8582 1283 117.09 339.087 455.723
2977 0 108.218 12.0774 1307 118.214 339.029 453.22
2978 0 113.149 12.0372 1362 118.797 339.361 452.825
2979 0 116.318 12.4057 1443 118.888 338.778 449.715
2980 0 117.137 11.1493 1306 123.296 338.215 452.071
2981 0 124.195 12.0214 1493 120.705 338.204 444.727
2982 0 127.256 12.298 1565 120.569 338.361 445.773
2983 0 132.243 12.4241 1643 121.215 338.42 441.813
2984 0 138.132 12.2419 1691 123.778 338.296 434.982
2985 1 81.1994 11.7858 957 120.656 338.508 469.019
2986 0 81.1054 11.8365 960 123.117 338.347 468.024
2987 0 86.1318 11.8771 1023 122.588 338.782 468.741
2988 0 89.061 13.2493 1180 119.43 338.808 467.249
2989 0 92.0817 11.8808 1094 122.633 339.335 464.531
2990 0 94.057 11.6844 1099 123.17 338.786 464.136
2991 0 97.1042 12.5226 1216 120.924 338.905 460.166
2992 0 98.0566 11.7381 1151 123.661 338.785 459.008
2993 0 104.183 13.0444 1359 119.082 337.929 457.579
2994 0 104.127 12.1582 1266 122.333 338.724 453.445
2995 0 108.115 13.3746 1446 118.202 338.619 450.532
2996 0 111.182 13.1856 1466 117.48 338.175 446.404
2997 0 115.217 12.3593 1424 118.052 337.565 443.467
2998 0 121.18 12.502 1515 116.1 336.947 442.42
2999 1 66.2297 9.27077 614 114.928 337.347 472.726
3000 0 69.1728 10.0907 698 114.991 336.841 469.261
3001 0 70.0895 11.2142 786 112.266 337.144 465.99
3002 0 73.2586 10.8247 793 113.777 336.943 468.315
3003 0 74.1898 10.6484 790 115.156 337.658 463.544
3004 0 79.1995 11.6794 925 112.37 337.284 464.651
3005 0 81.1901 12.3907 1006 110.055 337.128 463.295
3006 0 83.25 12.3243 1026 109.696 337.035 460.028
3007 0 86.2864 10.1754 878 114.282 337.78 460.408
3008 0 89.1357 11.8247 1054 110.628 337.798 461.233
3009 0 94.1995 10.223 963 113.767 337.286 457.752
3010 0 100.143 12.8915 1291 107.576 336.85 456.122
3011 0 102.257 12.6348 1292 108.321 337.626 457.23
3012 0 106.209 12.5601 1334 108.372 337.022 456.145
3013 0 108.216 12.0315 1302 110.888 337.919 451.813
3014 0 111.133 14.0283 1559 106.457 338.024 450.53
3015 0 115.201 12.8037 1475 109.513 337.728 448.73
3016 1 61.1832 9.61049 588 108.73 338.298 473.714
3017 0 65.0303 10.7181 697 110.453 339.499 476.997
3018 0 70.0728 12.9294 906 107.936 340.219 478.856
3019 0 69.0645 12.2349 845 111.486 340.32 476.737
3020 0 71.0579 11.9761 851 112.924 340.081 477.736
3021 0 72.0566 11.033 795 115.713 339.187 476.287
3022 0 77.0753 12.2737 946 112.603 339.552 474.872
3023 0 79.2347 12.7722 1012 112.923 339.28 471.411
3024 0 83.1158 12.8736 1070 112.256 338.97 472.315
3025 0 83.1807 11.6253 967 116.239 338.321 473.072
3026 0 86.1758 12.5441 1081 115.565 339.118 470.235
3027 0 88.2605 12.2478 1081 116.679 339.135 467.736
3028 0 93.203 13.5189 1260 112.827 339.117 470.393
3029 0 93.2813 13.336 1244 116.449 338.104 464.2
3030 0 97.4218 13.7444 1339 115.095 338.019 460.771
3031 0 102.439 14.3793 1473 112.007 337.648 461.561
3032 0 103.32 12.9307 1336 116.435 337.039 460.696
3033 0 105.203 10.8362 1140 110.192 338.056 459.017
3034 0 110.208 12.5036 1378 107.708 338.131 457.981
3035 0 112.207 11.6837 1311 110.998 338.438 456.52
3036 0 117.205 12.8578 1507 108.309 338.027 454.262
3037 0 119.15 11.2631 1342 112.393 337.759 450.329
3038 0 125.178 11.9909 1501 110.171 338.905 450.887
3039 0 130.164 13.0144 1694 107.783 338.259 450.645
3040 1 70.1126 10.9396 767 102.711 338.51 478.585
3041 0 74.3373 12.4567 926 98.8726 338.564 475.752
3042 0 77.0956 13.4898 1040 107.75 337.284 471.062
3043 0 80.0892 12.2863 984 101.484 338.972 471.016
3044 0 81.1559 12.1125 983 101.766 339.509 472.973
3045 0 85.0778 12.9411 1101 100.359 339.359 473.191
3046 0 87.1082 12.1917 1062 98.0377 339.283 473.438
3047 0 88.0974 13.5645 1195 99.5774 339.1 471.957
3048 0 89.0713 12.8436 1144 105.038 338.953 472.72
3049 0 88.1036 13.7111 1208 95.3187 339.536 472.238
3050 0 90.0828 14.2424 1283 99.9501 340.397 465.882
3051 0 93.1446 15.0304 1400 99.8393 339.807 467.231
3052 0 92.2143 13.7181 1265 104.369 339.358 466.943
3053 0 93.1071 13.4898 1256 105.728 338.356 470.301
3054 0 94.1118 12.9208 1216 106.731 339.506 469.438
3055 0 95.2506 12.5354 1194 107.745 339.4 466.591
3056 0 99.0832 12.9083 1279 106.167 339.551 465.102
3057 0 102.186 13.2015 1349 104.683 339.055 462.815
3058 0 106.162 12.8294 1362 104.576 338.733 462.561
3059 0 109.139 11.8931 1298 106.008 339.18 461.161
3060 0 110.107 12.715 1400 104.383 338.834 458.914
3061 0 114.151 11.8702 1355 105.154 339.002 458.264
3062 0 121.217 13.6285 1652 100.068 338.969 449.86
3063 0 122.212 12.7974 1564 103.996 338.198 452.111
3064 0 127.297 13.9674 1778 102.966 338.221 450.537
3065 0 131.317 14.0347 1843 108.234 337.797 445.046
3066 1 69.2075 11.4727 794 109.307 338.433 477.384
3067 0 73.3426 13.4165 984 109.057 337.249 475.699
3068 0 75.1935 12.9533 974 106.281 338.246 468.773
3069 0 79.2144 12.8512 1018 105.74 339.097 470.666
3070 0 79.2323 13.2396 1049 106.971 338.282 469.442
3071 0 82.2786 13.6974 1127 106.974 337.799 468.663
3072 0 84.2573 13.6605 1151 108.301 338.2 468.831
3073 0 86.2296 13.3597 1152 110.165 337.925 468.145
3074 0 87.377 13.436 1174 112.053 338.626 466.761
3075 0 91.1642 14.3697 1310 110.623 338.306 463.318
3076 0 92.2902 14.5953 1347 112.569 338.333 462.549
3077 0 94.2664 13.2285 1247 118.339 337.868 463.982
3078 0 99.2841 14.0405 1394 114.478 337.751 463.268
3079 0 101.278 13.5962 1377 118.923 338.195 459.837
3080 0 103.32 11.3821 1176 124.689 338.112 459.287
3081 1 56.0733 12.2518 687 116.125 338.322 486.678
3082 0 58.0911 13.5821 789 114.401 338.385 484.46
3083 0 58.0704 13.0876 760 113.882 338.833 482.47
3084 0 60.016 12.0968 726 113.57 338.654 485.194
3085 0 61.0597 12.2012 745 115.671 338.279 480.64
3086 0 64.171 13.4017 860 112.405 338.851 481.187
3087 0 66.1807 15.0799 998 108.78 338.099 480.473
3088 0 69.0601 12.3226 851 115.214 338.879 478.818
3089 0 70.0897 11.5138 807 118.652 339.166 474.214
3090 1 82.0491 19.9393 1636 92.6791 338.411 470.152
3091 0 83.2301 18.8153 1566 95.7414 338.784 469.838
3092 0 84.1198 18.3667 1545 99.8175 339.289 468.452
3093 0 82.2071 15.4366 1269 109.462 338.89 469.564
3094 0 92.105 17.6646 1627 99.3669 339.087 465.451
3095 0 93.1726 19.2653 1795 96.7176 338.745 465.233
3096 0 90.0943 15.5948 1405 109.26 338.494 467.216
3097 0 95.1919 15.5475 1480 109.223 339.031 465.345
3098 0 95.1543 13.683 1302 115.19 338.526 464.423
3099 0 101.348 18.2145 1846 102.431 339.037 455.65
3100 1 52.07 11.158 581 113.332 339.761 486.704
3101 0 54.1988 11.6054 629 113.232 340.251 485.073
3102 0 53.18 11.5081 612 114.941 339.394 482.085
3103 0 57.1144 13.4642 769 109.099 340.147 482.078
3104 0 58.0829 12.706 738 112.237 339.77 481.824
3105 0 62.1092 14.2169 883 107.52 340.402 479.706
3106 0 63.1591 13.7747 870 108.575 340.434 478.845
3107 0 65.1218 12.9143 841 111.074 339.624 479.177
3108 0 68.1971 13.3144 908 110.108 339.369 477.438
3109 0 69.1391 12.9739 897 112 339.795 472.53
3110 0 74.1411 12.6515 938 111.773 339.021 466.511
3111 0 75.151 13.0271 979 110.659 338.919 471.213
3112 0 77.1691 13.6065 1050 109.825 340.048 471.608
3113 0 80.271 12.9935 1043 111.398 339.568 468.313
3114 0 82.2812 13.8428 1139 108.105 339.298 469.452
3115 0 86.1456 13.9415 1201 108.266 339.406 465.592
3116 0 88.1169 13.7998 1216 108.912 339.506 463.849
3117 0 90.1669 11.878 1071 112.897 338.987 463.819
3118 0 94.2142 12.6945 1196 110.364 338.593 462.733
3119 0 98.2162 12.4419 1222 110.396 339.344 461.764
3120 0 100.179 12.6374 1266 110.075 339.05 459.471
3121 0 108.208 14.8325 1605 102.843 339.168 451.976
3122 0 111.224 14.4484 1607 105.078 338.633 454.854
3123 0 113.181 12.0604 1365 110.404 338.708 456.999
3124 0 118.114 12.2001 1441 109.963 338.684 455.657
3125 1 49.0598 10.7624 528 103.811 339.994 486.597
3126 0 53.0657 11.5517 613 103.418 338.475 482.176
3127 0 55.172 12.7964 706 104.441 338.436 480.831
3128 0 57.0628 12.8806 735 105.812 337.737 477.031
3129 0 59.0798 11.8653 701 107.522 337.655 474.573
3130 0 60.0961 12.4966 751 107.12 337.615 475.925
3131 0 62.1465 12.5671 781 107.594 338.437 476.81
3132 0 65.14 11.6979 762 109.735 338.499 475.017
3133 0 67.2567 12.088 813 108.632 339.164 475.739
3134 0 68.5047 13.3422 914 105.764 339.06 476.803
3135 0 69.1769 13.1402 909 107.968 339.295 474.525
3136 0 70.222 12.7595 896 110.644 339.596 471.771
3137 0 71.1894 11.9821 853 113.147 340.079 469.25
3138 0 76.259 13.0608 996 109.301 339.703 469.604
3139 0 77.2616 13.0207 1006 109.41 340.042 470.661
3140 0 78.1558 12.0273 940 111.529 339.8 470.115
3141 0 82.1189 12.6646 1040 109.236 339.935 470.969
3142 0 86.0761 13.7553 1184 107.231 339.449 464.347
3143 0 91.1323 15.7463 1435 100.502 340.006 462.657
3144 0 90.1439 14.7764 1332 104.971 340.061 462.01
3145 0 92.1445 12.8385 1183 110.335 339.038 463.718
3146 0 94.2088 11.57 1090 113.133 339.577 462.805
3147 0 97.2956 11.7888 1147 113.023 339.221 458.392
3148 0 102.14 13.2269 1351 108.859 339.024 459.386
3149 0 105.257 12.9208 1360 107.196 339.926 459.024
3150 0 107.204 11.9958 1286 110.959 339.453 456.138
3151 0 113.225 12.5502 1421 110.121 338.942 456.023
3152 0 115.3 12.5499 1447 111.301 338.258 455.911
3153 1 67.1017 11.8924 798 105.174 338.293 480.654
3154 0 69.075 11.2052 774 107.707 338.599 477.562
3155 0 71.0925 12.5611 893 106.255 337.775 476.303
3156 0 74.1714 12.8891 956 104.886 338.432 476.491
3157 0 78.1004 13.7899 1077 102.942 338.796 473.795
3158 0 79.2022 12.2598 971 107.001 338.496 472.598
3159 0 82.1445 12.8676 1057 106.13 338.3 471.782
3160 0 84.1804 12.1287 1021 107.562 338.146 469.915
3161 0 88.1632 12.9873 1145 105.348 338.087 467.237
3162 0 95.2569 16.8702 1607 93.7386 337.946 463.671
3163 0 98.0913 16.4541 1614 95.2924 338.005 460.355
3164 0 97.1878 13.4585 1308 104.537 338.443 459.828
3165 0 100.095 13.8069 1382 105.104 338.135 463.167
3166 0 102.153 12.5988 1287 108.586 338.162 459.526
3167 0 105.115 13.3663 1405 107.49 338.018 460.863
3168 0 106.186 12.6571 1344 108.926 338.369 458.345
3169 0 109.247 12.2932 1343 110.038 338.389 457.187
3170 0 112.229 12.332 1384 110.813 338.495 455.291
3171 0 115.166 12.4169 1430 111.164 337.804 452.32
3172 0 119.218 13.1272 1565 110.26 337.594 449.128
3173 0 123.236 12.0906 1490 113.094 337.756 440.974
3174 0 128.181 11.5852 1485 112.69 338.404 447.185
3175 0 133.161 13.2321 1762 109.721 338.686 445.854
3176 0 137.259 13.6676 1876 109.373 337.666 445.497
3177 0 139.298 12.3189 1716 113.076 338.175 440.658
3178 0 144.346 12.7194 1836 111.322 338.056 444.261
3179 1 84.1717 10.0152 843 105.735 338.72 471.818
3180 0 86.2667 10.2589 885 103.788 338.979 471.577
3181 0 90.2199 11.8488 1069 100.514 339.089 470.194
3182 0 92.2266 11.5151 1062 95.8851 338.532 462.135
3183 0 95.4724 10.38 991 97.8476 338.256 461.492
3184 0 99.3564 12.4099 1233 94.468 338.728 459.005
3185 0 101.221 10.4919 1062 98.5565 338.889 453.856
3186 0 102.21 11.6231 1188 97.2424 338.561 457.314
3187 0 102.212 11.5446 1180 118.505 337.561 457.333
3188 0 109.301 11.9486 1306 97.6462 338.668 454.13
3189 0 113.218 10.6697 1208 99.8204 338.762 452.948
3190 0 117.093 10.4276 1221 100.53 338.628 448.735
3191 0 120.244 11.4101 1372 98.1873 338.794 446.928
3192 0 124.299 11.2954 1404 99.0057 338.075 446.468
3193 0 128.149 12.2435 1569 98.2199 337.929 446.701
3194 0 132.299 10.6123 1404 101.053 337.469 442.391
3195 0 134.329 10.8986 1464 102.046 337.169 440.629
3196 0 142.255 12.3581 1758 98.4835 337.525 437.606
3197 0 146.204 11.4019 1667 100.669 337.663 437.798
3198 0 152.179 12.413 1889 99.4844 337.062 436.166
3199 0 158.359 11.1077 1759 103.005 337.51 432.476
3200 0 161.32 11.5795 1868 103.99 337.419 429.49
3201 0 167.26 12.5972 2107 102.266 336.78 424.94
3202 1 93.1286 9.6748 901 101.943 337.615 466.527
3203 0 97.1393 11.1901 1087 99.586 338.559 463.271
3204 0 99.1592 10.3672 1028 100.977 338.124 465.041
3205 0 104.202 11.2378 1171 100.711 338.559 463.673
3206 0 106.222 11.589 1231 102.82 337.906 461.686
3207 0 110.153 11.8018 1300 103.945 337.505 457.936
3208 0 115.191 13.291 1531 102.251 337.701 453.359
3209 0 116.453 11.232 1308 106.44 337.028 449.932
3210 0 120.432 11.6165 1399 106.312 337.589 448.553
3211 0 122.353 11.2788 1380 108.206 337.688 445.633
3212 0 127.229 13.5346 1722 104.019 336.951 443.606
3213 0 131.429 11.4967 1511 108.24 336.698 445.21
3214 0 134.301 11.3253 1521 109.41 336.547 441.225
3215 0 141.501 13.6041 1925 104.368 336.789 439.891
3216 0 148.505 13.5686 2015 105.091 337.419 435.143
3217 1 83.3405 12.2749 1023 101.623 337.438 470.32
3218 0 83.2638 10.821 901 105.989 337.333 463.587
3219 0 86.2729 11.765 1015 105.051 337.745 464.191
3220 0 89.2915 12.0728 1078 106.305 338.246 464.158
3221 0 91.3573 13.1571 1202 106.729 338.319 464.869
3222 0 93.3754 11.2342 1049 111.755 337.556 464.617
3223 0 94.4215 11.4593 1082 113.473 338.093 461.906
3224 0 99.2952 12.5182 1243 110.754 337.744 462.194
3225 0 102.323 12.2357 1252 112.032 339.36 458.685
3226 0 103.404 11.3632 1175 113.471 338.7 457.064
3227 0 110.261 13.5678 1496 107.616 338.366 458.986
3228 0 110.223 12.8104 1412 111.511 339.154 458.505
3229 0 114.225 13.6485 1559 111.17 338.077 455.037
3230 0 117.22 12.9073 1513 112.697 338.582 456.892
3231 0 121.12 12.3349 1494 114.702 338.853 455.137
3232 0 123.203 12.3293 1519 115.382 336.988 447.874
3233 0 128.132 13.1505 1685 114.041 336.9 449.14
3234 0 134.194 13.4582 1806 111.983 337.27 449.321
3235 0 137.216 13.3804 1836 113.191 336.487 445.543
3236 0 141.114 13.2021 1863 114.313 336.995 441.56
3237 1 80.0715 12.0392 964 114.229 336.898 467.498
3238 0 82.0971 12.7897 1050 112.947 337.182 467.212
3239 0 84.1638 13.3311 1122 112.865 336.845 464.703
3240 0 85.2302 12.566 1071 113.401 336.947 465.378
3241 0 90.2698 13.8363 1249 110.446 336.705 464.347
3242 0 92.16 13.52 1246 111.03 336.222 463.408
3243 0 96.1509 13.7908 1326 112.112 336.67 458.005
3244 0 96.1983 13.5657 1305 115.981 337.584 458.007
3245 0 102.169 14.153 1446 113.926 337.537 456.164
3246 0 105.133 13.9157 1463 115.016 337.879 454.706
3247 0 107.211 13.2916 1425 117.011 337.257 454.735
3248 0 111.159 13.4132 1491 117.231 337.187 450.887
3249 0 115.222 13.4697 1552 116.625 337.425 449.339
3250 0 118.083 12.9993 1535 120.326 338.064 447.196
3251 0 122.269 14.1327 1728 116.163 337.561 448.278
3252 0 126.216 13.3343 1683 117.642 337.509 445.409
3253 0 132.202 14.3114 1892 114.952 337.201 440.711
3254 0 134.267 13.1976 1772 118.655 337.6 440.376
3255 1 74.1091 11.8204 876 116.718 337.974 468.229
3256 0 78.119 12.2377 956 115.501 338.023 468.167
3257 0 80.1247 13.1545 1054 106.037 337.542 467.571
3258 0 81.0921 12.5783 1020 109.486 337.512 463.922
3259 0 85.2044 11.5252 982 112.287 337.291 461.402
3260 0 87.1528 12.8969 1124 110.504 337.271 461.326
3261 0 90.1722 12.4872 1126 111.057 337.869 459.716
3262 0 93.2455 12.4617 1162 111.684 337.072 460.288
3263 0 97.207 13.3221 1295 111.959 337.039 455.415
3264 0 100.154 13.7588 1378 110.189 337.382 454.549
3265 0 103.198 14.5157 1498 108.49 336.954 454.065
3266 0 109.284 13.3597 1460 110.914 336.997 452.227
3267 0 109.223 12.9186 1411 112.32 336.841 450.51
3268 1 58.1145 9.9803 580 114.286 337.009 474.836
3269 0 62.161 10.2476 637 111.65 337.757 473.794
3270 0 61.0784 11.3952 696 110.727 337.164 470.711
3271 0 67.1164 12.5305 841 103.966 338.485 477.05
3272 0 69.2021 11.2713 780 106.419 337.986 475.242
3273 0 72.1389 11.1313 803 107.877 338.169 472.499
3274 0 71.1445 11.5258 820 107.59 338.373 468.771
3275 0 76.1895 12.377 943 105.056 337.7 469.376
3276 0 78.2438 11.8859 930 105.814 337.808 469.577
3277 0 81.2286 12.2371 994 107.554 338.174 466.189
3278 0 82.1975 12.4335 1022 107.627 337.862 465.027
3279 0 85.3606 12.5116 1068 107.234 337.425 463.968
3280 0 88.229 12.1389 1071 107.983 337.701 460.646
3281 0 90.185 12.6739 1143 106.668 337.641 457.739
3282 0 91.1684 11.221 1023 111.5 337.382 452.797
3283 0 95.2435 12.0218 1145 109.387 338.092 453.239
3284 0 97.3326 12.3083 1198 108.643 337.664 455.732
3285 0 101.448 13.0905 1328 107.292 337.383 455.83
3286 0 101.325 12.0207 1218 111.044 337.929 451.2
3287 0 108.287 13.6767 1481 105.934 338.198 451.888
3288 0 109.116 12.3722 1350 108.457 338.964 450.871
3289 0 114.101 11.4197 1303 110.585 337.973 447.082
3290 0 122.061 13.1 1599 108.191 336.832 447.974
3291 0 125.162 11.9365 1494 108.56 337.495 441.414
3292 0 128.171 10.2286 1311 111.963 338.175 439.95
3293 1 70.1652 8.97882 630 106.567 338.9 474.614
3294 0 73.3291 10.0506 737 107.541 338.802 471.957
3295 0 79.2142 11.9171 944 102.601 338.393 471.209
3296 0 81.2438 13.5026 1097 97.8706 338.936 468.84
3297 0 84.1939 12.0318 1013 101.971 338.905 464.513
3298 0 86.1686 12.8817 1110 101.692 338.792 464.004
3299 0 93.349 13.5941 1269 100.807 339.447 466.567
3300 0 95.3376 12.4924 1191 108.385 339.545 462.728
3301 0 97.3119 13.4927 1313 108.012 339.273 462.898
3302 0 101.249 14.1138 1429 107.021 339.323 459.955
3303 0 103.368 14.1533 1463 107.815 339.863 457.988
3304 0 105.219 13.9044 1463 108.044 340.083 461.029
3305 0 107.326 12.9605 1391 112.148 339.499 456.146
3306 0 113.242 13.3608 1513 110.973 339.429 453.771
3307 0 115.172 13.3974 1543 112.146 339.403 452.109
3308 0 120.263 13.9111 1673 110.893 338.861 452.22
3309 0 123.323 13.3714 1649 113.088 339.027 448.024
3310 0 128.232 14.3879 1845 111.286 339.372 446.967
3311 1 70.2478 11.1178 781 110.241 339.471 477.237
3312 0 73.1717 12.3135 901 111.948 338.66 472.131
3313 0 76.2512 12.0654 920 112.24 339.452 473.423
3314 0 79.2529 12.1888 966 112.827 340.655 470.186
3315 0 83.2198 12.8575 1070 112.985 340.278 471.648
3316 0 85.165 12.9396 1102 115.063 340.022 469.162
3317 0 87.2005 13.1765 1149 115.32 339.41 468.981
3318 0 91.3061 12.2774 1121 117.599 339.894 468.055
3319 0 94.2674 13.3238 1256 117.155 339.051 464.232
3320 0 97.3171 12.8446 1250 119.342 339.157 462.606
3321 0 99.3275 14.2458 1415 116.414 339.782 462.203
3322 0 103.21 13.5549 1399 118.01 339.888 462.378
3323 0 104.226 12.9239 1347 122.05 338.91 459.902
3324 0 108.262 13.8829 1503 120.939 339.459 457.739
3325 0 113.234 13.5206 1531 121.948 338.83 456.179
3326 0 117.123 13.5157 1583 122.783 338.594 454.056
3327 0 120.326 13.5383 1629 122.804 338.624 451.066
3328 0 126.236 14.3857 1816 120.601 339.18 449.73
3329 0 129.266 12.5865 1627 125.203 338.858 447.936
3330 0 135.342 14.1863 1920 121.713 338.78 444.033
3331 0 140.202 14.2509 1998 121.442 337.69 446.159
3332 0 144.288 14.2354 2054 123.161 338.052 443.761
3333 0 149.281 13.6655 2040 127.879 338.801 437.476
3334 1 84.1778 10.9649 923 124.447 339.488 470.29
3335 0 87.044 11.454 997 126.637 338.258 470.624
3336 0 92.0987 13.2575 1221 122.731 338.058 465.28
3337 0 93.1455 12.8401 1196 126.655 337.752 460.215
3338 0 96.2142 13.2621 1276 126.553 337.368 460.57
3339 0 98.1297 12.5039 1227 128.258 337.541 461.826
3340 0 102.178 12.948 1323 127.602 336.634 459.777
3341 0 105.232 13.456 1416 126.881 337.763 459.206
3342 0 108.126 13.7062 1482 128.211 338.224 458.132
3343 0 110.196 13.5214 1490 130.793 337.698 453.997
3344 0 113.226 13.5305 1532 131.377 337.319 453.779
3345 0 117.206 13.9327 1633 130.535 337.83 453.448
3346 0 119.116 13.7849 1642 131.937 337.956 452.265
3347 0 124.243 13.6426 1695 132.165 338.496 447.923
3348 0 125.177 12.2626 1535 136.85 337.354 444.939
3349 0 130.105 13.051 1698 133.654 337.913 444.642
3350 0 135.276 12.2417 1656 134.429 337.566 445.705
3351 0 139.167 12.3449 1718 135.917 338.593 441.634
3352 1 81.215 11.4757 932 128.348 338.274 469.873
3353 0 86.076 13.6391 1174 122.834 338.235 467.034
3354 0 85.0748 12.1187 1031 129.732 337.904 466.036
3355 0 89.0914 12.2795 1094 127.96 337.737 467.34
3356 0 94.1418 12.5874 1185 127.728 337.873 465.047
3357 0 95.0395 11.995 1140 129.97 337.866 464.499
3358 0 97.078 11.5886 1125 132.718 338.521 460.25
3359 0 101.148 11.6167 1175 132.707 337.47 460.352
3360 0 105.072 12.8102 1346 130.938 337.437 456.718
3361 0 108.177 14.0511 1520 128.273 337.126 457.924
3362 0 111.102 12.8441 1427 132.388 337.105 454.987
3363 0 115.128 13.7672 1585 130.065 336.673 454.136
3364 0 120.099 13.4305 1613 130.529 337.344 453.101
3365 0 122.092 12.253 1496 133.394 337.559 453.963
3366 0 127.152 13.5271 1720 130.942 337.011 448.051
3367 0 132.114 13.935 1841 129.609 336.724 445.225
3368 0 138.209 12.8574 1777 131.788 336.904 444.032
3369 0 144.192 13.808 1991 128.151 336.989 442.489
3370 0 149.314 13.6491 2038 128.997 336.084 439.251
3371 1 84.1011 10.6182 893 129.097 336.114 471.171
3372 0 87.2285 11.6934 1020 127.866 337.311 470.255
3373 0 90.1589 13.1878 1189 126.214 337.271 467.111
3374 0 93.3092 12.0567 1125 129.076 336.618 467.819
3375 0 95.1152 12.6373 1202 128.082 336.979 465.598
3376 0 97.1492 12.2286 1188 130.714 336.965 460.954
3377 0 101.113 12.2141 1235 129.318 337.595 459.961
3378 0 102.145 12.2669 1253 129.858 338.063 458.65
3379 0 105.193 11.6738 1228 133.101 338.747 451.559
3380 0 109.193 12.7022 1387 129.512 339.079 452.466
3381 0 110.164 12.3271 1358 126.436 338.397 458.376
3382 0 112.165 11.2156 1258 130.874 338.68 452.293
3383 0 117.298 12.4128 1456 127.021 338.616 449.165
3384 0 122.202 12.1439 1484 130.692 338.522 442.825
3385 0 125.173 12.2391 1532 129.14 338.894 446.947
3386 0 130.162 12.7764 1663 127.315 337.145 445.569
3387 0 132.175 10.9249 1444 130.192 337.609 444.745
3388 0 137.086 12.0582 1653 127.058 337.834 441.495
3389 0 141.269 10.4694 1479 131.575 337.689 436.183
3390 0 148.243 12.4188 1841 129.601 337.99 437.036
3391 1 88.0724 9.20834 811 122.788 336.54 466.51
3392 0 90.1633 9.63807 869 126.193 337.087 464.275
3393 0 94.1474 10.696 1007 110.384 338.14 460.582
3394 0 95.1894 9.90656 943 113.3 338.137 459.268
3395 0 99.1261 10.6834 1059 113.021 338.116 456.433
3396 1 16.016 4.87013 78 91.4744 337.141 498.833
3397 0 16.002 5.56179 89 89.6629 337.36 500.843
3398 0 11 0.999997 11 99.3636 337.091 500
3399 0 17.0011 8.23478 140 87.3857 337.714 501.343
3400 0 15.0042 3.19909 48 94.9583 337.938 499.583
3401 0 16.0189 3.93286 63 91.8571 336.81 501.984
3402 0 10.0047 4.4979 45 95.2444 336.689 497.978
3403 0 19.0177 7.62447 145 100.207 338.752 502.455
3404 0 15.0349 4.92187 74 91.3784 337.5 501.5
3405 0 15.0056 4.465 67 92.8507 336.836 501.134
3406 0 16.0026 4.18683 67 95.3731 336.209 498.403
3407 0 17.0024 3.76418 64 92.2812 337.828 501.031
3408 0 18.0032 6.72104 121 91.7355 337.264 499.777
3409 0 20.011 5.79681 116 91.4483 337.328 500.957
3410 0 17.0125 2.9978 51 95.098 337.176 501.196
3411 0 15.0304 4.45763 67 94.8209 338.537 498.851
3412 0 18.1145 5.79646 105 90.9524 337.981 501.638
3413 0 16.0073 5.99726 96 91.1042 338.135 498.615
3414 1 173.578 11.9313 2071 121.576 337.776 418.204
3415 0 179.483 12.107 2173 120.812 338.445 414.709
3416 0 183.572 12.7852 2347 125.007 338.28 414.296
3417 0 189.314 12.202 2310 127.214 337.435 416.455
3418 0 194.516 12.9963 2528 126.754 337.742 409.587
3419 0 198.526 12.1496 2412 129.294 337.749 407.266
3420 0 204.552 13.18 2696 126.749 337.946 407.252
3421 0 210.775 12.9238 2724 127.57 338.239 403.246
3422 0 217.848 12.3894 2699 129.76 337.865 392.379
3423 0 225.757 13.3905 3023 126.748 337.624 389.582
3424 0 232.633 13.0635 3039 126.198 337.443 390.153
3425 0 237.531 12.6636 3008 128.888 337.814 383.16
3426 1 61.1956 10.4583 640 105.13 339.389 477.352
3427 0 60.0511 9.09226 546 112.573 340.194 479.674
3428 0 62.1427 10.9908 683 108.813 340.322 478.495
3429 0 67.0831 13.1628 883 99.2877 340.267 476.238
3430 0 65.0636 9.88264 643 110.118 339.891 477.16
3431 0 67.12 10.8909 731 108.663 340.204 478.038
3432 0 70.1124 11.6099 814 107.721 340.561 476.197
3433 0 71.1304 10.9658 780 108.762 339.882 476.233
3434 0 74.1493 12.6501 938 104.995 339.576 475.938
3435 0 75.0898 11.9058 894 107.129 339.919 470.943
3436 0 78.0956 13.0993 1023 104.049 339.885 470.566
3437 0 78.0916 11.9347 932 107.585 340.486 471.912
3438 0 76.082 10.5807 805 112.645 340.655 470.098
3439 0 80.0968 11.8357 948 110.964 340.28 469.705
3440 0 83.1211 12.2352 1017 109.97 339.56 465.708
3441 0 81.1281 11.0566 897 113.447 339.664 466.321
3442 0 83.1094 11.2382 934 114.076 339.725 462.521
3443 0 86.1885 10.6395 917 115.356 339.383 460.333
3444 0 87.1846 9.55444 833 118.204 339.038 458.832
3445 0 93.3282 11.1649 1042 113.706 338.964 456.984
3446 0 93.2201 9.94421 927 117.548 339.476 455.167
3447 0 98.2401 11.5533 1135 112.935 338.144 456.085
3448 0 100.362 11.5283 1157 113.213 338.094 452.962
3449 0 109.154 14.7773 1613 102.017 338.094 444.108
3450 0 106.187 11.5175 1223 114.166 337.803 449.184
3451 0 108.253 10.4755 1134 117.158 337.76 446.888
3452 0 113.268 10.7003 1212 115.244 338.533 447.225
3453 0 118.287 12.1907 1442 111.645 338.721 445.971
3454 1 68.0369 10.3032 701 110.327 338.588 468.979
3455 0 75.333 12.3054 927 101.372 336.845 469.654
3456 0 77.4507 11.814 915 104.363 336.642 466.605
3457 0 76.2106 12.0193 916 106.455 336.932 463.128
3458 0 80.2452 12.0755 969 106.266 336.707 460.925
3459 0 82.213 12.9663 1066 104.216 337.159 459.895
3460 0 82.2041 11.9094 979 107.773 335.587 460.149
3461 0 84.2899 12.9316 1090 105.628 336.267 464.636
3462 0 84.2223 12.3958 1044 108.771 336.496 461.127
3463 0 85.2076 13.1561 1121 108.4 336.299 460.635
3464 0 90.325 13.5179 1221 106.048 336.218 463.222
3465 0 93.2527 12.568 1172 108.997 335.933 460.191
3466 0 95.1323 13.024 1239 108.956 335.816 458.646
3467 0 99.2282 13.0003 1290 108.43 335.806 458.965
3468 1 55.1041 10.1444 559 107.685 336.068 482
3469 0 57.2524 10.7244 614 107.945 335.705 478.567
3470 0 59.2511 11.8479 702 104.293 336.919 479.526
3471 0 61.6936 11.8327 730 105.148 337.518 479.881
3472 0 65.4727 13.4865 883 101.156 336.942 478.083
3473 0 65.3558 13.5107 883 102.29 337.393 476.704
3474 0 66.3139 11.9432 792 105.384 337.919 477.875
3475 0 68.3554 12.8593 879 104.129 337.366 474.513
3476 0 69.2721 13.6419 945 102.171 336.81 471.288
3477 0 70.292 13.0456 917 103.483 337.28 470.427
3478 0 73.182 13.4186 982 101.269 337.797 471.222
3479 0 73.1834 12.5712 920 102.154 337.792 472.11
3480 0 75.1557 12.8001 962 103.042 337.656 469.468
3481 0 77.1491 11.8342 913 105.301 337.895 470.455
3482 0 80.1085 12.5954 1009 103.451 338.481 467.708
3483 0 82.0677 12.8796 1057 103.671 338.166 465.226
3484 0 87.1084 13.5463 1180 102.363 337.682 466.169
3485 0 86.2486 12.1045 1044 106.76 338.308 464.322
3486 0 90.1055 12.2967 1108 107.106 337.884 462.332
3487 0 91.1278 12.6855 1156 107.453 337.618 460.471
3488 0 95.2049 11.7746 1121 109.242 337.656 459.819
3489 0 98.19 11.7222 1151 110.569 337.035 460.693
3490 0 100.266 12.5068 1254 109.691 337.886 457.147
3491 0 105.257 11.6762 1229 110.459 337.159 459.05
3492 0 110.213 15.6697 1727 101.019 337.135 453.4
3493 0 110.151 12.846 1415 108.416 337.738 454.51
3494 0 114.246 12.7882 1461 109.439 337.576 450.016
3495 1 65.1469 11.6659 760 111.538 338.042 475.193
3496 0 65.0964 13.0576 850 110.089 338.045 471.465
3497 0 68.0999 12.3201 839 111.42 337.974 471.217
3498 0 72.197 13.3108 961 109.519 337.668 472.43
3499 0 71.0323 13.5572 963 113.244 337.738 470.524
3500 0 70.0977 13.4955 946 117.846 337.949 470.808
3501 0 74.0705 12.8391 951 116.814 338.101 469.268
3502 0 77.1467 13.4419 1037 114.613 338.055 467.709
3503 0 79.1087 12.9442 1024 115.627 338.044 468.119
3504 0 84.1897 15.0612 1268 109.327 337.324 467.061
3505 0 85.1306 13.6496 1162 114.021 337.306 463.285
3506 0 88.2251 14.9277 1317 111.418 338.412 463.216
3507 0 92.1603 15.6032 1438 110.291 338.038 461.052
3508 0 93.2064 13.5291 1261 117.338 337.523 459.478
3509 0 95.2127 14.2733 1359 117.549 337.021 458.975
3510 0 100.324 14.9217 1497 115.684 336.674 456.459
3511 0 104.269 14.712 1534 117.183 337.432 456.419
3512 0 109.339 14.8163 1620 116.92 336.564 454.554
3513 0 110.18 15.3477 1691 117.708 337.74 451.229
3514 0 114.392 14.0482 1607 120.982 337.249 449.985
3515 0 120.376 13.8982 1673 121.566 337.309 450.708
3516 0 126.437 14.8453 1877 119.765 337.411 448.051
3517 1 63.1838 13.4528 850 125.716 338.06 473.941
3518 0 65.2229 13.7988 900 124.658 337.876 473.681
3519 0 67.0972 12.236 821 125.537 338.562 471.917
3520 0 70.2177 13.1021 920 123.565 337.836 472.56
3521 0 72.1335 13.4473 970 124.858 338.036 471.857
3522 0 75.1915 13.4191 1009 126.028 338.647 470.054
3523 0 76.1153 13.2431 1008 128.515 337.915 469.139
3524 0 79.1619 14.603 1156 124.898 337.985 467.64
3525 0 82.1942 15.0862 1240 123.588 338.405 468.133
3526 0 85.1793 13.9353 1187 127.692 337.757 466.11
3527 0 89.2648 14.9107 1331 123.85 337.808 465.18
3528 0 89.2782 14.6956 1312 125.665 338.607 464.789
3529 0 91.1975 13.7284 1252 129.654 338.666 463.434
3530 0 96.2582 15.074 1451 124.705 338.586 461.09
3531 0 100.198 15.6491 1568 122.652 339.017 459.715
3532 0 106.099 18.1339 1924 113.208 338.7 456.818
3533 0 105.211 14.3426 1509 126.878 337.796 457.259
3534 0 109.107 15.1136 1649 124.491 337.67 455.537
3535 0 112.207 15.0436 1688 124.54 338.222 452.697
3536 0 117.098 14.4238 1689 123.803 337.94 450.556
3537 0 120.123 14.2354 1710 125.414 337.749 447.96
3538 0 126.091 15.1716 1913 121.263 337.718 447.74
3539 0 131.151 13.9152 1825 124.936 338.156 445.377
3540 0 135.272 14.5559 1969 122.389 338.051 443.266
3541 1 75.0931 11.9984 901 130.598 338.514 468.531
3542 0 77.1635 12.9336 998 127.146 338.448 468.866
3543 0 82.122 13.0903 1075 121.96 338.326 467.873
3544 0 82.1426 12.2835 1009 125.655 338.592 467.386
3545 0 85.0947 13.5731 1155 123.796 338.553 465.203
3546 0 88.1436 13.0809 1153 126.181 338.107 462.48
3547 0 92.0916 12.8676 1185 126.699 338.12 461.541
3548 0 94.0822 13.2331 1245 126.418 338.231 460.357
3549 0 96.1873 12.5796 1210 128.445 338.063 459.779
3550 0 100.202 12.4049 1243 129.701 337.656 457.529
3551 0 100.136 11.9837 1200 131.805 337.745 454.692
3552 0 108.325 13.718 1486 125.211 338.176 454.974
3553 0 111.227 12.7667 1420 128.918 338.406 451.749
3554 0 115.26 12.719 1466 128.714 338.413 450.949
3555 0 121.164 13.882 1682 123.76 338.761 448.36
3556 1 65.1272 10.6254 692 118.399 338.457 476.337
3557 0 69.114 11.0108 761 116.654 337.702 475.824
3558 0 71.1964 12.6692 902 119.722 338.391 475.21
3559 0 72.1021 11.5808 835 116.422 338.825 475.423
3560 0 76.1526 12.6457 963 113.918 338.695 472.723
3561 0 80.0625 13.0648 1046 113.369 338.524 473.81
3562 0 82.0435 13.3832 1098 113.906 338.639 473.196
3563 0 83.0745 13.4819 1120 116.41 339.432 469.375
3564 0 88.1035 14.7554 1300 111.464 339.552 466.948
3565 0 88.2279 14.1225 1246 116.801 339.672 465.513
3566 0 91.1975 12.8293 1170 123.085 339.022 465.465
3567 0 92.3187 13.4101 1238 125.997 338.446 463.721
3568 0 93.1289 12.7243 1185 129.144 338.527 462.526
3569 0 98.1739 12.8751 1264 128.379 339.288 462.19
3570 0 101.312 13.6707 1385 127.586 338.772 460.386
3571 0 103.267 12.8308 1325 131.029 338.624 459.163
3572 1 114.303 17.165 1962 114.508 338.002 448.626
3573 0 117.383 20.0795 2357 108.754 338.158 449.329
3574 0 113.143 15.4053 1743 126.166 337.26 452.539
3575 0 118.298 14.7002 1739 127.518 338.043 452.349
3576 0 120.179 14.1872 1705 130.679 337.565 451.501
3577 0 123.335 14.0835 1737 132.434 337.72 446.903
3578 0 128.275 15.0068 1925 129.167 337.222 449.357
3579 0 131.17 13.7607 1805 135.193 338.091 444.757
3580 0 135.231 13.562 1834 135.49 337.654 443.516
3581 0 140.156 14.2984 2004 135.872 336.99 439.224
3582 0 144.227 14.8239 2138 134.748 337.891 437.312
3583 0 148.266 14.6426 2171 135.249 337.822 436.809
3584 0 154.189 13.3537 2059 139.983 336.514 432.881
3585 0 160.321 14.3525 2301 137.025 337.782 429.793
3586 0 163.198 13.5112 2205 141.268 337.928 424.855
3587 1 91.1289 11.2917 1029 138.62 337.604 460.905
3588 0 95.1083 11.734 1116 137.858 336.864 458.986
3589 0 98.1494 12.2161 1199 138.091 337.45 454.691
3590 0 101.113 13.114 1326 134.924 337.377 452.958
3591 0 103.166 12.1455 1253 138.534 337.683 450.865
3592 0 104.343 12.296 1283 139.33 337.832 446.609
3593 0 110.196 12.26 1351 138.119 337.534 447.635
3594 0 116.351 13.5453 1576 132.261 337.567 448.699
3595 0 117.173 13.1515 1541 134.746 337.677 444.754
3596 0 123.147 12.7084 1565 134.389 338.385 442.887
3597 0 128.323 13.2634 1702 132.528 337.653 441.64
3598 0 131.2 12.8811 1690 134.786 338.2 436.722
3599 0 137.348 14.9911 2059 127.074 338.165 429.019
3600 0 138.338 12.7225 1760 135.01 338.084 433.544
3601 0 146.346 13.68 2002 132.645 338.843 427.014
3602 0 148.352 13.1646 1953 136.643 337.779 423.581
3603 1 161.369 17.7605 2866 119.473 338.617 417.117
3604 0 165.528 18.5951 3078 117.708 338.13 410.934
3605 0 167.501 14.2984 2395 133.208 338.723 417.336
3606 0 169.313 14.1926 2403 135.885 338.673 412.059
3607 0 176.428 13.5296 2387 138.067 338.757 411.496
3608 0 183.32 13.8774 2544 138.127 338.59 406.702
3609 0 187.307 14.212 2662 139.252 339.325 405.795
3610 0 190.355 14.1735 2698 140.348 338.792 402.053
3611 0 198.324 13.957 2768 141.424 338.28 399.51
3612 0 207.268 15.3762 3187 137.013 338.261 391.244
3613 0 210.242 13.2419 2784 137.466 338.699 393.023
3614 0 218.309 15.0154 3278 132.381 338.891 387.939
3615 1 318.451 11.5905 3691 140.19 338.794 360.039
3616 1 57.079 8.70723 497 113.163 339.893 480.322
3617 0 60.0626 10.4225 626 107.55 340.529 480.355
3618 0 62.1871 12.2855 764 104.942 338.74 477.818
3619 0 64.1978 10.8259 695 110.056 339.643 478.82
3620 0 66.3048 10.6327 705 111.953 339.031 476.43
3621 0 67.1468 9.71007 652 113.902 339.864 476.69
3622 0 70.1815 11.627 816 108.975 340.93 473.938
3623 0 71.0537 9.89393 703 115.306 341.411 474.573
3624 0 76.097 10.2107 777 115.479 340.745 474.205
3625 0 77.1585 11.2884 871 113.676 340.658 472.207
3626 0 83.3675 14.1302 1178 105.878 340.507 468.597
3627 0 81.1721 11.5557 938 114.9 340.763 467.061
3628 0 82.1288 8.5719 704 124.536 340.17 467.166
3629 0 85.1849 8.92177 760 123.809 340.671 465.325
3630 0 87.0508 9.45424 823 124.029 340.581 462.994
3631 1 31.0202 7.51124 233 103.803 341.137 497.137
3632 0 32.0218 8.18193 262 102.748 340.824 496.286
3633 0 31.0263 8.12215 252 101.944 340.885 497.163
3634 0 31.0048 8.90185 276 100.746 341.438 497.163
3635 0 34.0768 8.77429 299 99.9532 341.348 498.047
3636 0 33.0267 8.26604 273 101.938 341.062 496.454
3637 0 35.0979 8.20561 288 101.226 340.684 495.833
3638 0 35.066 10.409 365 97.9753 341.096 495.197
3639 0 34.044 7.02033 239 104.172 340.435 494.385
3640 0 35.0411 8.39014 294 102.163 340.605 495.432
3641 0 40.1337 9.79226 393 98.6921 339.445 476.73
3642 0 39.1724 9.64964 378 99.8492 338.537 480.331
3643 0 40.255 8.86847 357 100.787 338.263 486.964
3644 0 39.344 9.8109 386 99.57 339.588 490.57
3645 0 41.3392 10.305 426 99.0775 339.744 488.049
3646 0 41.4162 9.68219 401 101.367 339.09 489.466
3647 0 43.2444 9.43474 408 101.797 338.468 489.85
3648 0 44.5275 8.37685 373 104.046 338.59 490.37
3649 0 43.3834 8.20589 356 104.862 338.455 491.185
3650 0 43.2764 9.86682 427 103.92 338.831 488.349
3651 0 43.3978 9.53964 414 105.321 339.449 489.585
3652 0 42.2885 10.7121 453 103.927 338.914 485.506
3653 0 44.3644 7.3257 325 106.526 338.323 488.335
3654 0 45.4038 6.95977 316 106.165 338.601 488.142
3655 0 48.3548 7.23816 350 104.586 338.354 487.446
3656 0 49.34 8.35021 412 104.456 338.604 484.646
3657 0 50.2715 7.99657 402 102.769 338.199 486.177
3658 0 51.1838 7.81497 400 104.48 338.09 486.838
3659 0 53.2308 8.88584 473 104.66 337.586 491.611
3660 1 195.739 14.0749 2755 131.95 338.506 411.938
3661 1 33.1669 10.01 332 105.319 337.199 499.892
3662 0 33.1932 10.2129 339 106.596 337.268 501.537
3663 0 28.0095 9.78241 274 107.526 339.533 502.449
3664 0 30.0863 9.63895 290 108.793 339.383 501.745
3665 0 32.0367 9.83247 315 106.879 338.752 502.73
3666 0 31.0859 10.3262 321 108.14 338.237 500.944
3667 0 31.0064 10.0947 313 109.275 339.042 502.898
3668 0 33.0462 9.95577 329 109.158 338.222 502.346
3669 0 38.0595 12.6644 482 95 338.753 500.154
3670 0 34.06 11.8027 402 103.373 338.415 501.167
3671 0 33.0253 10.6585 352 110.693 340.162 500.852
3672 0 32.0625 10.3548 332 111.916 338.678 501.816
3673 0 32.1113 10.9307 351 111.974 338.749 501.484
3674 0 33.0102 11.451 378 110.95 338.177 502.032
3675 0 34.0222 11.0516 376 111.069 338.636 501.862
3676 0 32.1153 11.4587 368 112.742 339.921 500.573
3677 0 31.0381 9.85884 306 117.788 338.209 502.418
3678 0 33.0816 10.8822 360 113.636 338.25 501.608
3679 0 33.0653 11.5529 382 111.963 337.348 501.801
3680 0 38.0286 12.2013 464 105.75 339.091 498.162
3681 0 35.051 10.4419 366 115.623 338.787 499.749
3682 0 36.0648 10.9802 396 113.482 338.061 500.843
3683 0 36.0306 11.9898 432 107.928 339.28 497.484
3684 0 35.0162 11.3091 396 113.073 336.571 500.859
3685 0 34.0447 10.8093 368 116.872 336.66 501.443
3686 0 29.1123 8.41568 245 107.18 337.322 469.012
3687 0 34.079 10.4463 356 116.379 336.584 501.107
3688 0 36.0415 11.0428 398 113.327 336.716 501.158
3689 0 33.0362 10.5036 347 119.046 336.268 500.775
3690 0 34.0511 10.4255 355 117.586 335.938 501.656
3691 0 36.061 11.8688 428 112.224 337.329 501.18
3692 0 34.1657 11.415 390 115.385 339.344 499.308
3693 0 36.0484 12.1226 437 111.169 338.764 495.915
3694 0 36.0689 10.7572 388 116.503 339.188 499.335
3695 0 34.0232 10.5222 358 117.335 338.589 500.439
3696 0 35.0782 11.8877 417 113.149 339.307 498.823
3697 0 36.0019 11.0272 397 114.927 337.524 499.71
3698 0 36.0362 10.878 392 115.332 338.319 501.403
3699 0 35.0454 11.4423 401 115.15 338.471 501.531
3700 0 40.0374 12.4634 499 104.922 339.607 497.621
3701 0 36.0662 12.1721 439 111.636 339.405 497.613
3702 0 35.0998 10.9402 384 115.273 339.031 499.583
3703 0 35.0575 11.1816 392 113.872 336.543 501.992
3704 0 36.0979 12.1614 439 110.909 336.954 499.677
3705 0 36.031 10.8518 391 113.148 336.176 500.253
3706 0 37.0962 11.8071 438 110.717 335.87 496.297
3707 0 37.1297 10.8539 403 112.243 336.099 497.481
3708 0 36.0588 10.8434 391 112.499 336.731 500.65
3709 0 34.058 10.0417 342 115.798 337.325 500.585
3710 0 37.0951 10.0013 371 112.811 336.987 499.752
3711 0 37.0352 11.5296 427 109.447 335.351 499.187
3712 0 36.0311 11.1293 401 111.99 336.187 500.761
3713 0 39.0434 11.833 462 106.061 336.333 499.301
3714 0 37.1022 12.3443 458 106.598 336.716 499.779
3715 0 38.05 12.2996 468 104.776 337.004 499.062
3716 0 37.0115 10.4562 387 110.731 336.269 499.739
3717 0 39.0383 12.9872 507 102.673 336.69 500.479
3718 0 39.0295 13.2464 517 103.019 338.188 499.368
3719 0 37.0572 12.2783 455 107.354 337.899 499.752
3720 0 38.0038 12.2882 467 104.949 337.702 500.865
3721 0 39.0559 11.7268 458 107.365 336.67 499.714
3722 0 39.0082 12.0231 469 105.32 336.333 499.97
3723 0 39.0477 12.4207 485 102.903 336.814 498.678
3724 0 39.049 13.0605 510 98.9863 335.963 498.504
3725 0 38.0333 11.4373 435 104.591 336.908 499.595
3726 0 39.0682 12.5422 490 103.504 337.453 499.263
3727 0 38.0639 10.7976 411 108.453 336.985 498.543
3728 0 38.0377 11.7778 448 107.743 337.422 496.085
3729 0 39.0466 11.4479 447 106.134 337.651 495.548
3730 0 41.0613 11.495 472 104.816 337.396 496.939
3731 0 38.0254 10.9927 418 110.38 337.139 497.502
3732 0 36.1095 10.9113 394 112.365 337.145 496.051
3733 0 37.0288 10.7214 397 111.839 338.023 497.466
3734 0 37.0263 10.9112 404 111.535 338.847 495.879
3735 0 38.0065 10.8403 412 111.049 338.172 496.498
3736 0 38.026 10.1247 385 111.003 338.358 497.906
3737 0 37.0039 10.6205 393 112.677 338.165 495.639
3738 0 39.138 10.8845 426 111.824 338.46 496.376
3739 0 37.0664 10.3868 385 112.39 338.421 495.091
3740 0 37.0334 11.3681 421 108.632 338.295 496.124
3741 0 38.0209 11.2307 427 107.595 338.651 495.892
3742 0 36.0562 9.92893 358 111.581 338.084 494.338
3743 0 42.0333 12.7518 536 96.7239 339.66 491.297
3744 0 38.0114 12.3121 468 104.171 338.974 493.902
3745 0 38.0127 12.1538 462 106.284 338.032 494.071
3746 0 36.0269 10.3256 372 111.925 339.22 495.774
3747 0 38.0115 10.7336 408 110.875 338.821 493.929
3748 0 36.0055 10.1929 367 113.221 339.033 494.36
3749 0 37.0258 10.047 372 111.457 339.833 495.253
3750 0 37.0133 10.861 402 110.784 339.522 493.56
3751 0 37.0724 10.466 388 110.851 339.124 493.941
3752 0 35.0677 8.89707 312 115.378 339.542 495.157
3753 0 36.0257 10.8534 391 110.936 339.077 493.2
3754 0 36.0037 9.05461 326 114.736 339.301 496.206
3755 0 35.0307 9.67721 339 113.773 339.286 494.469
3756 0 36.061 12.5343 452 107.221 339.704 495.374
3757 0 35.0131 9.22511 323 112.811 339.985 496.755
3758 0 35.0128 8.8539 310 114.768 339.332 495.842
3759 0 35.0242 9.96454 349 112.582 339.542 495.183
3760 0 36.0579 9.31835 336 113.554 339.744 496.542
3761 0 35.0528 8.61556 302 115.93 340.646 495.96
3762 0 34.0208 9.5236 324 115.096 340.145 495.716
3763 0 37.0306 9.47864 351 112 339.798 495.732
3764 0 36.0159 10.4121 375 110.901 339.368 496.216
3765 0 36.0257 9.85408 355 111.879 339.724 496.341
3766 0 33.029 8.74987 289 116.55 339.516 496.505
3767 0 37.0432 9.47541 351 112.011 339.293 494.917
3768 0 35.0069 9.25531 324 110.346 340.731 496.966
3769 0 37.0119 9.99678 370 108.941 340.727 495.135
3770 0 39.0114 11.2275 438 104.781 340.32 495.057
3771 0 36.042 9.79413 353 109.535 340.822 497.66
3772 0 37.0155 11.4547 424 106.627 340.611 495.21
3773 0 37.0077 10.6735 395 106.618 341.486 498.109
3774 0 36.0188 9.41175 339 112.106 340.758 495.829
3775 0 37.0084 10.8084 400 107.03 341.34 496.212
3776 0 38.0167 9.44323 359 108.961 340.889 497.493
3777 0 37.0278 10.5866 392 107.26 340.181 497.191
3778 0 37.0399 11.2851 418 106.629 340.44 495.77
3779 0 37.0219 10.6423 394 107.462 340.599 496.173
3780 0 37.0165 9.96852 369 107.916 341.558 497.523
3781 0 36.0281 10.6861 385 108.187 340.844 496.197
3782 0 37.0312 10.3696 384 107.734 340.982 496.461
3783 0 38.0133 10.1807 387 106.711 340.54 497.475
3784 0 36.0609 10.51 379 106.971 340.797 497.546
3785 0 37.0163 10.1036 374 107.211 341.037 496.65
3786 0 37.0568 11.172 414 105.995 341.42 496.71
3787 0 38.005 10.5249 400 104.27 341.295 497.748
3788 0 38.0351 12.3833 471 100.575 341.225 497.346
3789 0 38.067 9.29938 354 108.073 340.958 496.09
3790 0 41.0091 11.6072 476 100.393 340.424 494.061
3791 0 37.0264 10.6951 396 106.053 340.561 496.402
3792 0 37.0049 8.70155 322 109.45 340.137 496.714
3793 0 37.0355 9.23437 342 106.751 340.237 497.725
3794 0 39.025 11.5054 449 101.269 340.212 495.996
3795 0 37.0273 10.6138 393 105.634 340.17 495.641
3796 0 37.0033 10.7558 398 103.146 340.736 496.608
3797 0 36.0151 9.96804 359 105.153 340.006 497.435
3798 0 35.0601 9.24127 324 106.923 339.66 498.022
3799 0 37.023 10.2909 381 103.52 340.226 496.052
3800 0 36.0112 9.4415 340 104.259 340.053 497.565
3801 0 36.0219 10.3548 373 103.421 340.03 496.394
3802 0 39.0224 12.3006 480 97.3542 340.042 494.012
3803 0 37.0197 9.5895 355 105.023 339.349 495.524
3804 0 38.0154 10.1538 386 101.946 339.826 496.298
3805 0 38.0378 9.3854 357 103.106 339.669 496.636
3806 0 42.0251 12.8495 540 92.9222 340.489 492.587
3807 0 41.0427 12.1093 497 95.6278 340 494.117
3808 0 40.0139 12.1708 487 97.4045 339.842 494.528
3809 0 38.0103 10.2078 388 102.376 340.023 496.982
3810 0 39.0279 10.5822 413 100.574 339.465 497.397
3811 0 37.012 9.34831 346 106.549 340.144 495.618
3812 0 37.0255 8.69671 322 106.739 339.745 496.811
3813 0 37.0448 11.3916 422 101.377 340.182 495.358
3814 0 37.0174 9.94128 368 103.524 340.576 495.633
3815 0 36.0168 8.66263 312 106.388 339.974 498.003
3816 0 36.0168 8.57934 309 128.709 338.968 497.919
3817 0 38.0353 11.8837 452 99.4115 341.002 496.356
3818 0 38.0247 11.098 422 101.213 339.877 496.159
3819 0 40.0272 11.6171 465 97.6366 339.699 495.467
3820 0 40.0747 11.0294 442 98.9864 339.738 495.817
3821 0 34.0053 9.55732 325 105.135 340.163 496.311
3822 0 37.0218 10.1292 375 101.688 340.352 496.912
3823 0 37.0144 10.0231 371 102.801 340.194 494.679
3824 0 37.0199 8.91413 330 102.252 340.4 496.77
3825 0 36.0279 8.27137 298 104.634 340.178 497.128
3826 0 38.0145 9.60161 365 101.592 340.332 496.578
3827 0 37.0176 8.94169 331 101.063 340.115 497.813
3828 0 37.1272 9.02302 335 102.51 340.343 495.146
3829 0 37.027 9.6146 356 101.272 340.787 495.177
3830 0 37.0155 9.56357 354 101.559 340.695 495.686
3831 0 39.0216 9.40506 367 100.24 340.708 495.387
3832 1 55.1472 9.4837 523 87.6023 339.937 491.843
3833 0 55.0551 11.661 642 78.8411 339.911 487.958
3834 0 52.048 11.8544 617 103.768 338.776 417.183
3835 0 59.9453 11.2603 675 76.0311 340.179 486.221
3836 0 54.29 10.4071 565 83.3752 339.104 489.037
3837 0 50.0809 9.46469 474 89.3523 339.846 491.812
3838 0 47.0931 11.8913 560 84.775 339.788 490.343
3839 0 46.0174 12.191 561 86.5847 339.298 492.43
3840 0 43.0176 11.4604 493 89.9493 339.846 491.45
3841 0 38.0462 9.93529 378 98.3439 339.725 493.955
3842 0 39.0165 10.4315 407 96.2359 339.369 492.909
3843 0 37.1156 10.5347 391 99.8951 339.082 493.721
3844 0 38.0435 9.88344 376 100.093 339.492 494.793
3845 0 46.2017 12.3805 572 84.0245 339.799 490.198
3846 1 59.1675 9.46466 560 84.7893 340.052 491.361
3847 0 61.1608 12.459 762 76.0171 339.028 492.079
3848 0 63.0324 12.0573 760 76.1868 339.566 491.82
3849 0 60.12 15.6687 942 67.8599 339.746 486.925
3850 0 53.1632 13.2799 706 76.4419 340.035 489.843
