time division length width area intensity CMx CMy
0 0 83.1381 13.2069 1098 108.108 581.539 457.044
1 0 84.2288 11.7418 989 111.802 580.771 453.91
2 0 88.1441 13.1376 1158 107.259 580.723 452.839
3 1 48.1086 11.8898 572 108.727 580.329 472.171
4 0 45.0421 9.54663 430 112.998 581.128 467.209
5 0 48.0893 11.4371 550 108.709 581.076 467.524
6 0 52.0852 12.3452 643 107.812 581.571 470.042
7 0 52.2086 11.1093 580 111.222 581.164 467.638
8 0 54.0766 11.6132 628 110.502 581.933 467.826
9 0 54.1082 11.7727 637 110.675 580.813 466.749
10 0 57.1554 12.1248 693 106.776 580.303 462.317
11 0 57.2219 12.2505 701 108.626 581.562 464.068
12 0 61.0769 11.33 692 109.273 583.022 461.042
13 0 64.1115 11.6984 750 108.475 582.791 462.067
14 0 64.1021 11.6221 745 110.059 583.281 458.235
15 0 68.1728 12.9964 886 106.551 583.34 457.947
16 0 68.1622 12.6023 859 107.532 582.763 458.993
17 0 72.079 11.8342 853 107.972 582.899 455.471
18 0 73.0626 13.4132 980 104.554 582.997 454.858
19 0 77.0978 13.6839 1055 103.575 582.499 452.427
20 0 77.0575 11.8223 911 107.987 582.73 450.289
21 0 82.1431 13.1721 1082 103.688 582.327 451.287
22 0 83.1368 12.1246 1008 105.867 582.928 452.479
23 0 86.1297 13.4216 1156 101.182 581.891 444.028
24 0 90.0858 14.4418 1301 99.4481 581.713 446.195
25 0 92.1153 11.8439 1091 104.544 582.835 444.253
26 1 48.0555 10.0509 483 100.729 582.988 465.909
27 0 46.0394 9.5136 438 103.005 582.231 464.251
28 0 54.0648 11.3013 611 98.1637 583.462 465.128
29 0 55.0339 10.8297 596 99.7013 582.305 464.901
30 0 54.03 10.3091 557 102.07 582.099 461.619
31 0 55.0745 9.6778 533 104.345 583.266 459.966
32 0 60.0997 9.68391 582 101.881 582.89 462.405
33 0 65.0941 10.7844 702 99.7707 582.195 460.365
34 0 67.0668 12.1073 812 98.4249 582.94 459.883
35 0 67.0718 10.4515 701 103.074 582.792 458.056
36 0 69.0932 10.5076 726 103.142 582.649 456.11
37 0 72.0794 11.7509 847 101.469 582.996 460.008
38 0 76.1247 11.2053 853 103.694 582.375 460.703
39 0 77.0899 11.7395 905 105.081 581.925 455.86
40 0 82.1249 12.2862 1009 105.468 582.818 455.594
41 0 84.3801 12.2659 1035 105.576 583.532 455.72
42 0 87.0561 12.2679 1068 106.804 583.436 453.936
43 0 89.1084 12.1874 1086 107.715 583.702 453.665
44 0 91.1195 11.3477 1034 110.416 583.301 451.019
45 0 96.072 12.3865 1190 106.775 583.411 445.641
46 1 50.0293 9.87421 494 102.581 583.405 465.982
47 0 53.0972 9.02119 479 100.537 583.209 470.806
48 0 55.0614 9.68009 533 99.6698 582.743 470.058
49 0 58.1134 12.4412 723 96.3278 583.994 467.14
50 0 59.1108 10.6072 627 100.07 583.322 465.81
51 0 61.1491 10.1228 619 101.561 583.197 464.961
52 0 62.0554 10.4906 651 101.264 583.086 467.668
53 0 66.0751 10.367 685 102.472 583.199 464.651
54 0 67.072 11.0627 742 102.137 583.224 463.778
55 0 72.1273 11.4381 825 101.227 582.918 462.201
56 0 72.1103 11.1496 804 103.188 582.869 462.766
57 0 73.0697 11.578 846 103.486 582.83 460.188
58 0 79.0764 11.5205 911 103.97 582.655 459.894
59 0 82.1531 11.6977 961 104.041 582.345 458.053
60 0 84.2916 12.7415 1074 102.47 581.813 457.498
61 0 86.1299 12.3418 1063 106.008 582.485 453.407
62 0 90.1469 11.4036 1028 107.418 582.304 455.889
63 0 94.1857 12.9638 1221 104.142 582.661 454.577
64 0 98.0742 12.358 1212 104.612 582.372 452.207
65 0 98.1526 12.2462 1202 106.844 583.111 449.933
66 1 54.0867 12.2026 660 104.02 582.368 470.117
67 0 55.0987 11.7244 646 101.622 582.333 470.763
68 0 57.1418 10.9727 627 102.01 582.73 472.517
69 0 57.0892 11.1755 638 102.723 582.784 470.345
70 0 60.0534 12.0559 724 100.93 583.398 469.674
71 0 64.3153 12.5009 804 98.6219 582.872 468.083
72 0 67.1048 13.3374 895 97.2782 582.19 466.349
73 0 67.0346 11.0987 744 101.594 582.515 465.214
74 0 70.2468 11.7728 827 100.83 582.285 464.018
75 0 71.0916 9.26974 659 104.373 582.827 464.534
76 0 75.1597 12.8127 963 99.6563 583.197 462.832
77 0 77.1258 10.5931 817 102.712 582.635 462.639
78 0 79.1114 12.5898 996 100.419 582.496 458.599
79 0 80.0307 11.0583 885 103.179 582.524 458.38
80 0 86.1058 11.6949 1007 103.03 582.443 456.034
81 0 86.1403 9.69349 835 106.659 582.114 456.85
82 0 91.1837 11.5262 1051 103.454 582.273 454.683
83 0 96.1301 12.3374 1186 101.884 582.696 452.006
84 0 98.1395 11.0863 1088 103.502 583.121 454.173
85 0 103.129 12.5086 1290 107.426 582.088 446.503
86 1 56.144 10.7581 604 102.616 582.43 472.778
87 0 55.033 10.2302 563 104.341 582.615 471.783
88 0 58.0642 11.5045 668 97.1317 582.695 471.114
89 0 61.0689 12.2976 751 95.6152 583.125 470.892
90 0 64.0834 10.9545 702 96.49 582.96 470.809
91 0 64.0678 10.8323 694 98.0202 582.854 468.586
92 0 66.0228 10.5267 695 98.2763 582.734 468.902
93 0 70.0546 11.334 794 96.7557 583.27 468.33
94 0 73.0973 10.5886 774 98.1796 582.339 466.584
95 0 75.1297 10.8213 813 98.9077 582.748 464.037
96 0 78.1508 10.2366 800 100.707 582.263 463.099
97 0 81.0333 10.5882 858 101.071 581.483 460.343
98 0 84.0995 10.9394 920 101.11 581.9 458.236
99 0 89.1051 10.5942 944 96.822 581.835 458.554
100 0 92.1602 12.0008 1106 91.7016 582.4 455.16
101 1 50.2822 9.46657 476 101.229 582.975 472.903
102 0 53.1102 11.1843 594 100.569 581.894 473.946
103 0 57.2228 12.2853 703 99.2119 582.956 474.559
104 0 56.1976 11.0859 623 103.751 582.674 473.599
105 0 57.0911 11.648 665 104.406 582.104 472.29
106 0 58.1702 11.7414 683 105.179 582.302 471.933
107 0 61.2574 12.1291 743 105.234 582.004 469.795
108 0 61.2037 10.8817 666 109.491 583.21 467.228
109 0 62.2031 11.6554 725 108.651 582.789 470.008
110 0 66.3428 11.742 779 108.33 582.783 467.427
111 0 67.253 12.3415 830 107.843 582.618 465.201
112 0 69.3115 13.1291 910 107.008 582.631 465.133
113 0 70.3379 11.5585 813 109.656 581.804 465.503
114 0 73.0994 12.955 947 108.189 581.794 463.838
115 0 75.1535 13.519 1016 106.609 581.739 463.238
116 0 76.0738 12.0146 914 110.472 581.465 464.708
117 0 78.1149 11.9055 930 110.053 581.077 466.562
118 0 80.0512 12.0923 968 111.807 581.33 465.014
119 0 81.0716 11.681 947 109.835 581.555 461.715
120 0 86.1197 11.4492 986 109.496 582.208 461.41
121 0 89.0911 12.2908 1095 107.826 581.368 463.281
122 0 91.1021 13.0732 1191 108.929 582.099 458.756
123 0 94.128 13.2479 1247 108.572 581.413 456.597
124 0 98.1876 12.7511 1252 110.697 580.938 454.228
125 0 102.096 13.6636 1395 108.525 580.148 452.815
126 0 106.154 13.3297 1415 109.468 580.506 450.593
127 0 108.122 13.5495 1465 109.246 581.459 450.001
128 0 109.114 11.9508 1304 115.182 581.149 446.235
129 1 59.043 11.7372 693 107.18 581.403 473.53
130 0 61.0762 10.8717 664 109.544 581.265 472.919
131 0 66.0816 13.5741 897 101.488 581.39 469.706
132 0 71.0586 12.8626 914 100.698 581.402 470.072
133 0 71.0412 12.3872 880 103.523 581.755 466.368
134 0 73.1078 12.379 905 102.155 581.675 468.133
135 0 72.0557 11.5883 835 104.442 582.383 466.551
136 0 80.0605 12.1408 972 101.905 582.284 463.366
137 0 82.0965 12.6193 1036 101.658 581.593 459.936
138 0 85.042 12.6878 1079 98.5839 581.362 459.65
139 0 87.0908 12.4353 1083 99.3998 581.988 458.255
140 0 88.1383 11.5387 1017 103.333 581.34 456.629
141 0 92.0831 13.2598 1221 99.6388 581.363 455.767
142 0 94.1893 12.7615 1202 101.761 580.844 453.32
143 0 99.1108 12.3094 1220 102.376 580.742 452.204
144 1 52.0526 9.6633 503 100.563 581.129 474.408
145 0 53.1817 10.9624 583 101.513 580.751 472.889
146 0 56.134 12.4167 697 102.722 579.917 470.654
147 0 60.0785 14.0816 846 96.9598 580.07 472.286
148 0 61.055 13.0702 798 100.144 580.594 471.531
149 0 62.0887 12.466 774 101.872 580.053 472.238
150 0 66.072 13.8334 914 98.7418 580.911 466.277
151 0 66.0716 14.1211 933 100.457 581.312 468.313
152 0 67.1095 12.9937 872 104.702 580.771 468.549
153 0 68.0379 13.8599 943 104.162 581.203 467.737
154 0 70.0969 13.624 955 107.159 580.963 465.741
155 0 71.0566 13.5807 965 107.882 580.844 465.272
156 0 73.077 13.1368 960 109.692 581.296 464.957
157 0 76.1189 13.7679 1048 109.459 581.677 462.304
158 0 78.0553 13.657 1066 111.014 582.29 461.085
159 0 81.0541 13.4601 1091 116.22 581.271 460.5
160 0 82.0384 12.8355 1053 117.886 581.664 459.252
161 0 86.1113 13.7264 1182 115.259 581.182 460.056
162 0 89.0448 13.9143 1239 115.268 581.459 457.408
163 0 91.0944 13.8098 1258 115.405 581.358 455.134
164 1 48.0676 12.7737 614 112.274 580.914 477.366
165 0 50.0338 12.3916 620 113.792 581.403 476.095
166 0 51.0194 11.8582 605 114.883 581.264 476.081
167 0 51.0621 12.7688 652 108.416 580.475 476.147
168 0 51.0222 12.2692 626 110.589 580.364 475.048
169 0 53.0591 12.1751 646 109.673 580.556 475.723
170 0 56.1165 12.5275 703 108.054 580.792 474.239
171 0 57.0135 11.5937 661 110.844 580.834 472.545
172 0 59.0822 11.3401 670 109.76 580.882 472.687
173 0 63.0739 12.5091 789 106.36 580.489 470.862
174 0 63.0522 12.4183 783 106.679 579.655 467.556
175 0 67.0941 12.8178 860 104.959 580.331 466.738
176 0 68.1146 12.1854 830 106.098 580.19 465.916
177 0 74.0356 13.5611 1004 101.482 580.5 463.032
178 0 74.0726 11.7317 869 105.22 580.28 464.101
179 0 77.0616 12.1331 935 103.25 580.523 462.867
180 0 83.0447 13.3181 1106 100.209 579.946 458.338
181 0 84.1421 12.3125 1036 102.436 580.547 458.431
182 0 87.0956 12.159 1059 103.416 581.153 458.193
183 0 89.1475 11.5651 1031 104.687 581.324 453.574
184 1 47.062 12.2817 578 103.019 580.787 475.093
185 0 49.0196 12.8724 631 100.231 580.821 474.715
186 0 52.0563 12.7362 663 99.359 581.329 473.49
187 0 53.1649 12.1321 645 99.3178 581.02 475.06
188 0 53.0318 12.3134 653 100.158 580.703 471.698
189 0 57.0422 12.8501 733 98.4393 581.037 472.01
190 0 59.0458 12.4818 737 99.3243 581.213 469.544
191 0 59.0732 12.0698 713 100.525 580.628 470.499
192 0 63.0406 12.1826 768 100.823 580.147 469.747
193 0 64.0915 12.1077 776 101.482 580.432 466.915
194 0 67.0829 12.8349 861 100.194 580.194 466.911
195 0 70.0822 13.2701 930 99.8441 580.087 466.803
196 0 71.0399 13.5276 961 100.52 580.646 463.92
197 0 74.2322 12.2723 911 102.966 580.289 463.968
198 0 75.0931 12.7309 956 103.204 580.522 462.323
199 0 80.047 14.554 1165 98.9579 580.048 461.167
200 0 80.0791 13.2244 1059 103.346 580.473 460.398
201 0 82.3449 13.9656 1150 103.17 580.075 458.429
202 0 85.0755 12.342 1050 107.89 580.294 459.881
203 0 88.14 13.4105 1182 104.799 580.628 460.153
204 0 89.1099 13.1411 1171 106.349 580.04 457.132
205 0 91.1282 14.0791 1283 105.366 579.875 454.514
206 0 96.0829 14.3938 1383 105.283 580.365 453.672
207 0 98.0793 13.1016 1285 108.57 580.552 455.089
208 0 99.1161 13.3984 1328 108.6 581.201 454.782
209 0 102.056 12.4637 1272 109.818 580.598 454.314
210 0 106.076 12.8304 1361 109.952 581.704 452.647
211 1 57.0418 11.6231 663 117.395 580.626 473.673
212 0 58.0685 13.0363 757 116.366 580.262 472.773
213 0 56.0721 11.2712 632 118.141 580.261 466.71
214 0 64.0772 13.1404 842 116.917 581.194 467.741
215 0 66.083 13.9673 923 114.44 582.608 467.497
216 0 67.2886 13.2118 889 115.588 581.847 468.499
217 0 69.0774 13.0578 902 117.216 582.425 466.03
218 0 72.0723 14.6658 1057 112.953 581.492 464.912
219 0 74.0571 14.8534 1100 111.882 581.96 465.348
220 0 77.0794 14.3229 1104 113.242 581.705 462.764
221 0 77.0473 13.6929 1055 116.653 581.666 462.604
222 0 82.0696 14.8411 1218 113.094 582.282 458.369
223 0 82.0882 14.4357 1185 113.624 582.487 459.467
224 0 87.0457 14.4752 1260 113.567 581.881 458.495
225 0 88.0433 14.3793 1266 113.717 580.315 458.287
226 0 92.0496 14.9702 1378 112.157 581.083 458.068
227 0 95.1257 14.4861 1378 114.169 581.737 455.599
228 0 99.0707 14.1111 1398 117.89 580.893 452.481
229 0 100.119 14.2531 1427 118.497 580.721 450.139
230 0 104.199 14.2803 1488 118.806 580.966 447.186
231 0 107.176 15.2459 1634 115.873 580.41 449.001
232 0 112.12 15.0909 1692 115.45 580.754 445.95
233 0 115.121 14.7758 1701 115.714 581.971 445.438
234 0 120.157 14.9804 1800 114.956 581.279 441.776
235 0 126.157 14.0143 1768 116.419 581.32 439.818
236 0 128.23 14.5442 1865 117.663 580.811 436.698
237 1 60.1848 10.4512 629 122.604 580.507 468.555
238 0 65.1115 12.3634 805 117.489 580.819 468.037
239 0 67.1423 12.9129 867 116.934 580.446 464.821
240 0 67.1139 12.2031 819 116.526 580.971 468.857
241 0 70.323 13.9641 982 113.723 581.22 465.409
242 0 73.1517 14.9552 1094 112.121 581.07 465.585
243 0 75.1058 11.9831 900 120.07 581.144 464.198
244 0 78.0855 12.7168 993 119.138 580.769 461.7
245 0 83.1714 13.1295 1092 117.761 580.51 461.56
246 0 85.1734 13.7132 1168 116.478 580.911 459.783
247 0 87.179 12.4915 1089 121.095 581.848 457.511
248 1 50.1426 11.3875 571 118.576 580.968 475.287
249 0 52.1003 10.998 573 118.832 581.108 474.766
250 0 54.1323 11.8968 644 114.301 580.689 474.014
251 0 52.1186 9.91969 517 108.159 580.814 476.87
252 0 53.0672 11.2122 595 107.482 581.304 474.788
253 0 57.1053 11.6452 665 106.138 581.248 474.251
254 0 59.1153 10.3019 609 108.726 580.782 474.678
255 0 61.0915 10.9672 670 108.275 580.657 471.445
256 0 64.2229 11.3667 730 107.867 579.919 468.686
257 0 65.1128 10.9195 711 108.53 580.501 469.594
258 0 69.1132 11.5897 801 107.171 581.212 467.662
259 0 70.1163 10.7678 755 109.012 581.229 467.432
260 0 74.1719 11.7295 870 106.639 581.3 465.953
261 0 74.0696 11.1787 828 108.893 580.9 464.527
262 0 78.093 11.307 883 108.683 580.519 463.478
263 0 81.0915 11.7522 953 106.902 581.081 464.931
264 0 84.1255 13.0044 1094 105.809 581.488 460.989
265 0 86.0809 11.8958 1024 108.466 580.932 459.854
266 0 90.1183 13.338 1202 105.017 581.852 459.968
267 0 91.1463 10.9275 996 110.355 580.467 458.008
268 0 94.1287 11.7817 1109 109.096 580.905 456.583
269 0 98.1132 11.7925 1157 109.961 581.192 454.147
270 0 103.062 11.3912 1174 115.167 581.197 450.365
271 0 107.095 11.3078 1211 115.98 580.164 450.891
272 1 55.1097 12.2664 676 106.598 581.025 475.004
273 0 56.0493 12.1143 679 108.433 581.374 474.579
274 0 56.0777 11.8585 665 109.445 580.571 473.517
275 0 58.0554 11.3685 660 108.423 581.059 474.473
276 0 59.1097 11.4871 679 108.9 582.434 471.022
277 0 63.0786 10.3205 651 108.785 581.943 472.94
278 0 64.0697 10.7383 688 107.895 581.562 472.786
279 0 68.0762 11.5165 784 105.409 581.878 470.328
280 0 69.1809 11.9397 826 105.975 580.975 466.964
281 0 73.0444 11.6641 852 108.33 581.391 466.951
282 0 74.1337 11.5062 853 110.858 580.365 465.63
283 0 77.1095 12.8908 994 108.357 580.242 463.189
284 0 78.179 11.4865 898 111.08 580.973 461.275
285 0 81.1952 11.9342 969 108.973 580.132 462.137
286 0 83.1473 11.8945 989 108.89 580.74 458.745
287 0 86.0741 11.0719 953 108.47 581.288 457.93
288 0 90.1092 11.9189 1074 106.732 581.123 456.456
289 0 94.1055 11.6678 1098 107.506 581.212 453.428
290 1 48.0817 10.8981 524 109.985 580.842 475.401
291 0 49.0722 11.4729 563 104.766 580.391 473.272
292 0 50.1016 11.0775 555 101.353 580.85 467.778
293 0 51.1034 10.469 535 102.329 581.062 467.213
294 0 54.0789 11.1504 603 100.38 580.163 468.902
295 0 56.1241 10.0848 566 102.295 580.284 467.39
296 0 57.1461 10.9544 626 102.085 580.97 463.422
297 0 58.0804 11.243 653 100.819 580.524 467.194
298 0 60.0598 10.8059 649 102.65 580.473 465.894
299 0 64.0604 13.3 852 99.2289 580.227 465.668
300 0 63.0639 11.8927 750 106.74 581.237 465.591
301 0 69.0648 13.0602 902 102.202 580.675 464.998
302 0 67.225 12.0193 808 106.709 581.045 464.188
303 0 71.0894 13.476 958 103.806 581.306 464.063
304 0 74.0546 13.8952 1029 102.163 581.856 463.382
305 0 75.2395 13.8358 1041 103.224 581.164 460.573
306 0 76.1257 13.4908 1027 104.565 581.289 459.608
307 0 80.2564 13.5939 1091 102.88 580.769 460.065
308 0 85.2174 15.1143 1288 98.611 580.779 455.608
309 0 84.0609 12.5742 1057 105.763 580.157 458.816
310 0 87.2118 12.7162 1109 105.624 580.511 455.61
311 0 90.1409 12.4694 1124 105.994 580.398 455.903
312 0 94.1759 13.4536 1267 103.542 580.665 453.9
313 0 98.1422 12.8079 1257 103.968 580.499 453.867
314 0 100.171 13.0976 1312 102.367 580.841 454.192
315 0 103.149 13.0975 1351 103.135 581.611 448.96
316 1 56.2712 12.653 712 100.824 581.376 469.865
317 0 59.1558 13.3377 789 99.1939 581.157 470.16
318 0 60.0957 12.8628 773 101.232 580.952 468.86
319 0 61.1315 12.285 751 104.212 580.493 464.88
320 0 64.1651 14.3224 919 98.3145 581.418 466.679
321 0 65.0915 14.2876 930 100.006 581.542 463.271
322 1 77.2148 15.826 1222 90.3003 580.755 461.74
323 0 77.1953 17.9286 1384 87.4523 581.819 458.733
324 0 77.0793 15.1273 1166 94.9949 581.588 459.069
325 0 79.1807 15.2941 1211 96.2948 580.497 460.127
326 0 78.1802 14.2491 1114 101.017 581.29 460.782
327 0 81.2439 14.438 1173 101.176 581.989 460.125
328 0 79.0573 13.7495 1087 104.646 581.588 459.955
329 0 83.1522 13.8902 1155 105.074 581.974 457.584
330 0 84.1252 13.1471 1106 107.525 582.261 455.487
331 0 88.123 13.8443 1220 105.456 582.196 454.708
332 0 92.1366 14.9126 1374 103.274 581.513 453.009
333 0 96.1563 14.6428 1408 102.916 581.677 453.888
334 0 98.1921 14.6549 1439 103.616 581.473 450.928
335 0 103.175 14.0248 1447 103.997 581.402 450.431
336 0 105.228 14.1883 1493 103.721 582.387 450.526
337 0 108.361 14.5717 1579 101.222 581.655 448.896
338 1 57.1068 13.4485 768 102.529 581.947 473.033
339 0 56.1875 13.5261 760 104.082 581.654 470.713
340 0 60.0609 13.7028 823 102.446 581.909 470.123
341 0 63.0675 14.3339 904 101.553 581.709 467.294
342 0 64.1878 13.1801 846 104.243 581.124 466.048
343 0 67.213 13.5539 911 103.471 581.811 465.557
344 0 70.1015 13.3806 938 103.224 580.198 466.136
345 0 75.2195 13.5736 1021 101.869 580.942 463.361
346 0 77.1523 14.3612 1108 101.08 580.701 461.721
347 0 77.1187 14.173 1093 102.325 581.366 460.919
348 0 81.0863 15.1567 1229 101.255 580.866 459.055
349 0 82.1162 14.3334 1177 103.138 581.244 457.331
350 0 87.0899 14.6056 1272 102.034 580.754 458.097
351 0 90.1201 15.5792 1404 100.567 580.556 453.033
352 0 93.1902 15.0445 1402 101.549 581.001 454.859
353 0 94.1601 15.0913 1421 102.027 580.564 454.643
354 0 99.2036 15.0398 1492 101.735 581.307 451.495
355 0 102.107 13.4662 1375 105.768 581.041 450.257
356 0 107.092 13.7639 1474 105.041 580.799 446.18
357 1 58.0791 11.7254 681 102.219 581.339 471.364
358 0 60.0394 13.208 793 100.943 580.72 468.629
359 0 59.0965 13.2157 781 104.44 581.302 465.239
360 0 64.083 12.6243 809 103.771 581.44 466.185
361 0 67.1554 12.2403 822 103.092 581.634 466.764
362 0 68.1589 13.2338 902 102.551 581.038 464.121
363 0 69.1281 13.6992 947 103.282 580.728 459.873
364 0 74.0415 13.1413 973 103.711 581.07 460.117
365 0 75.1114 14.2988 1074 101.779 581.114 458.637
366 0 79.1575 13.4668 1066 103.328 580.437 458.152
367 0 79.1203 13.3341 1055 105.034 580.427 455.892
368 0 81.1523 12.3718 1004 107.795 579.759 454.814
369 0 83.2135 12.8465 1069 107.467 580.836 453.666
370 0 88.0619 13.2066 1163 107.028 580.576 451.688
371 0 90.1047 13.0293 1174 107.769 579.881 451.124
372 0 95.1441 14.2731 1358 105.356 580.723 449.112
373 0 98.125 13.7376 1348 106.838 580.838 445.935
374 1 50.0358 9.6331 482 105.249 580.552 472.89
375 0 54.0775 10.7623 582 103.543 581.046 472.21
376 0 57.0409 11.3603 648 101.332 579.877 469.292
377 0 60.0977 12.463 749 99.713 580.103 471.753
378 0 61.0428 11.6476 711 102.56 580.83 471.993
379 0 66.033 12.4635 823 100.637 580.998 471.049
380 0 65.1045 14.0543 915 99.8372 580.598 468.304
381 0 66.0555 11.5963 766 105.988 581.336 467.423
382 0 72.0863 13.6226 982 100.877 581.283 466.245
383 0 72.1344 11.9915 865 107.273 580.453 464.655
384 0 76.1542 13.1575 1002 104.609 581.011 464.167
385 0 78.1117 13.8008 1078 104.535 580.828 462.741
386 0 80.2033 13.8523 1111 105.653 581.53 461.144
387 0 84.1418 14.737 1240 103.741 580.511 460.32
388 0 88.2581 12.7354 1124 108.333 581.6 460.397
389 0 90.1928 13.0831 1180 107.459 581.145 459.142
390 0 93.2788 12.5752 1173 108.861 580.868 457.041
391 1 49.1335 11.9063 585 103.735 581.147 476.704
392 0 50.0386 12.0107 601 105.82 581.78 477.616
393 0 51.0396 10.3253 527 99.9753 581.526 477.941
394 0 53.0959 12.2608 651 95.9862 581.169 478.109
395 0 53.0914 9.75676 518 100.11 581.477 478.158
396 0 56.0223 12.6021 706 96.0156 581.129 474.996
397 0 59.0318 12.6881 749 94.8678 580.852 474.694
398 0 60.2556 11.1525 672 97.0565 581.193 475.54
399 0 63.1718 12.0782 763 96.0577 580.582 472.363
400 0 63.0744 11.0187 695 98.6144 580.845 470.302
401 0 67.0317 12.1883 817 96.0477 580.166 471.162
402 0 66.0813 9.95744 658 101.049 580.245 467.742
403 0 67.0536 10.9912 737 99.5034 579.769 465.882
404 0 75.1216 11.9406 897 95.3066 580.179 467.605
405 0 74.0788 10.9343 810 98.9642 580.853 465.08
406 0 77.1427 11.3037 872 97.9094 580.763 465.42
407 0 80.0887 13.0355 1044 95.4435 579.986 460.939
408 0 84.1014 11.0819 932 107.703 579.773 460.452
409 0 87.1011 12.6864 1105 104.656 580.269 458.126
410 0 90.0958 11.732 1057 106.58 580.156 456.309
411 0 93.0936 11.8053 1099 104.74 580.198 457.806
412 1 51.144 9.30705 476 103.979 580.483 475.002
413 0 54.0986 11.3312 613 96.6721 580.409 473.969
414 0 56.0907 10.3939 583 97.0515 579.407 473.365
415 0 59.0683 11.9184 704 89.5284 579.788 474.531
416 0 59.0779 11.5441 682 87.4472 580.088 469.927
417 0 59.068 11.5799 684 88.3977 580.361 468.906
418 0 63.0268 11.7093 738 88.2615 579.955 469.386
419 0 61.0707 9.26794 566 94.182 580.525 469.792
420 0 67.0973 11.61 779 91.2375 580.571 473.765
421 0 67.0693 11.3465 761 91.6281 579.932 472.445
422 0 69.135 12.8734 890 89.8607 580 465.165
423 0 72.0542 11.8522 854 93.4625 579.783 469.714
424 0 74.2139 11.3456 842 94.7233 580.341 468.77
425 0 75.1327 12.5112 940 92.2362 580.153 465.996
426 0 77.1309 11.5518 891 95.6352 579.249 465.632
427 0 79.0755 12.0265 951 96.734 579.703 465.074
428 0 82.0521 13.0892 1074 95.0717 579.848 463.473
429 0 84.0905 12.439 1046 97.3413 579.514 461.489
430 0 87.0693 11.5425 1005 99.1851 578.738 460.661
431 0 91.1317 12.7508 1162 96.9182 578.878 458.841
432 0 94.1764 12.8058 1206 97.7521 579.455 457.369
433 0 96.0418 12.0885 1161 100.392 579.392 454.625
434 0 96.0745 11.9803 1151 105.255 580.116 448.097
435 0 102.163 13.0184 1330 104.061 579.971 449.272
436 0 106.241 12.2834 1305 111.772 579.402 444.936
437 1 59.2167 11.4157 676 105.036 579.467 470.57
438 0 62.1792 10.8718 676 97.1228 579.981 471.979
439 0 63.112 12.5174 790 95.5494 579.962 469.762
440 0 65.095 10.7535 700 99.8429 580.244 469.77
441 0 67.1495 11.0053 739 99.1894 579.876 466.275
442 0 70.1042 10.5985 743 100.869 579.903 467.855
443 0 72.0865 12.4018 894 97.6532 579.745 465.782
444 0 76.0787 11.1726 850 100.474 580.955 464.042
445 0 79.2161 11.7653 932 99.5923 580.391 464.372
446 0 79.173 10.3571 820 102.577 580.688 461.612
447 0 85.0975 10.2823 875 105.927 580.448 459.008
448 1 45.0525 10.2991 464 96.4569 580.459 480.216
449 0 45.025 11.0161 496 93.4819 581.052 480.734
450 0 47.0648 10.3262 486 95.07 580.918 477.858
451 0 48.0661 10.6936 514 93.9844 580.955 479.072
452 0 52.0269 11.0904 577 93.4073 580.334 477.683
453 0 51.0857 11.0011 562 94.8737 581.269 477.849
454 0 51.0236 10.7205 547 96.521 580.861 474.854
455 0 55.0497 11.4079 628 95.6226 581.139 474.849
456 0 56.0268 10.7449 602 98.5266 580.502 473.995
457 0 56.1026 11.1938 628 98.3901 580.721 474.056
458 0 57.2048 10.3488 592 99.6976 580.998 472.841
459 0 59.0358 11.2474 664 99.387 580.66 470.248
460 0 62.2373 11.9382 743 98.5101 579.939 467.703
461 0 65.0395 12.1465 790 98.3722 580.838 468.776
462 0 67.1242 12.1566 816 98.3603 579.641 465.873
463 0 68.0596 10.0206 682 105.477 580.218 460.183
464 0 70.0647 10.7615 754 104.947 580.009 458.17
465 0 75.0466 11.2996 848 102.58 580.341 463.525
466 0 77.0496 10.7204 826 103.579 579.798 463.071
467 0 80.1768 11.6617 935 102.763 580.175 462.211
468 1 44.0552 10.85 478 94.0272 579.897 483.929
469 0 43.0462 10.1751 438 98.8447 579.783 479.189
470 0 46.0342 11.0353 508 95.5984 579.961 479.872
471 0 49.2026 11.4222 562 94.2367 579.986 480.009
472 0 49.0331 11.788 578 94.891 580.457 479.256
473 0 50.0286 10.434 522 98.7261 580.391 477.837
474 0 51.2159 12.6133 646 95.9458 580.786 473.46
475 0 55.0427 11.809 650 96.3246 580.242 477.291
476 0 57.1897 11.6105 664 97.0316 580.05 476.253
477 0 56.0906 11.5527 648 99.1466 580.608 473.903
478 0 58.0405 13.5078 784 95.6888 580.357 473.49
479 0 60.0526 11.8563 712 106.958 580.728 470.975
480 0 61.0441 11.2542 687 106.763 579.681 470.787
481 0 64.0692 12.1743 780 103.487 579.987 471.865
482 0 67.1627 13.1918 886 100.779 580.046 470.112
483 0 67.0641 11.064 742 106.075 579.904 467.222
484 0 71.0846 12.886 916 101.692 580.331 468.08
485 0 73.0521 12.1146 885 102.612 579.956 465.177
486 0 76.0894 11.907 906 102.404 579.578 464.528
487 0 80.0586 12.3659 990 100.913 579.093 464.013
488 0 81.1375 12.1029 982 101.198 579.409 462.199
489 0 83.1162 12.5728 1045 101.134 579.177 458.482
490 0 87.1062 12.9382 1127 99.7755 579.428 458.329
491 0 88.1561 11.7065 1032 102.975 579.753 459.461
492 0 92.0618 11.5466 1063 102.944 579.924 456.298
493 1 50.1306 11.2307 563 98.4831 579.966 477.362
494 0 50.0845 11.2809 565 100.796 579.455 476.501
495 0 51.0786 11.7074 598 106.035 579.336 474.759
496 0 53.0854 11.246 597 104.905 579.281 474.189
497 0 54.165 12.6096 683 104.227 580.366 473.706
498 0 55.094 12.5785 693 102.42 580.589 475.208
499 0 56.0803 12.1968 684 104.14 580.238 472.788
500 0 57.1371 11.5162 658 106.116 580.609 469.857
501 0 60.0581 11.4056 685 105.375 579.285 468.542
502 0 62.0577 11.6827 725 105.53 579.502 468.699
503 0 64.1699 11.08 711 106.745 580.309 469.177
504 0 65.0126 11.0902 721 105.929 579.745 466.528
505 0 70.0619 11.6183 814 104.168 580.092 464.673
506 0 71.0864 12.1964 867 103.448 580.123 464.69
507 0 76.0503 11.19 851 105.376 579.992 462.684
508 0 77.0806 12.0653 930 103.96 579.774 460.69
509 0 82.1198 12.6279 1037 102.426 579.829 462.097
510 0 85.1819 12.5614 1070 103.033 580.008 461.17
511 1 47.0787 10.5143 495 100.83 579.014 480.364
512 0 46.0213 10.5386 485 104.142 580.449 480.266
513 0 48.0397 10.4497 502 106.382 579.598 478.538
514 0 50.1004 12.9939 651 97.6022 580.166 478.346
515 0 50.0299 10.6936 535 102.447 580.46 477.981
516 0 54.0269 13.9005 751 95.9787 580.807 475.96
517 0 55.0414 11.0644 609 101.88 580.241 475.762
518 0 57.027 11.2403 641 102.766 579.747 474.68
519 0 56.0922 11.802 662 102.198 580.505 475.979
520 0 59.0809 10.5618 624 104.322 579.59 474.748
521 0 61.1247 11.5011 703 103.385 579.794 471.754
522 0 64.0662 11.7066 750 102.544 579.931 471.863
523 0 68.085 11.1478 759 101.848 579.556 472.321
524 0 70.0829 10.8871 763 102.329 579.857 469.982
525 0 74.1061 12.4416 922 99.2993 579.949 468.883
526 0 76.0782 11.5539 879 100.68 579.778 467.588
527 0 80.0835 13.2986 1065 98.5023 580.032 463.634
528 0 82.2017 13.0654 1074 99.406 580.104 463.125
529 0 86.2069 14.0824 1214 95.7669 579.913 462.713
530 0 89.1167 12.8708 1147 100.315 579.287 459.546
531 0 92.1593 12.8256 1182 103.321 578.948 459.419
532 0 96.1619 12.8637 1237 104.121 579.411 456.788
533 1 53.076 12.2654 651 99.5684 579.528 478.069
534 0 56.0301 11.476 643 101.555 579.365 476.813
535 0 54.087 11.1487 603 104.718 579.171 474.537
536 0 58.1589 11.6405 677 98.3693 579.149 473.341
537 0 60.0269 12.7276 764 95.4005 579.399 474.077
538 0 61.1269 12.7603 780 95.5526 580.081 472.556
539 0 63.0224 12.6622 798 96.2281 579.6 470.937
540 0 64.0501 11.2724 722 99.6704 579.565 470.756
541 0 65.159 11.8479 772 99.8575 579.519 468.521
542 0 70.0777 12.8286 899 98.0356 579.229 467.83
543 0 70.0694 11.3459 795 102.692 578.743 467.87
544 0 73.0804 12.9036 943 99.8165 579.643 464.697
545 0 73.0879 12.1498 888 104.084 578.643 464.85
546 0 78.0343 12.1741 950 104.704 579.526 465.227
547 0 79.0784 12.3042 973 105.272 579.726 464.039
548 0 81.1098 11.5892 940 107.626 579.244 462.986
549 0 84.1561 10.8727 915 109.664 579.18 459.954
550 0 87.074 11.5189 1003 108.981 579.358 458.707
551 0 89.1497 11.2395 1002 109.777 578.857 459.062
552 0 91.03 11.4028 1038 110.599 578.976 455.773
553 0 95.1316 11.3842 1083 111.385 578.849 454.222
554 0 97.1221 12.1908 1184 110.916 579.342 450.741
555 0 100.152 10.524 1054 110.452 579.852 448.141
556 0 102.099 12.7131 1298 109.763 580.666 449.261
557 0 105.118 11.939 1255 114.524 579.951 448.179
558 0 106.13 12.5978 1337 104.794 579.991 450.975
559 0 107.078 12.4302 1331 109.265 580.005 446.985
560 0 108.092 11.5735 1251 113.728 579.895 442.676
561 1 55.0449 9.24699 509 115.163 580.528 470.269
562 0 57.0406 9.32669 532 116.35 580.825 471.248
563 0 61.0437 10.7136 654 114.19 580.835 472.552
564 0 60.1535 11.587 697 113.643 580.522 471.082
565 0 62.0442 10.9922 682 114.711 579.883 472.472
566 0 62.1025 10.2733 638 116.296 580.411 471.381
567 0 65.1406 11.0837 722 111.345 580.155 471.821
568 0 67.0542 11.9157 799 108.839 580.632 469.877
569 0 70.0843 11.372 797 109.552 580.108 468.725
570 0 71.0613 11.2016 796 108.451 580.402 468.931
571 0 71.0997 10.1126 719 99.8498 580.27 469.494
572 0 71.1229 7.71904 549 104.627 580.668 469.94
573 0 75.0992 10.5727 794 100.7 580.024 465.985
574 0 75.0878 10.9738 824 105.096 579.343 463.324
575 0 80.0941 11.5489 925 103.692 580.431 464.597
576 0 81.2025 11.0218 895 106.641 580.34 462.915
577 0 81.1783 11.0374 896 108.394 579.558 459.516
578 0 86.1378 12.5497 1081 105.714 579.156 459.179
579 0 89.163 11.2378 1002 108.312 578.948 459.747
580 0 91.0358 11.6987 1065 108.183 578.113 460.392
581 0 93.2198 11.7893 1099 110.349 578.399 457.725
582 1 50.092 10.9 546 109.921 579.114 479.02
583 0 52.1243 11.9138 621 111.267 579.3 475.494
584 0 51.1253 12.2249 625 113.589 580.059 479.181
585 0 53.0433 12.0656 640 115.039 579.383 477.503
586 0 53.1662 12.0377 640 114.591 579.567 476.752
587 0 52.0776 11.4637 597 116.04 579.414 476.983
588 0 56.071 12.93 725 112.128 580.074 476.297
589 0 54.1686 12.1657 659 116.986 579.379 475.888
590 0 57.0202 11.2592 642 119.025 578.894 476.327
591 0 58.1075 12.1843 708 118.052 579.869 474.946
592 0 61.0537 12.792 781 116.767 579.168 473.196
593 0 63.0225 12.8526 810 117.986 579.665 472.57
594 0 64.0503 12.6307 809 118.78 579.391 473.131
595 0 67.0295 11.6218 779 121.362 579.409 473.001
596 0 69.036 12.9353 893 118.333 579.522 471.831
597 0 71.0412 12.6687 900 118.886 579.103 470.214
598 0 73.0252 12.7079 928 119.115 579.224 468.041
599 0 76.1049 11.8521 902 122.022 579.631 469.126
600 0 77.1297 12.1224 935 122.749 579.234 465.53
601 0 80.1259 12.1309 972 123.718 579.429 465.986
602 0 80.0829 12.0625 966 125.153 579.534 461.693
603 0 82.1253 12.2861 1009 123.453 579.187 463.652
604 0 85.0483 11.0878 943 125.245 578.564 465.657
605 0 89.2172 12.4864 1114 121.834 579.603 460.639
606 0 94.1054 13.0386 1227 121.833 579.197 458.194
607 1 51.0739 11.2974 577 116.541 578.633 479.34
608 0 50.1369 10.8902 546 113.372 579.115 476.573
609 0 52.0598 11.3907 593 106.806 579.142 479.496
610 0 52.0681 12.0995 630 112.06 578.575 478.267
611 0 55.0125 12.3426 679 110.085 578.776 478.675
612 0 58.0342 11.9757 695 108.335 579.131 479.001
613 0 61.0593 11.366 694 108.859 578.115 476.225
614 0 62.0558 11.3607 705 109.157 578.779 475.997
615 0 63.1683 11.6198 734 108.91 579.163 472.94
616 0 67.054 11.871 796 107.7 578.764 473.55
617 0 70.049 11.7204 821 108.269 578.759 471.755
618 0 73.0869 12.0678 882 106.82 579.179 471.846
619 0 73.1243 10.7078 783 111.356 578.218 469.008
620 0 78.0334 12.0718 942 107.421 578.725 467.887
621 0 80.1495 11.3787 912 109.089 578.829 467.33
622 0 84.1146 12.1144 1019 107.851 577.781 463.747
623 0 86.1424 11.7132 1009 110.183 578.651 462.636
624 0 89.1535 12.2934 1096 107.997 579.048 463.592
625 0 93.1316 12.4125 1156 107.729 578.833 459.869
626 0 96.0629 11.888 1142 107.774 578.5 460.19
627 1 53.0989 10.3204 548 108.248 578.109 479.252
628 0 53.0792 12.0386 639 105.9 578.39 477.205
629 0 53.0257 10.2215 542 106.111 578.546 478.651
630 0 55.0692 9.89664 545 105.523 578.883 479.279
631 0 56.0273 11.2981 633 103.414 578.773 477.199
632 0 61.1205 12.1727 744 100.344 579.133 476.138
633 0 63.0377 11.3265 714 101.657 579.486 474.811
634 0 64.0868 10.8135 693 103.778 578.964 473.436
635 0 67.0722 11.3758 763 101.612 578.505 473.45
636 0 70.0707 10.3752 727 103.194 578.083 471.651
637 0 72.1113 9.59627 692 102.905 578.754 465.916
638 0 77.0627 10.9911 847 100.406 578.305 464.368
639 0 79.1191 12.715 1006 97.8072 578.396 464.03
640 0 77.105 10.8424 836 103.218 577.724 459.756
641 0 87.0806 12.9191 1125 98.3511 578.242 459.384
642 0 90.2128 12.4151 1120 104.237 578.246 458.765
643 0 93.2588 13.4786 1257 102.512 578.782 458.024
644 0 96.1437 12.8037 1231 107.094 578.242 455.37
645 0 99.1853 13.4294 1332 106.557 577.836 454.95
646 0 102.249 12.1762 1245 109.52 577.856 451.344
647 1 53.0498 9.57591 508 104.183 578.768 478.124
648 0 58.2328 10.8186 630 102.84 578.471 474.919
649 0 58.0551 12.8154 744 103.183 578.593 476.43
650 0 59.1235 11.383 673 106.386 578.97 475.217
651 0 63.0998 11.6482 735 104.32 579.182 475.729
652 0 64.0751 12.0171 770 103.647 579.168 475.125
653 0 67.0316 12.6209 846 103.487 579.069 471.504
654 0 68.0754 11.546 786 102.62 579.243 469.877
655 0 70.2162 11.7637 826 104.834 578.631 468.369
656 0 75.038 12.0339 903 104.567 578.932 468.02
657 0 77.0739 11.4436 882 104.573 579.124 467.812
658 0 79.1067 11.6551 922 105.191 579.939 467.297
659 0 84.0943 12.5217 1053 101.929 579.507 466.117
660 0 85.1767 12.0103 1023 105.362 579.427 462.765
661 0 89.0493 12.7794 1138 103.659 579.649 459.832
662 0 90.1999 12.4501 1123 105.318 579.549 458.789
663 0 94.1894 12.1988 1149 106.077 579.514 457.594
664 0 97.1608 12.4227 1207 106.214 578.178 454.825
665 0 100.188 11.6281 1165 107.589 578.754 455.01
666 0 103.291 11.3563 1173 110.514 579.034 448.412
667 0 108.145 11.5863 1253 108.915 579.275 451.694
668 1 60.0494 10.8244 650 100.762 578.426 474.915
669 0 62.0911 10.3235 641 101.576 579.619 474.368
670 0 63.0811 9.7018 612 102.392 579.598 475.208
671 0 66.0687 11.0491 730 101.796 579.568 472.355
672 0 71.0915 11.45 814 99.9287 579.128 471.579
673 0 73.1734 11.3019 827 101.268 579.039 469.515
674 0 75.1276 12.0062 902 99.755 579.242 468.541
675 0 80.212 12.28 985 99.3269 579.415 465.489
676 0 81.1034 12.5395 1017 99.057 580.114 464.088
677 0 84.0713 12.3942 1042 100.116 579.275 463.273
678 0 87.1008 11.0676 964 103.697 580.396 462.517
679 0 90.0941 12.3648 1114 102.845 579.486 460.496
680 0 91.0725 11.3865 1037 106.724 578.924 457.365
681 0 95.055 12.0036 1141 104.604 579.258 456.621
682 0 98.1333 11.464 1125 106.808 579.982 454.832
683 0 102.115 12.5349 1280 106.695 580.279 451.551
684 0 104.176 11.7974 1229 108.638 580.173 450.478
685 0 111.269 13.9032 1547 103.266 579.784 448.824
686 1 59.1785 10.9668 649 103.948 580.112 475.516
687 0 59.2413 11.1071 658 105.945 580.562 471.128
688 0 62.1221 13.1515 817 100.11 580.498 472.616
689 0 64.1507 12.4395 798 102.431 580.05 471.702
690 0 68.1007 13.0982 892 100.429 580.38 470.485
691 0 67.091 11.6856 784 105.153 580.171 469.61
692 0 69.0817 11.4502 791 105.842 579.343 469.431
693 0 72.0605 12.5311 903 103.853 580.243 465.798
694 0 76.0988 13.719 1044 99.4741 580.117 466.297
695 0 77.0858 12.6093 972 103.729 580.39 464.992
696 0 79.1077 12.9065 1021 103.942 580.143 462.292
697 0 80.1829 11.8354 949 106.318 580.332 461.13
698 0 85.1297 12.9449 1102 103.306 580.316 462.036
699 0 86.2622 12.404 1070 105.219 580.546 458.763
700 0 90.1947 13.5152 1219 102.888 579.352 456.552
701 0 91.2025 13.5742 1238 103.415 579.923 454.695
702 0 95.1607 12.4106 1181 106.837 580.148 455.688
703 0 99.1805 12.7747 1267 105.623 580.314 452.927
704 0 103.109 12.2492 1263 112.252 579.918 451.41
705 0 104.179 11.4514 1193 114.952 578.842 447.139
706 1 53.1053 11.0912 589 109.861 580.401 472.204
707 0 49.1823 11.6505 573 107.269 579.503 466.944
708 0 57.086 12.3498 705 110.861 579.797 473.887
709 0 59.158 12.7286 753 109.479 579.879 473.179
710 0 60.1346 12.6383 760 110.061 579.432 471.913
711 0 61.1957 11.5368 706 112.955 579.783 470.829
712 0 65.0297 13.5323 880 107.782 580.018 470.383
713 0 66.0771 13.2421 875 108.616 579.627 469.711
714 0 72.0912 14.9255 1076 100.901 579.966 463.32
715 0 69.0541 13.3084 919 107.922 580.282 467.207
716 0 70.0257 12.7667 894 110.612 579.753 465.974
717 0 74.0437 13.519 1001 108.376 580.269 462.501
718 0 76.1207 12.7561 971 110.119 579.904 462.523
719 0 79.0433 14.7261 1164 106.248 579.791 459.874
720 0 81.1152 13.1048 1063 110.72 580.462 459.789
721 0 83.1599 13.3598 1111 110.326 580.838 458.983
722 0 86.1183 14.4569 1245 108.071 580.371 456.178
723 0 89.0939 12.6384 1126 110.907 580.633 459.179
724 0 92.0946 13.9965 1289 108.587 580.042 454.992
725 0 94.1789 13.8141 1301 109.032 580.277 451.892
726 0 97.1027 14.2735 1386 108.615 579.784 450.73
727 0 101.148 13.7917 1395 108.898 579.29 449.267
728 0 104.208 12.7821 1332 110.368 579.986 449.823
729 0 106.137 12.5027 1327 111.469 579.56 447.126
730 0 109.094 12.393 1352 111.739 579.783 444.803
731 1 63.0457 12.2768 774 107.204 580.037 469.942
732 0 65.0731 12.509 814 106.096 580.093 468.052
733 0 70.0626 12.9741 909 106.09 580.1 466.285
734 0 71.0945 11.5339 820 108.924 580.074 466.418
735 0 72.1189 11.6752 842 109.964 580.058 463.83
736 0 76.0731 12.0936 920 108.785 578.457 461.107
737 0 78.0562 12.8753 1005 108.77 579.826 459.492
738 0 82.1962 13.2245 1087 108.348 579.531 458.833
739 0 81.1489 13.3828 1086 111.059 579.35 454.527
740 0 83.1098 12.4534 1035 113.079 579.738 453.955
741 0 88.0622 14.0355 1236 109.887 580.29 451.287
742 0 87.1584 12.4371 1084 115.771 580.301 447.176
743 0 97.2657 12.3785 1204 112.861 579.518 449.135
744 0 99.1951 12.9039 1280 113.309 580.285 445.5
745 0 103.2 13.4496 1388 112.427 579.612 444.553
746 0 107.112 13.7426 1472 110.813 579.312 442.177
747 1 55.0551 10.099 556 110.363 579.559 469.784
748 0 59.1448 11.3788 673 106.45 579.45 470.728
749 0 60.1387 12.5377 754 104.564 579.499 472.092
750 0 61.2464 12.5069 766 105.275 580.084 472.016
751 0 64.1537 11.9712 768 105.682 579.565 470.345
752 0 67.2315 11.7653 791 106.147 579.375 467.846
753 0 68.0923 11.8516 807 106.354 578.964 465.188
754 0 70.2157 12.9031 906 104.371 578.494 463.759
755 0 74.2971 13.2307 983 104.226 579.118 461.834
756 0 76.2479 12.1971 930 106.352 579.766 459.114
757 0 77.1908 13.2658 1024 104.421 579.277 460.118
758 0 80.2554 12.3232 989 107.51 578.743 455.868
759 0 84.15 12.347 1039 107.55 579.162 456.634
760 0 85.1166 13.0997 1115 106.394 579.491 455.727
761 0 87.1252 12.901 1124 108.03 579.034 453.141
762 0 87.1879 12.2953 1072 109.28 578.656 449.457
763 0 93.109 11.4597 1067 109.801 578.283 449.699
764 0 97.064 11.8788 1153 109.019 577.899 446.622
765 0 102.228 11.9733 1224 108.17 578.505 447.525
766 1 62.1224 12.0247 747 104.641 579.553 473.533
767 0 62.0789 10.7122 665 106.039 578.292 470.758
768 0 66.0946 11.1961 740 98.3068 578.182 474.351
769 0 68.0583 11.8722 808 98.9047 578.804 468.594
770 0 72.0963 11.9285 860 97.4651 579.299 470.941
771 0 74.06 12.4629 923 95.9664 579.178 469.165
772 0 76.0747 12.9215 983 96.7701 578.21 465.316
773 0 78.102 10.5759 826 102.407 578.777 463.751
774 0 83.1505 12.1466 1010 103.314 578.914 462.606
775 0 86.1118 11.7057 1008 103.141 579.062 461.933
776 0 89.1335 12.7113 1133 101.867 579.259 460.041
777 0 93.0865 12.2467 1140 102.313 578.63 459.267
778 0 97.0856 11.6289 1129 103.892 579.109 457.824
779 0 99.1876 12.2092 1211 104.28 578.893 453.694
780 0 101.129 12.2715 1241 105.139 578.621 452.821
781 0 106.175 13.0162 1382 103.938 577.989 452.547
782 1 60.0553 9.60782 577 101.648 579.31 477.601
783 0 62.0708 11.9058 739 99.3911 578.655 473.7
784 0 65.1886 11.2443 733 101.689 579.479 470.666
785 0 67.0471 11.7529 788 99.7754 578.509 469.858
786 0 71.1644 12.7732 909 98.2717 578.189 468.922
787 0 75.1049 12.6623 951 97.4627 578.854 469.746
788 0 76.1395 12.0831 920 192.718 578.823 468.917
789 0 73.1212 7.64485 559 163.492 577.733 473.093
790 0 83.1706 12.312 1024 97.1055 578.271 456.289
791 0 85.2244 12.3674 1054 95.9592 578.602 452.94
792 0 88.2272 12.8305 1132 97.7977 578.201 452.957
793 0 93.2328 14.9304 1392 96.153 577.892 445.616
794 0 93.1865 11.6111 1082 105.974 578.348 452.06
795 0 96.1642 11.6364 1119 107.308 577.92 451.656
796 0 99.1498 12.4559 1235 106.563 578.89 449.577
797 0 104.215 12.5126 1304 108.031 578.488 448.048
798 1 55.0473 12.6073 694 106.11 577.735 469.821
799 0 59.1349 12.4123 734 110.605 578.225 470.174
800 0 57.0882 10.3699 592 110.301 578.738 472.767
801 0 61.1069 12.2572 749 107.061 579.378 476.198
802 0 62.0884 13.2231 821 106.882 578.814 474.826
803 0 65.0266 12.8563 836 111.01 578.734 472.548
804 0 67.078 12.5227 840 111.89 578.507 471.676
805 0 69.1218 13.7873 953 108.965 579.144 471.054
806 0 70.1177 12.3792 868 113.763 578.305 470.25
807 0 73.0564 13.0858 956 111.782 578.692 469.373
808 0 75.0722 12.761 958 112.886 578.711 468.559
809 0 77.0879 14.3473 1106 110.203 578.583 465.911
810 0 79.0824 12.3921 980 115.363 578.785 465.047
811 0 83.1084 13.8734 1153 111.028 578.437 465.065
812 0 84.1232 12.6243 1062 114.799 578.937 462.455
813 0 86.1601 12.2563 1056 116.36 577.999 461.954
814 0 91.31 13.1311 1199 115.295 577.964 459.158
815 0 94.1202 14.3115 1347 112.878 578.613 456.229
816 0 97.0972 13.0282 1265 115.37 578.542 455.575
817 0 100.07 14.26 1427 113.349 577.481 454.776
818 0 103.1 14.0446 1448 114.298 577.528 453.088
819 0 107.2 13.6941 1468 115.36 577.746 452.789
820 0 110.07 14.6635 1614 113.657 578.169 448.182
821 0 114.12 13.7838 1573 116.248 577.475 444.263
822 1 62.1647 11.7913 733 114.134 577.486 470.437
823 0 64.166 11.5482 741 116.179 577.611 470.506
824 0 66.1635 12.6807 839 114.281 577.284 469.324
825 0 70.0943 12.0124 842 113.941 578.007 469.133
826 0 72.0723 11.5995 836 115.278 577.86 468.597
827 0 75.0681 11.8559 890 113.007 577.098 466.129
828 0 76.0906 12.288 935 111.433 577.644 466.036
829 0 81.121 11.9944 973 111.578 577.522 463.266
830 0 84.0502 13.3611 1123 107.661 578.239 461.819
831 0 88.2058 12.7883 1128 107.89 577.745 461.877
832 0 89.1593 11.8552 1057 109.624 578.199 459.191
833 0 93.1913 13.1021 1221 106.877 577.79 456.814
834 0 95.1835 12.4706 1187 108.908 577.555 453.783
835 0 100.127 12.6139 1263 107.664 577.542 453.059
836 0 101.173 12.9086 1306 108.575 577.168 451.132
837 0 108.176 13.136 1421 107.287 578.042 449.15
838 0 112.217 13.2956 1492 108.025 577.68 446.995
839 1 57.1205 10.4691 598 104.839 578.49 473.161
840 0 61.0279 11.9126 727 103.029 578.315 471.377
841 0 64.0798 11.4232 732 103.418 578.327 470.577
842 0 67.0647 11.8691 796 101.709 578.975 471.216
843 0 70.1115 11.0823 777 102.651 579.557 470.674
844 0 72.1549 11.6416 840 107.4 579.03 468.799
845 0 74.0784 12.6488 937 107.662 579.141 464.181
846 0 77.1908 12.1776 940 107.162 579.117 465.076
847 0 80.1051 10.998 881 110.23 578.334 462.277
848 0 84.3012 12.2181 1030 108.202 579.076 459.866
849 0 87.123 11.4551 998 109.503 579.639 460.971
850 0 90.1039 11.631 1048 109.052 579.168 459.046
851 0 94.198 13.1425 1238 106.352 579.576 457.456
852 0 95.1155 11.7016 1113 109.905 579.345 456.049
853 0 98.2207 11.7796 1157 112.187 579.024 452.678
854 0 100.187 12.0474 1207 113.191 579.419 449.362
855 0 103.131 12.4017 1279 111.774 579.425 448.857
856 0 110.164 12.5631 1384 112.731 578.746 446.834
857 0 114.134 12.3364 1408 112.229 579.398 446.013
858 0 119.152 13.252 1579 109.588 578.774 443.761
859 0 124.268 13.3985 1665 109.109 578.488 439.927
860 1 68.0652 10.534 717 98.1562 578.421 468.605
861 0 74.1011 11.6867 866 94.7356 578.447 469.264
862 0 75.0746 10.3897 780 97.6526 578.831 469.297
863 0 74.1054 9.85084 730 96.811 578.127 459.038
864 0 79.0949 9.67193 765 97.3817 579.15 461.854
865 0 82.0962 9.61067 789 97.09 578.66 463.942
866 0 85.1015 11.0456 940 96.8426 578.377 461.591
867 0 88.0276 9.51974 838 100.193 578.821 461.274
868 0 89.0929 10.3487 922 100.926 578.844 459.464
869 0 93.1341 11.4136 1063 99.3302 577.739 455.909
870 0 97.066 11.3428 1101 99.6694 578.351 452.669
871 0 101.059 10.9045 1102 105.223 578.905 451.057
872 0 104.106 12.6313 1315 106.969 578.684 451.153
873 0 106.146 10.8907 1156 111.283 577.955 449.946
874 0 111.237 12.1542 1352 109.373 577.453 448.326
875 0 113.161 11.7797 1333 112.642 578.179 444.746
876 1 63.1122 10.9646 692 99.3786 578.029 474.591
877 0 65.2089 11.2868 736 102.08 578.202 470.717
878 0 66.1584 9.77956 647 104.838 578.049 469.617
879 0 72.1398 12.0183 867 100.121 577.798 470.224
880 0 74.0778 11.7444 870 102.209 578.098 467.71
881 0 75.1107 11.5563 868 104.96 578.968 464.176
882 0 76.1782 11.1055 846 107.732 578.357 464.604
883 0 82.1516 12.55 1031 104.863 577.565 464.231
884 0 86.1534 11.7697 1014 106.779 577.278 463.39
885 0 85.2466 11.8011 1006 108.69 577.498 457.942
886 0 89.1423 12.3623 1102 108.102 576.987 457.485
887 0 91.1029 11.723 1068 110.513 577.898 455.626
888 0 97.3971 12.7108 1238 107.428 577.872 456.263
889 0 98.1877 13.352 1311 108.342 577.96 451.622
890 0 101.277 11.7302 1188 111.807 577.984 451.039
891 0 104.231 12.0214 1253 112.366 578.22 449.817
892 0 106.218 13.3593 1419 110.767 577.851 445.655
893 0 110.253 11.9634 1319 114.508 577.713 446.083
894 0 112.232 12.3672 1388 114.473 577.809 444.367
895 0 119.239 12.6385 1507 113.638 577.672 442.41
896 0 121.198 11.5184 1396 115.992 577.981 442.627
897 0 124.459 13.4502 1674 112.371 578.222 439.444
898 1 62.2818 10.2598 639 112.577 578.501 469.853
899 0 67.1388 13.137 882 106.401 578.45 468.286
900 0 70.0934 12.3692 867 107.592 578.245 466.765
901 0 69.1583 12.0015 830 111.172 578.61 466.749
902 0 71.1366 12.2019 868 112.532 577.793 464.285
903 0 73.0566 13.1405 960 111.014 577.805 464.826
904 0 77.1078 12.9688 1000 111.466 577.608 462.838
905 0 80.114 11.6709 935 114.253 577.59 462.673
906 0 79.1324 10.792 854 116.925 577.533 463.972
907 0 85.1206 12.5469 1068 114.558 577.889 459.786
908 0 87.1719 11.701 1020 117.121 577.785 458.766
909 0 91.1323 12.235 1115 115.777 577.593 456.743
910 0 92.0992 11.5202 1061 117.242 578.205 459.057
911 0 96.0818 12.3124 1183 117.391 577.44 452.407
912 0 100.255 11.3012 1133 120.831 578.563 452.382
913 0 104.194 12.7647 1330 117.72 579.115 449.455
914 0 105.253 11.6766 1229 122.076 578.452 445.891
915 0 107.208 11.7808 1263 122.945 578.568 444.366
916 0 112.27 12.8529 1443 119.284 578.318 443.48
917 0 116.4 13.488 1570 118.154 577.694 439.345
918 0 123.328 12.6168 1556 118.492 577.274 438.524
919 0 128.293 14.6462 1879 113.554 578.467 434.327
920 1 71.1493 11.2018 797 113.514 577.868 463.383
921 0 74.2783 11.9147 885 113.694 578.567 461.121
922 0 77.1752 13.3333 1029 111.538 579.186 465.482
923 0 79.0388 13.4617 1064 114.056 579.501 462.758
924 0 81.1546 11.7677 955 118.488 579.613 463.253
925 0 86.097 13.0667 1125 113.839 579.861 460.588
926 0 88.1059 13.5519 1194 113.226 579.492 457.881
927 0 90.0887 12.854 1158 114.757 579.535 457.082
928 0 94.2082 14.1814 1336 111.024 579.47 455.707
929 0 95.192 12.6796 1207 115.597 579.707 453.779
930 0 100.143 13.1612 1318 113.963 579 452.874
931 0 105.207 13.5732 1428 112.016 578.938 449.396
932 0 108.214 13.9816 1513 112.401 579.112 445.537
933 0 111.137 13.7848 1532 112.407 579.717 443.405
934 0 112.14 13.064 1465 113.29 579.056 442.872
935 0 116.085 12.4047 1440 113.985 578.498 433.394
936 1 60.1337 9.32921 561 112.797 578.793 461.125
937 0 65.0815 11.4011 742 106.92 578.784 462.404
938 0 66.0411 10.7206 708 109.314 578.973 461.856
939 0 67.1072 10.595 711 111.263 579.34 457.692
940 0 71.2247 10.6564 759 110.792 579.22 458.891
941 0 73.0756 11.3444 829 109.966 579.376 456.795
942 0 76.1802 11.6828 890 107.633 579.269 458.644
943 0 81.0878 11.2347 911 108.559 578.787 454.439
944 0 82.2387 11.6733 960 108.372 578.161 452.955
945 0 86.1257 10.566 910 112.388 578.986 449.79
946 0 90.1165 11.5739 1043 109.125 578.071 452.279
947 0 94.0927 12.0519 1134 108.643 578.239 450.658
948 0 97.0991 12.2658 1191 108.605 578.61 449.548
949 0 101.082 12.2969 1243 115.396 578.447 450.65
950 0 106.2 13.3428 1417 112.206 578.739 449.498
951 0 107.211 12.2189 1310 114.313 578.879 449.882
952 0 111.212 12.148 1351 113.913 578.177 445.922
953 0 114.123 13.5205 1543 111.182 579.386 442.777
954 1 66.1545 11.9115 788 109.255 579.011 466.768
955 0 70.1001 12.5677 881 109.973 579.061 467.162
956 0 72.1917 13.1594 950 107.82 578.595 463.864
957 0 73.1864 12.6936 929 108.377 578.959 460.859
958 0 76.075 12.1328 923 110.077 579.329 460.806
959 0 79.1637 13.6679 1082 106.636 579.366 461.008
960 0 82.0996 13.8856 1140 104.948 578.717 460.508
961 0 86.0958 13.0552 1124 106.99 579.289 459.207
962 0 87.1486 13.3794 1166 107.498 578.575 456.217
963 0 91.0861 12.7791 1164 109.082 578.852 455.572
964 0 94.1911 13.5469 1276 108.408 578.558 455.094
965 0 97.114 13.4996 1311 108.603 578.616 440.404
966 0 100.093 12.3385 1235 112.047 578.134 437.41
967 0 104.138 12.5506 1307 111.354 578.079 436.809
968 0 106.11 13.7122 1455 108.562 578.366 448.559
969 0 112.242 13.7381 1542 106.857 578.689 447
970 0 115.142 13.5746 1563 106.458 577.809 444.706
971 0 119.114 12.2824 1463 108.858 578.755 443.571
972 0 124.143 13.4845 1674 106.872 578.627 440.336
973 1 65.0659 10.1128 658 95.6033 579.014 466.83
974 0 70.0271 13.7375 962 94.5977 578.416 467.214
975 0 73.0702 13.5349 989 94.729 579.15 466.877
976 0 76.0795 11.856 902 97.6053 578.276 465.678
977 0 79.2079 13.3699 1059 94.3994 578.195 463.141
978 0 80.1746 13.8697 1112 94.8237 578.867 460.65
979 0 85.1746 13.1025 1116 97.5923 578.936 457.4
980 0 87.1043 12.9729 1130 98.5912 579.675 455.42
981 0 90.1283 13.2478 1194 99.1298 578.759 446.349
982 0 94.2752 12.3681 1166 106.348 578.661 445.957
983 0 94.1439 11.2169 1056 109.752 578.961 446.138
984 0 100.298 12.8417 1288 105.92 579.994 445.806
985 0 103.215 13.1667 1359 104.781 579.678 448.818
986 0 107.165 12.5228 1342 106.899 578.892 445.338
987 1 61.204 11.1921 685 103.492 579.693 466.991
988 0 64.1635 12.4993 802 99.3853 579.631 465.559
989 0 64.1266 11.7424 753 103.255 579.312 468.251
990 0 67.0712 13.2546 889 100.791 578.735 466.364
991 0 69.1617 12.2611 848 101.558 579.417 466.607
992 0 73.1305 12.9768 949 100.091 579.554 463.886
993 0 75.151 13.413 1008 99.5079 579.558 461.738
994 0 78.1623 11.9239 932 102.945 578.954 460.67
995 0 84.1252 12.6954 1068 100.371 578.799 456.383
996 0 85.1144 12.4186 1057 102.943 578.325 455.468
997 0 86.057 12.2128 1051 104.735 578.572 453.879
998 0 90.2652 14.1029 1273 99.6952 579.163 452.98
999 0 94.2044 13.3646 1259 101.688 579.287 450.512
1000 0 95.2043 13.0876 1246 103.673 578.805 448.308
1001 0 98.0823 13.142 1289 103.804 578.436 446.881
1002 0 99.1098 13.2782 1316 105.993 578.911 445.081
1003 0 106.229 12.1342 1289 105.315 578.446 439.047
1004 0 108.094 13.2847 1436 104.845 578.576 435.941
1005 0 114.133 12.8709 1469 105.683 578.669 435.286
1006 1 63.1302 11.5634 730 107.323 579.036 460.501
1007 0 63.1706 11.0969 701 109.489 578.598 457.031
1008 0 65.0929 11.7678 766 108.937 578.251 453.359
1009 0 70.0308 12.9372 906 104.819 578.373 456.225
1010 0 72.1136 12.2862 886 107.705 578.03 452.834
1011 0 75.1092 11.6497 875 109.574 578.813 450.751
1012 0 77.0779 12.1176 934 109.007 579.516 451.468
1013 0 80.0792 11.9881 960 109.55 579.399 449.918
1014 0 82.0996 14.0196 1151 105.778 578.94 452.452
1015 0 86.0835 12.5576 1081 110.027 579.096 452.805
1016 0 89.1701 12.4818 1113 105.192 579.562 454.779
1017 0 90.11 12.3183 1110 106.473 579.07 451.731
1018 0 93.1168 11.9527 1113 107.258 579.465 450.95
1019 0 99.1309 13.1342 1302 104.671 579.628 449.363
1020 0 103.163 12.1459 1253 105.951 579.68 447.062
1021 1 54.0445 10.8799 588 110.372 578.787 465.599
1022 0 55.0738 11.076 610 112.277 578.99 458.93
1023 0 59.0585 11.9373 705 110.098 578.505 457.492
1024 0 60.0425 11.9748 719 110.768 578.455 457.353
1025 0 63.1529 12.0185 759 113.101 579.041 461.693
1026 0 67.0847 12.1935 818 112.103 579.153 461.645
1027 0 70.0992 13.0101 912 110.73 578.712 460.418
1028 0 70.1559 13.0994 919 110.732 578.793 459.753
1029 0 73.1414 11.4436 837 115.237 579.124 459.081
1030 0 75.1332 13.3629 1004 110.943 579.126 456.016
1031 0 78.0508 13.5425 1057 110.034 579.315 456.306
1032 0 80.1523 12.4014 994 113.947 579.434 453.816
1033 0 84.1702 13.6272 1147 110.565 578.713 450.447
1034 0 88.1212 13.2545 1168 111.599 579.301 449.42
1035 0 88.1214 13.2204 1165 113.605 579.021 449.495
1036 0 93.1135 13.4889 1256 111.8 577.803 446.043
1037 0 94.1274 14.2573 1342 111.914 579.206 445.441
1038 0 97.1567 13.1849 1281 114.221 579.59 445.417
1039 0 100.118 14.2132 1423 111.746 579.667 441.592
1040 0 104.198 14.0789 1467 112.955 579.375 439.429
1041 0 107.117 14.0501 1505 111.789 579.55 439.797
1042 0 111.144 13.2891 1477 113.17 579.533 437.863
1043 1 62.0477 10.3308 641 114.794 580.345 461.175
1044 0 63.1248 10.408 657 114.551 579.656 461.332
1045 0 66.0348 12.766 843 108.802 579.155 455.896
1046 0 68.0909 13.0267 887 109.471 579.422 453.657
1047 0 69.0774 12.5946 870 110.446 579.876 455.315
1048 0 72.0867 12.9289 932 109.674 579.733 454.339
1049 0 73.0501 12.7584 932 111.4 579.15 452.232
1050 0 81.0832 13.4306 1089 107.889 579.027 450.729
1051 0 83.1094 13.6086 1131 108.698 579.043 449.408
1052 0 83.0675 13.17 1094 110.639 579.22 447.263
1053 0 92.0835 14.1828 1306 106.5 579.386 446.606
1054 0 92.0525 12.2647 1129 112.273 578.9 446.912
1055 0 95.0445 12.9308 1229 111.703 579.317 444.749
1056 0 98.0563 13.2373 1298 112.383 578.181 440.838
1057 0 101.085 13.5035 1365 112.349 578.661 437.823
1058 1 55.0623 10.6243 585 112.484 578.997 463.805
1059 0 54.0461 12.3413 667 109.322 578.819 459.969
1060 0 62.0308 11.7522 729 106.694 578.602 464.815
1061 0 64.0726 11.2216 719 108.281 579.417 464.441
1062 0 66.0617 10.0361 663 111.193 579.183 461.661
1063 0 65.0576 11.851 771 110.523 578.922 456.379
1064 0 70.0809 12.4142 870 108.275 578.978 456.523
1065 0 69.0389 12.8044 884 110.493 578.657 453.553
1066 0 70.0335 13.2508 928 108.942 578.321 451.373
1067 0 75.0708 12.6947 953 110.097 578.837 452.502
1068 0 78.0735 13.6922 1069 108.669 578.758 449.541
1069 0 81.1003 13.4648 1092 108.601 579.071 448.46
1070 0 81.05 12.4368 1008 113.015 578.672 446.728
1071 0 86.2747 14.3611 1239 107.921 578.904 444.764
1072 0 87.0742 13.3335 1161 111.818 579.678 443.404
1073 0 92.0793 12.8911 1187 113.165 579.094 442.158
1074 0 93.2169 13.6778 1275 112.36 579.805 438.319
1075 0 96.1269 13.014 1251 114.636 579.253 438.521
1076 0 99.0685 14.6767 1454 111.569 579.291 436.567
1077 0 103.096 14.5883 1504 111.785 579.375 432.323
1078 0 108.181 13.5421 1465 113.442 579.646 429.612
1079 0 113.11 12.8989 1459 114.569 579.406 430.478
1080 0 119.112 12.7862 1523 115.015 578.627 426.55
1081 0 121.196 13.5978 1648 113.204 578.91 423.073
1082 0 129.202 13.2816 1716 113.09 579.528 421.655
1083 0 133.148 13.5714 1807 112.644 578.989 418.397
1084 0 139.233 13.3159 1854 113.723 578.826 415.118
1085 1 86.0743 12.4079 1068 106.126 579.935 456.037
1086 0 86.0675 11.2005 964 110.775 579.91 451.658
1087 0 88.1578 12.194 1075 109.451 580.324 451.014
1088 0 92.2885 11.6483 1075 111.19 579.45 448.738
1089 0 96.276 12.2564 1180 111.16 579.122 447.85
1090 0 100.172 13.3172 1334 108.906 579.701 444.374
1091 0 103.146 11.5564 1192 113.47 579.992 442.412
1092 0 105.205 12.661 1332 111.095 579.355 442.008
1093 0 109.184 12.685 1385 110.7 580.778 441.637
1094 0 114.179 11.8585 1354 111.663 580.159 438.369
1095 0 119.202 11.7951 1406 110.945 579.187 435.11
1096 1 65.1139 8.61567 561 105.585 580.036 461.373
1097 0 68.0639 10.0347 683 99.284 580.653 463.061
1098 0 70.1282 10.5093 737 95.882 580.682 460.468
1099 0 74.065 9.7887 725 95.3448 580.926 461.139
1100 0 75.1373 10.9134 820 93.6037 581.313 459.355
1101 0 78.1241 9.53611 745 96.647 580.805 453.489
1102 0 82.1402 10.8351 890 94.9809 581.066 453.524
1103 0 84.2074 12.1011 1019 92.7321 580.383 452.892
1104 0 84.1164 11.5911 975 94.5938 581.376 452.306
1105 0 89.1753 11.6624 1040 94.8356 581.281 453.625
1106 0 92.1198 10.8663 1001 96.8781 581.186 448.913
1107 0 93.103 11.4926 1070 96.7626 580.453 450.709
1108 0 91.205 9.84595 898 101.008 581.506 445.198
1109 0 99.1335 11.3181 1122 98.2371 580.726 443.577
1110 0 103.235 11.6336 1201 98.5837 580.482 443.73
1111 0 105.225 11.8508 1247 103.85 579.747 443.732
1112 0 111.171 11.5948 1289 104.285 579.801 440.002
1113 0 113.116 12.2441 1385 102.628 579.905 439.019
1114 0 117.137 12.4129 1454 104.834 579.113 433.398
1115 0 122.209 13.2151 1615 103.638 579.025 435.377
1116 1 70.1234 11.8791 833 100.328 579.034 461.864
1117 0 72.1351 11.2012 808 101.548 578.062 460.96
1118 0 73.0797 12.4248 908 101.004 578.717 459.031
1119 0 78.0374 12.6862 990 98.7818 579.479 459.461
1120 0 78.1268 12.1597 950 101.341 580.099 457.041
1121 0 82.0913 12.2668 1007 100.445 580.157 455.243
1122 0 83.1053 11.2869 938 101.659 579.924 455.297
1123 0 87.2388 12.5403 1094 100.594 579.336 451.03
1124 0 90.1451 12.6906 1144 100.387 580.116 453.497
1125 0 94.1789 12.1896 1148 101.076 578.729 450.513
1126 0 97.0611 12.6724 1230 99.6512 579.559 448.598
1127 0 99.0908 12.0193 1191 100.8 579.092 447.003
1128 0 103.233 12.3603 1276 99.7672 579.355 447.168
1129 0 104.144 11.5705 1205 101.356 579.297 446.032
1130 0 108.198 11.8579 1283 100.385 579.18 443.709
1131 0 111.282 12.1583 1353 99.6171 579.285 442.667
1132 0 114.235 11.914 1361 100.972 579.519 436.564
1133 0 120.214 12.6275 1518 97.9796 579.253 439.076
1134 0 120.22 10.2978 1238 102.692 579.267 435.436
1135 1 68.1283 11.3756 775 91.1729 580.501 461.917
1136 0 69.0964 11.6214 803 88.2665 580.313 463.795
1137 0 74.0825 11.6087 860 87.4488 580.271 460.963
1138 0 76.0826 11.3166 861 89.0906 580.288 459.164
1139 0 78.0819 10.6043 828 90.7331 580 459.286
1140 0 80.0782 11.0517 885 89.9616 580.09 454.286
1141 0 84.1889 11.8068 994 89.339 580.291 453.032
1142 0 85.162 11.2139 955 91.9257 579.064 450.779
1143 0 90.1405 11.8925 1072 90.1129 579.715 453.054
1144 0 93.0863 12.3434 1149 89.7755 579.971 451.601
1145 0 96.0966 12.7268 1223 91.7261 578.803 452.209
1146 0 99.1997 12.7117 1261 93.2641 578.615 447.91
1147 0 100.213 11.2261 1125 96.9929 579.719 446.466
1148 0 104.16 12.644 1317 94.9985 579.947 443.09
1149 0 106.244 12.3395 1311 95.8154 580.077 442.769
1150 0 111.179 12.9161 1436 95.5968 579.796 443.324
1151 0 113.106 12.979 1468 97.0368 579.484 439.216
1152 0 115.193 13.0823 1507 97.643 580.359 440.409
1153 0 121.18 13.4676 1632 96.8799 580.564 437.247
1154 0 124.16 12.7658 1585 99.3703 580.196 435.51
1155 0 129.244 12.8517 1661 99.1264 580.556 434.401
1156 0 132.27 12.4065 1641 99.8026 580.221 429.486
1157 0 136.152 11.9939 1633 99.6699 579.868 428.985
1158 1 72.1357 12.6151 910 95.2044 580.816 458.813
1159 0 75.1248 12.3927 931 96.1772 580.598 459.327
1160 0 77.1381 12.173 939 98.2769 580.806 458.34
1161 0 80.1266 13.5036 1082 97.0887 580.354 455.324
1162 0 81.1124 11.3916 924 99.5292 580.244 452.023
1163 0 83.1676 11.9157 991 101.097 580.092 448.938
1164 0 85.1032 12.2675 1044 101.633 580.258 447.883
1165 0 88.1105 12.0644 1063 103.453 580.039 444.819
1166 0 91.1326 12.0155 1095 102.706 579.463 445.854
1167 0 95.1025 11.8293 1125 104.31 579.924 443.711
1168 0 94.1041 11.7954 1110 104.632 579.886 443.295
1169 0 99.2213 13.3842 1328 100.959 580.003 439.986
1170 0 105.136 12.3079 1294 102.64 579.53 439.726
1171 0 107.117 14.3395 1536 98.7552 579.887 435.772
1172 0 112.311 13.7653 1546 98.2426 580.147 437.507
1173 0 114.188 13.3902 1529 99.3806 579.808 436.114
1174 0 119.105 12.9633 1544 99.5538 579.857 433.986
1175 0 121.269 13.3918 1624 99.6669 579.25 428.94
1176 0 123.181 12.1366 1495 102.379 578.536 429.31
1177 0 133.375 14.0431 1873 96.6738 579.053 428.502
1178 0 133.329 12.6229 1683 101.654 579.446 423.204
1179 0 139.223 12.6631 1763 102.252 579.55 422.49
1180 0 144.249 13.5114 1949 100.589 579.119 416.934
1181 1 78.0748 10.9254 853 100.71 579.633 452.567
1182 0 82.1848 11.0483 908 102.238 578.574 450.806
1183 0 83.1901 11.2994 940 102.903 579.514 450.821
1184 0 86.2075 10.6951 922 105.617 579.759 448.74
1185 0 90.0689 11.5689 1042 102.862 579.818 445.715
1186 0 91.1112 12.2488 1116 101.952 579.345 447.904
1187 0 95.0907 10.5058 999 108.956 579.725 445.836
1188 0 100.213 13.2917 1332 102.276 580.077 446.104
1189 0 101.3 12.4285 1259 104.27 579.902 444.075
1190 0 104.24 12.6247 1316 104.562 579.684 441.457
1191 0 109.121 13.233 1444 103.069 579.555 441.906
1192 0 110.26 13.5135 1490 102.689 579.464 441.515
1193 0 114.181 13.5925 1552 102.18 579.802 439.532
1194 0 118.168 12.7192 1503 104.88 579.622 435.332
1195 0 118.126 11.3354 1339 107.954 579.508 432.565
1196 0 124.108 12.8678 1597 103.766 578.711 433.319
1197 0 131.098 13.0208 1707 103.71 579.139 429.672
1198 0 134.083 12.3729 1659 104.539 579.32 429.646
1199 0 142.184 14.0171 1993 100.997 578.785 425.643
1200 1 83.1213 11.2847 938 95.0085 579.849 460.114
1201 0 84.1542 11.9899 1009 93.9802 579.51 461.247
1202 0 84.1887 11.4623 965 96.4456 578.948 460
1203 0 88.0906 11.7493 1035 103.317 579.853 454.257
1204 0 93.1165 11.8883 1107 101.618 579.906 454.621
1205 0 95.0881 11.9784 1139 100.43 580.24 452.315
1206 0 98.0997 11.1112 1090 99.533 580 454.662
1207 0 102.042 11.7206 1196 99.2333 579.699 453.073
1208 0 105.089 12.1231 1274 99.4733 579.554 447.871
1209 0 107.125 12.21 1308 99.9297 579.904 445.024
1210 0 111.135 12.1294 1348 99.3546 580.704 444.627
1211 0 114.148 12.7291 1453 98.1796 580.171 445.911
1212 0 117.142 11.0976 1300 102.731 580.074 439.398
1213 0 121.204 11.1795 1355 101.285 580.221 441.707
1214 0 125.125 12.2438 1532 99.7389 579.8 436.778
1215 0 129.285 12.6078 1630 98.7939 580.333 433.045
1216 0 131.206 10.3196 1354 103.403 579.791 430.871
1217 0 137.124 11.5078 1578 101.313 578.53 431.036
1218 0 140.233 12.5505 1760 99.4869 579.33 428.522
1219 0 144.167 13.6855 1973 97.8069 578.536 425.86
1220 0 147.111 11.991 1764 100.918 579.346 428.564
1221 0 150.161 13.0193 1955 100.136 579.301 423.984
1222 0 156.187 12.5363 1958 101.442 579.02 420.858
1223 0 161.245 13.2098 2130 100.006 579.966 418.308
1224 0 166.219 13.3498 2219 100.062 580.332 416.028
1225 0 169.246 12.6148 2135 102.368 581.372 415.396
1226 0 173.136 12.3256 2134 103.45 580.15 412.173
1227 0 178.251 12.5497 2237 104.232 580.04 405.369
1228 0 185.284 14.0487 2603 101.936 580.047 406.259
1229 0 190.394 13.3985 2551 104.534 579.576 404.372
1230 0 194.147 14.2006 2757 103.978 580.024 402.542
1231 0 199.284 13.97 2784 105.118 579.5 397.452
1232 0 205.279 13.1333 2696 107.673 579.704 395.428
1233 0 212.286 13.7126 2911 106.506 580.122 395.629
1234 0 220.468 14.4919 3195 104.932 580.162 387.482
1235 0 226.459 12.8059 2900 108.333 580.131 384.653
1236 0 234.442 13.1674 3087 107.103 580.038 382.431
1237 1 179.23 11.1924 2006 107.708 579.814 411.381
1238 0 186.258 12.3592 2302 105.987 580.188 406.839
1239 0 191.199 12.1706 2327 108.163 580.668 402.265
1240 0 197.417 12.6028 2488 107.071 579.948 397.677
1241 0 206.149 13.9511 2876 106.258 579.735 394.822
1242 0 212.404 13.6862 2907 107.658 579.317 388.89
1243 0 217.348 13.1908 2867 108.904 580.234 387.01
1244 0 225.25 12.7725 2877 110.385 579.996 378.441
1245 0 233.312 13.3941 3125 108.575 579.029 381.287
1246 0 240.25 13.2529 3184 109.644 579.998 375.882
1247 0 247.307 13.3963 3313 109.35 579.6 375.072
1248 0 345.359 15.6157 5393 107.336 579.286 324.008
1249 0 355.446 15.859 5637 107.747 579.597 316.539
1250 0 365.428 15.9019 5811 107.333 578.918 313.625
1252 0 213.276 13.0957 2793 108.132 578.697 396.573
1253 1 75.0781 10.549 792 99.9646 579.802 461.976
1254 0 79.1147 11.616 919 97.2753 579.649 460.453
1255 0 76.0664 10.5566 803 93.6862 579.762 454.792
1256 0 81.1136 10.8613 881 92.1385 580.631 454.428
1257 0 82.06 10.0536 825 94.9721 580.007 450.516
1258 0 87.083 11.8163 1029 90.3129 579.907 450.701
1259 0 88.0603 10.6859 941 93.2242 580.671 446.142
1260 0 90.1395 10.5725 953 93.3368 580.839 446.751
1261 0 95.104 10.4097 990 93.7303 579.064 441.691
1262 0 98.1364 11.107 1090 91.2661 579.072 445.8
1263 0 103.114 11.7346 1210 90.8273 579.319 444.232
1264 0 106.154 12.6797 1346 88.4844 579.686 442.351
1265 0 108.101 12.2108 1320 89.7485 579.937 439.02
1266 0 110.163 9.70383 1069 94.6455 578.901 434.706
1267 0 116.193 11.6359 1352 85.9978 579.658 442.508
1268 0 119.131 10.3079 1228 86.4862 579.8 443.283
1269 0 123.189 11.0075 1356 84.3916 580.219 441.268
1270 0 127.119 10.1558 1291 87.6995 580.62 433.448
1271 0 129.15 10.2826 1328 87.1837 580.568 427.998
1272 0 135.2 11.6568 1576 85.4372 581.253 429.697
1273 0 140.219 11.154 1564 86.9329 581.224 429.43
1274 0 145.268 14.0843 2046 83.7121 580.929 421.892
1275 0 156.347 16.2139 2535 79.3953 581.467 414.238
1276 0 160.414 14.9114 2392 81.7868 580.139 411.199
1277 0 170.249 21.3511 3635 70.4732 580.26 403.024
1278 0 171.401 14.8832 2551 80.9412 580.035 403.39
1279 0 169.406 13.6359 2310 85.5814 580.416 414.149
1280 0 171.401 12.7012 2177 88.8898 580.055 405.338
1281 0 179.306 14.9633 2683 84.1778 580.985 406.562
1282 0 183.544 13.0867 2402 88.1386 580.825 402.737
1283 0 188.612 12.6821 2392 89.3516 581.87 401.285
1284 0 192.543 12.096 2329 90.9309 581.211 398.255
1285 0 200.566 14.853 2979 86.7717 580.883 394.401
1286 0 204.372 13.2014 2698 90.2016 581.358 392.761
1287 0 210.511 11.9804 2522 91.8715 582.109 397.269
1288 0 215.342 11.9345 2570 93.1082 581.211 390.104
1289 0 223.561 13.124 2934 91.7314 581.225 381.043
1290 0 229.655 12.7539 2929 92.999 581.091 381.382
1291 1 177.241 11.6565 2066 92.8025 581.714 408.148
1292 0 180.303 11.7525 2119 93.6687 582.12 402.074
1293 0 184.345 10.8981 2009 94.6969 582.392 404.399
1294 0 193.436 11.394 2204 93.4397 581.458 404.399
1295 0 201.279 11.5958 2334 94.8912 581.821 395.884
1296 0 209.38 12.7376 2667 92.7192 581.205 393.839
1297 0 215.424 13.1369 2830 93.0371 580.378 390.125
1298 0 221.307 12.6069 2790 94.1774 581.408 389.694
1299 0 227.617 13.4129 3053 93.111 581.014 387.747
1300 1 64.1751 10.8142 694 85.7205 581.876 464.241
1301 0 66.0465 11.7039 773 85.3014 581.805 462.153
1302 0 68.0786 12.133 826 85.0024 581.579 461.703
1303 0 69.1419 11.4981 795 85.2667 582.073 462.542
1304 0 71.1351 11.7663 837 86.5006 581.888 459.084
1305 0 74.2074 11.5622 858 88.9301 581.193 457.444
1306 0 76.3325 11.6333 888 89.5417 581.141 455.795
1307 0 77.2338 10.8631 839 91.7628 581.585 452.623
1308 0 76.0501 10.7561 818 88.6455 582.141 459.599
1309 0 80.116 11.8328 948 86.7901 581.632 457.135
1310 0 79.0933 10.9744 868 88.5968 581.687 457.763
1311 0 84.128 12.3859 1042 86.5345 580.826 454.599
1312 0 85.0764 12.1773 1036 87.6023 580.95 454.297
1313 0 86.0748 11.1299 958 90.3685 581.742 451.122
1314 0 91.1123 12.2706 1118 88.0742 581.56 449.846
1315 0 91.2068 10.7777 983 91.116 581.127 449.926
1316 0 91.1651 11.8576 1081 90.2757 580.919 445.674
1317 0 97.2203 11.9317 1160 89.8466 580.735 446.191
1318 0 99.0852 12.2319 1212 90.1815 580.376 444.705
1319 0 104.084 13.2969 1384 87.8244 579.916 444.233
1320 0 107.176 11.2245 1203 91.3416 580.623 442.841
1321 0 113.168 13.069 1479 87.7877 579.912 439.596
1322 1 63.1098 11.0126 695 92.3626 579.767 462.296
1323 0 61.0382 9.09267 555 93.2306 579.288 456.506
1324 0 64.075 8.88022 569 87.5518 579.504 461.914
1325 0 68.0768 11.5311 785 88.1287 579.377 466.09
1326 0 68.1368 11.6384 793 89.4981 581.019 463.329
1327 0 70.1531 11.4464 803 90.4894 579.988 460.935
1328 0 74.0823 11.5547 856 90.2009 580.144 461.394
1329 0 74.0962 12.1734 902 90.1519 579.625 461.091
1330 1 98.1489 15.5478 1526 79.5033 579.437 452.303
1331 0 102.388 15.2166 1558 79.6784 579.587 449.012
1332 0 104.292 15.1785 1583 79.6115 579.982 445.659
1333 0 101.123 21.6271 2187 71.4623 579.509 445.326
1334 0 100.098 17.6128 1763 80.4214 580.359 450.475
1335 0 97.1305 15.9579 1550 85.4329 579.53 451.33
1336 0 95.1153 14.5823 1387 90.2754 578.639 451.148
1337 0 91.0855 12.4059 1130 93.5796 578.348 455.818
1338 0 91.0657 11.8047 1075 95.4195 579.359 452.201
1339 0 92.2018 11.5724 1067 97.7882 579.296 454.402
1340 1 130.118 13.3187 1733 85.5418 578.564 444.525
1341 0 135.359 21.6387 2929 67.8221 578.297 430.786
1342 0 134.64 18.1743 2447 75.4185 578.024 435.82
1343 0 131.312 22.6712 2977 69.7706 578.41 428.013
1344 0 132.21 21.3902 2828 73.2016 578.335 434.452
1345 0 131.182 20.8793 2739 74.3658 577.925 427.146
1346 0 129.172 16.0793 2077 85.6365 578.612 434.608
1347 0 124.349 16.9282 2105 87.7211 578.751 436.397
1348 0 123.087 15.4119 1897 91.8571 577.996 441.577
1349 0 126.16 13.9901 1765 95.8385 578.734 437.121
1350 1 78.1711 11.8842 929 94.2476 578.928 466.62
1351 0 77.0806 12.1302 935 91.0396 578.563 465.759
1352 0 80.2012 12.4936 1002 93.0259 577.668 461.671
1353 0 83.0612 12.6052 1047 92.5091 579.114 462.411
1354 0 84.1721 12.0586 1015 95.1567 577.746 459.907
1355 0 88.1441 12.1052 1067 94.8491 577.547 459.882
1356 0 90.176 13.5069 1218 93.1593 578.911 456.419
1357 0 93.0986 13.0722 1217 93.4133 578.912 457.659
1358 0 94.1169 12.4845 1175 95.577 578.407 453.471
1359 0 97.1125 13.0879 1271 94.605 577.957 447.16
1360 0 100.099 13.2169 1323 94.353 577.984 450.105
1361 0 102.343 12.634 1293 95.8159 577.954 447.063
1362 0 105.259 12.645 1331 95.8678 577.902 446.602
1363 0 107.116 13.4901 1445 95.0824 577.543 442.358
1364 0 110.246 11.7283 1293 99.1787 577.574 439.595
1365 0 112.155 12.9642 1454 97.6376 577.457 436.586
1366 0 114.082 11.1762 1275 101.431 577.116 437.718
1367 0 117.2 12.8754 1509 98.9039 577.379 434.142
1368 0 124.182 12.2401 1520 98.9724 577.461 435.505
1369 0 128.142 13.6801 1753 96.4318 577.348 434.044
1370 0 129.093 13.0913 1690 99.3331 576.262 431.599
1371 0 135.136 12.0545 1629 99.5316 577.213 430.207
1372 0 140.176 12.2988 1724 99.279 576.831 427.54
1373 0 143.221 12.5749 1801 99.3842 577.057 426.689
1374 1 83.2473 9.42974 785 92.7873 577.135 460.217
1375 0 85.1257 10.7841 918 94.9477 577.108 460.851
1376 0 89.1556 11.4743 1023 91.1065 577.029 462.05
1377 0 91.0917 10.1546 925 89.3135 577.749 461.652
1378 0 96.082 10.6576 1024 88.5127 576.695 458.056
1379 0 99.1199 12.2175 1211 86.2453 576.704 456.462
1380 0 101.253 10.5577 1069 89.0524 576.819 455.522
1381 0 103.083 12.7277 1312 86.4085 576.781 455.188
1382 0 106.077 11.0297 1170 89.647 576.027 446.525
1383 0 106.109 10.4232 1106 91.5353 576.508 446.571
1384 0 111.08 11.5142 1279 90.2439 576.78 447.59
1385 0 113.1 9.98232 1129 92.4942 576.853 450.059
1386 0 119.125 13.3305 1588 88.7355 576.696 443.993
1387 0 121.414 11.0284 1339 92.0232 577.057 441.755
1388 0 125.163 10.1468 1270 92.9457 576.907 442.276
1389 0 129.145 11.3206 1462 91.591 576.598 436.799
1390 0 132.24 10.6095 1403 93.2459 576.798 433.502
1391 0 135.195 11.1247 1504 93.7646 575.412 428.846
1392 0 138.302 10.2457 1417 95.7036 575.872 428.157
1393 0 143.191 10.9854 1573 94.7559 575.662 425.906
1394 0 147.208 12.1461 1788 93.4334 575.319 426.256
1395 0 153.212 12.5969 1930 92.8109 576.179 427.004
1396 0 157.115 11.6221 1826 95.3423 576.692 422.97
1397 0 161.369 10.5907 1709 98.7484 576.345 417.195
1398 0 166.406 11.1775 1860 99.1419 575.504 417.199
1399 1 93.1583 10.5841 986 93.8519 576.236 456.777
1400 0 99.213 11.692 1160 94.8397 576.642 457.321
1401 0 100.121 11.4861 1150 97.4243 577.133 455.878
1402 0 105.19 10.9516 1152 101.473 577.172 454.418
1403 0 107.115 11.567 1239 101.538 576.827 453.119
1404 0 108.144 11.3922 1232 102.739 576.87 452.408
1405 0 110.151 10.7671 1186 105.41 576.659 448.988
1406 0 116.182 13.2378 1538 100.057 577.077 449.163
1407 0 117.148 11.6946 1370 104.896 576.436 445.696
1408 0 120.163 11.6674 1402 105.27 577.469 446.713
1409 0 123.12 12.2157 1504 105.47 576.348 443.044
1410 0 127.144 11.6954 1487 107.896 576.258 442.431
1411 0 130.238 13.5061 1759 104.573 576.867 439.637
1412 1 71.0664 11.0742 787 102.178 576.647 472.376
1413 0 72.0332 11.0782 798 106.149 576.112 469.61
1414 0 76.0507 12.2287 930 104.796 577.514 468.406
1415 0 79.1023 12.7051 1005 102.061 576.938 469.727
1416 0 80.074 12.5634 1006 100.27 576.25 465.745
1417 0 81.0852 12.419 1007 101.77 575.701 465.101
1418 0 83.0756 12.5428 1042 97.5797 575.763 466.346
1419 0 84.0642 11.5031 967 103.187 575.807 463.967
1420 0 85.1337 11.4996 979 105.013 576.036 464.467
1421 0 89.0775 11.4956 1024 107.472 576.905 461.238
1422 0 93.1766 13.0183 1213 103.543 576.608 461.691
1423 0 94.1067 12.3371 1161 106.75 575.868 457.312
1424 0 97.1888 13.0776 1271 106.813 575.765 455.304
1425 0 98.1548 12.5108 1228 108.922 576.229 454.771
1426 0 102.127 13.1699 1345 109.306 576.047 451.953
1427 0 103.123 12.9166 1332 111.381 576.301 452.739
1428 0 105.157 12.5907 1324 112.053 576.057 452.899
1429 0 109.083 12.7609 1392 111.96 576.799 450.672
1430 0 113.119 14.1002 1595 108.856 577.058 450.134
1431 0 114.215 13.9474 1593 109.621 576.492 449.483
1432 0 117.09 13.733 1608 110.796 576.085 447.053
1433 0 120.088 13.8149 1659 111.426 575.943 444.51
1434 0 123.094 14.1031 1736 110.702 576.19 443.213
1435 0 123.106 12.4852 1537 115.312 576.394 441.317
1436 0 128.13 14.618 1873 110.487 575.949 439.397
1437 0 133.076 14.4053 1917 110.52 575.954 435.579
1438 0 137.262 14.0607 1930 111.567 575.65 436.951
1439 0 142.091 16.2642 2311 105.839 575.355 433.499
1440 0 146.165 14.4084 2106 110.913 575.679 430.799
1441 0 149.154 13.8179 2061 112.638 575.449 430.654
1442 0 155.289 14.4891 2250 110.825 576.203 426.55
1443 0 158.124 14.1597 2239 113.124 575.471 423.647
1444 0 163.227 13.956 2278 113.853 576.031 420.299
1445 0 168.371 14.2186 2394 113.671 575.878 418.218
1446 1 93.0596 13.3248 1240 110.406 576.064 456.566
1447 0 95.0667 12.9593 1232 111.636 575.94 454.175
1448 0 99.0857 14.1292 1400 107.356 576.342 453.951
1449 0 102.15 14.6451 1496 108.149 575.636 450.398
1450 0 104.191 13.0242 1357 112.479 576.429 450.57
1451 0 107.101 14.8645 1592 109.375 576.192 447.027
1452 0 111.171 13.8076 1535 111.153 575.207 445.221
1453 0 115.246 14.0569 1620 110.341 575.901 444.695
1454 0 119.164 13.9052 1657 110.696 575.949 442.052
1455 0 123.18 14.0608 1732 109.96 576.436 439.15
1456 0 127.116 14.3334 1822 109.078 576.785 436.202
1457 1 70.1208 11.195 785 106.271 576.448 470.136
1458 0 70.1082 10.5979 743 111.308 576.814 463.455
1459 0 74.0941 12.1062 897 107.127 576.882 464.971
1460 0 78.0395 12.9165 1008 105.145 576.658 466.335
1461 0 80.1479 12.4769 1000 106.445 576.924 464.759
1462 0 79.1141 12.6653 1002 107.25 575.422 462.157
1463 0 82.0375 12.6284 1036 107.011 576.809 462.423
1464 0 86.146 12.0725 1040 107.795 576.155 459.443
1465 0 89.068 12.9003 1149 105.607 576.977 458.979
1466 0 93.1105 13.049 1215 105.486 576.545 457.735
1467 0 94.0859 13.477 1268 105.651 576.881 452.412
1468 0 98.0701 13.6025 1334 104.664 576.917 455.571
1469 0 99.1492 13.5553 1344 105.357 576.673 452.759
1470 0 103.159 13.2514 1367 106.524 576.019 451.53
1471 0 105.133 12.137 1276 109.426 577.274 449.927
1472 0 109.161 13.5763 1482 105.584 576.638 449.428
1473 0 115.151 14.0424 1617 103.891 576.818 445.077
1474 0 117.125 12.9264 1514 106.653 577.127 443.965
1475 0 122.085 13.4497 1642 104.954 576.452 443.165
1476 1 70.103 10.9268 766 103.134 575.945 469.443
1477 0 72.2335 10.8537 784 103.649 575.973 467.855
1478 0 75.1266 12.0463 905 104.12 576.949 464.708
1479 0 78.1939 12.047 942 103.478 576.172 463.829
1480 0 80.1495 13.5122 1083 99.6316 577.021 461.928
1481 0 81.0939 12.319 999 102.671 576.843 461.114
1482 0 83.2561 12.912 1075 101.249 577.235 461.318
1483 0 87.0911 12.8371 1118 101.428 576.859 459.216
1484 0 88.1341 11.4485 1009 104.619 577.266 456.605
1485 0 93.0764 13.0538 1215 100.931 577.08 456.41
1486 0 95.0677 12.1387 1154 103.594 577.101 454.703
1487 0 98.0387 12.6277 1238 102.384 576.775 453.758
1488 0 101.084 12.9793 1312 101.298 577.194 454.405
1489 0 103.161 12.5241 1292 104.44 576.658 451.092
