time division length width area intensity CMx CMy
0 0 27.0242 12.1373 328 131.744 277.552 489.058
1 0 25.0936 11.1582 280 140.057 277.843 492.096
2 0 23.0216 10.7291 247 149.381 278.381 491.211
3 0 25.0047 11.3179 283 143.919 278.29 491.908
4 0 26.0063 10.9589 285 144.505 277.179 490.768
5 0 26.0063 10.9974 286 155.538 275.185 490.724
6 0 28.0484 11.1236 312 142.686 277.984 490.788
7 0 27.0067 11.6638 315 143.727 278.14 490.473
8 0 29.0108 12.1334 352 138.855 277.895 490.96
9 0 28.0036 11.8913 333 139.937 277.958 491.243
10 0 29.0041 11.9983 348 140.012 277.069 491.546
11 0 30.0131 11.9281 358 140.634 277.891 491.422
12 0 30.0129 12.1948 366 142.019 276.817 491.044
13 0 32.0406 12.3905 397 139.741 276.683 490.421
14 0 32.0078 12.9343 414 138.444 276.785 491.807
15 0 34.0203 12.1104 412 140.82 276.905 491.211
16 0 34.0206 12.8158 436 138.989 276.337 490.58
17 0 34.0129 12.3776 421 143.304 276.648 490.508
18 0 37.0105 12.9153 478 141.123 276.238 489.389
19 0 38.0862 13.732 523 140.296 276.457 488.21
20 0 39.0211 13.8387 540 139.163 275.581 488.965
21 0 38.017 14.2042 540 141.589 275.654 487.954
22 0 41.0195 13.969 573 139.89 275.492 488.722
23 0 42.0176 15.1365 636 136.547 275.608 489.168
24 0 42.0092 14.2826 600 141.847 274.557 488.097
25 0 43.0526 14.8191 638 139.641 274.323 487.371
26 0 45.0902 14.8591 670 139.172 275.125 487.646
27 0 45.0091 15.3969 693 138.248 275.466 486.153
28 0 45.0303 14.3459 646 144.019 274.477 486.211
29 0 46.0415 15.2688 703 142.085 274.902 485.828
30 0 49.0486 16.188 794 136.618 274.126 486.404
31 0 49.1245 14.0663 691 145.372 273.834 486.63
32 0 50.0251 15.7521 788 141.232 273.64 483.528
33 0 52.019 15.5136 807 141.333 274.449 484.093
34 0 54.0341 15.6753 847 140.254 273.688 483.46
35 0 55.0231 15.1391 833 144.004 274.388 483.408
36 0 56.021 16.5295 926 140.279 273.975 482.157
37 0 59.187 16.3381 967 140.57 273.872 479.884
38 0 60.0332 15.4581 928 144.769 273.463 481.647
39 0 63.0736 15.7752 995 144.065 274.021 479.577
40 0 63.0603 16.3177 1029 143.606 273.498 478.396
41 0 65.0817 15.8877 1034 146.082 273.1 477.631
42 0 68.0528 15.8259 1077 146.712 273.098 476.2
43 0 71.0815 15.6581 1113 146.88 273.885 476.214
44 0 75.0854 17.3802 1305 139.464 273.852 473.794
45 0 77.0811 15.6718 1208 145.846 273.44 473.316
46 0 80.0611 16.325 1307 143.92 273.442 472.593
47 0 81.0359 15.8325 1283 147.273 273.821 470.394
48 0 85.1015 16.5802 1411 145.638 273.323 469.488
49 1 44.0356 13.103 577 152.749 272.745 489.603
50 0 47.0095 14.1248 664 149.624 272.706 488.306
51 0 49.0356 14.9483 733 145.846 273.568 487.962
52 0 49.0256 14.1151 692 148.444 272.893 487.059
53 0 51.0466 13.8305 706 148.099 273.568 485.829
54 0 56.0374 14.187 795 143.484 273.067 485.067
55 0 54.0652 12.9103 698 151.215 273.046 484.433
56 0 58.0181 14.2025 824 146.563 273.212 483.303
57 0 60.0481 14.8714 893 143.873 271.89 482.905
58 0 61.0336 14.2544 870 145.784 272.555 481.803
59 0 65.0356 15.2532 992 141.979 273.145 480.07
60 0 68.118 15.2089 1036 139.741 272.944 477.955
61 0 69.0818 13.5347 935 146.077 273.167 476.957
62 0 72.0657 13.904 1002 145.642 272.641 477.09
63 0 75.099 15.5528 1168 139.078 272.009 475.224
64 0 77.2027 13.3804 1033 144.885 272.451 472.403
65 0 79.1463 13.9994 1108 142.782 272.8 470.559
66 0 82.0951 13.7889 1132 142.893 272.022 469.744
67 0 88.0877 13.8952 1224 143.116 272.156 469.551
68 0 91.1112 13.9061 1267 143.249 272.22 467.411
69 0 94.1655 13.8586 1305 143.773 271.664 466.877
70 0 100.192 14.7217 1475 140.82 272.07 463.861
71 0 103.111 14.7802 1524 139.373 271.797 462.399
72 1 52.0248 12.9746 675 130.087 271.993 488.609
73 0 52.0693 11.6575 607 135.979 272.545 488.135
74 0 54.0428 11.3799 615 137.228 273.242 486.498
75 0 57.0686 13.072 746 130.696 272.626 485.58
76 0 57.0617 13.0736 746 147.145 271.626 485.58
77 0 60.0547 12.2388 735 134.502 272.59 484.52
78 0 64.0907 13.4497 862 131.024 272.578 482.943
79 0 66.0576 12.1106 800 135.735 272.47 481.142
80 0 69.1062 13.009 899 131.734 272.535 481.585
81 0 71.0571 13.1303 933 132.015 272.255 478.684
82 0 75.086 13.2115 992 130.686 273.182 477.201
83 0 77.0657 12.9111 995 132.661 272.745 476.302
84 0 80.0598 13.9646 1118 129.931 273.343 474.431
85 0 84.1218 13.1952 1110 130.858 272.795 473.708
86 0 87.083 13.5733 1182 131.49 272.07 471.88
87 0 87.0624 12.5083 1089 136.667 272.143 469.432
88 0 93.2235 13.4945 1258 133.746 271.696 468.882
89 1 51.0962 12.4275 635 129.857 272.181 489.052
90 0 53.0527 13.0248 691 127.088 272.562 488.644
91 0 53.0902 12.8461 682 124.463 272.518 488.831
92 0 55.0595 12.3866 682 126.128 270.746 487.812
93 0 56.0663 12.289 689 127.925 271.309 486.779
94 0 59.0965 12.3865 732 126.473 271.033 487.127
95 0 61.0372 12.2712 749 127.127 270.678 485.813
96 0 63.1306 12.6088 796 125.588 270.585 484.744
97 0 65.0823 12.6916 826 127.308 271.031 483.349
98 0 65.0947 12.6892 826 127.301 270.437 482.97
99 0 69.1496 11.8005 816 128.951 270.77 480.551
100 0 72.1484 13.0426 941 126 270.357 478.938
101 0 76.1802 12.3523 941 126.557 270.781 478.275
102 0 77.1122 11.9436 921 129.861 271.111 475.518
103 0 80.1258 12.6177 1011 127.757 271.271 475.393
104 0 84.1048 12.2229 1028 129.23 270.817 474.604
105 0 86.1963 11.9147 1027 130.111 270.718 472.887
106 0 89.1713 11.6742 1041 130.834 270.342 472.817
107 1 47.0918 11.467 540 126.657 270.437 491.681
108 0 47.0414 11.458 539 125.961 270.683 492.436
109 0 46.0309 9.90638 456 129.276 270.397 492.278
110 0 46.0681 10.2023 470 128.085 270.387 493.162
111 0 49.0668 11.1481 547 125.382 270.978 491.505
112 0 50.0242 11.2546 563 126.046 271.163 488.563
113 0 51.0127 10.5072 536 128.543 270.985 488.595
114 0 53.0557 10.9131 579 125.936 270.931 490.454
115 0 56.0637 12.2004 684 123.636 270.988 486.395
116 0 59.1514 12.0876 715 123.65 270.585 484.957
117 0 60.0984 11.4146 686 125.159 270.828 485.5
118 0 61.0742 11.8217 722 125.006 271.205 483.791
119 0 62.0983 11.9649 743 126.763 270.67 482.446
120 0 66.0555 12.3684 817 124.772 270.798 480.306
121 0 70.0578 13.0606 915 121.598 270.825 479.176
122 0 71.1136 13.2183 940 121.083 270.654 477.898
123 0 74.1083 13.4668 998 121.074 271.318 476.269
124 0 77.0981 13.4374 1036 120.583 271.018 475.267
125 0 79.0602 12.9521 1024 121.953 270.481 472.404
126 0 83.087 13.8048 1147 119.174 269.815 471.559
127 0 85.1692 12.3988 1056 124.099 270.5 471.092
128 1 43.0839 10.7697 464 124.897 270.916 490.862
129 0 44.1728 10.8664 480 123.465 270.896 490.333
130 0 47.1546 12.1091 571 119.051 271.345 490.021
131 0 45.0704 9.40751 424 122.13 271.406 492.637
132 0 47.1787 12.5268 591 114.797 270.966 490.437
133 0 47.0861 10.5764 498 120.074 271.388 490.562
134 0 49.051 11.2128 550 117.109 270.44 489.865
135 0 49.0693 11.1067 545 117.165 270.93 489.596
136 1 109.289 12.7002 1388 86.1441 270.585 461.31
137 1 54.0493 12.0076 649 113.726 271.045 485.881
138 0 55.0134 10.5429 580 115.112 271.014 486.112
139 0 56.0365 11.5996 650 113.446 270.026 484.685
140 0 57.0447 10.0973 576 116.328 270.274 484.205
141 0 61.0443 11.2377 686 113.261 270.23 483.487
142 0 64.0831 12.593 807 109.043 269.551 482.463
143 0 65.0575 11.3284 737 112.643 270.071 480.395
144 0 66.1068 11.9201 788 111.511 270.3 481.829
145 0 67.0314 11.5319 773 113.674 270.768 477.652
146 0 72.1582 12.4726 900 110.399 270.701 476.907
147 0 73.053 10.7867 788 115.973 269.492 475.617
148 0 75.0521 11.8185 887 113.9 270.24 474.055
149 0 78.1011 11.69 913 114.193 270.541 473.435
150 0 83.0491 12.7033 1055 111.658 270.01 471.557
151 0 84.1994 12.3873 1043 113.582 270.104 469.343
152 0 89.0815 13.2687 1182 115.091 269.599 470.404
153 1 45.0849 11.0458 498 111.51 269.878 491.522
154 0 45.044 10.7673 485 114.66 270.505 489.46
155 0 46.0676 12.0041 553 108.298 271.031 489.879
156 0 47.0559 10.9657 516 110.291 271.891 491.169
157 0 51.0978 13.6405 697 103.354 271.207 488.91
158 0 51.1059 11.7795 602 109.292 271.236 488.312
159 0 52.0405 12.9322 673 106.474 271.031 487.66
160 0 52.095 12.4196 647 108.484 271.032 486.648
161 0 55.0328 12.12 667 109.453 271.96 485.234
162 0 56.0468 11.5082 645 111.814 271.016 483.842
163 0 60.0519 12.9721 779 107.759 270.828 483.553
164 0 61.0583 12.3652 755 109.539 270.996 482.454
165 0 63.1181 12.3261 778 110.012 270.792 480.684
166 0 65.07 13.1858 858 108.005 270.181 479.633
167 0 66.0392 13.7191 906 108.723 270.655 479.302
168 0 69.1025 12.6189 872 110.751 270.62 478.956
169 0 71.0734 13.2258 940 109.859 270.389 475.423
170 0 74.0892 13.0518 967 108.579 269.886 474.046
171 0 74.0699 12.1912 903 111.99 269.637 473.889
172 0 81.1803 13.7965 1120 105.375 269.779 473.721
173 0 81.0774 13.3946 1086 108.263 270.102 470.792
174 0 82.1148 11.9467 981 111.743 269.957 470.488
175 0 86.0676 11.735 1010 111.019 270.121 470.42
176 0 90.0832 12.1887 1098 111.332 269.75 466.619
177 0 95.0445 13.6462 1297 107.687 270.276 466.637
178 1 50.0659 11.6646 584 107.5 269.986 487.252
179 0 51.0663 12.1411 620 107.46 270.632 487.002
180 0 49.0734 11.5541 567 105.735 271.39 489.984
181 0 52.067 11.8885 619 104.696 271.244 487.556
182 0 52.0528 10.7775 561 107.988 271.239 487.879
183 0 56.1043 12.6906 712 103.011 271.181 485.942
184 0 58.0612 12.0563 700 104.226 270.599 485.129
185 0 59.0906 12.5739 743 103.692 270.781 483.433
186 0 61.0972 12.8975 788 103.478 270.921 481.83
187 0 63.0386 12.421 783 104.794 270.822 482.364
188 0 65.0691 12.9094 840 104.201 271.394 481.355
189 0 66.0305 12.782 844 105.665 270.444 479.711
190 0 68.0414 11.7869 802 108.007 270.549 479.002
191 0 73.0577 12.6886 927 105.977 270.756 477.75
192 0 74.08 12.797 948 106.675 270.739 476.498
193 0 75.0686 12.5219 940 108.743 271.196 474.538
194 0 79.1375 12.8384 1016 108.684 271.311 471.823
195 0 82.0938 12.1812 1000 111.223 271.681 469.856
196 0 87.133 13.1982 1150 109.359 271.67 470.199
197 0 87.157 13.1831 1149 111.605 271.716 468.044
198 0 89.1128 12.501 1114 117.017 270.866 464.972
199 0 93.263 12.8025 1194 115.154 270.732 464.095
200 0 96.1261 13.6071 1308 113.059 270.646 463.621
201 1 52.0253 11.4752 597 111.285 270.498 487.734
202 0 52.0588 11.9672 623 115.758 270 484.856
203 0 52.0437 10.1453 528 113.803 271.714 487.438
204 0 54.0747 11.891 643 110.463 271.208 484.068
205 0 58.0636 11.3668 660 110.676 271.952 485.633
206 0 57.0631 11.7589 671 111.346 271.28 483.064
207 0 61.0335 11.5019 702 110.634 270.534 481.796
208 0 62.0404 11.2346 697 110.706 270.884 479.562
209 0 64.0765 12.2822 787 107.225 270.759 481.423
210 0 68.0536 12.4755 849 107.504 270.322 477.801
211 0 73.0676 13.0427 953 106.187 271.162 476.984
212 0 73.0715 12.5904 920 107.405 270.864 476.436
213 0 74.0396 11.7099 867 111.725 270.627 472.539
214 0 78.1499 12.0282 940 110.047 271.474 473.986
215 0 81.0572 12.6207 1023 109.847 270.061 471.916
216 0 84.1685 12.867 1083 110.051 270.784 470.638
217 0 86.099 12.2185 1052 113.633 270.451 467.794
218 1 48.0518 12.5073 601 109.035 271.571 487.213
219 0 48.183 10.2111 492 116.933 270.165 488.4
220 0 49.0649 12.1472 596 114.117 270.124 487.542
221 0 49.0448 11.2142 550 111.815 270.938 485.8
222 0 54.028 12.0308 650 107.943 271.406 487.382
223 0 54.0848 10.9643 593 112.305 270.546 485.28
224 0 56.1419 11.4887 645 111.431 270.82 484.073
225 0 57.0913 12.0684 689 111.9 271.464 484.626
226 0 60.1314 12.7221 765 109.715 271.459 483.846
227 0 60.0527 11.9395 717 112.65 271.06 483.955
228 0 63.1063 12.059 761 112.022 271.072 482.173
229 0 66.0985 13.4799 891 109.076 271.222 481.796
230 0 65.0427 11.3925 741 116.618 271.493 480.744
231 0 70.1392 12.4182 871 113.862 270.932 477.975
232 0 71.1977 12.8375 914 113.161 270.637 476.731
233 0 76.1426 12.8312 977 112.333 271.279 476.53
234 0 77.1544 13.298 1026 112.204 271.878 473.793
235 0 82.1021 13.1544 1080 112.786 271.536 475.025
236 0 82.077 13.6457 1120 114.421 270.648 471.756
237 0 85.2469 13.9008 1185 114.689 271.332 470.035
238 0 88.0951 13.2357 1166 116.225 271.473 468.382
239 0 90.1665 13.3864 1207 117.434 270.872 467.011
240 0 92.1672 13.584 1252 119.533 270.673 466.223
241 0 96.1133 14.5349 1397 117.685 270.709 463.98
242 0 99.1514 13.9786 1386 119.579 270.181 462.309
243 0 101.125 14.4574 1462 119.205 270.594 461.351
244 0 105.12 14.0601 1478 119.66 271.066 459.677
245 0 110.118 15.6742 1726 115.381 270.68 456.676
246 0 110.135 13.1202 1445 123.521 270.929 456.286
247 0 114.121 13.88 1584 122.834 271.021 452.206
248 1 59.0652 9.70115 573 116.716 270.892 480.604
249 0 58.0664 10.5052 610 111.625 270.689 475.454
250 0 61.0415 10.0751 615 110.592 271.037 476.691
251 0 63.1017 10.697 675 111.065 271.307 475.336
252 0 66.1009 11.4068 754 106.35 270.838 476.308
253 0 69.121 12.1381 839 113.877 271.381 480.11
254 0 70.1532 13.3707 938 112.348 270.865 478.654
255 0 70.1532 13.3422 936 141.801 269.881 478.707
256 0 70.1601 13.3694 938 141.148 268.861 478.747
257 0 73.1389 11.3619 831 118.992 271.052 477.901
258 0 76.1851 12.1021 922 117.188 270.724 475.754
259 0 79.0543 13.2694 1049 113.684 270.882 475.329
260 0 79.1955 11.5411 914 120.097 270.943 475.024
261 0 82.094 12.6684 1040 117.943 270.925 471.421
262 0 86.1646 12.5225 1079 117.732 270.957 471.55
263 0 88.1476 12.5812 1109 121.187 271.179 467.763
264 0 91.1002 13.3699 1218 118.456 271.133 467.096
265 0 95.2583 13.0697 1245 119.712 270.987 467.586
266 1 50.0571 11.367 569 123.691 271.664 488.091
267 0 50.151 11.7246 588 125.257 272.514 486.156
268 0 53.2952 13.1719 702 122.091 271.145 482.053
269 0 50.1287 11.3109 567 118.109 271.194 480.208
270 0 55.053 12.8967 710 118.897 270.211 486.283
271 0 57.0735 12.8431 733 120.715 271.049 486.602
272 0 56.0397 12.3662 693 124.732 271.808 484.235
273 0 59.0405 13.2621 783 121.779 271.602 484.05
274 0 61.0553 11.5141 703 128.064 271.176 482.401
275 0 63.0733 12.4776 787 125.132 271.545 482.46
276 0 64.0656 13.3301 854 123.605 271.705 480.591
277 0 66.0855 13.3766 884 123.726 271.245 481.56
278 0 68.1665 13.599 927 97.3366 271.18 478.485
279 0 71.0753 13.2113 939 125.379 270.76 478.346
280 0 73.0236 12.5987 920 126.891 270.786 477.147
281 0 76.0931 12.511 952 126.801 270.502 476.182
282 0 78.095 12.9842 1014 126.566 270.195 474.752
283 0 80.1061 13.8317 1108 124.793 271.313 472.891
284 0 82.1132 12.8603 1056 129.338 270.562 470.759
285 0 87.078 13.4822 1174 126.515 270.842 468.655
286 0 89.1083 12.6475 1127 128.719 270.547 468.971
287 0 92.1374 12.5356 1155 129.106 271.208 466.272
288 0 95.0622 13.286 1263 126.971 270.73 463.812
289 0 99.279 13.9909 1389 124.174 270.164 461.272
290 0 103.075 13.3592 1377 125.8 271.09 460.424
291 1 56.0433 10.706 600 124.613 271.112 484.437
292 0 56.0966 12.4607 699 122.329 270.691 482.476
293 0 56.0527 10.5615 592 121.745 270.868 484.316
294 0 61.0246 13.5683 828 110.062 270.736 482.585
295 0 63.0714 12.3194 777 113.118 270.777 483.174
296 0 64.0627 12.8468 823 113.492 270.583 480.021
297 0 67.1151 12.1433 815 114.926 270.98 480.353
298 0 68.1811 11.7921 804 117.601 271.371 476.167
299 0 71.0814 10.7342 763 118.561 270.982 477.797
300 0 72.1739 12.0404 869 117.58 270.443 474.557
301 0 76.0945 12.2611 933 116.189 270.593 474.618
302 0 78.1128 12.7636 997 115.132 271.075 473.795
303 0 81.1296 12.0178 975 117.324 270.749 471.278
304 0 82.1917 12.0815 993 117.645 271.012 472.295
305 0 84.3157 13.2834 1120 116.744 271.284 469.222
306 0 84.3188 13.2711 1119 140.828 272.28 469.234
307 0 90.1936 13.2049 1191 117.632 271.326 464.921
308 0 94.1403 12.9275 1217 118.571 271.175 464.002
309 0 97.2975 12.138 1181 120.843 270.934 461.993
310 0 101.373 14.6193 1482 115.589 270.442 458.271
311 0 101.158 12.3767 1252 120.151 271.493 458.785
312 0 104.092 13.1806 1372 119.248 271.103 455.058
313 0 108.222 12.308 1332 122.11 271.035 449.595
314 0 111.199 12.6081 1402 122.128 270.682 451.501
315 1 60.0383 10.2435 615 118.328 271.135 474.024
316 0 60.0357 10.7769 647 144.346 270.131 474.96
317 0 66.1084 10.3164 682 116.301 270.271 466.946
318 0 66.0281 10.5561 697 110.379 270.59 471.838
319 0 67.0741 9.66096 648 113.414 270.892 470.123
320 0 70.0932 10.6002 743 115.14 270.451 474.599
321 0 74.0569 11.4912 851 110.608 270.763 477.559
322 0 75.0439 10.8203 812 112.983 270.415 474.248
323 0 75.0415 10.9006 818 127.462 270.414 474.17
324 0 81.0481 11.4747 930 112.686 270.028 471.377
325 0 85.0856 11.9174 1014 109.66 270.602 472.608
326 0 87.0303 11.4213 994 111.309 270.623 471.011
327 0 90.1206 12.5388 1130 109.522 271.192 467.561
328 0 93.1177 11.9634 1114 109.966 270.984 468.58
329 0 97.097 12.0086 1166 110.031 271.16 466.237
330 0 100.204 11.6462 1167 110.781 271.424 465.061
331 0 101.102 10.6921 1081 113.685 271.327 463.386
332 0 105.128 12.3278 1296 110.059 270.336 460.058
333 0 108.084 11.6854 1263 110.897 270.613 457.943
334 1 59.0693 10.3946 614 106.738 270.795 486.13
335 0 59.0475 10.5847 625 107.253 271.03 482.584
336 0 63.0641 12.1305 765 101.139 271.224 483.49
337 0 65.0178 12.6735 824 100.836 270.634 481.864
338 0 69.0844 12.4341 859 108.623 270.082 479.852
339 0 67.0671 10.8846 730 114.067 270.414 477.999
340 0 70.0638 10.2193 716 113.953 270.194 480.578
341 0 73.1059 11.8458 866 112.042 269.905 475.782
342 0 75.0807 11.8406 889 112.198 270.301 474.227
343 0 77.0407 10.488 808 113.981 270.251 476.522
344 0 79.1544 11.5344 913 113.876 269.732 470.973
345 0 82.1005 12.2898 1009 110.68 271.091 473.553
346 0 84.1302 11.1375 937 115.026 270.584 468.878
347 0 88.2299 11.6627 1029 113.705 269.554 469.537
348 0 91.1347 12.7942 1166 112.205 270.902 466.789
349 0 93.086 13.7077 1276 110.206 270.247 467.453
350 0 96.1183 12.3182 1184 114.49 270.545 465.127
351 0 100.103 13.3063 1332 111.685 270.351 464.682
352 0 102.221 13.51 1381 111.574 270.686 461.924
353 0 100.192 13.1348 1316 138.974 270.654 460.662
354 0 107.13 12.9189 1384 114.235 270.864 459.278
355 0 107.21 11.7992 1265 117.285 270.64 458.262
356 0 114.225 12.3265 1408 115.208 271.148 458.288
357 0 118.21 13.5775 1605 110.536 270.454 454.158
358 1 62.0473 10.6693 662 108.101 271.151 484.36
359 0 64.0488 10.211 654 111.133 271.67 484.778
360 0 66.0283 10.6318 702 111.12 271.369 482.18
361 0 69.1121 11.7201 810 108.478 271.744 479.964
362 0 72.1234 12.229 882 103.117 271.175 478.153
363 0 73.1308 12.1836 891 103.724 271.627 479.745
364 0 78.1314 12.8758 1006 103.124 271.248 477.197
365 0 79.0322 12.2608 969 104.859 271.125 475.302
366 0 82.1246 12.4323 1021 105.889 271.708 473.635
367 0 83.0533 12.9796 1078 105.717 271.686 473.183
368 0 87.1132 12.478 1087 107.46 271.902 471.926
369 0 92.0845 11.8044 1087 116.991 272.226 471.06
370 0 93.1185 12.5324 1167 116.242 271.947 467.982
371 0 95.1409 11.6354 1107 119.227 271.515 466.629
372 0 98.1517 12.9086 1267 116.217 271.773 466.205
373 0 100.12 12.7847 1280 116.598 271.705 462.907
374 0 103.097 12.6967 1309 116.467 271.367 463.035
375 0 107.135 13.0023 1393 116.218 271.632 462.454
376 0 110.13 12.458 1372 119.504 271.384 459.285
377 0 112.124 12.3702 1387 121.056 271.794 459.118
378 0 116.135 12.9935 1509 119.808 271.648 455.457
379 0 120.178 12.3817 1488 120.963 271.12 454.849
380 0 124.175 12.9012 1602 115.258 271.138 451.27
381 1 64.0406 10.4933 672 114.53 271.826 482.354
382 0 66.0824 11.3192 748 109.715 271.239 481.463
383 0 69.122 12.1814 842 106.505 271.524 481.562
384 0 71.0528 11.5126 818 109.579 271.949 479.369
385 0 73.1237 12.9506 947 106.247 271.758 478.11
386 0 75.0978 11.9711 899 108.307 271.849 477.083
387 0 79.1246 11.5388 913 108.758 271.355 476.416
388 0 82.1981 12.1049 995 108.144 271.824 475.351
389 0 84.1266 12.707 1069 107.558 271.31 472.762
390 0 87.1558 13.5619 1182 106.497 270.69 471.427
391 0 88.1537 11.4686 1011 112.899 271.675 469.932
392 0 93.1399 12.4651 1161 110.991 271.178 468.586
393 0 96.0793 12.0942 1162 112.435 271.618 468.302
394 0 99.1689 13.9862 1387 109.46 271.399 464.517
395 0 102.126 12.8076 1308 113.301 271.509 465.324
396 0 105.113 12.0251 1264 115.928 271.294 463.159
397 0 109.182 13.0882 1429 114.038 270.896 459.68
398 1 58.0797 11.226 652 112.873 271.005 486.764
399 0 57.0919 10.7721 615 114.954 272.249 486.35
400 0 60.2057 11.7763 709 114.386 272.611 482.942
401 0 62.0632 12.0039 745 110.195 272.128 482.593
402 0 62.0952 11.7722 731 111.878 272.371 484.026
403 0 65.0475 12.8214 834 109.566 271.827 481.741
404 0 68.0452 12.2419 833 110.693 271.437 481.675
405 0 70.0796 11.8865 833 112.247 271.613 480.236
406 0 74.1556 13.4582 998 107.785 271.968 479.205
407 0 75.1631 12.9984 977 110.68 271.395 477.809
408 0 77.1023 13.1903 1017 110.763 271.636 477.07
409 0 80.0898 13.5223 1083 110.094 271.495 474.635
410 0 83.1711 13.7187 1141 109.956 270.525 474.514
411 0 85.0628 13.4606 1145 112.977 270.235 473.416
412 0 87.0664 13.6562 1189 113.961 269.716 471.178
413 0 90.1558 13.5432 1221 114.266 270.566 469.975
414 0 91.0824 12.5601 1144 118.222 269.886 470.038
415 0 93.0411 12.8115 1192 119.117 270.396 466.763
416 0 97.1687 13.5537 1317 116.486 271.055 465.457
417 1 51.0917 10.5301 538 119.117 270.976 487.626
418 0 51.1701 9.8495 504 113.357 271.431 483.587
419 0 50.2301 10.1732 511 112.998 271.313 481.861
420 0 54.0926 10.2232 553 113.957 271.333 482.6
421 0 53.069 9.77972 519 117.374 271.324 481.399
422 0 57.1162 11.748 671 112.744 271.7 479.481
423 0 59.1757 12.3361 730 111.57 271.849 478.988
424 0 61.0581 11.2188 685 114.695 271.502 479.06
425 0 63.0767 11.1927 706 114.99 271.289 477.018
426 0 66.0642 12.5635 830 114.001 272.237 483.099
427 0 65.0941 9.26351 603 122.973 271.723 481.602
428 0 70.0674 10.8895 763 118.65 272.277 481.067
429 0 73.1291 11.9378 873 116.923 271.822 478.314
430 0 75.1909 13.5123 1016 113.326 271.153 477.38
431 0 76.1228 11.915 907 118.592 271.741 477.258
432 0 80.1932 12.0334 965 117.751 271.306 475.276
433 0 81.1754 12.2204 992 118.832 271.521 474.74
434 0 83.1271 11.8493 985 122.265 271.603 471.674
435 0 85.1343 12.4627 1061 120.192 271.751 472.054
436 0 88.0676 12.3087 1084 121.807 271.794 469.47
437 0 91.1654 12.3841 1129 123.407 270.104 469.708
438 0 94.1236 12.5261 1179 123.957 270.412 469.059
439 0 99.1288 13.2656 1315 121.622 271.134 465.557
440 0 102.33 13.1438 1345 126.113 271.165 465.352
441 1 55.2586 11.2743 623 123.61 272.005 488.22
442 0 53.1878 9.26905 493 118.631 270.824 481.724
443 0 53.2027 9.492 505 117.968 271.178 481.725
444 0 55.0305 10.2852 566 111.429 270.938 480.132
445 0 59.1115 12.248 724 115.626 272.195 486.29
446 0 61.0937 11.5233 704 117.06 272.761 486.024
447 0 61.0937 11.4742 701 141.716 273.775 485.899
448 0 65.051 13.0513 849 113.713 272.157 482.324
449 0 68.1001 12.0998 824 115.282 271.438 483.191
450 0 71.0591 12.4403 884 114.104 272.025 480.298
451 0 72.0248 12.4263 895 115.082 272.208 479.458
452 0 75.0629 12.8159 962 115.054 271.246 478
453 0 76.0822 12.7231 968 116.017 271.979 477.243
454 0 80.0789 12.9872 1040 114.28 272.594 474.78
455 0 83.0696 13.3864 1112 112.899 271.643 474.554
456 0 85.0701 12.6249 1074 116.326 271.557 472.953
457 0 88.055 12.2537 1079 123.837 272.134 472.511
458 0 89.0635 11.4637 1021 126.701 271.827 470.978
459 0 94.0996 11.7854 1109 124.959 272.142 469.888
460 1 52.0291 10.8977 567 119.644 272 490.6
461 0 53.0365 11.0678 587 120.453 272.146 489.915
462 0 55.0076 11.4893 632 118.884 271.506 488.601
463 0 56.0619 11.9332 669 111.158 271.904 487.643
464 0 56.028 11.7263 657 112.271 272.385 487.341
465 0 57.072 12.861 734 110.116 272.12 484.654
466 0 61.0799 12.0334 735 109.401 271.778 485.955
467 0 60.0971 11.8475 712 110.313 270.993 483.593
468 0 63.1546 12.7307 804 107.277 271.828 483.072
469 0 62.0409 11.976 743 110.05 271.406 482.869
470 0 65.0536 11.9901 780 108.479 271.669 482.703
471 0 66.0868 10.804 714 110.483 271.479 482.706
472 0 68.0582 11.9457 813 107.866 271.202 480.096
473 0 70.1051 12.1104 849 107.243 271.615 480.463
474 0 74.1303 12.1138 898 106.125 271.555 479.222
475 0 76.1747 12.3926 944 105.593 272.141 476.376
476 0 77.1325 12.1998 941 106.116 271.53 474.254
477 0 82.0912 12.1694 999 105.111 271.092 473.735
478 0 85.0871 10.7654 916 107.179 271.562 475.895
479 0 85.1779 12.7381 1085 106.056 270.272 472.423
480 0 89.1005 12.7945 1140 105.156 269.926 471.227
481 0 90.1499 12.2241 1102 107.056 270.081 467.209
482 0 93.107 11.2774 1050 109.775 269.59 468.85
483 0 98.2021 11.904 1169 107.392 270.456 466.931
484 0 100.158 13.309 1333 106.848 270.396 463.456
485 0 104.139 12.6178 1314 109.943 270.457 462.619
486 0 106.319 11.4467 1217 108.457 270.086 461.037
487 0 109.222 11.82 1291 108.24 270.26 459.536
488 0 114.158 12.6229 1441 106.384 269.874 459.332
489 1 59.033 10.6889 631 105.166 271.723 485.924
490 0 62.1215 12.2019 758 105.702 271.675 482.763
491 0 64.236 12.0337 773 109.567 269.832 481.656
492 0 68.2049 12.1546 829 109.362 270.157 480.964
493 0 68.1016 12.6135 859 110.081 270.284 480.481
494 0 70.2272 12.602 885 109.31 270.562 479.6
495 0 73.1444 13.0974 958 108.959 270.462 476.924
496 0 75.0964 12.2776 922 109.908 270.111 477.552
497 0 80.1733 12.6227 1012 107.752 270.434 475.637
498 0 80.1983 12.4192 996 109.644 270.558 473.612
499 0 83.2539 12.7201 1059 108.973 271.295 472.817
500 0 86.1505 12.6407 1089 111.003 270.702 470.871
501 0 89.2117 11.4335 1020 108.708 272.045 471.326
502 0 90.184 11.1882 1009 110.464 271.796 469.553
503 0 94.2188 11.5158 1085 110.896 272.434 465.929
504 0 99.2867 12.2272 1214 110.787 272.18 465.727
505 0 102.26 12.4585 1274 111.765 272.209 461.826
506 1 52.0759 9.14051 476 112.683 271.214 488.998
507 0 55.083 10.1483 559 110.803 272.236 487.766
508 0 58.1743 11.7234 682 108.229 272.081 484.792
509 0 61.0619 12.6593 773 100.294 271.912 485.753
510 0 63.1874 10.9674 693 104.431 272.03 484.788
511 0 66.1214 11.252 744 105.2 271.681 482.739
512 0 67.1533 11.1685 750 105.799 271.127 482.605
513 0 70.1791 11.0004 772 107.108 271.152 481.982
514 0 73.273 11.0136 807 113.001 271.128 480.823
515 0 76.2692 11.9183 909 111.693 270.56 478.417
516 0 78.3459 11.3726 891 109.332 271.245 476.853
517 0 80.2402 12.3504 991 111.079 271.86 474.838
518 0 83.3608 10.9764 915 113.745 271.911 474.584
519 0 86.3506 9.42668 814 117.435 271.446 472.57
520 1 44.166 10.4605 462 114.242 271.615 491.251
521 0 48.2152 11.8635 572 111.271 270.785 489.117
522 0 50.1914 11.7351 589 112.178 269.511 488.1
523 0 49.0117 11.5891 568 108.551 271.849 490.141
524 0 52.0648 11.1208 579 108.651 270.192 491.13
525 0 51.0348 10.3459 528 112.725 270.547 488.578
526 0 53.1007 10.9791 583 111.571 270.281 488.288
527 0 55.0417 11.7547 647 108.269 269.808 487.278
528 0 58.0828 10.4506 607 111.42 270.04 488.891
529 0 56.045 9.68864 543 116.341 270.042 488.039
530 0 61.0534 11.5309 704 110.69 270.717 485.997
531 0 62.0945 11.0638 687 111.744 270.52 484.381
532 0 64.0608 11.0832 710 111.311 270.755 485.146
533 0 66.0796 10.9111 721 112.436 270.754 483.798
534 0 68.0937 11.587 789 111.611 270.586 482.961
535 0 71.1131 11.32 805 112.432 271.33 481.86
536 0 74.1166 11.8732 880 111.168 271.743 479.184
537 0 76.0955 11.3279 862 112.861 271.807 477.999
538 0 79.1033 11.6177 919 113.267 271.763 476.67
539 0 82.15 10.7852 886 113.965 271.289 475.579
540 1 42.0125 10.4255 438 111.347 272.628 495.84
541 0 43.0735 9.86685 425 112.776 272.249 495.066
542 0 45.0562 12.4289 560 106.032 272.198 494.355
543 0 47.0206 10.3572 487 109.195 272.359 492.125
544 0 47.0932 11.0419 520 111.512 270.115 491.585
545 0 49.0716 11.6768 573 108.93 270.59 491.71
546 0 51.1074 12.2683 627 106.799 270.738 489.761
547 0 52.0479 10.8362 564 110.066 270.339 492.163
548 0 53.0521 11.6112 616 108.156 270.729 491.67
549 0 56.0425 12.2229 685 106.149 270.736 489.638
550 0 56.0458 12.2935 689 107.504 270.553 488.488
551 0 57.0457 11.6047 662 109.384 270.157 487.943
552 0 60.0998 12.8952 775 104.09 271.208 487.707
553 0 60.1327 11.5411 694 110.082 270.981 485.646
554 0 62.0698 12.0671 749 108.099 270.554 485.829
555 0 64.07 12.3146 789 107.546 270.657 483.98
556 0 64.0694 11.0349 707 111.883 270.967 485.148
557 0 66.0515 11.8847 785 110.675 271.046 482.778
558 0 70.0708 12.5302 878 108.353 271.334 481.412
559 0 73.1118 12.0637 882 109.689 271.506 479.502
560 0 75.0815 12.2267 918 108.635 272.105 479.398
561 0 77.0622 12.4445 959 109.471 272.024 476.528
562 0 79.0519 13.371 1057 108.576 271.067 474.97
563 0 81.1476 12.3109 999 111.291 271.074 473.571
564 0 86.0758 12.2683 1056 110.441 271.644 475.599
565 0 88.127 13.072 1152 109.886 271.528 470.275
566 0 91.0766 13.9114 1267 108.64 270.991 471.509
567 0 94.1515 13.3083 1253 112.285 270.535 465.824
568 0 95.1342 13.255 1261 114.221 271.384 466.512
569 0 98.172 12.9772 1274 116.065 270.872 467.781
570 0 100.214 12.5532 1258 118.031 271.22 465.412
571 0 105.206 12.8415 1351 119.046 271.361 463.417
572 0 109.248 13.1994 1442 122.709 270.96 458.329
573 0 113.281 12.7294 1442 124.099 271.369 460.746
574 1 61.2444 10.9724 672 118.118 272.781 482.972
575 0 63.2653 12.3132 779 118.158 271.958 483.304
576 0 66.0615 12.3673 817 114.009 271.595 485.31
577 0 67.1575 12.4037 833 115.857 270.502 483.196
578 0 69.1505 12.9717 897 114.738 270.861 482.493
579 0 70.2194 12.5179 879 117.092 270.944 482.959
580 0 74.0906 12.1878 903 117.872 271.229 481.455
581 0 77.1585 12.416 958 117.772 270.769 480.113
582 0 79.0862 12.6444 1000 118.332 271.305 476.855
583 0 79.0353 12.0959 956 120.771 270.802 477.927
584 0 85.1003 13.8895 1182 115.908 271.676 475.957
585 0 87.1141 12.7993 1115 120.932 271.309 473.624
586 0 89.1775 12.2452 1092 123.87 271.297 473.704
587 0 92.1927 13.2115 1218 121.043 271.63 472.118
588 0 95.1026 12.9229 1229 123.074 270.874 469.075
589 0 99.3521 13.3465 1326 122.969 271.484 469.741
590 0 103.086 13.3966 1381 124.029 270.684 466.049
591 0 105.152 12.7911 1345 126.364 270.334 464.63
592 1 53.1781 11.9786 637 119.841 271.761 489.898
593 0 54.1788 11.2775 611 122.715 272.188 490.119
594 0 55.2092 12.1357 670 122.13 272.118 486.984
595 0 57.0455 13.7434 784 118.55 270.32 488.061
596 0 56.0565 11.3814 638 129.694 269.592 488.586
597 0 60.0464 13.1232 788 122.958 269.68 487.416
598 0 62.1186 14.247 885 119.149 269.698 485.376
599 0 65.0531 12.7127 827 123.031 270.337 484.773
600 0 66.0884 12.2563 810 126.616 270.177 482.853
601 0 68.1492 13.3384 909 122.867 269.905 483.402
602 0 72.0692 13.0014 937 123.621 269.6 481.88
603 0 74.1076 13.7233 1017 121.847 269.429 479.205
604 0 75.0897 14.0232 1053 123.283 269.507 476.979
605 0 77.1698 13.5027 1042 123.359 270.138 478.912
606 0 79.1418 13.5453 1072 126.995 270.085 475.23
607 0 81.1218 12.4504 1010 126.73 270.058 477.972
608 0 85.0885 13.3391 1135 126.089 268.898 474.369
609 0 87.1322 13.1295 1144 127.061 270.021 473.489
610 0 90.0955 12.3647 1114 129.383 269.408 471.215
611 0 94.1011 14.155 1332 121.735 269.692 472.539
612 0 95.1151 11.7226 1115 128.673 269.541 471.679
613 0 97.0958 12.4928 1213 127.495 269.359 467.99
614 0 101.15 12.8522 1300 126.506 269.945 464.904
615 0 106.084 13.3762 1419 123.004 270.016 464.916
616 1 54.1242 11.7508 636 123.758 270.112 489.038
617 0 57.1195 11.7823 673 122.538 270.312 486.218
618 0 58.0476 12.6448 734 122.365 270.229 485.247
619 0 60.0579 12.7877 768 118.618 269.927 485.988
620 0 62.051 13.2472 822 117.586 270.063 484.771
621 0 63.0903 13.0289 822 118.082 270.809 484.136
622 0 67.1094 12.4573 836 119.331 270.056 482.455
623 0 69.0846 12.767 882 119.043 270.524 480.965
624 0 72.0581 13.8499 998 115.665 269.462 479.719
625 0 73.1507 12.4127 908 119.988 269.906 478.974
626 0 76.1563 12.7107 968 119.498 270.481 476.346
627 0 78.1723 12.7155 994 119.847 270.644 478.94
628 0 79.0569 11.9155 942 123.54 270.483 474.906
629 0 83.147 12.7365 1059 119.931 269.882 473.552
630 0 86.1882 13.0992 1129 118.531 270.131 472.089
631 1 46.2029 10.2375 473 127.338 269.516 491.617
632 0 49.0806 11.0227 541 121.706 270.274 487.994
633 0 49.0491 11.1521 547 124.826 269.66 490.075
634 0 51.0612 13.1411 671 117.078 269.338 490.122
635 0 51.0246 12.0138 613 121.685 269.907 489.76
636 0 51.0963 11.2924 577 124.612 270.142 488.109
637 0 54.0363 12.5286 677 120.962 269.678 486.873
638 0 56.0592 11.8446 664 122.807 269.167 487.125
639 0 57.0505 11.9894 684 123.269 270.06 487.322
640 0 60.1135 11.7445 706 121.868 270.751 485.61
641 0 61.0864 12.3104 752 120.779 269.767 485.762
642 0 65.065 14.2473 927 114.042 270.02 482.694
643 0 65.1734 13.1495 857 119.306 269.368 482.076
644 0 68.1582 13.4393 916 119.023 270.087 479.622
645 0 71.1093 13.6691 972 118.077 270.554 480.666
646 0 73.1489 13.288 972 120.53 270.571 478.114
647 0 73.3282 12.1509 891 125.911 269.593 478.127
648 0 78.1855 13.2889 1039 121.529 270.398 477.287
649 0 81.2146 14.0369 1140 120.223 269.818 475.423
650 0 85.2182 14.5274 1238 119.416 269.535 473.168
651 0 85.2312 13.2932 1133 123.405 269.497 475.064
652 0 87.4385 12.8204 1121 126.811 269.706 472.588
653 0 89.0787 12.8426 1144 126.449 269.902 469.39
654 1 42.21 10.7794 455 122.426 269.877 486.721
655 0 43.1366 10.7797 465 122.211 270.138 486.632
656 0 47.1583 10.5602 498 111.942 270.715 487.689
657 0 50.1036 11.1968 561 109.617 270.602 489.882
658 0 49.1116 11.7284 576 118.372 270.012 486.069
659 0 51.2579 9.75459 500 122.646 270.508 486.712
660 0 53.0875 11.2079 595 119.346 270.418 485.563
661 0 52.1775 10.8859 568 122.827 270.81 484.616
662 0 54.0887 10.982 594 122.015 270.51 484.288
663 0 57.1105 10.3308 590 120.373 270.656 485.888
664 0 59.1179 10.9442 647 118.782 270.966 483.187
665 0 61.1096 11.4221 698 115.703 270.908 482.209
666 0 64.0626 12.7063 814 123.963 270.897 485.1
667 0 67.1379 12.7499 856 123.363 270.096 484.179
668 0 68.2139 12.8126 874 123.44 270.13 484.032
669 0 70.0922 13.8104 968 121.923 270.663 481.854
670 0 72.1145 12.3831 893 125.699 270.221 482.395
671 0 75.1404 13.335 1002 122.608 270.845 482.269
672 0 76.1979 12.5463 956 127.738 270.305 478.996
673 0 79.1424 13.1535 1041 125.225 270.157 479.515
674 0 81.1116 12.4027 1006 130.886 270.169 475.912
675 0 83.1904 13.968 1162 126.244 270.928 474.62
676 0 86.1411 12.6885 1093 130.865 270.224 474.546
677 1 50.0989 10.8386 543 125.731 271.022 494.017
678 0 51.0474 11.6754 596 126.869 271.487 492.364
679 0 51.0869 11.5489 590 129.132 271.6 490.054
680 0 55.0775 13.6353 751 118.493 271.012 490.975
681 0 54.0657 12.0039 649 118.63 270.079 491.277
682 0 58.0384 12.4573 723 117.444 269.079 489.887
683 0 58.0521 12.1098 703 118.471 269.616 488.169
684 0 60.0603 12.7705 767 116.546 269.977 488.039
685 0 60.0432 12.6409 759 117.099 270.028 488.726
686 0 63.0543 13.8135 871 118.974 269.449 484.781
687 0 64.0728 12.5794 806 122.352 269.679 483.976
688 0 67.1314 12.0957 812 122.143 269.313 484.565
689 0 70.1033 13.095 918 118.961 270 481.18
690 0 70.1012 12.1396 851 121.552 270.396 482.63
691 0 74.1891 13.1421 975 119.061 270.027 479.778
692 0 77.1308 12.6409 975 119.255 269.984 480.092
693 0 78.2475 12.1282 949 120.668 270.213 479.804
694 0 80.2566 12.8214 1029 118.751 270.61 478.542
695 0 84.3626 12.956 1093 119.554 270.567 471.072
696 0 86.3746 11.0681 956 122.702 270.401 475.483
697 1 48.3185 10.9068 527 122.465 271.233 492.192
698 0 50.062 12.085 605 113.856 270.66 492.35
699 0 49.0552 11.5788 568 115.783 271.787 492.042
700 0 51.1025 12.2108 624 114.816 271.136 491.311
701 0 55.0417 13.1355 723 110.957 271.902 489.499
702 0 54.1227 12.0097 650 115.457 270.535 490
703 0 55.0595 11.6238 640 117.398 270.423 488.452
704 0 59.0832 12.3385 729 112.904 271.15 488.83
705 0 61.0267 12.8141 782 111.614 271.386 486.143
706 0 62.0922 12.4009 770 113.271 270.366 484.182
707 0 65.1255 12.6986 827 112.45 270.888 483.294
708 0 66.1017 12.8741 851 112.341 270.356 482.851
709 0 69.0845 13.2881 918 110.646 270.061 482.315
710 0 71.2085 12.9338 921 122.169 270.455 479.807
711 0 72.1766 12.2616 885 124.499 270.393 478.99
712 0 76.1081 12.6662 964 120.443 270.241 478.602
713 0 77.2361 12.9991 1004 120.597 270.319 474.156
714 0 81.1696 12.1967 990 120.712 270.582 475.704
715 0 84.1111 12.2457 1030 116.712 270.101 474.136
716 0 87.119 12.5231 1091 116.117 269.962 472.775
717 1 46.1004 12.1257 559 115.624 271.335 492.39
718 0 47.1475 11.4746 541 118.115 270.699 492.854
719 0 51.11 11.7003 598 116.567 270.804 491.199
720 0 50.1826 11.1792 561 123.995 270.118 491.068
721 0 53.1154 12.6705 673 118.902 270.241 489.377
722 0 56.17 12.5334 704 118.908 270.41 487.805
723 0 55.1741 11.6178 641 122.42 270.819 487.44
724 0 56.1352 11.793 662 121.997 270.387 487.446
725 0 61.0681 12.2159 746 119.087 269.819 486.429
726 0 60.0948 11.8147 710 121.663 269.844 486.179
727 0 62.1983 11.7849 733 120.477 270.12 484.724
728 0 66.255 13.2518 878 116.008 270.101 484.408
729 0 66.1927 11.7536 778 120.501 270.438 483.776
730 0 68.1374 11.741 800 119.326 270.619 482.779
731 0 72.1724 12.9967 938 115.005 270.179 479.865
732 0 73.1448 11.2927 826 118.808 270.316 481.228
733 0 75.1782 12.5036 940 115.089 270.295 478.85
734 0 79.1327 12.1821 964 115.998 270.323 477.765
735 0 81.1447 12.299 998 114.815 270.335 478.83
736 0 84.1283 12.0174 1011 116.229 269.85 475.524
737 0 88.1295 14.0929 1242 108.564 270.237 475.545
738 0 89.1105 11.8841 1059 110.299 270.458 470.15
739 0 93.0939 12.3209 1147 108.369 270.5 471.264
740 0 95.0408 12.4578 1184 110.053 270.097 468.29
741 0 98.1005 12.3547 1212 113.824 271.125 468.385
742 1 49.0593 10.7625 528 109.617 271.167 491.676
743 0 49.0238 10.8111 530 111.266 270.883 493.398
744 0 54.02 12.7175 687 110.758 270.242 491.755
745 0 52.0562 12.8899 671 108.92 270.058 490.814
746 0 57.1026 12.9591 740 113.426 269.876 488.097
747 0 57.0631 11.9867 684 116.513 269.209 488.015
748 0 60.0835 13.1484 790 112.591 269.86 486.648
749 0 60.1442 11.1399 670 118.642 269.437 487.028
750 0 63.1328 12.6559 799 113.753 269.633 484.936
751 0 64.0364 12.9145 827 115.074 269.941 483.999
752 0 66.158 12.0772 799 115.82 269.382 484.666
753 0 67.1614 12.1052 813 117.005 270.406 482.903
754 0 70.1211 13.0488 915 116.118 269.918 481.175
755 0 74.1692 13.213 980 115.491 268.785 480.859
756 0 75.1214 12.9391 972 116.975 269.812 479.95
757 0 80.098 12.9092 1034 113.938 270.22 479.048
758 0 79.1397 12.6864 1004 115.67 269.616 477.726
759 0 85.0255 13.1255 1116 112.881 270.857 476.461
760 0 87.0849 13.9404 1214 112.069 269.868 475.449
761 0 90.1517 13.6215 1228 112.586 270.481 473.811
762 0 93.0915 13.1698 1226 115.355 270.233 470.082
763 0 96.1705 12.2491 1178 117.003 270.754 470.385
764 0 99.0907 13.3413 1322 111.068 270.814 466.8
765 1 52.0851 11.9228 621 112.027 271.253 491.655
766 0 55.0255 11.7764 648 114.321 270.48 491.722
767 0 55.0551 13.1141 722 111.605 270.807 488.453
768 0 56.175 12.6569 711 111.418 270.79 487.498
769 0 59.066 13.7135 810 109.388 270.575 486.281
770 0 61.0894 13.1938 806 110.486 270.604 485.976
771 0 63.0437 13.0703 824 111.886 270.519 486.615
772 0 63.0418 12.7376 803 113.643 271.448 485.594
773 0 66.0344 12.2663 810 116.02 270.705 484.681
774 0 68.132 11.7272 799 115.886 271.134 485.264
775 0 71.0735 12.7896 909 113.98 270.817 484.144
776 0 73.0898 12.1358 887 116.667 270.59 482.338
777 0 76.0435 12.2298 930 118.039 270.62 481.186
778 0 77.0619 12.2888 947 118.297 270.634 480.366
779 0 82.1239 13.2604 1089 117.848 271.021 477.511
780 1 43.1159 12.594 543 120.716 271.057 496.816
781 0 42.1249 10.7537 453 111.583 270.954 489.658
782 0 41.0716 9.95821 409 116.76 270.648 489.817
783 0 44.0378 10.0368 442 117.948 269.71 491.26
784 0 46.046 11.3365 522 114.952 269.979 490.042
785 0 48.0463 10.9894 528 114.989 270.229 489.994
786 0 47.0337 10.7157 504 120.075 270.413 488.671
787 0 52.0596 13.3309 694 114.549 270.474 492.728
788 0 52.0885 12.8627 670 118.201 271.009 490.643
789 0 54.0547 11.2109 606 120.695 271.436 491.741
790 0 56.0774 11.9121 668 119.912 270.388 490.202
791 0 57.0748 12.0368 687 120.052 270.656 490.242
792 0 57.0575 11.6374 664 123.708 270.392 488.369
793 0 61.0378 12.697 775 118.705 270.554 487.062
794 0 62.1089 12.2205 759 121.167 270.696 486.068
795 0 65.0842 12.8603 837 118.502 270.83 485.949
796 0 66.0886 11.9688 791 120.791 270.673 485.024
797 0 69.0821 12.0871 835 120.181 270.551 482.547
798 0 70.0927 11.7273 822 122.44 270.586 481.511
799 0 74.1075 12.3334 914 120.465 270.302 479.324
800 0 76.1374 13.3968 1020 117.476 270.897 479.915
801 1 38.0347 11.358 432 119.204 271.817 496.875
802 0 39.0381 10.3489 404 119.715 271.418 497.423
803 0 41.0066 11.8274 485 115.672 270.408 496.907
804 0 43.0082 12.0675 519 124.514 271.73 494.285
805 0 46.0392 12.055 555 122.584 271.45 494.84
806 0 46.0375 12.4247 572 124.01 271.248 493.692
807 0 48.061 12.172 585 123.781 271.077 493.617
808 0 50.0484 12.6478 633 122.24 270.431 492.068
809 0 51.0441 13.7724 703 120.549 271.329 490.277
810 0 52.0123 12.3432 642 124.196 270.788 490.975
811 0 53.0427 12.8576 682 124.541 271.817 488.364
812 0 57.1106 12.5371 716 122.799 271.08 490.367
813 0 56.0277 13.7253 769 121.425 270.853 488.356
814 0 58.1109 13.9561 811 121.201 270.404 487.491
815 0 58.023 12.5985 731 127.067 270.399 487.192
816 0 62.0243 13.4141 832 123.173 271.085 485.72
817 0 64.0329 12.9777 831 124.726 270.457 484.508
818 0 65.0937 12.7662 831 119.126 271.126 485.503
819 0 66.0714 11.6843 772 121.387 270.991 484.944
820 0 68.0713 11.9581 814 119.537 271.17 482.027
821 0 72.0378 11.7161 844 121.57 270.485 481.876
822 0 75.1108 13.2471 995 119.066 271.823 478.817
823 0 77.0609 12.6523 975 118.416 271.271 481.988
824 1 42.0369 11.6326 489 121.38 271.374 496.339
825 0 42.0641 11.3636 478 122.728 271.776 493.31
826 0 46.0335 11.622 535 122.574 271.686 494.486
827 0 47.0184 11.7401 552 121.56 271.567 492.283
828 0 48.0995 12.1415 584 121.209 271.971 491.973
829 0 48.0633 11.9634 575 122.337 271.603 491.148
830 0 52.0561 11.6605 607 120.75 270.741 491.173
831 0 52.0883 12.5172 652 118.916 270.132 490.15
832 0 55.0867 12.0719 665 119.182 270.689 490.035
833 0 56.0808 11.4299 641 120.705 271.08 488.601
834 0 56.022 11.7454 658 120.375 270.761 487.064
835 0 62.0984 12.4963 776 116.36 270.937 486.907
836 0 63.0691 12.3357 778 115.69 270.613 485.69
837 0 64.0705 13.5632 869 113.246 270.572 482.304
838 0 66.0489 12.5664 830 115.99 270.801 484.098
839 0 69.1188 12.6015 871 115.092 270.614 483.543
840 0 70.0306 12.4374 871 116.753 271.057 480.734
841 0 73.089 13.0663 955 113.413 270.533 482.161
842 0 75.0376 12.7003 953 115.003 270.305 480.115
843 0 79.1164 12.0961 957 116.958 270.641 478.566
844 1 41.0274 11.0658 454 116.029 270.971 495.187
845 0 43.0463 11.2669 485 115.775 271.289 495.322
846 0 45.0574 12.4952 563 113.126 268.65 494.201
847 0 46.1358 11.6612 538 115.669 268.476 494.362
848 0 48.1142 11.7013 563 116.849 268.696 492.984
849 0 50.073 11.4233 572 117.642 267.923 492.698
850 0 51.1184 11.3853 582 117.644 269.418 492.96
851 0 55.0713 12.4203 684 116.05 268.826 490.237
852 0 55.0853 11.3824 627 120.469 268.852 490.116
853 0 57.0919 12.6813 724 118.427 269.184 488.646
854 0 60.2067 12.4073 747 118.074 270.171 489.455
855 0 60.1913 13.4239 808 117.649 269.468 486.876
856 0 62.2035 12.3787 770 120.418 270.366 486.826
857 0 64.1307 12.8332 823 120.135 270.253 486.315
858 0 66.1804 13.7201 908 119.205 270.133 484.077
859 0 67.201 13.5415 910 120.618 269.434 481.038
860 0 70.1863 12.994 912 121.53 269.593 482.333
861 0 72.1196 13.02 939 123.242 269.884 482.434
862 0 74.1618 13.3896 993 122.292 270.146 480.462
863 0 78.1206 13.0311 1018 122.284 269.358 478.7
864 0 80.1232 13.1672 1055 122.556 270.298 478.948
865 0 81.0842 13.8868 1126 121.968 270.457 475.7
866 0 86.0622 13.8156 1189 120.87 270.507 476.186
867 0 89.1026 13.1534 1172 121.929 270.67 474.44
868 0 91.0249 13.2601 1207 121.869 270.035 473.507
869 1 47.0293 11.4609 539 118.983 270.874 494.952
870 0 45.0143 11.352 511 121.444 270.329 493.916
871 0 49.0487 11.3968 559 108.029 270.163 494.324
872 0 49.0459 11.5402 566 107.443 269.866 487.048
873 0 50.0509 11.748 588 107.946 270.102 487.139
874 0 50.0189 11.2957 565 110.241 269.954 486.703
875 0 52.0471 10.2023 531 111.552 270.064 487.16
876 0 54.0778 11.5389 624 109.833 269.74 484.402
877 0 55.0175 11.56 636 110.959 269.421 483.472
878 0 57.0894 10.7551 614 114.06 269.396 483.143
879 0 59.0466 11.9058 703 111.218 269.494 482.225
880 0 63.0498 11.5623 729 113.229 269.737 480.819
881 0 64.0671 11.7065 750 114.277 269.707 480.731
882 0 64.0489 11.3507 727 118.199 269.332 476.393
883 0 68.1704 12.19 831 115.45 269.502 479.177
884 0 70.0291 12.4662 873 117.505 270.365 477.011
885 0 72.029 12.8837 928 118.53 269.905 474.464
886 0 73.0585 12.6748 926 119.693 269.929 473.89
887 0 78.0584 13.144 1026 117.927 269.407 472.98
888 0 81.0953 13.2314 1073 121.001 269.317 471.471
889 0 84.0439 13.3859 1125 121.996 269.697 470.636
890 0 86.1678 12.6497 1090 125.801 268.871 468.711
891 0 90.2143 13.2906 1199 124.036 269.445 466.554
892 1 49.0406 11.5211 565 121.768 269.934 486.89
893 0 47.0467 11.2441 529 125.253 270.257 484.518
894 0 50.1581 11.5834 581 121.988 269.74 485.718
895 0 53.0902 12.3375 655 113.736 269.959 484.452
896 0 53.0705 12.3798 657 127.282 270.706 489.276
897 0 56.0452 12.1509 681 127.313 270.347 488.515
898 0 56.0289 12.9398 725 125.759 270.461 487.353
899 0 58.1123 12.3554 718 126.851 270.599 485.744
900 0 62.0452 12.5231 777 124.349 270.027 486.389
901 0 63.0642 12.3208 777 127.01 270.565 484.279
902 0 65.0495 12.3752 805 127.158 270.539 484.266
903 0 66.0897 13.4514 889 126.271 270.525 481.799
904 0 69.0527 12.2081 843 129.082 269.783 480.044
905 0 72.1025 13.4947 973 124.952 270.131 479.782
906 0 74.05 12.6806 939 127.41 270.285 476.85
907 0 78.1264 13.0814 1022 124.322 270.278 477.597
908 0 80.0987 13.009 1042 126.143 270.054 476.107
909 0 82.053 13.5888 1115 124.883 269.945 474.235
910 1 44.0484 11.3738 501 126.529 270.16 490.038
911 0 44.0657 12.1637 536 124.394 270.155 487.459
912 0 46.0355 13.7068 631 120.002 270.082 487.185
913 0 50.1092 11.3752 570 120.386 269.239 487.496
914 0 49.0994 11.4258 561 122.986 269.501 485.519
915 0 52.193 11.1126 580 121.972 269.109 487.452
916 0 53.0886 11.9988 637 120.575 269.163 486.466
917 0 55.0802 12.2004 672 119.932 269.354 485.182
918 0 56.1036 11.6748 655 121.934 268.997 485.566
919 0 58.1364 11.4902 668 124.072 269.078 482.918
920 0 60.0822 11.5841 696 122.914 269.32 482.855
921 0 63.1983 11.4085 721 123.566 269.266 481.804
922 0 64.0795 12.4065 795 121.15 269.392 482.258
923 0 67.1033 12.518 840 122.419 269.215 480.281
924 0 67.0484 10.8877 730 128.858 268.564 479.437
925 0 73.1193 13.3481 976 126.054 269.509 480.171
926 0 74.1027 11.5245 854 131.253 269.365 476.857
927 0 77.0606 11.9776 923 125.538 269.06 477.607
928 0 80.2188 12.8897 1034 123.215 268.998 476.764
929 0 84.0491 12.3142 1035 124.181 269.157 475.488
930 1 43.141 11.0568 477 119.841 269.006 494.245
931 0 45.0908 11.9537 539 118.041 269.028 492.798
932 0 46.124 12.7266 587 116.462 269.227 491.479
933 0 47.0228 10.6544 501 121.501 269.914 493.986
934 0 49.0072 12.2023 598 116.589 270.373 492.41
935 0 51.0736 12.2177 624 116.329 270.381 490.575
936 0 52.0716 12.9245 673 115.348 270.51 489.241
937 0 53.0778 11.2476 597 120.405 269.749 488.293
938 0 54.0683 11.541 624 121.244 269.625 488.079
939 0 56.0444 12.5972 706 119.422 269.558 486.714
940 0 58.1143 12.4582 724 120.46 269.332 486.358
941 0 61.0285 12.912 788 119.166 269.491 484.996
942 0 61.0416 12.3195 752 122.907 269.557 484.12
943 0 64.0321 12.3376 790 122.942 269.494 482.196
944 0 67.0757 11.9865 804 123.9 269.813 482.124
945 0 68.0277 11.9216 811 128.424 269.604 479.962
946 0 70.0475 13.0768 916 124.031 269.523 479.15
947 0 72.0413 12.3124 887 127.083 270.078 477.513
948 0 76.12 13.6626 1040 123.743 269.175 475.916
949 0 76.05 12.3471 939 129.177 268.578 476.43
950 0 80.1157 13.3432 1069 126.164 268.654 473.671
951 0 83.1228 13.2695 1103 125.696 268.896 474.421
952 0 86.1566 12.2452 1055 129.536 267.972 469.875
953 1 44.0211 9.40459 414 130.191 267.597 492.07
954 0 44.0799 10.6851 471 128.66 269.321 490.195
955 0 48.2105 12.2173 589 124.803 270.508 486.716
956 0 49.057 12.2714 602 128.281 270.482 490.213
957 0 49.0233 11.5863 568 132.315 270.496 487.408
958 0 54.0441 12.0642 652 127.311 270.66 488.729
959 0 55.0476 11.7353 646 129.59 270.314 486.248
960 0 55.0603 10.6247 585 124.462 269.638 487.419
961 0 58.0472 11.4907 667 121.178 269.912 486.82
962 0 60.065 12.0203 722 119.983 270.288 484.591
963 0 62.1251 11.3481 705 120.997 269.824 485.353
964 0 62.0601 10.5221 653 125.077 270.334 482.623
965 0 70.0948 13.011 912 118.116 269.701 479.386
966 0 68.1638 11.5457 787 124.264 269.78 480.429
967 0 70.1164 10.5111 737 125.635 269.824 481.255
968 0 72.2679 11.5957 838 123.718 269.841 478.467
969 0 76.1492 11.8583 903 121.904 269.09 476.055
970 1 43.227 11.0116 476 118.882 270.053 490.92
971 0 42.1734 10.6702 450 112.88 269.278 492.869
972 0 46.0581 11.4204 526 108.319 269.762 494.335
973 0 45.0584 11.8513 534 109.713 269.693 493.577
974 0 45.0187 10.218 460 112.635 270.078 494.246
975 0 49.134 11.8655 583 108.075 269.765 492.444
976 0 49.0579 9.78435 480 113.379 270.531 490.838
977 0 51.0759 10.1026 516 111.578 271.283 490.804
978 0 53.1197 12.2553 651 107.278 270.398 489.355
979 0 54.0755 11.7798 637 109.978 270.35 486.909
980 0 56.0666 11.8074 662 109.897 270.083 487.542
981 0 55.1021 10.417 574 114.064 270.239 486.47
982 0 58.1308 11.3537 660 111.809 270.559 485.229
983 0 59.0844 11.0689 654 113.694 270.446 484.934
984 0 62.1295 12.1842 757 110.884 270.737 484.124
985 0 66.0664 12.8507 849 107.935 269.885 482.689
986 0 67.0776 10.3462 694 115.006 270.854 483.313
987 0 70.0676 11.6173 814 113.709 270.848 479.748
988 0 73.0643 12.4137 907 112.97 270.789 478.216
989 0 75.1315 12.7643 959 110.739 271.165 476.762
990 0 77.0893 11.8175 911 115.619 270.651 476.308
991 0 82.0927 12.7417 1046 114.737 270.279 476.853
992 0 83.0541 12.2571 1018 117.657 269.985 474.554
993 0 87.1428 12.4967 1089 118.029 270.614 474.079
994 1 44.0662 10.7112 472 120.326 270.182 493.163
995 0 44.0556 10.6002 467 123.188 270.388 492.186
996 0 42.0221 9.73298 409 118.12 270.262 493.939
997 0 48.0164 10.4756 503 113.058 271.296 493.183
998 0 47.0144 12.2516 576 111.701 269.705 491.111
999 0 49.0619 10.9046 535 114.503 270.927 491.462
1000 0 50.097 11.1983 561 113.394 271.141 489.966
1001 0 51.0279 12.111 618 111.901 270.311 489.154
1002 0 53.0323 12.3698 656 111.317 270.325 488.262
1003 0 54.1413 11.747 636 112.13 271.201 488.374
1004 0 56.1165 11.5296 647 112.552 270.416 487.926
1005 0 57.0746 11.6514 665 112.161 270.37 488.498
1006 0 60.0999 11.6806 702 111.295 269.719 486.249
1007 0 59.0739 9.73357 575 117.854 269.901 484.624
1008 0 64.0766 11.2053 718 112.088 269.308 486.521
1009 0 68.0831 13.2632 903 107.162 270.161 483.436
1010 0 69.086 11.9706 827 111.591 269.104 480.375
1011 0 71.0821 11.9158 847 112.825 268.443 480.377
1012 0 72.0485 12.4638 898 112.992 268.643 477.9
1013 0 75.0741 12.148 912 112.092 268.888 478.241
1014 0 78.0503 13.7732 1075 108.742 267.854 476.233
1015 0 80.0631 12.1404 972 111.87 269.128 476.376
1016 0 83.0794 12.3376 1025 111.495 268.999 475.091
1017 0 88.0804 12.2729 1081 111.422 269.07 472.929
1018 0 91.0559 12.5527 1143 110.828 269.78 472.115
1019 1 48.0584 11.1323 535 113.751 269.258 491.649
1020 0 51.0586 11.6729 596 112.638 269.054 491.07
1021 0 50.0683 11.744 588 112.69 268.9 491.233
1022 0 51.0433 11.2062 572 112.086 269.622 491.504
1023 0 52.041 11.7407 611 112.877 269.838 488.36
1024 0 53.073 12.2284 649 110.656 269.706 491.701
1025 0 54.0901 11.2775 610 114.53 270.446 488.52
1026 0 58.0565 12.6601 735 110.424 269.241 488.565
1027 0 58.0404 12.5258 727 111.689 270.18 486.191
1028 0 61.094 12.047 736 112.788 268.802 486.781
1029 0 62.0376 12.2506 760 112.645 269.303 485.449
1030 0 65.044 12.7452 829 110.878 269.642 485.469
1031 0 67.0562 12.8698 863 111.979 269.893 483.058
1032 0 69.0192 13.489 931 110.414 270.043 482.286
1033 0 73.0686 13.0699 955 112.643 269.09 480.612
1034 0 73.1008 12.4349 909 114.508 269.046 479.112
1035 0 76.0694 12.7515 970 114.499 268.731 477.092
1036 0 78.0691 12.3224 962 115.781 268.725 477.748
1037 0 82.141 13.2455 1088 113.929 270.262 475.112
1038 0 85.1077 11.8203 1006 116.054 270.514 475.353
1039 0 88.1491 12.978 1144 115.316 270.172 471.336
1040 0 92.2787 12.614 1164 114.596 269.998 468.489
1041 1 47.0172 10.5919 498 114.771 271.833 489.163
1042 0 50.0367 12.5708 629 111.795 270.243 487.507
1043 0 50.0375 11.0717 554 107.096 270.448 486.673
1044 0 50.0349 10.1329 507 114.507 270.961 485.594
1045 0 53.0602 12.9664 688 107.881 270.932 485.506
1046 0 55.071 12.0935 666 110.228 270.67 483.581
1047 0 55.0391 11.5736 637 113.027 270.67 483.738
1048 0 58.105 12.4086 721 110.646 270.456 482.727
1049 0 60.0233 11.9454 717 112.989 270.109 480.529
1050 0 61.0676 11.8066 721 113.99 271.007 481.047
1051 0 64.1159 11.1673 716 115.599 270.48 480.574
1052 0 67.0958 12.1915 818 113.412 269.703 479.032
1053 0 68.1185 12.9921 885 112.583 269.842 477.446
1054 0 71.1666 11.2131 798 116.395 269.652 477.172
1055 0 73.1705 12.6417 925 114.4 270.001 473.948
1056 0 77.1018 12.6716 977 114.387 269.985 474.516
1057 0 77.1554 11.6518 899 117.967 269.934 471.851
1058 0 82.0825 11.9636 982 115.838 270.397 473.508
1059 0 84.2102 12.2788 1034 117.426 270.34 471.174
1060 0 87.1373 13.4386 1171 115.927 270.045 468.167
1061 1 43.1376 10.2463 442 112.631 270.088 492.475
1062 0 45.0846 11.4673 517 112.114 269.961 495.845
1063 0 44.1107 11.5845 511 114.695 270.139 492.495
1064 0 47.151 11.5374 544 113.34 270.607 492.147
1065 0 50.0845 13.1977 661 108.705 270.519 490.992
1066 0 52.1339 12.4871 651 109.424 271.14 491.502
1067 0 54.0817 11.7785 637 111.234 270.612 491.02
1068 0 52.0965 12.2273 637 112.664 270.658 487.962
1069 0 55.0666 12.1489 669 111.616 271.024 487.74
1070 0 56.0526 10.8648 609 115.92 270.419 486.76
1071 0 59.0728 11.6636 689 112.557 270.636 486.1
1072 0 63.0576 12.6868 800 109.328 270.685 485.991
1073 0 63.1117 11.9312 753 111.874 270.482 485.636
1074 0 63.1189 11.914 752 114.182 270.241 482.951
1075 0 68.2375 11.8996 812 113.355 270.342 483.268
1076 0 69.0646 12.6114 871 112.846 270.138 481.052
1077 0 72.067 12.752 919 113.386 269.371 480.044
1078 0 75.1462 13.7731 1035 109.886 269.796 479.92
1079 0 77.0756 12.8445 990 114.018 270.13 477.066
1080 0 80.1076 13.382 1072 112.341 269.591 478.103
1081 0 82.1092 13.8109 1134 111.467 270.483 478.14
1082 0 84.193 12.7683 1075 115.86 270.013 476.265
1083 0 89.2464 13.558 1210 114.531 269.463 473.1
1084 0 91.1345 12.6736 1155 116.847 269.366 471.711
1085 0 95.1331 13.6861 1302 114.079 269.848 470.568
1086 0 97.1716 12.3081 1196 119.051 269.64 467.763
1087 0 101.203 13.2704 1343 115.539 269.32 466.125
1088 0 105.274 13.707 1443 114.529 269.762 465.667
1089 1 56.0738 11.36 637 116.619 269.947 488.543
1090 0 58.0783 11.8633 689 113.084 270.732 487.388
1091 0 61.0891 11.7697 719 115.082 270.705 487.573
1092 0 61.0973 12.6029 770 113.478 270.792 485.447
1093 0 62.131 12.2 758 114.19 269.901 486.526
1094 0 65.1336 12.0675 786 114.257 269.421 484.478
1095 0 67.0884 12.1034 812 113.814 268.684 482.603
1096 0 69.0654 12.1914 842 111.881 269.969 481.998
1097 0 71.2421 12.1417 865 112.502 270.099 480.994
1098 0 74.138 12.4363 922 111.375 269.554 479.159
1099 0 75.0445 12.8457 964 111.008 270.456 478.884
1100 0 77.1299 12.7707 985 112.092 270.138 478.24
1101 0 81.1435 12.5827 1021 114.093 270.094 475.299
1102 0 83.1579 11.893 989 116.6 269.653 475.057
1103 0 87.1639 13.3542 1164 112.915 269.678 472.373
1104 0 89.1498 12.193 1087 116.013 269.408 470.122
1105 1 45.0602 11.8508 534 117.002 270.404 491.957
1106 0 45.1093 11.5276 520 119.89 270.4 490.102
1107 0 49.2005 12.0731 594 113.152 271.121 492.281
1108 0 48.0793 11.897 572 110.755 270.194 491.818
1109 0 52.0706 13.2512 690 105.528 270.761 493.214
1110 0 51.047 11.3621 580 112.122 270.331 492.434
1111 0 53.0741 11.6441 618 110.506 270.021 491.396
1112 0 54.0831 13.2944 719 107.323 270.497 490.424
1113 0 57.0726 12.8258 732 107.728 270.339 489.239
1114 0 57.2371 12.7889 732 109.115 270.292 488.157
1115 0 58.1275 11.3543 660 111.803 270.791 489.764
1116 0 62.125 13.5694 843 104.861 269.639 486.886
1117 0 62.0606 12.8906 800 107.708 269.456 485.368
1118 0 64.0703 12.7204 815 107.661 269.532 485.812
1119 0 68.1798 12.8777 878 106.484 269.948 484.302
1120 0 69.1254 12.8318 887 106.977 269.221 483.241
1121 0 71.1614 12.8581 915 107.398 269.621 481.822
1122 0 72.0645 13.2798 957 106.891 269.412 481.95
1123 0 75.0985 13.0628 981 107.312 268.871 480.863
1124 0 77.0881 13.1927 1017 107.639 269.232 478.65
1125 0 79.1322 14.3178 1133 105.049 269.98 477.065
1126 0 79.058 12.2189 966 110.774 270.433 478.137
1127 0 81.0725 11.9276 967 111.395 269.758 477.376
1128 0 83.064 11.4731 953 112.865 269.228 475.622
1129 0 89.0989 13.2998 1185 108.295 269.314 472.736
1130 0 89.2126 12.0723 1077 112.613 269.242 471.612
1131 0 95.1367 12.3822 1178 109.817 268.346 464.947
1132 0 98.1225 12.0767 1185 110.839 268.186 463.989
1133 1 50.0684 9.66678 484 107.779 268.719 491.349
1134 0 52.0842 11.443 596 105.327 268.081 491.285
1135 0 53.0593 12.4955 663 107.451 268.638 487.603
1136 0 54.1012 12.6245 683 101.622 268.713 485.142
1137 0 56.0773 11.3415 636 104.759 268.987 484.681
1138 0 59.0529 12.0739 713 103.043 269.508 483.888
1139 0 62.1306 12.2484 761 102.369 268.9 483.074
1140 0 62.0623 12.9708 805 102.373 269.216 481.624
1141 0 64.0856 11.0633 709 105.876 269.598 483.147
1142 0 68.1056 12.5981 858 102.643 269.873 480.31
1143 0 71.1957 12.1637 866 103.669 269.007 479.626
1144 0 73.1282 14.3173 1047 99.6686 269.217 478.676
1145 0 74.1046 12.3339 914 104.63 268.902 476.908
1146 0 76.2093 12.1508 926 105.822 268.429 476.306
1147 0 79.0952 13.882 1098 106.107 268.862 475.857
1148 0 81.0933 12.2082 990 110.242 268.216 477.025
1149 0 84.0914 13.4378 1130 108.028 268.261 475.43
1150 0 85.0698 13.4008 1140 108.919 267.793 473.611
1151 0 90.1952 12.6836 1144 109.961 268.224 472.921
1152 0 91.0983 12.5359 1142 110.644 267.996 471.433
1153 0 95.1661 11.7058 1114 108.124 268.322 469.228
1154 0 97.1257 12.3551 1200 108.042 267.761 466.172
1155 0 101.103 11.8691 1200 109.446 267.785 464.209
1156 1 49.0588 9.88609 485 108.07 268.33 492.427
1157 0 51.1143 12.521 640 103.298 268.264 487.812
1158 0 52.0816 11.2708 587 104.857 268.019 486.175
1159 0 53.0882 11.415 606 108.348 268.624 487.87
1160 0 58.1426 13.5013 785 102.098 269.252 487.368
1161 0 58.0927 11.1201 646 109.664 268.04 485.385
1162 0 62.1098 13.2668 824 104.295 268.035 485.661
1163 0 63.1862 12.7085 803 106.711 268.182 483.719
1164 0 64.1629 13.419 861 106.175 267.841 481.699
1165 0 65.1892 12.993 847 107.796 268.662 480.797
1166 0 71.1586 13.0835 931 107.062 268.702 478.001
1167 0 70.0989 11.7263 822 111.337 268.449 477.753
1168 0 74.3665 13.5814 1010 106.341 268.64 477.093
1169 0 74.1529 12.3798 918 110.578 268.412 474.294
1170 0 78.2126 13.2076 1033 108.37 268.213 474.742
1171 0 82.1009 13.252 1088 107.964 268.978 472.812
1172 0 84.0884 12.5344 1054 109.772 268.668 471.944
1173 0 87.1828 13.3054 1160 108.879 268.544 468.072
1174 0 90.1582 11.6462 1050 113.07 268.676 466.796
1175 1 45.1471 11.1857 505 113.697 268.232 488.483
1176 0 48.1836 12.7429 614 110.513 267.292 487.296
1177 0 50.0834 12.2196 612 108.552 269.216 487.83
1178 0 51.13 12.4389 636 108.338 268.972 486.242
1179 0 53.0506 12.3279 654 109.879 268.069 485.586
1180 0 53.0525 12.3274 654 110.734 268.512 484.528
1181 0 57.0481 11.6744 666 110.608 269.236 482.916
1182 0 59.1807 13.2645 785 107.025 268.926 481.652
1183 0 60.1191 12.8744 774 110.041 268.544 480.124
1184 0 63.1166 13.784 870 107.598 268.788 479.738
1185 0 65.0604 13.2646 863 110.605 268.6 479.111
1186 0 68.1034 14.2871 973 108.507 268.506 477.865
1187 0 71.073 14.1826 1008 108.95 268.327 477.228
1188 0 71.0828 12.605 896 114.791 268.696 475.882
1189 0 72.0976 12.0808 871 117.936 268.642 475.263
1190 0 72.0826 12.0972 872 119.595 268.959 474.709
1191 0 77.0586 12.1855 939 118.524 268.335 474.39
1192 0 80.1845 12.0472 966 119.206 268.827 471.643
1193 0 82.0797 11.6472 956 119.755 269.179 472.955
1194 0 84.0371 12.1732 1023 120.96 269.485 467.192
1195 0 87.171 12.0453 1050 122.427 268.919 467.11
1196 0 90.1606 12.3003 1109 123.467 268.274 463.219
1197 1 50.0941 12.1372 608 121.493 269.079 484.14
1198 0 51.2519 11.102 569 125.102 268.098 482.278
1199 0 55.1896 12.9191 713 117.206 268.376 478.316
1200 0 56.0739 12.1804 683 121.905 268.309 481.657
1201 0 58.1022 14.2335 827 116.423 268.666 480.874
1202 0 58.054 12.385 719 122.056 268.655 480.558
1203 0 61.0819 13.2118 807 119.934 268.226 478.639
1204 0 64.1647 12.9199 829 120.503 268.129 478.099
1205 0 66.1267 13.0507 863 119.934 267.884 475.509
1206 0 68.1309 12.3439 841 121.707 268.65 474.706
1207 0 71.2015 13.5671 966 119.374 268.54 472.14
1208 0 72.1602 14.5371 1049 118.132 268.153 470.307
1209 0 74.1583 13.4442 997 120.85 267.778 470.723
1210 0 77.0823 13.9332 1074 118.931 267.507 469.192
1211 0 79.1178 13.739 1087 118.793 267.673 469.626
1212 0 81.0629 12.7679 1035 121.423 268.04 467.118
1213 0 85.0688 13.4127 1141 118.825 267.67 466.362
1214 0 87.0826 13.3322 1161 118.23 267.457 463.95
1215 0 90.0929 12.3317 1111 120.682 267.464 460.102
1216 0 95.2749 13.4138 1278 114.573 267.384 460.768
1217 0 96.3654 12.7535 1229 116.152 268.116 456.887
1218 1 50.1011 12.335 618 112.492 267.976 479.21
1219 0 52.1349 12.0457 628 111.274 268.373 480.408
1220 0 54.0936 10.7037 579 105.952 268.413 479.603
1221 0 59.0962 12.302 727 111.182 268.651 482.332
1222 0 59.1047 12.2495 724 111.881 268.775 481.852
1223 0 63.1023 14.5953 921 106.263 267.755 479.346
1224 0 65.0744 13.7381 894 108.589 268.491 477.346
1225 0 70.0716 13.9286 976 107.289 269.026 476.95
1226 0 70.1298 13.5035 947 109.559 269.445 475.587
1227 0 72.1184 12.7707 921 111.751 269.049 473.219
1228 0 75.1199 12.713 955 111.69 269.474 471.73
1229 0 76.1206 12.7955 974 112.685 269.745 470.146
1230 0 80.1622 13.298 1066 111.802 269.462 467.599
1231 0 82.1638 12.5359 1030 111.718 269.611 469.641
1232 0 86.122 12.3546 1064 112.791 269.263 467.692
1233 0 90.1789 12.5861 1135 112.584 268.915 466.031
1234 0 94.2559 12.8904 1215 111.646 269.41 463.435
1235 0 96.251 11.9791 1153 114.951 268.989 461.671
1236 1 52.0698 11.2157 584 109.038 269.389 485.192
1237 0 51.0611 10.4385 533 111.143 268.523 481.538
1238 0 53.0411 11.4251 606 107.884 268.756 488.469
1239 0 53.0826 10.3235 548 112.276 268.967 487.197
1240 0 57.1059 10.8395 619 108.514 268.394 484.714
1241 0 61.0399 11.9921 732 105.963 268.324 485.81
1242 0 60.0907 11.5492 694 107.756 268.963 485.529
1243 0 64.0192 11.5746 741 107.945 268.571 483.174
1244 0 66.104 11.6181 768 108.622 268.415 481.503
1245 0 69.1534 11.5396 798 107.828 268.801 481.724
1246 0 67.0944 10.6119 712 111.122 268.598 479.525
1247 0 73.1117 11.6534 852 107.738 268.576 477.249
1248 0 71.152 10.1192 720 112.054 268.671 476.878
1249 0 78.188 11.5363 902 107.028 268.565 476.399
1250 0 78.1614 11.2332 878 108.808 267.858 473.456
1251 0 83.2116 10.9119 908 108.585 267.697 472.955
1252 0 85.1569 11.2733 960 108.271 267.771 470.382
1253 0 90.1349 12.57 1133 104.374 268.235 468.737
1254 0 90.1247 13.1152 1182 104.609 268.719 469.357
1255 0 93.1875 11.3856 1061 108.936 268.824 467.101
1256 0 98.1842 11.9164 1170 107.317 268.174 465.892
1257 0 99.1066 12.542 1243 106.451 267.636 465.721
1258 0 101.072 10.6558 1077 108.778 268.153 458.486
1259 0 105.161 11.6869 1229 110.308 267.857 460.897
1260 0 108.131 11.9762 1295 109.459 267.694 461.111
1261 0 111.157 11.7401 1305 111.371 267.263 457.406
1262 0 114.127 12.2933 1403 107.198 267.322 453.478
1263 0 118.126 11.8348 1398 109.899 267.773 452.69
1264 1 64.089 10.345 663 105.118 268.051 482.329
1265 0 66.1309 11.2504 744 102.856 268.003 481.657
1266 0 67.1577 9.18734 617 107.865 267.989 481.468
1267 0 70.1925 10.8986 765 105.031 267.861 479.076
1268 0 73.1122 10.4223 762 106.714 268.083 477.399
1269 0 74.1692 10.921 810 106.678 267.789 476.131
1270 0 77.0972 9.53342 735 108.82 267.95 476.117
1271 0 78.127 9.71496 759 110.426 268.054 474.912
1272 0 84.1928 10.5116 885 107.545 268.138 473.607
1273 0 85.165 10.509 895 109.328 268.152 471.626
1274 0 90.1616 10.2261 922 109.104 268.721 470.483
1275 0 93.1576 11.1746 1041 108.6 268.321 467.051
1276 0 96.2618 11.396 1097 109.625 268.514 464.139
1277 0 99.2191 11.4091 1132 109.7 267.382 462.52
1278 1 53.0286 10.07 534 107.35 268.345 488.037
1279 0 53.0784 11.7562 624 105.298 267.785 485.942
1280 0 55.0719 10.5862 583 106.876 267.878 484.712
1281 0 56.1487 10.9531 615 107.602 267.511 486.956
1282 0 56.1714 10.1475 570 110.825 267.786 485.058
1283 0 59.1383 11.211 663 108.498 268.37 486.719
1284 0 57.0726 9.61932 549 112.789 268.189 488.845
1285 0 64.1811 9.9562 639 112.419 267.731 483.396
1286 0 65.2191 11.3464 740 109.982 267.764 482.054
1287 0 66.2921 10.7102 710 110.911 267.276 482.218
1288 0 73.1741 9.07425 664 110.59 268.143 483.899
1289 0 72.1303 10.9524 790 108.823 267.984 477.519
1290 0 74.0923 10.5949 785 109.51 268.755 477.418
1291 0 78.151 11.7465 918 106.876 268.281 476.655
1292 0 78.1552 10.1593 794 112.088 267.851 476.419
1293 0 82.1265 11.5675 950 108.563 268.434 472.918
1294 0 84.0932 10.4408 878 110.704 267.336 472.647
1295 1 44.0509 9.53444 420 112.252 267.764 491.36
1296 0 47.0561 11.3269 533 106.737 267.22 491.002
1297 0 49.0525 11.2533 552 107.614 267.149 490.897
1298 0 51.1093 11.8178 604 107.243 267.035 489.058
1299 0 49.277 11.7499 579 111.542 267.447 485.504
1300 0 53.0568 11.9118 632 117.009 266.176 487.063
1301 0 53.0236 11.6363 617 119.742 267.122 485.848
1302 0 54.079 12.3893 670 118.039 267.193 484.891
1303 0 55.0237 12.5219 689 118.851 266.877 484.163
1304 0 58.061 13.4341 780 114.94 267.132 485.376
1305 0 59.0349 12.6366 746 118.09 267.626 485.011
1306 0 59.0898 12.8618 760 119.684 267.159 484.562
1307 0 61.0543 13.185 805 119.472 266.657 483.245
1308 0 63.0851 13.2678 837 119.575 266.852 482.001
1309 0 64.0128 13.0599 836 121.849 266.724 481.718
1310 0 67.0878 13.3258 894 120.187 267.025 479.768
1311 0 70.0868 14.5249 1018 117.54 267.643 478.773
1312 0 69.0638 13.4079 926 123.282 267.066 478.165
1313 0 71.0401 13.6543 970 122.618 267.646 477.792
1314 0 75.0369 14.2996 1073 115.897 267.533 477.647
1315 0 76.1111 13.8219 1052 118.172 267.798 477.705
1316 0 79.1121 14.3846 1138 116.467 268.199 474.968
1317 0 82.1061 14.7127 1208 115.466 267.698 474.043
1318 0 84.0955 13.4728 1133 118.688 267.252 473.921
1319 0 87.0622 13.6799 1191 117.078 266.779 472.471
1320 0 91.1341 14.6707 1337 113.179 267.667 469.598
1321 0 94.0703 14.7656 1389 111.378 266.867 468.453
1322 0 94.1724 12.9231 1217 117.234 266.96 466.375
1323 1 49.0227 11.4437 561 120.091 266.895 489.285
1324 0 52.0507 11.508 599 117.798 268.047 489.104
1325 0 53.097 12.2983 653 115.945 266.838 485.524
1326 0 56.0272 14.1538 793 111.322 266.977 485.068
1327 0 58.0679 13.7598 799 111.562 265.881 485.218
1328 0 59.0483 14.9539 883 109.706 266.409 483.425
1329 0 60.1072 13.4094 806 113.507 266.872 482.042
1330 0 62.1021 13.0913 813 113.899 267.311 481.369
1331 0 65.1723 13.7482 896 112.386 267.033 480.044
1332 0 67.0461 13.6324 914 112.79 267.723 480.098
1333 0 70.0358 15.3207 1073 108.417 268.266 479.575
1334 0 73.0443 14.0189 1024 111.683 268.705 479.038
1335 0 77.2466 14.7709 1141 108.367 268.041 479.271
1336 0 75.1477 13.52 1016 114.998 267.929 476.074
1337 0 80.2359 14.0585 1128 112.735 268.449 475.668
1338 0 82.1402 13.063 1073 115.512 268.107 474.901
1339 0 86.1013 15.505 1335 108.984 267.197 472.212
1340 0 87.2624 13.6485 1191 115.36 267.668 469.83
1341 0 93.3103 13.9534 1302 113.21 267.931 469.082
1342 0 94.3324 14.7987 1396 115.904 267.885 463.236
1343 0 98.3402 14.2668 1403 117.999 267.871 462.726
1344 1 53.2063 11.4084 607 119.397 267.941 484.814
1345 0 53.1778 12.0915 643 118.098 268.317 486.988
1346 0 56.2787 12.1183 682 117.35 267.906 484.161
1347 0 58.2732 12.716 741 115.301 268.26 483.042
1348 0 61.1618 12.9656 793 114.739 268.931 483.526
1349 0 63.1112 14.1179 891 111.889 268.098 483.162
1350 0 64.2307 12.7353 818 116.435 268.152 481.565
1351 0 66.1639 12.59 833 117.612 268.357 481.088
1352 0 70.0594 13.46 943 114.25 268.011 480.747
1353 0 71.1844 13.6406 971 114.156 267.803 479.973
1354 0 75.1409 13.681 1028 114.173 268.603 477.912
1355 0 75.0983 12.6368 949 117.466 268.093 476.92
1356 0 77.1378 13.4953 1041 116.327 267.86 474.554
1357 0 83.2396 14.1759 1180 111.925 268.427 475.656
1358 0 83.4617 13.0719 1091 117 268.852 473.266
1359 0 88.1731 14.0746 1241 114.839 267.783 469.082
1360 0 91.3932 13.6662 1249 116.174 267.359 469.682
1361 0 94.3596 12.9611 1223 118.091 267.7 468.249
1362 1 43.1721 10.7245 463 118.384 267.125 491.92
1363 0 46.0234 11.7983 543 115.133 266.273 490.965
1364 0 49.0698 12.1052 594 114.537 266.734 490.81
1365 0 48.0422 12.5306 602 105.925 267.962 492.588
1366 0 51.0716 12.316 629 106.385 268.056 491.871
1367 0 52.1423 11.9481 623 107.413 269.621 488.043
1368 0 53.0482 12.1399 644 108.921 268.239 487.63
1369 0 54.0582 11.6726 631 109.748 268.791 487.804
1370 0 54.1263 11.584 627 111.148 269.533 485.829
1371 0 57.1185 12.1327 693 108.405 269.623 487.459
1372 0 61.0804 12.9174 789 105.493 268.94 485.572
1373 0 60.0741 13.1005 787 106.414 269.482 484.671
1374 0 63.1212 13.2127 834 106.002 269.047 482.552
1375 0 64.1077 12.7442 817 106.791 268.922 483.333
1376 0 68.129 12.7699 870 106.747 269.02 481.061
1377 0 69.1376 13.8709 959 105.441 269.459 480.861
1378 0 71.0433 13.7803 979 105.724 268.873 479.145
1379 0 73.1962 13.1154 960 108.576 268.838 477.39
1380 0 76.0796 12.8155 975 109.348 269.06 476.361
1381 0 79.1616 13.6935 1084 107.22 268.686 476.173
1382 0 80.1605 13.8722 1112 108.113 269.178 475.058
1383 0 83.184 13.2838 1105 109.375 268.449 473.137
1384 1 44.0467 10.5116 463 114.356 268.823 492.125
1385 0 47.0563 10.7318 505 111.531 269.265 493.452
1386 0 49.1965 10.9764 540 112.448 267.437 491.139
1387 0 45.066 10.0297 452 104.369 268.215 487.414
1388 0 51.0912 12.233 625 111.546 270.498 490.163
1389 0 53.1364 13.1172 697 109.605 270.428 489.178
1390 0 55.0431 13.9164 766 107.452 269.962 489.244
1391 0 56.0545 13.2728 744 109.001 269.7 486.816
1392 0 56.0538 12.3988 695 112.256 269.685 486.715
1393 0 58.0873 13.7207 797 108.215 269.694 485.423
1394 0 60.2414 12.6823 764 111.23 269.615 485.87
1395 0 62.0631 14.0986 875 107.865 269.438 483.705
1396 0 64.1056 13.5246 867 108.622 269.588 482.814
1397 0 65.0479 12.8674 837 111.651 268.963 482.614
1398 0 66.1684 12.5891 833 112.968 268.768 480.846
1399 0 68.1487 13.1771 898 111.166 268.365 481.298
1400 0 70.1162 13.0926 918 112.249 268.704 478.021
1401 0 72.0659 13.5015 973 110.999 268.601 478.621
1402 0 74.1747 13.1312 974 112.07 269.111 477.888
1403 0 77.2186 12.9762 1002 111.638 269.293 475.62
1404 0 77.221 11.4865 887 115.24 268.489 475.042
1405 0 80.1272 12.7422 1021 112.046 267.606 472.133
1406 1 42.0286 11.9205 501 108.729 268.733 492.15
1407 0 39.1583 9.4999 372 102.401 266.965 485.642
1408 0 42.0196 10.7807 453 95.6225 267.419 486.32
1409 0 45.1276 10.9467 494 106.729 268.128 490.206
1410 0 44.1272 10.7417 474 108.8 267.783 489.673
1411 0 50.0565 13.4648 674 98.5134 268.672 487.543
1412 0 52.1027 13.2623 691 99.259 268.508 485.729
1413 0 50.0941 12.6362 633 104.128 268.1 485.592
1414 0 52.0458 10.9711 571 106.636 268.235 486.462
1415 0 54.051 11.7852 637 104.799 268.441 484.462
1416 0 56.0595 11.6127 651 104.184 268.418 485.201
1417 0 57.0951 11.8224 675 104.551 268.486 480.51
1418 0 60.0826 12.8157 770 101.396 268.178 481.551
1419 0 62.0578 12.2144 758 102.642 267.697 479.991
1420 0 61.054 10.7118 654 106.853 267.841 478.154
1421 0 65.07 13.57 883 100.9 267.985 478.091
1422 0 67.1342 12.9293 868 102.554 268.514 476.68
1423 0 70.2001 11.7094 822 104.69 268.606 477.019
1424 0 70.2155 11.1229 781 107.113 268.309 475.033
1425 0 73.0465 12.4852 912 104.178 269.152 472.192
1426 0 74.0446 10.8313 802 107.968 269.9 472.893
1427 0 77.0819 11.131 858 107.19 268.55 472.626
1428 0 81.1338 11.8693 963 105.927 269.548 469.043
1429 1 43.0266 10.5749 455 109.888 269.275 489.244
1430 0 45.0572 11.3189 510 107.739 268.747 487.808
1431 0 47.1339 12.6024 594 104.611 268.056 484.798
1432 0 48.007 12.394 595 102.83 267.094 485.605
1433 0 49.045 11.7647 577 105.064 266.591 485.152
1434 0 49.0613 10.7417 527 109.435 268.738 485.514
1435 0 52.0901 12.7471 664 104.858 269.625 483.547
1436 0 54.0676 13.5016 730 103.471 269.185 482.67
1437 0 57.0431 12.8149 731 105.111 269.296 481.694
1438 0 58.0665 13.1401 763 105.764 268.978 480.505
1439 0 59.0605 12.7327 752 107.908 268.818 478.938
1440 0 61.1229 13.1702 805 107.75 269.053 478.23
1441 0 62.1896 12.0277 748 111.048 268.714 477.572
1442 0 65.0726 12.7703 831 109.872 268.892 477.793
1443 0 66.1212 12.2653 811 112.991 269.482 475.146
1444 0 69.0993 12.6195 872 112.169 269.623 474.342
1445 0 74.0968 12.8211 950 110.986 268.967 474.38
1446 0 76.0831 12.8675 979 112.157 268.716 473.32
1447 1 37.023 10.3719 384 121.253 269.63 490.406
1448 0 37.051 10.4451 387 121.478 269.344 488.755
1449 0 43.01 11.2765 485 115.819 268.718 488.641
1450 0 43.0146 12.3679 532 116.239 269.03 489.464
1451 0 46.062 12.2226 563 115.449 269.524 490.716
1452 0 47.0341 13.3095 626 114.617 268.417 489.054
1453 0 46.0398 11.6204 535 121.019 269.136 488.376
1454 0 49.0241 12.9528 635 116.682 268.361 486.428
1455 0 51.0302 13.2667 677 114.657 268.179 489.015
1456 0 51.1909 11.7013 599 120.441 268.923 485.164
1457 0 54.1441 12.596 682 117.616 269.054 483.576
1458 0 55.2071 12.6433 698 117.738 268.755 483.421
1459 0 56.2346 13.1591 740 118.091 268.265 481.759
1460 0 57.1236 13.1119 749 118.489 268.174 483.029
1461 0 57.2073 12.5858 720 120.564 268.592 480.789
1462 0 62.2323 13.4335 836 116.567 268.781 481.011
1463 0 64.1915 12.821 823 118.452 268.922 479.593
1464 0 67.2925 12.8097 862 118.016 268.253 478.508
1465 0 67.156 12.4337 835 120.457 267.853 477.456
1466 0 72.1392 14.472 1044 113.234 267.586 478.534
1467 0 73.1752 13.4062 981 117.408 267.708 476.723
1468 0 75.2717 12.9531 975 119.471 268.243 474.629
1469 0 79.2242 13.9225 1103 116.715 268.409 473.723
1470 1 40.0467 10.263 411 120.423 269.161 493.654
1471 0 43.1811 10.6991 462 119.881 269.652 491.366
1472 0 44.1183 11.8545 523 114.073 267.306 491.813
1473 0 44.0322 10.5832 466 110.539 267.601 493.157
1474 0 43.0278 11.6436 501 110.723 267.443 491.812
1475 0 46.0182 11.7779 542 110.037 266.666 491.983
1476 0 47.0788 11.4489 539 111.132 266.755 490.9
1477 0 48.0709 12.1071 582 110.428 266.66 488.967
1478 0 50.0808 11.761 589 109.127 266.983 491.11
1479 0 52.1549 13.2682 692 106.543 267.981 487.87
1480 0 55.1264 12.5893 694 107.555 267.545 489.222
1481 0 53.0788 12.1329 644 111.233 266.863 488.379
1482 0 57.1798 12.9241 739 108.51 268.106 487.24
1483 0 58.0383 12.5951 731 110.167 267.598 485.092
1484 0 59.0842 13.3877 791 107.97 267.734 483.965
1485 0 61.099 13.159 804 108.154 267.415 483.847
1486 0 61.1404 12.1687 744 111.434 267.247 483.265
1487 0 65.127 12.7597 831 109.242 266.508 483.084
1488 0 66.0999 13.7065 906 106.866 266.457 481.925
1489 0 67.0711 11.9575 802 111.782 266.773 482.569
1490 0 71.0836 13.252 942 108.366 266.59 480.615
1491 0 71.1293 12.7092 904 112.088 267.189 478.482
1492 0 74.1354 13.5293 1003 111.842 266.946 478.267
1493 0 76.0771 13.184 1003 114.626 266.867 477.105
1494 0 79.101 13.4764 1066 112.882 268.106 475.62
1495 0 82.1044 13.02 1069 114.116 267.777 473.628
1496 0 84.1115 13.3038 1119 114.623 267.668 474.639
1497 0 87.0664 13.2198 1151 115.051 267.493 472.853
1498 0 89.1313 12.8013 1141 118.309 268.084 472.029
1499 0 91.1454 12.5075 1140 121.032 267.886 468.671
1500 1 54.1002 13.6044 736 118.304 267.503 487.688
1501 0 55.033 12.6288 695 120.265 267.515 487.905
1502 0 55.1406 11.6792 644 125.174 266.929 484.525
1503 0 59.0582 12.0898 714 109.797 267.772 486.104
1504 0 59.0278 12.5873 743 111.315 267.84 484.505
1505 0 58.0315 10.7528 624 118.458 267.68 485.228
1506 0 59.0669 11.2415 664 115.622 267.845 485.035
1507 0 60.0554 11.0398 663 123.143 267.691 484.446
1508 0 61.0385 10.862 663 124.94 268.17 484.98
1509 0 63.0844 12.19 769 121.516 267.808 484.16
1510 0 66.0625 11.6859 772 121.772 268.013 484.079
1511 0 65.0796 10.5563 687 124.566 267.55 480.955
1512 0 68.1245 11.4496 780 121 267.827 480.542
1513 0 71.1126 11.6857 831 116.536 268.51 479.72
1514 0 73.184 10.5624 773 118.991 267.846 479.761
1515 0 76.1226 11.0742 843 116.887 268.325 477.14
1516 0 75.0823 10.8281 813 119.213 268.054 476.186
1517 0 81.1149 11.268 914 117.068 268.089 475.849
1518 0 84.1606 12.6544 1065 114.038 267.751 472.597
1519 0 86.115 12.1698 1048 116.749 267.547 472.927
1520 0 88.1139 12.2001 1075 118.011 268.267 472.596
1521 0 92.112 12.6694 1167 118.909 268.18 469.832
1522 0 94.1018 12.529 1179 120.231 267.976 471.482
1523 0 96.1244 11.9429 1148 124.091 267.436 469.888
1524 0 98.2604 12.4974 1228 124.743 267.829 468.919
1525 0 102.159 13.6063 1390 124.527 268.019 465.125
1526 0 105.32 13.2169 1392 128.616 268.114 461.749
1527 1 58.1017 11.7036 680 131.222 269.019 485.993
1528 0 60.0216 12.7954 768 123.983 267.979 489.012
1529 0 60.0494 12.2233 734 125.624 268.074 488.495
1530 0 62.0824 12.87 799 125.094 267.84 486.008
1531 0 62.1107 12.204 758 129.388 267.678 486.736
1532 0 64.1235 11.7741 755 131.559 268.242 484.946
1533 0 65.0913 12.5209 815 131.226 267.875 483.971
1534 0 68.1281 12.7701 870 130.446 267.698 483.403
1535 0 70.0931 12.6261 885 133.086 266.68 480.882
1536 0 71.1324 12.4416 885 132.913 266.876 480.98
1537 0 75.1271 13.191 991 129.385 266.301 480.738
1538 0 76.1027 13.6395 1038 128.4 266.585 480.99
1539 0 78.0631 14.0912 1100 127.466 267.087 477.403
1540 0 79.1113 13.2472 1048 131.655 266.755 476.968
1541 0 83.1754 13.8863 1155 127.317 266.705 476.578
1542 0 84.2113 12.5161 1054 131.259 266.447 475.055
1543 0 86.1112 13.3432 1149 129.529 266.084 472.2
1544 0 88.1094 13.1995 1163 129.869 266.971 473.154
1545 0 92.2025 13.2534 1222 128.268 266.853 470.949
1546 0 94.1272 13.2587 1248 125.08 266.124 464.712
1547 0 100.211 12.2841 1231 125.818 265.631 466.789
1548 0 102.171 13.2523 1354 123.637 265.688 462.332
1549 0 107.107 13.8553 1484 120.956 265.952 462.062
1550 0 110.18 13.2148 1456 122.759 265.429 460.692
1551 0 112.197 12.7901 1435 125.084 266.013 457.91
1552 0 115.121 12.4304 1431 127.164 265.88 457.626
1553 0 119.158 13.9394 1661 122.733 265.735 456.978
1554 0 122.118 13.3396 1629 124.95 265.438 453.758
1555 0 125.168 12.1516 1521 127.712 265.415 452.619
1556 0 132.147 13.0309 1722 125.913 265.674 449.391
1557 0 136.142 13.0231 1773 126.15 265.272 447.221
1558 0 139.143 13.3532 1858 125.7 265.596 444.062
1559 1 73.068 11.0034 804 119.229 265.608 480.501
1560 0 74.1666 13.2405 982 115.154 266.003 475.813
1561 0 77.0343 12.3581 952 114.713 266.732 476.66
1562 0 78.1597 11.9243 932 116.251 266 478.002
1563 0 79.09 11.1898 885 117.503 266.558 476.286
1564 0 84.164 13.046 1098 112.587 266.165 472.362
1565 0 86.1712 12.069 1040 115.274 266.898 471.429
1566 0 89.0564 12.5538 1118 113.722 266.511 469.868
1567 0 94.1654 13.0196 1226 111.576 266.696 468.604
1568 0 97.1694 12.4834 1213 113.566 266.43 467.781
1569 0 100.167 12.6189 1264 113.51 265.812 463.854
1570 0 104.145 13.4332 1399 111.676 265.552 463.43
1571 0 105.245 13.1028 1379 113.692 266.054 462.101
1572 0 111.227 13.5489 1507 113.947 265.027 461.092
1573 0 113.103 12.3338 1395 117.82 265.834 457.973
1574 0 116.1 12.7993 1486 117.38 266.034 454.931
1575 0 120.157 12.8832 1548 118.102 265.122 454.477
1576 0 125.233 13.0956 1640 122.285 265.614 452.396
1577 0 126.138 12.732 1606 125.791 265.803 448.381
1578 0 129.165 12.6814 1638 126.501 264.703 447.294
1579 0 134.296 11.9735 1608 123.449 265.807 447.047
1580 0 139.27 13.542 1886 120.03 265.705 444.915
1581 0 144.264 13.7664 1986 120.495 266.339 441.342
1582 0 146.255 11.7397 1717 127.92 265.759 437.43
1583 0 152.213 13.2775 2021 125.657 265.584 435.999
1584 0 157.269 12.3165 1937 127.276 265.369 433.583
1585 0 163.198 13.2171 2157 125.419 265.46 432.252
1586 0 166.237 13.3123 2213 127.79 265.634 424.314
1587 0 174.232 12.8794 2244 128.67 266.017 425.869
1588 0 177.353 13.5662 2406 129.45 264.927 419.361
1589 0 183.269 12.5008 2291 132.46 264.881 420.721
1590 0 188.291 12.6134 2375 134.673 264.734 417.127
1591 0 195.392 13.6086 2659 132.616 264.53 411.44
1592 0 202.34 13.7986 2792 131.805 265.212 412.309
1593 0 208.321 14.0648 2930 132.498 265.476 406.656
1594 0 216.365 12.9873 2810 135.657 265.373 406.402
1595 0 222.408 13.2099 2938 137.918 265.365 397.501
1596 0 228.45 13.3596 3052 138.305 265.113 394.256
1597 0 235.444 12.8226 3019 141.277 265.221 386.991
1598 1 38.0257 9.3884 357 116.134 267.448 493.616
1599 0 41.023 10.5063 431 117.162 267.545 494.501
1600 0 42.0483 11.1538 469 117.021 268.399 493.066
1601 0 41.0095 10.2903 422 123.678 267.313 495.618
1602 0 43.0347 12.7107 547 118.477 267.007 495.349
1603 0 41.0127 11.7037 480 126.748 267.271 493.39
1604 0 43.0152 11.6703 502 128.243 267.39 494.135
1605 0 44.0293 13.0822 576 126.123 267.417 494.188
1606 0 44.0164 11.5866 510 132.457 267.984 494.869
1607 0 44.0346 12.8535 566 130.799 267.314 494.643
1608 0 41.0132 10.8258 444 133.773 267.293 496.631
1609 0 42.016 10.9006 458 133.869 267.188 496.651
1610 0 45.1408 14.0671 635 119.474 266.775 492.827
1611 0 47.0814 13.6147 641 121.398 267.048 493.119
1612 0 44.1034 13.6044 600 125.51 267.315 493.477
1613 0 45.1264 13.7392 620 125.547 266.69 492.689
