time division length width area intensity CMx CMy
0 0 55.069 13.2198 728 148.139 656.609 476.371
1 0 56.0659 13.1809 739 147.449 656.951 475.248
2 0 58.0396 13.2496 769 146.087 657.765 473.883
3 0 58.0659 13.3297 774 147.185 657.63 473.224
4 0 60.0405 12.7414 765 147.222 656.722 473.148
5 0 60.0405 12.7414 765 145.627 656.722 473.148
6 0 63.0829 13.6963 864 143.527 657.291 472.434
7 0 66.0254 13.2676 876 149.854 657.436 471.447
8 0 69.086 14.1273 976 145.782 657.246 469.793
9 0 71.0825 13.2241 940 147.722 657.286 468.772
10 1 35.0522 9.9851 350 143.394 656.531 488.643
11 0 36.0093 9.71972 350 145.486 657.457 488.503
12 0 39.1044 11.9168 466 138.974 656.472 486.064
13 0 40.0454 11.5119 461 140.161 655.913 485.328
14 0 40.1089 11.2444 451 141.929 656.169 486.237
15 0 42.0185 13.5417 569 134.058 656.278 484.46
16 0 45.0432 13.0319 587 134.472 655.727 484.695
17 0 47.2145 11.7125 553 146.745 655.711 484.094
18 0 47.0732 12.9798 611 143.863 655.16 484.285
19 0 48.0948 11.7684 566 148.79 655.496 482.452
20 0 49.1085 11.8717 583 147.437 654.611 482.894
21 0 50.0184 12.3355 617 145.548 655.191 481.556
22 0 53.0701 12.7379 676 143.37 655.157 482.257
23 0 52.0666 12.6953 661 144.616 655.216 482.18
24 0 53.0611 13.3619 709 140.228 654.092 482.381
25 0 57.0338 13.5183 771 138.293 653.965 481.065
26 0 58.0763 11.726 681 142.862 654.737 479.847
27 0 60.1037 12.6781 762 140.409 655.062 479.163
28 0 62.0491 13.3282 827 139.632 654.157 477.938
29 0 62.0694 12.4538 773 143.379 654.515 477.724
30 0 65.0516 12.1442 790 143.282 653.824 477.32
31 0 64.0703 11.8152 757 145.28 653.519 475.941
32 0 72.0646 13.2798 957 139.276 653.245 473.479
33 0 73.0926 13.134 960 140.783 654.057 472.666
34 0 76.1152 12.7832 973 141.245 653.332 472.236
35 0 79.107 13.4122 1061 139.712 653.94 470.84
36 0 81.1728 13.4405 1091 138.987 653.587 471.375
37 0 84.1192 13.8018 1161 139.134 653.629 468.45
38 0 86.1063 12.7865 1101 141.511 653.093 469.808
39 0 87.2226 12.3592 1078 144.008 653.611 466.843
40 0 91.16 12.2861 1120 144.682 653.133 462.506
41 0 97.0523 13.0857 1270 141.73 652.624 461.449
42 0 101.321 14.2023 1439 139.161 652.905 456.723
43 1 54.1925 11.9574 648 136.219 654.156 479.721
44 0 57.0397 12.1144 691 135.172 653.227 482.535
45 0 57.0491 12.6207 720 136.033 652.715 482.447
46 0 61.0803 13.605 831 132.468 652.715 481.782
47 0 62.0441 13.023 808 136.361 653.269 478.536
48 0 64.029 14.4778 927 132.176 653.389 476.603
49 0 68.1921 13.5353 923 135.269 652.709 473.975
50 0 71.2022 13.6793 974 134.588 652.785 473.546
51 0 72.2518 13.0239 941 137.131 653.531 472.789
52 0 77.238 13.0247 1006 136.215 652.78 470.788
53 0 78.2383 14.2386 1114 133.411 653.525 467.291
54 0 82.2491 13.4591 1107 135.453 653.104 465.681
55 0 85.2214 14.5621 1241 131.573 653.271 466.139
56 0 88.1493 13.5225 1192 133.901 653.294 465.431
57 0 90.1886 13.4718 1215 133.086 651.916 464.552
58 0 95.2211 13.8205 1316 131.812 652.568 461.881
59 0 97.231 12.4343 1209 135.457 653.112 463.084
60 0 101.174 12.7504 1290 133.501 652.709 461.326
61 1 53.1106 12.0503 640 125.389 652.23 486.984
62 0 52.119 10.8022 563 130.728 651.311 486.588
63 0 56.0578 12.3266 691 126.297 650.562 484.472
64 0 56.1222 12.063 677 122.204 651.551 485.518
65 0 58.1197 11.872 690 122.557 651.877 484.497
66 0 59.0419 11.1107 656 123.78 650.864 484.901
67 0 60.0404 12.4416 747 121.415 650.912 480.241
68 0 65.0769 12.1241 789 119.485 651.294 480.598
69 0 67.1046 12.5774 844 118.214 650.823 479.122
70 0 68.062 11.3426 772 120.688 651.264 480.247
71 0 71.0803 11.7754 837 120.237 651.178 477.483
72 0 73.0859 11.5207 842 119.303 650.816 476.672
73 0 75.1267 11.9531 898 119.559 651.555 474.22
74 0 78.0843 13.7288 1072 121.677 651.646 473.56
75 0 79.0953 12.1752 963 125.537 650.981 473.913
76 0 83.1545 12.579 1046 125.472 650.971 471.548
77 0 84.157 13.7956 1161 122.922 651.04 470.325
78 0 88.129 12.425 1095 125.397 651.016 470.761
79 0 92.2389 13.5409 1249 124.01 650.987 466.599
80 0 95.1107 14.541 1383 120.49 651.043 464.04
81 0 100.124 14.3023 1432 123.617 651.497 462.505
82 0 102.122 12.8082 1308 126.525 652.365 463.917
83 0 105.204 12.4235 1307 129.169 652.071 459.106
84 0 110.223 12.6652 1396 128.09 652.329 458.649
85 0 115.236 13.6155 1569 124.305 651.953 456.618
86 1 61.1613 11.6413 712 119.048 652.447 483.045
87 0 64.0972 12.6371 810 113.542 651.88 480.581
88 0 66.0807 13.1203 867 111.851 651.385 479.456
89 0 68.082 12.0884 823 114.215 651.548 479.044
90 0 68.0524 11.8732 808 117.333 651.968 478.708
91 0 68.0941 11.8659 808 118.342 652.149 478.884
92 0 72.1123 12.2725 885 117.267 650.986 476.741
93 0 76.1037 12.0625 918 117.13 651.464 476.993
94 0 75.08 11.2147 842 120.564 651.43 476.81
95 0 80.1278 12.9169 1035 116.84 650.902 473.091
96 0 81.2257 12.3483 1003 118.867 650.864 474.274
97 0 85.13 13.2738 1130 117.709 651.233 472.924
98 0 87.1378 12.1991 1063 121.241 650.693 470.606
99 0 89.1013 12.5924 1122 121.67 650.983 467.853
100 0 94.0691 12.831 1207 121.331 650.418 467.104
101 0 96.2521 13.0698 1258 120.434 650.663 463.267
102 0 98.1817 12.5991 1237 121.777 651.015 462.774
103 0 100.138 11.5241 1154 123.719 651.173 462.603
104 0 105.134 12.603 1325 120.505 650.485 457.993
105 0 108.186 12.3398 1335 122.489 650.422 456.902
106 0 112.238 12.5893 1413 122.227 650.333 455.592
107 0 114.179 12.0425 1375 122.545 650.001 452.138
108 1 64.0587 9.99084 640 118.537 650.511 475.984
109 0 68.082 12.0149 818 114.246 649.802 473.988
110 0 70.0852 11.643 816 117.638 648.377 475.778
111 0 72.0524 12.2411 882 117.727 650.306 481.45
112 0 75.0795 12.1604 913 118.593 651.327 477.064
113 0 79.0775 13.6701 1081 114.377 651.167 476.635
114 0 79.1869 12.0474 954 120.097 651.056 475.073
115 0 82.1026 12.6427 1038 119.564 651.288 473.714
116 0 84.1036 12.1041 1018 121.629 650.848 472.949
117 0 89.0986 13.1315 1170 120.053 650.776 471.444
118 0 92.1004 13.127 1209 120.321 650.533 469.51
119 1 49.0089 11.4673 562 117.899 651.555 490.452
120 0 48.0155 11.2255 539 117.082 651.614 486.469
121 0 52.0543 12.3909 645 120.205 651.688 488.915
122 0 51.0163 12.0158 613 114.959 649.79 490.23
123 0 51.0477 11.4207 583 119.83 650.762 487.724
124 0 54.049 11.9151 644 116.39 650.472 488.11
125 0 56.0302 12.0471 675 116.892 649.873 487.354
126 0 55.0766 11.2752 621 120.784 648.919 487.174
127 0 58.0199 11.7546 682 120.065 649.236 485.211
128 0 60.0455 11.9243 716 119.376 648.969 484.725
129 0 61.0459 13.2359 808 116.754 649.236 482.968
130 0 63.0507 12.7516 804 118.025 649.274 481.047
131 0 66.1135 12.8869 852 118.165 648.9 480.035
132 0 68.1208 12.8595 876 118.128 648.804 479.115
133 0 69.1319 12.1651 841 119.546 649.304 477.815
134 0 73.1736 13.2971 973 116.443 648.297 476.968
135 0 75.1012 12.2635 921 118.765 649.248 476.459
136 0 81.1781 12.8852 1046 83.7916 648.975 471.343
137 0 81.1434 12.0897 981 119.409 649.303 474.22
138 0 85.0994 12.3738 1053 123.838 649.34 469.322
139 1 45.0727 11.781 531 116.243 648.369 492.284
140 0 45.0522 11.8973 536 117.112 649.065 490.828
141 0 46.0616 11.7017 539 113.521 649.243 490.494
142 0 47.011 12.9119 607 116.102 648.697 490.242
143 0 51.0217 12.8965 658 114.78 649.286 488.394
144 0 52.1104 13.1068 683 114.464 649.451 488.921
145 0 53.1265 12.5173 665 117.158 649.614 486.424
146 0 55.0569 13.4588 741 114.987 649.843 485.988
147 0 54.0357 12.0661 652 119.387 649.215 486.814
148 0 58.1104 13.0097 756 116.852 649.471 484.647
149 0 58.036 12.9747 753 118.262 650.319 484.054
150 0 61.0525 13.3983 818 116.286 649.828 482.262
151 0 63.0946 12.822 809 117.152 649.845 483.656
152 0 63.0656 11.9875 756 121.407 649.144 481.234
153 0 68.1541 13.6015 927 116.59 649.293 480.283
154 0 69.1186 13.0645 903 119.188 649.8 477.533
155 0 70.1072 13.3367 935 119.503 649.236 476.805
156 0 74.1269 13.288 985 118.825 649.969 477.972
157 0 76.1164 14.2413 1084 117.083 649.455 475.976
158 0 79.219 13.9108 1102 118.278 649.488 475.549
159 0 81.1156 13.228 1073 121.794 649.223 472.291
160 0 84.0996 13.2224 1112 121.911 649.368 473.048
161 0 84.0667 13.1681 1107 125.123 650.397 470.079
162 0 89.1536 14.1778 1264 121.294 649.634 470.37
163 0 94.0474 14.6416 1377 119.208 649.37 465.286
164 0 97.2863 15.2539 1484 118.02 649.596 462.945
165 0 97.1566 12.9996 1263 127.921 649.508 466.496
166 0 102.194 13.3961 1369 129.201 649.118 462.278
167 0 105.315 13.5213 1424 128.65 649.704 460.98
168 1 55.2258 12.8563 710 122.573 649.635 484.777
169 0 57.1143 13.4467 768 118.005 649.508 485.488
170 0 57.1805 12.9765 742 121.372 649.865 482.857
171 0 59.1948 13.0924 775 122.048 649.615 482.132
172 0 62.1319 12.9241 803 119.858 649.9 482.365
173 0 64.0646 13.7205 879 118.314 650.901 480.461
174 0 66.1309 13.0347 862 119.688 650.291 479.783
175 0 67.0902 12.5652 843 121.002 650.515 480.107
176 0 69.1099 12.907 892 121.747 650.072 478.436
177 0 69.0827 12.1014 836 124.706 650.106 476.89
178 0 75.0649 13.122 985 119.514 650.012 476.981
179 0 75.0738 12.4677 936 121.374 650.453 474.754
180 0 79.0979 13.9195 1101 117.495 650.214 474.842
181 0 82.1871 13.4814 1108 118.813 650.095 471.227
182 0 86.1833 13.1464 1133 121.083 649.968 469.058
183 0 87.0363 12.3167 1072 123.579 650.048 469.488
184 0 89.159 12.0459 1074 124.761 649.48 466.309
185 1 44.1527 11.2337 496 119.671 650.071 489.438
186 0 46.0756 11.4377 527 121.564 650.271 489.262
187 0 48.076 11.6274 559 118.989 650.859 487.655
188 0 50.1222 11.6914 586 117.744 651.087 488.065
189 0 52.0406 12.5479 653 116.074 649.766 487.986
190 0 53.0257 12.5034 663 125.561 650.9 484.92
191 0 55.0655 12.3308 679 126.069 650.937 483.218
192 0 56.0799 11.7689 660 127.885 650.97 482.562
193 0 59.1227 12.7024 751 124.06 650.956 483.538
194 0 60.0272 13.2773 797 123.225 651.162 483.021
195 0 63.0825 12.8086 808 124.4 651.603 481.98
196 0 63.1076 12.9461 817 126.118 651.427 480.111
197 0 66.0839 12.6657 837 122.652 651.205 476.649
198 0 67.134 12.84 862 122.84 650.879 477.019
199 0 70.1261 12.5916 883 124.097 650.643 475.327
200 0 72.0752 13.3055 959 124.146 650.591 473.321
201 0 75.1066 13.2079 992 125.072 650.304 474.302
202 0 76.1557 13.4987 1028 126.033 650.122 474.59
203 0 79.1589 14.0224 1110 126.011 650.985 472.559
204 0 82.0967 13.9835 1148 126.346 650.292 472.159
205 0 85.0867 14.256 1213 127.119 651.1 470.688
206 0 86.0897 14.0203 1207 128.246 650.298 471.344
207 0 89.1467 14.134 1260 127.252 649.765 470.279
208 0 93.0387 13.9512 1298 127.194 650.083 465.992
209 0 93.0821 13.8158 1286 128.372 649.92 461.927
210 0 97.2047 12.9829 1262 128.532 649.527 465.34
211 0 101.158 14.1561 1432 126.715 650.117 461.765
212 0 103.199 12.7327 1314 130.184 650.119 461.275
213 0 107.182 14.9373 1601 125.044 650.063 457.704
214 0 110.146 14.0813 1551 127.015 650.591 453.897
215 0 117.285 14.3411 1682 123.984 648.96 452.596
216 1 63.2204 11.626 735 121.541 649.163 478.671
217 0 63.0913 12.3313 778 119.758 649.445 478.465
218 0 67.0359 14.3505 962 112.834 650.16 479.682
219 0 69.0853 12.6945 877 117.852 649.005 478.673
220 0 72.0592 14.3771 1036 115.918 648.89 476.284
221 0 72.0546 12.1991 879 120.395 649.635 474.896
222 0 76.1022 13.495 1027 118.224 649.421 473.944
223 0 78.1321 14.0915 1101 118.215 649.241 471.029
224 0 81.1414 13.9263 1130 116.827 649.815 471.724
225 0 82.1542 12.866 1057 119.305 650.133 469.33
226 0 85.2447 12.8102 1092 118.569 650.46 470.453
227 0 86.1635 12.6156 1087 120.398 650.052 466.627
228 0 90.1273 12.9595 1168 117.658 650.067 467.455
229 0 90.1247 11.9612 1078 120.913 650.137 463.449
230 0 96.1417 14.177 1363 113.895 650.585 462.594
231 0 100.134 14.4706 1449 110.345 650.296 460.934
232 0 102.346 12.9072 1321 114.767 649.638 459.146
233 0 105.302 12.2504 1290 116.784 650.133 455.767
234 1 51.0535 11.1256 568 104.97 651.745 487.308
235 0 54.0843 11.593 627 102.426 651.603 487.766
236 0 53.1406 11.9871 637 104.821 650.085 484.571
237 0 54.0629 10.4323 564 107.548 650.667 484.777
238 0 56.0356 10.9395 613 105.238 650.458 485.22
239 0 59.0589 10.9213 645 105.177 650.051 484.167
240 0 61.1277 12.1385 742 103.31 649.823 480.964
241 0 61.1252 10.5194 643 106.621 650.022 481.543
242 0 64.0583 11.4739 735 104.007 649.814 481.811
243 0 67.0788 10.5995 711 106.83 649.914 479.34
244 0 71.0455 12.7102 903 102.23 650.19 475.965
245 0 72.0963 10.5415 760 106.516 650.022 477.647
246 0 76.1731 12.0252 916 103.808 650.342 473.425
247 0 80.0668 12.3397 988 103.823 650.508 473.424
248 0 80.037 10.6201 850 109.246 649.779 472.756
249 1 45.1223 10.5713 477 102.551 650.411 491.034
250 0 45.0757 10.2716 463 103.216 650.793 489.544
251 0 45.0243 10.4832 472 104.309 650.655 488.903
252 0 47.0891 10.4058 490 104.167 651.416 490.3
253 0 49.195 11.6678 574 103.153 651.054 487.514
254 0 50.2049 11.3933 572 102.757 650.425 488.224
255 0 52.1954 11.2654 588 103.512 651.282 486.366
256 0 54.0691 12.2806 664 101.458 650.926 484.842
257 0 55.2266 10.7919 596 103.872 650.738 485.126
258 0 56.227 10.422 586 104.881 650.225 482.874
259 0 58.1952 9.7087 565 105.214 650.981 483.619
260 0 58.0619 10.1788 591 104.235 649.291 485.587
261 0 58.0923 9.81197 570 105.947 649.428 482.342
262 0 62.1012 11.5618 718 101.368 649.628 480.944
263 0 63.0638 10.1167 638 105.522 649.71 478.467
264 0 68.0635 11.1807 761 102.142 649.766 478.139
265 0 70.1195 10.696 750 103.968 649.653 477.012
266 0 73.093 10.5892 774 103.903 649.69 474.775
267 0 75.1592 11.123 836 103.758 650.419 474.018
268 0 77.1085 9.7914 755 106.091 649.543 472.376
269 1 40.078 11.8519 475 101.358 649.585 491.985
270 0 40.0746 11.2041 449 102.305 649.664 491.906
271 0 42.0504 11.724 493 100.002 649.442 490.467
272 0 42.0616 10.6986 450 102.578 650.842 492.529
273 0 42.0089 11.1643 469 103.196 650.625 491.821
274 0 46.0909 12.5621 579 99.3247 650.287 491.059
275 0 46.0786 11.1549 514 103.288 651.031 488.471
276 0 47.1284 11.6915 551 101.417 651.274 488.267
277 0 47.0525 9.69131 456 105.697 650.634 489.583
278 0 47.0357 10.0137 471 83.3885 650.552 489.631
279 0 51.0555 11.6736 596 103.263 650.087 486.44
280 0 52.0455 9.31877 485 106.049 650.361 488.992
281 0 52.1394 10.9131 569 104.592 650.225 486.135
282 0 55.082 12.0003 661 101.732 649.862 485.315
283 0 57.0597 12.4957 713 101.027 651.073 484.823
284 0 59.0479 11.9056 703 102.801 650.339 482.947
285 0 61.0719 11.4128 697 103.983 650.722 481.548
286 0 59.1072 11.2 662 106.062 650.159 479.906
287 0 65.0856 11.8306 770 103.34 650.791 481.021
288 0 64.0737 10.722 687 107.019 650.339 477.7
289 0 67.105 11.3106 759 105.07 649.553 480.103
290 0 70.245 12.2429 860 103.607 650.273 475.317
291 0 71.0467 11.598 824 105.425 649.989 476.979
292 0 75.0462 11.4863 862 106.618 649.683 471.774
293 0 78.1388 12.4394 972 104.629 650.332 472.77
294 0 81.1499 12.6802 1029 104.357 650.02 472.837
295 0 87.085 15.0772 1313 98.3816 650.013 466.042
296 0 84.1082 11.7468 988 108.705 650.025 469.641
297 0 88.1075 12.4507 1097 106.905 649.924 466.222
298 0 91.0566 13.1017 1193 106.171 649.502 468.215
299 1 50.0231 10.9949 550 107.725 650.171 486.989
300 0 50.11 12.0535 604 102.593 649.702 481.353
301 0 52.107 13.6642 712 105.362 650.171 484.163
302 0 52.0412 11.9329 621 107.398 650.275 486.911
303 0 55.058 12.2053 672 105.298 650.088 484.246
304 0 57.0517 13.4089 765 103.749 650.286 483.923
305 0 60.0593 13.6865 822 102.235 650.633 483.495
306 0 60.0526 13.1385 789 105.068 650.798 480.57
307 0 63.0904 12.7119 802 105.446 650.759 480.921
308 0 65.0376 13.054 849 105.813 650.796 479.647
309 0 68.0692 12.4138 845 107.612 650.763 479.355
310 0 71.0483 13.526 961 105.305 650.347 478.377
311 0 74.0776 14.2283 1054 103.001 650.749 477.114
312 0 76.1995 14.3177 1091 103.126 650.323 476.927
313 0 78.074 14.5631 1137 103.244 650.325 475.082
314 0 83.0515 14.8823 1236 102.999 649.949 473.206
315 0 85.324 14.4156 1230 104.896 649.433 472.747
316 0 88.1094 14.3344 1263 105.439 649.751 471.209
317 0 92.119 15.2629 1406 104.638 649.55 467.947
318 0 93.1348 14.1086 1314 107.968 649.685 467.088
319 0 98.1743 14.8409 1457 106.837 650.188 466.225
320 1 48.1038 12.868 619 108.982 650.136 489.061
321 0 50.0818 12.6193 632 108.672 649.992 490.089
322 0 50.0723 12.3222 617 113.83 650.447 488.817
323 0 50.0723 12.4021 621 153.393 650.465 488.942
324 0 53.0225 12.3344 654 115.965 650.352 486.266
325 0 56.0845 14.175 795 111.742 650.848 485.33
326 0 58.0398 12.5776 730 114.921 650.347 484.742
327 0 61.0409 13.1715 804 113.524 650.807 484.381
328 0 64.0642 13.705 878 112.497 650.571 482.736
329 0 64.0631 13.5648 869 114.84 650.939 482.916
330 0 66.0687 13.3649 883 116.384 651.057 480.757
331 0 71.0989 13.1366 934 117.452 650.931 479.595
332 0 71.0543 13.9189 989 117.871 650.654 478.169
333 0 73.1252 14.4957 1060 117.921 650.541 475.145
334 0 74.0681 14.0141 1038 119.829 650.713 475.914
335 0 77.0396 13.4606 1037 122.535 650.05 475.523
336 0 77.0396 13.5125 1041 162.123 650.035 475.513
337 0 83.0454 14.1368 1174 121.656 650.792 471.764
338 0 85.0495 13.5803 1155 122.618 650.842 470.435
339 0 88.0319 14.6311 1288 120.712 651.13 469.662
340 0 90.0784 13.9212 1254 122.128 650.98 469.394
341 1 49.0383 11.6032 569 121.46 650.852 489.571
342 0 51.0283 12.7968 653 116.928 651.364 487.674
343 0 53.0661 12.965 688 115.484 651.305 487.529
344 0 56.0371 13.3661 749 118.451 651.017 486.577
345 0 57.035 12.6238 720 120.511 652.207 485.204
346 0 59.024 13.7571 812 117.116 651.867 484.926
347 0 62.0444 13.2163 820 118.17 650.757 484.377
348 0 60.0257 12.2614 736 123.145 652.13 482.548
349 0 63.0266 14.01 883 118.317 651.138 480.711
350 0 67.0482 13.0503 875 119.312 651.408 480.502
351 0 69.0482 12.7592 881 120.526 651.047 479.915
352 0 72.1058 12.8838 929 119.501 651.413 479.658
353 0 72.1444 12.8631 928 150.902 651.406 479.628
354 0 74.0772 12.865 953 121.301 650.629 476.172
355 0 78.0921 13.689 1069 117.834 650.297 475.199
356 0 82.0625 13.2582 1088 119.456 651.017 472.722
357 0 83.0879 13.1668 1094 120.024 650.343 471.431
358 1 44.0341 11.0369 486 116.218 649.189 492.831
359 0 46.0305 11.9269 549 113.856 650.308 492.066
360 0 45.0518 12.9629 584 109.101 651.512 490.978
361 0 48.1489 12.586 606 114.429 650.096 490.429
362 0 49.1583 12.0834 594 115.914 649.503 490.047
363 0 51.0738 13.6273 696 112.421 649.967 488.665
364 0 51.1166 12.0313 615 117.582 649.704 487.951
365 0 55.0963 12.9228 712 114.013 649.326 486.94
366 0 54.2071 12.0279 652 117.104 650.439 484.172
367 0 57.1058 12.2404 699 116.102 649.854 484.177
368 0 59.1785 12.7749 756 114.183 650.454 483.37
369 0 60.1592 12.0347 724 116.036 650.913 482.696
370 0 63.1156 13.3248 841 112.467 650.722 481.503
371 0 66.2004 13.2628 878 110.779 650.37 482.911
372 0 67.125 12.0819 811 114.498 650.72 481.148
373 0 70.1308 12.6478 887 112.923 650.547 479.182
374 0 72.1001 12.2607 884 113.898 650.267 478.904
375 0 75.0947 12.957 973 113.857 650.495 474.975
376 0 77.0925 12.0116 926 115.246 651.18 477.12
377 0 79.1349 13.5086 1069 112.291 651.457 474.935
378 0 83.1199 13.7151 1140 112.403 651.138 471.809
379 0 87.0651 12.1978 1062 115.38 650.851 471.39
380 1 44.0325 12.3999 546 109.899 650.894 492.108
381 0 44.0832 12.0227 530 113.566 650.489 488.872
382 0 46.0405 11.8591 546 113.571 651.049 488.238
383 0 49.0371 13.0717 641 111.577 651.612 488.655
384 0 52.0963 12.6113 657 111.636 651.423 489.053
385 0 51.0267 12.6992 648 114.113 651.102 488.082
386 0 53.0308 13.1433 697 113.082 651.496 485.314
387 0 57.031 13.6768 780 110.767 651.271 485.537
388 0 57.0985 13.3454 762 111.218 651 487.222
389 0 59.0917 12.6921 750 113.743 650.024 483.471
390 0 61.0501 13.4152 819 111.708 649.432 484.136
391 0 65.0872 14.4729 942 109.199 650.617 482.446
392 0 66.0609 13.1697 870 113.662 650.116 481.414
393 0 69.1303 14.8994 1030 109.252 650.342 479.885
394 0 70.0883 13.697 960 113.981 650.382 480.113
395 0 73.0759 14.9981 1096 110.798 650.349 479.77
396 0 74.0992 14.3996 1067 113.291 650.305 478.356
397 0 77.0556 14.2365 1097 114.807 649.94 474.97
398 0 78.2051 14.0016 1095 116.982 649.263 473.67
399 0 80.0635 13.0147 1042 114.26 650.829 475.042
400 0 84.3127 12.2757 1035 115.526 651.216 474.671
401 0 87.2538 14.4406 1260 112.866 650.695 470.833
402 0 90.2244 14.2977 1290 116.158 650.847 467.814
403 0 91.2382 14.5772 1330 116.314 650.474 466.886
404 0 97.3203 14.3033 1392 115.524 650.163 466.07
405 1 48.1505 12.1079 583 119.161 650.153 487.407
406 0 53.0867 12.9411 687 114.945 650.454 487.333
407 0 53.03 13.0492 692 116.529 650.842 487.249
408 0 55.0344 13.1554 724 110.162 650.297 488.775
409 0 57.1234 13.322 761 109.163 650.544 486.74
410 0 57.0217 13.4159 765 108.858 650.613 487.401
411 0 58.0533 12.6263 733 112.292 650.52 484.607
412 0 61.053 13.087 799 110.827 650.28 484.927
413 0 62.126 12.8127 796 111.977 650.945 483.886
414 0 66.0721 13.0161 860 110.899 650.258 481.976
415 0 66.0721 13.0463 862 136.759 649.259 482.013
416 0 65.048 13.1441 855 136.699 648.262 481.891
417 0 71.07 13.8596 985 110.508 651.16 477.926
418 0 73.0652 13.5222 988 110.56 651.308 480.058
419 0 77.0952 12.8153 988 111.715 651.085 478.71
420 0 79.172 13.5907 1076 110.582 650.759 475.404
421 0 82.1384 14.1347 1161 109.908 650.811 474.058
422 0 83.1323 13.1357 1092 112.418 651.223 473.241
423 0 86.1448 13.0826 1127 113.109 651.171 470.732
424 0 90.1355 13.1802 1188 113.652 651.327 468.962
425 0 92.3355 12.617 1165 114.342 650.795 468.734
426 0 95.11 13.7315 1306 111.453 651.054 467.557
427 0 100.072 13.7302 1374 110.869 650.303 463.559
428 0 103.204 13.4782 1391 113.262 650.872 459.676
429 1 57.0307 11.4149 651 111.869 651.095 483.765
430 0 59.0221 12.8765 760 109.439 650.697 481.651
431 0 60.042 13.7237 824 110.765 650.691 483.015
432 0 62.0699 13.1626 817 110.106 650.868 482.661
433 0 64.1651 12.7328 817 108.881 650.857 481.733
434 0 67.0781 13.2234 887 108.421 650.975 481.947
435 0 69.0433 13.6726 944 107.171 651.293 481.324
436 0 71.0678 13.8741 986 108.372 651.392 479.024
437 0 74.1282 12.8156 950 110.532 650.395 478.757
438 0 78.0767 13.7813 1076 109.214 650.696 474.68
439 0 80.0781 14.311 1146 108.08 651.361 472.729
440 0 82.0758 12.9271 1061 111.995 651.355 471.953
441 0 86.06 13.6068 1171 111.336 650.845 471.904
442 0 86.0904 12.603 1085 113.419 650.524 471.998
443 0 91.1191 13.5976 1239 109.374 650.859 469.974
444 0 93.0999 13.4587 1253 111.611 650.208 467.919
445 0 98.135 13.6954 1344 109.967 651.166 467.15
446 1 50.0677 11.6043 581 108.339 652.052 488.675
447 0 50.0677 11.5444 578 128.453 653.038 488.621
448 0 52.0923 11.7484 612 106.132 650.877 487.781
449 0 56.0652 13.4129 752 101.444 650.814 486.628
450 0 56.0308 11.8685 665 105.183 650.669 486.029
451 0 58.1247 11.9226 693 105.4 651.051 485.417
452 0 61.0752 11.1993 684 107.143 650.485 483.333
453 0 63.0846 11.0804 699 107.966 651.396 482.408
454 0 65.0414 10.993 715 108.185 651.365 481.186
455 0 68.0645 12.3118 838 105.011 651.012 479.481
456 0 69.1163 12.11 837 106.661 650.989 477.569
457 0 72.1422 11.5328 832 108.082 651.077 478.784
458 0 75.1241 12.7389 957 106.173 650.768 477.866
459 0 78.1354 11.8896 929 107.424 651.526 475.578
460 0 81.0716 11.5577 937 108.333 651.496 474.285
461 0 84.1486 12.466 1049 105.659 651.787 473.525
462 0 87.1768 12.7442 1111 106.093 651.234 470.043
463 1 42.0576 10.0814 424 108.785 651.726 492.271
464 0 47.0305 12.2899 578 103.543 652.151 492.054
465 0 48.0214 13.0775 628 103.433 651.205 490.812
466 0 47.063 12.7701 601 103.707 650.454 491.869
467 0 49.0752 11.8186 580 106.824 649.543 490.771
468 0 50.0539 12.1069 606 107.764 650.517 489.576
469 0 52.0738 12.0022 625 106.402 650.97 489.939
470 0 54.0659 13.1691 712 103.553 651.094 486.973
471 0 54.0645 12.7071 687 105.812 650.872 487.115
472 0 55.1009 11.488 633 109.311 650.787 486.627
473 0 55.1017 11.4697 632 128.231 650.764 486.647
474 0 61.0732 13.3938 818 105.39 650.985 485.149
475 0 62.0465 12.2972 763 108.726 651.459 483.404
476 0 65.0836 13.183 858 108.135 650.681 481.554
477 0 65.0248 12.7029 826 112.563 650.019 482.461
478 0 70.0663 12.6024 883 112.977 650.527 479.888
479 0 70.0304 12.7659 894 112.811 650.379 481.412
480 0 73.1286 12.7583 933 112.708 650.691 480.36
481 0 76.0814 13.6958 1042 111.809 650.674 476.857
482 0 81.0945 14.033 1138 110.075 649.744 477.017
483 0 84.1305 13.8594 1166 110.507 650.407 474.095
484 0 86.3102 12.4667 1076 112.637 650.359 474.894
485 0 89.1771 13.5124 1205 112.727 650.559 469.968
486 1 46.0116 11.7144 539 111.954 650.432 492.707
487 0 48.0901 11.5616 556 114.246 650.435 491.282
488 0 48.2216 11.2605 543 115.838 649.884 491.098
489 0 51.013 12.7418 650 112.466 651.169 489.318
490 0 53.0646 12.6638 672 113.272 650.963 486.613
491 0 54.0198 14.1245 763 109.717 650.966 486.404
492 0 57.0609 13.915 794 109.501 651.008 485.368
493 0 60.0482 13.8222 830 109.094 651.246 486.518
494 0 58.0335 12.9408 751 112.57 651.397 485.242
495 0 63.1241 13.323 841 111.21 651.25 483.621
496 0 64.0722 12.7356 816 106.957 650.616 483.947
497 0 66.1114 12.9781 858 106.253 650.92 482.707
498 0 67.0475 12.782 857 107.382 650.995 481.663
499 0 69.1398 11.9468 826 111.657 651.515 479.569
500 0 72.2181 11.8253 854 115.918 650.879 478.954
501 0 76.0753 12.3562 940 118.28 651.439 477.66
502 0 79.0714 13.0515 1032 119.201 651.223 475.197
503 0 82.1079 13.0195 1069 120.271 651.661 472.743
504 1 41.0378 11.4285 469 115.299 652.141 494.672
505 0 42.0171 11.9713 503 115.408 651.165 495.3
506 0 42.076 11.503 484 118.919 650.196 494.587
507 0 43.0258 11.6442 501 118.583 650.589 494.261
508 0 43.0262 11.5046 495 135.97 651.527 494.473
509 0 45.0323 11.6583 525 118.89 650.297 490.844
510 0 48.1365 10.948 527 118.89 650.501 490.471
511 0 52.0178 13.0917 681 112.639 650.551 489.37
512 0 53.0127 13.1289 696 113.869 650.088 487.112
513 0 53.0187 12.373 656 117.168 650.084 487.873
514 0 57.0425 13.2883 758 114.084 650.38 487.724
515 0 57.032 13.3434 761 114.628 649.823 486.861
516 0 61.0687 13.4602 822 113.455 650.1 484.181
517 0 62.0249 13.1721 817 114.006 650.845 484.698
518 0 63.0769 12.5878 794 116.767 650.907 481.21
519 0 66.0877 12.7104 840 116.194 650.729 480.487
520 0 69.0561 12.2509 846 117.517 651.069 480.485
521 0 72.0648 12.5998 908 116.401 650.586 478.254
522 0 72.0917 12.7199 917 117.134 649.576 476.742
523 0 78.0704 14.2051 1109 112.775 650.937 475.918
524 0 80.06 13.3025 1065 115.957 650.539 474.527
525 0 82.0975 12.339 1013 118.85 650.896 472.887
526 0 84.0777 12.4528 1047 119.583 650.831 473.341
527 0 88.1402 13.4672 1187 117.859 650.139 471.485
528 1 46.1349 11.3146 522 119.155 650.655 490.381
529 0 50.0825 11.8205 592 116.338 650.806 491.083
530 0 51.056 12.7703 652 114.112 651.348 490.943
531 0 54.0364 13.2318 715 112.512 651.094 489.154
532 0 55.089 14.0681 775 111.075 651.094 489.125
533 0 57.0506 13.0235 743 113.493 651.116 487.509
534 0 59.0937 12.7932 756 113.299 650.751 488.155
535 0 60.0469 12.9732 779 114.77 651.181 485.963
536 0 61.0557 13.2174 807 113.654 650.797 485.571
537 0 65.0231 13.3645 869 111.733 650.869 484.315
538 0 64.1069 12.7599 818 115.002 650.775 483.33
539 0 68.042 13.3006 905 112.694 650.451 480.699
540 0 68.1111 12.4062 845 114.858 651.219 481.735
541 0 73.1845 13.7051 1003 111.258 650.942 480.291
542 0 73.0666 13.2619 969 112.894 651.11 478.955
543 0 75.0559 13.5765 1019 113.148 651.003 476.188
544 0 77.0983 12.6592 976 115.836 650.487 476.061
545 0 79.0333 12.1341 959 117.201 650.853 476.49
546 0 84.0665 14.0365 1180 111.47 650.961 475.856
547 0 86.0643 14.3149 1232 111.08 650.312 474.061
548 0 86.0905 13.1025 1128 114.461 650.893 471.955
549 0 89.1199 11.7707 1049 116.145 650.776 472.29
550 0 91.0537 11.6085 1057 116.767 650.37 470.595
551 0 96.0996 12.8617 1236 113.693 650 466.767
552 0 97.0716 13.6703 1327 111.691 650.925 466.806
553 0 100.114 13.4846 1350 112.681 650.514 463.625
554 0 104.084 13.5371 1409 112.579 649.931 463.26
555 0 108.188 13.2362 1432 113.562 650.01 458.878
556 0 113.162 14.3864 1628 111.401 650.22 456.981
557 0 116.169 13.3341 1549 113.96 649.817 456.994
558 0 121.169 13.7907 1671 113.245 650.329 453.721
559 0 123.094 12.6245 1554 116.873 650.39 450.564
560 0 128.109 13.8476 1774 112.864 651.073 450.574
561 0 133.167 13.3967 1784 114.377 650.984 448.46
562 0 136.182 13.4012 1825 114.951 650.059 444.914
563 0 139.176 12.1573 1692 118.446 650.047 441.479
564 0 146.161 13.0404 1906 116.009 649.966 439.683
565 0 153.254 13.8789 2127 114.375 649.732 437.587
566 0 156.258 12.9977 2031 116.972 649.604 434.296
567 0 163.389 13.6117 2224 115.54 648.946 433.735
568 0 169.242 13.7672 2330 116.381 649.782 431.011
569 0 175.3 13.4227 2353 117.291 649.286 425.121
570 0 181.257 12.8713 2333 119.264 649.816 424.687
571 0 188.307 13.7594 2591 118.827 649.805 417.943
572 0 194.411 13.2811 2582 120.737 649.552 417.543
573 0 201.436 13.3491 2689 121.563 650.006 413.544
574 0 208.257 13.8963 2894 117.962 650.709 405.575
575 0 213.244 14.8562 3168 117.439 649.812 401.615
576 0 217.252 14.7018 3194 118.226 649.75 399.188
577 0 225.21 15.1414 3410 117.706 648.962 394.428
578 0 236.407 14.7331 3483 117.786 649.317 392.352
579 0 238.413 15.9094 3793 148.488 649.34 388.278
580 1 188.25 8.17532 1539 125.286 649.814 426.986
581 0 190.222 12.0228 2287 122.828 649.872 412.783
582 0 195.27 11.5122 2248 125.301 650.387 407.614
583 0 202.141 11.957 2417 125.786 649.961 402.23
584 0 210.208 13.5532 2849 122.62 650.576 399.338
585 0 220.366 14.4623 3187 121.214 650.063 394.949
586 0 224.319 12.9236 2899 126.057 649.921 390.935
587 0 235.353 13.5201 3182 122.513 650.366 391.964
588 0 244.334 13.8172 3376 122.498 649.6 389.087
589 0 252.419 14.1986 3584 123.433 649.952 382.008
590 1 214.455 10.0953 2165 122.739 649.853 419.813
591 0 211.215 9.36014 1977 126.624 649.435 416.713
592 0 211.396 12.9378 2735 122.807 649.52 403.051
593 0 215.373 12.9961 2799 123.278 649.821 394.966
594 0 223.347 12.9977 2903 122.26 650.014 396.667
595 0 231.4 13.5652 3139 121.713 649.758 394.752
596 0 238.404 13.3765 3189 123.849 649.577 387.743
597 1 319.632 10.193 3258 131.844 649.479 367.951
598 0 317.526 10.3613 3290 131.811 649.605 368.222
599 0 319.355 11.0128 3517 130.474 650.351 369.039
600 0 308.343 8.84405 2727 129.012 650.542 392.528
601 0 307.27 10.1605 3122 127.909 650.229 380.599
602 0 306.363 18.3214 5613 111.834 649.654 346.688
603 0 311.379 13.543 4217 126.838 649.456 352.654
604 1 238.219 11.9092 2837 126.886 649.777 396.754
605 0 247.191 12.5611 3105 126.097 650.376 391.458
606 0 258.27 13.8692 3582 123.947 650.2 387.643
607 0 266.403 13.4683 3588 126.634 649.717 379.009
608 0 276.422 13.512 3735 127.167 648.739 370.955
609 0 286.492 13.7805 3948 127.168 649.919 367.482
610 0 295.36 14.5551 4299 127.581 649.121 364.75
611 1 307.45 17.2028 5289 120.42 649.34 353.144
612 0 314.687 14.3921 4529 129.653 649.438 352.051
613 0 323.411 16.4466 5319 122.252 648.996 341.998
614 0 334.531 16.0045 5354 124.18 649.57 344.235
615 0 345.652 16.3488 5651 122.92 649.556 331.068
616 0 357.595 16.3873 5860 122.507 649.247 327.215
617 0 371.839 16.2382 6038 122.615 649.309 312.459
618 1 62.097 9.13087 567 103.945 650.915 484.905
619 0 64.161 11.2218 720 99.8819 650.564 481.69
620 0 68.2305 10.4938 716 100.529 650.673 470.13
621 0 74.3862 15.6077 1161 84.3178 651.039 450.423
622 0 75.2073 13.7753 1036 89.3108 650.538 465.219
623 0 78.0716 13.8847 1084 90.2823 651.345 460.795
624 0 83.1712 18.1914 1513 80.8116 650.896 460.564
625 0 85.1036 14.1475 1204 89.5349 650.531 455.403
626 0 87.0336 15.4423 1344 87.1979 650.888 450.784
627 0 90.0854 14.4197 1299 89.9923 651.232 452.83
628 0 94.0735 15.9981 1505 86.206 650.751 459.256
629 0 98.1223 15.6336 1534 87.0437 650.132 460.08
630 0 98.2475 13.6085 1337 94.2812 650.461 456.151
631 0 104.203 16.2184 1690 87.2266 650.224 457.138
632 0 106.099 13.4686 1429 94.557 650.652 455.745
633 1 57.2295 12.9828 743 90.4374 650.717 488.066
634 0 61.2668 11.4744 703 91.9289 650.711 488.38
635 0 61.1719 12.0644 738 91.0447 651.339 489.974
636 0 63.1182 12.5479 792 91.726 651.487 487.015
637 0 65.1935 13.1762 859 89.9779 650.994 485.729
638 0 64.1736 12.6688 813 92.7282 650.171 483.891
639 0 68.268 14.2234 971 89.6684 651.171 483.72
640 0 69.1817 12.3877 857 94.5169 651.505 481.561
641 0 70.2658 12.2535 861 97.108 650.619 482.763
642 0 71.2467 12.8848 918 98.4586 650.626 481.277
643 0 74.2654 12.2803 912 102.505 649.992 480.664
644 0 77.1816 13.4358 1037 101.284 650.487 478.419
645 0 79.2588 13.8786 1100 100.42 651.012 478.883
646 0 81.4203 13.9032 1132 100.989 650.683 476.998
647 0 83.303 13.1808 1098 101.901 649.703 477.771
648 0 85.3222 14.0409 1198 102.86 650.309 473.357
649 0 88.4972 13.6614 1209 104.408 649.793 471.785
650 0 91.3826 14.587 1333 103.074 649.601 469.429
651 0 92.4806 12.7162 1176 107.708 649.36 469.796
652 0 96.3731 14.475 1395 105.865 649.32 465.859
653 0 99.509 15.2047 1513 104.394 650.13 466.169
654 0 102.505 14.3115 1467 107.104 649.986 464.207
655 0 103.283 12.8966 1332 111.913 649.945 460.435
656 1 53.2045 11.8599 631 104.136 650.295 490.274
657 0 53.1645 10.6274 565 107.887 650.242 491.039
658 0 56.0984 11.5868 650 108.037 649.645 490.575
659 0 59.0979 13.2154 781 102.487 650.639 485.88
660 0 58.1714 13.082 761 107.961 649.753 486.549
661 0 61.1734 12.3747 757 107.958 650.258 487.838
662 0 62.105 12.3501 767 108.419 649.76 485.563
663 0 63.1002 12.5673 793 106.887 649.948 486.388
664 0 66.1427 13.229 875 102.974 650.2 485.53
665 0 69.307 12.625 875 104.577 649.402 479.869
666 0 72.2853 13.9724 1010 100.588 648.839 478.346
667 0 72.7023 13.2458 963 103.551 648.037 474.687
668 0 74.3306 12.0139 893 104.802 648.231 476.863
669 0 76.4244 12.1558 929 104.226 648.922 475.254
670 0 78.4341 12.3671 970 103.757 648.351 474.31
671 0 82.3099 12.5137 1030 103.706 648.987 471.255
672 0 83.3485 11.134 928 105.348 648.599 472.266
673 0 87.5232 13.2651 1161 102.287 648.319 467.699
674 0 89.312 12.5179 1118 103.963 648.53 466.631
675 1 48.2997 11.9255 576 96.8958 649.247 489.833
676 0 49.2447 11.3312 558 100.086 648.609 488.765
677 0 52.2495 11.4259 597 99.6265 648.637 487.248
678 0 53.2059 12.01 639 99.6197 649.709 487.681
679 0 55.0832 11.8366 652 102.465 650.209 487.56
680 0 56.0832 11.3403 636 98.0346 650.149 489.299
681 0 58.103 12.0304 699 97.4506 650.114 487.104
682 0 59.0606 12.665 748 97.7152 649.028 486.778
683 0 62.1741 12.465 775 97.9716 649.665 485.017
684 0 63.0568 11.5293 727 101.729 649.873 483.483
685 0 64.1628 11.9851 769 101.822 649.988 483.836
686 0 68.0928 13.2613 903 100.452 649.938 482.029
687 0 71.1267 12.4988 889 103.191 650.241 481.345
688 0 71.0618 11.2297 798 107.088 649.895 480.148
689 0 74.1205 12.9924 963 104.669 650.383 479.423
690 0 74.1088 12.684 940 107.483 650.731 477.482
691 0 79.1341 13.0033 1029 107.953 650.142 474.202
692 0 82.1944 13.9547 1147 106.42 650.251 474.18
693 0 84.1168 13.1959 1110 109.292 650.145 474.384
694 0 86.0679 13.0711 1125 111.037 650.44 472.749
695 0 91.0957 13.7548 1253 108.973 650.215 471.28
696 0 92.1747 14.0277 1293 110.16 650.004 468.951
697 0 96.148 13.6976 1317 112.686 650.629 464.159
698 0 97.1918 12.9332 1257 114.421 649.842 467.858
699 0 100.135 13.2421 1326 114.61 650.574 465.633
700 0 103.198 13.508 1394 113.826 650.07 462.791
701 0 107.201 13.2648 1422 114.322 650.297 458.477
702 0 113.333 13.9765 1584 111.503 649.859 456.968
703 0 117.228 13.3074 1560 113.637 649.813 456.196
704 0 119.213 12.3896 1477 115.923 649.941 451.934
705 0 125.218 13.1291 1644 113.929 650.304 449.778
706 0 131.367 15.293 2009 108.809 649.299 447.067
707 1 68.2754 10.2526 700 107.493 650.367 482.573
708 0 71.1631 11.3823 810 106.1 649.502 479.619
709 0 75.1856 13.0477 981 105.337 648.811 477.462
710 0 79.1387 13.0278 1031 105.909 649.448 473.503
711 0 82.1556 11.5878 952 108.312 649.29 475.105
712 0 84.3206 12.2509 1033 107.818 648.566 469.263
713 0 87.3108 11.1785 976 110.734 648.798 466.397
714 0 91.4078 11.5089 1052 109.637 648.916 464.567
715 0 92.3047 10.9095 1007 112.016 648.328 462.452
716 0 99.3069 11.8421 1176 108.384 648.126 462.784
717 1 50.1349 11.6685 585 104.853 649.232 485.417
718 0 53.0669 11.608 616 103.581 649.981 489.313
719 0 54.0644 11.0979 600 106.873 650.227 487.255
720 0 54.1677 10.8552 588 108.395 648.793 487.582
721 0 56.1801 12.0683 678 105.246 648.999 487.071
722 0 59.2135 11.7034 693 105.848 649.16 484.221
723 0 61.1628 12.6057 771 103.901 649.594 483.643
724 0 62.1238 13.5536 842 101.789 649.241 482.682
725 0 61.1448 10.9249 668 109.659 648.557 484.181
726 0 65.1696 12.0762 787 106.278 648.436 484.189
727 0 65.2108 10.6884 697 110.039 648.679 481.742
728 0 67.2108 11.3523 763 109.599 648.727 480.786
729 0 71.1425 12.2852 874 107.328 648.903 478.588
730 0 73.3327 11.3728 834 108.549 649.363 478.935
731 0 77.2338 12.0802 933 109.148 648.775 475.324
732 0 79.2914 11.3001 896 111.075 648.66 474.459
733 0 84.1521 11.7882 992 108.973 648.785 472.288
734 1 43.1832 8.63762 373 108.804 648.531 491.134
735 0 40.2158 8.23059 331 107.366 648.931 483.142
736 0 43.193 9.28391 401 102.239 648.678 486.155
737 0 45.0391 11.4123 514 102.911 648.685 493.051
738 0 44.0146 9.6786 426 106.516 648.646 493.354
739 0 48.0149 11.8921 571 102.238 649.271 489.995
740 0 49.1846 10.9384 538 104.589 648.649 490.11
741 0 50.0665 10.2863 515 105.957 649.468 490.507
742 0 52.0669 11.4276 595 102.442 649.092 490.965
743 0 51.1163 10.0946 516 107.882 648.781 487.589
744 0 53.0489 9.78342 519 108.16 649.081 488.181
745 0 56.0823 11.3226 635 104.581 649.49 487.189
746 0 57.1036 11.2427 642 101.829 650.103 486.699
747 0 61.1426 11.694 715 100.786 649.621 485.035
748 0 61.1335 11.5976 709 102.271 649.738 483.987
749 0 63.117 11.3599 717 101.742 650.008 483.681
750 0 66.1011 11.316 748 101.452 650.007 481.703
751 0 67.2861 11.3842 766 102.76 650.38 478.322
752 0 71.1215 11.9936 853 101.117 649.737 477.569
753 0 71.2242 10.9233 778 104.896 650.805 478.329
754 0 74.1678 12.5257 929 103.757 650.25 474.729
755 0 81.2913 13.2486 1077 101.426 649.141 475.095
756 0 83.3544 12.6448 1054 102.572 650.041 474.077
757 0 85.1818 12.8079 1091 102.822 650.346 473.112
758 0 87.1621 12.3333 1075 105.007 649.703 470.115
759 0 89.1118 11.4687 1022 108.403 650.181 468.025
760 1 49.0943 11.3659 558 105.097 649.473 488.896
761 0 51.0694 11.7487 600 103.147 650.572 490.498
762 0 53.0511 11.6491 618 100.935 648.356 489.181
763 0 52.0534 10.8542 565 102.988 650.473 489.775
764 0 55.0379 10.8107 595 102.363 650.629 489.008
765 0 55.065 11.9677 659 101.264 650.624 485.991
766 0 56.0374 11.2782 632 103.495 649.967 487.508
767 0 59.0831 12.457 736 99.7418 650.368 486.45
768 0 61.039 12.0579 736 100.497 649.963 485.469
769 0 63.0523 11.4191 720 102.022 649.986 486.089
770 0 66.0387 12.9015 852 98.7465 650.034 483.028
771 0 68.1199 12.9624 883 97.9139 649.139 481.832
772 0 69.1102 11.7638 813 100.212 649.718 482.273
773 0 70.1463 11.5188 808 101.861 649.449 481.4
774 0 71.0664 11.0601 786 104.513 650.005 479.248
775 0 78.1534 12.8209 1002 100.774 650.013 478.704
776 0 79.1732 11.6832 925 103.89 649.721 478.231
777 0 78.1443 10.8133 845 107.68 649.556 477.394
778 0 82.1973 12.5187 1029 105.59 649.435 474.498
779 0 86.2481 12.0698 1041 106.025 650.187 475.571
780 0 91.1569 10.7507 980 108.49 649.842 475.181
781 0 92.2818 10.9772 1013 110.149 650.387 471.956
782 1 51.0713 13.0993 669 104.012 650.081 490.429
783 0 51.0685 11.7881 602 108.576 650.37 488.081
784 0 53.0811 12.7917 679 108.345 650.672 488.493
785 0 55.0443 11.954 658 109.796 649.827 487.805
786 0 57.0935 13.0137 743 108.083 650.187 488.587
787 0 57.132 11.4472 654 113.656 648.905 485.271
788 0 61.1486 11.7582 719 112.323 649.567 484.707
789 0 61.0913 12.8169 783 110.969 650 483.981
790 0 64.0913 13.1063 840 109.633 649.099 482.845
791 0 65.0922 11.7526 765 112.997 649.316 482.088
792 0 69.1683 12.9973 899 110.295 649.373 480.98
793 0 70.2393 12.7849 898 111.585 649.509 478.972
794 0 72.1342 12.6292 911 111.975 649.716 479.835
795 0 76.2178 14.2355 1085 107.636 650.247 477.939
796 0 76.2054 12.4138 946 113.886 649.687 474.576
797 0 79.1155 12.5386 992 112.594 649.705 475.503
798 0 84.1889 14.4318 1215 108.665 649.588 472.249
799 0 84.1901 12.8162 1079 113.273 649.556 471.217
800 0 91.2548 14.4321 1317 109.216 649.651 469.948
801 1 47.1035 9.76573 460 115.541 650.141 490.115
802 0 49.0511 11.7836 578 112.784 649.832 490.664
803 0 51.0736 12.1002 618 113.545 649.673 487.786
804 0 54.081 13.3134 720 107.047 650.392 488.481
805 0 55.1211 12.9714 715 105.481 649.221 487.497
806 0 56.2748 12.7588 718 107.564 648.972 487.71
807 0 58.116 12.7159 739 108.92 648.624 487.997
808 0 60.3311 12.6303 762 108.864 648.094 486.068
809 0 61.1206 12.9253 790 109.924 649.044 484.21
810 0 66.0601 12.2767 811 113.48 649.256 483.205
811 0 68.1476 13.0305 888 111.769 650.431 481.399
812 0 69.0515 11.9042 822 114.873 650.294 480.556
813 0 73.2932 12.3067 902 112.188 649.217 480.17
814 0 75.2262 12.602 948 112.059 648.921 477.53
815 0 78.2326 12.1305 949 110.119 649.153 478.941
816 0 79.2995 12.3078 976 110.3 649.831 475.751
817 0 85.3186 12.9046 1101 106.449 649.284 474.224
818 0 86.1289 11.6453 1003 109.382 650.001 474.044
819 1 45.0637 10.7182 483 105.151 650.329 494.799
820 0 47.3061 12.9581 613 102.23 649.834 487.661
821 0 47.0982 11.0195 519 106.983 649.661 490.921
822 0 51.0681 11.9057 608 101.972 649.967 491.921
823 0 50.0982 10.8587 544 104.8 649.423 490.908
824 0 53.0232 12.7114 674 99.411 649.217 489.991
825 0 56.0661 11.4329 641 101.287 649.473 489.562
826 0 58.2164 13.1406 765 98.2497 649.482 487.766
827 0 59.0702 11.9857 708 100.767 649.383 486.89
828 0 61.1051 11.4884 702 101.685 649.782 483.708
829 0 63.0283 12.9466 816 98.5355 649.457 484.494
830 0 64.067 12.3777 793 100.632 648.634 482.758
831 0 67.0738 12.1061 812 100.202 647.93 484.842
832 0 69.1088 14.3397 991 97.5308 648.911 480.793
833 0 72.1124 12.6885 915 101.45 649.121 480.54
834 0 72.1205 11.7858 850 105.176 648.868 479.6
835 0 77.075 11.7159 903 105.482 648.982 478.891
836 0 78.1081 11.7914 921 105.562 648.784 477.944
837 0 82.1354 13.1612 1081 103.027 648.944 477.018
838 0 83.0577 13.2197 1098 105.577 649.074 473.275
839 0 88.0881 12.4421 1096 106.923 648.91 473.536
840 0 91.1904 13.905 1268 105.065 649.422 472.457
841 0 92.2126 13.7942 1272 106.293 648.905 471.948
842 0 96.1856 13.0789 1258 109.932 649.157 470.257
843 0 99.0858 12.5951 1248 113.622 648.992 467.168
844 0 101.185 12.749 1290 113.157 649.139 464.461
845 0 105.24 12.7993 1347 114.461 649.648 463.071
846 0 109.247 12.7601 1394 114.615 649.014 463.044
847 0 111.222 12.7673 1420 115.196 648.661 458.896
848 0 116.145 12.1227 1408 117.697 648.762 457.352
849 0 119.34 13.1557 1570 115.393 648.027 454.775
850 0 124.225 12.3727 1537 116.147 649.472 454.138
851 0 127.351 12.3517 1573 118.006 649.303 450.024
852 0 131.212 12.6284 1657 117.502 648.698 448.923
853 0 136.389 12.7722 1742 117.184 649.149 448.275
854 0 139.323 13.1421 1831 117.949 649.262 441.655
855 0 144.263 12.6366 1823 118.498 648.769 443.6
856 0 151.337 13.1098 1984 117.356 649.473 437.381
857 0 154.412 13.0171 2010 117.802 649.557 438.313
858 0 161.276 13.3684 2156 118.411 649.393 432.367
859 0 165.256 12.9738 2144 118.495 648.771 431.247
860 0 171.182 12.3786 2119 120.842 648.798 426.87
861 0 177.204 13.2446 2347 119.415 648.781 425.181
862 0 183.327 13.7077 2513 116.766 649.065 423.213
863 0 187.279 14.15 2650 116.756 648.118 422.211
864 0 195.467 13.941 2725 118.502 648.385 413.971
865 0 200.371 14.1388 2833 117.611 648.714 412.182
866 0 205.422 12.6763 2604 120.532 649.037 413.839
867 0 211.452 13.4499 2844 120.403 649.091 406.094
868 0 216.372 12.4092 2685 123.328 648.621 406.13
869 0 225.445 13.8304 3118 119.72 649.091 401.205
870 0 232.538 12.7162 2957 123.083 648.6 396.002
871 0 238.369 12.6442 3014 122.452 648.689 393.072
872 0 240.476 12.0095 2888 125.448 649.144 392.829
873 0 241.278 11.8038 2848 126.386 649.358 393.362
874 0 240.35 12.2529 2945 127.369 648.558 394.232
875 0 240.205 12.327 2961 125.356 648.893 398.828
876 1 78.0625 12.5028 976 114.775 649.57 470.493
877 0 81.0586 11.8803 963 116.814 649.49 469.058
878 0 84.0968 13.1158 1103 114.92 649.655 465.856
879 0 88.208 12.856 1134 115.063 648.934 465.616
880 0 90.2799 13.8126 1247 113.435 648.939 462.082
881 0 92.1297 12.7646 1176 110.29 649.773 462.239
882 0 93.1794 12.4169 1157 111.558 649.286 465.985
883 0 96.259 10.9081 1050 113.75 649.307 463.81
884 0 100.242 11.6618 1169 112.893 649.956 460.534
885 0 103.157 11.8363 1221 113.13 649.42 454.51
886 0 107.256 11.9528 1282 113.15 649.731 454.942
887 0 111.254 10.8041 1202 114.151 649.3 454.676
888 0 115.337 11.3667 1311 112.924 649.31 453.667
889 0 119.284 12.4828 1489 111.12 649.306 446.931
890 0 124.266 11.2823 1402 112.271 648.932 448.524
891 0 129.415 12.5488 1624 108.848 649.256 445.486
892 0 131.206 11.5848 1520 112.095 648.901 441.692
893 0 136.306 11.6209 1584 111.924 649.044 436.46
894 1 73.1645 11.0573 809 111.341 649.796 469.017
895 0 79.0997 12.6549 1001 106.689 650.457 469.07
896 0 82.1386 12.8928 1059 106.686 650.279 467.299
897 0 85.1716 14.7115 1253 102.064 649.733 467.405
898 0 87.2792 12.1106 1057 108.589 649.892 465.781
899 0 89.1915 13.5327 1207 106.289 650.012 463.636
900 0 92.1301 13.2096 1217 107.691 649.38 462.671
901 0 92.1888 11.8453 1092 112.418 649.977 463.549
902 0 97.204 12.6744 1232 111.476 649.901 459.84
903 0 101.254 13.7476 1392 108.258 649.789 460.421
904 0 103.082 12.6404 1303 112.116 649.056 456.057
905 0 107.446 12.9181 1388 110.873 649.236 455.319
906 0 111.256 12.7723 1421 111.455 649.186 451.738
907 0 115.162 13.1467 1514 110.056 648.865 452.194
908 0 120.206 12.2872 1477 111.532 648.741 451.055
909 1 63.2123 11.2953 714 110.608 648.937 479.14
910 0 63.1104 11.6146 733 111.138 648.808 475.913
911 0 67.1793 12.3401 829 109.366 648.537 475.996
912 0 72.0768 13.222 953 104.391 647.935 477.957
913 0 72.0914 11.6935 843 108.358 647.828 478.32
914 0 75.1067 12.7019 954 106.795 648.008 473.379
915 0 76.1162 12.2313 931 108.382 647.534 473.865
916 0 81.0439 12.265 994 107.349 647.604 474.216
917 0 84.1123 12.947 1089 106.398 647.959 471.332
918 0 86.1397 13.838 1192 105.034 647.622 469.773
919 0 88.1208 13.7992 1216 106.19 647.879 467.535
920 0 92.2258 12.1658 1122 107.785 648.48 468.93
921 0 94.2996 12.1634 1147 109.69 648.535 464.191
922 0 97.1482 13.639 1325 105.666 648.766 464.205
923 0 102.133 14.4615 1477 104.62 648.871 459.574
924 0 106.181 14.8708 1579 103.314 647.905 460.405
925 0 109.194 13.9293 1521 105.981 648.799 457.999
926 0 113.102 13.9785 1581 106.037 648.421 452.741
927 0 116.231 12.7849 1486 109.706 648.435 452.868
928 0 120.17 13.4477 1616 108.545 648.801 451.859
929 1 63.0869 11.825 746 111.076 649.336 477.914
930 0 66.1891 12.2981 814 111.138 649.581 475.83
931 0 69.2053 15.0566 1042 104.446 649.321 472.985
932 0 70.1504 12.5017 877 106.475 649.341 475.894
933 0 74.2741 14.5003 1077 101.039 648.447 475.739
934 0 74.0834 13.3363 988 105.647 649.173 471.489
935 0 78.176 12.9963 1016 106.758 649.309 470.943
936 0 81.2319 14.1201 1147 104.71 649.439 470.433
937 0 82.2143 13.9392 1146 107.152 648.719 467.737
938 0 84.1803 14.3383 1207 108.227 648.528 462.96
939 0 88.3246 14.8996 1316 107.616 648.578 463.461
940 0 91.1473 13.6702 1246 111.489 648.48 461.418
941 0 95.3337 13.8671 1322 109.915 648.395 460.585
942 0 98.2308 13.9162 1367 110.372 648.69 459.416
943 0 100.198 13.2836 1331 113.076 648.47 458.766
944 0 103.311 13.9675 1443 113.176 648.667 455.221
945 0 110.334 14.2567 1573 111.224 648.732 454.434
946 1 56.1326 13.0584 733 111.933 648.188 478.849
947 0 56.1882 13.1522 739 111.763 648.731 478.482
948 0 57.1821 13.4133 767 112.04 648.302 477.768
949 0 59.1329 11.4319 676 117.328 648.608 477.488
950 0 58.2256 12.8981 751 116.786 648.647 473.939
951 0 62.2532 13.0596 813 113.727 649.077 475.523
952 0 64.1365 11.8965 763 117.975 648.041 472.984
953 0 68.2221 12.9723 885 114.42 648.087 472.189
954 0 70.1889 13.4779 946 113.366 648.789 471.61
955 0 72.2374 12.7081 918 114.561 649.11 471.986
956 0 74.4114 12.1352 903 116.441 648.563 469.525
957 0 79.356 12.8283 1018 113.645 648.515 466.581
958 0 79.4716 10.9599 871 119.308 648.721 465.315
959 0 82.6608 12.388 1024 113.985 648.455 464.382
960 0 84.1711 11.0964 934 117.203 648.009 461.669
961 0 89.263 11.5501 1031 114.924 648.241 461.471
962 0 93.3647 11.3747 1062 115.685 648.471 455.766
963 1 48.2325 11.88 573 112.199 648.351 480.023
964 0 50.2429 12.7779 642 109.665 648.886 478.83
965 0 48.0839 12.6446 608 110.475 648.581 477.426
966 0 53.1341 11.9132 633 110.706 648.662 477.068
967 0 51.0713 11.7287 599 113.18 648.898 475.79
968 0 54.2894 13.1517 714 109.396 648.888 476.176
969 0 51.1338 11.2255 574 117.798 648.033 473.197
970 0 57.1233 12.5518 717 111.771 649.192 472.953
971 0 61.2946 12.1055 742 111.489 648.503 473.414
972 0 61.1907 12.4365 761 112.979 648.428 473.498
973 0 63.1376 11.3245 715 115.919 648.874 471.455
974 0 63.2857 11.3612 719 117.327 649.288 469.281
975 0 65.1215 12.2847 800 114.948 648.91 469.327
976 0 69.1095 11.5903 801 115.767 649.091 467.788
977 0 72.1487 12.4188 896 113.331 650.022 467.475
978 0 73.1113 13.0486 954 112.9 649.187 467.067
979 0 76.3758 12.2945 939 115.01 649.18 466.818
980 0 78.2336 11.5935 907 117.463 648.835 464.773
981 0 81.2234 12.9027 1048 114.336 649.094 462.321
982 0 86.2628 11.3374 978 117.084 649.354 462.179
983 0 89.2881 11.8045 1054 116.496 649.284 462.454
984 0 90.0985 11.7649 1060 118.427 649.618 460.063
985 1 50.0587 10.0282 502 109.98 649.161 487.06
986 0 51.0895 10.3152 527 108.732 648.416 485.639
987 0 56.0916 11.8556 665 105.442 650.674 484.221
988 0 57.0421 10.8341 618 109.118 650.387 483.998
989 0 58.0769 11.8119 686 106.878 650.5 482.617
990 0 61.0496 11.7445 717 107.456 650.241 480.83
991 0 62.1774 11.4189 710 107.485 649.794 481.104
992 0 63.1342 11.5785 731 107.888 649.415 478.034
993 0 68.1222 12.6391 861 104.721 650.002 478.215
994 0 69.0693 11.1917 773 108.494 648.965 476.131
995 0 73.1005 11.0943 811 107.84 649.367 477.888
996 0 73.1129 12.2824 898 107.414 649.036 475.496
997 0 76.1944 11.6281 886 116.236 649.177 474.473
998 0 82.0648 12.3805 1016 113.805 648.245 473.429
999 0 83.1054 12.5263 1041 113.614 648.57 473.177
1000 0 87.0813 11.5754 1008 114.188 648.81 472.699
1001 0 89.0636 11.5086 1025 116.009 648.032 467.939
1002 0 91.1702 12.0653 1100 109.543 647.901 465.635
1003 0 93.1129 11.3196 1054 114.459 649.093 465.098
1004 1 50.051 10.8889 545 109.121 648.396 487.283
1005 0 53.0686 11.7395 623 106.279 648.445 485.238
1006 0 56.0874 10.8224 607 107.386 647.829 485.54
1007 0 56.1129 11.6016 651 107.788 648.773 484.565
1008 0 57.0479 11.2186 640 110.263 647.945 483.261
1009 0 54.0811 9.5967 519 115.572 648.778 483.782
1010 0 59.0421 10.5518 623 112.7 648.562 482.753
1011 0 61.0709 11.5603 706 111.339 647.994 481.591
1012 0 63.1185 11.5022 726 112.401 648.271 479.412
1013 0 66.1123 10.4822 693 109.157 647.737 476.343
1014 0 69.1497 12.3934 857 107.562 646.942 479.583
1015 0 71.2326 10.1077 720 113.643 647.885 479.453
1016 0 72.2705 12.3979 896 109.23 647.919 478.479
1017 0 76.1365 11.0591 842 113.296 648.156 475.083
1018 0 78.2137 11.5581 904 112.763 649.461 470.406
1019 0 80.2348 11.4913 922 114.371 649.479 468.661
1020 0 86.2111 11.4138 984 116.407 648.465 469.07
1021 1 44.018 9.20079 405 109.012 648.333 490.78
1022 0 47.1088 9.9769 470 107.645 648.677 489.198
1023 0 45.0581 10.4088 469 111.224 649.682 489.787
1024 0 47.0276 10.3556 487 112.651 650.006 488.099
1025 0 50.0544 11.068 554 109.168 650.626 487.458
1026 0 47.0397 9.6089 452 114.546 649.365 487.542
1027 0 50.0304 9.3743 469 114.32 650.128 486.292
1028 0 53.0486 9.78348 519 111.676 649.035 486.807
1029 0 52.0609 9.54652 497 113.062 649.398 484.714
1030 0 56.0452 10.2061 572 110.722 649.622 483.554
1031 0 57.0213 11.0134 628 109.384 649.79 481.661
1032 0 57.1163 10.1547 580 111.276 650.147 482.043
1033 0 59.1012 10.2028 603 110.554 649.648 480.887
1034 0 63.0575 11.101 700 107.926 649.449 480.48
1035 0 63.0913 9.95383 628 111.218 649.1 479.495
1036 0 64.1853 10.049 645 111.425 648.912 478.929
1037 0 69.0664 11.7278 810 107.64 649.714 477.088
1038 0 71.1142 11.7557 836 106.683 649.501 477.644
1039 0 72.1949 11.0119 795 109.813 648.683 474.482
1040 0 75.2443 11.2168 844 108.077 648.338 474.684
1041 0 76.222 10.3907 792 111.366 649.183 472.867
1042 0 83.1527 10.6551 886 108.664 647.345 471.451
1043 0 86.1378 11.3887 981 107.481 648.165 468.831
1044 1 47.0284 11.2911 531 106.343 647.879 485.693
1045 0 48.1875 10.4592 504 108.238 648.484 488.423
1046 0 50.1025 12.5343 628 102.753 648.51 486.268
1047 0 49.0531 11.1716 548 103.069 649.255 490.239
1048 0 50.0994 10.8584 544 104.673 648.998 487.145
1049 0 53.0886 11.3772 604 102.623 648.629 488.462
1050 0 54.088 10.9636 593 105.263 649.626 486.076
1051 0 55.1279 11.2103 618 105.136 649.217 484.71
1052 0 57.2542 11.056 633 105.147 648.548 485.028
1053 0 58.1007 10.6711 620 106.903 648.753 484.071
1054 0 56.1042 9.46454 531 110.755 648.674 484.299
1055 0 62.1523 11.9706 744 104.046 649.233 482.473
1056 0 62.1155 11.3337 704 107.666 649.004 480.854
1057 0 64.1874 10.4226 669 110.049 650.288 478.251
1058 0 68.0536 11.2411 765 108.175 650.59 478.038
1059 0 70.0765 11.7443 823 107.073 650.397 478.902
1060 0 73.1905 11.9278 873 106.608 649.375 477.558
1061 0 75.1223 11.1685 839 108.88 649.087 475.917
1062 0 75.1632 10.3907 781 111.542 648.809 471.544
1063 0 80.1045 12.6585 1014 106.64 649.552 472.425
1064 0 81.1576 10.4858 851 109.692 649.866 472.197
1065 1 47.0321 11.0775 521 106.171 650.731 488.472
1066 0 48.0382 11.0329 530 109.557 651.087 487.811
1067 0 49.1137 11.0356 542 100.258 650.72 490.712
1068 0 48.1661 12.1662 586 101.756 650.218 488.655
1069 0 53.1228 11.0875 589 102.173 650.616 486.048
1070 0 54.0407 11.5839 626 101.693 649.973 486.267
1071 0 54.1457 10.4348 565 106.414 650.409 486.855
1072 0 55.1858 11.6878 645 104.174 650.346 486.891
1073 0 58.1063 10.2915 598 107.293 650.048 486.12
1074 0 58.0846 10.5536 613 107.639 649.869 485.465
1075 0 60.0466 11.4245 686 106.045 650.057 486.026
1076 0 62.0736 10.9386 679 107.11 649.583 485.582
1077 0 64.1228 11.7587 754 107.981 648.737 481.367
1078 0 63.0959 10.1116 638 112.665 649.174 481.571
1079 0 67.1178 11.7555 789 109.185 649.57 480.035
1080 0 70.1504 11.5039 807 107.68 648.973 483.116
1081 0 72.078 12.7085 916 106.584 649.796 478.993
1082 0 73.0845 11.603 848 111.144 649.25 476.989
1083 0 77.0474 12.6026 971 108.482 648.767 476.548
1084 0 80.0477 13.5919 1088 105.874 648.631 475.53
1085 0 83.2028 12.2712 1021 106.395 649.063 473.741
1086 0 86.194 11.1029 957 108.708 648.705 470.566
1087 0 88.0365 11.4952 1012 108.581 648.451 468.93
1088 1 46.0992 9.69649 447 110.19 649.664 488.463
1089 0 47.0364 8.84422 416 110.731 649.286 488.245
1090 0 50.0723 11.6432 583 108.861 648.504 490.768
1091 0 51.0628 11.5936 592 110.056 648.443 490.438
1092 0 52.1483 11.2372 586 110.398 648.481 489.319
1093 0 51.1628 10.8477 555 132.535 649.454 490.009
1094 0 54.0888 12.0543 652 111.002 647.238 484.928
1095 0 56.0553 12.1844 683 109.906 646.796 486.671
1096 0 58.0742 11.7608 683 111.584 648.158 485.373
1097 0 60.137 13.2198 795 108.879 648.331 484.467
1098 0 62.0789 11.1632 693 113.231 648.118 486.326
1099 0 62.0624 12.4713 774 112.428 649.189 484.549
1100 0 65.1664 12.7213 829 111.743 649.103 482.536
1101 0 66.0225 11.8142 780 115.327 649.24 480.615
1102 0 67.1402 12.5409 842 113.613 649.304 481.329
1103 0 71.1472 12.7342 906 113.449 649.321 479.564
1104 0 73.1534 12.754 933 113.937 649.1 477.218
1105 0 75.0824 13.0523 980 113.269 649.445 477.886
1106 0 76.1721 13.0888 997 114.976 649.436 473.641
1107 0 81.1838 13.685 1111 112.645 649.989 474.35
1108 0 84.1593 13.6764 1151 112.482 649.129 474.315
1109 0 86.1495 14.2891 1231 111.641 649.49 473.175
1110 0 89.1272 13.9127 1240 112.19 649.06 472.584
1111 0 91.2263 13.6474 1245 113.908 648.782 470.184
1112 0 94.1433 13.9893 1317 113.768 649.39 467.144
1113 0 97.2038 14.1147 1372 113.792 649.219 464.73
1114 0 100.193 14.0428 1407 114.13 649.214 462.974
1115 0 103.101 12.7642 1316 117.022 649.356 464.347
1116 0 107.128 13.2178 1416 114.821 648.334 459.954
1117 0 109.178 13.0246 1422 118.727 648.257 457.385
1118 0 113.112 14.5784 1649 114.566 648.344 456.328
1119 0 115.179 12.511 1441 120.107 648.799 454.813
1120 0 121.209 12.5073 1516 118.123 647.929 453.141
1121 1 70.059 12.1612 852 112.201 649.038 480.094
1122 0 70.2065 11.6656 819 116.966 648.697 478.473
1123 0 74.2038 12.7217 944 118.73 648.268 477.182
1124 0 76.2259 13.5256 1031 117.174 648.208 475.104
1125 0 78.1906 13.0322 1019 118.661 648.979 474.358
1126 0 82.3517 13.3816 1102 116.73 649.397 472.442
1127 0 81.1946 11.8973 966 120.464 648.726 471.731
1128 0 84.1294 12.9562 1090 117.384 648.227 467.109
1129 0 87.1304 13.0609 1138 111.729 648.134 465.591
1130 0 88.0994 12.0773 1064 109.717 648.76 467.398
1131 0 92.1063 11.5193 1061 112.013 648.377 465.295
1132 0 95.0448 12.5414 1192 110.943 647.935 463.467
1133 0 98.1353 12.7375 1250 110.817 648.523 462.829
1134 0 103.165 13.3669 1379 109.756 647.562 461.469
1135 0 106.096 12.564 1333 111.203 648.016 460.162
1136 0 107.118 12.3042 1318 112.166 647.458 455.577
1137 0 115.112 12.5096 1440 112.044 647.811 456.509
1138 0 118.193 12.0397 1423 116.033 648.327 453.473
1139 1 65.1022 11.6279 757 102.268 648.362 483.12
1140 0 65.1889 10.2471 668 106.656 648.442 480.623
1141 0 65.1142 9.96711 649 108.872 648.636 480.174
1142 0 70.0942 12.2264 857 103.916 649.071 479.358
1143 0 71.1014 11.1109 790 107.244 648.366 478.123
1144 0 75.133 11.3133 850 106.988 648.428 476.658
1145 0 78.1337 12.2226 955 105.428 648.025 474.571
1146 0 80.0983 11.4859 920 107.546 647.551 475.486
1147 0 84.0816 12.7495 1072 105.664 648.049 472.884
1148 0 84.0893 11.1667 939 110.343 647.801 469.855
1149 0 89.0912 11.6398 1037 109.588 647.737 469.599
1150 0 92.0699 12.686 1168 107.77 647.103 468.057
1151 0 94.073 11.4486 1077 111.263 647.8 464.637
1152 0 99.0597 12.6489 1253 111.656 647.587 464.729
1153 0 102.084 12.7934 1306 111.55 647.872 463.864
1154 0 105.081 13.0851 1375 108.231 647.485 462.393
1155 0 108.064 11.7338 1268 112.399 647.439 460.172
1156 0 111.089 11.6753 1297 112.167 647.585 458.618
1157 0 116.188 12.0925 1405 111.593 647.211 454.029
1158 0 120.085 12.2246 1468 110.252 646.722 453.347
1159 1 64.0374 11.2591 721 105.402 647.595 480.886
1160 0 64.177 11.7955 757 112.576 648.235 479.379
1161 0 66.0878 11.0005 727 107.93 647.11 478.656
1162 0 68.17 10.9726 748 108.889 647.156 477.433
1163 0 71.1143 10.6167 755 110.718 647.342 476.257
1164 0 74.2037 12.0075 891 107.786 646.842 475.62
1165 0 77.1578 12.779 986 106.593 647.698 474.352
1166 0 77.1305 12.0445 929 108.755 647.835 475.214
1167 0 78.1814 11.0129 861 112.282 647.551 472.309
1168 0 83.1653 12.0363 1001 109.793 648.057 470.725
1169 0 86.1477 12.1884 1050 113.984 647.469 470.459
1170 0 87.2159 12.8302 1119 114.276 647.19 469.385
1171 0 88.177 11.2501 992 119.053 648.075 466.505
1172 0 93.1943 11.417 1064 119.759 647.527 464.235
1173 0 95.156 11.4759 1092 119.297 647.629 466.542
1174 0 99.1738 11.9588 1186 114.583 648.078 463.281
1175 0 101.087 12.2468 1238 114.1 647.386 461.742
1176 0 104.217 12.3205 1284 115.809 646.775 457.177
1177 0 107.113 12.5475 1344 116.903 648.083 458.101
1178 0 111.142 11.7867 1310 118.982 648.048 457.205
1179 0 115.198 12.1617 1401 118.915 647.041 451.123
1180 0 118.197 11.1508 1318 121.698 647.675 450.904
1181 0 124.212 12.6718 1574 118.671 648.397 448.298
1182 0 126.194 11.3476 1432 122.304 648.154 449.93
1183 0 132.237 12.5003 1653 122.198 647.036 443.802
1184 0 136.169 12.9472 1763 123.622 647.147 438.623
1185 0 141.31 12.0869 1708 128.047 646.794 439.013
1186 0 145.112 12.2251 1774 129.904 647.112 440.043
1187 1 79.0449 11.601 917 125.614 647.653 471.931
1188 0 83.0432 12.8247 1065 124.211 648.291 470.05
1189 0 86.1157 12.669 1091 123.426 648.445 472.331
1190 0 88.1521 11.9906 1057 127.43 648.921 469.055
1191 0 90.076 12.0565 1086 129.928 648.277 465.567
1192 0 94.0549 13.3326 1254 125.392 648.847 465.75
1193 0 96.0774 13.1665 1265 126.617 648.968 464.424
1194 0 99.0602 12.6792 1256 128.592 649.287 462.127
1195 0 102.14 12.6689 1294 128.193 648.712 462.178
1196 0 103.124 11.8111 1218 132.534 648.204 459.296
1197 0 106.128 12.7676 1355 131.374 648.148 456.785
1198 0 109.167 13.0992 1430 130.262 647.926 458.53
1199 0 115.163 13.3463 1537 128.656 647.642 454.936
1200 0 119.157 13.5955 1620 128.834 647.4 455.152
1201 0 121.138 12.5477 1520 134.368 647.574 451.08
1202 1 70.1619 10.8749 763 129.82 648.453 477.409
1203 0 69.1441 9.70438 671 122.501 647.289 468.605
1204 0 73.2749 11.5592 847 118.686 646.966 468.6
1205 0 75.1553 11.6026 872 118.837 646.591 469.452
1206 0 78.0963 11.7419 917 117.427 647.196 468.639
1207 0 80.1269 11.5567 926 119.893 647.149 467.338
1208 0 81.2179 10.5765 859 124.602 646.903 463.651
1209 0 86.1631 11.1301 959 117.334 646.581 469.689
1210 0 88.0614 11.7532 1035 122.194 645.85 470.787
1211 0 91.1066 11.064 1008 121.374 646.412 469.58
1212 0 94.1115 12.177 1146 119.002 646.715 467.688
1213 0 98.0993 12.4771 1224 119.19 647.025 463.891
1214 0 101.197 12.2138 1236 118.536 646.816 465.412
1215 0 107.169 12.9795 1391 118.455 646.78 459.595
1216 1 54.0965 10.5552 571 121.322 645.804 484.951
1217 0 58.1831 11.5669 673 115.691 646.929 484.633
1218 0 59.0931 12.0826 714 115.864 646.676 483.431
1219 0 61.1763 12.2433 749 118.734 646.776 483.386
1220 0 62.2489 12.8516 800 116.536 646.602 482.217
1221 0 67.202 13.5859 913 113 647.312 479.658
1222 1 129.321 13.3621 1728 125.234 647.94 450.395
1223 1 65.2604 11.5537 754 142.058 647.451 481.883
1224 0 67.3533 10.7641 725 126.39 647.199 478.44
1225 0 68.129 11.9039 811 124.608 647.044 478.004
1226 0 72.3407 12.6623 916 121.476 647.594 477.164
1227 0 75.3115 12.3753 932 122.489 647.354 476.334
1228 0 77.4919 12.5303 971 122.733 647.677 473.789
1229 0 79.0937 12.6306 999 124.379 647.334 473.13
1230 0 82.1062 12.4595 1023 124.238 647.143 471.333
1231 0 84.1092 12.9593 1090 122.686 647.027 469.346
1232 0 85.0673 12.6253 1074 125.384 646.787 467.453
1233 0 88.1199 12.449 1097 126.325 646.485 465.417
1234 0 88.0563 12.1854 1073 127.851 646.954 465.008
1235 0 93.0782 13.2039 1229 125.135 646.745 461.462
1236 0 95.0561 12.4663 1185 126.368 646.156 462.875
1237 0 97.0618 14.0632 1365 124.277 645.459 458.159
1238 0 101.114 12.7776 1292 126.771 646.433 456.829
1239 0 105.2 14.3157 1506 122.776 646.894 454.419
1240 0 109.348 13.0226 1424 124.989 645.967 453.579
1241 0 108.218 12.0867 1308 129.361 646.213 451.451
1242 0 114.36 13.3963 1532 124.499 646.815 449.733
1243 0 116.281 12.7364 1481 126.368 646.475 450.625
1244 0 121.153 11.1594 1352 128.91 646.101 446.299
1245 0 125.404 12.998 1630 123.986 646.728 444.828
1246 1 70.2764 11.1986 787 123.694 646.282 471.202
1247 0 73.1063 11.8184 864 122.286 646.438 473.221
1248 0 75.4143 12.544 946 121.608 646.832 470.035
1249 0 76.1514 12.4226 946 122.634 646.811 467.192
1250 0 78.2605 12.4712 976 123.204 646.281 465.106
1251 0 84.2407 12.6898 1069 121.616 646.209 465.053
1252 0 84.1198 12.5416 1055 123.018 646.286 466.245
1253 0 87.289 12.5445 1095 123.098 646.847 463.658
1254 0 90.1398 13.7675 1241 119.757 647.009 462.594
1255 0 92.1055 13.5063 1244 120.955 647.304 461.101
1256 0 95.2048 14.0434 1337 120.283 646.592 459.842
1257 0 97.2975 13.3508 1299 123.509 646.026 455.232
1258 0 102.188 13.8569 1416 122.943 646.343 455.281
1259 0 104.262 13.5237 1410 123.835 646.311 456.03
1260 0 108.317 13.1189 1421 125.541 646.445 451.723
1261 0 111.345 13.3279 1484 126.218 646.193 449.215
1262 0 113.451 13.4596 1527 124.902 646.515 452.086
1263 0 116.289 12.4947 1453 127.833 647.12 448.597
1264 1 65.2901 9.92493 648 124.67 646.792 474.846
1265 0 68.3637 11.4388 782 121.138 646.676 471.497
1266 0 71.2191 11.8648 845 111.676 647.183 472.52
1267 0 73.2397 11.8242 866 112.244 647.166 471.706
1268 0 74.2655 11.3781 845 116.002 647.337 469.193
1269 0 76.2038 12.624 962 113.47 647.09 470.075
1270 0 80.1991 12.07 968 115.417 647.205 466.788
1271 0 81.2079 12.2771 997 117.054 647.203 466.809
1272 0 85.2362 12.5416 1069 116.873 647.355 463.646
1273 0 87.2521 13.5813 1185 117.327 647.4 462.559
1274 0 90.0858 13.9312 1255 123.348 647.644 465.034
1275 0 94.2992 13.5632 1279 123.837 647.431 462.726
1276 0 96.2511 14.3479 1381 122.868 647.705 460.364
1277 0 96.2095 13.1172 1262 127.51 646.635 457.908
1278 0 98.4269 12.8928 1269 128.97 647.23 454.252
1279 0 104.283 12.6387 1318 128.341 647.058 456.48
1280 0 106.163 12.8671 1366 129.419 647.083 452.855
1281 0 109.408 12.4854 1366 131.219 646.682 451.08
1282 0 116.214 13.7505 1598 127.235 647.18 447.454
1283 1 60.1165 10.0305 603 129.967 647.33 475.317
1284 0 63.2447 11.0997 702 128.034 647.323 473.739
1285 0 67.241 12.1801 819 124.458 646.883 473.418
1286 0 68.2343 12.9554 884 125.318 646.708 473.632
1287 0 69.1367 12.468 862 128.269 645.803 475.954
1288 0 74.2173 13.0428 968 124.004 647.083 477.95
1289 0 77.219 12.8854 995 125.738 646.77 474.994
1290 0 78.2697 13.198 1033 126.177 647.535 474.642
1291 0 81.2908 14.2698 1160 123.769 647.203 472.605
1292 0 83.1216 13.4863 1121 126.85 646.526 470.925
1293 0 85.1124 13.4528 1145 127.747 647.461 469.079
1294 0 86.1926 13.6903 1180 127.184 646.422 467.303
1295 0 89.1311 13.2614 1182 126.973 647.247 464.693
1296 0 92.2585 13.1912 1217 127.622 647.002 461.002
1297 0 93.18 13.49 1257 127.545 646.824 460.727
1298 0 97.1636 13.3486 1297 128.332 646.32 457.469
1299 0 102.227 13.4897 1379 126.189 646.719 457.705
1300 0 106.441 13.9326 1483 125.019 646.492 453.951
1301 0 108.168 13.5068 1461 127.031 647.437 453.92
1302 1 58.2326 10.8874 634 126.55 647.503 479.203
1303 0 60.122 11.7261 705 129.023 646.93 478.526
1304 0 62.1885 12.3817 770 127.306 647.274 476.748
1305 0 63.276 11.4735 726 127.616 648.331 476.921
1306 0 65.2505 12.7355 831 126.179 647.899 473.605
1307 0 68.225 12.2389 835 127.192 647.304 472.41
1308 0 71.3167 12.2973 877 126.838 647.384 470.828
1309 0 72.122 12.8255 925 126.897 647.151 471.12
1310 0 74.279 13.3685 993 126.093 647.311 470.2
1311 0 75.1316 11.7527 883 126.914 647.912 468.438
1312 0 77.1038 12.6194 973 123.632 647.174 467.792
1313 0 81.3238 13.0835 1064 122.332 647.732 467.461
1314 0 82.2064 12.9917 1068 126.417 647.099 465.146
1315 0 84.0534 13.1464 1105 125.957 647.513 464.165
1316 0 87.1612 12.9071 1125 126.632 647.933 463.671
1317 0 91.2988 13.9323 1272 128.028 647.506 466.702
1318 0 94.1489 14.8382 1397 125.911 647.164 464.711
1319 0 97.2508 13.6657 1329 129.438 646.595 462.038
1320 0 99.1423 13.1326 1302 130.853 647.295 461.833
1321 0 101.184 13.0357 1319 131.854 646.397 460.167
1322 1 59.1199 12.2801 726 127.989 646.544 481.701
1323 0 61.1856 11.8819 727 126.188 646.876 482.197
1324 0 63.3723 13.8546 878 124.248 647.333 478.703
1325 0 65.1764 11.9982 782 118.82 646.298 475.613
1326 0 67.162 12.8346 862 114.53 647.986 479.058
1327 0 68.1408 11.3588 774 118.868 646.919 477.891
1328 0 70.1333 11.3641 797 120.133 647.335 477.646
1329 0 73.1993 13.2242 968 118.426 647.765 475.427
1330 0 76.1857 13.9528 1063 116.272 648.259 475.547
1331 0 76.0964 12.9704 987 120.515 647.739 475.514
1332 0 80.365 13.252 1065 121.934 648.255 472.112
1333 0 82.0809 13.7791 1131 121.103 647.315 472.543
1334 0 85.0717 13.9882 1190 121.529 647.821 469.872
1335 0 89.1717 13.8273 1233 121.303 647.226 471.041
1336 0 90.0507 14.0921 1269 122.236 647.214 469.489
1337 0 92.1022 13.4416 1238 125.405 647.863 466.863
1338 0 96.1451 14.0829 1354 123.369 647.667 466.965
1339 0 98.1121 13.3011 1305 125.982 646.871 464.335
1340 0 103.219 13.4666 1390 126.029 647.268 461.747
1341 0 108.299 14.9771 1622 121.213 647.819 459.252
1342 0 110.33 14.1484 1561 125.399 648.04 458.867
1343 0 117.465 14.9576 1757 128.201 647.966 454.59
1344 0 119.331 13.7936 1646 128.188 647.652 454.764
1345 1 63.1456 12.4157 784 125.778 648.154 481.823
1346 0 63.0891 12.728 803 127.893 648.484 480.467
1347 0 67.2044 13.7491 924 123.466 647.861 477.004
1348 0 69.2029 14.2769 988 122.297 648.484 475.856
1349 0 72.2637 13.9489 1008 123.983 647.557 473.003
1350 0 72.5237 12.7407 924 127.821 647.576 470.731
1351 0 76.3221 14.2685 1089 123.725 647.925 470.072
1352 0 77.2579 13.6297 1053 126.483 647.516 469.292
1353 0 80.302 13.0134 1045 128.68 647.402 467.09
1354 0 82.4455 13.1481 1084 127.407 647.987 469.559
1355 0 84.6038 12.7299 1077 130.658 647.702 464.381
1356 0 88.4668 13.7792 1219 127.081 647.203 465.747
1357 0 90.4325 13.4354 1215 128.872 647.716 462.447
1358 0 91.5777 12.5795 1152 131.109 647.953 462.32
1359 0 96.35 13.2745 1279 129.813 646.692 458.78
1360 0 98.4631 12.949 1275 131.58 646.191 458.424
1361 0 101.479 12.8499 1304 130.862 646.655 457.918
1362 0 107.645 14.0927 1517 126.534 646.154 454.312
1363 0 110.473 13.225 1461 128.802 646.376 452.827
1364 0 116.368 13.6378 1587 127.061 646.561 451.604
1365 1 64.2481 12.1404 780 119.119 646.565 478.869
1366 0 66.0993 11.513 761 122.518 647.016 480.078
1367 0 68.1004 12.9221 880 120.66 647.239 476.114
1368 0 70.1004 12.0827 847 122.883 647.366 474.993
1369 0 72.2195 11.6035 838 124.344 646.377 471.877
1370 0 74.3057 11.5065 855 123.712 646.902 471.963
1371 0 78.173 12.0502 942 123.458 647.238 470.261
1372 0 82.249 13.2646 1091 120.06 646.422 467.17
1373 0 82.3937 12.501 1030 123.431 647.007 466.858
1374 0 85.2158 12.6737 1080 124.344 646.788 464.641
1375 0 88.4214 12.6779 1121 124.416 646.577 464.362
1376 0 89.2774 12.3996 1107 126.899 646.678 461.706
1377 0 93.3073 12.9572 1209 126.006 647.177 461.129
1378 0 96.3187 12.8843 1241 126.703 646.526 459.712
1379 0 98.1988 12.6784 1245 128.767 646.603 459.018
1380 0 101.323 12.6624 1283 129.826 646.991 455.694
1381 0 104.332 12.6807 1323 130.506 646.833 453.971
1382 0 110.242 12.5542 1384 128.542 647.702 456.531
1383 0 112.361 12.3709 1390 128.455 647.06 454.067
1384 1 65.3111 11.1773 730 123.362 647.248 477.44
1385 0 67.1526 10.7963 725 123.794 648.004 476.152
1386 0 67.1639 10.7945 725 136.034 648.029 476.246
1387 0 71.1182 11.5723 823 124.346 647.676 470.069
1388 0 67.0855 11.612 779 116.284 648.177 466.353
1389 0 73.1704 10.414 762 117.972 647.705 466.886
1390 0 75.0677 11.0434 829 116.998 647.749 465.241
1391 0 80.1406 11.5173 923 115.649 646.969 462.082
1392 0 82.1752 10.8184 889 117.814 647.21 465.306
1393 0 82.2353 10.324 849 119.068 647.277 464.425
1394 0 87.072 11.4962 1001 114.503 648.451 468.318
1395 0 92.1464 12.0677 1112 113.479 648.262 467.487
1396 0 93.1684 11.4417 1066 116.654 648.604 465.432
1397 0 97.1239 11.6861 1135 117.068 648.344 463.907
1398 0 99.2334 12.0222 1193 118.713 648.423 461.22
1399 0 103.099 11.8236 1219 119.284 647.964 461.667
1400 0 105.107 11.5786 1217 121.244 648.342 457.73
1401 0 109.126 11.8853 1297 117.877 648.244 461.678
1402 0 113.182 11.7599 1331 119.338 648.472 453.991
1403 1 60.0541 10.1575 610 111.421 648.838 481.459
1404 0 64.0666 12.487 800 104.565 648.111 478.85
1405 0 65.1248 11.6546 759 108.988 647.916 478.112
1406 0 67.0492 12.3342 827 107.411 648.622 477.209
1407 0 68.0688 11.9291 812 108.44 647.782 475.973
1408 0 70.1288 12.1063 849 107.837 648.323 476.287
1409 0 72.0783 11.5291 831 110.576 648.194 473.064
1410 0 72.1686 10.7942 779 113.257 647.772 472.728
1411 0 75.153 12.0554 906 109.962 648.184 472.461
1412 0 78.1025 11.8306 924 111.208 647.931 470.33
1413 0 82.1536 12.7444 1047 108.509 647.648 469.736
1414 0 82.1207 11.3735 934 113.435 647.704 470.024
1415 0 84.2255 11.1605 940 115.296 648.049 466.856
1416 0 89.1884 12.995 1159 111.325 647.803 464.726
1417 0 92.1752 12.9861 1197 112.292 647.861 463.159
1418 0 94.1354 12.312 1159 114.23 647.651 462.243
1419 0 96.1391 10.8489 1043 120.25 647.113 459.267
1420 0 99.1813 10.8892 1080 119.821 647.33 460.292
1421 1 54.1035 10.2581 555 119.236 648.184 482.613
1422 0 55.0572 10.5163 579 118.34 648.351 481.777
1423 0 58.146 11.6431 677 112.696 648.65 480.838
1424 0 60.311 12.1537 733 114.969 647.482 479.454
1425 0 61.2725 11.049 677 118.581 648.362 479.236
1426 0 61.3386 11.1512 684 119.594 648.972 477.076
1427 0 64.3144 11.9724 770 117.725 647.686 477.147
1428 0 66.4284 11.5463 767 118.433 649.005 477.681
1429 0 69.3079 11.687 810 118.894 648.29 476.827
1430 0 70.2726 12.4373 874 118.048 648.487 475.072
1431 0 73.3718 12.1027 888 119.173 648.467 475.099
1432 0 74.323 10.9926 817 124.187 647.882 471.378
1433 0 78.2949 13.1937 1033 118.395 647.507 471.039
1434 0 80.1726 11.6998 938 124.89 647.868 469.774
1435 0 80.1654 11.9752 960 126.38 648.264 467.069
1436 0 83.1732 12.3597 1028 126.271 647.845 467.3
1437 0 86.3269 11.7229 1012 128.868 648.048 466.31
1438 0 87.2799 12.248 1069 129.415 647.867 465.619
1439 0 92.5348 13.1518 1217 127.382 647.259 462.021
1440 0 94.4269 11.5539 1091 132.068 647.572 461.676
1441 0 99.3815 13.2017 1312 128.544 646.952 457.944
1442 0 102.414 14.0508 1439 126.752 646.995 458.189
1443 0 106.442 12.4481 1325 132.446 647.522 455.887
1444 0 108.449 14.191 1539 128.68 647.673 452.93
1445 0 112.563 13.1482 1480 131.826 647.014 453.607
1446 0 115.459 13.2774 1533 132.207 646.577 451.748
1447 0 117.522 12.4487 1463 135.699 647.07 450.897
1448 1 63.2346 13.5843 859 124.623 646.744 475.986
1449 0 64.3023 13.1411 845 126.657 645.862 477.743
1450 0 64.0993 13.0735 838 130.43 645.692 478.286
1451 0 67.0608 13.9575 936 127.097 646.27 477.594
1452 0 69.1237 11.8049 816 131.631 645.473 479.534
1453 0 72.0706 12.5433 904 130.523 646.086 474.916
1454 0 75.1615 12.9188 971 128.449 645.545 475.825
1455 0 75.09 12.5583 943 131.104 645.445 474.684
1456 0 75.1434 12.2699 922 134.037 646.394 473.611
1457 0 79.151 13.3921 1060 129.794 646.581 472.978
1458 0 82.0697 12.2822 1008 133.784 646.219 471.238
1459 0 84.1797 13.4712 1134 130.514 645.819 468.044
1460 0 85.1137 13.0179 1108 133.053 645.514 465.329
1461 0 89.0541 13.037 1161 131.531 646.14 466.931
1462 0 92.1793 13.5822 1252 129.571 646.304 465.772
1463 0 95.0561 13.3605 1270 129.587 646.434 465.511
1464 0 95.112 11.8492 1127 133.827 645.947 463.355
1465 0 101.192 14.1019 1427 127.696 645.485 460.762
1466 0 105.164 14.5202 1527 125.99 645.099 459.207
1467 0 107.142 14.8402 1590 125.519 645.392 457.424
1468 0 109.162 13.5029 1474 130.603 646.616 457.554
1469 0 113.135 14.2396 1611 127.66 646.284 455.675
1470 0 119.349 14.8221 1769 124.586 645.927 453.997
1471 0 122.201 14.6971 1796 122.822 646.611 449.549
1472 1 68.1718 10.7082 730 122.559 646.158 479.344
1473 0 70.1675 12.7552 895 118.312 645.975 476.885
1474 0 72.0709 12.0714 870 117.598 645.847 475.187
1475 0 75.1202 13.6714 1027 113.295 645.122 475.292
1476 0 78.0981 12.894 1007 115.38 645.431 475.27
1477 0 77.1133 12.6048 972 119.026 645.29 471.649
1478 0 83.1296 12.8234 1066 117.462 645.638 470.749
1479 0 83.1296 12.7993 1064 149.937 646.648 470.64
1480 0 87.1763 12.9852 1132 118.969 645.92 467.903
1481 0 89.172 12.9973 1159 121.462 645.157 464.506
1482 0 93.1178 13.2413 1233 120.052 646.371 463.901
1483 0 97.1777 13.3878 1301 118.166 645.985 464.589
1484 0 98.153 13.0205 1278 119.715 646.634 463.887
1485 0 99.2444 12.4541 1236 122.868 646.107 457.15
1486 0 104.164 11.5778 1206 123.532 645.66 459.614
1487 0 109.118 13.0318 1422 119.604 645.045 457.844
1488 0 114.103 13.3389 1522 119.591 644.901 453.353
1489 0 114.176 11.5086 1314 125.715 645.221 453.132
1490 0 121.233 12.8595 1559 121.07 644.942 452.736
1491 1 68.0483 11.8592 807 118.867 645.654 476.602
1492 0 70.0696 11.6598 817 118.797 648.252 476.655
1493 0 71.1682 12.2386 871 121.155 648.156 474.14
1494 0 75.0547 11.898 893 121.794 648.226 474.646
1495 0 77.1278 11.9801 924 121.47 648.082 472.166
1496 0 80.0998 13.3708 1071 118.102 647.835 472.83
1497 0 82.1243 11.58 951 122.232 647.658 471.651
1498 0 83.1422 11.4262 950 118.969 648.183 474.422
1499 0 83.1649 10.0403 835 124.921 647.946 471.145
1500 0 89.2045 11.255 1004 122.726 646.913 469.175
1501 0 92.2458 13.4207 1238 118.963 647.002 468.326
1502 0 93.1984 11.3199 1055 125.613 646.99 466.254
1503 0 95.2209 12.0877 1151 118.167 647.021 462.72
1504 0 97.1223 11.5627 1123 121.549 647.523 464.737
1505 0 99.1685 11.062 1097 125.412 646.891 461.845
1506 0 103.131 13.1969 1361 116.525 647.06 462.297
1507 0 102.172 12.0581 1232 129.28 646.809 462.006
1508 0 104.24 13.7567 1434 125.615 647.219 460.298
1509 0 107.163 12.5136 1341 130.16 646.532 458.964
1510 0 109.255 11.6974 1278 132.29 646.703 455.918
1511 1 59.1316 9.09835 538 127.745 647.608 479.766
1512 0 60.0274 10.6118 637 120.19 647.518 473.014
1513 0 63.0816 9.90779 625 117.795 648.168 477.074
1514 0 66.2932 12.2637 813 119.525 647.556 480.951
1515 0 69.2318 11.8587 821 120.295 647.207 479.866
1516 0 70.2021 11.88 834 121.118 646.965 477.577
1517 0 74.1848 12.4823 926 118.179 647.828 476.148
1518 0 73.078 11.563 845 121.992 647.576 475.293
1519 0 76.2006 11.5485 880 121.749 647.132 475.527
1520 0 78.3015 12.669 992 119.198 647.843 475.819
1521 0 77.2497 11.3787 879 125.16 647.676 472.942
1522 0 81.2922 12.1537 988 122.999 647.323 472.234
1523 0 83.1725 13.0813 1088 120.014 646.582 470.416
1524 0 85.2161 12.1808 1038 121.699 646.79 471.122
1525 0 86.1625 11.6872 1007 116.855 647.151 468.594
1526 0 89.0937 11.4823 1023 118.253 647.1 469.196
1527 0 93.1323 12.9279 1204 114.759 647.16 469.986
1528 0 94.2033 11.7299 1105 120.442 646.774 466.106
1529 0 95.1626 11.8849 1131 121.549 646.668 463.378
1530 1 52.0397 10.7226 558 120.265 647.495 488.367
1531 0 55.016 10.706 589 120.134 647.146 487.132
1532 0 55.04 11.5916 638 120.038 647.806 487.796
1533 0 57.0699 12.2131 697 119.703 647.605 486.729
1534 0 58.1383 11.8166 687 119.981 647.17 485.913
1535 0 59.1119 11.9096 704 121.095 646.006 483.06
1536 0 60.1048 12.578 756 119.462 646.292 482.722
1537 0 64.1218 13.1936 846 117.463 645.677 481.531
1538 0 64.1368 12.0991 776 120.976 646.026 482.468
1539 0 67.0902 12.282 824 121.021 646.47 480.291
1540 0 67.1155 13.0372 875 121.237 646.542 479.944
1541 0 71.0594 12.4684 886 121.865 646.335 478.807
1542 0 73.1078 12.0233 879 122.692 646.096 477.824
1543 0 75.1102 13.8463 1040 118.62 645.976 477.748
1544 0 77.0675 13.1573 1014 121.264 646.769 478.519
1545 0 80.0818 12.7869 1024 122.552 646.525 474.93
1546 0 82.0856 13.0352 1070 122.588 645.865 471.786
1547 0 84.0767 13.7731 1158 120.377 645.425 473.635
1548 0 85.0651 12.943 1101 123.462 645.58 472.647
1549 0 89.0729 12.8883 1148 124.205 645.855 471.556
1550 0 92.0873 12.8574 1184 124.476 645.312 469.296
1551 0 95.1837 12.7543 1214 124.171 645.946 468.53
1552 0 96.1558 12.4381 1196 127.409 645.747 463.514
1553 0 99.1578 13.423 1331 124.282 645.636 462.375
1554 0 105.085 15.3686 1615 117.607 645.484 462.349
1555 0 107.167 12.9891 1392 123.749 645.412 462.328
1556 0 109.132 12.9019 1408 124.47 645.545 457.3
1557 1 57.0434 10.1852 581 125.781 645.477 485.909
1558 0 61.0809 11.1 678 121.68 646.296 484.088
1559 0 63.1662 11.2877 713 121.672 646.181 480.872
1560 0 66.1467 12.6839 839 114.188 646.254 481.178
1561 0 66.0542 12.2172 807 116.673 646.559 479.389
1562 0 70.1262 13.2333 928 113.123 645.89 478.536
1563 0 73.0517 13.6752 999 111.713 646.245 476.963
1564 0 73.0732 12.3438 902 116.122 645.979 476.479
1565 0 75.2029 12.4862 939 115.742 646.497 475.373
1566 0 79.1528 12.4064 982 115.064 646.217 473.158
1567 0 82.1729 12.7901 1051 114.235 646.335 471.64
1568 0 85.0647 12.8608 1094 113.797 645.924 470.669
1569 0 86.0998 12.3578 1064 116.499 645.334 470.661
1570 0 88.1111 12.8247 1130 115.889 645.135 468.855
1571 0 89.0967 11.1564 994 119.782 645.768 466.65
1572 0 92.0674 12.3605 1138 116.467 645.126 468.765
1573 0 96.1429 13.6463 1312 113.252 645.889 464.371
1574 0 100.143 13.5007 1352 113.022 645.774 462.993
1575 0 101.153 11.9719 1211 117.937 645.066 459.851
1576 0 105.11 11.997 1261 117.784 645.531 457.32
1577 0 108.125 12.837 1388 116.916 645.586 454.338
1578 0 112.126 12.1649 1364 117.84 644.452 457.965
1579 0 117.071 13.0775 1531 116.214 644.341 454.37
1580 0 121.128 12.4991 1514 118.135 644.106 454.572
1581 0 123.069 13.3502 1643 116.848 644.524 446.646
1582 0 129.173 12.9748 1676 118.045 644.119 448.59
1583 0 134.098 12.4088 1664 119.582 643.793 446.066
1584 0 138.241 12.6518 1749 118.918 643.761 443.931
1585 0 144.116 13.385 1929 117.196 643.895 438.7
1586 0 148.369 14.2483 2114 116.287 644.544 434.595
1587 0 150.273 11.7254 1762 122.932 644.709 431.997
1588 0 157.33 13.9961 2202 118.744 643.663 427.002
1589 0 163.243 13.7525 2245 119.185 643.651 425.532
1590 0 168.206 13.6915 2303 120.67 643.695 423.516
1591 0 171.174 13.4542 2303 121.95 643.413 419.335
1592 0 178.251 12.8471 2290 123.717 644.217 418.156
1593 0 183.235 13.1743 2414 122.849 644.623 411.89
1594 0 191.352 12.8089 2451 122.779 644.826 412.871
1595 0 196.474 13.3097 2615 121.124 644.721 403.511
1596 0 206.365 13.1127 2706 122.569 644.756 403.009
1597 1 107.327 12.4013 1331 114.65 645.334 458.974
1598 0 108.406 12.3887 1343 119.477 644.451 456.369
1599 0 113.292 13.3548 1513 117.056 645.116 459.064
1600 0 117.213 13.8381 1622 116.612 645.467 454.494
1601 0 121.217 13.5048 1637 116.081 644.866 452.777
1602 0 124.131 13.526 1679 118.553 644.228 448.16
1603 0 129.2 13.7152 1772 117.123 643.872 444.322
1604 0 135.15 13.0669 1766 116.473 644.205 445.262
1605 0 137.178 13.7413 1885 117.272 644.005 441.61
1606 0 141.227 12.9083 1823 119.727 644.542 441.054
1607 0 147.299 12.4509 1834 120.358 644.445 439.098
1608 0 151.296 12.697 1921 120.607 644.917 435.305
1609 0 156.357 12.2924 1922 122.077 644.685 425.867
1610 0 164.25 14.6728 2410 115.738 643.82 426.575
1611 0 168.337 14.067 2368 117.448 644.196 428.502
1612 0 176.321 13.5832 2395 118.559 644.628 425.487
1613 0 178.184 12.3861 2207 122.267 643.868 421.271
1614 0 186.24 13.6275 2538 119.047 643.596 420.328
1615 0 190.283 12.9544 2465 121.371 644.592 417.254
1616 0 198.36 13.7881 2735 119.954 643.862 405.738
1617 0 204.382 14.3604 2935 118.222 643.597 403.011
1618 0 207.226 13.478 2793 120.464 644.038 406.926
1619 0 215.197 11.2269 2416 125.103 643.862 403.596
1620 0 226.243 13.5562 3067 119.551 642.812 395.523
1621 1 172.121 12.5377 2158 117.468 643.989 423.949
1622 0 179.28 12.7733 2290 116.148 643.548 424.904
1623 0 186.274 13.4157 2499 115.573 643.77 422.283
1624 0 190.296 12.6803 2413 119.109 642.951 411.504
1625 0 198.246 13.7859 2733 116.188 642.99 413.094
1626 0 203.251 13.4661 2737 117.281 643.14 413.989
1627 0 212.255 13.0079 2761 119.833 643.671 409.411
1628 0 217.424 14.0555 3056 119.18 643.418 406.538
1629 0 225.31 13.75 3098 120.361 643.272 394.066
1630 0 233.361 13.6013 3174 121.466 643.662 392.898
1631 0 241.462 12.971 3132 122.535 643.496 390.914
1632 1 181.376 11.9586 2169 118.177 643.538 420.941
1633 0 187.275 13.029 2440 115.878 643.453 421.589
1634 0 189.332 13.067 2474 119.783 643.933 412.992
1635 0 196.249 12.9122 2534 122.639 643.477 410.996
1636 0 205.374 13.4194 2756 121.85 644.203 411.852
1637 0 210.264 13.1834 2772 121.304 643.193 407.435
1638 0 216.167 13.3415 2884 123.318 644.159 405.991
1639 0 222.216 13.0909 2909 124.564 643.311 400.366
1640 0 229.299 13.0049 2982 124.879 643.826 396.535
1641 1 241.4 13.9519 3368 121.412 643.792 391.58
1642 0 246.503 13.1276 3236 122.528 644.212 386.658
1643 0 255.534 13.3251 3405 122.372 645.148 382.759
1644 0 264.419 14.5111 3837 123.398 644.107 382.003
1645 0 271.505 13.4178 3643 125.651 644.405 370.619
1646 1 63.2747 10.6678 675 111.172 644.944 476.421
1647 0 66.2355 11.1421 738 114.772 644.499 479.377
1648 0 69.2648 12.0985 838 112.745 645.445 479.706
1649 0 69.2438 12.131 840 139.335 646.46 479.692
1650 0 71.2203 11.9629 852 115.704 645.536 476.552
1651 0 73.229 10.8973 798 118.373 646.421 476.197
1652 0 75.222 11.8449 891 117.872 645.466 473.561
1653 0 79.273 13.0183 1032 115.974 644.708 471.023
1654 0 82.3094 12.3923 1020 119.221 645.258 469.883
1655 0 82.2105 11.7746 968 122.238 644.82 469.033
1656 0 87.1815 12.6059 1099 119.382 643.93 471.231
1657 0 89.0468 13.3301 1187 118.002 642.307 468.278
1658 0 92.1365 12.0039 1106 123.045 642.903 467.533
1659 0 94.0884 12.3288 1160 123.214 643.546 467.342
1660 0 100.051 13.1833 1319 121.501 643.66 462.068
1661 0 99.1051 12.3505 1224 116.739 644.803 465.103
1662 1 60.0708 11.2867 678 119.403 645.215 486.311
1663 0 61.1285 11.5985 709 120.413 643.725 484.621
1664 0 60.0721 11.2864 678 124.268 641.923 482.32
1665 0 63.0375 12.7067 801 122.353 642.599 480.436
1666 0 68.0493 12.4469 847 119.884 642.929 482.564
1667 0 68.1739 12.6001 859 122.562 643.725 479.881
1668 0 69.1384 11.9037 823 124.81 643.689 480.871
1669 0 70.169 12.7692 896 123.062 643.965 481.227
1670 0 74.1485 12.7312 944 124.043 643.768 478.905
1671 0 74.2684 12.8857 957 123.759 643.388 475.468
1672 0 78.2063 13.8608 1084 121.019 645.004 470.244
1673 0 78.3263 12.9714 1016 126.488 645.249 470.694
1674 0 79.2178 13.0652 1035 127.446 644.382 473.755
1675 0 81.2322 13.4553 1093 126.667 644.733 472.629
1676 0 85.1599 14.0559 1197 123.869 645.495 471.75
1677 0 87.188 13.9927 1220 124.688 645.334 470.367
1678 0 91.208 14.2531 1300 123.549 645.442 471.091
1679 0 93.1681 13.2127 1231 127.432 645.728 469.841
1680 0 96.2012 14.0227 1349 126.739 645.553 466.521
1681 0 100.185 13.7146 1374 126.497 645.579 467.54
1682 0 102.183 13.9162 1422 126.695 645.399 464.852
1683 0 106.254 14.5124 1542 125.415 644.787 463.938
1684 0 107.331 14.1059 1514 128.182 645.586 459.151
1685 1 55.0525 11.7161 645 127.144 645.217 487.434
1686 0 57.0393 12.4125 708 126.004 645.424 486.277
1687 0 60.0817 12.5829 756 124.516 644.839 485.274
1688 0 60.1413 12.9528 779 125.828 644.728 481.913
1689 0 62.1963 13.2162 822 124.72 645.623 483.325
1690 0 64.1895 11.9957 770 128.958 645.957 481.709
1691 0 65.1985 13.2672 865 126.414 645.736 481.094
1692 0 67.1663 12.3574 830 130.981 645.357 479.946
1693 0 70.3231 13.8504 974 126.143 644.434 478.207
1694 0 71.1358 13.425 955 128.597 645.118 477.517
1695 0 72.1736 13.232 955 130.188 646.028 477.176
1696 0 74.276 13.3152 989 131.255 644.983 474.12
1697 0 78.0422 14.2615 1113 129.251 645.128 475.203
1698 0 81.1249 14.4099 1169 128.737 645.82 471.06
1699 0 83.0357 14.4396 1199 129.711 644.306 470.55
1700 0 87.1791 14.6939 1281 128.549 645.05 468.679
1701 0 89.0695 14.135 1259 130.638 644.856 470.723
1702 0 91.1491 14.2294 1297 131.465 645.258 466.907
1703 0 95.0767 14.3463 1364 130.569 644.363 466.633
1704 0 96.0868 14.0082 1346 128.974 644.843 464.175
1705 0 99.1007 13.7032 1358 130.041 644.753 463.01
1706 0 104.1 14.1018 1468 126.861 645.299 462.282
1707 0 106.282 13.3701 1421 129.634 645.491 459.458
1708 0 112.123 14.8944 1670 122.098 645.285 460.863
1709 0 112.183 13.585 1524 128.018 644.601 458.102
1710 0 113.157 13.2471 1499 129.093 644.167 456.464
1711 0 119.128 14.0941 1679 126.455 644.886 454.948
1712 0 121.266 13.524 1640 121.765 644.372 449.816
1713 0 125.155 12.4965 1564 124.826 644.725 451.939
1714 0 129.19 13.3911 1730 123.103 644.882 445.314
1715 0 133.213 13.302 1772 123.644 644.15 446.239
1716 0 137.196 14.0018 1921 122.766 644.346 445.073
1717 0 141.218 14.3891 2032 122.452 644.556 442.878
1718 0 145.14 14.393 2089 124.001 644.454 441.719
1719 0 149.188 14.7666 2203 123.381 644.007 439.81
1720 0 153.249 13.6379 2090 127.956 643.22 434.937
1721 0 158.189 14.0338 2220 126.641 643.613 432.033
1722 0 163.279 14.662 2394 125.647 643.579 431.401
1723 0 167.275 13.9053 2326 128.275 644.853 426.183
1724 0 171.292 13.5208 2316 130.924 643.858 427.027
1725 0 178.237 14.2507 2540 129.464 644.05 424.445
1726 0 181.295 14.0324 2544 132.253 643.664 420.494
1727 0 188.218 13.5322 2547 135.571 643.994 416.554
1728 0 194.146 14.1388 2745 134.923 644.153 416.071
1729 0 200.32 13.2837 2661 136.195 644.239 412.634
1730 0 208.186 14.2613 2969 133.508 644.394 410.1
1731 0 212.219 12.8735 2732 136.975 644.164 408.1
1732 0 221.345 13.0159 2881 132.824 643.691 409.775
1733 1 49.0148 11.4863 563 117.751 642.835 489.304
1734 0 48.0547 8.19898 394 114.805 644.292 483.825
1735 0 49.0404 8.68671 426 114.775 645.223 482.514
1736 0 54.0669 13.9457 754 115.905 645.541 485.415
1737 0 56.0608 12.8432 720 118.485 645.547 487.078
1738 0 57.0232 11.2235 640 123.523 645.564 485.045
1739 0 60.0881 12.1821 732 121.493 645.687 485.503
1740 0 61.1087 11.8314 723 122.192 645.766 485.538
1741 0 62.025 11.8017 732 124.536 644.85 484.327
1742 0 63.0385 11.9768 755 126.722 645.397 482.147
1743 0 65.0495 12.9286 841 124.925 645.178 479.982
1744 0 66.0477 12.4607 823 127.616 644.818 479.721
1745 0 69.1043 12.9225 893 126.342 644.903 479.183
1746 0 71.0476 12.5972 895 127.461 644.475 480.039
1747 0 72.0753 12.4037 894 129.761 644.512 478.068
1748 0 75.1007 12.0372 904 131.269 644.667 474.363
1749 0 78.0719 12.4372 971 129.154 645.533 477.824
1750 0 81.1302 13.3982 1087 127.438 644.621 472.355
1751 0 83.1105 12.8143 1065 128.717 644.008 471.963
1752 0 90.0993 11.232 1012 130.15 644.486 471.414
1753 0 89.2526 12.4366 1110 127.851 644.38 468.728
1754 0 91.3563 11.7452 1073 127.171 644.966 468.493
1755 1 49.1065 11.0372 542 119.441 645.192 489.304
1756 0 50.081 11.9606 599 116.469 645.705 489.012
1757 0 52.2266 11.4693 599 116.538 645.589 488.96
1758 0 53.1033 10.715 569 117.615 645.617 489.025
1759 0 54.0801 12.352 668 113.749 645.874 487.364
1760 0 55.0461 11.0271 607 116.278 645.306 487.824
1761 0 55.0516 12.0069 661 115.009 644.737 487.201
1762 0 58.0751 11.6057 674 116.543 645.347 485.721
1763 0 59.0861 11.0348 652 115.738 646.345 484.242
1764 1 80.2981 12.0924 971 101.754 645.313 477.491
1765 0 80.2127 16.9175 1357 89.1113 645.557 471.629
1766 0 72.4155 13.6849 991 101.969 644.69 470.499
1767 0 69.0973 13.1698 910 108.278 644.784 466.891
1768 0 68.059 12.1806 829 114.076 644.768 469.329
1769 0 71.0744 12.916 918 112.279 644.586 469.449
1770 0 78.1117 14.1336 1104 106.08 644.636 465.701
1771 0 75.102 13.7813 1035 112.145 644.187 467.917
1772 0 86.1792 17.7885 1533 96.1474 644.117 459.72
1773 0 88.2585 16.395 1447 101.714 644.929 461.788
1774 0 87.0832 15.2153 1325 107.865 644.123 462.105
1775 0 88.2628 15.8051 1395 108.862 644.347 461.79
1776 1 43.1846 11.2077 484 119.924 643.601 484.407
1777 0 45.1613 11.6472 526 122.578 643.703 485.346
1778 0 47.1753 13.0577 616 117.278 643.753 485.138
1779 0 47.0739 11.6413 548 117.589 644.086 484.734
1780 0 48.3136 10.9907 531 115.311 644.198 487.859
1781 0 50.1313 11.789 591 113.499 644.492 486.494
1782 0 51.0781 12.1187 619 114.005 644.932 485.549
1783 0 54.1172 11.549 625 114.826 644.918 485.718
1784 0 56.1079 12.4938 701 113.766 644.826 483.999
1785 0 56.0592 11.2381 630 115.154 644.511 483.692
1786 0 57.1088 12.2573 700 113.827 644.433 482.439
1787 0 57.1255 12.3588 706 115.518 644.348 480.402
1788 0 57.0436 12.4291 709 117.543 644.262 478.071
1789 0 62.1767 12.9309 804 112.851 643.49 479.611
1790 0 63.0372 13.6269 859 112.346 644.295 478.335
1791 0 65.0414 13.3607 869 114.206 644.064 477.163
1792 0 67.0559 12.1391 814 116.706 643.608 476.118
1793 0 70.1371 12.9175 906 115.714 643.919 475.119
1794 0 72.1045 12.8841 929 116.394 644.004 473.668
1795 0 75.0575 13.6562 1025 113.615 644.135 474.398
1796 0 75.0552 13.6699 1026 142.761 644.111 474.431
1797 0 77.0862 12.7649 984 118.194 645.103 470.408
1798 0 82.2168 14.8631 1222 112.175 644.585 468.692
1799 0 86.0987 14.4021 1240 110.921 645.002 468.954
1800 0 87.0655 13.1166 1142 116.021 645.324 466.488
1801 0 87.1583 13.4697 1174 116.111 645.33 464.01
1802 0 92.0615 14.7619 1359 119.498 644.783 467.011
1803 1 49.0352 11.7059 574 119.233 644.728 487.915
1804 0 50.1292 13.3056 667 115.277 644.736 480.699
1805 0 52.2243 12.925 675 113.63 645.121 480.99
1806 0 53.1238 13.045 693 114.518 644.89 482.514
1807 0 57.1058 12.4156 709 112.807 645.223 481.2
1808 0 58.1537 12.3466 718 113.311 644.933 480.499
1809 0 61.1166 13.2861 812 109.985 645.414 480.135
1810 0 62.1156 12.3158 765 112.905 645.271 478.923
1811 0 65.0695 13.524 880 111.191 644.799 478.269
1812 0 64.089 11.25 721 109.63 644.813 477.703
1813 0 68.0773 11.6045 790 108.153 644.595 476.818
1814 0 70.0517 12.0768 846 107.753 644.654 473.946
1815 0 73.0494 11.5264 842 109.101 644.469 472.404
1816 0 76.0376 12.5464 954 106.37 644.512 472.5
1817 0 79.0661 12.1544 961 107.029 644.542 472.694
1818 0 81.1097 12.403 1006 106.706 644.71 468.766
1819 0 82.1135 11.1675 917 110.251 644.191 469.287
1820 0 87.0984 12.1931 1062 106.958 644.597 469.685
1821 0 88.0475 11.6528 1026 109.016 644.36 466.072
1822 0 93.1631 13.4603 1254 105.621 644.476 464.068
1823 0 95.1336 12.3195 1172 109.305 644.8 459.993
1824 1 54.1804 13.0305 706 114.693 644.829 482.96
1825 0 55.266 12.1232 670 115.566 644.479 484.936
1826 0 58.1648 12.7568 742 115.19 644.422 484.499
1827 0 59.2144 12.5307 742 116.291 644.129 484.767
1828 0 62.1834 13.1385 817 113.922 644.295 483.574
1829 0 64.2185 12.0215 772 117.662 644.596 481.753
1830 0 67.3268 14.036 945 113.013 644.471 482.124
1831 0 68.2105 13.3411 910 116.207 643.676 479.033
1832 0 70.3377 13.4921 949 116.104 644.33 479.585
1833 0 76.1597 14.2989 1089 114.291 644.32 477.165
1834 0 74.1051 13.6833 1014 118.388 643.949 476.559
1835 0 79.2258 15.5 1228 114.305 643.227 472.766
1836 0 81.182 13.6607 1109 119.928 644.427 471.057
1837 0 85.3495 14.8683 1269 117.184 644.935 471.815
1838 0 85.1999 13.5211 1152 122.88 644.348 470.398
1839 0 90.2103 14.8209 1337 118.965 644.766 469.484
1840 0 92.3048 13.2713 1225 124.287 645.438 467.48
1841 0 97.3039 13.648 1328 122.884 645.046 467.194
1842 0 100.387 14.2848 1434 122.411 644.554 463.173
1843 0 102.243 12.5975 1288 119.721 644.665 463.881
1844 1 54.2283 9.90257 537 119.255 645.946 483.844
1845 0 57.1634 12.0707 690 115.012 645.229 486.69
1846 0 61.1155 15.0698 921 106.219 645.752 482.73
1847 0 59.1287 12.8702 761 115.029 645.924 486.774
1848 0 62.1125 11.0445 686 118.624 645.794 483.541
1849 0 65.1192 12.362 805 114.637 645.334 482.359
1850 0 67.09 12.7441 855 112.218 645.697 482.837
1851 0 71.1151 13.0493 928 112.736 645.696 480.003
1852 0 73.2175 12.3604 905 115.003 645.657 479.031
1853 0 74.1018 11.8756 880 117.369 646.049 476.514
1854 0 77.143 11.5889 894 117.248 645.52 476.298
1855 0 80.2144 12.2297 981 116.607 645.515 473.591
1856 0 84.2007 12.4108 1045 116.96 645.128 470.095
1857 0 88.2148 12.9003 1138 114.783 645.609 470.253
1858 0 91.1752 11.4176 1041 117.991 645.119 470.349
1859 0 95.1744 12.6084 1200 116.136 645.302 467.205
1860 0 97.2358 12.4131 1207 122.4 644.7 464.427
1861 0 100.197 12.4655 1249 118.424 645.034 462.73
1862 0 100.23 11.0346 1106 123.068 645.144 461.298
1863 1 53.1319 11.1044 590 117.269 645.414 485.312
1864 0 57.3172 12.1604 697 115.046 645.867 485.416
1865 0 56.1565 11.7529 660 119.838 645.477 484.645
1866 0 59.1125 12.3493 730 117.189 646.581 484.597
1867 0 62.114 13.1693 818 115.269 646.356 480.83
1868 0 65.1629 14.3487 935 111.439 645.612 481.082
1869 0 66.1666 13.3602 884 115.126 646.238 480.471
1870 0 67.0908 12.1775 817 119.253 646.275 480.471
1871 0 70.0996 13.6235 955 115.2 646.317 477.645
1872 0 73.1183 13.4987 987 114.075 645.674 476.407
1873 0 76.128 13.8582 1055 113.388 644.814 475.647
1874 0 78.1248 13.7984 1078 114.735 645.415 474.878
1875 0 78.1712 12.5878 984 120.479 645.115 474.104
1876 0 81.1895 15.0635 1223 113.484 645.299 473.487
1877 0 84.1685 13.9007 1170 116.944 645.02 469.266
1878 0 87.2008 13.5435 1181 118.518 645.845 470.299
1879 0 91.056 14.1671 1290 115.88 645.01 466.04
1880 0 94.3482 14.4041 1359 115.142 644.968 462.765
1881 0 96.3512 14.0631 1355 116.328 645.501 461.425
1882 0 100.144 13.94 1396 116.84 645.51 460.071
1883 0 100.211 11.2962 1132 125.049 645.158 461.515
1884 0 103.121 11.5495 1191 123.265 645.367 456.19
1885 1 56.1491 9.90221 556 122.649 645.155 481.124
1886 0 56.1037 11.7639 660 119.462 645.241 479.668
1887 0 61.1449 12.4459 761 117.256 645.105 479.986
1888 0 63.1166 13.3562 843 114.539 646.579 480.536
1889 0 62.2182 12.7615 794 116.446 645.894 483.136
1890 0 64.1379 11.5532 741 119.088 646.381 481.366
1891 0 69.0975 13.6908 946 112.672 646.177 480.35
1892 0 72.1263 13.2129 953 112.454 646.314 479.965
1893 0 74.0713 13.4465 996 113.77 646.225 475.925
1894 0 74.1219 12.0882 896 117.881 645.849 475.406
1895 0 76.0743 12.0671 918 119.31 644.528 475.849
1896 0 80.152 12.8631 1031 117.943 644.479 472.148
1897 0 83.148 13.3978 1114 116.972 644.819 470.513
1898 0 85.1358 12.8266 1092 118.703 644.558 468.747
1899 0 87.1158 12.1333 1057 120.232 643.995 470.202
1900 0 92.154 13.8898 1280 115.334 644.411 465.088
1901 0 97.1796 13.2435 1287 115.973 644.287 464.222
1902 1 51.0311 11.5812 591 117.743 643.501 487.766
1903 0 52.0598 12.6969 661 116.914 642.729 484.787
1904 0 50.0347 11.1323 557 107.474 645.002 484.46
1905 0 53.1707 10.5697 562 107.235 644.635 485.139
1906 0 53.0971 11.1682 593 109.027 644.398 487.364
1907 0 55.1829 10.1843 562 111.416 644.514 485.838
1908 0 59.0704 11.3255 669 108.115 644.335 486.759
1909 0 62.0283 11.8333 734 105.319 644.834 483.281
1910 0 64.0755 11.5333 739 105.641 644.31 481.276
1911 0 62.1259 11.6377 723 107.293 644.206 475.527
1912 0 66.2028 12.069 799 104.579 644.677 477.92
1913 0 68.2321 12.7066 867 103.456 644.754 475.649
1914 0 69.1553 11.0331 763 106.591 644.624 475.312
1915 0 73.1958 12.2275 895 104.32 644.076 472.759
1916 0 74.081 11.5144 853 106.515 644.122 471.497
1917 0 76.0914 11.749 894 107.697 644.183 470.477
1918 0 78.0751 11.6683 911 107.813 643.863 467.143
1919 0 84.1696 12.7481 1073 104.486 644.306 466.237
1920 0 87.1215 11.6619 1016 106.002 644.261 465.361
1921 0 90.1164 12.2952 1108 104.823 644.438 464.792
1922 1 46.0256 11.7326 540 100.493 644.411 484.711
1923 0 48.0704 10.6719 513 103.45 645.731 487.55
1924 0 51.0638 12.8271 655 98.9191 645.982 485.672
1925 0 51.1451 12.2006 624 104.838 645.01 490.22
1926 0 53.0588 12.5144 664 104.742 645.61 489.086
1927 0 60.0721 14.2995 859 94.2352 645.823 482.591
1928 0 56.0753 12.3406 692 103.487 645.568 484.876
1929 0 56.0605 11.9514 670 105.813 645.872 485.794
1930 0 59.1577 12.7287 753 105.09 645.803 484.244
1931 0 61.0631 11.8566 724 108.663 646.052 484.108
1932 0 63.1016 12.472 787 109.76 645.413 482.825
1933 0 67.1865 13.336 896 107.431 645.522 482.778
1934 0 68.1561 12.9996 886 108.115 645.231 482.072
1935 0 68.1771 11.9395 814 112.108 645.378 480.943
1936 0 73.1016 12.4758 912 109.655 645.549 481.602
1937 0 72.1077 12.2733 885 113.011 644.832 479.51
1938 0 77.1387 12.4322 959 113.79 645.4 478.73
1939 0 81.2227 13.346 1084 113.065 645.24 478.52
1940 0 82.1822 13.7134 1127 115.295 645 475.308
1941 0 84.1065 13.4829 1134 119.077 644.907 473.715
1942 0 90.1938 13.7814 1243 122.332 644.345 468.303
1943 0 91.098 14.2155 1295 122.383 645.012 468.649
1944 0 95.1854 14.1513 1347 122.76 644.766 467.183
1945 1 50.1873 13.1308 659 121.69 645.179 487.88
1946 0 49.1648 11.6954 575 127.433 645.042 489.603
1947 0 53.076 12.6234 670 127.585 645.439 484.437
1948 0 55.0709 15.0352 828 124.08 645.041 484.847
1949 0 58.1268 14.3135 832 125.287 644.662 485.048
1950 0 57.1486 13.8236 790 129.552 644.268 482.819
1951 0 58.0517 13.5913 789 131.076 644.217 483.01
1952 0 61.0966 15.1727 927 123.796 643.846 481.204
1953 0 64.1076 15.7859 1012 123.659 643.981 480.254
1954 0 65.173 14.2544 929 128.907 644.642 478.123
1955 0 68.1791 15.5766 1062 124.807 644.066 474.711
1956 0 69.0762 14.5347 1004 128.501 643.839 474.77
1957 0 70.0786 14.4695 1014 130.451 644.616 472.753
1958 0 73.2148 15.6252 1144 126.276 643.846 471.829
1959 0 73.0712 14.7664 1079 129.269 644.621 468.635
1960 0 78.1222 15.9366 1245 123.951 644.161 468.899
1961 0 82.135 15.0484 1236 125.826 645.019 468.051
1962 0 83.264 15.3968 1282 125.477 644.608 465.744
1963 0 86.19 15.2338 1313 125.299 644.013 464.914
1964 0 88.1476 15.406 1358 124.234 644.971 462.887
1965 0 88.219 14.3393 1265 127.285 644.717 463.342
1966 0 94.1475 15.3589 1446 124.167 644.926 460.69
1967 0 96.1991 14.4804 1393 125.66 644.191 459.868
1968 0 100.23 16.093 1613 120.762 644.934 455.663
1969 0 101.205 15.098 1528 124.255 644.929 456.664
1970 0 105.28 14.9032 1569 123.656 645.375 454.864
1971 0 110.115 15.4111 1697 122.054 644.795 452.043
1972 0 111.273 14.9452 1663 125.015 644.914 447.995
1973 0 117.216 14.6823 1721 125.205 645.084 445.844
1974 1 60.0761 12.9003 775 121.523 644.517 475.049
1975 0 64.0626 13.4088 859 119.845 644.031 473.978
1976 0 65.0946 13.1655 857 119.432 644.802 474.209
1977 0 67.0433 13.1855 884 121.26 645.428 471.824
1978 0 70.062 13.3025 932 119.867 645.311 472.09
1979 0 72.0842 13.0403 940 120.867 645.119 471.044
1980 0 76.1753 13.8759 1057 118.718 644.428 469.689
1981 0 78.1415 14.013 1095 118.974 645.166 466.891
1982 0 80.1426 13.7879 1105 119.926 644.723 464.774
1983 0 84.1423 15.4857 1303 113.79 644.984 465.913
1984 0 85.1591 14.6197 1245 118.104 645.006 462.862
1985 0 87.1889 13.1209 1144 121.633 643.909 462.112
1986 0 92.1726 13.8219 1274 119.422 645.068 461.18
1987 0 93.138 13.0129 1212 122.431 645.271 457.38
1988 0 97.1533 13.6691 1328 120.578 644.653 454.995
1989 1 53.0664 11.4197 606 113.691 645.318 480.586
1990 0 55.0564 10.2622 565 119.071 645.858 477.648
1991 0 59.1454 11.4971 680 116.849 645.318 480.274
1992 0 61.0814 13.0482 797 112.573 645.123 480.144
1993 0 63.1469 13.0806 826 113.565 643.909 477.741
1994 0 63.3121 12.3199 780 116.95 644.776 475.495
1995 0 65.1165 12.2089 795 118.818 644.166 475.097
1996 0 69.112 11.8069 816 119.882 644.998 475.05
1997 0 72.1748 12.539 905 118.482 644.549 473.273
1998 0 74.1352 12.6661 939 118.393 643.808 471.82
1999 0 72.1354 11.7973 851 124.408 644.422 469.17
2000 0 79.1891 13.6888 1084 118.208 644.479 467.21
2001 0 81.289 12.0681 981 122.503 645.011 465.383
2002 0 81.2099 12.0059 975 124.206 644.663 462.198
2003 0 84.1913 12.5191 1054 122.55 644.698 461.612
2004 0 86.3182 12.2222 1055 123.793 644.482 458.419
2005 0 90.2258 12.0586 1088 123.003 643.832 459.53
2006 0 91.1912 10.8892 993 127.144 644.406 455.172
2007 0 99.1578 12.0212 1192 122.41 644.753 454.023
2008 1 50.1858 7.87076 395 119.058 644.306 478.534
2009 0 53.0563 10.4794 556 122.926 644.505 481.617
2010 0 57.034 11.3091 645 120.555 643.74 481.305
2011 0 57.1782 10.441 597 117.719 646.499 484.765
2012 0 58.1083 11.3065 657 117.257 646.155 482.871
2013 0 60.1067 11.3631 683 119.091 646.628 479.814
2014 0 62.0894 10.4205 647 120.083 645.835 480.3
2015 0 66.1813 11.1059 735 119.016 646.031 478.85
2016 0 67.3134 10.2506 690 122.241 646.041 476.371
2017 0 71.2551 10.7782 768 120.322 645.435 477.091
2018 0 73.1986 11.8855 870 118.991 645.917 475.637
2019 0 76.1827 11.84 902 118.282 645.552 475.251
2020 0 77.2276 11.3949 880 120.414 645.349 472.607
2021 0 82.2416 11.6 954 117.748 644.531 471.524
2022 0 84.1439 11.8725 999 118.573 645.151 468.808
2023 0 85.2042 11.5487 984 119.248 645.198 467.168
2024 1 46.0732 10.0926 465 117.546 646.434 490.065
2025 0 47.0638 11.2401 529 116.652 645.966 488.164
2026 0 48.0059 11.1861 537 115.92 646.574 489.67
2027 0 46.0413 10.1431 467 118.672 645.488 489.176
2028 0 48.0385 10.2001 490 119.659 646.08 487.035
2029 0 50.0884 11.1403 558 117.073 646.353 485.794
2030 0 52.0712 10.985 572 117.853 646.645 485.776
2031 0 51.0876 10.7658 550 120.182 647.236 482.822
2032 0 52.0468 9.74124 507 123.099 644.836 485.753
2033 0 57.1082 10.5589 603 120.179 646.531 484.99
2034 0 58.0749 12.415 721 115.669 646.466 483.282
2035 0 60.1167 11.5609 695 118.099 646.243 482.013
2036 0 59.079 9.73272 575 123.407 645.544 481.666
2037 0 63.1213 11.3908 719 120.428 646.06 478.811
2038 0 65.0954 10.2619 668 123.792 645.984 479.746
2039 0 69.0775 11.697 808 120.5 645.577 478.61
2040 0 71.1652 11.5506 822 121.655 646.01 477.026
2041 0 74.0905 11.7694 872 120.724 645.727 478.307
2042 0 74.144 11.626 862 122.697 646.403 476.334
2043 0 78.1581 11.0545 864 123.353 646.204 474.297
2044 0 78.0815 10.9757 857 124.384 646.382 473.963
2045 0 80.1166 11.5207 923 123.588 645.521 473.562
2046 0 85.0772 11.4602 975 125.244 645.605 472.098
2047 0 87.1505 11.1302 970 124.71 646.474 472.823
2048 0 90.1148 10.7308 967 127.46 645.827 469.829
2049 1 50.0246 11.2345 562 122.258 646.338 488.795
2050 0 50.0543 10.4686 524 127.901 646.158 486.95
2051 0 48.0423 10.5532 507 122.994 643.992 488.077
2052 0 48.0166 9.6425 463 126.417 644.881 487.624
2053 0 51.0359 9.34636 477 125.746 644.912 487.518
2054 0 53.0364 10.5588 560 122.4 644.693 486.471
2055 0 57.0192 11.1541 636 119.877 644.502 485.511
2056 0 56.0382 9.99319 560 123.091 643.505 486.736
2057 0 57.1017 10.5076 600 122.923 643.708 481.713
2058 0 61.0196 11.7503 717 118.741 643.402 482.612
2059 0 60.0402 10.2931 618 122.934 643.537 482.115
2060 0 65.0379 11.2396 731 119.257 643.397 481.912
2061 0 67.1164 11.8153 793 118.772 643.712 480.107
2062 0 68.0249 10.9666 746 120.677 643.528 481.401
2063 0 72.0845 10.7097 772 120.24 643.368 480.588
2064 0 72.0507 11.0061 793 122.683 642.958 474.716
2065 0 77.0136 9.60869 740 122.284 643.832 478.669
2066 0 80.0686 11.8149 946 116.956 644.226 476.034
2067 0 81.1598 11.2864 916 117.889 643.276 474.748
2068 1 45.0484 12.1425 547 115.733 643.433 491.989
2069 0 47.1383 11.5617 545 118.758 643.211 488.101
2070 0 49.0371 11.6239 570 118.674 642.793 488.946
2071 0 51.037 13.0689 667 117.712 643.816 487.522
2072 0 53.1127 11.3721 604 121.22 643.859 488.402
2073 0 54.073 12.3352 667 120.324 643.817 486.84
2074 0 53.1086 11.5236 612 124.855 643.737 488.194
2075 0 55.0878 11.5815 638 125.044 643.296 486.671
2076 0 59.0792 11.9839 708 122.568 644.123 485.788
2077 0 57.162 11.2487 643 126.445 643.572 485.47
2078 0 63.0884 12.0624 761 120.515 643.76 485.191
2079 0 64.0731 11.9551 766 122.2 643.64 483.272
2080 0 63.1025 10.6652 673 126.105 642.967 482.322
2081 0 66.0887 10.9096 721 123.861 643.058 482.086
2082 0 70.1368 12.2332 858 120.233 643.326 480.507
2083 0 72.1188 11.9941 865 119.761 642.673 479.231
2084 0 74.1974 11.2538 835 122.242 643.281 478.64
2085 0 75.1871 10.1347 762 125.747 643.799 478.358
2086 0 79.1664 11.4695 908 122.3 643.388 475.605
2087 0 81.1542 12.2606 995 121.962 643.593 473.92
2088 0 85.1127 12.4071 1056 122.278 643.75 470.662
2089 1 46.0729 11.1562 514 122.965 643.634 491.22
2090 0 49.2373 11.0688 545 124.448 645.382 487.692
2091 0 46.1823 10.7184 495 118.909 644.101 482.711
2092 0 49.3238 11.6779 576 115.37 643.941 482.036
2093 0 50.102 12.1752 610 115.115 642.943 481.2
2094 0 53.0222 11.7875 625 115.045 643.526 481.01
2095 0 53.0368 11.2752 598 117.211 643.746 481.14
2096 0 56.1056 11.7992 662 114.808 643.995 481.438
2097 0 56.0698 11.9851 672 115.848 643.341 478.798
2098 0 56.13 11.0992 623 118.827 644.124 477.449
2099 0 59.0881 11.2205 663 118.268 643.662 475.893
2100 0 54.0704 10.8377 586 122.468 644.391 472.51
2101 0 60.0609 10.3062 619 121.189 643.504 473.359
2102 0 63.1233 10.7567 679 119.29 643.929 473.714
2103 0 61.2858 10.8671 666 120.983 643.365 472.874
2104 0 68.1492 12.1645 829 114.473 643.992 471.992
2105 0 66.1005 10.7866 713 120.202 643.921 468.993
2106 0 68.1102 10.439 711 120.474 642.821 468.851
2107 0 71.141 12.0043 854 116.623 643.48 466.938
2108 0 72.1987 12.2024 881 115.538 644.125 466.642
2109 0 74.1492 11.369 843 117.17 643.07 463.713
2110 0 76.0908 11.4206 869 116.014 643.799 464.947
2111 0 80.0976 11.6733 935 114.809 643.034 462.774
2112 0 83.0976 12.4552 1035 111.378 642.831 463.759
2113 0 83.0782 10.1952 847 117.256 642.939 456.923
2114 0 85.1395 11.7924 1004 109.637 643.312 456.418
2115 0 89.0798 10.9565 976 110.91 643.351 457.783
2116 0 90.0913 10.9556 987 110.669 644.768 453.836
2117 0 96.1156 10.477 1007 109.007 644.613 453.337
2118 0 100.139 10.2657 1028 109.091 643.966 455.933
2119 0 103.217 10.1727 1050 108.562 644.224 454.101
2120 0 106.267 11.0288 1172 106.931 644.023 451.995
2121 0 111.089 11.1262 1236 107.96 643.519 450.757
2122 1 56.1322 8.23057 462 107.21 643.245 478.504
2123 0 56.179 9.98594 561 106.736 643.993 475.97
2124 0 57.0708 10.9688 626 104.513 644.026 473.395
2125 0 59.1103 8.72945 516 109.314 643.95 471.231
2126 0 63.0245 11.6145 732 103.23 643.764 473.559
2127 0 64.1309 10.5098 674 106.571 643.727 468.461
2128 0 68.11 10.483 714 105.433 643.433 468.48
2129 0 68.0988 11.6742 795 103.838 643.14 465.928
2130 0 72.1734 10.4193 752 105.473 643.751 466.961
2131 0 75.1482 10.5392 792 105 643.321 466.056
2132 0 78.1966 11.1386 871 103.168 643.527 465.806
2133 0 82.1503 12.1485 998 101.312 643.113 464.739
2134 0 82.1755 10.9035 896 103.414 643.075 461.785
2135 0 86.1973 11.4041 983 102.607 643.187 460.164
2136 0 91.2773 11.5472 1054 99.7125 644.037 465.196
2137 0 95.3518 11.7565 1121 99.1963 644.813 463.401
2138 0 96.1712 10.1174 973 103.047 644.491 462.532
2139 0 99.2721 10.3957 1032 102.898 644.083 458.95
2140 0 101.204 10.9383 1107 101.144 645.644 457.841
2141 0 106.185 11.4329 1214 100.236 644.81 454.751
2142 0 107.259 9.53768 1023 103.338 645.295 451.644
2143 0 114.372 12.0659 1380 100.12 644.501 450.519
2144 0 120.262 10.9012 1311 102.056 643.764 447.109
2145 0 125.152 11.2024 1402 101.053 643.874 448
2146 1 68.1987 12.6395 862 94.971 644.709 475.358
2147 0 71.1754 11.9142 848 95.2983 644.535 473.33
2148 0 72.3217 10.8958 788 95.4429 643.701 469.211
2149 0 76.2922 10.7088 817 96.9045 644.321 467.002
2150 0 79.3522 11.4931 912 95.557 644.536 465.123
2151 0 83.2321 12.9637 1079 94.6497 644.393 468.64
2152 0 87.1565 10.6475 928 100.327 644.614 467.002
2153 0 90.1731 11.8993 1073 97.5778 644.892 465.644
2154 0 90.2154 12.2374 1104 98.4592 643.857 462.56
2155 0 95.1869 11.7873 1122 99.6435 644.78 461.024
2156 0 97.1558 10.7148 1041 102.299 644.647 462.275
2157 0 102.175 13.4671 1376 97.4462 644.774 457.121
2158 0 104.28 11.9582 1247 101.848 643.65 455.8
2159 0 109.292 12.0869 1321 102.801 643.516 455.611
2160 0 112.272 12.7369 1430 102.675 644.468 453.98
2161 0 114.164 12.0616 1377 105.484 644.984 453.009
2162 0 119.096 12.5361 1493 104.78 645.352 454.322
2163 0 122.289 12.5604 1536 107.178 643.969 449.305
2164 0 125.232 13.0238 1631 107.427 643.7 447.156
2165 0 130.183 12.1982 1588 110.012 643.032 444.153
2166 1 72.0869 10.1405 731 104.473 644.36 477.105
2167 0 73.2352 9.7221 712 106.636 643.777 473.567
2168 0 77.1847 11.1939 864 104.237 644.911 470.957
2169 0 80.1487 11.1917 897 102.336 643.123 472.994
2170 0 82.0764 11.2822 926 103.814 642.787 475.222
2171 0 85.0989 11.6218 989 104.536 643.376 471.06
2172 0 88.1738 9.93492 876 108.078 643.328 471.091
2173 0 92.1131 10.7368 989 107.046 643.4 470.282
2174 0 97.1483 14.4418 1403 100.577 643.661 465.738
2175 0 100.112 11.8867 1190 106.527 643.16 465.374
2176 0 102.154 11.561 1181 107.909 642.887 462.433
2177 0 107.137 12.078 1294 107.845 642.872 459.969
2178 0 111.208 11.6629 1297 108.96 643.059 458.734
2179 0 113.296 10.7948 1223 111.798 644 458.948
2180 1 60.0429 12.8575 772 105.38 642.698 483.271
2181 0 61.0679 12.396 757 107.564 642.309 483.69
2182 0 61.1092 11.3894 696 110.534 642.773 482.309
2183 0 65.0481 13.6361 887 104.176 642.807 481.117
2184 0 67.098 12.057 809 108.54 643.265 480.527
2185 0 68.04 11.9489 813 109.283 643.107 479.804
2186 0 72.0917 12.1512 876 108.846 643.098 477.497
2187 0 74.0993 14.0487 1041 107.574 644.164 476.613
2188 0 76.1218 12.48 950 111.456 645.186 476.902
2189 0 78.194 13.0573 1021 110.994 644.882 476.237
2190 0 82.2008 13.7955 1134 110.82 644.367 473.838
2191 0 84.1078 12.6623 1065 111.269 644.799 471.399
2192 0 87.154 12.7017 1107 112.067 644.69 472.494
2193 0 92.1894 13.4506 1240 112.405 644.318 469.504
2194 0 93.1602 13.6002 1267 111.211 643.897 467.201
2195 0 97.1247 13.1274 1275 112.6 643.722 467.074
2196 0 100.198 14.1819 1421 108.347 642.834 465.051
2197 0 103.311 13.9579 1442 109.754 643.727 460.494
2198 1 54.1608 12.1305 657 117.845 643.061 484.536
2199 0 56.1903 13.7212 771 116.176 643.846 481.927
2200 0 58.1675 12.5328 729 122.475 644.306 483.883
2201 0 59.1597 12.6607 749 124.148 643.712 482.566
2202 0 62.2186 13.4043 834 121.583 643.337 482.373
2203 0 62.1477 13.484 838 122.751 644.101 481.142
2204 0 66.1972 13.4296 889 122.25 643.771 480.339
2205 0 68.1829 13.2878 906 122.524 643.887 480.147
2206 0 70.136 14.4148 1011 119.555 643.271 479.729
2207 0 71.1926 13.4284 956 123.839 643.675 478.674
2208 0 73.087 12.5741 919 126.783 643.181 477.165
2209 0 75.1273 12.6718 952 127.882 643.923 474.27
2210 0 79.1449 12.7614 1010 125.411 644.018 476.96
2211 0 83.1751 14.4875 1205 121.633 644.134 473.177
2212 0 86.0742 14.2087 1223 122.428 643.858 472.718
2213 0 88.0817 14.0892 1241 123.564 643.815 471.018
2214 0 90.1146 14.7368 1328 122.803 643.994 468.674
2215 0 93.1859 14.1116 1315 124.348 643.392 468.577
2216 0 96.0528 14.0964 1354 125.071 643.191 464.73
2217 0 100.082 14.708 1472 122.623 643.318 465.629
2218 1 53.1686 12.1688 647 125.818 643.009 487.253
2219 0 53.0242 12.6923 673 125.707 643.354 485.351
2220 0 56.1746 12.7104 714 111.335 644.294 483.098
2221 0 57.0867 12.3321 704 111.926 645.155 484.885
2222 0 59.0567 12.5473 741 112.225 644.961 483.499
2223 0 57.0654 11.5657 660 118.356 644.439 481.614
2224 0 60.0937 12.7634 767 114.904 644.737 479.759
2225 0 64.1539 12.6259 810 115.006 644.574 477.526
2226 0 64.0612 13.0032 833 114.403 644.879 479.568
2227 0 66.1298 12.0521 797 117.359 644.602 476.389
2228 0 68.0588 13.7528 936 113.116 644.46 475.143
2229 0 71.3209 12.4227 886 117.068 643.793 472.424
2230 0 74.1153 13.3171 987 114.606 643.173 472.217
2231 0 76.178 14.5843 1111 112.443 643.624 469.726
2232 0 78.077 12.7951 999 117.689 643.74 472.484
2233 0 81.1636 12.9368 1050 117.012 644.158 469.52
2234 0 81.1953 12.4515 1011 118.628 643.251 469.443
2235 0 85.1114 12.5953 1072 118.126 643.85 471.929
2236 0 90.1377 13.3573 1204 116.689 643.763 466.223
2237 0 91.1138 13.335 1215 116.001 643.824 468.709
2238 1 50.0796 11.7014 586 117.333 644.379 486.276
2239 0 52.0952 12.1892 635 119.439 644.38 484.65
2240 0 55.0958 12.9411 713 111.37 643.53 482.252
2241 0 54.1202 12.8603 696 112.628 643.772 481.645
2242 0 57.043 12.1312 692 113.864 643.162 481.607
2243 0 58.0998 13.4424 781 112.142 644.081 483.652
2244 0 59.0758 12.4247 734 115.678 644.112 481.699
2245 0 63.0984 13.8672 875 110.775 644.757 480.487
2246 0 63.082 12.5709 793 120.224 644.178 480.019
2247 0 68.1095 12.6414 861 114.131 643.893 479.613
2248 0 70.1249 14.8164 1039 109.63 643.784 477.232
2249 0 72.1131 12.0644 870 116.234 643.856 476.938
2250 0 76.1296 14.1732 1079 110.698 644.8 474.776
2251 0 79.1325 13.6101 1077 112.466 644.332 473.831
2252 0 78.0863 12.4093 969 118.234 644.006 472.761
2253 0 82.0846 13.1693 1081 116.051 643.774 471.813
2254 0 86.0934 13.1137 1129 116.329 643.661 469.145
2255 0 90.1323 14.39 1297 113.538 644.012 467.468
2256 0 91.0551 13.9256 1268 115.852 644.607 466.591
2257 0 94.0574 14.2998 1345 114.646 644.151 468.222
2258 0 95.0821 15.0502 1431 141.991 644.124 466.713
2259 1 52.0946 11.268 587 116.997 643.325 490.261
2260 0 52.1103 11.61 605 117.192 645.124 490.924
2261 0 54.0366 12.1954 659 115.322 644.411 491.871
2262 0 57.107 12.5554 717 116.593 644.499 491.247
2263 0 57.0851 11.842 676 118.67 643.953 493.229
2264 0 58.181 11.533 671 119.821 643.662 485.59
2265 0 64.0939 14.0263 899 113.123 643.44 486.781
2266 0 62.0702 11.1003 689 121.39 643.656 490.92
2267 0 64.0809 13.124 841 117.252 642.863 492.902
2268 0 68.1173 12.684 864 118.223 642.723 490.656
2269 0 71.1116 12.3327 877 119.252 641.822 489.884
2270 0 73.0652 12.1398 887 119.321 641.325 488.782
2271 0 75.0444 11.8863 892 121.357 640.697 487.083
2272 0 75.0596 11.9372 896 135.531 640.689 487.093
2273 0 82.1589 11.4899 944 122.162 640.047 484.253
2274 0 84.1019 11.5455 971 122.985 640.484 483.103
2275 0 88.1016 11.9862 1056 121.699 640.312 483.151
2276 0 92.119 12.8421 1183 120.095 639.418 480.919
2277 1 51.1283 11.6961 598 118.883 639.403 496.895
2278 0 51.0503 11.3417 579 121.731 639.321 499.009
2279 0 53.044 11.4245 606 120.647 639.231 499.198
2280 0 55.0777 12.2917 677 117.951 638.775 496.767
2281 0 56.0546 11.7742 660 119.588 638.795 495.132
2282 0 61.1568 13.0975 801 113.031 639.8 495.149
2283 0 63.0784 13.1424 829 112.942 639.653 493.245
2284 0 65.0468 12.3142 801 114.896 639.518 491.948
2285 0 66.1194 13.1883 872 112.257 638.939 491.834
2286 0 68.1023 12.8336 874 113.716 638.747 488.005
2287 0 71.066 12.1155 861 115.064 638.751 489.139
2288 0 74.1153 13.0877 970 112.295 638.159 487.818
2289 0 75.1724 12.478 938 113.181 638.211 487.737
2290 0 79.2426 12.9476 1026 111.777 637.483 486.418
2291 0 81.3608 12.6842 1032 113.455 637.797 485.578
2292 0 83.2378 12.9148 1075 118.815 637.641 485.403
2293 0 88.1668 13.0321 1149 116.772 637.262 486.069
2294 0 90.4037 12.599 1139 118.704 639.267 483.721
2295 0 92.1914 14.1011 1300 115.521 638.993 481.732
2296 0 96.3506 13.5235 1303 116.707 638.784 479.517
2297 0 100.242 12.8489 1288 117.646 639.034 477.995
2298 0 103.206 13.5166 1395 116.034 638.617 475.436
2299 1 51.1104 10.5458 539 111.826 639.189 502.878
2300 0 54.1966 11.3476 615 110.171 638.896 501.439
2301 0 56.0698 12.4844 700 107.404 637.984 498.787
2302 0 58.0741 11.933 693 107.346 638.465 499.53
2303 0 59.0992 11.8276 699 108.89 637.921 496.439
2304 0 60.0809 12.2834 738 107.256 638.972 497.106
2305 0 63.152 11.9078 752 107.751 639.093 495.281
2306 0 66.1031 12.1174 801 107.346 639.034 494.643
2307 0 67.1218 12.4848 838 106.689 638.297 495.307
2308 0 68.0858 12.3814 843 109.321 638.297 490.856
2309 0 74.1249 11.9663 887 109.03 637.729 489.986
2310 0 76.1798 12.0898 921 109.008 637.824 487.937
2311 1 39.0248 10.3524 404 109.839 637.822 503.787
2312 0 42.0431 9.39512 395 110.311 637.643 503.757
2313 0 43.0436 10.803 465 107.961 637.987 502.708
2314 0 44.1083 10.905 481 109.281 638.291 499.622
2315 0 45.246 11.6032 525 108.162 637.617 500.491
2316 0 46.0944 12.7781 589 102.859 637.404 499.747
2317 0 48.0329 11.8252 568 104.039 637.347 498.887
2318 0 47.0963 10.4042 490 107.504 637.01 498.202
2319 0 52.0995 11.1325 580 104.721 636.44 498.857
2320 0 53.0955 11.4322 607 104.003 637.305 495.461
2321 0 54.0764 11.6317 629 103.622 637.13 494.801
2322 0 57.1121 12.6068 720 101.339 637.303 496.358
2323 0 57.1303 11.29 645 104.715 638.113 495.885
2324 0 60.1103 11.6453 700 102.977 639.513 494.016
2325 0 63.0609 13.1143 827 99.7219 639.285 493.271
2326 0 65.0615 12.6342 822 101.015 638.676 489.409
2327 0 66.0711 10.5341 696 105.503 638.912 486.368
2328 0 69.1199 12.963 896 101.354 638.819 488.161
2329 0 71.1473 11.3286 806 104.839 638.954 488.068
2330 0 74.1657 11.0024 816 104.846 639.341 484.957
2331 0 77.1212 12.7202 981 101.784 639.217 485.582
2332 0 80.0423 11.9062 953 103.069 638.943 484.498
2333 0 81.0931 11.8876 964 103.328 639.575 481.116
2334 0 84.1475 10.2439 862 105.594 639.008 483.271
2335 1 45.0584 11.0301 497 103.302 640.089 500.179
2336 0 45.0976 10.7988 487 106.591 639.852 498.647
2337 0 49.0247 13.1362 644 99.1304 639.14 496.228
2338 0 48.0434 11.9475 574 103.118 639.559 496.155
2339 0 49.0604 11.9852 588 103.354 639.784 494.202
2340 0 50.1036 12.3145 617 103.167 639.473 494.861
2341 0 52.154 11.4277 596 105.555 639.616 492.297
2342 0 55.168 12.9604 715 102.564 639.389 490.646
2343 0 57.0673 12.4765 712 103.364 639.899 489.837
2344 0 59.1003 12.6734 749 103.664 639.832 487.772
2345 0 60.0369 13.7415 825 102.498 640.345 487.726
2346 0 63.1114 14.0545 887 101.74 640.311 486.045
2347 0 65.2442 12.982 847 103.784 640.553 484.536
2348 0 67.1385 13.286 892 103.914 639.767 483.194
2349 0 70.1717 13.296 933 104.146 640.533 480.919
2350 0 73.2343 12.0982 886 106.485 640.801 480.717
2351 0 73.1033 11.9283 872 108.714 640.472 478.087
2352 0 76.1588 11.7255 893 107.72 640.694 476.01
2353 0 79.1404 11.5996 918 110.459 640.562 474.081
2354 0 79.1157 10.6932 846 114.221 640.403 471.602
2355 1 43.1496 9.82627 424 114.368 641.356 493.101
2356 0 47.044 11.3298 533 111.97 639.379 490.229
2357 0 48.1267 12.5502 604 110.093 639.593 489.515
2358 0 51.0675 12.1995 623 111.477 639.986 488.271
2359 0 51.0416 11.9119 608 113.605 639.521 488.849
2360 0 52.1034 12.552 654 112.78 640.849 487.419
2361 0 55.1067 13.0293 718 110.393 641.208 486.024
2362 0 55.04 12.7362 701 114.133 641.465 484.733
2363 0 57.1584 13.1564 752 113.762 641.593 484.253
2364 0 59.1671 12.6084 746 115.205 641.674 483.976
2365 0 60.1648 11.8674 714 118.487 642.098 482.868
2366 0 63.0745 13.8249 872 113.558 641.597 482.982
2367 0 66.2056 13.6846 906 114.267 640.591 480.937
2368 0 68.3969 12.1789 833 116.603 641.079 482.505
2369 0 71.4817 13.1222 938 115.875 641.172 478.641
2370 0 71.4665 12.1176 866 119.639 641.7 478.433
2371 0 74.3233 13.6162 1012 115.347 642.029 478.395
2372 0 75.4969 13.1131 990 117.946 641.783 476.775
2373 0 78.2968 13.385 1048 117.444 641.91 476.355
2374 0 81.5427 13.7351 1120 117.787 641.919 472.603
2375 0 83.2416 12.4457 1036 120.844 642.171 473.127
2376 0 88.4683 12.999 1150 119.241 642.332 470.858
2377 0 89.1313 12.2404 1091 119.675 641.93 471.786
2378 1 48.0168 12.0166 577 116.49 641.835 490.14
2379 0 51.0356 12.0112 613 115.909 642.494 490.036
2380 0 51.0543 13.0645 667 115.676 642.795 487.438
2381 0 54.1368 11.9327 646 118.647 641.916 486.899
2382 0 54.1922 12.1604 659 119.706 641.909 485.633
2383 0 57.0821 13.174 752 116.746 641.699 485.057
2384 0 59.0309 12.0445 711 118.203 642.73 486.35
2385 0 61.0677 12.3797 756 118.066 642.724 484.59
2386 0 62.1015 11.8032 733 119.633 642.745 484.175
2387 0 65.0781 12.0778 786 119.064 642.121 482.791
2388 0 68.1163 12.9044 879 116.838 642.09 481.415
2389 0 70.0728 12.6725 888 118.57 642.093 479.155
2390 0 72.0895 12.9561 934 118.883 642.368 477.835
2391 0 74.2133 13.4477 998 117.439 641.974 477.322
2392 0 76.1266 12.3085 937 120.856 642.327 476.471
2393 0 79.2038 13.6231 1079 118.016 642.209 474.625
2394 0 82.1137 13.2865 1091 119.581 641.616 474.384
2395 0 85.1222 13.0283 1109 121.747 641.394 472.195
2396 0 87.1496 13.2301 1153 122.923 642.003 470.955
2397 0 90.1414 13.3346 1202 124.474 641.434 469.072
2398 1 47.0794 12.1922 574 124.167 641.422 490.479
2399 0 50.0867 12.7778 640 119.694 641.255 489.756
2400 0 50.1013 11.9957 601 124.498 640.998 488.125
2401 0 50.1073 11.7149 587 126.61 641.204 487.351
2402 0 53.0361 11.577 614 125.383 641.104 488.461
2403 0 55.078 13.2902 732 121.414 641.462 486.701
2404 0 55.1301 12.3707 682 126.067 640.865 484.636
2405 0 58.1214 13.1105 762 122.597 641.836 484.508
2406 0 58.0544 12.1265 704 126.882 641.199 483.226
2407 0 63.0415 13.8004 870 121.261 641.375 482.46
2408 0 64.0629 13.0809 838 123.177 641.699 482.848
2409 0 67.0439 13.4389 901 122.171 641.799 481.971
2410 0 68.051 13.2842 904 121.173 642.043 481.631
2411 0 70.0861 13.5548 950 122.106 642.048 480.437
2412 0 76.1374 13.5019 1028 121.603 642.183 478.283
2413 0 78.0514 13.7986 1077 120.744 641.382 476.461
2414 0 79.1872 13.4491 1065 116.458 641.726 472.743
2415 0 83.1573 12.9754 1079 118.288 641.759 471.18
2416 0 85.2258 12.5901 1073 119.13 641.692 471.435
2417 1 41.057 10.2297 420 122.848 641.65 492.152
2418 0 43.0969 11.3001 487 120.979 641.618 491.041
2419 0 46.0709 11.1567 514 121.586 641.895 492.121
2420 0 47.0644 11.7074 551 120.608 641.477 490.677
2421 0 49.0656 11.7598 577 120.146 641.563 490.045
2422 0 48.0203 11.1828 537 123.966 641.451 490.112
2423 0 50.0268 12.7931 640 119.3 641.834 488.739
2424 0 53.0282 12.6914 673 118.486 641.236 488.259
2425 0 54.0527 12.8208 693 118.104 641.551 487.554
2426 0 55.1704 13.0867 722 117.791 642.037 487.206
2427 0 58.0669 13.5189 785 114.603 642.064 485.868
2428 0 58.117 13.3696 777 116.327 642.426 486.181
2429 0 60.0236 13.0782 785 116.871 642.48 484.659
2430 0 63.0992 13.0588 824 116.282 642.267 483.567
2431 0 66.139 13.2146 874 114.953 642.569 481.137
2432 0 68.1497 14.4095 982 111.952 643.487 480.416
2433 0 70.1383 12.9459 908 116.09 642.578 479.811
2434 0 71.1339 11.9634 851 120.007 642.835 478.506
2435 0 74.1252 13.5446 1004 115.581 643.084 478.387
2436 0 77.1179 12.1243 935 119.743 642.296 476.973
2437 0 78.29 13.9737 1094 116.018 642.937 473.898
2438 0 82.1417 12.1497 998 120.167 643.113 475.679
2439 0 83.3032 13.0727 1089 119.38 642.697 474.41
2440 0 86.1927 13.7251 1183 118.547 643.41 470.88
2441 0 89.2084 12.88 1149 120.956 643.787 471.365
2442 0 90.1897 12.8063 1155 122.503 643.115 469.098
2443 1 50.2483 12.1994 613 122.364 643.07 489.883
2444 0 51.2061 12.7329 652 125.824 643.153 490.186
2445 0 51.1274 11.7549 601 118.814 642.314 485.358
2446 0 54.1489 12.6134 683 116.666 642.057 485.675
2447 0 54.0941 13.2177 715 116.459 642.348 486.51
2448 0 57.0345 12.5538 716 117.486 642.68 485.578
2449 0 59.0186 13.3517 788 115.718 642.967 484.334
2450 0 58.1483 12.7949 744 118.292 642.513 483.598
2451 0 63.1085 13.1837 832 115.768 642.49 482.438
2452 0 65.1081 12.8248 835 116.853 642.846 482.145
2453 0 67.2012 12.6486 850 118.986 643.402 480.12
2454 0 66.1392 12.1411 803 122.479 643.543 477.309
2455 0 69.1306 12.556 868 121.634 643.957 475.453
2456 0 73.1685 13.6671 1000 119.582 643.439 475.467
2457 0 73.1189 12.8831 942 126.044 643.364 473.462
2458 0 78.2749 13.6059 1065 123.445 643.199 473.068
2459 0 80.2126 13.2772 1065 124.915 643.377 471.238
2460 0 82.1443 12.9163 1061 128.304 643.292 467.818
2461 0 85.2915 13.8466 1181 125.093 643.942 468.001
2462 0 88.2922 13.6592 1206 125.546 643.725 465.222
2463 0 90.2526 12.6423 1141 129.081 643.407 468.035
2464 0 93.247 12.4401 1160 130.097 643.454 466.112
2465 0 95.2297 13.4727 1283 128.597 644.479 460.669
2466 0 100.288 12.3344 1237 130.731 644.177 462.464
2467 0 103.346 13.0919 1353 129.628 643.625 457.783
2468 0 107.208 12.4525 1335 130.76 644.073 454.951
2469 1 56.2145 9.44597 531 123.812 644.687 484.132
2470 0 57.1643 10.4786 599 123.16 644.244 482.068
2471 0 59.1914 11.8767 703 120.748 644.367 479.597
2472 0 64.0872 12.0461 772 116.736 645.352 480.505
2473 0 66.0352 10.9941 726 119.532 644.179 480.449
2474 0 68.1205 11.3035 770 119.005 644.595 478.282
2475 0 70.0539 12.5047 876 122.416 645.08 475.6
2476 0 72.0805 12.5277 903 120.858 644.772 475.857
2477 0 75.0545 10.992 825 124.286 644.932 475.801
2478 0 78.1046 12.304 961 121.854 644.783 473.945
2479 0 78.03 12.2133 953 123.742 645.047 471.157
2480 0 81.0519 12.017 974 123.137 643.761 471.72
2481 0 84.1838 12.5321 1055 121.375 643.906 472.123
2482 0 86.0758 12.5587 1081 122.555 643.748 468.755
2483 0 87.0706 11.8984 1036 123.553 643.645 469.909
2484 0 90.1153 12.0401 1085 123.34 643.851 468.766
2485 0 92.092 12.5635 1157 123.269 644.125 466.239
2486 0 95.1106 13.1426 1250 122.397 643.907 463.681
2487 0 98.1897 12.0176 1180 124.47 644.471 464.469
2488 0 101.124 12.2226 1236 125.916 643.892 460.463
2489 0 104.181 12.9966 1354 124.647 643.659 458.382
2490 1 55.1162 11.122 613 120.734 643.701 485.437
2491 0 57.0504 11.446 653 120.658 644.58 483.694
2492 0 57.0181 11.926 680 122.618 644.51 481.125
2493 0 60.0169 12.4465 747 119.355 644.206 481.608
2494 0 61.0877 11.0661 676 127.444 644.506 480.527
2495 0 62.029 11.8332 734 126.275 643.51 478.965
2496 0 67.1081 14.2308 955 115.706 644.548 475.334
2497 0 67.0397 11.6796 783 125.856 644.693 477.768
2498 0 68.0468 11.6978 796 128.573 644.727 475.183
2499 0 68.054 11.8288 805 134.112 644.703 475.453
2500 0 72.1043 10.9147 787 130.957 644.199 472.84
2501 0 75.0947 11.4123 857 129.048 644.698 472.294
2502 0 78.0474 12.5821 982 125.57 644.418 471.609
2503 0 81.06 11.9664 970 128.61 644.58 470.14
2504 0 85.0287 12.6546 1076 126.261 644.439 468.485
2505 0 85.0467 11.7935 1003 130.1 644.057 465.964
2506 0 88.1151 11.6439 1026 130.144 644.23 466.538
2507 0 91.0837 12.5599 1144 128.066 644.556 464.14
2508 0 95.0803 12.3685 1176 126.723 644.37 464.872
2509 0 96.06 11.9613 1149 127.699 643.584 463.46
2510 0 99.1103 11.9766 1187 129.298 643.636 459.508
2511 0 104.124 13.7432 1431 124.563 643.635 457.27
2512 0 105.18 11.2759 1186 125.991 644.109 457.815
2513 1 57.146 11.4444 654 122.804 643.976 482.081
2514 0 58.1291 11.1304 647 124.456 644.473 481.453
2515 0 60.0515 12.0064 721 125.198 645.483 479.108
2516 0 63.0847 13.3154 840 123.118 644.899 477.944
2517 0 64.2381 12.4848 802 126.347 644.163 478.084
2518 0 66.2298 12.5019 828 126.444 644.266 475.507
2519 0 68.0879 11.7642 801 127.911 644.7 474.632
2520 0 71.2359 12.7464 908 126.393 645.077 473.781
2521 0 74.3497 13.033 969 125.37 645.063 472.446
2522 0 77.1625 12.9597 1000 125.851 644.626 471.684
2523 0 79.1863 12.8052 1014 126.743 645.145 470.819
2524 0 80.1549 13.6112 1091 126.261 644.491 468.836
2525 0 83.1627 13.7321 1142 126.838 643.659 465.842
2526 0 89.2094 13.0479 1164 127.673 644.636 466.695
2527 0 89.1673 11.7083 1044 132.394 644.934 465.645
2528 0 93.1751 14.1991 1323 126.06 644.379 464.483
2529 0 93.1763 12.2134 1138 132.749 644.551 463.207
2530 0 100.244 13.0082 1304 129.499 644.307 462.326
2531 1 55.0897 10.9821 605 130.407 645.321 482.517
2532 0 57.1231 12.0967 691 123.658 644.43 479.663
2533 0 59.159 12.0861 715 130.207 645.684 479.522
2534 0 61.2133 11.8275 724 130.412 645.837 479.713
2535 0 62.172 12.8836 801 129.32 645.222 476.498
2536 0 66.1493 13.7265 908 125.029 644.716 478.235
2537 0 68.1412 13.0758 891 127.322 645.285 476.981
2538 0 69.2444 13.3585 925 127.634 645.201 475.67
2539 0 73.2959 13.2204 969 127.908 644.42 473.821
2540 0 74.1921 14.0581 1043 126.444 644.94 472.32
2541 0 77.3784 14.3709 1112 126.296 644.932 470.006
2542 0 78.5632 13.0468 1025 130.234 644.57 467.065
2543 0 81.0903 12.2086 990 123.449 644.099 465.168
2544 0 84.3404 11.9041 1004 124.612 644.794 465.87
2545 0 88.3293 12.3402 1090 124.086 644.832 464.452
2546 0 88.4897 11.2442 995 130.184 644.483 461.815
2547 1 48.2637 11.4993 555 118.229 644.708 483.771
2548 0 48.1811 12.4323 599 117.15 645.688 482.209
2549 0 52.1726 12.8228 669 116.069 645.428 482.03
2550 0 53.1601 13.0925 696 116.667 645.614 480.259
2551 0 54.082 11.649 630 120.5 645.051 484.633
2552 0 56.1327 11.651 654 120.093 644.988 484.219
2553 0 58.1566 11.8473 689 120.187 645.179 481.798
2554 0 60.1346 11.9399 718 118.939 645.287 480.942
2555 0 59.1798 11.8115 699 121.442 645.137 479.685
2556 0 60.0987 11.5144 692 121.416 645.447 477.481
2557 0 64.1095 11.574 742 119.65 645.096 478.244
2558 0 65.0358 11.5629 752 120.586 645.613 475.211
2559 0 67.0852 12.9686 870 116.585 645.203 474.567
2560 0 69.1826 12.3731 856 117.938 645.902 471.808
2561 0 71.2571 11.0445 787 121.113 645.524 471.787
2562 0 73.1195 11.2282 821 120.636 644.51 470.743
2563 0 77.1612 13.0376 1006 115.862 644.227 467.359
2564 0 79.1237 12.689 1004 118.366 644.473 467.092
2565 0 81.2039 12.6472 1027 117.567 644.884 467.196
2566 0 85.3544 12.6531 1080 118.339 643.906 462.431
2567 0 87.3286 12.4587 1088 118.247 644.663 461.699
2568 0 90.268 11.1114 1003 121.786 644.541 460.872
2569 0 95.1996 11.4391 1089 120.56 644.112 459.524
2570 0 98.2651 12.1203 1191 118.287 643.95 457.339
2571 1 54.1698 10.1717 551 112.604 645 480.201
2572 0 55.2963 11.0857 613 118.24 644.653 480.856
2573 0 57.1895 10.9111 624 111.274 644.643 476.862
2574 0 59.1469 11.1079 657 110.817 645.049 478.467
2575 0 60.147 11.688 703 110.321 645.161 475.67
2576 0 62.0965 10.226 635 111.302 645.209 474.463
2577 0 63.1066 10.5853 668 110.189 644.504 474.669
2578 0 68.1276 12.2858 837 105.166 644.746 475.787
2579 0 69.1173 11.2273 776 107.504 644.438 473.272
2580 0 71.136 12.0755 859 106.492 644.852 470.623
2581 0 74.1662 11.5147 854 109.443 644.7 467.71
2582 0 73.102 9.94501 727 113.627 644.708 467.718
2583 0 79.1123 12.1346 960 108.967 644.468 467.806
2584 0 82.0924 11.3774 934 112.035 644.864 466.481
2585 0 83.1966 9.91627 825 115.699 644.175 464.512
2586 0 90.1386 12.8913 1162 108.956 644.497 463.233
2587 0 90.3438 11.3456 1025 113.303 645.005 462.509
2588 0 94.5992 11.998 1135 114.226 644.968 456.997
2589 0 96.3008 11.3706 1095 116.984 645.166 455.793
2590 0 100.202 11.6364 1166 118.325 644.224 452.053
2591 0 104.295 11.41 1190 117.476 644.697 456.581
2592 1 55.1638 10.8767 600 115.43 644.59 476.623
2593 0 57.1314 11.2723 644 117.526 643.86 474.394
2594 0 60.1177 12.8248 771 105.944 644.82 480.377
2595 0 60.1037 11.58 696 111.089 644.457 480.388
2596 0 62.0403 12.2501 760 109.692 644.842 478.567
2597 0 63.1682 11.3823 719 112.204 645.256 476.268
2598 0 68.0991 12.1441 827 110.12 645.518 475.353
2599 0 70.1477 12.8443 901 107.806 645.459 473.307
2600 0 71.1281 11.9924 853 111.879 645.937 470.981
2601 0 73.0691 11.8381 865 113.035 646.067 470.464
2602 0 77.1226 13.2776 1024 111.375 645.098 470.59
2603 0 80.2034 13.4408 1078 111.12 645.2 469.284
2604 0 82.2463 12.7665 1050 115.194 644.812 466.682
2605 0 85.1183 12.23 1041 117.057 645.082 467.533
2606 0 87.174 13.7312 1197 113.821 644.595 466.251
2607 0 90.1282 12.6819 1143 116.727 645.22 466.356
2608 0 94.1781 12.6993 1196 117.45 645.648 464.731
2609 0 97.2332 11.6113 1129 121.099 644.652 463.054
2610 0 97.2332 11.6833 1136 137.316 644.669 463.058
2611 1 54.1776 11.7023 634 117.145 644.421 481.442
2612 0 56.2448 11.3788 640 117.353 644.664 480.647
2613 0 58.1596 12.5001 727 114.816 644.796 483.435
2614 0 59.1491 12.6122 746 113.634 644.952 480.294
2615 0 62.0662 12.4383 772 112.518 645.236 480.769
2616 0 61.0894 11.4913 702 116.536 645.59 480.281
2617 0 66.1086 13.2812 878 110.452 645.035 478.854
2618 0 69.1619 12.7961 885 110.254 644.258 478.002
2619 0 68.0621 12.2535 834 113.283 644.57 477.799
2620 0 73.1134 13.226 967 108.942 644.881 475.949
2621 0 74.1494 12.2321 907 112.207 644.325 476.089
2622 0 76.103 13.2583 1009 109.912 643.875 474.938
2623 0 79.1393 14.1775 1122 107.237 644.075 473.149
2624 0 82.2129 13.6353 1121 108.275 644.047 471.304
2625 0 85.1049 13.4187 1142 108.037 644.009 470.822
2626 0 86.076 13.1628 1133 109.354 643.741 468.989
2627 0 90.1285 12.0273 1084 109.839 643.856 469.936
2628 0 93.2122 12.5735 1172 109.154 643.576 465.501
2629 0 97.1807 13.0684 1270 107.611 643.983 463.81
2630 0 99.2724 13.2464 1315 108.116 643.845 461.619
2631 1 52.1931 10.8443 566 109.878 644.058 486.382
2632 0 54.1765 11.481 622 111.727 643.765 486.309
2633 0 58.1694 11.7244 682 110.501 642.886 486.315
2634 0 58.0884 13.0835 760 108.916 642.993 483.9
2635 0 61.1238 12.7119 777 109.776 644.094 485.212
2636 0 61.1907 12.2894 752 112.08 644.871 481.688
2637 0 66.0686 13.047 862 108.346 644.713 481.465
2638 0 67.2063 12.603 847 110.005 644.689 479.538
2639 0 68.1408 12.7823 871 110.307 644.185 479.879
2640 0 71.0933 12.3078 875 111.695 644.477 476.614
2641 0 74.058 13.773 1020 108.074 644.611 477.436
2642 0 79.1952 12.6523 1002 111.226 645.017 473.594
2643 0 79.4226 12.2257 971 114.556 643.866 471.705
2644 1 40.0522 11.3602 455 112.029 644.611 492.826
2645 0 43.0541 11.3346 488 111.822 644.648 490.445
2646 0 45.0586 12.2729 553 109.94 643.902 489.626
2647 0 46.1097 12.0582 556 111.583 643.795 490.243
2648 0 47.0267 12.4397 585 112.952 644.282 489.783
2649 0 49.0242 12.5856 617 112.381 644.608 491.455
2650 0 49.0653 12.5139 614 113.565 643.899 491.174
2651 0 50.1021 12.0155 602 113.724 643.449 489.432
2652 0 50.1385 11.8871 596 115.715 643.859 488.574
2653 0 52.0596 12.3128 641 118.359 643.264 486.52
2654 0 58.0921 14.7696 858 107.984 643.956 485.163
2655 0 56.0303 13.1357 736 116.247 644.12 486.08
2656 0 59.0386 13.686 808 114.733 643.473 486.364
2657 0 60.0385 13.7911 828 115.5 644.261 486.263
2658 0 61.0272 14.0265 856 116.586 643.785 484.046
2659 0 64.0471 13.7399 880 117.188 644.305 481.722
2660 0 66.0503 14.3981 951 114.313 644.227 482.341
2661 0 66.0984 13.8279 914 116.178 643.112 481.335
2662 0 69.1302 13.4095 927 116.682 643.67 480.064
2663 0 71.1704 14.4021 1025 113.638 643.87 480.444
2664 0 74.1443 14.5122 1076 113.594 642.904 477.18
2665 0 79.071 13.431 1062 114.46 643.191 477.857
2666 0 78.096 12.856 1004 117.968 643.387 476.021
2667 0 80.1343 12.2794 984 119.672 643.451 476.223
2668 0 82.1431 12.2226 1004 120.237 643.245 475.045
2669 0 84.2123 11.7798 992 120.579 642.929 474.479
2670 0 88.2165 12.1633 1073 120.045 643.368 471.096
2671 0 92.1238 12.4615 1148 119.027 642.253 467.938
2672 1 51.1219 12.3235 630 118.497 642.602 486.049
2673 0 52.107 12.34 643 116.672 641.874 485.838
2674 0 52.107 12.34 643 144.904 640.893 485.89
2675 0 53.0594 11.8735 630 120.217 640.832 485.019
2676 0 55.0706 12.6928 699 118.637 641.063 484.023
2677 0 58.0419 11.285 655 121.032 641.788 483.988
2678 0 59.0499 11.8544 700 120.416 641.944 482.834
2679 0 60.0612 14.1356 849 115.026 641.562 482.267
2680 0 63.0322 13.1203 827 116.834 641.784 481.542
2681 0 65.0738 13.5231 880 115.919 641.212 481.148
2682 0 66.155 12.2893 813 119.975 642.134 479.798
2683 0 69.1616 12.2901 850 119.834 642.426 477.767
2684 0 70.1425 13.5866 953 117.141 642.298 476.694
2685 0 72.1251 13.532 976 117.727 642.497 475.47
2686 0 75.0961 13.4361 1009 118 642.248 474.433
2687 0 79.1679 14.8671 1177 113.405 642.084 474.215
2688 0 81.3155 14.1424 1150 116.102 642.174 471.755
2689 0 85.1733 14.1711 1207 115.574 642.283 470.923
2690 1 43.1246 10.5972 457 123.674 642.462 488.803
2691 0 43.1315 10.9665 473 119.04 642.987 488.611
2692 0 44.0389 10.627 468 114.72 643.479 484.451
2693 0 46.0343 10.8615 500 108.492 642.712 487.388
2694 0 48.0248 10.0157 481 109.915 642.744 488.075
2695 0 49.0231 11.4028 559 108.614 642.814 486.59
2696 0 51.0616 11.4567 585 109.012 642.638 485.679
2697 0 51.0519 10.5775 540 111.122 643.113 486.804
2698 0 53.0136 10.3747 550 112.453 643.427 486.669
2699 0 55.2346 11.605 641 110.022 643.424 484.822
2700 0 55.0829 11.2921 622 112.781 643.338 484.49
2701 0 57.0486 11.6041 662 113.248 643.162 484.032
2702 0 60.0751 11.5522 694 113.213 643.265 482.382
2703 0 65.1287 12.4523 811 110.43 643.575 479.763
2704 0 64.1108 11.0278 707 114.504 644.495 480.325
2705 0 65.1198 11.3944 742 114.805 643.616 478.338
2706 0 69.1067 11.7934 815 113.438 643.099 478.052
2707 0 71.1715 12.1256 863 113.097 643.532 477.163
2708 0 74.245 11.5025 854 115.018 643.157 475.48
2709 0 77.1374 11.1489 860 117.23 643.95 473.181
2710 0 80.228 10.9313 877 117.086 644 473.172
2711 0 81.1438 10.9066 885 118.521 643.997 471.949
2712 1 44.1138 10.813 477 117.795 644.122 489.323
2713 0 44.2044 11.4242 505 121.15 643.933 487.202
2714 0 46.0573 11.5725 533 124.711 644.827 486.724
2715 0 49.0962 13.443 660 119.294 644.314 485.455
2716 0 49.1218 13.4156 659 121.038 644.648 483.733
2717 0 50.0786 12.9596 649 122.743 644.63 482.604
2718 0 54.1095 13.1031 709 121.147 644.722 483.24
2719 0 52.0664 12.196 635 127.135 645.219 481.921
2720 0 56.0695 13.5368 759 121.286 644.493 481.71
2721 0 58.115 12.9915 755 124.346 644.944 480.207
2722 0 58.1224 13.592 790 123.284 644.61 480.682
2723 0 59.1037 13.1802 779 125.517 645.365 478.919
2724 0 64.0704 14.0783 902 122.18 644.3 477.506
2725 0 65.113 14.9586 974 120.048 644.181 477.989
2726 0 66.0913 13.1031 866 126.839 644.829 475.672
2727 0 70.0847 14.4111 1010 121.446 644.727 475.25
2728 0 71.0958 13.6858 973 124.723 643.591 473.646
2729 0 73.1327 14.2481 1042 124.23 643.702 471.417
2730 0 74.2502 13.4141 996 128.143 644.24 469.501
2731 0 77.0762 13.6748 1054 126.289 644.517 469.679
2732 0 81.2285 14.9701 1216 122.303 644.766 467.688
2733 0 82.2165 13.4036 1102 127.709 643.769 464.916
2734 0 85.2357 13.9613 1190 125.88 643.983 465.201
2735 0 87.179 13.4436 1172 128.741 644.015 463.549
2736 1 50.1364 12.5059 627 125.246 643.297 480.51
2737 0 51.0941 12.0758 617 128.481 643.25 480.739
2738 0 52.0755 12.5971 656 127.77 643.869 480.358
2739 0 53.0496 12.5543 666 128.345 643.653 479.877
2740 0 54.1404 11.7657 637 130.675 644.681 477.626
2741 0 56.1391 12.665 711 127.236 644.11 479.27
2742 0 59.1419 12.5799 744 126.913 644.418 478.556
2743 0 59.0695 12.1552 718 129.662 644.474 477.223
2744 0 61.1649 13.3246 815 125.822 644.74 475.832
2745 0 65.0665 13.2787 864 123.905 644.674 475.705
2746 0 67.1256 13.6014 913 123.769 644.169 474.527
2747 0 69.1156 12.6599 875 126.712 643.989 472.949
2748 0 70.1025 13.1522 922 126.33 644.19 470.957
2749 0 75.1095 13.4604 1011 123.938 644.21 471.097
2750 0 76.2038 13.3064 1014 124.3 644.08 469.461
2751 0 80.2765 13.5905 1091 122.696 644.92 468.996
2752 0 81.1506 12.3844 1005 127.005 644.773 466.941
2753 0 82.1647 13.0105 1069 126.617 644.004 465.338
2754 0 86.211 13.2466 1142 123.971 644.531 466.128
2755 0 91.1075 14.9274 1360 120.228 644.515 461.803
2756 0 94.1605 13.1902 1242 124.767 644.382 460.688
2757 1 48.1058 10.1027 486 122.545 644.16 481.942
2758 0 51.1229 10.9735 561 120.098 643.877 482.715
2759 0 54.072 12.2429 662 116.205 644.408 482.183
2760 0 53.096 12.8446 682 116.216 644.711 481.5
2761 0 55.1936 11.8311 653 112.893 645.504 479.686
2762 0 57.0967 10.8588 620 114.924 645.184 478.929
2763 0 58.1058 12.133 705 112.365 645.145 478.511
2764 0 61.2304 12.4775 764 110.66 644.84 478.632
2765 0 63.1541 12.1449 767 111.375 644.708 478.184
2766 0 65.0732 13.6154 886 108.702 644.939 476.611
2767 0 67.0848 12.432 834 111.541 644.524 475.464
2768 0 71.1334 12.9053 918 109.382 644.366 474.216
2769 0 73.1745 13.5156 989 108.674 644.508 471.069
2770 0 75.1172 12.6735 952 110.7 645.141 471.527
2771 0 76.0785 11.4093 868 114.414 644.369 471.185
2772 0 78.1019 13.3159 1040 110.834 643.695 467.687
2773 0 82.0758 12.3666 1015 112.626 644.086 467.501
2774 0 82.1143 11.9711 983 114.143 643.875 465.071
2775 0 87.1485 13.0582 1138 111.019 644.221 466.363
2776 0 90.0659 13.8454 1247 109.479 643.16 462.852
2777 0 93.1325 12.7453 1187 111.106 643.702 461.083
2778 0 96.0611 12.6482 1215 111.725 644.138 461.293
2779 0 101.153 14.6017 1477 111.819 643.668 462.942
2780 0 104.118 13.3406 1389 112.475 644.081 461.734
2781 0 108.115 11.978 1295 112.508 643.639 455.666
2782 0 112.104 12.1405 1361 113.447 643.582 457.1
2783 1 64.1318 12.3028 789 109.318 643.791 480.679
2784 0 67.0603 11.9146 799 110.728 643.751 479.627
2785 0 69.072 12.8706 889 108.107 643.173 478.47
2786 0 69.1405 11.3248 783 111.755 644.605 476.088
2787 0 70.088 12.3416 865 110.427 644.201 473.634
2788 0 76.1656 12.6304 962 107.286 644.011 474.839
2789 0 77.0905 13.2831 1024 107.56 644.013 472.708
2790 0 81.1234 12.9556 1051 107.083 644.416 471.881
2791 0 85.1311 12.7216 1083 107.103 643.826 471.573
2792 0 84.074 13.0956 1101 107.795 644.036 468.973
2793 0 90.1526 13.7434 1239 104.144 643.612 466.792
2794 0 91.1115 13.3134 1213 106.34 643.946 466.844
2795 0 93.0829 12.2579 1141 110.162 643.909 463.11
2796 0 96.1139 13.0574 1255 109.578 644.159 463.023
2797 0 102.119 13.2982 1358 110.067 643.094 460.474
2798 0 105.236 11.441 1204 119.008 643.419 458.586
2799 1 54.0741 10.9849 594 107.039 643.724 485.094
2800 0 57.0618 12.3375 704 103.96 644.58 484.304
2801 0 58.3067 11.954 697 104.868 643.473 484.815
2802 0 59.1108 10.7933 638 108.782 643.379 480.647
2803 0 61.214 11.2883 691 107.033 643.454 481.806
2804 0 66.1122 12.4637 824 104.096 644.817 480.584
2805 0 68.0527 11.5646 787 106.814 644.947 479.889
2806 0 69.0606 11.0483 763 109.034 644.836 477.396
2807 0 72.1156 12.5354 904 106.323 644.396 476.782
2808 0 76.1639 12.5519 956 106.056 644.28 477.017
2809 0 75.1267 11.7135 880 110.236 644.427 476.452
2810 0 79.1254 12.9541 1025 108.165 644.277 474.611
2811 0 82.157 12.7317 1046 109.132 644.226 473.903
2812 0 84.104 13.2455 1114 110.034 643.761 470.845
2813 0 88.1021 12.8487 1132 110.044 643.697 471.7
2814 0 90.1623 12.3 1109 111.994 644.021 470.555
2815 0 93.104 12.9103 1202 113.73 644.318 466.504
2816 1 50.1215 11.6916 586 110.952 643.428 488.884
2817 0 51.2481 13.7956 707 106.355 644.085 487.617
2818 0 52.2103 12.6986 663 108.359 643.929 488.084
2819 0 54.2315 13.9218 755 107.009 643.078 486.846
2820 0 54.1115 12.3264 667 110.993 642.967 486.481
2821 0 57.107 13.0282 744 109.196 643.769 486.69
2822 0 58.177 12.6854 738 109.121 643.206 486.28
2823 0 59.1508 11.2594 666 113.437 644.305 483.332
2824 0 63.2173 12.0378 761 110.691 643.244 483.686
2825 0 64.3563 11.9646 770 112.162 642.839 481.89
2826 0 67.4353 12.4119 837 111.128 643.452 481.124
2827 0 68.2072 12.8432 876 111.463 643.842 478.41
2828 0 73.3166 14.4442 1059 106.91 642.951 477.054
2829 0 74.0472 13.2213 979 105.984 643.44 478.061
2830 0 75.1307 14.4947 1089 103.904 642.719 477.442
2831 0 76.1719 12.9313 985 110.015 643.02 475.422
2832 0 79.1726 12.3401 977 111.399 642.947 477.134
2833 0 80.2897 12.5545 1008 112.329 642.671 473.569
2834 0 85.1462 13.4827 1148 110.014 643.386 470.925
2835 0 87.0712 13.3569 1163 111.602 642.909 469.849
2836 0 88.1591 12.5455 1106 114.514 642.59 469.489
2837 0 91.2183 13.5389 1235 112.036 642.55 469.452
2838 0 95.207 14.7153 1401 110.106 642.601 467.031
2839 0 98.2554 13.9127 1367 115.315 641.658 464.298
2840 0 103.136 13.7779 1421 118.137 641.975 462.901
2841 0 105.351 14.2666 1503 115.88 642.188 459.184
2842 0 109.483 14.2397 1559 116.373 642.857 457.244
2843 1 59.0812 11.8481 700 113.363 642.916 484.797
2844 0 61.1721 11.247 688 114.166 642.605 484.862
2845 0 64.1592 12.1573 780 113.324 641.838 479.406
2846 0 65.2342 12.892 841 112.006 641.669 480.083
2847 0 68.1246 11.523 785 114.852 643.284 479.196
2848 0 71.132 12.765 908 111.102 643.753 479.764
2849 0 73.1578 12.9583 948 111.071 643.651 479.502
2850 0 75.1219 12.4198 933 112.87 642.794 476.743
2851 0 80.2649 13.58 1090 109.472 642.405 474.387
2852 0 81.3662 13.4577 1095 110.722 643.395 472.171
2853 0 84.2639 13.3984 1129 110.718 642.539 470.927
2854 0 88.3113 13.7921 1218 108.785 642.582 472.977
2855 0 90.1574 12.9551 1168 112.33 642.39 468.337
2856 0 92.2316 13.6396 1258 111.214 642.734 467.558
2857 0 95.2264 11.6774 1112 117.56 642.462 466.102
2858 0 97.11 11.6672 1133 117.673 642.692 465.31
2859 0 104.182 12.9677 1351 113.977 642.863 463.673
2860 1 52.128 11.2799 588 111.514 642.546 489.075
2861 0 53.1776 10.5872 563 118.849 642.618 486.707
2862 0 57.1601 11.7739 673 111.704 642.637 485.572
2863 0 58.1139 12.0625 701 113.312 641.729 482.254
2864 0 60.0947 11.5318 693 115.345 642.283 483
2865 0 63.1497 12.6525 799 113.214 641.164 481.17
2866 0 64.1666 11.6572 748 116.271 641.893 479.828
2867 0 65.1549 11.818 770 117.416 641.927 480.166
2868 0 69.1664 12.9398 895 114.765 642.37 478.859
2869 0 73.1838 13.0493 955 115.137 643.452 477.834
2870 0 74.0595 11.0317 817 120.436 642.476 477.812
2871 0 77.2232 13.6617 1055 115.673 642.099 473.74
2872 0 80.2096 12.7291 1021 118.744 642.098 472.785
2873 0 85.2547 13.1957 1125 116.705 642.009 472.886
2874 0 86.2227 14.161 1221 115.894 642.598 471.202
2875 0 89.1954 13.9021 1240 117.844 642.472 469.981
2876 0 90.2678 12.2414 1105 124.224 642.617 470.665
2877 0 96.1959 13.0983 1260 122.376 642.525 467.248
2878 0 96.1537 12.8024 1231 124.716 642.686 465.533
2879 1 50.0563 10.3883 520 125.613 642.719 487.506
2880 0 53.1051 12.0139 638 121.052 642.903 486.85
2881 0 55.1293 12.8607 709 118.172 642.869 488.062
2882 0 59.1438 13.7293 812 112.654 643.064 485.113
2883 0 61.2177 12.6924 777 114.256 642.997 482.234
2884 0 62.1779 12.5929 783 115.716 643.005 482.143
2885 0 61.1397 13.5264 827 113.892 642.781 475.6
2886 0 63.0937 12.6003 795 116.34 643.162 476.226
2887 0 65.0269 12.4871 812 117.814 642.414 474.892
2888 0 67.0826 12.015 806 119.091 642.739 474.145
2889 0 71.1103 12.9939 924 113.234 642.623 474.761
2890 0 72.1467 12.3637 892 119.447 643.045 472.603
2891 0 75.0848 12.1329 911 121.022 642.817 472.259
2892 0 80.0914 13.8092 1106 116.069 642.428 471.156
2893 0 82.0469 13.0779 1073 118.934 642.602 470.856
2894 0 85.1708 13.3144 1134 119.574 642.228 467.55
2895 0 87.0696 14.23 1239 118.098 641.883 467.113
2896 0 90.1198 13.1824 1188 120.939 642.1 466.987
2897 0 92.1906 12.1921 1124 124.806 642.046 465.368
2898 0 97.2607 13.5409 1317 121.123 642.024 463.138
2899 0 100.116 14.8028 1482 119.28 642.384 461.374
2900 0 103.081 13.5719 1399 123.474 642.294 453.167
2901 1 55.2192 10.7571 594 127.576 641.699 479.352
2902 0 58.055 12.1264 704 126.827 642.706 478.413
2903 0 61.0834 12.9495 791 118.904 643.03 477.776
2904 0 61.1487 11.8563 725 126.641 642.132 475.448
2905 0 64.2285 12.1908 783 125.277 642.115 475.821
2906 0 66.1723 12.2408 810 124.464 642.036 475.957
2907 0 70.3135 12.1883 857 124.228 642.371 474.32
2908 0 72.2264 12.5439 906 124.202 642.805 474.199
2909 0 74.2126 12.545 931 123.689 643.039 473.813
2910 0 75.2973 12.7096 957 125.249 642.876 471.889
2911 0 79.1842 13.8159 1094 122.84 642.449 469.341
2912 0 84.2411 13.2596 1117 122.834 642.196 469.624
2913 0 85.2992 12.6848 1082 126.409 642.691 468.33
2914 0 89.1641 13.2789 1184 124.231 642.458 465.877
2915 0 92.2573 13.1914 1217 124.874 643.071 465.397
2916 0 95.2345 12.59 1199 126.589 643.344 462.208
2917 0 97.1967 12.8194 1246 126.201 643.124 461.897
2918 0 99.2021 12.7921 1269 127.727 642.696 458.812
2919 0 105.406 13.595 1433 124.973 643.502 458.298
2920 0 107.318 14.1448 1518 124.125 642.638 456.914
2921 0 110.346 13.1586 1452 128.591 642.196 452.34
2922 0 115.316 13.3546 1540 129.096 642.759 450.264
2923 1 64.2242 9.70039 623 125.77 642.222 471.676
2924 0 68.2329 11.7245 800 116.384 642.91 470.848
2925 0 69.2508 12.4331 861 111.05 642.571 469.528
2926 0 71.2679 11.7444 837 113.389 643.073 465.737
2927 0 73.396 12.8072 940 111.602 642.491 467.847
2928 0 75.227 12.7215 957 112.143 642.043 464.372
2929 0 76.1289 12.3475 940 114.055 642.067 463.349
2930 0 79.0567 11.6752 923 117.189 642.001 460.08
2931 0 84.1682 12.5938 1060 113.998 642.058 462.829
2932 0 86.0804 12.7439 1097 115.189 641.652 459.525
2933 0 86.1822 12.3459 1064 118.164 641.76 458.108
2934 0 88.2946 11.5636 1021 121.514 641.27 455.809
2935 0 92.3473 12.0523 1113 120.775 641.127 455.951
2936 0 95.105 12.134 1154 121.798 641.382 454.594
2937 0 100.128 12.7337 1275 119.543 641.156 453.717
2938 0 105.144 12.9727 1364 119.692 641.582 451.445
2939 0 108.185 12.8206 1387 121.536 642.138 449.552
2940 0 113.214 13.3553 1512 123.575 641.253 448.979
2941 0 118.234 13.6932 1619 122.428 641.817 447.757
2942 0 122.158 13.9327 1702 121.214 641.774 447.908
2943 1 67.1168 12.0387 808 117.198 641.389 474.38
2944 0 71.1037 13.0935 931 114.545 641.936 471.773
2945 0 74.2007 12.8974 957 112.98 640.75 472.855
2946 0 76.2687 12.5215 955 113.916 640.082 471.181
2947 0 79.2395 12.519 992 114.03 640.553 470.782
2948 0 81.139 13.3721 1085 113.147 640.42 470.407
2949 0 82.3705 12.5773 1036 116.246 640.99 465.042
2950 0 87.3165 13.6515 1192 113.383 640.628 463.849
2951 0 89.4335 12.2661 1097 116.781 640.666 463.098
2952 0 90.3406 12.0876 1092 118.083 641.055 461.577
2953 0 93.2343 13.3106 1241 115.786 640.827 460.753
2954 0 95.4588 11.0624 1056 122.328 640.427 461.129
2955 0 97.2819 12.2119 1188 120.522 640.404 458.987
2956 0 103.375 11.6856 1208 120.931 641.221 459.521
2957 0 104.326 13.7358 1433 117.381 641.863 455.674
2958 0 107.29 12.0234 1290 122.351 641.322 453.938
2959 0 110.395 11.5585 1276 124.05 641.132 454.286
2960 0 113.342 12.5284 1420 122.854 641.609 451.544
2961 0 120.347 13.2865 1599 118.121 641.573 451.472
2962 1 65.1358 10.9924 716 112.852 640.919 479.994
2963 0 67.1254 9.40032 631 111.764 642.314 472.913
2964 0 68.2386 10.4486 713 111.053 641.259 471.875
2965 0 71.2754 10.3261 736 111.132 641.834 472.345
2966 0 72.3899 10.0014 724 114.236 641.349 471.239
2967 0 75.2784 10.3482 779 114.009 641.66 470.496
2968 0 76.2239 9.91815 756 117.899 641.263 468.992
2969 0 80.1733 10.4773 840 117.819 641.28 466.594
2970 0 82.1787 11.6454 957 115.73 642.487 469.875
2971 0 84.1539 11.6335 979 118.126 642.019 464.938
2972 0 88.1465 10.4145 918 120.374 642.5 468.134
2973 0 89.2183 10.8946 972 122.456 642.039 463.369
2974 0 92.1989 10.5533 973 123.328 642.362 465.336
2975 0 92.2831 10.1752 939 127.437 641.902 463.328
2976 0 97.1422 12.0545 1171 123.559 642.166 462.662
2977 0 99.1722 12.4733 1237 123.295 642.226 463.348
2978 0 101.251 12.148 1230 124.857 642.718 464.441
2979 0 105.277 12.3674 1302 126.145 641.502 458.302
2980 0 108.147 12.4091 1342 126.537 640.671 456.286
2981 0 111.251 11.6493 1296 130.277 640.856 453.78
2982 0 114.273 13.0302 1489 126.222 641.125 453.891
2983 0 117.27 11.6398 1365 129.782 642.522 455.442
2984 1 66.1352 12.0208 795 119.106 643.362 480.536
2985 0 67.1755 12.4301 835 122.171 642.82 478.329
2986 0 69.2264 12.6108 873 119.03 642.738 480.01
2987 0 70.1711 11.7712 826 122.896 642.429 477.203
2988 0 74.1091 12.576 932 119.579 642.385 476.837
2989 0 74.0803 12.7564 945 119.794 642.89 473.872
2990 0 79.0771 13.2782 1050 119.599 642.307 473.899
2991 0 78.0933 12.421 970 123.215 642.411 471.144
2992 0 82.1433 13.5738 1115 120.093 642.422 472.201
2993 0 85.1295 13.8612 1180 120.045 641.599 469.569
2994 0 87.1737 13.995 1220 120.72 642.33 467.587
2995 0 89.1581 13.4368 1198 122.211 642.568 469.916
2996 0 92.1213 13.5908 1252 123.284 642.15 464.24
2997 0 95.0601 14.0438 1335 121.793 642.488 464.416
2998 0 98.0966 13.2217 1297 123.01 641.884 465.135
2999 0 102.09 14.5558 1486 119.55 641.675 461.368
3000 0 104.127 13.4355 1399 123.046 641.482 461.683
3001 0 108.185 14.3828 1556 120.513 641.762 458.22
3002 0 109.173 12.7138 1388 126.409 641.65 455.107
3003 1 59.0921 11.1013 656 123.541 643.162 481.375
3004 0 62.0887 12.5627 780 117.572 642.528 482.045
3005 0 63.0438 11.9441 753 121.28 642.683 479.212
3006 0 61.1558 11.855 725 122.877 642.582 478.73
3007 0 66.0746 13.1972 872 118.567 643.455 478.557
3008 0 70.0582 13.1034 918 117.349 643.161 476.746
3009 0 71.075 12.6205 897 119.485 642.889 474.524
3010 0 73.1982 12.7872 936 118.673 642.464 474.966
3011 0 75.0947 12.2512 920 120.523 643.092 474.432
3012 0 78.0802 12.5256 978 120.136 642.373 474.66
3013 0 80.1156 13.6178 1091 118.496 643.225 471.615
3014 0 79.1552 12.5197 991 122.801 643.234 470.545
3015 0 85.1363 12.9792 1105 119.738 642.785 470.513
3016 0 87.1212 13.5444 1180 117.843 642.639 469.396
3017 0 91.1369 13.8912 1266 116.983 642.838 468.11
3018 0 92.1291 13.4051 1235 119.687 643.324 465.796
3019 0 96.1711 13.8607 1333 118.525 643.345 466.025
3020 0 97.1484 12.3317 1198 122.664 643.198 465.243
3021 0 101.133 12.4193 1256 122.936 642.127 460.338
3022 0 104.137 12.4067 1292 123.077 642.667 457.745
3023 0 109.31 15.3142 1674 115.457 642.41 452.63
3024 1 60.0436 11.5083 691 117.712 642.942 480.165
3025 0 60.1437 10.9238 657 114.067 641.938 477.068
3026 0 62.1559 12.6939 789 111.712 642.829 473.899
3027 0 63.1513 10.3402 653 116.225 642.545 474.876
3028 0 65.3397 10.6367 695 116.983 642.565 474.709
3029 0 68.1987 10.572 721 118.315 641.878 472.681
3030 0 68.231 11.1386 760 117.853 642.058 471.413
3031 0 72.2316 12.0308 869 114.344 641.528 471.473
3032 0 75.2178 11.9653 900 113.964 640.77 473.738
3033 0 76.1661 11.6587 888 115.735 641.443 473.721
3034 0 78.1573 11.8735 928 117.404 641.667 468.602
3035 0 80.169 12.7231 1020 116.353 641.918 469.107
3036 0 83.1401 12.0159 999 117.489 641.517 469.324
3037 0 85.2455 11.6722 995 119.639 641.286 466.975
3038 0 89.2211 11.7573 1049 117.963 642.262 467.996
3039 0 91.469 11.3918 1042 116.949 641.166 466.949
3040 0 93.2187 12.7871 1192 115.872 640.992 464.678
3041 0 98.1207 12.6069 1237 117.631 641.308 465.726
3042 0 99.1453 11.5588 1146 120.8 641.264 464.095
3043 0 102.284 11.2725 1153 121.75 641.445 460.618
3044 0 107.295 12.8244 1376 117.793 641.742 458.832
3045 0 110.125 11.269 1241 122.222 641.787 457.749
3046 1 60.1582 10.2729 618 111.102 642.089 482.591
3047 0 62.0591 11.5213 715 113.243 642.31 480.036
3048 0 65.2018 10.9506 714 117.782 642.246 482.158
3049 0 65.0334 11.9477 777 105.668 642.873 483.201
3050 0 65.0636 12.2957 800 114.619 643.778 478.749
3051 0 65.1173 12.9919 846 116.169 643.19 479.773
3052 0 66.1162 12.0545 797 118.822 642.64 479.161
3053 0 67.169 12.3718 831 118.193 641.619 478.356
3054 0 68.1177 12.4197 846 117.403 642.878 478.19
3055 0 71.1395 12.2576 872 117.297 642.368 476.604
3056 0 73.1026 11.135 814 118.658 642.526 474.785
3057 0 77.1471 11.9901 925 114.882 641.951 474.697
3058 0 79.0776 11.1157 879 117.441 641.931 471.702
3059 0 80.0502 11.4803 919 115.787 642.211 473.062
3060 0 83.1291 11.0792 921 117.561 641.898 470.743
3061 0 85.1683 11.8471 1009 116.067 641.713 468.728
3062 0 87.1275 12.2579 1068 115.79 641.571 469.111
3063 0 89.2071 12.0506 1075 117.449 641.1 468.41
3064 0 88.2976 11.0422 975 122.594 641.255 468.184
3065 0 92.2271 12.1114 1117 120.616 640.998 466.291
3066 0 95.3192 11.6975 1115 122.274 641.249 465.151
3067 0 97.2248 12.4454 1210 122.868 640.251 464.545
3068 0 98.2448 11.7971 1159 126.366 641.142 463.559
3069 0 100.227 10.7755 1080 130.403 642.092 461.369
3070 0 103.162 12.0103 1239 129.266 641.328 460.309
3071 0 106.233 12.3597 1313 129.388 640.797 457.16
3072 0 109.272 12.8853 1408 130.023 641.227 456.153
3073 0 111.215 11.2665 1253 135.46 641.084 456.615
3074 0 116.184 13.3323 1549 130.812 641.73 451.432
3075 0 118.216 12.4771 1475 133.828 641.409 452.74
3076 0 120.292 12.6193 1518 135.296 641.58 451.815
3077 0 126.21 12.4396 1570 136.489 641.321 449.224
3078 1 69.1718 10.7992 747 136.912 641.177 476.126
3079 0 72.0896 12.1932 879 137.539 641.586 474.862
3080 0 75.1396 12.5899 946 137.76 641.2 473.328
3081 0 79.0542 13.0923 1035 129.828 640.859 474.054
3082 0 80.0618 13.5271 1083 129.86 641.234 472.072
3083 0 81.0362 13.278 1076 133.402 641.113 471.556
3084 0 84.1617 12.7017 1069 131.372 641.647 467.07
3085 0 88.0888 12.9642 1142 130.65 641.619 466.48
3086 0 90.1902 12.1854 1099 133.837 642.066 464.624
3087 0 93.1786 13.4258 1251 132.494 641.129 462.68
3088 0 97.2611 13.7259 1335 132.644 641.793 461.736
3089 0 98.2162 13.1343 1290 137.665 641.912 460.325
3090 0 101.283 11.6604 1181 142.215 641.267 457.753
3091 1 54.2002 11.0516 599 138.352 641.938 482.402
3092 0 57.0973 11.1214 635 136.855 642.22 483.134
3093 0 59.0727 12.4761 737 135.796 641.632 481.233
3094 0 60.0501 12.9725 779 134.599 641.792 480.104
3095 0 60.0817 12.0336 723 137.752 641.578 479.336
3096 0 63.1052 12.8516 811 135.271 641.388 477.138
3097 0 64.0427 13.0226 834 135.158 643.765 476.9
3098 0 69.0386 13.0652 902 132.601 642.256 476.313
3099 0 69.0473 12.8897 890 133.588 642.918 475.202
3100 0 72.0151 13.886 1000 129.293 642.868 475.862
3101 0 74.1322 12.788 948 132.524 643.88 471.354
3102 0 76.0749 12.7374 969 133.061 643.067 470.119
3103 0 77.11 11.931 920 135.571 643.705 470.076
3104 0 80.085 12.7614 1022 131.971 643.548 471.737
3105 0 84.1226 12.6958 1068 132.167 644.049 466.236
3106 0 86.1763 13.2055 1138 130.04 644.087 468.141
3107 0 89.1636 13.5481 1208 130.479 643.243 465.815
3108 0 92.1604 13.9214 1283 129.643 642.933 462.913
3109 0 94.0946 13.6777 1287 130.136 643.628 462.949
3110 0 97.1938 14.3836 1398 128.23 642.911 460.941
3111 0 99.0743 12.6067 1249 134.008 642.423 461.917
3112 0 104.162 12.9318 1347 132.412 643.494 460.6
3113 0 107.134 12.7317 1364 134.159 643.094 458.257
3114 1 58.0278 11.7875 684 137.893 643.006 481.215
3115 0 61.1017 12.6347 772 132.732 641.848 477.904
3116 0 62.0628 12.0684 749 132.32 642.949 476.135
3117 0 63.1155 12.7227 803 135.09 642.946 477.264
3118 0 66.0559 12.4743 824 134.942 642.862 475.124
3119 0 70.0835 12.6135 884 132.33 643.704 475.085
3120 0 72.1712 12.0824 872 132.825 643.274 473.482
3121 0 76.1345 12.7143 968 130.191 643.486 471.943
3122 0 79.0705 12.5964 996 130.052 642.869 470.04
3123 0 79.0935 13.149 1040 129.714 643.215 467.784
3124 0 83.1241 12.8964 1072 129.324 643.026 469.144
3125 0 85.1082 13.054 1111 129.206 643.38 467.324
3126 0 88.1607 12.999 1146 128.031 643.201 466.163
3127 0 90.1905 12.773 1152 130.206 643.06 462.602
3128 0 93.2478 12.9869 1211 129.671 642.321 460.917
3129 0 96.2505 13.0077 1252 129.209 642.059 459.876
3130 0 100.181 13.0464 1307 127.393 642.213 459.111
3131 0 101.459 11.65 1182 130.333 642.922 458.047
3132 0 105.187 11.1231 1170 124.976 643.069 455.617
3133 1 58.0443 10.5265 611 120.964 644.396 478.565
3134 0 60.043 10.9088 655 118.085 642.137 481.041
3135 0 63.1097 12.296 776 115.362 643.164 480.91
3136 0 64.0854 11.7187 751 117.722 644.274 475.112
3137 0 66.0658 11.5188 761 118.94 644.754 472.87
3138 0 69.0561 12.6998 877 114.254 644.791 475.624
3139 0 70.1047 11.0834 777 119.822 644.964 473.447
3140 0 75.1588 12.7729 960 114.711 644.76 472.59
3141 0 75.1089 11.9027 894 118.907 644.928 470.905
3142 0 78.0985 13.1245 1025 116.215 644.592 468.207
3143 0 80.0619 13.3772 1071 115.962 645.238 468.488
3144 0 84.1413 13.2277 1113 116.183 645.176 467.869
3145 0 85.1841 12.8193 1092 118.745 644.204 464.905
3146 0 88.2071 12.0398 1062 120.624 644.609 464.766
3147 0 89.063 11.8792 1058 122.502 644.171 463.848
3148 0 94.1794 13.8247 1302 117.198 644.029 464.003
3149 0 93.076 12.0009 1117 123.868 644.752 462.104
3150 0 97.1316 12.4779 1212 123.155 644.165 458.393
3151 0 99.0688 12.0825 1197 125.725 643.773 458.373
3152 0 102.141 12.4828 1275 125.059 643.259 458.264
3153 0 104.098 12.3442 1285 125.96 643.54 457.755
3154 0 110.263 12.9963 1433 123.329 643.671 456.786
3155 0 112.144 12.2432 1373 126.543 642.429 454.617
3156 0 117.1 12.6558 1482 125.655 642.794 453.102
3157 1 64.1036 10.6234 681 126.956 643.349 479.308
3158 0 68.1164 12.9337 881 122.212 643.184 478.123
3159 0 71.1179 14.6939 1045 114.63 643.417 477.842
3160 0 72.034 13.7852 993 118.603 641.241 475.035
3161 0 75.0469 13.8314 1038 117.551 641.403 474.362
3162 0 77.0839 13.5307 1043 118.838 641.307 473.239
3163 0 79.0963 13.4393 1063 118.569 641.331 474.302
3164 0 83.0717 14.2889 1187 116.022 641.795 472.495
3165 0 81.1493 13.4567 1092 121.736 641.328 470.536
3166 0 86.125 14.479 1247 117.872 641.671 468.037
3167 0 88.1338 13.1051 1155 122.34 641.432 467.689
3168 0 91.1648 13.6017 1240 119.023 641.837 466.273
3169 0 95.1785 13.8267 1316 118.553 641.887 464.362
3170 0 98.1038 14.6478 1437 117.104 641.862 462.117
3171 0 99.1739 13.673 1356 120.015 640.891 462.7
3172 1 54.2234 11.0653 600 122.622 641.472 478.497
3173 0 55.0626 11.2962 622 121.492 641.669 478.931
3174 0 59.0519 12.5144 739 116.976 643.235 476.874
3175 0 63.1443 11.9092 752 123.87 643.177 481.347
3176 0 64.0492 12.0845 774 123.977 642.42 481.229
3177 0 65.1164 12.9153 841 121.138 643.147 481.724
3178 0 66.1426 13.0627 864 121.095 643.003 479.497
3179 0 69.0427 12.1664 840 123.139 643.085 477.486
3180 0 69.0584 12.0188 830 124.059 642.906 477.748
3181 0 71.0531 12.8636 914 121.666 643.048 475.951
3182 0 75.1094 12.0757 907 123.504 642.574 474.397
3183 0 76.08 12.7629 971 122.292 642.414 473.249
3184 0 79.272 13.3843 1061 120.695 642.891 471.08
3185 0 81.3325 13.1928 1073 121.77 643.15 470.158
3186 0 84.1881 12.8403 1081 122.3 642.54 470.086
3187 0 84.1881 12.8878 1085 136.726 642.527 470.303
3188 0 88.1023 13.0303 1148 124.037 642.469 468.555
3189 0 91.2431 13.1078 1196 123.856 642.647 466.518
3190 0 91.2533 12.6571 1155 126.223 642.41 464.142
3191 0 94.193 12.4107 1169 126.28 642.648 463.976
3192 0 100.162 14.0772 1410 120.36 641.656 463.155
3193 0 103.39 14.4598 1495 120.37 641.563 460.845
3194 0 103.046 14.0326 1446 122.631 641.436 457.622
3195 0 108.171 13.6174 1473 122.937 641.041 456.52
3196 0 111.22 13.6307 1516 123.06 641.257 453.118
3197 0 113.344 13.4281 1522 123.321 641.629 451.105
3198 0 116.148 13.6292 1583 122.832 640.995 447.279
3199 0 121.187 11.9567 1449 121.53 641.255 445.99
3200 0 124.267 12.9882 1614 120.938 641.379 442.261
3201 0 131.342 13.9179 1828 118.065 639.973 439.55
3202 1 75.4093 12.7438 961 113.137 640.528 469.586
3203 0 76.2455 12.4729 951 114.656 641.122 469.9
3204 0 78.269 12.6359 989 114.963 640.825 467.722
3205 0 82.35 13.1147 1080 111.192 641.237 465.929
3206 0 85.4215 12.3388 1054 113.196 640.516 463.524
3207 0 88.2673 12.7567 1126 112.604 640.165 463.187
3208 0 90.3953 13.5516 1225 111.056 641.079 462.615
3209 0 93.2113 12.2195 1139 114.614 640.321 459.99
3210 0 95.2165 12.3088 1172 115.058 640.916 456.858
3211 0 99.252 14.4783 1437 108.518 641.04 456.912
3212 0 103.102 12.541 1293 114.08 639.8 454.63
3213 0 106.098 13.0069 1380 113.649 639.407 450.422
3214 0 108.141 11.8549 1282 117.128 639.329 453.7
3215 0 110.126 12.2496 1349 118.295 639.896 448.315
3216 0 115.192 12.8655 1482 117.318 641.395 447.206
3217 0 123.313 13.0237 1606 116.465 640.564 445.494
3218 0 126.285 12.0284 1519 119.891 640.295 444.51
3219 0 128.146 13.1881 1690 117.253 641.025 439.679
3220 1 67.1535 10.7068 719 120.36 641.975 467.772
3221 0 70.0483 12.0203 842 117.643 642.154 467.608
3222 0 73.0181 11.1753 816 119.156 639.43 467.06
3223 0 76.0422 11.349 863 119.313 640.003 466.67
3224 0 76.0429 11.9012 905 120.767 639.693 462.852
3225 0 80.0635 11.6782 935 120.708 641.201 465.224
3226 0 82.0278 12.2032 1001 118.153 640.533 464.018
3227 0 85.1825 12.6787 1080 118.236 640.214 460.67
3228 0 88.0633 13.0701 1151 117.942 641.021 459.874
3229 0 91.0808 12.9006 1175 118.835 640.037 458.095
3230 0 92.0611 11.6987 1077 123.406 640.692 460.755
3231 0 94.0936 11.7755 1108 123.672 640.934 454.91
3232 0 99.1038 13.2387 1312 119.979 640.627 455.528
3233 0 103.318 12.2147 1262 122.901 641.027 453.307
3234 0 104.174 11.9704 1247 123.925 641.292 453.525
3235 0 108.222 13.1212 1420 122.224 640.527 451.515
3236 0 109.159 11.158 1218 127.081 640.701 452.085
3237 0 115.27 12.3623 1425 125.074 640.154 447.383
3238 0 120.296 14.2648 1716 120.263 640.947 446.096
3239 0 126.278 13.2882 1678 122.122 640.726 442.163
3240 0 130.365 13.2167 1723 123.089 640.896 440.515
3241 0 134.451 13.3209 1791 123.041 640.557 439.509
3242 1 75.2282 9.02587 679 122.906 639.448 464.854
3243 0 79.1821 9.62339 762 121.379 640.303 467.03
3244 0 81.1746 11.814 959 119.591 640.613 462.952
3245 0 83.0852 11.6748 970 118.394 640.093 462.91
3246 0 83.056 10.6434 884 123.506 640.471 457.804
3247 0 90.1567 10.6703 962 121.004 640.134 459.481
3248 0 92.0961 11.5097 1060 120.327 640.056 455.999
3249 0 93.1525 11.9911 1117 120.013 640.461 454.774
3250 0 97.1255 10.7078 1040 124.977 641.237 455.568
3251 0 99.1151 9.81687 973 126.943 640.657 454.109
3252 0 104.164 11.3475 1182 119.313 641.052 455.444
3253 0 108.158 12.0287 1301 118.377 640.782 449.867
3254 0 110.233 10.8316 1194 124.698 640.794 451.568
3255 0 114.095 11.9461 1363 125.004 640.394 451.393
3256 0 120.091 11.1249 1336 128.082 640.567 448.756
3257 0 124.169 11.8549 1472 125.342 640.887 447.92
3258 1 70.0391 10.0944 707 122.608 640.922 477.873
3259 0 72.0614 11.2821 813 120.924 640.044 474.267
3260 0 73.1083 11.4898 840 123.807 640.263 467.268
3261 0 78.0554 13.3623 1043 125.868 640.328 468.547
3262 0 79.0239 12.4393 983 128.919 639.679 469.398
3263 0 80.0501 12.055 965 131.805 639.832 466.598
3264 0 83.0627 12.8457 1067 129.417 640.216 466.218
3265 0 88.1006 12.0771 1064 130.318 639.704 464.477
3266 0 88.0306 12.4956 1100 130.615 639.651 461.699
3267 0 93.1125 12.0392 1121 131.489 639.558 459.791
3268 0 97.0556 13.2707 1288 127.764 639.855 460.379
3269 0 96.0747 11.1372 1070 135.162 640.51 457.637
3270 0 101.115 12.5501 1269 130.006 640.145 456.284
3271 0 103.061 13.1378 1354 130.097 640.939 453.086
3272 0 107.136 12.5728 1347 129.298 640.36 452.536
3273 0 108.107 10.9059 1179 132.438 641.142 450.02
3274 0 113.114 12.6775 1434 127.54 642.876 452.285
3275 1 63.2274 9.50538 601 131.399 641.514 474.512
3276 0 68.1448 11.5489 787 125.194 641.423 473.557
3277 0 69.2311 11.5411 799 126.949 642.076 470.82
3278 0 70.0903 11.9275 836 126.542 643.376 472.217
3279 0 73.1806 12.1207 887 124.548 642.855 473.759
3280 0 77.1431 13.2611 1023 121.372 643.069 470.155
3281 0 79.0557 10.5622 835 127.057 643.486 468.413
3282 0 80.0625 13.0523 1045 120.462 643.296 471
3283 0 85.1037 12.5141 1065 121.032 643.928 469.077
3284 0 87.0676 14.0466 1223 117.827 643.24 467.481
3285 0 87.083 12.2067 1063 123.771 642.939 464.592
3286 0 87.0775 11.8745 1034 124.995 643.45 463.743
3287 0 94.068 13.3946 1260 119.359 643.333 463.637
3288 0 97.1241 13.3541 1297 119.538 643.679 459.466
3289 0 98.3071 12.6339 1242 121.527 643.043 458.904
3290 0 102.179 13.0359 1332 119.992 642.029 459.109
3291 0 104.167 11.4143 1189 114.652 641.587 458.082
3292 0 107.23 11.508 1234 115.262 642.026 456.173
3293 0 111.186 12.3397 1372 113.216 641.804 454.128
3294 0 112.27 11.8999 1336 115.492 642.202 448.452
3295 0 117.359 12.3297 1447 117.871 641.737 448.032
3296 1 127.297 15.7348 2003 107.203 641.894 436.318
3297 0 129.52 16.3913 2123 107.756 641.913 437.951
3298 0 124.368 11.8439 1473 122.594 641.957 440.475
3299 0 132.288 13.7276 1816 118.037 642.177 442.133
3300 0 136.244 12.3822 1687 125.194 642.315 439.91
3301 0 139.293 12.1327 1690 126.23 642.053 436.19
3302 0 144.359 13.5218 1952 122.639 642.199 436.378
3303 0 147.41 13.4048 1976 123.229 642.805 432.976
3304 0 151.271 12.9569 1960 124.382 642.998 432.411
3305 0 157.302 13.5345 2129 124.467 642.345 428.816
3306 0 162.36 13.2976 2159 125.622 642.342 425.939
3307 0 167.328 13.0343 2181 126.465 642.227 424.187
3308 0 175.246 13.9974 2453 123.64 641.653 419.254
3309 0 177.336 13.3701 2371 126.837 641.82 412.431
3310 1 100.171 11.3007 1132 119.443 642.662 457.562
3311 0 102.413 11.6001 1188 119.55 642.023 456.795
3312 0 108.137 12.78 1382 117.937 641.464 453.492
3313 0 107.187 10.533 1129 123.48 642.199 452.771
3314 0 114.297 12.0738 1380 119.549 643.29 449.772
3315 0 118.331 12.0171 1422 119.241 643.139 450.975
3316 0 121.338 11.3402 1376 121.271 642.892 448.021
3317 0 127.217 12.797 1628 116.78 642.219 446.364
3318 0 130.241 11.4633 1493 120.322 642.79 440.666
3319 0 134.525 11.7451 1580 119.051 642.081 439.725
3320 0 140.401 11.745 1649 117.469 641.976 442.588
3321 0 146.313 11.906 1742 116.233 642.535 438.371
3322 0 151.355 12.3749 1873 114.905 642.599 436.509
3323 0 155.283 12.3066 1911 116.333 641.633 433.372
3324 1 89.1449 10.7129 955 112.566 642.352 468.806
3325 0 92.165 13.2046 1217 108.256 641.896 465.049
3326 0 95.137 11.6779 1111 111.769 641.496 463.662
3327 0 97.0896 12.2876 1193 110.516 641.39 463.859
3328 0 100.207 10.3885 1041 115.303 641.843 465.353
3329 0 103.112 12.4816 1287 112.51 641.65 459.713
3330 0 106.114 11.1672 1185 115.32 641.675 458.399
3331 0 108.184 11.73 1269 114.814 640.313 458.162
3332 0 112.235 11.3601 1275 116.096 641.225 456.976
3333 0 115.09 11.9037 1370 116.201 642.385 455.964
3334 0 121.157 13.1813 1597 113.672 642.812 450.697
3335 0 125.125 13.994 1751 112.746 642.069 447.266
3336 0 127.249 12.841 1634 117.914 642.573 449.061
3337 0 132.139 12.9258 1708 117.772 642.382 446.865
3338 0 135.229 12.9706 1754 118.76 641.981 439.757
3339 0 140.193 11.5413 1618 120.692 642.205 444.651
3340 1 80.1351 11.1312 892 116.944 641.631 473.502
3341 0 81.1131 11.4901 932 118.45 642.999 470.465
3342 0 84.1069 13.4115 1128 115.514 643.726 467.972
3343 0 86.1123 12.8669 1108 116.602 642.999 468.926
3344 0 89.1612 13.0214 1161 117.177 642.643 467.705
3345 0 90.0554 12.5256 1128 120.306 643.038 465.172
3346 0 94.1351 13.0451 1228 119.827 643.125 461.473
3347 0 99.3023 13.323 1323 118.008 643.82 463.23
3348 0 100.171 13.1775 1320 120.433 642.615 461.051
3349 0 104.196 14.0601 1465 119.558 643.042 458.645
3350 0 106.184 14.0605 1493 120.463 642.806 456.778
3351 0 107.404 13.2025 1418 124.15 643.53 455.524
3352 0 111.153 13.261 1474 123.115 643.06 457.271
3353 0 112.271 12.6302 1418 125.343 642.515 456.316
3354 0 116.129 12.4431 1445 127.579 642.103 455.039
3355 1 67.1693 11.2849 758 123.685 642.84 476.97
3356 0 70.1715 9.97556 700 126.861 643.09 475.023
3357 0 72.2565 12.7186 919 120.637 643.184 472.952
3358 0 74.2698 12.5623 933 121.26 642.767 473.728
3359 0 74.2487 12.6871 942 123.961 641.69 474.683
3360 0 74.2149 11.4802 852 129.816 641.711 474.059
3361 0 79.1615 13.2388 1048 125.48 641.369 472.011
3362 0 81.2351 12.9008 1048 126.542 641.517 469.772
3363 0 84.1963 13.0766 1101 125.881 641.053 469.144
3364 0 84.1299 12.3737 1041 128.505 641.645 467.857
3365 0 87.1634 12.3791 1079 129.387 641.69 466.168
3366 0 90.1172 12.8166 1155 127.841 641.117 465.113
3367 0 94.2202 12.1312 1143 128.861 641.171 464.535
3368 0 97.1214 13.5295 1314 127.287 641.432 459.199
3369 0 101.288 13.7331 1391 125.41 641.59 460.083
3370 0 103.377 13.4556 1391 126.608 640.72 457.152
3371 0 106.286 11.9865 1274 131.235 640.842 455.137
3372 0 110.322 12.3456 1362 129.341 642.128 455.04
3373 0 113.284 10.1427 1149 127.292 642.023 457.097
3374 0 115.314 11.3169 1305 123.111 641.67 449.227
3375 0 119.177 11.6382 1387 125.369 642.453 450.353
3376 0 123.098 11.3812 1401 125.409 642.256 445.548
3377 0 125.183 12.0783 1512 121.298 642.312 442.685
3378 0 130.233 11.441 1490 123.635 642.354 439.186
3379 0 132.286 10.4924 1388 125.253 642.195 437.068
3380 1 72.1971 8.58761 620 113.637 643.055 472.624
3381 0 76.1911 11.3137 862 109.081 642.449 473.403
3382 0 79.1936 9.84928 780 113.64 642.333 469.5
3383 0 81.2861 11.3673 924 108.039 642.34 465.962
3384 0 86.217 11.0187 950 109.025 642.457 466.759
3385 0 86.1518 10.702 922 110.923 642.934 463.175
3386 0 89.258 11.2931 1008 110.753 642.343 464.26
3387 0 90.2692 9.79293 884 116.209 642.687 460.195
3388 0 93.2575 10.3155 962 117.133 642.554 455.322
3389 0 97.2612 11.4434 1113 113.013 642.535 462.276
3390 0 101.291 11.0078 1115 115.679 642.457 456.318
3391 0 100.273 10.272 1030 118.47 641.814 455.674
3392 0 108.237 11.1977 1212 116.292 642.135 455.869
3393 0 109.249 9.22667 1008 120.17 641.988 455.815
3394 0 113.309 11.932 1352 116.459 642.266 448.169
3395 0 117.146 10.7388 1258 119.421 642.491 447.47
3396 0 122.343 12.0399 1473 116.85 642.134 442.586
3397 0 128.16 11.4935 1473 117.819 642.512 443.937
3398 0 132.251 13.5499 1792 113.19 642.203 444.758
3399 1 71.1123 9.49202 675 110.316 642.63 471.924
3400 0 72.1492 9.45263 682 109.567 642.78 471.56
3401 0 76.1573 11.9883 913 104.189 643.622 473.612
3402 0 78.159 10.0436 785 110.26 643.096 467.818
3403 0 79.1455 10.108 800 111.305 642.977 468.1
3404 0 82.0851 11.2079 920 108.392 643.929 469.824
3405 0 87.1779 12.8702 1122 105.069 643.307 468.123
3406 0 87.113 10.8824 948 110.509 642.884 461.855
3407 0 90.1889 9.93471 896 112.858 643.331 464.209
3408 0 93.201 11.9205 1111 109.706 642.338 462.741
3409 0 96.1989 11.1852 1076 112.482 642.731 461.762
3410 0 96.1707 9.83667 946 118.017 642.661 457.522
3411 0 101.178 10.1801 1030 114.965 643.013 460.653
3412 0 105.179 11.257 1184 114.056 642.805 456.285
3413 0 106.167 10.6813 1134 116.923 642.595 454.787
3414 0 111.168 12.0539 1340 113.941 642.36 454.24
3415 0 114.177 10.5538 1205 117.31 642.915 452.495
3416 0 119.133 10.8702 1295 116.024 642.717 452.845
3417 0 123.169 12.0079 1479 115.274 641.67 449.837
3418 0 129.188 11.5723 1495 115.262 641.728 448.913
3419 1 73.1591 11.0034 805 109.467 641.185 470.573
3420 0 75.1274 11.7534 883 107.903 641.108 469.539
3421 0 79.1156 11.401 902 106.973 641.095 470.813
3422 0 82.0575 11.7357 963 106.755 641.125 468.729
3423 0 82.0593 11.1505 915 109.245 640.824 468.899
3424 0 85.1119 11.1383 948 109.388 640.675 466.918
3425 0 88.0959 11.6464 1026 109.136 641.209 464.688
3426 0 89.0851 11.2701 1004 111.114 641.382 462.504
3427 0 91.1159 11.447 1043 111.196 641.22 463.179
3428 0 94.1307 11.7815 1109 111.317 641.418 461.989
3429 0 98.0357 12.9035 1265 109.111 641.338 459.636
3430 0 102.115 11.3303 1157 112.642 640.94 458.963
3431 0 101.099 11.2959 1142 114.917 641.423 456.401
3432 0 106.138 12.3141 1307 113.176 641.913 455.61
3433 0 109.122 12.6189 1377 112.687 642.349 455.747
3434 0 112.157 12.5539 1408 114.416 641.741 453.96
3435 0 115.236 11.7237 1351 117.048 642.378 447.217
3436 0 117.136 11.286 1322 118.444 642.405 445.744
3437 0 122.121 12.7169 1553 114.869 643.035 449.705
3438 0 125.153 12.3848 1550 117.011 643.121 449.708
3439 0 131.189 12.1504 1594 116.939 642.941 446.788
3440 0 131.187 12.326 1617 118.403 642.336 442.388
3441 0 137.173 11.6787 1602 121.13 642.423 442.851
3442 0 137.192 11.6187 1594 140.909 643.417 442.88
3443 0 147.195 12.0792 1778 121.902 641.93 435.858
3444 0 152.213 11.8781 1808 122.4 641.634 437.815
3445 0 157.328 12.6741 1994 121.738 641.681 432.697
3446 1 87.1391 11.5333 1005 113.331 642.241 470.232
3447 0 90.0668 11.5026 1036 114.807 640.645 468.227
3448 0 93.0711 9.70226 903 117.363 640.779 468.423
3449 0 97.1057 11.8222 1148 113.618 640.857 464.903
3450 0 99.0685 11.164 1106 115.777 640.394 462.528
3451 0 102.154 12.7357 1301 112.662 640.444 463.01
3452 0 104.175 12.1335 1264 113.54 640.973 461.619
3453 0 106.197 11.3091 1201 115.622 641.504 456.908
3454 0 112.166 11.6435 1306 113.48 640.842 456.27
3455 0 116.265 10.8631 1263 113.401 640.042 455.563
3456 0 122.165 13.2935 1624 107.465 639.985 451.509
3457 1 67.0516 12.0504 808 109.337 640.944 478.955
3458 0 68.0486 12.8291 873 107.985 640.061 476.842
3459 0 69.1197 10.8507 750 111.305 640.936 476.081
3460 0 70.1149 11.9233 836 109.417 640.062 477.501
3461 0 71.0528 11.0903 788 106.805 641.136 468.693
3462 0 74.0615 10.6803 791 106.652 641.398 469.87
3463 0 78.0811 11.4881 897 105.332 641.067 468.347
3464 0 79.0625 10.4348 825 107.972 640.832 465.845
3465 0 79.052 9.01938 713 112.304 640.328 463.774
3466 0 86.0549 10.7838 928 107.009 640.213 465.269
3467 0 89.0749 11.451 1020 106.733 640.215 462.808
3468 0 89.1623 9.80235 874 110.93 640.305 459.942
3469 0 94.1089 11.1042 1045 107.667 639.563 457.508
3470 0 95.126 9.59779 913 111.271 640.817 456.604
3471 1 53.0514 10.4238 553 105.964 641.156 476.215
3472 0 55.0488 9.80947 540 108.657 640.315 474.844
3473 0 60.2872 13.2532 799 107.36 641.375 470.786
3474 0 59.2591 10.665 632 114.282 641.619 473.149
3475 0 66.1529 14.3456 949 102.664 641.286 469.652
3476 0 65.2813 11.933 779 110.217 640.752 473.128
3477 0 66.1436 10.9308 723 113.098 641.47 469.846
3478 0 69.1098 10.6642 737 112.59 641.924 470.715
3479 0 70.1198 10.9242 766 112.552 642.035 470.038
3480 0 74.1262 11.5479 856 110.95 641.845 467.761
3481 0 77.1269 11.4876 886 109.916 642.001 470.274
3482 0 76.175 10.9091 831 112.496 642.176 467.451
3483 0 80.3027 11.6185 933 110.868 641.749 466.74
3484 0 83.213 11.7049 974 111.862 641.38 464.01
3485 0 84.2568 12.1177 1021 111.801 641.891 461.5
3486 0 88.1242 11.4838 1012 113.158 641.602 462.463
3487 0 88.1737 12.2939 1084 112.244 641.277 462.866
3488 0 88.138 12.3556 1089 125.721 640.286 462.991
3489 0 95.2338 12.7581 1215 112.723 640.908 459.013
3490 0 96.1107 12.3191 1184 114.201 641.84 459.345
3491 0 100.209 11.8952 1192 115.96 640.966 455.573
3492 0 104.218 13.2511 1381 113.852 641.121 455.883
3493 0 108.306 12.5478 1359 115.298 641.377 455.787
3494 0 110.276 11.8792 1310 117.788 640.477 453.947
3495 1 62.2542 11.18 696 110.767 641.674 477.236
3496 0 65.1712 10.9097 711 110.684 641.211 477.605
3497 0 66.0934 10.7272 709 112.8 640.587 478.726
3498 0 69.0814 11.9569 826 114.186 639.937 476.553
3499 0 72.0547 13.0179 938 112.236 639.928 473.336
3500 0 74.1336 13.0305 966 112.465 640.204 472.911
3501 0 76.1752 11.933 909 110.561 640.787 472.816
3502 0 79.15 12.1668 963 110.87 640.805 472.509
3503 0 81.1676 12.3941 1006 112.237 640.735 470.4
3504 0 83.1597 11.7485 977 115.282 640.002 469.822
3505 0 86.1498 12.2113 1052 115.77 640.154 469.698
3506 0 90.1302 12.9701 1169 115.115 641.339 465.468
3507 0 93.2039 12.6175 1176 116.454 640.969 463.444
3508 0 97.3585 12.3153 1199 117.371 640.647 461.483
3509 0 100.178 14.4143 1444 114.485 640.056 458.79
3510 0 101.14 12.3195 1246 121.404 639.953 458.231
3511 1 56.1151 10.7992 606 117.805 640.868 480.464
3512 0 57.102 10.3849 593 120.56 640.922 480.68
3513 0 61.113 11.8142 722 116.813 642.294 479.277
3514 0 63.1312 12.4186 784 115.472 642.145 478.083
3515 0 65.2792 12.2857 802 117.191 642.097 477.742
3516 0 67.0868 12.5062 839 118.675 642.397 477.911
3517 0 72.0544 13.8645 999 115.04 642.941 476.866
3518 0 72.0673 12.4467 897 120.603 642.827 476.686
3519 0 73.0832 12.1642 889 124.107 643.269 473.682
3520 0 77.1986 12.6427 976 123.69 642.446 470.106
3521 0 80.1654 12.4867 1001 124.563 642.5 470.822
3522 0 82.1758 12.023 988 126.555 643.137 472.052
3523 0 84.1343 12.4682 1049 127.561 642.183 469.681
3524 0 88.214 13.0818 1154 127.097 642.249 468.179
3525 0 90.1591 11.9899 1081 130.909 642.755 466.318
3526 0 92.1649 12.7923 1179 129.588 641.803 464.759
3527 0 97.1702 14.0064 1361 126.018 641.925 463.316
3528 0 100.172 13.5368 1356 128.327 642.758 462.682
3529 0 101.202 12.806 1296 132.164 642.803 460.474
3530 0 106.288 13.8303 1470 128.024 642.644 460.985
3531 0 109.274 12.8302 1402 131.765 643.068 459.524
3532 0 113.311 12.8319 1454 131.309 642.647 458.809
3533 0 115.445 12.742 1471 134.196 641.713 454.345
3534 0 120.29 13.1931 1587 133.227 641.603 451.355
3535 0 123.305 12.7002 1566 135.852 642.102 448.483
3536 1 66.1627 11.9554 791 127.684 642.742 477.15
3537 0 68.0979 10.7492 732 131.817 642.559 477.411
3538 0 72.1223 13.075 943 124.019 642.28 476.025
3539 0 73.2365 12.2207 895 128.699 642.659 473.003
3540 0 74.1768 12.1062 898 128.832 642.56 473.188
3541 0 79.1769 12.6552 1002 125.941 642.629 472.059
3542 0 81.2352 12.827 1042 125.291 642.495 471.929
3543 0 83.2446 11.8807 989 128.549 642.109 469.992
3544 0 85.2248 12.6372 1077 128.303 642.262 467.684
3545 0 89.4054 13.0305 1165 128.664 642.211 464.431
3546 0 93.3069 14.0718 1313 133.535 641.679 461.449
3547 0 96.4249 12.9946 1253 136.04 641.832 462.664
3548 0 99.5318 12.6995 1264 137.492 641.831 459.282
3549 0 101.337 11.9995 1216 140.141 641.628 457.787
3550 0 105.41 13.6799 1442 135.267 641.444 456.743
3551 0 108.283 13.0769 1416 137.72 641.446 454.306
3552 0 112.297 14.8713 1670 132.321 642.045 452.901
3553 0 113.333 12.6265 1431 138.827 642.157 453.468
3554 0 123.46 17.5685 2169 122.062 642.324 447.605
3555 0 123.528 13.0011 1606 136.204 642.626 450.198
3556 1 69.2567 11.9122 825 129.365 642.264 476.608
3557 0 69.4253 10.6445 739 133.759 641.545 474.39
3558 0 69.3419 12.4456 863 129.87 642.355 472.586
3559 0 75.286 12.9506 975 127.81 642.456 470.901
3560 0 77.3426 13.2915 1028 126.613 642.285 469.202
3561 0 82.2512 14.2247 1170 122.55 642.319 469.915
3562 0 83.1416 13.6755 1137 126.605 642.354 467.712
3563 0 86.2491 14.0639 1213 125.65 643.633 466.354
3564 0 89.2402 13.5253 1207 127.074 644.242 465.251
3565 0 89.3302 13.4221 1199 129.394 644.241 463.283
3566 0 91.2905 13.824 1262 128.16 643.519 461.515
3567 0 95.2201 13.9886 1332 128.563 642.907 459.121
3568 0 98.2523 12.1422 1193 134.496 642.831 457.474
3569 0 99.2248 12.2651 1217 134.965 643.487 455.438
3570 0 101.192 11.8192 1196 132.197 643.334 454.176
3571 0 106.1 13.2045 1401 128.251 643.086 453.143
3572 0 109.108 13.033 1422 129.244 642.504 450.077
3573 0 113.291 13.0372 1477 133.729 642.546 452.332
3574 0 115.321 12.9031 1488 129.779 641.704 449.724
3575 0 120.249 12.1581 1462 131.547 642.412 447.396
3576 0 123.211 13.1401 1619 129.857 641.978 444.794
3577 0 129.229 13.1859 1704 130.515 642.299 444.088
3578 1 72.2394 11.2127 810 130.736 642.062 472.099
3579 0 74.2119 11.3998 846 131.072 642.608 470.845
3580 0 78.2209 13.5386 1059 124.255 642.101 469.513
3581 0 81.145 14.4926 1176 122.07 641.594 466.432
3582 0 83.2646 12.3702 1030 127.881 642.356 463.251
3583 0 87.3467 14.826 1295 120.368 642.405 464.156
3584 0 90.3186 13.7624 1243 123.325 641.105 461.77
3585 0 93.3376 14.3243 1337 121.439 642.337 462.491
3586 0 94.4693 13.1895 1246 126.67 642.228 457.808
3587 0 96.2743 14.2925 1376 125.658 641.818 457.731
3588 0 100.298 13.8787 1392 128.33 640.934 454.109
3589 0 99.2283 13.1616 1306 131.452 641.999 449.473
3590 0 105.176 13.9671 1469 127.87 642.1 449.747
3591 0 106.131 13.4174 1424 130.313 642.231 447.395
3592 0 110.134 12.6845 1397 133.047 642.412 441.82
3593 0 116.102 13.6431 1584 130.593 642.117 441.64
3594 0 118.144 13.365 1579 131.444 642.139 441.403
3595 0 122.227 13.9086 1700 131.514 642.195 439.382
3596 0 128.129 13.7205 1758 131.763 642.787 436.459
3597 0 132.083 14.4378 1907 129.648 641.961 436.399
3598 0 134.176 14.235 1910 132.016 642.486 433.143
3599 0 141.221 14.3746 2030 131.917 642.448 429.423
3600 0 146.211 14.1507 2069 132.896 642.17 428.953
3601 0 150.167 13.9978 2102 134.524 643 425.062
3602 0 154.176 13.1797 2032 138.395 641.905 423.052
3603 0 161.258 13.9528 2250 135.444 642.649 418.952
3604 0 166.236 14.3892 2392 134.046 642.378 414.605
3605 0 173.18 13.512 2340 135.477 642.878 415.792
3606 0 179.265 13.851 2483 135.863 643 412.067
3607 1 99.0949 10.3537 1026 140.602 643.573 445.441
3608 0 105.19 11.2749 1186 136.493 642.351 442.626
3609 0 109.17 12.3111 1344 132.622 642.938 442.363
3610 0 114.25 12.9278 1477 130.699 642.564 440.666
3611 0 117.229 12.4372 1458 132.601 642.036 441.18
3612 0 122.139 12.9934 1587 130.854 642.028 438.733
3613 0 125.289 11.8765 1488 127.356 642.338 434.499
3614 0 129.243 12.9368 1672 124.972 642.694 433.778
3615 0 135.289 12.2848 1662 126.815 642.431 427.717
3616 0 139.233 12.5616 1749 126.734 641.655 427.429
3617 0 146.219 12.495 1827 126.03 642.503 429.006
3618 1 80.1424 8.31021 666 125.048 641.881 458.102
3619 0 83.0849 10.1222 841 121.081 642.66 460.634
3620 0 87.0997 9.88522 861 119.388 642.264 458.686
3621 0 89.1212 10.5811 943 116.988 643.105 455.491
3622 0 91.2194 9.87728 901 116.443 643.393 456.78
3623 0 95.1883 10.6631 1015 115.449 643.927 455.284
3624 0 101.222 11.2426 1138 112.908 642.94 455.819
3625 0 102.131 11.2013 1144 113.86 642.861 453.922
3626 0 104.11 10.6618 1110 116.723 643.075 447.301
3627 0 106.233 9.79924 1041 118.605 643.827 447.271
3628 0 113.11 10.7772 1219 115.74 643.466 449.535
3629 0 113.149 11.6748 1321 114.796 643.765 446.396
3630 0 121.139 12.011 1455 112.7 643.742 447.185
3631 0 124.191 11.2005 1391 116.022 643.434 440.873
3632 0 128.257 11.5394 1480 115.23 643.261 439.194
3633 0 133.173 10.8881 1450 117.257 642.883 437.174
3634 0 137.153 10.8492 1488 117.116 642.956 436.358
3635 0 143.223 11.6671 1671 114.885 643.18 433.091
3636 0 149.221 11.5399 1722 115.586 642.654 428.538
3637 0 152.241 11.0417 1681 117.107 642.344 426.658
3638 0 156.227 10.7472 1679 117.962 642.861 425.141
3639 0 163.163 10.5477 1721 120.451 642.162 419.78
3640 0 165.385 11.1679 1847 119.478 642.8 419.457
3641 0 164.241 10.3567 1701 124.697 643.066 409.486
3642 0 173.277 11.3576 1968 123.219 642.016 407.36
3643 0 181.164 11.1501 2020 123.605 642.211 413.951
3644 0 188.222 13.245 2493 122.817 643.317 415.45
3645 0 196.334 12.8047 2514 124.113 643.384 412.712
3646 0 200.352 12.4331 2491 127.287 642.812 404.773
3647 0 207.315 11.3692 2357 130.899 641.596 401.89
3648 1 149.142 12.2232 1823 121.434 641.942 431.867
3649 0 155.393 12.6582 1967 120.101 641.328 423.735
3650 0 160.422 12.6105 2023 125.061 641.455 423.168
3651 0 165.374 12.4324 2056 124.257 642.343 425.57
3652 1 50.3553 8.85706 446 115.581 641.8 475.96
3653 0 54.2057 10.6446 577 108.196 641.364 482.714
3654 0 55.1896 11.234 620 108.64 641.815 478.55
3655 0 58.1721 12.188 709 105.223 641.166 481.671
3656 0 59.1223 10.7066 633 110.123 640.978 479.613
3657 0 62.1334 12.3444 767 105.426 641.244 482.096
3658 0 64.149 10.6159 681 110.783 641.094 479.441
3659 0 65.1354 10.7469 700 107.691 641.349 481.846
3660 0 70.1195 13.6196 955 100.392 641.493 478.665
3661 0 68.2046 11.0403 753 109.1 640.53 477.489
3662 0 70.1544 11.3892 799 108.671 640.559 476.493
3663 0 69.1273 11.486 794 130.466 639.573 476.463
3664 0 73.1943 11.5446 845 109.438 640.691 475.651
3665 0 76.2865 12.5186 955 107.212 640.327 474.591
3666 0 77.2719 10.7801 833 112.618 639.9 472.194
3667 0 80.1712 10.5025 842 112.318 640.48 473.021
3668 0 82.233 11.6133 955 110.374 640.034 470.905
3669 0 85.2232 11.8982 1014 110.12 640.473 470.704
3670 0 87.3332 12.9847 1134 108.912 640.368 469.106
3671 0 88.2067 11.6658 1029 111.51 639.976 468.534
3672 0 89.1698 12.3697 1103 110.646 639.908 466.17
3673 0 94.185 13.3036 1253 108.075 640.203 465.007
3674 0 97.14 11.5503 1122 113.09 639.797 461.472
3675 0 97.2094 11.4701 1115 113.811 640.265 462.15
3676 0 103.186 12.2206 1261 110.803 640.149 457.24
3677 1 58.1038 10.6878 621 109.853 638.881 478.903
3678 0 61.294 10.6862 655 109.731 641.54 474.423
3679 0 62.0893 10.6943 664 108.095 641.214 479.75
3680 0 65.1074 12.2413 797 104.778 641.193 479.56
3681 0 66.2319 11.8976 788 106.321 640.953 478.451
3682 0 69.1857 13.0663 904 104.748 641.64 477.71
3683 0 68.2652 11.4553 782 109.761 641.593 475.322
3684 0 72.1559 12.6254 911 107.587 641.283 474.824
3685 0 72.2612 13.0499 943 107.549 641.739 473.978
3686 0 74.1529 11.6111 861 111.374 641.417 473.484
3687 0 76.2189 12.6871 967 108.802 641.529 472.14
3688 0 79.0931 13.4146 1061 107.493 641.263 473.349
3689 0 80.1402 13.1395 1053 107.726 641.395 471.465
3690 0 82.0974 12.1807 1000 110.153 640.769 469.814
3691 0 84.2123 12.9197 1088 109.738 640.551 465.205
3692 0 88.1758 14.2556 1257 106.711 641.347 465.34
3693 0 87.1081 13.489 1175 110.418 641.069 463.245
3694 0 91.1998 14.693 1340 107.557 639.501 462.996
3695 0 94.1258 13.6201 1282 111.177 639.636 455.144
3696 0 93.2433 12.1832 1136 115.331 639.908 459.798
3697 0 99.2182 14.3925 1428 110.622 639.272 456.952
3698 0 102.141 13.5304 1382 112.858 640.238 454.051
3699 0 104.17 13.5643 1413 113.779 640.197 450.066
3700 0 105.331 11.8768 1251 117.497 640.196 449.717
3701 1 62.1152 11.044 686 114.099 639.672 472.831
3702 0 64.1748 11.4843 737 112.95 640.973 470.296
3703 0 65.079 10.9713 714 113.134 639.601 472.508
3704 0 70.0937 12.4833 875 109.583 639.627 475.121
3705 0 74.0516 12.2347 906 109.121 638.901 473.526
3706 0 76.1501 13.04 993 107.281 639.992 469.552
3707 0 74.0429 14.0594 1041 108.646 640.163 467.572
3708 0 78.2836 12.1481 951 111.333 639.444 466.762
3709 0 78.154 12.2579 958 112.347 640.12 462.04
3710 0 85.1748 14.1943 1209 105.89 640.001 463.366
3711 0 87.1731 13.4675 1174 108.588 639.014 462.023
3712 0 88.2141 11.5968 1023 113.265 639.014 460.194
3713 0 91.1103 11.8538 1080 113.631 639.015 456.922
3714 0 93.145 12.8939 1201 111.39 639.458 457.116
3715 0 94.2794 12.6751 1195 112.372 639.855 457.595
3716 0 99.3085 14.0371 1394 109.76 639.241 455.379
3717 0 103.317 13.2215 1366 112.493 639.56 453.307
3718 0 105.252 12.7219 1339 114.659 639.571 451.482
3719 0 107.086 13.251 1419 114.371 639.169 448.664
3720 0 112.095 13.4083 1503 113.086 639.815 446.031
3721 0 117.101 13.0571 1529 115.344 640.211 445.482
3722 1 66.1136 11.7828 779 108.673 639.897 471.953
3723 0 69.1231 13.9751 966 108.718 640.001 476.581
3724 0 70.098 12.4397 872 113.088 639.482 474.198
3725 0 73.0519 13.1276 959 112.297 640.425 472.674
3726 0 75.1805 14.7645 1110 109.875 640.867 472.248
3727 0 78.1173 14.299 1117 111.173 640.355 471.209
3728 0 82.2006 13.5522 1114 113.429 640.912 465.862
3729 0 83.186 13.2354 1101 114.107 641.087 462.201
3730 0 86.0994 12.9618 1116 115.634 640.435 458.31
3731 0 89.0911 13.5928 1211 114.477 640.344 458.766
3732 0 89.2314 12.843 1146 117.825 639.923 451.05
3733 0 95.3778 13.305 1269 116.201 640.887 452.452
3734 0 97.2888 12.4783 1214 119.086 640.489 452.234
3735 0 100.159 11.951 1197 120.992 641.028 450.157
3736 0 102.135 11.7492 1200 122.145 641.34 444.772
3737 1 54.1186 10.1998 552 114.578 641.259 474.399
3738 0 57.0361 10.3268 589 111.095 642.224 470.949
3739 0 62.1436 12.0205 747 114.677 641.075 477.078
3740 0 65.0659 12.1569 791 114.387 640.912 477.748
3741 0 66.0983 12.2696 811 114.655 641.216 475.713
3742 0 67.0456 12.1112 812 116.1 640.734 472.291
3743 0 71.07 12.6354 898 114.047 641 472.654
3744 0 74.109 12.4546 923 114.672 640.484 471.496
3745 0 74.136 13.1785 977 114.687 641.764 470.718
3746 0 78.1339 13.7712 1076 113.23 640.849 467.822
3747 0 80.1608 13.2484 1062 114.985 640.586 466.934
3748 0 83.0925 14.2371 1183 112.489 640.519 466.019
3749 0 86.1881 13.4241 1157 114.927 641.194 464.42
3750 0 90.2463 13.5518 1223 113.89 641.209 463.006
3751 0 90.1484 13.3668 1205 116.365 640.627 461.686
3752 0 91.1538 12.1443 1107 120.07 640.972 460.99
3753 0 95.1897 12.9531 1233 118.44 640.642 457.365
3754 0 97.1552 12.691 1233 119.998 640.865 457.898
3755 0 101.138 13.5656 1372 117.063 641.059 457.733
3756 0 105.17 13.6446 1435 117.685 641.376 452.178
3757 0 106.148 12.9725 1377 119.372 641.276 452.366
3758 0 112.109 14.1469 1586 115.919 640.892 452.416
3759 0 114.115 14.0735 1606 117.337 640.913 440.995
3760 0 117.138 13.1384 1539 119.091 641.36 444.162
3761 0 121.071 14.347 1737 116.702 642.45 446.033
3762 0 125.155 12.84 1607 120.421 642.248 441.773
3763 0 129.167 12.8283 1657 120.527 641.772 436.503
3764 1 71.0731 10.0319 713 126.581 641.008 463.527
3765 0 75.0743 13.1869 990 117.832 641.336 462.967
3766 0 80.0448 13.9547 1117 113.247 641.246 465.756
3767 0 80.0702 12.5015 1001 117.986 640.837 462.186
3768 0 85.1323 12.6509 1077 116.916 641.934 463.682
3769 0 86.0568 11.9805 1031 119.219 642.108 462.453
3770 0 88.0763 12.3983 1092 119.285 641.559 458.322
3771 0 91.0691 12.2105 1112 120.182 642.1 454.843
3772 0 95.1023 13.6905 1302 116.392 642.381 454.409
3773 0 97.1028 12.5743 1221 119.311 643.065 453.781
3774 0 102.148 12.9811 1326 119.086 642.581 449.164
3775 0 105.164 13.6739 1438 118.005 643.006 445.186
3776 0 108.114 12.8752 1392 120.647 642.463 445.369
3777 0 111.199 13.1296 1460 120.458 641.816 443.325
3778 0 116.188 12.7121 1477 122.032 642.322 440.739
3779 0 116.219 11.7709 1368 126.701 642.45 440.529
3780 0 120.16 11.8009 1418 127.07 643.158 442.411
3781 0 126.265 13.2182 1669 123.896 642.483 437.879
3782 0 130.196 13.4105 1746 124.072 642.741 434.541
3783 0 134.286 12.7564 1713 126.229 642.315 432.559
3784 0 141.223 13.114 1852 123.337 642.61 435.656
3785 0 145.265 14.0915 2047 122.482 642.81 429.931
3786 0 149.163 13.0328 1944 126.798 643.11 427.684
3787 0 154.336 12.8227 1979 127.258 642.982 427.631
3788 0 157.2 12.0674 1897 130.877 643.009 421.359
3789 0 163.214 12.9155 2108 130.217 642.793 419.969
3790 0 170.25 14.2731 2430 126.871 642.396 420.33
3791 0 176.198 14.461 2548 126.629 642.421 417.96
3792 0 182.265 14.3967 2624 128.181 642.182 411.569
3793 0 186.286 13.5437 2523 130.962 642.198 408.552
3794 0 194.312 14.3481 2788 127.168 642.235 409.029
3795 0 200.382 13.8336 2772 129.193 642.209 408.942
3796 0 207.213 13.7298 2845 129.882 642.446 398.998
3797 0 217.388 13.5104 2937 129.167 641.552 403.61
3798 1 167.314 13.5016 2259 132.117 641.498 421.415
3799 0 171.265 13.7856 2361 132.561 642.061 413.416
3800 0 177.259 13.6467 2419 133.484 641.838 415.35
3801 0 185.309 13.5342 2508 131.834 641.894 417.252
3802 0 192.276 14.3076 2751 131.313 641.985 412.469
3803 0 199.236 14.0035 2790 133.158 641.618 407.185
3804 0 207.173 14.3745 2978 132.083 642.261 403.12
3805 0 215.183 13.5791 2922 133.344 641.666 401.138
3806 0 224.199 14.0813 3157 131.695 642.61 397.111
3807 0 231.226 13.7052 3169 133.425 642.029 392.614
3808 0 239.487 13.2324 3169 136.045 641.541 381.36
3809 0 249.279 14.2491 3552 132.412 641.846 385.473
3810 1 62.0375 10.9289 678 116.512 642.997 480.375
3811 0 62.1461 11.1351 692 116.918 643.296 476.545
3812 0 63.1326 10.5176 664 117.139 643.206 477.494
3813 0 67.0804 11.285 757 114.495 643.355 476.21
3814 0 69.1138 11.9802 828 112.197 643.653 475.199
3815 0 72.1012 12.0664 870 113.328 643.051 475.331
3816 0 72.1022 11.4282 824 113.303 644.33 473.993
3817 0 76.0378 13.4407 1022 108.952 643.548 470.537
3818 0 75.0771 11.0553 830 115.475 642.136 469.734
3819 0 80.175 13.1462 1054 109.819 642.076 464.691
3820 0 82.0959 11.7667 966 114.354 642.032 467.688
3821 0 84.1045 11.9375 1004 115.146 642.194 468.492
3822 0 88.0642 11.9231 1050 115.818 642.334 466.918
3823 0 90.0738 13.2003 1189 113.562 642.18 462.196
3824 0 97.11 14.7359 1431 105.686 642.296 459.644
3825 0 96.2079 13.3253 1282 114.131 642.278 458.516
3826 0 98.079 12.6837 1244 121.273 642.182 461.284
3827 0 100.157 12.3306 1235 123.185 642.057 459.437
3828 0 103.101 11.9494 1232 122.103 642.304 457.581
3829 0 108.208 12.975 1404 120.905 642.972 454.851
3830 0 110.399 12.645 1396 124.322 642.927 446.483
3831 1 123.267 16.2979 2009 110.056 643.026 441.111
3832 0 124.224 17.5489 2180 109.256 642.504 440.006
3833 1 79.199 6.86877 544 122.384 642.215 475.506
3834 0 74.1884 10.9181 810 115.928 642.547 465.567
3835 0 75.1616 12.3467 928 115.055 642.266 446.901
3836 0 77.1829 11.7902 910 118.175 641.508 445.653
3837 0 80.1363 12.1792 976 117.512 642.597 437.332
3838 0 82.2785 11.85 975 118.999 642.535 446.019
3839 0 87.3324 13.878 1212 113.906 642.054 449.187
3840 0 86.1907 11.869 1023 120.579 642.5 448.63
3841 0 90.1302 13.5804 1224 116.596 642.417 447.122
3842 0 93.1464 12.5931 1173 119.834 642.055 447.234
3843 0 98.3073 13.5799 1335 118.633 642.035 446.507
3844 0 99.1696 13.4416 1333 120.94 642.064 445.212
3845 0 101.239 12.7916 1295 123.032 642.443 443.952
3846 0 103.126 12.1889 1257 125.57 642.481 443.379
3847 0 106.256 11.9522 1270 126.904 641.453 440.881
3848 0 110.272 11.8797 1310 125.915 641.861 443.705
3849 0 114.187 12.5934 1438 122.439 642.214 448.384
3850 0 117.177 12.6219 1479 121.335 642.638 442.034
3851 0 121.291 13.1337 1593 120.21 642.822 443.724
3852 1 69.2272 12.654 876 110.659 642.935 474.083
3853 0 70.2302 12.0319 845 110.92 642.914 471.323
3854 0 72.1186 11.6752 842 111.473 642.309 469.747
3855 0 76.1083 12.745 970 108.069 643.271 469.719
3856 0 76.1605 11.3445 864 112.528 642.689 468.499
3857 0 81.103 12.5889 1021 109.647 643.205 467.31
3858 0 82.2716 13.2002 1086 108.977 643.75 465.096
3859 0 83.1237 11.6212 966 113.946 642.864 462.686
3860 0 87.1429 11.3377 988 113.911 642.962 463.103
3861 0 88.1733 12.5548 1107 111.949 643.516 461.745
3862 0 92.217 11.7766 1086 114.088 643.165 460.439
3863 0 94.1193 12.0804 1137 114.632 643.407 459.154
3864 0 96.1987 12.0792 1162 115.824 642.834 457.382
3865 0 101.215 13.2292 1339 112.372 643.485 456.373
3866 0 104.109 12.5734 1309 114.791 642.823 455.76
3867 0 105.123 12.0906 1271 116.788 641.912 456.211
3868 0 109.134 12.6176 1377 115.295 642.71 452.023
3869 0 113.265 12.5369 1420 114.735 642.601 453.394
3870 0 117.202 13.7369 1610 112.737 642.439 448.182
3871 0 118.16 11.3405 1340 119.992 642.508 448.039
3872 0 122.241 10.8474 1326 121.405 642.86 445.57
3873 0 126.146 11.9385 1506 119.406 643.187 445.734
3874 0 131.336 12.647 1661 118.038 642.508 442.357
3875 0 136.232 12.7063 1731 118.574 642.772 436.507
3876 0 140.135 12.3524 1731 119.348 641.803 439.416
3877 0 146.205 12.332 1803 118.762 642.95 438.089
3878 0 149.304 12.0225 1795 120.818 642.568 433.653
3879 0 154.167 13.0897 2018 119.491 642.412 432.419
3880 0 155.133 11.4547 1777 124.709 642.373 428.31
3881 0 161.226 11.7537 1895 124.867 642.418 425.593
3882 0 168.2 11.4269 1922 125.492 642.336 423.789
3883 0 172.2 12.108 2085 124.736 642.125 423.064
3884 0 179.309 11.4384 2051 126.798 641.819 421.18
3885 0 184.212 12.2468 2256 126.213 642.618 417.23
3886 0 192.635 14.2238 2740 122.243 641.878 411.08
3887 0 196.431 12.0959 2376 128.826 641.137 410.299
3888 0 203.399 13.7513 2797 126.232 642.105 405.698
3889 0 209.475 12.6268 2645 129.897 642.826 402.307
3890 0 215.208 12.6297 2718 130.694 641.488 394.999
3891 0 213.42 9.2775 1980 136.083 641.42 406.098
3892 1 159.446 11.3957 1817 128.788 642.094 429.909
3893 0 165.297 12.4866 2064 126.806 642.355 426.357
3894 0 169.33 12.1715 2061 130.232 641.834 424.424
3895 0 177.39 13.3209 2363 124.936 641.138 409.228
3896 0 181.314 13.3359 2418 125.148 641.261 414.159
3897 0 191.297 12.8648 2461 126.045 641.021 413.758
3898 0 194.277 13.1153 2548 125.968 641.177 404.976
3899 0 204.347 13.4232 2743 122.506 640.393 399.031
3900 0 212.395 12.9805 2757 123.953 641.423 407.46
3901 0 220.354 12.7658 2813 124.599 642.048 400.274
3902 0 230.22 12.8442 2957 123.113 641.912 397.995
3903 1 61.0784 12.1647 743 106.444 642.778 477.74
3904 0 62.2219 11.5876 721 107.49 643.982 480.617
3905 0 65.1468 11.1901 729 105.471 641.586 479.447
3906 0 66.2278 11.5057 762 104.579 641.773 480.349
3907 0 68.0998 11.5859 789 106.728 641.812 477.428
3908 0 70.1782 10.8866 764 108.24 641.475 476.427
3909 0 72.131 11.7564 848 104.419 642.746 475.488
3910 0 75.1756 11.8256 889 104.794 642.503 475.062
3911 0 77.1133 12.527 966 103.963 642.1 472.652
3912 0 80.1408 12.1037 970 104.508 642.557 474.782
3913 0 85.2065 13.4966 1150 100.267 643.263 467.03
3914 0 87.1604 14.1004 1229 100.021 642.12 464.93
3915 0 86.1072 11.1489 960 109.375 642.289 469.406
3916 0 89.0928 11.4151 1017 109.725 641.565 467.883
3917 0 91.0885 10.9015 993 110.777 642.379 464.691
3918 0 95.0519 11.5516 1098 109.727 641.618 464.441
3919 0 94.1497 10.9294 1029 109.671 641.557 466.282
3920 1 75.1107 7.003 526 109.038 642.721 483.886
3921 0 75.0591 5.82208 437 112.616 642.384 484.618
3922 0 74.0953 7.3284 543 111.692 641.772 482.471
3923 0 75.0277 6.55758 492 116.396 640.063 483.707
3924 0 73.113 16.2078 1185 89.9198 639.471 470.884
3925 0 73.171 12.7509 933 101.104 639.766 472.215
3926 0 74.1703 14.615 1084 97.6292 639.477 470.476
3927 0 74.1298 14.4476 1071 100.558 638.547 469.974
3928 0 74.1629 13.9288 1033 103.957 639.497 471.385
3929 0 75.0924 12.691 953 108.098 639.345 474.699
3930 0 78.1129 13.5317 1057 106.73 639.09 472.417
3931 0 77.2076 12.7319 983 110.922 639.162 472.14
3932 0 80.0959 13.7585 1102 107.601 639.031 471.416
3933 0 81.1846 12.1328 985 113.359 639.242 467.411
3934 0 84.091 13.9373 1172 109.974 639.422 469.989
3935 0 87.1264 13.5665 1182 112.087 639.672 467.678
3936 0 86.0796 12.5581 1081 117.04 639.387 466.024
3937 0 91.1284 13.0146 1186 115.698 638.911 467.14
3938 0 93.1383 13.131 1223 117.284 639.22 465.688
3939 0 95.1089 14.0576 1337 115.839 638.993 464.533
3940 0 99.1226 13.9726 1385 116.472 639.349 460.873
3941 0 99.1595 13.917 1380 116.918 639.595 461.441
3942 0 105.1 14.3863 1512 116.092 639.011 457.386
3943 0 106.129 13.9171 1477 117.662 639.152 458.582
3944 0 109.099 14.0698 1535 118.034 639.534 456.914
3945 0 112.121 14.4397 1619 117.61 639.339 455.922
