time division length width area intensity CMx CMy
0 0 39.0288 12.1961 476 173.084 49.708 482.956
1 0 39.0604 12.5703 491 172.544 49.9369 482.752
2 0 41.0228 12.7003 521 169.415 50.7217 483.244
3 0 42.0804 12.4286 523 169.834 50.5258 483.161
4 0 41.0576 11.764 483 174.033 49.5942 482.217
5 0 44.0923 12.7687 563 167.79 50.4796 482.81
6 0 45.0884 12.0652 544 170.377 50.1452 482.112
7 0 47.1059 12.992 612 165.381 50.2745 481.178
8 0 48.0585 12.3807 595 166.758 50.0151 481.225
9 0 51.042 12.9697 662 161.172 50.1843 481.624
10 0 52.0162 13.6881 712 159.493 49.1966 481.139
11 0 51.083 13.0572 667 165.748 49.9055 480.967
12 0 53.026 13.3708 709 165.089 49.0409 479.358
13 0 54.039 13.2682 717 162.453 49.0209 480.19
14 0 54.0447 13.0633 706 166.373 48.9759 479.676
15 0 59.079 14.3198 846 157.247 49.4835 478.214
16 0 58.0967 13.598 790 161.353 48.8405 478.582
17 0 61.0567 13.6431 833 160.631 49.0552 479.002
18 0 62.0519 12.8602 798 163.333 48.8571 478.317
19 0 66.0415 13.5672 896 158.165 49.2377 477.368
20 0 67.0421 13.2305 887 158.581 48.4543 476.717
21 0 69.0947 14.0098 968 157.031 48.5506 474.974
22 0 71.1392 13.6352 970 158.27 48.4608 473.889
23 0 73.1217 12.992 950 159.096 48.5274 474.434
24 0 76.2535 12.9306 986 159.035 47.5 471.654
25 0 79.1962 12.9299 1024 159.21 47.374 468.759
26 0 83.1256 13.0285 1083 157.529 48.0268 468.912
27 1 44.0492 12.6676 558 156.525 49.0179 488.231
28 0 44.0607 12.687 559 158.154 48.0823 487.363
29 0 47.0251 12.0149 565 156.03 48.0513 487.182
30 0 47.1193 12.7336 600 152.988 47.1833 485.677
31 0 50.0698 13.0418 653 150.573 46.5957 485.178
32 0 49.1364 11.6207 571 156.982 46.2434 486.256
33 0 51.1259 12.8506 657 153.361 47.1507 483.735
34 0 52.2082 11.8564 619 156.165 46.483 484.838
35 0 53.1542 12.2662 652 154.765 47.1012 483.21
36 0 56.0645 13.4131 752 148.164 46.7965 482.384
37 0 58.1825 13.0108 757 147.992 46.6592 482.598
38 0 60.0861 13.231 795 146.562 46.4138 481.215
39 0 63.1011 13.6289 860 143.333 47.1128 479.649
40 0 65.0633 12.4494 810 146.57 46.6827 478.978
41 0 68.0708 13.8973 946 141.953 46.1459 476.325
42 0 71.1208 13.1748 937 143.318 46.1547 476.445
43 0 73.1358 13.5228 989 142.265 47.003 476.448
44 0 76.1028 13.7183 1044 142.736 46.9033 474.444
45 0 78.0929 13.9449 1089 144.365 46.3912 471.814
46 0 80.2238 13.7615 1104 148.098 46.2156 471.004
47 0 84.1475 14.023 1180 148.662 46.0153 467.713
48 0 90.1835 13.783 1243 149.591 45.5615 465.319
49 1 48.204 12.6753 611 146.642 44.6137 485.375
50 0 49.1032 13.1152 644 144.97 44.764 484.98
51 0 50.0851 13.5569 679 138.985 46.9588 487.713
52 0 49.0208 12.0765 592 147.211 45.549 488.101
53 0 50.0117 12.717 636 144.564 45.6918 486.332
54 0 52.0208 13.0525 679 143.242 45.7673 484.99
55 0 57.0637 13.1257 749 139.852 45.7316 485.542
56 0 57.1169 12.3956 708 143.992 46.4732 484.679
57 0 59.1437 13.78 815 138.861 45.1865 483.504
58 0 60.1001 12.4958 751 141.627 45.8602 483.961
59 0 62.0405 12.9593 804 142.248 46.5398 482.087
60 0 64.0419 13.3194 853 141.515 46.2122 480.8
61 0 65.0852 13.5207 880 141.341 46.4568 480.461
62 0 68.0696 13.0161 886 143.475 45.7167 478.152
63 0 72.0747 13.819 996 139.644 45.0723 478.059
64 0 74.042 14.2082 1052 138.95 45.5913 475.163
65 0 76.0642 13.4886 1026 140.43 45.9883 476.128
66 0 78.1276 12.6588 989 143.815 44.9727 473.309
67 0 82.1387 14.5729 1197 138.694 44.3601 473.508
68 0 82.0267 13.0567 1071 143.637 44.3716 471.359
69 0 87.1808 13.8792 1210 140.171 43.8686 469.579
70 1 46.1015 11.0626 510 137.296 44.6451 491.124
71 0 46.0363 11.9037 548 130.984 45.5547 490.874
72 0 50.1068 11.5154 577 128.537 44.8718 488.549
73 0 50.0639 12.524 627 126.155 45.748 488.506
74 0 51.0609 12.3578 631 126.559 46.4517 487.653
75 0 51.0598 12.0055 613 127.78 44.8809 488.176
76 0 54.1327 12.9866 703 128.63 44.2831 486.009
77 0 57.1001 13.2574 757 126.363 44.4835 485.321
78 0 58.035 12.458 723 127.559 44.5297 484.443
79 0 57.1219 12.0969 691 130.59 44.3936 483.732
80 0 59.0872 12.3546 730 129.427 44.4712 482.247
81 0 63.1546 12.7465 805 125.426 44.3068 482.506
82 0 66.1136 13.1441 869 124.877 45.0921 480.876
83 0 66.1865 13.1447 870 126.213 44.7264 478.708
84 0 72.114 13.6589 985 122.678 45.2091 478.846
85 0 71.1852 12.7836 910 126.331 44.6341 477.499
86 0 76.1037 13.8627 1055 122.163 44.1915 476.827
87 0 80.1754 14.8175 1188 119.833 45.0362 471.128
88 0 79.094 12.7696 1010 127.699 44.097 472.454
89 0 82.0569 14.0269 1151 125.884 43.5465 470.029
90 0 85.1947 13.3107 1134 127.931 44.4065 469.619
91 0 88.0532 13.401 1180 128.475 44.3788 467.858
92 0 91.0838 13.0868 1192 127.368 43.047 464.301
93 0 92.0577 12.6117 1161 127.864 43.5995 463.75
94 1 48.0195 10.0792 484 117.686 43.9793 483.483
95 0 51.1234 12.4796 638 124.813 43.4984 485.652
96 0 51.0788 11.7466 600 127.555 43.2183 487.097
97 0 52.0299 11.9547 622 121.183 44.0241 486.915
98 0 55.0445 12.2628 675 118.661 42.9659 487.905
99 0 59.0649 12.5794 743 117.132 43.3715 485.444
100 0 59.0708 11.9179 704 119.119 43.0483 485.057
101 0 60.0742 12.0351 723 118.877 43.4467 482.245
102 0 63.0606 12.8131 808 116.683 43.7933 483.984
103 0 64.0663 11.972 767 118.917 43.9087 482.734
104 0 68.0618 12.6356 860 116.474 43.4209 480.801
105 0 71.0888 12.3226 876 116.734 43.3493 479.962
106 0 72.0968 12.719 917 115.213 43.2072 479.534
107 0 74.0819 12.2297 906 117.128 43.2859 477.946
108 0 77.0754 12.1569 937 116.825 43.4578 476.203
109 0 80.1343 12.6038 1010 115.952 42.9129 475.669
110 0 83.0601 12.8943 1071 115.127 42.8142 473.39
111 0 85.0901 13.186 1122 116.235 43.4216 471.18
112 0 89.0534 13.1494 1171 116.514 43.5645 469.902
113 0 90.1713 11.1565 1006 122.301 43.492 470.407
114 0 95.0532 13.2137 1256 118.104 43.2771 468.311
115 0 99.0825 12.7369 1262 118.412 43.496 467.137
116 0 102.071 13.618 1390 116.801 43.2237 463.15
117 0 106.098 11.9701 1270 118.076 43.6157 464.036
118 1 58.2229 11.5247 671 115.399 43.1192 485.776
119 0 60.0405 13.6907 822 110.322 43.017 485.255
120 0 61.0534 12.3662 755 114.735 42.5589 482.441
121 0 63.036 12.5642 792 114.072 42.4949 482.451
122 0 65.0286 10.9029 709 116.605 43.1157 484.305
123 0 67.0555 12.6313 847 115.418 43.8689 480.678
124 0 71.041 13.4007 952 112.866 43.7447 479.835
125 0 71.0435 12.2038 867 117.696 43.4671 480.294
126 0 73.0671 12.7965 935 117.565 42.6888 480.016
127 0 75.0497 12.645 949 119.978 43.02 477.283
128 0 78.0817 13.8573 1082 118.137 43.0739 475.714
129 0 80.1205 13.1552 1054 123.041 42.4991 473.516
130 0 85.0677 13.6597 1162 120.267 42.5637 473.02
131 0 85.1561 13.7395 1170 122.59 42.2128 472.102
132 0 89.0994 13.0528 1163 125.219 42.3887 470.329
133 0 92.1534 13.4775 1242 125.633 42.5733 468.942
134 0 95.1317 13.3184 1267 125.597 41.6077 466.717
135 1 52.0543 11.5072 599 125.533 41.7012 488.511
136 0 55.1418 13.8733 765 82.3608 42.4222 486.497
137 0 54.0143 12.4411 672 125.394 42.1979 485.921
138 0 56.0187 13.0314 730 124.392 42.4658 483.212
139 0 58.1358 12.5224 728 124.913 43.4025 484.25
140 0 60.129 13.5375 814 123.721 42.6548 482.284
141 0 62.075 12.5171 777 124.839 42.9627 483.072
142 0 64.078 13.3119 853 121.802 42.5322 482.346
143 0 65.1322 13.296 866 122.472 42.8533 478.475
144 0 69.2337 13.7939 955 119.602 43.1654 478.917
145 0 70.1318 13.7455 964 119.335 43.6961 479.57
146 0 71.1299 13.0044 925 122.76 43.7254 477.458
147 0 75.2276 13.9443 1049 119.122 42.7388 475.762
148 0 76.1504 13.5127 1029 121.22 43.7707 474.826
149 0 77.1814 13.7209 1059 118.496 43.0822 474.938
150 0 80.1837 14.0552 1127 118.271 42.5936 473.456
151 0 83.1457 13.6387 1134 116.936 42.2381 472.229
152 0 84.0676 13.0252 1095 120.345 41.9361 469.347
153 0 88.1508 13.7832 1215 118.748 42.0502 467.968
154 0 91.1434 13.8573 1263 117.139 42.7601 468.051
155 0 94.2225 13.0436 1229 120.654 42.4085 466.164
156 0 97.2129 13.4036 1303 119.117 43.3784 463.828
157 0 101.154 12.2783 1242 120.457 42.5475 463.479
158 1 53.0851 10.0782 535 119.963 42.9028 485.798
159 0 55.1757 11.3456 626 116.714 43.0208 485.153
160 0 56.1211 10.6555 598 110.958 43.4682 485.704
161 0 58.0497 12.4204 721 108.639 43.4951 484.51
162 0 60.0313 12.5934 756 106.651 42.8386 484.688
163 0 61.1121 13.0089 795 106.133 42.5396 481.499
164 0 62.0799 12.3389 766 108.88 42.5953 480.752
165 0 66.0456 12.8245 847 107.104 42.3506 480.413
166 0 69.1261 13.2222 914 105.839 41.9114 478.107
167 0 73.1082 13.2543 969 104.354 42.3416 478.441
168 0 74.07 13.9733 1035 103.305 42.3478 475.755
169 0 75.0397 13.2463 994 105.933 42.4256 475.727
170 0 78.125 12.4416 972 107.509 42.4331 475.203
171 0 81.1914 12.8708 1045 108.708 42.2526 473.479
172 0 83.0914 12.7811 1062 109.821 42.4849 472.632
173 0 85.0826 13.1989 1123 109.476 42.8673 469.533
174 0 91.2587 12.4152 1133 110.868 42.4757 468.538
175 1 47.0312 11.5243 542 109.393 44.2565 488.559
176 0 49.0758 11.6962 574 109.845 43.4547 488.089
177 0 48.1335 12.5069 602 110.576 43.4817 486.733
178 0 51.1782 11.7237 600 112.067 43.2683 486.623
179 0 55.0658 12.476 687 108.243 43.6114 487.068
180 0 55.1641 11.9462 659 110.581 44.2686 485.534
181 0 56.0167 11.4252 640 113.133 42.75 486.536
182 0 58.0605 11.6258 675 113.504 42.4711 485.025
183 0 59.1385 12.885 762 110.552 42.5262 484.846
184 0 62.0823 12.3385 766 112.055 42.0496 482.751
185 0 63.1016 12.1867 769 113.445 42.2237 481.081
186 0 66.0757 13.5451 895 109.558 42.4603 481.106
187 0 66.0978 12.2697 811 114.581 43.021 480.499
188 0 71.0892 13.462 957 110.929 43.0711 478.262
189 0 73.1658 12.8339 939 111.474 42.6699 476.659
190 0 77.1682 12.9846 1002 109.793 43.0699 476.771
191 0 79.3862 12.8234 1018 109.979 43.1031 475.562
192 0 82.1196 13.9066 1142 107.228 43.324 472.265
193 0 82.1434 12.7338 1046 111.198 43.6415 469.192
194 0 88.2444 12.6354 1115 109.539 43.7883 471.153
195 0 91.2465 13.0197 1188 109.574 44.1759 470.487
196 1 48.1368 11.6127 559 113.936 44.4007 489.864
197 0 51.2462 13.7181 703 108.587 44.3613 487.623
198 0 50.0881 12.2584 614 114.827 43.0912 487.384
199 0 53.1057 12.8235 681 112.029 42.8678 486.421
200 0 54.1354 12.2286 662 113.165 42.7568 485.666
201 0 54.0491 12.5071 676 112.393 42.5266 486.735
202 0 58.1375 13.8465 805 109.873 42.0559 483.359
203 0 61.081 13.2447 809 109.915 43.1075 482.45
204 0 61.1262 13.9384 852 108.729 42.6819 481.725
205 0 62.1221 12.572 781 113.535 43.2407 480.42
206 0 65.0834 13.1831 858 111.302 42.5781 480.54
207 0 65.0854 11.9842 780 114.292 42.0423 479.797
208 0 69.1525 13.9836 967 107.395 42.5315 477.875
209 0 71.1176 12.163 865 109.86 42.4185 478.114
210 0 73.1015 12.5579 918 109.696 41.8159 476.156
211 0 74.1119 13.1288 973 109.46 42.5755 475.72
212 0 78.0915 13.4714 1052 107.529 42.4515 474.632
213 0 80.1526 12.7257 1020 106.771 43.0382 473.893
214 0 81.1127 13.0682 1060 107.46 43.3774 469.072
215 0 83.142 12.3764 1029 105.797 42.9125 469.944
216 0 85.1514 12.5659 1070 106.515 43.5121 469.776
217 0 88.1782 12.0778 1065 108.121 43.216 467.845
218 0 93.0863 13.278 1236 107.256 43.4547 465.273
219 0 97.2369 13.2049 1284 110.402 42.3357 464.096
220 0 100.23 13.0799 1311 111.545 42.6751 463.008
221 1 54.1033 12.1619 658 104.698 43.731 487.339
222 0 55.0914 12.688 699 104.03 43.4134 485.735
223 0 55.0165 12.2145 672 106.311 43.5402 486.476
224 0 58.0494 12.8167 744 104.934 44.0188 485.453
225 0 60.0752 12.4677 749 105.961 43.7984 484.202
226 0 61.0701 12.6903 775 106.897 44.0813 483.795
227 0 62.0734 12.0502 748 110.084 43.8235 481.338
228 0 65.0482 12.1141 788 109.585 43.7475 480.553
229 0 68.0813 13.1167 893 108.839 43.9462 478.539
230 0 70.0872 11.8852 833 111.767 44.3577 479.822
231 0 74.0622 13.9612 1034 108.017 43.8859 477.162
232 0 77.0469 13.6021 1048 110.13 43.5239 476.854
233 0 77.0769 13.6228 1050 112.51 43.9152 474.046
234 0 80.1143 12.8192 1027 113.792 44.4654 472.967
235 0 84.1083 13.6966 1152 111.752 44.3524 472.875
236 0 86.3149 13.3465 1152 115.316 42.9444 466.699
237 0 90.3203 14.4597 1306 113.178 43.6945 463.861
238 0 94.2552 14.5032 1367 112.029 43.8705 464.797
239 1 44.0304 10.3111 454 119.778 43.2952 487.683
240 0 47.2264 12.5777 594 115.172 42.9226 485.524
241 0 49.0936 12.5475 616 117.159 43.5065 486.511
242 0 51.0558 12.6724 647 110.748 42.7682 489.258
243 0 50.0646 12.1843 610 114.882 42.8656 487.708
244 0 54.0569 13.2268 715 110.382 43.3441 487.589
245 0 56.0872 13.5325 759 109.87 43.058 486.227
246 0 56.142 12.8424 721 111.652 44.2829 485.932
247 0 58.1804 12.7362 741 113.444 44.39 484.564
248 0 60.1717 12.6139 759 113.299 43.8248 484.381
249 0 64.1678 12.6076 809 112.629 43.9827 482.519
250 0 63.234 12.4933 790 114.41 44.0114 480.289
251 0 68.2605 13.1262 896 112.427 44.2489 481.003
252 0 67.1541 12.5085 840 116.604 44.1679 478.558
253 0 71.1277 13.1594 936 115.357 44 477.239
254 0 73.1041 13.556 991 114.61 43.4763 475.281
255 0 78.213 13.3609 1045 114.9 44.1263 474.736
256 0 81.1563 13.9237 1130 113.924 43.8956 472.887
257 0 82.1391 13.3554 1097 116.361 43.649 473.144
258 0 85.1863 13.2063 1125 117.838 43.304 470.313
259 0 90.0909 12.6095 1136 118.733 43.64 470.081
260 0 91.1439 13.8572 1263 117.099 43.62 467.074
261 0 94.1102 13.5161 1272 118.29 43.5951 464.851
262 0 95.1941 12.9105 1229 120.203 43.594 463.543
263 0 98.1461 13.2557 1301 120.131 43.7056 462.529
264 0 103.135 12.6728 1307 120.637 43.6236 459.524
265 0 108.26 13.3567 1446 119.497 43.5664 458.38
266 1 58.2201 11.5081 670 115.531 44.0627 484.796
267 0 61.2071 11.9921 734 117.281 44.8828 482.895
268 0 66.2215 11.5672 766 120.885 43.6945 481.879
269 0 64.1319 11.2736 723 118.48 44.1189 481.752
270 0 66.0952 11.2716 745 112.213 43.7409 478.321
271 0 67.0803 10.5992 711 114.871 43.699 478.84
272 0 72.0475 11.5896 835 113.644 44.3844 476.401
273 0 73.051 11.7452 858 114.558 44.2576 476.19
274 0 75.0834 12.5061 939 121.102 44.1448 475.668
275 0 80.0794 13.0495 1045 121.209 44.5024 474.538
276 0 82.0794 13.4382 1103 121.51 44.4769 473.256
277 0 85.1023 13.3604 1137 123.289 43.9956 472.574
278 0 88.0669 14.5231 1279 94.7443 43.3034 472.017
279 0 90.1029 12.1084 1091 127.83 43.3401 467.755
280 0 93.1236 12.5854 1172 124.377 43.6186 465.838
281 1 49.0156 10.5069 515 119.602 43.4311 487.767
282 0 50.0672 10.9653 549 115.036 43.0838 487.162
283 0 51.0389 10.0708 514 120.3 44.3191 487.298
284 0 52.1471 10.8539 566 117.783 43.0866 489.769
285 0 53.1936 11.8435 630 116.076 44.4317 482.976
286 0 56.071 12.6625 710 116.273 43.7465 484.635
287 0 56.0795 12.2326 686 118.367 43.4548 483.488
288 0 59.0537 12.8019 756 116.458 43.172 483.693
289 0 59.0508 11.9389 705 118.576 42.5206 484.905
290 0 61.0502 12.9238 789 116.939 43.7795 482.469
291 0 62.049 12.0872 750 118.54 43.084 482.735
292 0 65.0615 12.0963 787 120.055 42.831 481.257
293 0 68.0519 12.8578 875 117.655 43.5554 480.13
294 0 70.0967 12.2402 858 129.206 42.8555 476.976
295 0 71.1029 11.8279 841 132.302 42.5981 476.229
296 0 74.0479 12.7215 942 129.201 43.3949 476.745
297 0 78.0327 12.7639 996 129.141 43.4317 475.124
298 0 81.0425 13.4621 1091 120.934 43.5793 473.961
299 0 82.1128 12.9943 1067 130.408 43.0515 472.593
300 0 86.0926 13.3693 1151 127.891 42.7237 470.95
301 0 89.0879 13.5596 1208 122.704 42.6382 469.951
302 0 90.1112 12.2071 1100 133.441 43.4073 467.82
303 0 93.1548 10.8422 1010 137.381 43.0733 466.354
304 1 48.0505 10.5514 507 126.538 44.0631 490.957
305 0 51.1385 11.6937 598 128.64 44.2508 486.351
306 0 53.0365 12.4065 658 123.523 44.0881 486.011
307 0 53.0257 11.6924 620 124.905 43.5903 486.737
308 0 56.0377 13.3482 748 119.572 43.5775 484.301
309 0 58.056 13.4525 781 119.086 43.5787 483.923
310 0 57.1251 11.8862 679 124.009 43.2563 482.841
311 0 61.0704 12.4283 759 120.622 43.8472 482.163
312 0 64.0957 12.7622 818 119.439 43.632 481.198
313 0 64.0939 12.7313 816 121.664 43.7549 479.662
314 0 69.0552 12.7434 880 121.394 43.7284 478.998
315 0 70.0763 12.4008 869 122.212 43.2348 478.807
316 0 71.0351 12.8247 911 122.366 43.5774 476.355
317 0 71.0613 11.6378 827 126.553 43.4099 476.647
318 0 76.0659 12.6338 961 124.142 43.0083 474.879
319 0 77.1024 12.6974 979 126.604 43.6568 473.931
320 0 80.1481 13.2754 1064 126.426 43.5987 473.15
321 0 84.0818 12.9279 1087 126.4 43.2162 471.895
322 0 85.1035 14.1122 1201 124.514 43.4921 467.326
323 0 90.1856 13.4279 1211 124.105 43.0578 470.219
324 0 93.163 13.7608 1282 124.254 43.1849 465.851
325 1 50.0479 11.5489 578 121.157 43.6713 488.747
326 0 52.0362 11.8956 619 120.763 43.462 487.373
327 0 50.0476 11.4891 575 122.085 43.4522 487.071
328 0 53.0407 12.9146 685 117.632 42.565 485.315
329 0 53.1214 11.8031 627 123.611 42.9203 486.663
330 0 56.051 11.9534 670 122.716 43.1552 486.209
331 0 57.1441 12.2147 698 122.84 43.0029 485.775
332 0 58.0528 12.0924 702 123.741 42.4188 483.811
333 0 61.0608 13.0526 797 120.211 42.2949 482.63
334 0 65.0872 13.7201 893 117.786 42.9563 481.582
335 0 65.1749 13.1032 854 121.488 42.2986 479.323
336 0 69.1135 13.1957 912 119.262 42.7412 480.502
337 0 71.1421 13.8315 984 118.061 42.936 478.802
338 0 73.1215 13.84 1012 118.592 42.9832 476.542
339 0 76.2467 14.5055 1106 117.664 43.6854 474.946
340 0 77.2257 13.4023 1035 121.395 43.4783 476.358
341 0 80.3897 13.5838 1092 122.755 43.0632 472.04
342 0 84.2649 14.2883 1204 118.827 43.6013 470.447
343 0 87.2716 13.7158 1197 120.402 43.3383 468.811
344 0 88.1607 14.2581 1257 120.072 43.0764 466.484
345 0 92.3555 13.8162 1276 120.4 44.2445 465.071
346 0 94.2471 13.9845 1318 120.291 43.8581 462.34
347 0 98.4222 14.4378 1421 118.246 42.6798 459.673
348 1 51.2554 10.7696 552 117.487 44.5254 483.389
349 0 52.3334 10.6433 557 114.977 43.5189 480.555
350 0 54.037 13.4537 727 113.415 43.0935 482.97
351 0 56.1682 12.8008 719 107.405 42.993 487.981
352 0 55.0417 12.863 708 109.158 43.4181 486.051
353 0 56.0487 12.5605 704 110.803 43.0312 484.119
354 0 58.0914 12.5148 727 111.014 42.9629 482.711
355 0 62.0501 12.1192 752 110.009 42.5984 483.855
356 0 64.0382 12.1178 776 109.83 43.018 483.031
357 0 66.1246 11.9169 788 111.612 42.7183 480.69
358 0 67.0848 12.0147 806 110.406 42.5955 481.448
359 0 69.0931 11.6509 805 112.598 43.4298 479.929
360 0 74.1728 12.7001 942 109.739 43.6847 478.342
361 0 74.158 12.5003 927 111.095 43.1359 476.833
362 0 77.0779 11.91 918 112.714 42.9717 475.321
363 0 81.113 14.0175 1137 108.063 43.241 472.787
364 0 83.0667 12.9173 1073 111.739 43.0438 471.641
365 0 87.0524 13.601 1184 110.367 42.7188 469.931
366 0 90.0567 13.8468 1247 110.488 43.2678 470.265
367 0 92.1111 13.2232 1218 113.068 43.1724 468.47
368 0 95.0828 12.8414 1221 114.294 43.6061 466.096
369 0 98.1133 13.8411 1358 113.626 43.7555 463.932
370 0 101.271 11.958 1211 117.37 44.4542 463.645
371 1 56.1891 11.2477 632 111.69 44.7199 485.665
372 0 59.0748 12.0187 710 109.138 44.4028 486.068
373 0 58.0325 11.8899 690 110.68 42.7855 484.742
374 0 61.0796 11.6242 710 110.487 43.9718 484.982
375 0 62.0625 12.0363 747 109.368 44.9746 482.276
376 0 65.1505 12.356 805 108.123 44.7404 482.522
377 0 67.1175 12.724 854 106.173 45.123 483.348
378 0 67.1795 12.0424 809 108.609 44.9246 480.671
379 0 69.1055 12.8065 885 108.023 43.7424 478.494
380 0 72.0792 12.7082 916 107.144 43.9541 478.918
381 0 72.0259 11.246 810 112.977 44.0062 476.796
382 0 78.0702 11.4512 894 110.906 43.84 475.952
383 0 80.075 11.8139 946 109.778 44.2653 475.222
384 0 82.0697 13.4764 1106 106.73 43.9973 473.697
385 0 86.0781 13.0928 1127 107.404 42.6859 471.002
386 0 88.1193 12.9484 1141 107.472 43.1464 470.351
387 0 90.0479 12.9598 1167 109.042 43.1465 469.253
388 1 47.0191 10.5702 497 112.579 43.34 489.879
389 0 50.0485 10.4699 524 112.46 43.0401 489.767
390 0 53.0334 12.3507 655 108.444 42.5267 487.511
391 0 52.0559 11.795 614 105.767 43.145 488.94
392 0 55.0892 11.6901 644 107.012 42.1382 487.807
393 0 55.0843 12.4355 685 105.761 42.7547 488.296
394 0 58.1194 12.8528 747 105.885 42.7309 486.281
395 0 59.0432 12.8381 758 107.343 42.7731 485.76
396 0 61.0768 13.2947 812 106.917 42.7931 485.031
397 0 62.0997 11.6587 724 111.496 42.4475 485.413
398 0 63.0834 12.8084 808 110.559 41.922 482.754
399 0 66.1135 13.1894 872 109.929 43.1479 481.916
400 0 67.0802 12.5074 839 114.267 43.3123 479.707
401 0 71.2734 13.5675 967 111.842 42.9338 479.663
402 0 72.1919 14.0182 1012 112.314 43.1067 479.758
403 0 75.1527 14.4107 1083 111.607 42.627 478.066
404 0 77.1887 14.4192 1113 112.494 42.2893 477.023
405 0 79.0744 13.9742 1105 115.367 42.4226 475.936
406 0 82.0571 14.1243 1159 115.693 42.9741 476.219
407 0 83.0729 13.2655 1102 120.215 42.4074 474.471
408 0 87.1744 14.0867 1228 118.353 42.7785 474.025
409 0 89.1604 13.6832 1220 121.23 43.0139 469.84
410 0 93.217 14.1605 1320 120.011 42.997 469.231
411 0 96.2834 13.9069 1339 121.134 42.9918 466.628
412 0 99.3425 14.1329 1404 121.771 42.6546 463.196
413 0 102.054 12.5325 1279 122.106 43.1063 465.031
414 0 105.145 13.4481 1414 120.835 42.5983 459.796
415 1 51.0572 10.596 541 121.253 42.5786 481.71
416 0 55.1291 12.1533 670 119.209 43.3373 484.143
417 0 58.0342 13.4576 781 121.492 45.7657 485.181
418 0 59.0253 12.5539 741 123.479 45.7085 486.962
419 0 61.0637 11.6272 710 126.403 45.438 484.975
420 0 64.0482 13.4742 863 119.893 45.3998 484.198
421 0 65.0309 12.6248 821 121.91 45.3325 482.788
422 0 68.0587 13.5765 924 118.814 45.8864 482.483
423 0 71.0882 14.2499 1013 116.263 45.771 481.404
424 0 72.0926 14.204 1024 117.555 45.3232 479.901
425 0 73.0216 13.8178 1009 119.246 45.2616 479.022
426 0 73.0313 13.1998 964 122.791 45.3755 476.786
427 0 73.0313 13.1861 963 159.144 45.3624 476.903
428 0 80.0453 13.8672 1110 118.861 45.4658 476.109
429 0 81.0425 12.5366 1016 122.527 45.0935 475.856
430 0 86.0781 13.9641 1202 117.666 44.3519 473.781
431 0 86.0956 12.4861 1075 121.932 44.7767 472.59
432 0 91.0717 12.8141 1167 119.369 44.4447 471.231
433 0 93.0464 13.4557 1252 117.209 44.611 469.439
434 0 96.0944 13.008 1250 118.609 44.5184 469.77
435 1 50.0356 10.3526 518 119.546 45.2722 490.531
436 0 53.0625 11.7786 625 116.283 45.1888 487.472
437 0 55.0767 12.9093 711 114.94 43.9831 487.567
438 0 57.1297 12.6729 724 115.931 44.2956 486.807
439 0 59.0625 13.4942 797 109.45 44.9109 486.826
440 0 61.0806 12.8355 784 111.605 44.764 486.52
441 0 61.0647 12.888 787 112.921 44.5311 484.347
442 0 62.039 12.476 774 114.149 44.1047 485.276
443 0 63.1177 12.0252 759 116.399 44.5046 484.584
444 0 67.0676 13.1658 883 113.707 43.8732 481.393
445 0 68.062 12.2241 832 117.728 44.8041 482.243
446 0 69.1636 11.6246 804 120.415 45.2537 481.193
447 0 72.0948 12.5529 905 118.236 44.4972 480.294
448 0 75.1181 12.9663 974 118.79 44.7444 478.38
449 0 79.0963 11.8716 939 119.521 44.7764 478.934
450 0 81.1068 12.9582 1051 119.228 44.4358 475.195
451 0 86.1128 13.0759 1126 117.702 44.7265 476.314
452 0 87.1228 12.4307 1083 122.577 44.0656 472.972
453 0 89.1494 12.5856 1122 124.379 44.9572 473.162
454 1 48.0709 12.336 593 125.992 45.086 490.636
455 0 51.1165 12.0313 615 127.042 44.6439 491.436
456 0 49.0662 12.0857 593 123.675 43.968 487.074
457 0 50.0459 12.5685 629 120.661 44.9285 490.065
458 0 50.0748 12.042 603 122.247 44.6683 490.489
459 0 56.0423 12.5619 704 118.828 44.6719 489.44
460 0 56.0331 12.5105 701 120.91 44.6091 488.525
461 0 58.0569 12.5911 731 121.874 44.7839 486.785
462 0 59.0994 12.8089 757 120.468 44.4822 484.584
463 0 60.0669 13.6015 817 119.685 44.2411 484.384
464 0 60.0825 12.383 744 123.887 44.8427 483.043
465 0 65.1007 13.6251 887 119.768 44.7227 482.778
466 0 67.0337 13.4261 900 120.902 43.8644 482.921
467 0 69.1014 13.7913 953 120.209 43.2308 479.578
468 0 72.1669 13.8291 998 119.116 44.1593 480.48
469 0 74.0326 13.2374 980 122.612 43.6184 478.354
470 0 75.0454 13.4052 1006 123.088 43.84 476.463
471 0 78.1825 13.5069 1056 122.49 43.4886 478.148
472 0 79.1154 13.1454 1040 125.985 43.3481 475.353
473 0 84.1329 14.0611 1183 125.697 43.5537 472.21
474 0 87.174 13.4444 1172 127.132 43.4625 471.522
475 1 47.1372 11.4347 539 126.039 43.7087 490.061
476 0 49.2725 12.1569 599 123.957 42.8681 488.746
477 0 50.2767 12.9285 650 124.066 42.6262 486.578
478 0 51.2348 13.3503 684 123.867 43.0102 486.725
479 0 53.0338 12.9163 685 118.829 43.7504 489.94
480 0 54.0601 13.8365 748 117.456 43.3382 489.623
481 0 55.0697 13.383 737 119.718 43.308 488.132
482 0 55.0726 12.7831 704 122.854 42.9375 486.756
483 0 57.1134 12.7466 728 122.651 43.614 486.831
484 0 59.1026 12.9774 767 122.468 43.5593 485.211
485 0 62.1717 13.4145 834 120.145 44.0659 484.451
486 0 65.1812 13.8077 900 117.741 43.5167 484.78
487 0 65.1812 13.7463 896 145.266 42.5335 484.795
488 0 69.0682 13.5953 939 120.488 43.181 482.1
489 0 69.0598 13.5535 936 153.525 44.172 482.04
490 0 73.1722 12.7098 930 124.47 43.8591 479.323
491 0 75.0186 13.45 1009 122.518 43.665 479.912
492 0 77.0842 13.0766 1008 126.308 43.9276 476.697
493 0 80.0775 13.6368 1092 125.614 43.9258 475.668
494 0 84.081 14.1292 1188 127.327 43.9588 472.607
495 0 88.1829 13.4153 1183 127.583 43.7515 472.818
496 0 88.233 13.4983 1191 130.102 43.1914 468.878
497 1 47.1024 11.3795 536 128.66 43.1716 489.974
498 0 50.1574 12.6003 632 122.233 43.0728 486.62
499 0 50.2182 12.3859 622 124.92 43.4968 487.895
500 0 51.0697 11.6899 597 125.509 43.1273 490.794
501 0 53.0344 13.0858 694 125.991 43.8545 487.605
502 0 54.0363 13.2133 714 125.218 43.4216 488.808
503 0 53.0168 12.2037 647 130.264 44.0696 486.563
504 0 56.0332 11.7073 656 130.527 43.8963 486.733
505 0 56.0501 12.6316 708 129.593 44.1907 484.199
506 0 60.055 12.8549 772 126.153 43.1541 485.115
507 0 61.169 11.6889 715 127.843 43.3804 484.94
508 0 64.0993 12.8239 822 125.112 43.4453 482.596
509 0 65.1108 12.1639 792 126.929 43.077 481.826
510 0 68.0717 12.1636 828 127.012 43.4553 479.566
511 0 72.0564 12.1294 874 125.166 43.4222 480.814
512 0 74.0654 12.2594 908 126.529 42.8711 479.289
513 0 75.0373 12.8603 965 127.707 42.7907 476.578
514 0 81.0484 14.7073 1192 122.239 42.7718 471.2
515 0 81.2218 11.3024 918 133.178 42.0447 473.446
516 0 83.0846 12.6257 1049 132.028 42.7493 470.426
517 0 88.0524 13.0945 1153 129.445 43.2541 471.496
518 1 46.0586 12.1584 560 129.338 43.4929 491.012
519 0 47.0943 11.4876 541 131.44 43.549 489.872
520 0 49.0707 12.2273 600 130.835 44.8967 490.367
521 0 50.0398 11.2111 561 132.681 44.2103 490.501
522 0 52.1541 11.7728 614 132.604 43.2199 487.77
523 0 54.0695 12.0401 651 131.272 44.4962 486.828
524 0 56.0316 12.6 706 128.453 44.3428 487.52
525 0 57.0927 11.2974 645 133.051 44.4651 485.144
526 0 59.0654 12.1391 717 131.547 44.4909 484.304
527 0 60.143 11.6223 699 132.758 43.7754 484.087
528 0 63.1693 11.7145 740 129.347 43.8986 485.741
529 0 67.1317 12.7957 859 126.321 43.9057 483.453
530 0 66.081 11.6826 772 132.08 44.513 480.618
531 0 67.1251 11.0093 739 132.762 44.3775 482.191
532 0 70.0806 11.7294 822 131.29 44.3613 479.1
533 0 74.1951 12.548 931 127.937 44.1149 478.928
534 0 75.1947 12.5674 945 128.436 43.9122 477.983
535 0 78.1452 12.5024 977 129.074 44.4514 477.46
536 0 83.272 13.1497 1095 126.425 43.8055 474.673
537 0 86.2032 13.5494 1168 124.291 43.8116 472.23
538 0 88.1907 12.5183 1104 127.186 43.7645 471.564
539 0 92.2154 12.178 1123 129.11 43.2823 469.337
540 0 94.0819 11.777 1108 123.682 44.1471 467.94
541 1 48.0429 11.6562 560 118.614 43.9679 489.759
542 0 51.0855 12.528 640 115.114 43.7219 488.756
543 0 50.0369 10.6721 534 121.897 44.5918 490.633
544 0 54.0695 11.7626 636 119.373 44.0629 488.322
545 0 53.0656 10.7226 569 122.895 44.3814 488.271
546 0 56.0703 11.004 617 122.078 44.4295 487.934
547 0 57.144 10.9548 626 121.76 43.9313 487.315
548 0 59.0645 12.2747 725 119.552 44.1917 484.491
549 0 62.0677 12.2125 758 118.529 44.0277 485.48
550 0 64.0557 11.8178 757 118.658 43.7807 484.774
551 0 66.0832 12.4994 826 118.196 43.1332 481.504
552 0 69.0934 11.0575 764 122.556 44.233 479.861
553 0 72.1061 11.9269 860 119.96 43.8698 479.062
554 0 74.0938 12.3087 912 119.486 43.2632 477.434
555 0 77.0913 11.7393 905 120.936 43.4022 477.456
556 0 78.2232 11.1859 875 123.05 43.6594 477.502
557 0 84.0588 13.0504 1097 117.718 43.2516 475.552
558 0 86.1203 12.1806 1049 120.597 43.4786 474.404
559 0 85.1433 10.958 933 126.263 43.6345 470.248
560 1 47.0686 12.28 578 119.657 44.8201 489.846
561 0 48.0293 11.5554 555 121.634 44.7315 490.932
562 0 51.0542 11.4192 583 122.935 44.2024 489.544
563 0 53.0811 11.7933 626 119.088 43.901 490.283
564 0 54.0718 12.095 654 120.055 44.5153 487.338
565 0 55.071 12.1298 668 119.801 44.6093 489.069
566 0 59.1507 12.5273 741 117.223 44.7868 486.574
567 0 59.0594 12.2927 726 122.701 43.2025 485.329
568 0 60.0696 13.4344 807 120.651 44.1029 484.809
569 0 63.0612 12.2421 772 123.995 43.8174 484.478
570 0 63.0319 12.8348 809 124.263 44.2225 483.438
571 0 67.0307 12.8598 862 124.196 44.3016 483.115
572 0 68.0756 13.1912 898 123.457 44.1002 480.622
573 0 69.0506 12.4112 857 126.748 44.6359 480.553
574 0 74.0831 14.0653 1042 120.884 45.2322 479.026
575 0 76.0456 14.4387 1098 120.162 44.796 479.139
576 0 76.1105 12.7972 974 127.553 44.7967 478.056
577 0 80.0892 13.1978 1057 127.75 43.4361 476.818
578 0 81.1017 12.5275 1016 130.333 44.0344 475.475
579 0 84.1881 12.3533 1040 131.656 44.149 474.793
580 0 88.1188 13.1867 1162 129.258 44.4897 471.958
581 0 89.1154 12.7251 1134 131.389 44.037 472.765
582 0 94.1299 12.8227 1207 130.398 44.5037 470.921
583 0 97.1407 12.8782 1251 131.464 43.7722 469.723
584 0 98.1771 11.8154 1160 135.597 44.7009 465.162
585 0 103.109 13.5972 1402 129.757 44.2853 464.394
586 1 56.0809 11.8222 663 129.13 44.4872 489.698
587 0 56.0409 12.0091 673 122.27 44.263 487.211
588 0 58.0668 11.2457 653 125.816 44.1041 487.669
589 0 59.102 12.0301 711 124.547 43.5992 485.25
590 0 62.0639 12.9866 806 123.749 44.7047 484.857
591 0 65.1311 13.1888 859 122.204 44.291 485.721
592 0 67.0351 13.0678 876 123.115 44.508 483.12
593 0 67.0596 13.5998 912 124.229 44.5252 483.467
594 0 69.0156 13.4172 926 123.576 44.5983 483.32
595 0 71.1096 13.43 955 124.771 44.5937 481.779
596 0 74.1261 13.3152 987 126.096 44.2888 479.443
597 0 75.0854 12.559 943 129.148 44.3499 479.098
598 0 77.1512 14.0633 1085 125.723 44.33 478.069
599 0 80.0883 12.9108 1034 130.273 44.8269 475.125
600 0 84.1725 13.9832 1177 127.671 44.5845 473.861
601 0 88.2069 15.475 1365 122.617 44.0725 473.275
602 0 88.1652 13.7696 1214 129.388 43.1013 471.533
603 0 95.1768 15.0982 1437 123.12 42.4308 467.896
604 0 98.2427 13.6295 1339 126.961 42.4974 467.544
605 0 97.1456 12.2908 1194 128.395 44.1558 465.212
606 1 52.1081 11.8408 617 125.831 44.3728 487.295
607 0 54.0715 12.3355 667 123.399 43.91 486.447
608 0 53.1145 11.6729 620 123.182 43.5419 489.765
609 0 54.0726 12.0209 650 122.975 44.1477 488.82
610 0 57.0406 11.9564 682 122.805 43.3504 488.481
611 0 57.0524 11.9539 682 123.598 43.5044 486.787
612 0 59.1106 12.1636 719 125.46 42.2545 487.972
613 0 60.103 12.3455 742 125.434 42.1873 486.691
614 0 63.1292 12.1655 768 126.866 42.7161 484.561
615 0 65.1678 13.0586 851 124.605 42.7556 482.558
616 0 66.1394 12.398 820 125.952 42.7305 484.545
617 0 69.1568 11.9583 827 127.82 43.1511 482.342
618 0 71.0885 12.5055 889 126.019 42.3273 479.918
619 0 72.1485 12.3079 888 125.325 42.6633 479.988
620 0 76.242 12.3554 942 124.645 42.9883 478.3
621 0 79.1312 12.8015 1013 124.231 43.3169 476.828
622 0 83.2441 13.3583 1112 123.09 42.2725 475.886
623 0 85.1344 12.5919 1072 126.439 42.6576 475.151
624 0 86.0587 12.445 1071 126.894 41.8852 473.347
625 0 90.1036 14.7719 1331 120.831 42.2524 472.186
626 1 47.03 10.2275 481 130.672 43.4595 492.455
627 0 51.0668 13.7075 700 121.096 45.0671 491.176
628 0 50.042 11.2905 565 125.685 44.2549 490.543
629 0 52.0511 12.1996 635 122.756 43.2898 488.449
630 0 54.041 12.0464 651 124.767 43.8218 487.378
631 0 52.1131 12.4345 648 121.895 41.9954 490.498
632 0 54.0537 12.5986 681 122.937 42.5477 489.336
633 0 57.0774 13.2977 759 119.271 42.444 488.69
634 0 58.1336 13.4518 782 119.94 42.1036 487.329
635 0 60.079 14.3811 864 118.6 42.647 484.1
636 0 64.0587 13.5188 866 119.978 42.8487 484.364
637 0 65.0591 13.7106 892 121.336 42.565 483.342
638 0 68.1546 13.7188 935 121.506 41.9401 482.287
639 0 69.0536 14.2498 984 121.562 42.9573 482.227
640 0 73.0937 14.6524 1071 121.111 43.4715 480.732
641 0 74.0674 14.1088 1045 124.551 42.578 480.833
642 0 76.1844 13.8217 1053 125.85 42.7768 478.708
643 0 80.0753 14.9359 1196 122.707 41.9548 477.273
644 0 81.057 14.2122 1152 126.75 42.5686 475.162
645 0 85.0433 15.3216 1303 123.339 42.8081 474.137
646 0 88.0965 14.9041 1313 125.321 43.0343 473.687
647 0 90.164 13.8969 1253 127.131 42.1852 473.544
648 0 94.0973 14.1449 1331 129.044 42.9324 470.73
649 0 95.1253 14.2864 1359 136.243 42.1244 467.724
650 0 100.106 14.8043 1482 134.133 41.8448 466.343
651 0 103.152 14.4932 1495 134.21 41.7532 463.902
652 0 106.127 14.9538 1587 133.281 41.9798 465.251
653 1 55.0917 12.2886 677 136.247 42.8006 488.412
654 0 57.1876 12.2404 700 133.651 43.4829 486.737
655 0 60.1118 12.7097 764 128.335 43.6204 487.713
656 0 60.0868 13.0145 782 127.281 41.8887 488.008
657 0 64.0663 13.9387 893 123.884 41.7581 486.875
658 0 62.0732 12.5497 779 130.866 41.4377 484.246
659 0 67.062 12.6599 849 128.554 41.9011 483.271
660 0 69.0909 12.4329 859 128.385 41.8754 482.605
661 0 70.1261 13.0051 912 127.678 42.375 481.362
662 0 73.0762 12.6854 927 128.942 42.1122 479.327
663 0 77.1037 13.2808 1024 126.609 42.2285 479.589
664 0 78.0773 13.1024 1023 127.025 42.567 476.906
665 0 80.0874 12.0493 965 128.727 42.5347 475.076
666 0 84.0846 13.3794 1125 124.652 42.1742 474.916
667 0 88.0663 13.7851 1214 123.53 41.4596 471.946
668 0 92.3007 13.9869 1291 121.218 41.4857 472.768
669 0 94.3076 13.7529 1297 123.729 42.3755 468.187
670 0 95.1079 11.692 1112 129.125 41.8543 469.851
671 0 100.195 13.5635 1359 123.846 42.6218 464.931
672 0 103.241 13.1633 1359 123.901 42.2458 461.263
673 0 106.163 13.451 1428 121.001 42.0728 458.438
674 1 54.078 11.1875 605 122.23 42.4198 485.271
675 0 60.1519 13.2997 800 118.5 42.89 488.075
676 0 60.1708 13.2955 800 121.562 42.1363 485.882
677 0 63.0954 13.8045 871 120.026 42.3284 484.268
678 0 65.0694 13.4626 876 120.559 42.7728 482.682
679 0 67.1127 13.0676 877 122.055 42.8381 481.437
680 0 69.0876 12.9546 895 122.132 42.9408 480.152
681 0 73.1313 15.1782 1110 114.656 42.5838 479.777
682 0 75.0591 13.2562 995 120.087 41.7648 479.178
683 0 77.207 13.82 1067 118.91 42.2193 476.443
684 0 77.2952 11.6825 903 116.187 42.3522 478.2
685 0 81.0542 12.6212 1023 115.447 42.3685 476.179
686 0 84.1318 11.5652 973 117.916 42.4049 474.43
687 0 86.098 11.6495 1003 117.979 42.6391 472.569
688 0 90.1567 12.0346 1085 114.732 42.0332 472.835
689 0 93.1205 11.5442 1075 119.297 42.534 468.798
690 1 51.0229 11.4459 584 109.277 42.8425 492.12
691 0 52.1209 11.3198 590 105.588 43.722 489.985
692 0 53.1922 10.7158 570 106.567 42.6246 491.247
693 0 55.2031 11.829 653 105.806 42.8346 486.92
694 0 55.1212 9.99615 551 109.653 42.8911 489.401
695 0 59.0332 12.8233 757 102.683 42.7332 488.16
696 0 59.1455 12.1903 721 105.361 42.4924 486.018
697 0 62.1021 12.3345 766 105.201 43.0914 486
698 0 64.1115 12.9462 830 104.76 42.6554 484.208
699 0 66.0909 13.0729 864 100.022 44.3507 482.141
700 0 68.0739 11.987 816 102.553 43.6569 480.723
701 0 71.1343 12.2726 873 102.416 43.5384 478.779
702 0 72.2086 11.813 853 104.361 42.8148 476.853
703 0 76.0737 12.0541 917 103.949 42.6598 476.412
704 0 80.1265 11.9311 956 103.482 42.6538 475.189
705 0 80.1353 11.7801 944 104.845 43.0445 473.452
706 1 41.0278 11.8456 486 99.7963 42.2284 493.856
707 0 43.0959 12.0661 520 101.527 42.4904 493.267
708 0 45.0211 10.7283 483 104.004 41.9503 492.863
709 0 45.0313 11.5031 518 101.355 41.6641 493.226
710 0 46.0549 11.9857 552 101.909 42.6377 491.679
711 0 48.154 10.7987 520 104.508 42.6885 491.585
712 0 49.0282 11.0753 543 105.118 42.4309 490.32
713 0 51.057 12.0258 614 103.601 42.6042 489.953
714 0 52.1794 11.8246 617 105.173 42.825 488.454
715 0 53.0666 11.853 629 106.173 42.1304 488.94
716 0 56.0396 12.8124 718 104.13 42.1657 487.826
717 0 55.0537 11.0256 607 109.995 43.3048 488.901
718 0 58.0854 11.6897 679 108.27 42.6421 488.193
719 0 59.1245 12.4821 738 109.198 42.9322 485.455
720 0 61.1567 12.4107 759 109.826 42.6917 485.864
721 0 64.2747 13.2867 854 108.929 42.8876 482.718
722 0 65.122 12.3 801 111.522 43.1486 483.572
723 0 66.1127 11.6619 771 114.672 43.511 482.034
724 0 71.1034 11.8419 842 113.35 43.2352 483.089
725 0 73.1319 13.2911 972 111.302 42.5484 480.451
726 0 74.0891 13.1463 974 112.588 42.5195 479.515
727 0 76.2089 12.0196 916 116.824 43.0044 478.005
728 0 79.2934 13.9608 1107 113.605 42.6034 476.605
729 0 81.155 13.7145 1113 114.709 42.6739 475.917
730 0 83.3972 13.3458 1113 116.85 42.3756 470.409
731 0 85.2749 13.4272 1145 116.982 41.9441 470.13
732 0 88.2725 11.8157 1043 121.345 42.0221 468.685
733 0 92.2733 13.5034 1246 116.359 41.9759 465.266
734 0 96.4555 12.9697 1251 117.173 42.0831 465.819
735 0 96.2789 12.3807 1192 119.285 42.1477 466.215
736 0 101.39 13.6206 1381 116.553 41.614 463.917
737 0 103.241 13.8898 1434 114.641 42.1485 464.552
738 0 107.245 12.6066 1352 116.734 42.9904 462.659
739 0 111.29 13.3705 1488 114.478 43.4845 462.179
740 0 115.387 12.4537 1437 116.956 42.9756 460.035
741 0 120.377 13.383 1611 115.43 43.5332 457.373
742 0 121.396 12.3316 1497 118.552 43.151 453.184
743 1 64.3266 11.8147 760 114.209 43.0053 481.678
744 0 69.1651 12.9979 899 110.011 43.3771 480.993
745 0 71.1573 14.3766 1023 113.684 42.6002 480.168
746 0 73.1618 14.0647 1029 114.259 42.2857 478.377
747 0 75.2545 13.8198 1040 115.543 41.7587 476.799
748 0 77.1133 13.4088 1034 116.165 41.7882 476.009
749 0 79.1719 13.3254 1055 116.889 42.0095 475.79
750 0 81.2434 12.6903 1031 117.999 42.0563 474.067
751 0 85.2833 13.8128 1178 115.942 42.5772 472.023
752 0 89.1734 14.141 1261 114.983 42.0722 469.695
753 0 92.2391 14.2673 1316 114.78 42.9483 468.47
754 0 94.2023 14.3202 1349 116.011 42.49 467.822
755 0 98.1907 13.5553 1331 116.961 41.1743 466.209
756 0 99.1685 13.4014 1329 117.069 42.0971 467.51
757 0 107.137 14.3834 1541 115.409 42.4361 464.21
758 0 110.148 13.7906 1519 116.242 41.8275 461.932
759 1 59.2056 11.5023 681 111.009 42.1718 488.413
760 0 61.0993 12.1605 743 105.262 41.8022 486.565
761 0 64.1612 12.4218 797 103.93 43.4617 484.502
762 0 66.1223 12.734 842 104.635 43.057 482.809
763 0 67.137 12.2585 823 105.674 43.8311 483.877
764 0 71.1021 13.4595 957 102.545 43.9394 481.538
765 0 71.1794 12.2648 873 107.868 43.921 478.757
766 0 73.1071 12.8168 937 107.534 43.2914 480.882
767 0 76.134 11.9526 910 109.28 43.6791 479.369
768 0 79.1506 12.4067 982 108.955 43.2301 477.613
769 0 81.1198 12.9068 1047 109.16 43.1347 475.443
770 0 84.1246 14.1813 1193 106.79 43.2515 475.128
771 0 84.1496 12.0618 1015 113.443 43.3517 473.047
772 0 89.1626 12.1912 1087 112.375 44.0147 472.354
773 0 92.1715 12.9867 1197 111.035 43.4904 471.754
774 0 93.2169 12.7659 1190 113.589 43.6513 468.371
775 0 99.2258 12.9503 1285 112.187 43.3883 466.833
776 0 102.27 13.8555 1417 110.478 43.2032 463.766
777 1 55.0446 9.9919 550 119.849 43.22 489.764
778 0 56.0408 10.2068 572 108.171 42.5245 486.035
779 0 57.0381 10.9751 626 115.906 44 479.829
780 0 59.0951 9.96699 589 110.557 42.8455 481.647
781 0 59.1352 10.4675 619 110.409 43.3457 480.816
782 0 62.083 10.8725 675 110.683 42.803 478.554
783 0 65.1719 11.9223 777 108.197 42.8687 478.956
784 0 66.1081 11.1938 740 109.895 42.7014 477.055
785 0 68.0738 10.944 745 109.213 42.9114 478.203
786 0 69.2452 11.582 802 110.863 43.3741 477.272
787 0 73.1604 11.9327 873 110.502 42.1649 474.8
788 0 74.0826 10.4613 775 115.223 42.6929 473.486
789 0 75.1392 9.35597 703 117.452 43.2717 473.135
790 0 80.211 11.183 897 114.068 42.2921 471.527
791 0 82.1455 12.064 991 114.417 42.4803 470.098
792 0 84.0988 11.9502 1005 118.441 42.3423 467.368
793 0 87.235 12.965 1131 114.822 42.4492 466.542
794 0 92.0893 11.9449 1100 118.228 42.6018 465.071
795 0 93.1124 12.1037 1127 118.196 43.055 465.464
796 0 97.0735 12.3309 1197 119.225 42.6441 461.202
797 0 100.147 12.3818 1240 119.276 42.5976 460.369
798 0 104.257 12.7282 1327 120.385 42.5787 459.677
799 1 55.0884 10.3833 572 117.427 42.5245 483.554
800 0 59.0968 10.8974 644 116.449 42.7919 482.36
801 0 60.0469 12.5902 756 110.205 42.7831 480.97
802 0 61.0227 11.7006 714 112.976 42.2969 481.987
803 0 66.0633 12.2004 806 111.677 41.9591 479.638
804 0 67.0746 11.4052 765 114.205 42.7373 479.216
805 0 69.1621 11.2056 775 115.021 42.4581 476.297
806 0 70.0977 12.611 884 113.65 42.2873 476.458
807 0 72.095 11.0271 795 119.416 41.9371 476.821
808 0 75.125 12.1131 910 117.312 41.4099 474.016
809 0 78.06 12.8491 1003 119.47 42.0628 473.035
810 0 80.0506 12.3047 985 121.607 41.6365 470.198
811 0 83.1621 12.6259 1050 118.241 43.039 469.163
812 0 86.1476 12.467 1074 118.916 42.4013 469.251
813 0 87.1989 11.2043 977 123.333 42.2313 466.522
814 0 90.1308 11.2725 1016 124.829 41.8346 465.019
815 0 95.2416 12.0011 1143 125.185 41.5451 463.101
816 1 51.0971 10.5485 539 121.837 42.1929 486.957
817 0 51.0318 11.9729 611 122.034 42.6956 487.329
818 0 55.0351 12.5556 691 127.987 42.9161 488.971
819 0 57.0799 13.9629 797 121.916 41.6587 488.222
820 0 57.0885 13.5929 776 124.357 44.0387 486.702
821 0 58.0901 12.3773 719 127.944 43.4214 487.828
822 0 60.1438 12.6031 758 129.187 44.6412 486.202
823 0 60.1208 11.7929 709 132.803 44.1114 484.918
824 0 62.1041 13.2036 820 128.134 43.7195 484.209
825 0 66.1096 13.1448 869 127.536 44.1323 482.35
826 0 68.1974 14.1061 962 125.56 44.0208 481.798
827 0 71.0915 13.7007 974 125.631 43.8378 480.003
828 0 74.18 14.2087 1054 124.831 44.2324 481.092
829 0 76.1754 14.0859 1073 126.006 43.7894 478.746
830 0 77.1264 13.0695 1008 130.811 43.0575 477.046
831 0 79.1309 13.3702 1058 130.05 42.3648 476.301
832 0 84.1833 14.7892 1245 124.982 43.1205 476.01
833 0 88.1194 14.0605 1239 127.083 43.5375 475.979
834 0 89.1254 12.8583 1146 131.514 42.863 472.321
835 0 93.1888 12.8664 1199 132.23 43.236 470.887
836 1 50.0326 11.5325 577 133.917 43.766 491.988
837 0 52.0682 12.0419 627 132.469 43.6156 491.654
838 0 52.0814 13.1141 683 128.889 43.7628 488.271
839 0 52.0455 12.1624 633 126.836 42.5229 484.645
840 0 54.0609 12.042 651 139.276 43.7512 489.295
841 0 56.0427 12.3477 692 127.504 42.8728 489.429
842 0 56.1219 12.2768 689 128.872 43.4993 488.019
843 0 58.1684 12.1028 704 129.663 43.2727 487.962
844 0 61.088 13.0467 797 125.368 43.2447 486.216
845 0 64.0562 13.8472 887 123.663 43.531 485.751
846 0 64.0687 12.4242 796 129.084 43.0465 484.913
847 0 65.0727 12.9086 840 128.555 42.6119 483.283
848 0 69.0556 13.1488 908 127.641 42.8172 481.756
849 0 72.0989 13.4121 967 126.825 41.9452 480.305
850 0 72.1195 13.4222 968 126.873 43.3533 481.482
851 0 75.1391 12.936 972 129.716 42.9835 477.475
852 0 78.1482 13.5256 1057 127.431 42.5061 477.446
853 0 80.0944 12.9347 1036 130.124 42.8079 477.338
854 0 82.1095 13.0801 1074 130.701 43.0056 475.952
855 0 85.0952 13.7963 1174 129.389 42.3416 474.607
856 0 89.0866 14.8058 1319 127.156 43.1585 472.679
857 0 94.1408 15.7955 1487 122.648 43.0773 470.276
858 0 94.1556 14.3274 1349 129.716 42.9956 468.36
859 0 98.0692 14.969 1468 126.334 42.515 467.068
860 0 102.125 14.2178 1452 129.396 42.5833 464.856
861 0 105.084 14.7405 1549 127.744 42.6992 463.182
862 0 106.193 14.3229 1521 128.171 42.7692 460.693
863 1 58.106 11.0488 642 131.484 42.7181 482.916
864 0 60.0624 13.103 787 122.911 42.2313 479.897
865 0 60.087 11.1671 671 119.598 42.5142 482.532
866 0 64.0829 12.3902 794 116.025 42.5013 480.835
867 0 63.1147 10.3779 655 122.024 42.4183 480.328
868 0 68.1019 11.9674 815 117.871 41.8564 478.94
869 0 70.1466 11.8039 828 116.873 42.506 480.114
870 0 72.1627 12.2224 882 117.939 41.9365 476.789
871 0 72.1696 10.4615 755 123.597 42.0265 473.113
872 0 80.2069 13.328 1069 115.442 42.3321 473.379
873 0 81.1542 12.9876 1054 118.872 42.6395 471.408
874 0 83.1117 12.1644 1011 122.411 41.8823 468.474
875 0 84.1012 12.152 1022 123.513 42.1213 467.308
876 0 88.0756 13.0115 1146 121.517 41.8883 467.558
877 0 92.1575 12.4027 1143 124.115 41.5967 464.745
878 0 94.1103 13.2398 1246 123.224 41.7544 464.002
879 0 96.0537 12.8262 1232 125.903 41.8864 462.752
880 0 100.143 13.2011 1322 124.661 42.1036 460.051
881 0 104.137 12.9637 1350 124.568 42.2644 459.256
882 0 109.183 12.7126 1388 129.222 42.1261 459.793
883 1 56.0186 10.6036 594 133.492 42.4848 483.035
884 0 58.0786 11.5361 670 126.866 42.9119 479.984
885 0 63.0632 13.3517 842 124.062 42.5701 479.414
886 0 64.0556 13.941 893 125.888 43.028 480.809
887 0 69.0928 13.3733 924 125.251 42.6017 481.226
888 0 70.1444 13.8001 968 125.855 42.5155 478.514
889 0 72.1144 14.0887 1016 125.63 42.624 477.342
890 0 72.1875 13.174 951 128.549 42.1399 476.538
891 0 75.1966 13.3517 1004 128.572 42.5458 476.776
892 0 79.1294 13.7875 1091 128.703 42.2392 474.909
893 0 82.1787 14.2981 1175 127.183 42.337 473.187
894 0 85.2096 13.414 1143 129.317 42.1041 470.464
895 0 87.3467 15.1923 1327 124.744 42.4732 468.923
896 0 86.1637 13.7761 1187 131.786 42.46 465.432
897 0 90.2355 13.6975 1236 130.6 42.0057 463.734
898 0 93.3135 15.2604 1424 125.224 42.2528 458.817
899 0 95.1413 14.1053 1342 129.542 42.3525 455.861
900 0 98.3419 14.0225 1379 131.168 41.781 457.785
901 0 101.162 13.1966 1335 134.521 42.2787 456.946
902 0 103.19 14.0033 1445 133.718 42.3945 456.817
903 0 110.199 15.3086 1687 128.063 42.3675 452.695
904 0 114.193 14.7557 1685 130.188 41.6694 448.995
905 0 120.163 14.5801 1752 129.797 42.1176 448.151
906 1 67.1309 12.7363 855 135.119 42.5158 471.058
907 0 69.0988 13.2853 918 133.948 42.6133 477.082
908 0 72.1851 12.5788 908 136.689 42.3271 475.566
909 0 75.0736 13.933 1046 132.748 42.3403 473.412
910 0 78.1351 14.2446 1113 133.18 42.3486 470.105
911 0 82.1993 14.6108 1201 130.933 42.1915 469.8
912 0 82.0941 15.129 1242 129.762 42.1063 469.107
913 0 84.12 12.6605 1065 135.273 42.1352 468.805
914 0 87.0579 14.5191 1264 129.333 41.6234 466.807
915 0 93.234 14.5011 1352 128.078 41.2101 466.17
916 0 94.1306 13.5663 1277 133.212 41.4471 462.43
917 0 97.1011 13.7486 1335 131.71 41.9056 460.479
918 0 101.227 14.2946 1447 129.992 41.5881 457.744
919 0 104.266 14.0986 1470 130.591 41.6347 456.663
920 0 109.122 14.6442 1598 127.04 41.6671 453.872
921 0 113.198 14.5144 1643 127.503 41.5435 451.739
922 0 115.199 12.8994 1486 131.427 41.9125 450.699
923 1 65.0875 12.1375 790 126.833 41.8911 473.291
924 0 67.0502 12.1998 818 128.048 41.1357 471.348
925 0 71.0959 12.5605 893 119.468 42.766 475.942
926 0 72.1462 11.6708 842 122.919 42.1568 472.89
927 0 76.2092 12.2689 935 121.476 42.2727 470.511
928 0 79.1305 12.511 990 120.684 42.304 469.722
929 0 82.2564 12.5704 1034 120.936 42.4565 468.869
930 0 86.2085 13.595 1172 117.681 42.7688 467.453
931 0 87.1222 13.0506 1137 120.432 42.7529 466.438
932 0 89.2117 12.2518 1093 123.225 42.9259 464.69
933 0 93.2691 12.019 1121 123.528 42.2926 463.369
934 0 97.2445 12.8131 1246 121.508 42.9438 462.354
935 0 101.16 12.8015 1295 122.396 42.8162 459.432
936 0 105.15 13.5236 1422 120.025 43.102 459.231
937 0 108.234 13.4615 1457 119.946 41.7124 452.537
938 0 112.187 13.3259 1495 119.309 41.9043 454.527
939 0 116.154 13.0861 1520 120.493 41.6257 451.363
940 1 61.0934 10.1648 621 111.481 41.1063 481.44
941 0 65.1194 11.978 780 124.362 41.0551 480.509
942 0 67.0614 13.4355 901 119.901 42.6404 481.013
943 0 69.0913 13.4749 931 122.385 42.9216 477.582
944 0 73.0755 14.0676 1028 119.158 43.0224 477.595
945 0 74.049 13.2615 982 123.048 43.1161 476.341
946 0 76.0178 13.7205 1043 122.013 42.8428 475.844
947 0 78.0426 13.3645 1043 123.769 43.5053 474.058
948 0 82.0469 13.1145 1076 124.137 43.0223 472.637
949 0 82.1684 13.1072 1077 124.666 42.6267 471.271
950 0 87.1154 13.6256 1187 122.012 42.8189 470.486
951 0 88.0959 12.7021 1119 126.307 43.0554 468.732
952 0 92.1155 13.6893 1261 123.632 42.092 467.343
953 0 94.0939 14.1561 1332 122.808 42.003 465.417
954 0 96.1609 13.363 1285 126.061 42.7012 464.664
955 0 100.154 14.0883 1411 123.78 42.9433 462.252
956 0 102.236 13.7819 1409 125.441 42.731 461.006
957 0 105.29 13.6101 1433 126.246 41.0523 461.179
958 0 107.12 13.4336 1439 127.102 41.5184 459.215
959 0 110.246 12.8168 1413 126.282 41.4494 455.73
960 0 116.132 13.6052 1580 123.77 41.7703 454.108
961 0 120.191 13.229 1590 122.775 41.8082 451.83
962 1 66.0701 11.9873 792 116.241 41.7197 479.301
963 0 66.1358 10.8867 720 120.604 40.5139 476.35
964 0 73.1059 12.8033 936 120.245 43.1667 478.457
965 0 71.0297 13.1494 934 109.543 41.0021 477.693
966 0 73.0593 12.4146 907 112.153 41.2404 475.109
967 0 75.0876 11.2668 846 115.222 41.5461 475.708
968 0 78.1042 11.5103 899 115.098 41.505 475.967
969 0 77.0856 10.7154 826 118.962 40.8656 473.872
970 0 82.1996 12.494 1027 114.072 42.7887 473.041
971 0 83.1499 11.341 943 117.708 42.0148 470.755
972 0 87.1321 11.8211 1030 117.893 41.7184 468.857
973 0 89.1456 11.3746 1014 119.758 42.1834 466.952
974 0 92.089 11.4997 1059 119.378 42.6308 467.379
975 0 95.1974 11.9856 1141 120.75 41.9571 466.293
976 0 99.2915 12.8108 1272 118.916 42.1887 463.445
977 0 102.238 11.2678 1152 122.351 43.388 462.515
978 0 104.24 10.5142 1096 126.047 42.719 457.987
979 0 110.142 11.7575 1295 121.499 42.7529 460.456
980 0 113.236 11.4716 1299 124.376 42.1586 455.883
981 1 61.0892 11.5241 704 114.634 42.804 483.119
982 0 63.2237 10.8978 689 124.837 43.1597 480.448
983 0 63.0585 10.1017 637 118.747 42.0801 484.619
984 0 66.0683 11.7303 775 116.068 42.5458 481.103
985 0 69.0522 11.7303 810 116.448 41.7901 480.248
986 0 70.071 11.8879 833 116.934 42.7923 478.93
987 0 74.1303 12.505 927 116.117 43.5965 476.566
988 0 75.0328 11.6749 876 119.834 43.3607 476.136
989 0 76.1417 12.6869 966 119.346 43.4689 473.546
990 0 80.1088 13.3069 1066 117.885 43.1032 474.345
991 0 83.0788 13.9265 1157 116.386 42.898 471.874
992 0 85.3003 11.8405 1010 121.15 42.7644 469.491
993 0 87.1348 12.0962 1054 122.639 43.1338 469.45
994 0 90.1946 12.8833 1162 122.133 42.5628 466.823
995 0 93.1779 13.2113 1231 120.998 42.879 465.235
996 0 95.4045 13.0602 1246 122.44 43.0754 461.652
997 0 98.3131 13.4875 1326 122.359 43.4027 460.558
998 0 100.28 12.4851 1252 125.055 42.3187 459.744
999 0 103.192 13.4313 1386 122.818 42.7792 457.546
1000 0 107.32 13.7999 1481 120.853 43.108 457.01
1001 0 108.334 12.7199 1378 125.368 42.2242 454.49
1002 0 114.184 13.4344 1534 123.625 42.3292 454.653
1003 0 119.286 15.3078 1826 118.33 43.2826 451.594
1004 0 122.189 13.52 1652 123.574 42.4728 448.791
1005 0 123.266 12.6799 1563 126.928 42.4946 444.94
1006 1 69.1279 9.8079 678 118.571 42.8791 480.612
1007 0 73.0973 11.8609 867 116.919 43.0427 476.858
1008 0 74.2389 11.1936 831 119.229 42.2924 477.622
1009 0 76.1483 11.1362 848 121.502 43.2712 475.272
1010 0 80.119 12.8684 1031 118.888 42.9913 471.08
1011 0 82.1792 12.6553 1040 120.471 42.3558 471.368
1012 0 85.0923 12.7156 1082 122.289 42.5388 468.772
1013 0 88.2083 12.7993 1129 122.883 42.5678 468.635
1014 0 93.1568 12.9674 1208 122.176 41.6142 467.37
1015 0 94.2027 13.1737 1241 124.595 42.6229 463.291
1016 0 99.1743 13.5721 1346 122.057 42.4658 463.76
1017 0 103.178 13.1908 1361 122.816 42.8193 462.991
1018 0 106.189 13.4101 1424 123.87 43.3904 459.406
1019 1 61.0888 11.5569 706 119.871 44.0099 485.12
1020 0 62.047 10.3309 641 124.559 43.6022 483.134
1021 0 62.1519 10.4261 648 121.071 42.8673 478.295
1022 0 65.3091 10.5958 692 119.841 42.1199 477.525
1023 0 67.2114 12.7359 856 122.796 41.9848 479.966
1024 0 69.2342 12.1761 843 124.911 42.1139 478.694
1025 0 71.1667 12.829 913 123.147 42.8313 477.119
1026 0 73.1619 12.1375 888 125.782 41.5338 476.569
1027 0 73.1902 11.1764 818 121 42.5758 477.659
1028 0 77.1769 12.3871 956 119.39 41.5722 478.163
1029 0 79.2392 12.4938 990 119.202 41.8919 477.069
1030 0 82.2317 12.4648 1025 123.053 41.7912 473.106
1031 0 84.1531 12.4416 1047 125.061 42.4212 472.488
1032 0 84.1531 12.4178 1045 159.255 43.422 472.496
1033 0 91.1967 11.5903 1057 125.812 42.8609 468.896
1034 0 93.168 12.7404 1187 123.174 42.417 469.056
1035 0 94.3567 11.944 1127 126.516 42.0692 465.934
1036 0 99.3368 12.1606 1208 125.219 42.0613 465.139
1037 0 100.176 11.0805 1110 128.128 42.7315 464.579
1038 1 56.2305 11.0794 623 117.169 44.0048 483.953
1039 0 56.2063 9.83876 553 122.108 43.255 480.626
1040 0 60.0824 11.8338 711 123.886 42.6034 483.823
1041 0 60.1159 11.9103 716 125.13 43.1536 483.849
1042 0 61.1697 11.7051 716 127.472 40.5251 481.525
1043 0 65.161 12.4308 810 123.856 41.6444 482.027
1044 0 67.1774 13.1145 881 122.429 41.8434 479.024
1045 0 67.181 11.9081 800 118.521 41.5 482.465
1046 0 69.0999 11.8813 821 118.412 41.7223 480.291
1047 0 70.2312 11.3482 797 121.37 41.5571 479.354
1048 0 73.1017 12.3663 904 120.132 41.458 477.567
1049 0 77.1313 12.3296 951 119.146 41.0799 477.168
1050 0 80.157 11.9515 958 120.923 41.8215 475.438
1051 0 82.1113 11.2774 926 122.541 41.4028 474.422
1052 0 85.3169 13.0689 1115 117.694 40.8135 472.342
1053 0 89.3976 11.6782 1044 120.123 40.9272 473.585
1054 0 89.1416 12.037 1073 121.304 40.8565 469.267
1055 0 95.1548 12.611 1200 118.233 41.2375 466.965
1056 0 98.23 11.6563 1145 120.402 41.1424 466.976
1057 1 54.1294 11.3801 616 120.068 40.9156 487.477
1058 0 56.1499 10.9528 615 121.587 41.6163 486.59
1059 0 57.2182 11.4299 654 121.751 42.1651 484.839
1060 0 57.1308 10.2572 586 115.106 41.9181 486.27
1061 0 61.0773 12.0994 739 109.728 41.6265 485.494
1062 0 62.1117 12.7512 792 108.571 41.5556 484.068
1063 0 62.0359 12.9925 806 109.565 41.7035 484.345
1064 0 64.1124 12.79 820 109.848 41.9854 483.343
1065 0 67.0671 13.0615 876 109.953 41.6598 480.467
1066 0 68.0805 12.3383 840 111.826 41.6131 479.419
1067 0 72.1136 12.7992 923 110.729 41.454 477.683
1068 0 73.1079 12.4474 910 112.307 41.367 475.279
1069 0 76.0837 12.092 920 113.555 41.6696 475.367
1070 0 79.1322 12.5865 996 112.958 41.1135 475.222
1071 0 81.1159 12.5253 1016 113.633 41.4006 474.571
1072 0 83.1793 13.5009 1123 112.75 41.2787 471.699
1073 0 87.0981 12.9739 1130 113.344 41.0894 472.068
1074 0 89.0523 13.6549 1216 113.761 40.7993 470.955
1075 0 91.1786 13.1061 1195 116.376 41.0469 469.185
1076 0 94.0858 11.9997 1129 119.383 40.868 468.921
1077 0 98.0551 14.0227 1375 114.756 40.1142 466.406
1078 0 100.14 13.3912 1341 118.523 40.6779 465.556
1079 0 104.275 13.0136 1357 118.394 41.1098 465.061
1080 1 52.1386 10.3762 541 125.165 40.2144 487.933
1081 0 53.0734 11.0602 587 121.908 42.6371 488.063
1082 0 57.1538 13.7699 787 114.848 43.3126 484.868
1083 0 59.1374 11.9045 704 116.841 42.7798 484.581
1084 0 61.0816 12.7371 778 113.398 42.7686 483.753
1085 0 61.08 12.1644 743 116.989 43.1978 482.767
1086 0 63.0771 11.7792 743 117.84 42.7335 480.681
1087 0 64.0344 12.384 793 119.491 42.4741 482.141
1088 0 67.0484 12.394 831 119.327 43.0517 481.387
1089 0 69.0444 13.0061 898 117.883 42.7261 480.219
1090 0 72.0554 13.1843 950 115.573 43.3853 479.956
1091 0 73.0716 13.2883 971 115.711 43.2327 476.999
1092 0 76.0476 13.4521 1023 115.859 43.2463 476.963
1093 0 79.1768 13.072 1035 116.531 42.3188 475.042
1094 0 82.1239 13.8328 1136 114.735 41.7342 475.556
1095 0 84.0938 14.3055 1203 117.889 41.0091 472.012
1096 0 85.0834 14.0333 1194 119.392 42.273 469.656
1097 0 88.067 13.9099 1225 120.207 42.4433 470.989
1098 0 91.173 13.0302 1188 122.609 41.9638 468.367
1099 0 93.1269 12.7675 1189 124.421 43.0059 465.349
1100 0 98.098 13.3846 1313 121.576 42.8835 465.092
1101 0 101.198 13.597 1376 120.637 43.1156 459.811
1102 1 56.151 10.6142 596 122.681 43.2282 485.007
1103 0 57.1026 10.665 609 120.53 43.0821 480.461
1104 0 56.064 11.469 643 118.652 40.4992 476.928
1105 0 59.0418 11.3479 670 118.1 40.7597 479.421
1106 0 61.12 11.6328 711 116.899 40.9015 477.883
1107 0 62.0556 11.3447 704 118.598 41.5426 477.511
1108 0 66.1464 11.535 763 119.038 40.5046 476.531
1109 0 67.1896 11.7131 787 120.15 40.9314 477.573
1110 0 72.0932 13.4409 969 120.132 40.3942 478.955
1111 0 73.0578 13.9752 1021 119.071 40.1645 478.01
1112 0 76.0563 13.5952 1034 119.389 40.7747 477.522
1113 0 78.0753 13.82 1079 118.966 40.861 476.915
1114 0 80.0625 13.427 1075 122.001 40.8353 473.737
1115 0 83.0935 12.9493 1076 123.41 41.1255 473.383
1116 0 84.1006 11.7478 988 126.551 40.1832 473.75
1117 0 88.1123 12.6657 1116 124.496 40.3109 471.896
1118 0 91.1286 13.5084 1231 122.935 40.4159 469.054
1119 1 50.0417 10.751 538 124.911 40.7918 490.431
1120 0 52.1389 12.1598 634 121.014 40.3281 489.372
1121 0 54.3078 12.3003 668 119.919 42.0629 485.503
1122 0 54.1928 12.8615 697 121.793 41.3228 486.184
1123 0 55.093 12.615 695 122.364 39.4619 486.521
1124 0 58.0843 12.4474 723 122.981 40.0221 485.674
1125 0 57.1724 12.2262 699 125.675 40.9557 483.629
1126 0 60.0504 12.4562 748 125.414 41.3155 482.291
1127 0 59.1638 11.3583 672 120.952 41.2991 486.186
1128 0 62.023 12.2213 758 123.198 40.3549 484.088
1129 0 64.0345 12.3371 790 123.467 40.481 482.647
1130 0 63.0506 12.3869 781 125.734 40.4673 482.525
1131 0 66.0542 11.7631 777 127.632 40.0026 480.914
1132 0 68.028 12.1862 829 126.397 39.8504 480.538
1133 0 72.0515 13.4904 972 123.351 40.2603 477.539
1134 0 73.1915 13.1026 959 124.275 39.7351 477.608
1135 0 74.054 13.0986 970 126.084 40.3103 475.501
1136 0 80.0959 13.8459 1109 122.484 39.8783 476.276
1137 0 80.0458 13.055 1045 126.028 40.2086 474.475
1138 0 85.1088 12.8894 1097 126.084 40.8387 472.676
1139 0 86.1789 13.6576 1177 124.602 40.4248 471.364
1140 0 91.1508 13.0334 1188 124.771 40.7668 469.949
1141 0 93.218 13.3772 1247 123.886 40.9294 469.113
1142 1 53.0672 11.8152 627 123.713 40.7432 488.526
1143 0 53.0266 11.6168 616 125.648 39.8344 487.797
1144 0 56.1049 12.6727 711 123.367 40.3038 486.246
1145 0 58.0872 12.5673 730 115.949 42.5945 484.589
1146 0 59.083 12.017 710 116.131 41.8042 487.348
1147 0 61.1548 12.5583 768 114.564 41.9974 484.126
1148 0 63.069 13.842 873 111.414 41.425 481.604
1149 0 64.1286 12.5061 802 112.647 41.6995 482.49
1150 0 67.1368 13.048 876 111.586 41.0628 480.613
1151 0 67.1271 12.3944 832 114.625 41.4976 480.174
1152 0 71.1233 12.9493 921 112.009 41.3084 477.992
1153 0 74.2338 12.3798 919 112.779 41.3319 476.403
1154 0 76.114 13.6768 1041 109.834 41.0692 476.099
1155 0 77.1179 11.6186 896 115.167 41.385 475.595
1156 0 81.1168 12.5252 1016 111.627 41.6831 475.079
1157 0 83.0677 13.6515 1134 110.411 41.3175 471.422
1158 0 89.1741 12.7167 1134 111.347 40.8765 471.136
1159 0 89.1016 12.525 1116 115.211 41.3136 469.15
1160 1 50.0552 12.0067 601 115.847 42.5524 488.889
1161 0 50.1271 11.2714 565 120.15 41.423 488.381
1162 0 52.0852 12.5755 655 116.937 41.5588 487.585
1163 0 54.1596 11.9462 647 116.42 41.3679 485.801
1164 0 57.1851 13.2202 756 111.291 41.3558 485.217
1165 0 55.0831 12.2724 676 116.149 41.9719 483.572
1166 0 59.0609 13.8332 817 110.087 40.6353 485.474
1167 0 60.0568 13.3041 799 111.258 39.7059 483.876
1168 0 61.1483 13.4591 823 111.863 40.1203 481.516
1169 0 65.0875 13.3666 870 110.876 39.7897 481.546
1170 0 66.1076 12.1166 801 115.021 39.6717 480.39
1171 0 70.1161 13.278 931 110.58 40.5134 478.836
1172 0 69.1377 12.3956 857 115.016 39.9148 479.14
1173 0 73.1142 13.0481 954 113.144 40.0252 475.766
1174 0 73.0696 12.4812 912 115.68 40.1272 475.774
1175 0 79.0957 13.1992 1044 112.351 39.4282 475.614
1176 0 78.0496 12.3896 967 116.96 38.7942 473.78
1177 0 83.1126 13.1147 1090 114.585 40.1202 469.51
1178 0 88.0695 14.0571 1238 111.066 40.2512 471.463
1179 0 89.1451 12.5526 1119 115.389 39.7855 468.113
1180 0 94.1017 12.7203 1197 114.307 41.2047 468.556
1181 0 96.1189 14.1908 1364 111.763 41.8402 464.853
1182 1 53.02 11.8823 630 115.856 42.3302 485.511
1183 0 54.0508 10.6751 577 119.747 42.201 486.74
1184 0 56.1285 12.1151 680 117.781 42.0235 484.718
1185 0 59.0762 13.0171 769 114.956 42.1443 485.355
1186 0 59.0656 12.393 732 118.658 41.9399 484.439
1187 0 62.1387 12.9066 802 117.197 41.6883 481.818
1188 0 63.0826 12.4757 787 118.374 41.8564 482.386
1189 0 68.0553 13.5478 922 113.767 41.9393 481.97
1190 0 70.107 13.1799 924 116.715 42.1905 479.531
1191 0 71.1072 12.7273 905 118.712 41.5724 477.945
1192 0 73.0517 13.4699 984 117.139 42.2571 476.575
1193 0 75.1007 13.2888 998 117.766 42.4529 475.677
1194 0 79.171 13.3382 1056 117.685 42.8191 474.069
1195 0 82.0805 13.8401 1136 117.314 42.1849 473.442
1196 0 85.1326 13.3674 1138 120.282 41.3172 471.8
1197 0 88.1243 13.6625 1204 119.76 41.2159 469.953
1198 0 90.1487 13.7329 1238 121.46 40.983 471.104
1199 0 94.1062 14.3986 1355 119.401 41.3941 468.356
1200 1 54.0599 13.1891 713 121.844 41.7251 489.445
1201 0 53.0632 12.1365 644 126.506 42.0978 487.753
1202 0 58.0951 13.2369 769 122.528 42.1964 486.086
1203 0 60.1038 13.7595 827 121.913 41.7678 485.747
1204 0 62.0682 13.4046 832 123.636 41.5349 485.333
1205 0 62.3026 12.6801 790 127.076 41.4025 485.114
1206 0 65.1881 13.7295 895 124.139 41.9307 482.747
1207 0 64.2445 13.3708 859 128.576 41.8405 481.389
1208 0 65.1314 13.2962 866 130.11 41.4873 481.121
1209 0 68.1726 12.9818 885 131.037 41.0056 479.757
1210 0 69.1987 13.0205 901 130.883 40.6681 480.159
1211 0 72.1646 13.3029 960 129.745 40.5958 479.857
1212 0 72.163 12.7766 922 132.983 41.0206 478.229
1213 0 75.31 12.4685 939 133.478 41.0288 475.625
1214 0 79.3116 14.5754 1156 128.086 40.7059 473.504
1215 0 80.4577 13.8955 1118 130.889 40.458 472.159
1216 0 85.6064 15.2208 1303 124.201 39.9463 468.53
1217 0 87.4982 14.1603 1239 127.746 40.8329 467.479
1218 0 89.4804 13.8019 1235 129.168 40.4931 465.919
1219 0 92.0824 13.5096 1244 117.967 39.9662 468.397
1220 0 95.2307 13.231 1260 116.587 40.0635 468.209
1221 0 97.0767 13.0927 1271 118.41 40.6719 465.405
1222 1 51.0979 10.7049 547 120.119 40.6819 489.519
1223 0 56.0825 12.8917 723 114.419 39.7704 487.355
1224 0 58.0834 11.9483 694 114.304 40.4597 486.983
1225 0 58.0498 11.5418 670 116.076 39.9955 485.273
1226 0 61.0666 13.1823 805 113.132 40.7019 485.063
1227 0 64.1356 14.1731 909 108.486 40.4521 483.816
1228 0 64.0319 13.3683 856 112.09 40.6402 481.417
1229 0 68.1502 13.2208 901 112.789 41.273 480.364
1230 0 69.1025 11.852 819 115.7 41.0305 481.14
1231 0 72.1583 12.916 932 111.186 41.0869 478.162
1232 0 73.1042 11.5588 845 115.253 40.8473 478.609
1233 0 76.0924 11.6175 884 112.415 40.2557 479.042
1234 0 78.1827 12.2278 956 110.562 40.8347 474.436
1235 0 81.1302 12.5107 1015 109.319 40.534 474.094
1236 0 83.3036 12.1603 1013 110.087 39.8312 475.114
1237 0 86.3044 12.2705 1059 111.396 39.1341 473.176
1238 0 87.1307 11.8098 1029 114.36 39.7736 470.434
1239 0 91.1747 12.1306 1106 114.82 40.0479 470.868
1240 0 94.0821 12.3828 1165 113.915 39.1185 466.922
1241 0 99.2146 12.6594 1256 112.822 39.3893 466.893
1242 0 103.236 13.0284 1345 112.236 40.3703 465.726
1243 1 53.2963 11.2391 599 111.765 41.3072 485.94
1244 0 56.0812 13.2487 743 106.479 39.8466 486.946
1245 0 58.2199 13.0368 759 106.634 40.1963 486.059
1246 0 59.1037 11.8098 698 105.006 40.6648 483.082
1247 0 61.134 11.8428 724 105.206 40.5884 482.257
1248 0 64.0723 13.2194 847 102.745 40.6505 480.7
1249 0 65.1742 13.3335 869 106.037 40.1266 483.331
1250 0 67.1532 12.8959 866 107.911 39.5231 479.756
1251 0 69.0483 11.8902 821 106.946 39.7454 477.642
1252 0 71.0244 12.2916 873 106.221 39.9633 478.645
1253 0 74.0732 11.7451 870 107.545 40.8241 477.338
1254 0 76.1061 13.2184 1006 105.619 41.2107 474.576
1255 0 79.1798 13.0463 1033 106.288 41.1985 474.709
1256 0 79.1083 13.0201 1030 107.695 40.4777 473.3
1257 0 84.1717 12.5339 1055 108.358 40.309 471.644
1258 0 84.2869 12.8252 1081 110.009 40.3006 469.462
1259 0 88.1821 12.5989 1111 111.032 40.3771 469.952
1260 0 91.4092 12.5698 1149 112.209 40.4769 467.757
1261 0 94.3785 12.6724 1196 115.707 40.153 461.249
1262 0 100.134 13.5918 1361 119.481 40.011 463.976
1263 0 103.406 13.3648 1382 116.248 40.9493 456.339
1264 1 53.079 10.1358 538 111.74 40.2045 486.76
1265 0 56.3244 12.1972 687 109.882 39.9694 477.489
1266 0 57.4327 12.5364 720 113.911 40.8556 483.611
1267 0 57.3523 12.3796 710 115.442 41.2225 487.103
1268 0 58.3937 11.628 679 116.987 40.9205 484.632
1269 0 58.2051 12.3357 718 116.933 40.6281 482.351
1270 0 62.1798 11.9331 742 115.96 41.0081 482.111
1271 0 64.3668 12.2579 789 116.335 41.0444 478.615
1272 0 66.3104 12.0192 797 115.735 41.2359 477.383
1273 0 68.3378 11.9699 818 115.727 41.2457 477.153
1274 0 68.4055 11.0079 753 117.89 41.8194 476.258
1275 0 71.3661 12.8072 914 113.46 41.4902 474.571
1276 0 74.4353 12.6822 944 114.339 41.7394 471.268
1277 0 77.2132 11.8633 916 116.051 40.6703 472.322
1278 0 78.1484 13.0393 1019 114.574 41.4141 469.939
1279 0 81.2224 12.4596 1012 112.595 41.0721 468.399
1280 0 83.2063 11.7179 975 115.49 41.0862 468.396
1281 0 87.1336 13.0375 1136 115.112 40.4164 465.368
1282 0 91.2383 14.6539 1337 109.822 41.1952 462.093
1283 0 95.4061 13.5316 1291 112.939 41.9109 463.197
1284 0 97.1506 13.3195 1294 114.05 41.5054 459.406
1285 0 99.2116 13.1739 1307 114.847 40.9097 456.863
1286 0 105.211 14.8939 1567 110.138 41.0498 455.793
1287 0 108.246 15.0491 1629 109.777 40.3364 453.522
1288 1 57.14 8.50542 486 122.412 40.7901 477.481
1289 0 60.1806 11.7646 708 115.771 40.4379 475.904
1290 0 64.1108 13.4299 861 102.462 41.8409 476.915
1291 0 65.1397 12.9721 845 103.741 41.2876 475.48
1292 0 69.0841 13.1144 906 103.738 40.8466 474.121
1293 0 69.1851 11.6065 803 107.909 41.6824 474.001
1294 0 74.1523 13.4453 997 103.564 40.6158 472.037
1295 0 75.2759 11.7833 887 108.614 41.5006 471.767
1296 0 76.1569 12.3429 940 108.59 41.05 470.968
1297 0 81.1567 13.0612 1060 106.987 40.8142 469.963
1298 0 81.1222 12.2161 991 110.717 40.1615 468.52
1299 0 86.1109 13.7265 1182 106.293 40.7547 467.911
1300 0 87.0896 13.0325 1135 109.668 40.4317 466.399
1301 0 91.1007 12.5905 1147 111.235 41.4298 466.054
1302 0 96.106 13.662 1313 108.115 41.5057 463.334
1303 0 98.0999 13.8226 1356 109.618 41.135 461.547
1304 0 101.199 14.5259 1470 109.392 41.2306 460.068
1305 0 104.13 13.9921 1457 111.254 41.4962 457.596
1306 0 106.145 13.4345 1426 113.661 41.1942 456.517
1307 0 110.105 13.151 1448 115.186 40.6858 455.758
1308 0 115.108 13.9608 1607 112.451 40.6658 454.258
1309 1 61.0198 9.83287 600 113.383 40.3883 479.805
1310 0 65.1805 11.2917 736 112.478 40.9198 475.209
1311 0 68.1781 11.9686 816 108.641 41.5221 474.168
1312 0 69.0836 12.7816 883 107.576 40.6795 476.678
1313 0 71.0648 12.3549 878 107.65 41.2267 477.521
1314 0 72.0543 11.9909 864 109.657 40.7743 475.27
1315 0 75.08 12.187 915 108.883 40.9115 473.809
1316 0 80.1631 12.5619 1007 107.824 41.3863 473.265
1317 0 80.0748 11.8764 951 111.514 41.1788 469.989
1318 0 84.1583 13.4984 1136 107.45 40.6585 468.494
1319 0 88.1147 13.8569 1221 106.776 40.1663 466.622
1320 0 90.1804 12.8409 1158 109.2 40.7081 466.062
1321 0 93.2797 12.0498 1124 111.037 39.8345 463.462
1322 0 96.1314 13.4815 1296 108.471 40.0586 461.637
1323 0 99.2469 13.0785 1298 109.213 40.3814 460.645
1324 0 102.105 13.1042 1338 109.702 40.5508 460.718
1325 0 105.074 13.4952 1418 110.191 40.1051 457.436
1326 0 109.112 12.4826 1362 112.606 40.2408 455.742
1327 0 112.166 12.6599 1420 112.115 39.3028 456.189
1328 0 118.126 14.5184 1715 108.438 39.551 451.581
1329 1 65.1628 10.9879 716 107.074 39.6662 479.648
1330 0 68.0562 10.6676 726 105.18 40.0234 473.236
1331 0 69.0405 12.2537 846 103.405 39.7553 476.361
1332 0 70.1259 12.1496 852 104.326 40.5786 476.08
1333 0 72.098 11.7479 847 106.318 39.4593 475.301
1334 0 75.1369 12.058 906 105.113 39.904 477.018
1335 0 77.0887 12.2975 948 105.607 39.3776 473.011
1336 0 80.1279 12.2554 982 105.96 39.2271 470.628
1337 0 82.1033 10.8765 893 109.421 39.794 470.362
1338 0 87.0623 11.934 1039 107.019 39.8142 469.3
1339 0 87.1432 11.4868 1001 108.732 39.1129 467.893
1340 0 94.1784 11.5525 1088 108.375 40.0202 467.838
1341 0 100.07 15.1693 1518 99.1976 39.8472 458.748
1342 0 101.085 13.6816 1383 105.105 39.8879 461.174
1343 0 101.109 11.2354 1136 112.681 39.9868 460.02
1344 0 105.066 11.0502 1161 114.799 40.2842 456.63
1345 1 59.0639 11.5807 684 104.867 41.0687 482.68
1346 0 61.075 11.9361 729 104.583 41.4883 481.073
1347 0 66.1615 11.88 786 102.374 42.1361 482.153
1348 0 67.0673 12.987 871 101.806 40.9369 480.503
1349 0 67.0397 12.6194 846 104.226 40.4846 479.397
1350 0 71.056 12.2579 871 103.37 39.9357 477.984
1351 0 73.2135 11.9923 878 105.379 40.9191 475.05
1352 0 76.1593 12.1325 924 104.767 40.1245 472.53
1353 0 80.0648 12.5149 1002 103.271 39.9311 474.956
1354 0 82.1152 14.0412 1153 102.073 40.6817 472.354
1355 0 84.1274 11.8986 1001 106.606 40.2098 473.052
1356 0 88.0446 13.3342 1174 103.222 40.0094 471.531
1357 0 91.1043 13.2925 1211 103.677 40.2832 468.746
1358 0 91.0882 11.8896 1083 107.193 40.4164 467.726
1359 0 97.1365 13.0847 1271 104.275 39.1589 463.302
1360 0 99.1847 13.4295 1332 104.628 38.8889 461.744
1361 0 102.109 13.2898 1357 104.657 39.2822 459.349
1362 0 103.181 11.8821 1226 107.842 39.0473 460.639
1363 0 108.171 12.3508 1336 108.404 39.2665 459.801
1364 1 57.1116 9.99796 571 111.151 41.5989 483.594
1365 0 60.0291 10.5282 632 108.65 41.7484 483.259
1366 0 63.1424 12.0996 764 103.34 41.5812 480.339
1367 0 65.0557 12.5431 816 106.528 41.8971 478.923
1368 0 64.0651 11.2854 723 106.693 42.0429 481.542
1369 0 67.1063 10.8634 729 107.351 41.6269 481.613
1370 0 71.189 12.2631 873 104.408 42.2474 480.826
1371 0 71.053 11.217 797 109.799 42.3526 477.991
1372 0 77.1106 11.8142 911 107.428 41.7816 477.67
1373 0 79.1808 13.1471 1041 105.559 42.2382 476.89
1374 0 78.1503 11.9257 932 111.026 41.8326 474.262
1375 0 82.1676 12.1824 1001 111.457 41.6783 472.358
1376 0 81.1662 10.768 874 116.677 41.6064 473.458
1377 0 86.1559 12.7559 1099 113.623 42.0109 471.537
1378 0 89.2337 12.8987 1151 114.117 41.2928 470.076
1379 0 91.1937 13.6523 1245 114.402 41.0683 467.933
1380 0 95.2108 14.1055 1343 113.147 41.1318 467.804
1381 0 97.2938 12.5291 1219 119.09 40.5587 461.842
1382 0 102.242 13.9278 1424 115.027 41.0218 463.254
1383 0 104.077 14.1242 1470 112.094 41.2354 462.77
1384 0 103.25 12.7264 1314 117.955 41.2002 457.53
1385 0 107.103 13.6784 1465 114.648 42.03 457.752
1386 0 110.241 12.7902 1410 117.683 41.5766 452.501
1387 0 114.164 12.9375 1477 117.235 41.369 452.216
1388 0 115.228 12.4883 1439 118.199 42.7443 451.217
1389 0 117.178 13.5691 1590 117.694 42.1145 445.723
1390 0 123.322 13.8823 1712 114.572 42.0508 447.829
1391 1 69.2064 11.4296 791 113.287 41.5853 472.399
1392 0 76.0695 14.1975 1080 107.992 39.9667 476.768
1393 0 75.0951 11.0793 832 111.311 40.2151 476.446
1394 0 78.2681 12.4061 971 108.38 40.2585 474.444
1395 0 81.0791 11.2976 916 105.632 40.2773 471.942
1396 0 84.2365 11.0047 927 103.736 40.6677 467.817
1397 0 85.0863 11.506 979 107.261 39.9162 470.171
1398 0 89.1709 11.1247 992 104.858 40.2268 466.16
1399 0 92.1031 11.6608 1074 105.402 39.6322 463.305
1400 0 95.1871 11.178 1064 106.839 39.9079 465.989
1401 0 98.1278 12.3003 1207 106.341 39.7597 462.996
1402 0 102.142 13.3735 1366 104.296 40.1772 461.693
1403 0 104.124 12.8693 1340 107.303 40.4799 460.959
1404 0 106.355 12.0446 1281 111.343 39.5183 457.664
1405 0 112.213 12.9664 1455 109.074 38.8914 454.651
1406 0 113.188 13.3318 1509 108.915 39.5885 454.977
1407 0 118.223 12.4933 1477 110.177 38.6662 454.596
1408 1 65.1582 11.1575 727 103.635 39.1472 480.663
1409 0 65.0875 10.1556 661 104.363 39.3404 475.891
1410 0 67.0851 10.2258 686 102.433 39.0131 476.752
1411 0 71.049 12.1888 866 104.433 39.1016 477.893
1412 0 73.0683 11.5782 846 105.767 38.9988 476.443
1413 0 74.1293 12.1814 903 105.883 38.6235 474.027
1414 0 79.118 12.3486 977 104.305 38.7758 472.738
1415 0 81.0889 11.6292 943 106.351 38.9417 471.919
1416 0 82.0937 11.426 938 108.794 38.9904 469.913
1417 0 86.0269 12.1125 1042 108.178 39.0211 469.978
1418 0 89.0887 12.5942 1122 108.038 38.9091 468.131
1419 0 88.1752 11.239 991 107.514 38.9828 460.061
1420 0 93.1558 12.5167 1166 105.42 39.0626 461.65
1421 0 96.0273 12.1944 1171 107.522 39.3288 461.72
1422 0 97.077 13.2369 1285 107.921 40.0156 458.589
1423 0 98.0774 11.5929 1137 112.464 40.2234 457.677
1424 0 103.142 13.8451 1428 107.755 39.8782 455.279
1425 0 103.3 11.82 1221 113.734 40.8903 453.872
1426 0 106.358 11.8656 1262 114.293 41.5745 454.372
1427 0 110.272 12.6233 1392 114.068 40.3757 450.59
1428 0 110.187 11.9887 1321 118.92 41.3717 446.784
1429 0 115.375 12.7064 1466 118.997 40.6842 443.63
1430 0 118.25 12.7188 1504 120.887 40.9375 444.92
1431 0 123.311 12.578 1551 122.049 40.9123 441.104
1432 0 122.297 12.0526 1474 126.6 40.481 435.864
1433 0 129.466 12.3893 1604 125.844 40.1733 435.493
1434 0 132.38 13.4386 1779 125.174 40.3789 431.804
1435 0 134.432 12.6979 1707 129.277 40.6632 431.946
1436 0 141.36 13.4267 1898 128.042 40.225 431.466
1437 0 146.452 14.1958 2079 127.99 40.3473 429.773
1438 0 146.281 13.645 1996 134.189 40.0596 425.455
1439 0 153.547 14.5232 2230 132.275 39.9314 428.381
1440 0 160.451 15.4253 2475 132.149 40.3075 423.648
1441 0 164.556 14.214 2339 135.294 39.9722 425.889
1442 0 167.556 13.8043 2313 138.881 40.1111 421.962
1443 0 175.702 15.3043 2689 134.041 40.7029 418.492
1444 0 179.598 14.4433 2594 138.075 40.8716 416.801
1445 0 185.701 15.4011 2860 136.314 40.1353 412.178
1446 1 107.53 12.9173 1389 133.272 40.0353 454.569
1447 0 109.539 11.9958 1314 137.371 40.4916 452.999
1448 0 109.319 13.2548 1449 137.364 39.9358 451.765
1449 0 115.315 12.9904 1498 139.083 39.1629 449.734
1450 0 118.232 13.9302 1647 138.907 40.0504 446.061
1451 0 122.305 13.1311 1606 140.339 40.3113 443.809
1452 0 125.442 13.018 1633 141.446 39.5028 440.811
1453 0 128.268 13.3782 1716 140.746 40.1422 439.74
1454 0 132.56 13.2317 1754 139.619 39.4122 437.1
1455 0 137.421 13.3677 1837 137.813 39.215 435.048
1456 0 142.622 13.6935 1953 135.159 40.0655 434.891
1457 0 146.453 13.6153 1994 135.278 40.0607 431.434
1458 0 150.668 14.0043 2110 134.339 39.8754 431.13
1459 0 157.423 13.9115 2190 133.412 39.4731 427.443
1460 0 160.373 12.0657 1935 138.378 39.2021 425.932
1461 0 166.55 12.2126 2034 137.052 39.62 421.234
1462 0 170.53 12.2149 2083 135.923 39.8459 418.171
1463 0 178.668 12.8451 2295 133.018 40.0828 414.987
1464 1 99.3405 11.9387 1186 128.987 39.4924 456.331
1465 0 100.267 11.6888 1172 132.172 38.9667 451.553
1466 0 104.314 11.6667 1217 132.187 38.585 448.395
1467 0 107.232 12.3005 1319 130.253 38.9431 447.961
1468 0 111.09 11.4322 1270 132.919 39.2504 448.179
1469 0 112.108 11.1054 1245 134.815 39.4884 450.149
1470 0 120.146 12.3433 1483 127.904 39.4005 450.643
1471 0 124.162 12.532 1556 128.526 39.9621 446.009
1472 0 128.183 12.6226 1618 127.012 40.0185 447.457
1473 0 129.28 12.1442 1570 129.54 39.7752 441.891
1474 0 133.267 12.9515 1726 127.394 39.5852 439.292
1475 0 138.267 13.2931 1838 125.013 38.8776 434.987
1476 0 144.404 12.7351 1839 124.905 39.3904 431.522
1477 0 147.482 11.5811 1708 127.973 39.2219 431.643
1478 1 85.2321 11.6271 991 117.934 39.8375 464.313
1479 0 88.1725 12.5549 1107 121.124 40.4219 467.027
1480 0 93.1301 12.5845 1172 121.881 39.2466 464.166
1481 0 96.1696 14.0481 1351 118.231 38.6943 465.377
1482 0 96.1466 12.3873 1191 124.612 40.0369 466.568
1483 0 101.231 13.7507 1392 120.388 39.9468 463.663
1484 0 103.134 12.9055 1331 123.49 40.3336 463.586
1485 0 106.142 12.4644 1323 123.358 39.511 460.546
1486 0 110.143 12.7289 1402 121.07 39.1976 457.826
1487 0 113.249 12.5034 1416 123.023 38.8213 452.858
1488 0 118.183 13.4537 1590 119.151 38.3748 446.419
1489 0 119.227 12.1785 1452 124.113 38.8202 442.798
1490 0 122.184 12.6776 1549 122.546 38.6236 444.303
1491 0 128.261 12.7708 1638 119.38 39.8431 445.086
1492 0 131.178 12.8299 1683 123.44 39.5585 442.43
1493 0 134.138 12.5393 1682 126.495 39.4423 440.579
1494 0 137.317 12.1689 1671 128.918 39.4817 437.364
1495 0 141.313 11.5347 1630 131.327 39.2086 434.85
1496 1 70.1256 8.31366 583 125.24 39.1784 468.789
1497 0 78.2521 11.2457 880 116.5 39.1398 469.203
1498 0 80.1632 11.7011 938 115.978 39.7974 468.291
1499 0 81.1964 11.3552 922 121.151 39.2874 463.375
1500 0 83.1751 11.073 921 124.026 38.6645 462.397
1501 0 87.207 12.0632 1052 122.751 38.7823 462.596
1502 0 89.1888 10.2928 918 125.932 38.8736 462.478
1503 0 91.2051 12.3458 1126 112.218 39.4423 458.051
1504 0 92.1495 11.796 1087 117.983 39.5667 458.219
1505 0 96.1177 12.8072 1231 125.74 38.6775 465.597
1506 0 97.0612 12.9609 1258 124.446 38.8259 465.663
1507 0 98.1073 13.2508 1300 131.456 38.6392 465.885
1508 0 99.1235 12.6509 1254 134.185 39.1746 464.611
1509 0 99.089 12.2012 1209 138.69 38.426 464.87
1510 0 101.169 13.3341 1349 133.913 38.765 463.099
1511 0 109.131 14.533 1586 121.717 38.3279 457.55
1512 0 111.19 15.6039 1735 120.828 38.4311 458.518
1513 0 111.082 13.2335 1470 124.067 39.3442 460.886
1514 0 113.141 14.7869 1673 120.112 38.6414 457.916
1515 0 116.121 13.2964 1544 123.137 39.2863 454.122
1516 0 119.072 12.5219 1491 124.23 39.0443 453.8
1517 0 126.126 13.1773 1662 122.006 39.2479 452.588
1518 0 128.105 12.9503 1659 121.588 39.302 451.982
1519 0 132.102 12.3616 1633 123.312 39.2468 449.042
1520 1 71.0552 12.047 856 118.475 40.104 473.626
1521 0 73.2334 11.675 855 117.443 40.1216 470.953
1522 0 76.0935 10.3294 786 111.179 40.4809 470.546
1523 0 80.1605 11.19 897 110.135 39.8818 470.255
1524 0 82.2116 11.1541 917 110.94 39.5354 469.805
1525 0 86.0595 11.8174 1017 110.147 40.4798 470.743
1526 0 87.0988 12.0553 1050 112.739 40.6971 467.561
1527 0 88.0749 10.5933 933 116.377 40.4909 466.977
1528 0 90.1514 11.7247 1057 116.021 39.8335 464.965
1529 0 94.1508 11.9702 1127 115.343 39.9201 465.029
1530 0 96.1827 12.2163 1175 115.582 39.6826 465.3
1531 0 99.1693 12.1207 1202 117.711 39.4451 461.539
1532 1 53.1099 10.017 532 113.694 40.2838 486.16
1533 0 56.0272 11.6194 651 110.602 39.5346 486.8
1534 0 55.0169 10.3423 569 117.276 38.9525 483.735
1535 0 57.0393 11.4658 654 115.106 37.8471 486.687
1536 0 59.084 11.289 667 115.958 37.9385 485.795
1537 0 62.0431 10.9601 680 117.174 37.3647 484.928
1538 0 64.0494 12.9431 829 112.701 37.7491 484.024
1539 0 65.0962 11.8594 772 115.991 38.715 482.517
1540 0 68.1453 11.6516 794 117.054 38.6348 482.008
1541 0 68.0872 12.6456 861 116.184 38.6434 480.612
1542 0 71.0776 12.9577 921 114.574 38.4886 480.866
1543 0 72.1053 11.4555 826 120.084 38.2772 478.408
1544 0 73.0728 12.3849 905 118.484 39.126 479.466
1545 0 75.0952 11.1192 835 121.91 38.9329 479.78
1546 0 78.0717 13.5644 1059 119.723 37.8263 478.317
1547 0 78.104 10.3068 805 124.961 37.9031 480.619
1548 0 82.0595 11.8816 975 122.834 37.7262 476.042
1549 0 86.1054 12.1363 1045 121.869 38.0086 478.009
1550 0 88.109 12.2916 1083 122.01 37.5411 474.705
1551 0 93.0444 12.4564 1159 120.8 38.245 472.262
1552 0 97.0695 13.7942 1339 117.423 38.1934 471.549
1553 0 99.0942 13.3509 1323 117.845 38.6054 468.995
1554 0 101.069 12.8526 1299 120.062 38.154 466.564
1555 1 52.1436 11.1807 583 124.732 38.4305 491.959
1556 0 54.2057 12.1389 658 128.236 37.8845 486.676
1557 0 56.2237 13.4463 756 125.474 37.4431 486.198
1558 0 60.262 13.3252 803 118.083 38.0672 487.88
1559 0 59.2375 12.4921 740 123.635 38.1959 488.118
1560 0 59.1555 11.5458 683 127.857 38.0132 485.417
1561 0 62.1519 12.7591 793 127.047 38.1841 483.85
1562 0 67.1879 13.559 911 128.529 37.4929 483.733
1563 0 68.2745 13.0063 888 131.16 37.9133 481.123
1564 0 72.2612 14.9458 1080 125.522 37.3333 478.49
1565 0 73.2054 14.0154 1026 128.488 38.0175 478.329
1566 0 76.348 14.4077 1100 127.751 37.6745 476.314
1567 0 77.1496 14.9839 1156 127.201 37.7699 474.625
1568 0 80.258 14.3537 1152 129.214 37.5122 474.052
1569 0 83.2631 15.445 1286 127.308 36.8927 471.043
1570 0 84.4484 14.4467 1220 131.884 36.6475 470.657
1571 0 88.2746 14.7608 1303 130.632 37.1972 470.97
1572 0 90.3985 15.0887 1364 130.894 36.4729 469.401
1573 0 91.276 14.5383 1327 133.61 37.3369 469.19
1574 0 95.2823 15.0185 1431 132.405 37.2914 467.353
1575 0 99.3866 15.002 1491 132.478 36.6036 466.542
1576 0 103.536 14.9128 1544 131.802 37.0052 465.351
1577 0 106.532 15.4508 1646 130.626 37.11 463.554
1578 0 109.676 15.3087 1679 131.559 36.0054 460.597
1579 1 55.1811 13.0842 722 141.352 37.4626 485.584
1580 0 58.3698 14.3396 837 137.947 37.172 484.296
1581 0 61.3454 14.5569 893 137.633 37.8186 481.022
1582 0 64.4315 14.7754 952 135.671 37.1912 482.015
1583 0 65.3163 14.912 974 136.497 37.114 479.83
1584 0 68.243 14.7268 1005 136.588 36.9413 479.383
1585 0 70.3703 15.1626 1067 135.693 36.9878 478.124
1586 0 73.4388 16.3265 1199 132.324 37.362 477.198
1587 0 74.2295 15.3039 1136 137.204 37.7474 474.704
1588 0 77.3273 14.7684 1142 140.539 36.6874 473.943
1589 0 79.3638 15.4478 1226 138.117 36.7431 472.813
1590 0 82.2314 15.0794 1240 139.913 36.5847 471.888
1591 0 85.1797 14.9801 1276 139.584 36.4169 472.089
1592 0 87.43 15.5896 1363 138.406 37.0646 469.317
1593 0 91.2981 14.9839 1368 140.287 37.3904 469.153
1594 0 94.2952 15.0909 1423 140.706 37.4835 466.684
1595 0 94.3326 14.3323 1352 144.766 37.4948 464.294
1596 0 99.5346 15.9844 1591 138.801 37.4274 464.99
1597 0 103.315 15.6222 1614 139.901 37.6487 462.066
1598 0 105.332 15.9021 1675 141.163 37.3206 459.353
1599 0 109.353 16.1861 1770 140.125 37.587 459.578
1600 0 112.378 15.3589 1726 143.574 38.0834 456.122
1601 0 116.279 14.5082 1687 147.108 37.7113 455.167
1602 0 119.294 15.6336 1865 144.29 37.4306 452.358
1603 0 126.252 15.6512 1976 143.258 37.1549 449.398
1604 0 129.339 15.7262 2034 143.841 37.5374 447.174
1605 0 134.201 16.0133 2149 143.468 37.3057 447.239
1606 0 139.369 16.0438 2236 144.016 37.877 443.964
1607 0 144.403 15.5606 2247 145.611 37.7236 443.585
1608 0 143.41 15.5917 2236 162.377 36.7518 443.409
1609 0 153.191 16.8809 2586 142.857 37.8933 438.199
1610 0 158.21 15.3973 2436 148.256 37.2172 434.353
1611 0 163.304 16.3131 2664 145.777 37.4703 431.847
1612 0 168.182 15.5427 2614 147.872 37.7724 430.077
1613 0 174.156 15.5493 2708 149.096 36.9856 425.643
1614 0 181.322 16.1756 2933 146.775 36.6553 422.995
1615 0 187.342 16.4459 3081 146.783 37.6332 419.945
1616 0 194.239 16.3458 3175 147.281 37.0598 417.167
1617 0 200.134 16.1192 3226 148.599 36.7601 417.544
1618 0 203.334 14.5917 2967 155.005 37.2171 414.173
1619 0 210.205 15.6562 3291 151.071 37.2759 410.398
1620 0 219.335 16.1761 3548 148.235 36.2748 406.083
1621 0 226.263 15.9063 3599 146.4 37.3051 401.75
1622 0 231.256 15.5066 3586 147.347 37.1121 392.501
1623 0 241.315 15.2539 3681 147.185 37.3475 388.102
1624 0 248.535 14.6579 3643 148.898 36.6349 383.127
1625 0 250.331 13.3983 3354 153.761 36.5051 387.84
1626 1 63.114 11.1544 704 127.5 37.8239 483.064
1627 0 66.0917 11.3176 748 127.726 38.119 478.758
1628 0 67.1529 10.975 737 129.76 36.2822 474.573
1629 0 69.0697 11.6838 807 128.667 36.8959 477.001
1630 0 73.1017 11.9012 870 127.375 38.0253 477.277
1631 0 75.0488 11.9122 894 128.188 37.9083 475.342
1632 0 76.1091 11.247 856 131.805 37.7325 473.482
1633 0 78.1095 11.9704 935 133.857 37.2695 470.354
1634 0 85.0423 12.4056 1055 130.174 38.2057 471.127
1635 0 88.0985 11.4985 1013 132.786 38.1747 468.544
1636 0 91.0842 12.3951 1129 130.723 38.5775 465.262
1637 0 96.0526 11.806 1134 130.293 37.4356 464.165
1638 0 97.1524 9.9946 971 127.856 37.8538 462.214
1639 0 100.294 11.8053 1184 129.726 37.3598 462.728
1640 0 103.196 11.1632 1152 132.643 37.8602 460.651
1641 0 107.234 11.8153 1267 130.86 37.1539 456.639
1642 0 110.252 11.0292 1216 132.462 37.528 455.411
1643 0 114.254 10.0653 1150 133.59 38.5096 453.282
1644 0 117.382 11.3135 1328 131.446 37.3848 449.227
1645 0 122.323 11.6495 1425 129.399 37.8596 450.155
1646 1 60.1313 10.527 633 115.163 38.4171 482.289
1647 0 61.0504 9.95898 608 116.28 38.0938 482.429
1648 0 62.0267 10.2859 638 117.075 39.1348 481.483
1649 0 64.1229 10.6202 681 116.765 38.7944 481.27
1650 0 64.1168 9.32673 598 119.084 38.0385 482.244
1651 0 69.0519 10.4559 722 116.404 38.6745 479.637
1652 0 71.0509 10.1477 721 117.624 37.8155 477.469
1653 0 71.0842 10.6071 754 117.869 37.187 475.298
1654 0 72.092 9.90402 714 119.573 37.7045 477.476
1655 0 78.0664 10.8113 844 117.664 37.186 474.937
1656 0 78.052 9.40399 734 122.541 37.0477 473.774
1657 1 44.0246 8.40439 370 120.605 36.1946 491.619
1658 0 46.1431 9.05878 418 121.151 36.3158 490.916
1659 0 48.0895 10.4389 502 118.408 36.4004 488.861
1660 0 50.1002 11.5768 580 115.988 36.8862 487.619
1661 0 51.0499 11.5182 588 117.034 36.4915 487.835
1662 0 52.0972 11.3442 591 118.462 37.0118 487.865
1663 0 54.047 10.8239 585 119.491 36.294 487.198
1664 0 55.0394 10.7196 590 121.517 35.2898 485.905
1665 0 56.0302 11.2618 631 123.371 35.7797 481.811
1666 0 58.0651 10.626 617 124.355 35.893 484.152
1667 0 62.0451 12.2975 763 119.472 36.0642 483.332
1668 0 61.0653 11.3649 694 123.928 35.817 483.594
1669 0 62.0798 11.8396 735 124.031 36.0898 481.555
1670 0 66.065 12.3817 818 122.054 35.8729 481.85
1671 0 66.0825 11.2738 745 125.984 34.8993 479.468
1672 0 69.0927 12.3023 850 122.482 36.4388 479.294
1673 0 71.031 12.6705 900 122.097 36.7967 479.089
1674 0 70.045 12.492 875 124.801 36.1131 478.366
1675 0 72.0961 11.7759 849 126.633 36.4429 478.556
1676 0 74.135 11.8028 875 126.61 36.9029 475.674
1677 0 76.1954 13.2948 1013 126.115 38.6407 475.038
1678 0 79.2298 12.9371 1025 127.451 38.561 474.515
1679 0 79.2269 12.7229 1008 130.542 38.875 471.761
1680 0 83.3847 12.6402 1054 131.02 38.7647 470.758
1681 0 86.2809 13.259 1144 128.635 38.7264 470.087
1682 0 87.3314 12.1949 1065 133.108 38.677 465.963
1683 0 91.698 12.792 1173 131.343 38.2225 463.313
1684 0 93.1408 11.0371 1028 119.761 37.7675 465.752
1685 0 96.2096 12.7326 1225 118.443 36.8694 460.575
1686 1 49.2146 9.83447 484 115.494 36.9132 487.504
1687 0 51.0307 10.4643 534 115.916 37.0843 487.908
1688 0 52.0429 10.6835 556 125.989 36.5054 484.91
1689 0 55.1796 12.4502 687 118.18 37.1761 485.997
1690 0 57.275 12.8503 736 118.141 37.4239 484.511
1691 0 57.105 11.8028 674 121.74 36.9481 484.978
1692 0 59.1165 11.1982 662 124.781 36.6148 483.119
1693 0 61.1099 12.2893 751 120.887 36.0759 482.959
1694 0 63.1155 11.7879 744 121.073 36.7258 480.774
1695 0 65.1132 12.3016 801 119.331 37.2584 477.866
1696 0 67.0827 12.1492 815 120.279 36.3215 476.64
1697 0 71.213 13.1577 937 116.343 36.2818 476.254
1698 0 71.0715 12.4663 886 119.231 36.658 477.026
1699 0 75.243 12.3865 932 118.827 35.4024 474.807
1700 0 76.2204 12.149 926 119.433 36.1123 472.176
1701 0 81.0603 13.1014 1062 116.409 36.5179 470.389
1702 0 82.086 12.6696 1040 118.572 36.3788 468.808
1703 0 84.1038 12.651 1064 117.498 35.7265 467.327
1704 0 87.1355 13.0257 1135 113.255 36.2819 466.714
1705 0 92.0576 13.7414 1265 110.064 36.249 463.576
1706 1 45.0392 9.63605 434 116.903 36.4263 488.998
1707 0 47.0624 11.3679 535 117.307 36.6037 487.65
1708 0 51.1436 12.2596 627 114.44 36.3604 487.571
1709 0 52.1521 12.6361 659 115.367 35.7633 486.118
1710 0 52.0864 12.5177 652 117.903 36.1028 485.429
1711 0 54.0609 11.4316 618 121.809 38.0113 485.968
1712 0 57.0453 10.8861 621 122.061 37.4718 484.436
1713 0 58.0923 12.6867 737 119.035 37.5129 483.984
1714 0 60.1655 12.0501 725 120.785 36.9531 481.124
1715 0 62.1315 11.9746 744 120.685 36.0914 481.728
1716 0 66.0862 11.6212 768 120.426 35.8633 482.143
1717 0 66.0576 12.1258 801 119.733 36.1049 481.287
1718 0 67.1175 12.1429 815 120.445 36.1558 477.948
1719 0 71.0697 11.6646 829 119.281 35.6502 480.458
1720 0 72.087 12.2075 880 118.823 35.5432 478.166
1721 0 74.1338 12.7337 944 117.144 36.4131 477.462
1722 0 77.1263 11.734 905 120.543 36.1945 475.716
1723 0 81.3506 14.2224 1157 112.379 37.5998 475.303
1724 0 82.1717 12.9485 1064 116.79 36.6814 473.797
1725 1 44.094 10.8178 477 113.256 36.8658 494.384
1726 0 45.0579 11.4297 515 112.981 36.0583 492.73
1727 0 43.0325 11.9212 513 113.686 36.499 491.097
1728 0 47.1239 11.4804 541 102.438 36.9723 489.054
1729 0 49.1059 11.913 585 106.409 36.7077 489.188
1730 0 50.1056 12.1943 611 105.903 36.9624 491.173
1731 0 50.025 11.0745 554 110.025 36.9152 489.933
1732 0 50.1273 11.7501 589 109.514 36.7997 488.43
1733 0 53.0242 12.6357 670 106.54 36.5746 486.51
1734 0 56.0144 12.8003 717 105.912 35.8633 486.925
1735 0 55.0683 11.8398 652 111.095 36.6825 487.646
1736 0 56.0458 10.2952 577 112.081 36.5217 488.243
1737 0 59.0586 11.7341 693 109.701 36.4459 486.351
1738 0 63.0563 12.5126 789 101.961 37.5906 480.494
1739 0 63.0385 10.9933 693 106.196 37.5945 479.685
1740 0 64.1515 10.5531 677 106.756 37.7105 481.484
1741 0 68.1251 11.7725 802 104.65 36.6559 480.268
1742 0 70.1458 10.8346 760 107.842 37.3895 478.22
1743 0 72.0872 12.4571 898 105.727 37.4098 476.366
1744 0 76.1201 12.6379 962 105.46 36.9844 476.598
1745 0 76.0915 12.4587 948 108.841 36.7605 478.854
1746 0 77.2152 11.5392 891 111.311 36.4355 476.126
1747 0 83.0847 13.2034 1097 107.184 36.4531 474.899
1748 0 85.1941 12.7826 1089 108.764 36.4757 472.039
1749 0 86.0571 13.1889 1135 109.143 37.6934 472.733
1750 0 89.1462 13.5732 1210 108.437 36.9603 471.016
1751 0 92.1362 12.1125 1116 112.22 36.5448 468.36
1752 0 95.0757 12.9265 1229 114.009 36.8389 467.644
1753 0 98.2632 13.128 1290 114.063 37.0977 463.855
1754 0 101.385 13.5326 1372 112.83 38.1574 460.93
1755 0 105.279 13.5639 1428 113.859 37.736 458.287
1756 0 107.416 13.7782 1480 113.634 38.3014 454.806
1757 0 111.452 13.9791 1558 112.806 38.1983 453.609
1758 0 112.399 12.2421 1376 118.04 38.1134 453.451
1759 0 120.288 12.9107 1553 115.678 38.6291 452.316
1760 1 63.1498 11.3381 716 112.123 38.3506 481.08
1761 0 66.1429 11.5356 763 110.716 37.8113 483.059
1762 0 70.0333 11.5659 810 111.104 37.9444 481.095
1763 0 71.2664 12.6146 899 110.013 39.0957 477.034
1764 0 74.1969 11.9277 885 110.998 38.6667 479.573
1765 0 76.1659 12.1314 924 111.06 38.6981 478.28
1766 0 79.3264 12.3288 978 112.032 38.4479 477.51
1767 0 80.2131 12.0928 970 113.497 38.7948 476.513
1768 0 84.1906 12.4479 1048 114.16 38.5592 472.699
1769 0 89.1212 13.9697 1245 109.777 38.5004 470.369
1770 0 89.1929 12.7028 1133 114.709 38.729 471.326
1771 0 95.1375 13.7485 1308 112.412 38.2607 471.097
1772 0 96.154 13.1768 1267 115.613 37.94 467.056
1773 0 100.124 12.8441 1286 116.656 38.9121 466.89
1774 0 103.162 12.8632 1327 118.237 38.0769 464.091
1775 0 106.113 13.1652 1397 117.886 38.3529 462.814
1776 0 109.153 12.826 1400 118.95 37.8007 461.751
1777 1 60.1032 10.7815 648 120.656 38.5679 484.207
1778 0 62.0506 11.5873 719 117.471 38.5021 483.089
1779 0 63.1004 12.3137 777 117.758 38.6834 483.324
1780 0 65.0669 12.71 827 115.513 38.3458 481.201
1781 0 67.1136 12.4118 833 115.773 38.6747 479.957
1782 0 71.0958 12.2089 868 114.301 39.053 478.675
1783 0 74.0893 13.6322 1010 110.171 39.0257 477.932
1784 0 74.1234 12.8974 956 113.774 38.954 476.203
1785 0 77.0833 12.6227 973 114.927 38.5334 474.938
1786 0 80.141 13.0021 1042 112.938 38.5384 474.384
1787 0 82.0827 12.3412 1013 115.474 38.2695 471.322
1788 0 87.1045 14.0751 1226 109.081 38.301 472.121
1789 0 89.1515 12.6526 1128 113.027 37.5904 468.462
1790 0 90.1353 12.1484 1095 114.921 38.2712 468.585
1791 0 94.1447 12.8419 1209 113.849 38.2035 466.41
1792 0 98.1143 13.1479 1290 112.43 37.5636 465.36
1793 0 99.2682 12.2698 1218 116.001 37.8498 461.278
1794 0 104.128 13.1857 1373 114.226 37.9417 461.694
1795 1 54.0836 10.5947 573 117.457 38.9354 488.23
1796 0 54.0108 10.6831 577 117.896 39.1993 485.127
1797 0 52.0301 10.8014 562 113.1 39.5018 479.746
1798 0 58.1832 11.6013 675 108.895 38.5852 480.627
1799 0 56.039 10.4213 584 113.18 39.1781 479.337
1800 0 59.0585 10.5658 624 113.418 39.5801 476.322
1801 0 63.0301 11.2486 709 109.551 39.275 477.368
1802 0 64.0563 11.5367 739 110.386 39.2598 475.583
1803 0 67.0395 11.799 791 108.81 39.2225 476.568
1804 0 68.0694 11.8409 806 110.138 38.8052 473.02
1805 0 73.0979 11.683 854 110.011 39.2775 472.666
1806 0 72.0828 10.8625 783 113.871 38.6117 472.181
1807 0 77.0775 11.7803 908 110.561 39.0804 471.167
1808 0 78.1198 11.4184 892 111.52 38.8487 467.835
1809 0 81.1018 10.9862 891 111.86 39.2222 468.192
1810 0 86.1028 11.9857 1032 108.259 39.0988 467.581
1811 0 87.2099 11.6615 1017 109.409 38.5615 466.376
1812 0 90.1781 13.052 1177 106.518 38.1325 462.849
1813 1 49.1146 10.5671 519 102.094 37.684 487.443
1814 0 49.0532 12.4763 612 107.908 37.3023 488.76
1815 0 52.0206 12.4758 649 113.475 39.0663 485.908
1816 0 54.0298 11.3271 612 114.087 38.969 487.132
1817 0 53.0842 11.5665 614 105.052 38.886 488.59
1818 0 55.095 11.5074 634 104.729 38.8013 486.924
1819 0 56.0467 10.3485 580 107.143 38.6362 486.99
1820 0 59.0545 10.7697 636 104.527 38.9874 487.256
1821 0 61.1043 10.6703 652 105.546 38.7255 485.31
1822 0 63.1158 13.0237 822 101.485 38.5024 481.328
1823 0 65.1107 11.1042 723 104.881 39.0595 482.888
1824 0 69.0686 11.3221 782 105.274 39.1304 481.601
1825 0 72.1601 12.3475 891 102.56 39.1021 479.348
1826 0 74.0876 13.0521 967 101.05 38.7932 476.574
1827 0 77.1379 11.9786 924 102.933 38.4665 477.276
1828 0 81.1592 12.0011 974 102.542 38.6663 477.349
1829 0 82.0897 12.5838 1033 102.747 38.6118 471.819
1830 0 87.1933 12.478 1088 102.064 38.5974 474.109
1831 0 89.1839 12.2219 1090 103.375 37.8734 473.809
1832 1 45.0211 10.9726 494 105.982 39.1498 493.079
1833 0 49.0919 12.9553 636 101.484 39.1006 490.967
1834 0 48.1289 12.799 616 103.661 38.5633 490.11
1835 0 49.146 12.6562 622 104.063 37.7315 490.082
1836 0 52.0662 12.753 664 103.955 39.0542 487.498
1837 0 53.0961 12.8446 682 103.925 39.2449 487.837
1838 0 55.1049 12.5216 690 105.088 38.8362 486.832
1839 0 57.0729 13.2812 758 102.722 39.1464 487.72
1840 0 58.125 13.1957 767 103.022 39.7327 485.433
1841 0 60.0984 13.1617 791 104.241 39.2478 485.43
1842 0 61.0737 12.5259 765 106.153 39.0706 483.383
1843 0 65.0736 12.9699 844 103.713 39.0024 484.991
1844 0 66.206 12.0986 801 108.386 39.1036 482.821
1845 0 67.0651 12.4059 832 108.702 38.4543 482.429
1846 0 69.0754 12.4791 862 109.492 39.5035 478.617
1847 0 72.0518 12.9074 930 109.322 39.4054 478.12
1848 0 76.0642 13.0285 991 108.353 39.3764 478.781
1849 0 78.0754 14.8062 1156 105.466 38.9533 475.884
1850 0 80.0619 13.3022 1065 108.942 39.2338 477.592
1851 0 82.0662 12.6361 1037 111.917 39.1205 476.808
1852 0 84.073 12.9887 1092 113.359 39.2024 474.626
1853 0 87.1528 13.1378 1145 114.336 39.2646 471.907
1854 0 89.0897 12.5043 1114 116.783 38.6266 470.894
1855 0 91.1034 12.9413 1179 116.513 38.7837 472.085
1856 0 97.2205 12.7751 1242 117.321 38.3969 469.118
1857 1 51.0582 12.0647 616 126.622 39.4692 486.875
1858 0 55.1736 12.8503 709 123.401 38.5571 487.427
1859 0 57.1333 13.3022 760 111.878 39.2829 484.799
1860 0 57.1168 13.7087 783 111.236 38.6322 484.522
1861 0 58.1446 12.7613 742 114.034 38.8127 485.092
1862 0 61.132 13.2337 809 110.556 39.0235 485.883
1863 0 62.128 13.0054 808 113.048 38.6126 482.89
1864 0 64.1144 12.9612 831 112.987 39.1492 481.675
1865 0 67.2167 13.0474 877 111.213 38.8096 480.281
1866 0 70.1205 14.0045 982 108.257 39.498 480.247
1867 0 71.0531 12.8214 911 111.643 39.2678 479.156
1868 0 74.1037 13.9534 1034 108.536 38.5928 478.771
1869 0 76.0838 13.472 1025 110.778 39.122 476.486
1870 0 78.1102 14.4795 1131 108.607 39.0999 474.912
1871 0 81.1053 13.353 1083 111.265 39.3084 474.808
1872 0 83.1015 14.7771 1228 106.314 38.728 471.308
1873 0 86.1055 13.5299 1165 109.909 37.7579 471.777
1874 0 88.1266 14.865 1310 108.379 38.4405 470.241
1875 0 91.0616 13.9905 1274 110.757 38.0958 467.706
1876 1 49.0144 11.2008 549 114.273 39.1949 490.095
1877 0 52.0504 13.1988 687 107.195 38.3988 488.01
1878 0 53.1413 12.9278 687 109.028 38.2751 484.226
1879 0 55.1137 12.6103 695 107.243 36.6201 485.331
1880 0 57.1259 12.7613 729 104.44 37.0014 484.627
1881 0 58.1413 12.2632 713 105.711 37.5694 482.334
1882 0 60.0752 14.0158 842 103.004 37.6449 481.996
1883 0 62.0364 12.9601 804 105.199 37.7065 483.792
1884 0 63.13 11.9595 755 107.646 37.2464 481.293
1885 0 63.0924 12.3787 781 108.399 37.283 480.666
1886 0 67.1023 12.8461 862 106.891 37.4432 479.814
1887 0 69.1281 13.5546 937 106.545 37.1441 477.53
1888 0 71.1215 13.6667 972 106.561 37.8807 475.293
1889 0 74.1246 13.221 980 106.56 37.3786 477.529
1890 0 77.0382 13.0325 1004 107.587 37.8994 473.132
1891 0 81.0999 13.5019 1095 106.674 37.6027 472.459
1892 0 81.0625 12.3238 999 110.747 37.8819 469.926
1893 0 84.1598 13.1417 1106 109.112 37.67 468.515
1894 0 88.3046 14.0083 1237 107.935 37.6354 464.535
1895 0 92.135 13.6973 1262 109.238 37.4065 465.677
1896 0 94.1169 13.0264 1226 112.256 37.2325 463.768
1897 0 97.0781 12.4951 1213 113.398 37.7073 463.276
1898 0 100.104 12.2972 1231 114.041 37.5735 462.021
1899 1 54.1787 10.8899 590 108.936 36.8322 486.364
1900 0 55.1039 11.7959 650 107.14 37.0092 483.52
1901 0 55.1042 11.6144 640 107.37 37.1703 484.841
1902 0 59.1657 13.4537 796 102.034 37.2864 483.722
1903 0 59.0647 12.0884 714 106.417 36.4944 483.58
1904 0 62.1163 13.1205 815 103.891 37.2933 482.282
1905 0 64.068 12.4711 799 105.986 37.0976 480.641
1906 0 66.0951 13.2234 874 104.354 37.246 478.42
1907 0 70.1727 13.709 962 103.014 37.1091 478.517
1908 0 69.1188 12.5726 869 107.003 37.1024 476.992
1909 0 73.2631 11.9706 877 109.989 36.748 477.108
1910 0 75.1173 12.5271 941 108.648 36.3316 476.115
1911 0 76.0561 12.7669 971 109.653 36.3934 472.846
1912 0 78.1457 13.8843 1085 107.894 36.8332 474.351
1913 0 79.168 11.2545 891 115.465 36.844 472.911
1914 0 84.0619 13.0261 1095 111.523 36.853 470.311
1915 0 87.1006 13.2031 1150 111.115 36.313 469.93
1916 0 90.1348 13.1137 1182 111.585 36.7682 468.565
1917 0 94.197 13.3444 1257 111.849 37.0708 467.165
1918 0 94.1952 13.3446 1257 113.98 37.0127 467.876
1919 0 97.3045 12.5482 1221 117.343 37.5741 463.866
1920 0 100.131 13.4024 1342 116.099 36.9232 461.934
1921 1 54.0681 11.0231 596 114.762 37.1997 480.721
1922 0 51.129 8.82083 451 121.636 36.8537 476.304
1923 0 56.094 11.1598 626 113.431 37.0415 478.139
1924 0 59.0973 10.8804 643 112.927 36.93 477.925
1925 0 60.1417 10.7081 644 114.728 36.2376 478.278
1926 0 63.061 10.3551 653 114.818 37.1868 479.077
1927 0 65.0563 10.9905 715 115.597 37.5902 475.832
1928 0 68.0747 11.7518 800 113.585 37.03 476.321
1929 0 69.0931 10.8839 752 117.787 37.1157 472.709
1930 0 71.2715 13.0206 928 113.787 37.5722 470.503
1931 0 75.1351 11.5259 866 117.457 37.7356 471.231
1932 0 75.1258 12.2195 918 121.319 37.0599 468.956
1933 0 77.2312 12.1453 938 123.313 38.0405 468.038
1934 0 78.1916 11.1265 870 127.401 37.7724 465.515
1935 0 83.273 11.5764 964 124.757 38.0425 465.271
1936 0 86.3459 12.5657 1085 123.214 37.9097 463.829
1937 0 89.2706 12.2101 1090 124.47 37.3899 462.972
1938 0 92.2996 12.0369 1111 126.828 37.6121 461.982
1939 0 94.4666 11.8984 1124 128.589 37.4644 461.667
1940 1 47.1085 9.91328 467 122.467 37.5632 483.567
1941 0 50.1981 12.4108 623 124.605 37.1701 485.876
1942 0 53.0817 13.1684 699 121.216 38.1202 487.901
1943 0 52.1187 13.2582 691 121.459 39.0796 487.096
1944 0 55.0431 12.2086 672 124.216 38.8646 487.021
1945 0 55.0792 12.7816 704 122.209 39.4716 486.398
1946 0 58.0806 13.3608 776 120.642 39.0026 485.09
1947 0 60.1197 12.7246 765 121.443 39.281 484.978
1948 0 61.1056 13.1412 803 121.443 38.8568 483.933
1949 0 62.1695 12.4498 774 124.558 38.6525 484.032
1950 0 65.1044 13.7472 895 120.991 37.8659 481.949
1951 0 65.12 13.3139 867 122.775 37.8997 481.465
1952 0 69.091 13.4026 926 121.579 37.6577 480.234
1953 0 71.1203 13.3155 947 122.782 37.83 479.638
1954 0 72.0739 12.5843 907 123.821 38.4895 479.621
1955 0 74.122 13.2349 981 123.508 38.0459 477.172
1956 0 77.1314 13.1983 1018 124.03 37.9371 475.967
1957 0 79.1225 13.9657 1105 121.012 38.6308 477.03
1958 0 81.2084 12.7573 1036 124.117 37.8861 474.879
1959 0 84.0892 13.7473 1156 121.458 38.3893 473.462
1960 0 88.1111 14.4817 1276 120.094 38.0886 470.264
1961 0 91.1944 14.1127 1287 120.867 39.0404 469.531
1962 1 46.0681 12.5249 577 124.915 39.4333 491.154
1963 0 47.0732 12.0238 566 126.108 39.2173 489.931
1964 0 49.0856 13.3848 657 119.46 39.8082 488.303
1965 0 50.0748 15.0175 752 114.988 39.5266 487.771
1966 0 52.1057 13.7413 716 124.622 39.3506 487.278
1967 0 54.02 12.8101 692 124.47 38.6142 488.173
1968 0 54.1102 12.3267 667 127.657 39.3808 486.544
1969 0 56.0889 12.5515 704 125.963 39.5 485.859
1970 0 59.0915 13.1829 779 123.069 39.8909 484.498
1971 0 61.0484 12.9405 790 123.228 39.1367 482.485
1972 0 63.1571 12.3502 780 125.058 38.8756 479.941
1973 0 65.0611 13.6333 887 121.526 38.894 480.006
1974 0 67.167 13.0719 878 122.322 38.303 477.666
1975 0 71.1524 13.1689 937 120.996 37.6916 476.757
1976 0 71.1129 13.5137 961 120.184 38.4912 476.106
1977 0 74.313 12.9991 966 119.682 39.0238 473.602
1978 0 77.3224 13.7218 1061 117.939 38.525 472.756
1979 0 80.3195 13.135 1055 118.629 38.182 473.426
1980 0 80.1543 13.0249 1044 120.551 37.4502 470.938
1981 0 81.2428 13.4289 1091 119.476 37.989 468.957
1982 0 85.3616 13.5541 1157 117.135 37.4425 469.914
1983 0 90.147 13.478 1215 111.86 38.2107 470.216
1984 0 91.0816 12.4943 1138 110.034 37.7083 464.659
1985 0 94.1205 13.3765 1259 108.348 36.61 463.474
1986 0 96.1489 12.2726 1180 110.628 37.9593 464.068
1987 1 52.0238 11.1295 579 108.437 37.8152 488.138
1988 0 53.1138 11.5036 611 109.633 37.2602 485.106
1989 0 56.1088 12.5114 702 106.423 37.0185 483.339
1990 0 58.0827 11.6042 674 109.031 37.4837 481.546
1991 0 60.0714 12.7016 763 106.384 38.0931 483.142
1992 0 63.1316 13.1471 830 105.878 38.0313 481.788
1993 0 64.0668 12.7523 817 108.155 36.6903 481.614
1994 0 67.1747 12.0581 810 110.228 36.9741 479.679
1995 0 69.1287 12.3538 854 109.04 36.8607 478.59
1996 0 72.0901 14.4264 1040 103.533 37.4798 479.508
1997 0 73.1541 13.3144 974 108.641 37.3593 475.308
1998 0 76.0852 13.3666 1017 108.145 36.5477 475.599
1999 0 81.0705 14.3209 1161 105.95 36.9811 472.175
2000 0 83.1284 12.2341 1017 111.927 36.6096 472.101
2001 0 86.1781 13.3793 1153 109.914 37.8482 469.033
2002 0 88.1011 13.1553 1159 111.756 37.5789 468.419
2003 0 92.1415 13.3165 1227 110.927 37.5363 466.661
2004 0 97.13 13.5488 1316 110.915 37.4301 464.457
2005 0 97.1405 13.0327 1266 112.266 37.906 466.57
2006 0 102.102 13.1339 1341 113.388 38.1924 461.563
2007 1 54.1365 12.0436 652 114.965 38.6856 483.98
2008 0 53.1101 11.4479 608 111.516 37.6957 481.303
2009 0 55.0374 11.2106 617 101.11 38.0227 481.426
2010 0 59.0491 11.4142 674 99.3353 38.0519 481.141
2011 0 59.0317 10.9094 644 101.242 38.5031 480.893
2012 0 60.0657 11.2044 673 102.264 38.7741 478.994
2013 0 65.0355 11.4399 744 99.7245 39.0685 476.437
2014 0 67.122 12.6635 850 97.3871 38.1576 474.178
2015 0 67.1928 11.1619 750 101.405 38.3147 473.171
2016 0 72.1974 11.5517 834 99.1463 38.6199 474.141
2017 0 74.2205 11.6006 861 100.305 37.9721 471.505
2018 0 75.1244 10.6224 798 103.32 38.5439 472.469
2019 0 79.2076 11.7539 931 101.318 38.3169 470.077
2020 0 81.1765 10.7543 873 104.512 38.181 467.291
2021 0 85.2675 12.0562 1028 103.421 37.6216 466.064
2022 0 86.2563 11.2571 971 107.033 38.0453 464.941
2023 1 45.1472 9.85664 445 106.155 38.3191 482.867
2024 0 48.1553 10.5284 507 104.972 38.0513 483.306
2025 0 52.0615 12.4852 650 105.597 39.7477 486.775
2026 0 51.078 11.0028 562 111.947 40.347 488.454
2027 0 52.1376 12.3903 646 109.913 40.1873 487.127
2028 0 54.1518 10.6552 577 113.43 39.7175 485.913
2029 0 56.0918 12.3369 692 109.698 39.1633 484.962
2030 0 58.0846 12.0342 699 109.798 39.4149 485.034
2031 0 60.1522 12.0694 726 110.725 40.0592 483.701
2032 0 61.1081 12.8297 784 109.386 39.1122 482.963
2033 0 62.1767 12.8666 800 110.244 39.0888 481.965
2034 0 61.1881 11.1296 681 115.482 39.2115 482.156
2035 0 68.1051 11.9668 815 111.171 39.0883 481.94
2036 0 69.083 12.8686 889 109.359 38.3768 480.809
2037 0 71.1082 11.602 825 113.503 38.9745 477.819
2038 0 72.1195 12.0217 867 113.119 39.0127 478.364
2039 0 74.0746 12.3794 917 113.546 38.3773 475.354
2040 0 77.0664 11.5355 889 115.736 38.6265 474.541
2041 0 80.1614 12.6744 1016 112.57 38.1722 474.052
2042 0 81.1759 12.9718 1053 112.964 38.8291 472.116
2043 0 84.1826 11.9265 1004 115.197 38.8277 471.129
2044 0 88.2113 12.9915 1146 112.862 39.0585 470.547
2045 0 91.182 12.8534 1172 113.996 38.1212 467.528
2046 0 94.1721 13.3798 1260 113.375 38.1722 466.897
2047 0 97.1305 13.1884 1281 115.089 39.3474 464.45
2048 1 50.0309 10.6734 534 120.045 39.3577 487.91
2049 0 51.0488 11.44 584 117.42 39.6164 486.402
2050 0 55.1223 12.8079 706 112.585 39.5524 484.63
2051 0 56.0428 12.9009 723 113.166 39.0692 485.055
2052 0 57.0326 11.8879 678 115.35 38.8628 485.087
2053 0 58.1332 12.2993 715 114.471 39.5986 484.186
2054 0 60.1778 12.7954 770 114.052 39.5468 481.039
2055 0 62.2576 12.8017 797 115.309 39.1405 480.252
2056 0 64.2248 12.8922 828 115.815 38.7114 480.684
2057 0 65.1746 13.3948 873 115.015 39.2761 478.977
2058 0 68.3019 13.9088 950 113.875 38.9968 476.189
2059 0 68.1638 12.0592 822 120.386 39.1131 476.094
2060 0 72.1411 13.4875 973 116.462 38.9517 474.072
2061 0 74.2235 13.109 973 118.658 38.925 475.133
2062 0 77.3764 13.0143 1007 119.042 38.4906 475.603
2063 0 80.1538 12.7006 1018 120.837 37.4558 474.949
2064 0 81.3029 12.8778 1047 122.302 36.9054 471.286
2065 0 85.4724 13.4312 1148 119.53 37.8249 470.578
2066 0 87.2613 13.2476 1156 121.54 38.1237 469.024
2067 1 46.3355 10.9419 507 129.968 37.3353 489.351
2068 0 52.3794 13.0204 682 122.598 37.7698 487.548
2069 0 50.4414 12.0734 609 126.465 37.3317 483.24
2070 0 50.1644 12.1401 609 122.143 36.6798 480.593
2071 0 51.0577 9.69491 495 125.527 39.5737 489.327
2072 0 55.177 12.034 664 119.02 39.1566 487.634
2073 0 56.2125 11.0829 623 123.469 39.061 485.682
2074 0 57.0825 11.4571 654 123.442 38.7584 485.336
2075 0 59.1151 11.7567 695 123.573 38.1928 485.701
2076 0 62.1108 11.4956 714 120.922 39.2227 486.297
2077 0 64.1239 11.5714 742 123.724 38.5741 483.342
2078 0 67.204 11.7106 787 122.732 38.6366 482.306
2079 0 69.2053 12.658 876 121.669 38.2112 479.621
2080 0 73.1209 11.9118 871 121.82 37.8381 480.336
2081 0 73.1664 12.2734 898 123.026 37.9321 477.933
2082 1 39.0375 10.2209 399 127.619 38.6742 493.712
2083 0 39.0638 10.8284 423 126.392 37.6619 493.007
2084 0 42.0918 11.2374 473 120.319 38.852 493.015
2085 0 42.0195 11.6374 489 120.049 39.6708 491.247
2086 0 45.0277 11.6373 524 119.544 38.8531 492.038
2087 0 44.0186 11.8132 520 120.604 39.2712 492.469
2088 0 45.0289 12.0589 543 122.302 39.5488 491.363
2089 0 46.0585 12.3539 569 122.221 39.0598 489.046
2090 0 49.0424 12.0304 590 121.846 39.4051 488.224
2091 0 50.1334 11.9282 598 122.1 39.2625 486.977
2092 0 51.0192 12.0739 616 122.752 38.7744 487.287
2093 0 52.0782 12.3852 645 122.25 38.6512 484.085
2094 0 55.0878 12.3439 680 121.028 39.1235 485.462
2095 0 54.0475 12.267 663 124.261 39.5626 484.424
2096 0 56.0633 11.9508 670 124.455 39.509 483.084
2097 0 58.1147 12.1312 705 123.413 39.061 483.216
2098 0 60.0956 12.0974 727 123.966 39.6919 482.579
2099 0 62.1444 12.5997 783 122.513 39.2005 480.345
2100 0 64.0981 12.8397 823 122.103 39.819 479.821
2101 0 64.0743 12.1578 779 124.918 38.9448 479.956
2102 0 69.0354 12.5008 863 121.591 39.0162 479.772
2103 0 71.0785 12.9856 923 120.397 38.3749 477.041
2104 0 74.115 12.8719 954 119.879 38.8732 477.502
2105 0 74.0694 12.9608 960 121.464 38.8875 476.895
2106 1 39.0766 10.4922 410 131.42 38.5073 491.08
2107 0 42.1567 11.647 491 126.047 38.0428 491.729
2108 0 43.1089 12.6424 545 121.96 38.2991 489.572
2109 0 42.1416 11.5326 486 119.479 35.9342 489.477
2110 0 43.0809 11.9078 513 119.023 36.5244 490.064
2111 0 46.1547 13.0648 603 115.834 36.0912 490.318
2112 0 46.0583 12.1151 558 120.07 35.5968 490.385
2113 0 48.0238 12.7853 614 118.292 36.1938 488.8
2114 0 48.1298 12.9442 623 120.287 36.0915 488.509
2115 0 51.0155 12.4472 635 121.332 36.0961 486.75
2116 0 53.0824 12.377 657 120.073 37.0944 487.473
2117 0 52.0659 12.1961 635 123.646 36.9181 485.658
2118 0 55.0833 13.8154 761 119.829 36.4823 483.503
2119 0 57.1157 13.2363 756 121.222 36.828 484.91
2120 0 57.099 12.9074 737 124.43 36.6581 483.408
2121 0 60.106 14.0918 847 120.148 36.6246 482.839
2122 0 60.0426 13.1074 787 125.152 36.474 482.581
2123 0 63.1109 14.1814 895 122.187 36.6592 481.878
2124 0 66.056 13.8367 914 123.726 37.0853 480.386
2125 0 69.1654 14.0099 969 122.801 37.3725 479.749
2126 0 71.0419 14.2029 1009 122.726 37.0585 478.217
2127 0 71.0902 13.0679 929 127.619 36.8891 477.31
2128 0 77.1007 14.3189 1104 122.58 36.5118 475.535
2129 0 80.1547 13.6486 1094 122.949 36.5567 475.104
2130 0 81.1187 13.0549 1059 125.839 36.8669 473.003
2131 1 44.0563 11.4399 504 129.863 36.5873 491.085
2132 0 44.0154 12.0185 529 133.142 36.5936 489.654
2133 0 47.036 12.5861 592 122.894 36.478 488.623
2134 0 49.0732 11.1059 545 120.993 36.7339 486.057
2135 0 49.0633 11.2304 551 116.713 37.2541 485.757
2136 0 50.1096 11.4349 573 116.78 36.993 484.473
2137 0 50.0188 10.656 533 121.246 37.9737 483.096
2138 0 53.0465 12.3288 654 116.621 37.7232 483.144
2139 0 53.0417 12.0094 637 118.947 37.383 481.625
2140 0 57.055 11.7956 673 118.759 38.2808 481.465
2141 0 58.0707 11.6754 678 119.345 37.469 482.024
2142 0 59.0639 12.732 752 118.572 37.9973 480.634
2143 0 61.0531 13.1197 801 120.454 37.6604 477.437
2144 0 61.0531 13.1361 802 136.728 36.6746 477.455
2145 0 64.0485 12.2095 782 124.341 36.7033 475.684
2146 0 68.0781 12.7501 868 122.363 37.3813 473.96
2147 0 69.1429 12.3079 851 125.175 36.8637 472.231
2148 0 70.148 12.046 845 126.736 36.4686 471.065
2149 0 75.088 12.8649 966 126.502 37.0776 469.384
2150 0 77.1138 12.501 964 129.013 37.1525 468.872
2151 0 81.1233 12.3886 1005 130.687 36.3114 465.72
2152 1 42.0493 10.5352 443 124.986 36.8194 486.544
2153 0 44.0625 12.505 551 119.278 37.2069 485.704
2154 0 46.0781 11.8277 545 123.55 36.7688 486.76
2155 0 49.1144 12.42 610 126.833 36.9574 489.267
2156 0 50.0595 12.5451 628 127.331 36.965 489.427
2157 0 51.0778 12.432 635 120.502 37.6346 484.74
2158 0 53.043 12.8763 683 118.837 36.7994 486.12
2159 0 53.0254 12.296 652 121.58 36.5936 483.814
2160 0 56.0322 12.8497 720 119.782 37.5278 482.406
2161 0 58.0695 12.6745 736 121.103 37.5992 482.842
2162 0 60.1226 12.3248 741 121.318 38.1242 482.04
2163 0 61.0915 13.0787 799 121.917 37.6996 480.984
2164 0 65.1363 13.7404 895 118.917 37.5318 481.031
2165 0 67.0585 13.4957 905 120.941 36.8663 479.789
2166 0 68.0474 13.5053 919 121.47 37.0707 479.425
2167 0 72.1319 14.0021 1010 119.117 36.8376 478.464
2168 0 73.1166 14.6068 1068 118.292 37.3727 474.171
2169 0 74.2347 13.1744 978 123.006 37.4059 475.149
2170 0 77.2474 13.6186 1052 123.233 37.1711 475.544
2171 0 79.1856 14.0935 1116 122.809 37.5466 475.198
2172 0 83.1385 14.3014 1189 121.919 37.7107 475.054
2173 0 85.2246 14.6202 1246 121.994 37.4944 473.021
2174 0 87.149 14.1138 1230 125.235 37.1634 466.593
2175 0 91.2996 15.6737 1431 121.403 36.7561 469.527
2176 0 93.1771 14.2524 1328 125.751 36.6333 462.219
2177 0 97.3529 15.0073 1461 123.878 36.614 461.229
2178 0 98.073 14.9073 1462 128.732 37.0725 466.442
2179 0 103.239 14.9362 1542 126.747 37.8379 462.346
2180 0 104.199 13.5989 1417 133.81 37.0162 462.34
2181 1 54.1027 12.6241 683 130.316 36.5549 486.063
2182 0 57.131 12.9002 737 127.681 36.7856 485.095
2183 0 59.1278 12.7013 751 128.466 36.8202 485.426
2184 0 64.0552 14.0972 903 123.701 37.3987 482.831
2185 0 66.0947 14.4338 954 121.71 37.2338 483.034
2186 0 66.079 13.0601 863 127.968 37.0046 481.951
2187 0 70.1461 13.6857 960 125.395 36.226 479.98
2188 0 71.0419 13.8369 983 125.707 36.9878 479.448
2189 0 72.0574 13.6697 985 128.147 36.6619 478.736
2190 0 76.0639 14.2249 1082 126.888 36.5425 475.962
2191 0 78.0632 14.373 1122 128.482 37.2344 475.102
2192 0 80.1617 12.6494 1014 134.453 37.0148 474.237
2193 0 84.0913 13.1405 1105 134.033 37.4742 472.078
2194 0 85.0705 13.6945 1165 132.285 37.1202 472.879
2195 0 88.1927 14.5704 1285 133.255 37.1191 470.453
2196 0 92.1476 14.8783 1371 129.764 37.0182 468.23
2197 0 94.1168 14.8751 1400 129.938 37.8236 468.026
2198 0 97.1882 14.0758 1368 133.385 37.4152 464.365
2199 0 100.282 13.8509 1389 133.736 38.077 463.643
2200 0 105.143 14.038 1476 132.656 38.3672 462.332
2201 0 107.151 13.9803 1498 132.628 37.5981 462.349
2202 0 111.16 14.7175 1636 132.408 37.0642 457.134
2203 0 114.115 15.0725 1720 131.34 37.7227 456.02
2204 0 119.153 14.4772 1725 133.437 37.3699 454.228
2205 0 122.112 14.1264 1725 136.066 37.302 454.126
2206 0 129.094 15.144 1955 134.424 36.7079 452.912
2207 1 48.131 10.8246 521 126.495 37.6699 484.931
2208 0 51.0625 11.6132 593 120.169 37.0826 483.907
2209 0 53.0501 11.819 627 119.73 37.3062 484.196
2210 0 53.0244 12.5225 664 132.864 37.8825 487.688
2211 0 57.0135 13.8213 788 127.563 37.953 487.652
2212 0 59.0848 13.2691 784 130.95 37.75 485.278
2213 0 60.0655 12.0202 722 134.127 37.9917 485.501
2214 0 69.0626 14.5955 1008 121.096 38.5476 479.034
2215 0 68.0399 15.7114 1069 121.342 37.9981 479.514
2216 0 71.0433 14.0337 997 126.615 37.7533 477.543
2217 0 69.0901 12.7659 882 133.448 37.9694 479.532
2218 0 73.0382 12.2812 897 133.909 37.447 480.116
2219 0 76.0889 13.0374 992 131.98 38.0494 478.656
2220 0 78.1052 12.9697 1013 132.768 37.9783 476.675
2221 0 81.1462 13.8269 1122 130.553 38.5847 474.809
2222 1 46.0266 11.4716 528 131.333 38.5625 490.515
2223 0 50.0406 13.2892 665 129.176 38.2195 489.659
2224 0 51.0485 11.8907 607 134.203 38.7348 490.035
2225 0 53.0965 12.6374 671 132.846 38.8435 489.45
2226 0 53.1807 12.6174 671 134.623 39.1982 488.077
2227 0 57.118 13.726 784 128.635 38.6633 486.532
2228 0 58.0522 13.3328 774 131.032 38.6214 486.672
2229 0 61.0904 14.012 856 129.731 37.9661 485.081
2230 0 63.1955 14.8745 940 125.378 37.1021 483.351
2231 0 65.1561 13.5674 884 130.541 37.5498 482.988
2232 0 67.2035 14.7165 989 128.515 37.6208 481.942
2233 0 69.2641 14.784 1024 128.66 38.1318 480.448
2234 0 70.1567 13.9687 980 131.807 37.3592 480.451
2235 0 72.1903 14.6003 1054 131.16 37.7391 479.306
2236 0 74.1005 13.8056 1023 136.269 37.4819 477.002
2237 0 77.1845 13.5649 1047 133.785 37.4374 476.855
2238 0 78.1831 14.1974 1110 134.789 37.3189 474.838
2239 0 81.0532 13.5467 1098 131.612 36.2304 474.671
2240 0 83.075 13.2531 1101 130.84 35.8229 473.015
2241 0 87.0953 13.2154 1151 129.197 36.3979 471.311
2242 0 90.0782 12.9998 1171 130.251 35.7336 469.955
2243 1 49.0281 12.1563 596 122.955 36.75 492.307
2244 0 50.1121 11.8734 595 124.587 37.037 491.615
2245 0 52.0846 12.7677 665 122.45 37.3218 489.693
2246 0 52.0786 12.9804 676 126.672 36.9453 487.642
2247 0 56.0337 13.367 749 120.045 36.2056 486.984
2248 0 57.0406 14.7439 841 116.759 35.8454 485.822
2249 0 59.0454 13.515 798 119.909 35.8684 486.521
2250 0 59.0235 12.6729 748 122.854 37.2513 487.428
2251 0 63.0679 13.9532 880 120.551 38.4364 484.086
2252 0 64.0554 14.0191 898 121.012 38.0947 482.9
2253 0 63.0869 12.5383 791 126.727 37.6915 483.761
2254 0 64.0321 11.4786 735 130.426 37.8952 483.267
2255 0 69.0535 13.5692 937 124.275 38.047 480.649
2256 0 69.0322 12.5304 865 129.017 38.6775 479.809
2257 0 71.0589 12.2011 867 127.824 38.3103 482.691
2258 0 74.0486 12.6133 934 126.716 37.8779 482.024
2259 0 77.1132 12.6308 974 127.849 38.2587 481.313
2260 0 81.1077 13.3649 1084 124.463 38.4087 480.405
2261 0 83.0999 13.2852 1104 125.497 37.7636 481.945
2262 0 86.1083 13.8779 1195 121.531 37.8979 478.315
2263 0 90.0915 14.4631 1303 121.721 37.119 478.241
2264 0 91.1056 14.2252 1296 127.927 37.4252 478.976
2265 0 93.1824 14.6272 1363 128.318 36.777 475.919
2266 0 97.1715 13.8003 1341 129.009 36.8076 477.238
2267 0 98.0886 12.8048 1256 132.427 36.5127 476.943
2268 0 102.056 14.1883 1448 128.392 36.4358 475.342
2269 0 105.171 13.0929 1377 132.187 36.1801 476.907
2270 1 55.1414 12.1506 670 135.816 35.9403 498.343
2271 0 57.2845 13.721 786 133.779 34.5954 495.472
2272 0 62.0823 13.9976 869 131.619 34.985 493.952
2273 0 63.131 14.6837 927 129.74 34.3225 492.766
2274 0 65.0986 14.3782 936 130.594 34.7286 494.451
2275 0 65.213 14.0156 914 133.499 34.5175 492.801
2276 0 70.177 15.1617 1064 127.08 33.4746 491.558
2277 0 68.1882 13.6387 930 133.961 33.5473 489.057
2278 0 73.3086 14.4185 1057 130.398 32.9981 488.097
2279 0 74.0692 15.2425 1129 129.166 32.8016 484.477
2280 0 78.2012 15.1404 1184 126.134 32.0811 483.849
2281 0 80.1526 15.1586 1215 126.726 32.2626 482.309
2282 0 83.3355 15.8876 1324 123.266 31.8353 481.733
2283 0 83.1832 14.3178 1191 128.596 31.5953 480.652
2284 0 86.1999 14.1415 1219 128.922 31.4717 477.731
2285 0 90.2058 15.8305 1428 121.353 31.0287 479.674
2286 0 90.0838 14.4976 1306 125.809 31.2205 479.501
2287 0 92.0938 13.964 1286 126.635 31.0661 478.293
2288 0 94.0585 12.8643 1210 124.59 30.205 479.772
2289 0 99.153 13.4035 1329 124.19 30.4673 476.795
2290 0 103.194 14.7101 1518 121.222 30.195 470.501
2291 0 103.22 13.1951 1362 125.834 30.6366 476.573
2292 0 111.169 13.9967 1556 122.012 30.6343 471.727
2293 0 115.231 14.6141 1684 117.59 29.8539 471.331
2294 1 61.0419 12.4505 760 116.326 32 498.188
2295 0 63.1119 12.5333 791 112.225 31.7598 496.824
2296 0 67.3298 12.8621 866 112.176 31.455 491.517
2297 0 68.1772 12.4088 846 114.069 31.7837 491.935
2298 0 71.0423 12.8374 912 115.74 31.2577 492.118
2299 0 74.1996 13.4232 996 114.364 31.2641 490.213
2300 0 75.2824 12.6723 954 118.304 31.1457 485.507
2301 0 81.2206 13.568 1102 115.003 30.8603 481.652
2302 0 84.3268 14.3371 1209 113.086 30.6286 480.733
2303 0 86.2887 12.7595 1101 116.764 29.9528 482.807
2304 0 89.3048 12.3622 1104 118.294 30.9946 479.406
2305 0 92.4215 13.1679 1217 118.102 30.7584 475.914
2306 1 45.2251 10.5472 477 114.614 31.0084 500.805
2307 0 48.2045 11.8868 573 113.126 30.5358 498.553
2308 0 47.033 11.1836 526 117.35 30.6084 500.732
2309 0 52.1456 11.5638 603 114.254 30.073 498.068
2310 0 53.1235 11.9533 635 114.285 29.9543 495.072
2311 0 54.1258 11.6396 630 117.422 29.719 494.506
2312 0 58.0708 12.6397 734 115.174 29.9959 496.143
2313 0 60.118 13.2573 797 114.586 30.8156 497.256
2314 0 61.1685 13.1277 803 116.015 29.9415 493.28
2315 0 63.2182 12.1326 767 119.335 29.7236 490.422
2316 0 63.1532 12.1609 768 120.156 30.3711 489.566
2317 0 65.213 11.6234 758 120.764 30.4037 489.164
2318 0 70.3663 12.5202 881 118.43 30.0057 486.237
2319 0 74.3145 13.389 995 115.859 29.5045 485.374
2320 0 73.2149 12.8253 939 118.309 30.2865 485.662
2321 0 75.3713 14.0637 1060 116.937 30.0538 482.026
2322 0 77.3252 13.1522 1017 119.811 30.2094 481.86
2323 0 80.3781 12.3417 992 121.104 31.0292 481.015
2324 0 84.3601 13.1934 1113 119.01 31.2165 479.29
2325 0 85.4601 11.6429 995 122.993 30.9558 478.376
2326 0 89.216 13.1254 1171 120.177 30.4688 475.589
2327 0 90.3078 11.793 1065 123.054 31.0009 474.541
2328 0 93.3464 12.9303 1207 120.526 30.7465 472.231
2329 0 97.3442 13.7245 1336 116.853 30.9004 471.943
2330 1 53.3167 11.6099 619 116.265 31.3813 492.643
2331 0 55.2855 10.9251 604 119.81 31.5166 492.334
2332 0 54.0584 11.4136 617 116.178 31.3922 492.569
2333 0 58.158 12.3285 717 112.381 32.3724 493.043
2334 0 60.0911 11.7988 709 112.989 32.2736 492.051
2335 0 61.1094 13.2876 812 110.397 32.6564 488.677
2336 0 63.1512 13.048 824 110.727 32.2706 487.843
2337 0 66.1398 13.033 862 109.536 31.8005 486.695
2338 0 70.1011 12.7245 892 109.494 32.5179 485.957
2339 0 71.1914 11.9537 851 110.874 32.6968 480.907
2340 0 72.0934 12.6086 909 108.699 32.3443 481.086
2341 0 75.0786 11.5346 866 111.447 32.3487 478.806
2342 0 77.0929 11.4537 883 113.485 32.5255 475.496
2343 0 81.0919 11.9741 971 112.456 32.7981 475.582
2344 0 83.0711 11.8212 982 112.275 32.8106 474.403
2345 0 87.115 12.3285 1074 110.39 33.3492 474.834
2346 0 89.1548 12.8204 1143 111.778 33.3727 470.871
2347 0 94.1315 12.6419 1190 112.688 33.4992 469.286
2348 1 51.0537 9.49979 485 111.441 32.8825 491.703
2349 0 52.0528 9.27904 483 110.337 33.7557 492.443
2350 0 52.0489 10.5094 547 110.068 33.0896 487.669
2351 0 51.1634 11.3753 582 108.505 34.3591 486.964
2352 0 53.1078 9.52779 506 109.366 34.8399 486.178
2353 0 54.0846 11.1122 601 104.584 34.2213 483.905
2354 0 54.0508 10.3051 557 106.709 34.0987 483.609
2355 0 58.1153 9.29187 540 107.844 34.0333 483.252
2356 0 58.1145 10.9783 638 106.538 33.8636 479.955
2357 0 63.1012 10.3326 652 106.345 34.0613 479.072
2358 0 63.0454 10.4052 656 108.127 34.2454 476.619
2359 0 65.0883 10.263 668 108.512 34.1213 476.025
2360 0 66.0667 10.7164 708 109.556 34.6766 471.564
2361 0 70.0552 10.7344 752 108.535 35.1117 474.152
2362 0 70.0681 10.3043 722 113.163 34.7313 469.784
2363 0 72.1552 10.5051 758 115.013 34.9011 468.723
2364 0 77.0763 11.9492 921 111.695 34.8925 467.419
2365 0 82.1879 12.7878 1051 108.825 35.3216 465.636
2366 0 83.11 12.7542 1060 110.219 34.9764 466.742
2367 0 85.1935 10.7285 914 116.633 34.1236 463.676
2368 0 88.1222 11.5068 1014 114.127 34.5335 465.376
2369 0 93.2558 13.404 1250 109.709 34.7552 463.11
2370 0 95.2704 12.1129 1154 114.387 35.2028 462.277
2371 0 99.1657 12.0203 1192 114.133 35.3666 461.195
2372 0 102.162 12.6858 1296 112.88 34.7076 459.556
2373 0 105.105 12.8252 1348 115.641 34.7685 455.776
2374 0 109.225 12.5429 1370 115.844 35.0109 455.499
2375 1 60.0478 9.57571 575 107.369 35.5565 480.88
2376 0 62.1169 9.38553 583 109.894 35.1304 480.165
2377 0 66.0751 11.9107 787 108.863 34.4778 480.742
2378 0 68.0935 11.9395 813 109.07 33.9446 480.311
2379 0 70.0666 13.059 915 107.778 34.7191 478.234
2380 0 72.032 13.4107 966 107.491 35.2081 476.555
2381 0 75.0549 13.1903 990 108.513 34.9071 473.306
2382 0 77.0707 12.5858 970 110.758 34.8309 472.776
2383 0 79.0399 12.6771 1002 111.103 34.8842 473.346
2384 0 82.101 12.0218 987 114.002 35.924 471.437
2385 0 85.0842 12.0821 1028 114.48 35.9202 470.611
2386 0 88.0575 13.6729 1204 111.046 35.8488 469.613
2387 0 89.1267 12.6674 1129 115.986 35.2223 470.007
2388 0 92.0806 13.2167 1217 115.73 35.1134 467.132
2389 0 95.2363 13.1988 1257 119.022 35.1265 466.738
2390 0 96.1547 11.6687 1122 124.877 36.5303 466.75
2391 0 99.1092 11.9262 1182 123.816 36.2707 465.202
2392 0 102.126 12.3671 1263 123.324 36.6081 462.502
2393 0 105.139 12.0222 1264 125.928 36.7033 460.413
2394 0 110.103 12.1886 1342 123.557 35.9806 460.641
2395 1 60.0717 11.1866 672 127.055 36.7024 481.144
2396 0 63.205 12.8945 815 123.891 35.0061 482.595
2397 0 64.2023 11.6662 749 121 35.7877 481.772
2398 0 66.1482 12.6685 838 117.704 36.5609 480.928
2399 0 70.1088 12.4093 870 117.755 36.5126 479.748
2400 0 70.1185 11.9797 840 119.932 36.3869 477.929
2401 0 73.1176 13.1432 961 116.112 36.5359 476.466
2402 0 76.1319 13.5554 1032 115.737 36.3188 473.789
2403 0 76.1342 12.1233 923 120.388 36.5764 473.369
2404 0 81.2263 13.407 1089 115.838 35.9697 472.054
2405 0 82.1528 12.8784 1058 118.541 36.6597 468.933
2406 0 84.1108 13.3158 1120 117.612 35.9214 467.119
2407 0 88.1682 12.8164 1130 119.416 36.0726 466.476
2408 0 92.1976 13.124 1210 118.202 36.286 465.752
2409 0 94.1348 14.1499 1332 115.333 36.2688 464.313
2410 0 96.1404 13.5947 1307 118.272 36.4644 463.223
2411 0 98.2542 13.3022 1307 121.314 36.521 460.627
2412 0 101.284 13.5461 1372 121.767 36.4417 459.643
2413 0 104.349 13.3399 1392 123.214 35.5029 457.981
2414 1 57.0856 10.7733 615 125.459 36.8667 480.535
2415 0 60.1319 9.14656 550 127.429 36.5309 479.138
2416 0 59.1273 9.08209 537 122.439 36.0968 473.669
2417 0 63.0296 12.1689 767 122.851 36.9687 476.499
2418 0 65.0833 12.3688 805 116.888 36.846 481.332
2419 0 65.1162 11.1647 727 121.107 37.3205 478.3
2420 0 70.1321 13.1038 919 113.925 37.0816 478.744
2421 0 71.1282 12.0065 854 117.602 36.9403 475.4
2422 0 75.0944 11.2525 845 117.288 36.7278 476.856
2423 0 78.1313 12.1846 952 115.666 36.7164 473.126
2424 0 82.1191 12.5062 1027 112.631 36.3953 474.679
2425 0 83.0894 11.9871 996 114.105 36.6406 471.982
2426 0 89.109 13.1524 1172 110.027 37.0435 471.564
2427 0 87.0895 11.6317 1013 115.5 36.8677 467.307
2428 0 92.1126 11.6271 1071 115.001 37.2512 469.158
2429 0 94.1173 11.2732 1061 116.596 37.1546 467.252
2430 0 98.0658 12.5732 1233 114.715 36.9343 464.367
2431 0 101.097 12.0677 1220 116.919 37.0631 464.198
2432 0 106.107 12.2424 1299 116.299 37.5804 460.536
2433 0 110.42 13.5573 1497 112.492 36.4783 461.83
2434 0 110.292 10.9708 1210 120.279 35.9942 458.657
2435 1 61.2323 10.9909 673 116.065 35.9718 482.398
2436 0 64.1804 11.4521 735 110.332 35.4408 478.414
2437 0 62.1708 10.2942 640 101.116 35.9266 476.311
2438 0 62.0652 10.0701 625 102.992 36.304 475.872
2439 0 67.2844 11.0427 743 108.394 37.035 482.35
2440 0 69.1023 10.6075 733 114.277 37.94 481.821
2441 0 71.2038 12.4853 889 110.015 37.739 477.478
2442 0 73.0899 11.8347 865 112.655 37.0405 477.513
2443 0 76.0709 10.9109 830 115.522 37.6145 476.561
2444 0 75.045 11.4198 857 117.543 37.4831 474.19
2445 0 81.1161 11.8595 962 114.852 37.1611 472.004
2446 0 87.0602 12.8761 1121 111.895 36.8947 473.903
2447 0 88.1702 13.0883 1154 111.64 36.8388 468.784
2448 0 93.264 13.1133 1223 111.029 36.7964 467.809
2449 0 95.298 12.8754 1227 113.213 36.8786 466.654
2450 1 49.1737 8.96821 441 108.771 36.4921 482.939
2451 0 51.026 9.81853 501 108.475 36.4232 483.23
2452 0 54.1074 10.4976 568 97.7711 36.0827 479.857
2453 0 54.0455 9.78805 529 100.193 35.5558 480.974
2454 0 55.0215 10.9594 603 98.7728 35.7131 477.914
2455 0 59.0384 11.1284 657 97.0396 36.2725 478.688
2456 0 58.0324 10.3391 600 100.497 36.205 478.535
2457 0 60.1374 10.8917 655 109.389 37.3008 482.209
2458 0 63.198 11.7409 742 106.988 37.1226 483.125
2459 0 65.1969 12.3932 808 105.374 37.13 481.233
2460 0 68.1695 12.4102 846 106.279 36.9905 480.812
2461 0 70.078 12.7857 896 106.343 37.4933 479.266
2462 0 72.0445 12.6311 910 108.195 37.733 476.345
2463 0 76.0707 13.5926 1034 109.132 37.4894 476.521
2464 0 78.103 13.0085 1016 111.283 37.685 474.377
2465 0 81.0898 13.8982 1127 109.021 38.5705 470.943
2466 0 84.1367 12.7768 1075 112.521 37.9544 471.205
2467 0 85.1989 13.5213 1152 110.673 37.4097 468.645
2468 0 88.2618 13.8112 1219 109.82 37.8876 466.329
2469 0 90.2424 13.8627 1251 109.884 37.5524 463.138
2470 0 92.2223 13.847 1277 109.274 36.8395 461.019
2471 0 95.1513 14.4086 1371 106.613 37.2961 460.039
2472 0 99.1893 13.4289 1332 108.435 37.9902 457.717
2473 0 101.269 13.5974 1377 108.471 37.1322 455.678
2474 0 104.164 14.3139 1491 105.887 37.5124 456.543
2475 0 105.341 12.7776 1346 111.29 37.3707 456.29
2476 0 111.201 15.5215 1726 102.769 37.1419 452.075
2477 0 114.139 14.2194 1623 106.84 37.3303 449.993
2478 0 118.237 13.8197 1634 108.136 37.2142 449.77
2479 0 121.181 14.532 1761 103.383 37.5951 446.447
2480 0 123.304 13.9168 1716 104.034 35.6737 445.312
2481 0 128.319 12.9833 1666 106.083 35.8193 439.73
2482 1 67.099 10.4622 702 113.678 35.6239 470.89
2483 0 72.129 11.826 853 109.172 35.5604 470.581
2484 0 71.1716 11.7182 834 102.915 36.1319 465.839
2485 0 74.2556 12.6859 942 101.523 36.7484 464.5
2486 0 78.3043 13.2943 1041 100.541 36.3103 465.677
2487 0 81.2565 13.6112 1106 101.389 36.4159 465.206
2488 0 84.4246 12.9228 1091 106.457 35.868 462.973
2489 0 85.6038 13.6092 1165 105.577 35.673 459.774
2490 0 89.462 13.4135 1200 105.774 35.6675 461.195
2491 0 90.4981 12.7185 1151 108.124 36.4561 459.405
2492 0 93.5179 13.4627 1259 108.092 36.162 455.42
2493 0 97.3847 14.5916 1421 105.093 36.0415 456.038
2494 0 99.3143 13.7845 1369 108.405 36.0906 453.649
2495 0 104.539 14.473 1513 105.796 35.304 453.445
2496 0 109.37 14.8395 1623 107.041 36.0776 452.128
2497 1 55.298 10.1993 564 115.317 36.3511 475.431
2498 0 58.3079 11.9023 694 111.022 36.7709 472.918
2499 0 60.1814 12.0137 723 111.296 36.2434 473.353
2500 0 64.0785 13.3274 854 111.406 35.5293 476.849
2501 0 65.0897 12.3983 807 114.103 36.052 476.748
2502 0 66.0335 13.2963 878 112.454 35.3314 475.895
2503 0 69.0619 13.0028 898 113.322 36.1136 474.948
2504 0 73.1781 13.8293 1012 109.134 36.0474 474.564
2505 0 74.2206 13.4733 1000 112.693 35.636 470.904
2506 0 77.1147 14.3034 1103 110.568 35.8332 469.62
2507 0 80.2889 14.8962 1196 107.058 36.4498 470.089
2508 0 79.0813 13.3154 1053 113.313 36.2602 468.025
2509 0 82.1932 13.5048 1110 113.013 35.6919 465.39
2510 0 86.19 13.4122 1156 112.657 35.9022 466.618
2511 0 87.0709 13.3569 1163 113.864 36.3061 463.021
2512 0 90.1545 12.5119 1128 118.129 36.4823 456.843
2513 0 93.2329 12.4098 1157 116.863 36.643 452.125
2514 0 94.1567 13.6793 1288 114.748 37.3835 455.181
2515 0 99.391 13.623 1354 114.386 37.0332 453.317
2516 0 100.169 11.7801 1180 119.926 37.4178 453.015
2517 1 57.3412 11.3182 649 113.951 36.7627 473.126
2518 0 59.1808 11.6423 689 114.351 38.5486 474.309
2519 0 59.0486 11.4482 676 104.725 37.6302 473.855
2520 0 62.0825 11.7908 732 109.299 37.4413 480.418
2521 0 64.1819 12.4646 800 108.519 37.4887 476.452
2522 0 67.1631 12.4622 837 108.915 36.9761 476.443
2523 0 68.0897 13.3941 912 108.451 37.6447 475.357
2524 0 71.102 13.9096 989 107.817 36.909 473.709
2525 0 73.1744 13.871 1015 109.015 36.0315 472.355
2526 0 74.0813 13.6742 1013 109.381 38.541 474.981
2527 0 78.0967 14.1747 1107 108.114 38.5203 471.064
2528 0 81.0952 13.9836 1134 110.917 38.127 471.175
2529 0 82.2019 12.9802 1067 115.136 38.2437 470.565
2530 0 83.0946 13.0694 1086 116.273 38.058 469.657
2531 0 89.1845 13.2871 1185 115.951 38.1958 468
2532 0 89.1058 12.0531 1074 121.323 37.4935 463.223
2533 0 95.0958 14.0385 1335 115.184 38.8315 463.102
2534 0 98.2811 14.0108 1377 115.27 38.9477 462.245
2535 1 53.0938 11.4326 607 123.086 38.944 481.761
2536 0 55.1234 12.5536 692 120.142 37.8309 481.698
2537 0 59.12 13.7179 811 114.856 39.0259 482.682
2538 0 58.1402 11.7475 683 122.36 39.0059 482.256
2539 0 60.0604 12.5873 756 120.679 38.078 480.438
2540 0 61.11 13.9584 853 118.599 38.9953 477.873
2541 0 62.0634 11.601 720 125.322 39.0194 478.301
2542 0 64.0491 13.1149 840 121.077 38.7845 476.4
2543 0 68.0158 13.5116 919 117.687 39.0261 475.448
2544 0 69.0359 13.5726 937 117.927 39.6766 474.473
2545 0 71.0964 12.7433 906 120.438 39.5651 474.187
2546 0 73.0631 12.7424 931 120.063 39.0849 473.076
2547 0 74.1437 13.1771 977 111.389 38.3562 472.869
2548 0 76.1875 12.2199 931 112.565 39.1429 473.716
2549 0 79.1176 12.2981 973 112.964 38.963 471.943
2550 0 81.1339 11.8816 964 115.38 38.1722 470.045
2551 0 85.0553 12.6741 1078 113.551 38.5538 468.968
2552 0 86.0618 12.8048 1102 115.205 38.3221 467.949
2553 0 90.0918 13.0201 1173 114.689 38.4305 465.629
2554 0 92.0937 12.7587 1175 116.36 38.6809 462.196
2555 0 96.0919 13.5807 1305 116.256 38.2513 461.163
2556 0 98.0538 12.4523 1221 123.124 38.8116 460.36
2557 1 55.0404 11.2826 621 118.733 38.8776 482.147
2558 0 55.19 10.9078 602 118.605 37.7209 482.261
2559 0 57.1941 11.9068 681 117.178 37.6446 480.696
2560 0 59.0742 11.5787 684 115.586 38.7749 480.825
2561 0 59.1196 11.4852 679 117.541 37.7172 475.191
2562 0 63.0932 12.5687 793 113.773 36.8525 475.608
2563 0 65.0532 12.9433 842 112.742 37.0653 475.89
2564 0 67.0454 12.7078 852 113.454 37.2887 473.567
2565 0 70.1208 13.2628 930 112.099 37.7989 472.728
2566 0 71.1038 12.3622 879 116.372 37.0512 469.853
2567 0 75.0856 13.4247 1008 112.455 37.756 471.299
2568 0 75.0878 12.1857 915 117.468 37.5956 470.49
2569 0 79.0733 12.6212 998 116.573 37.1994 469.032
2570 0 81.1272 12.6222 1024 118.051 37.0537 466.019
2571 0 82.0878 12.9252 1061 117.876 37.5768 465.333
2572 0 86.1551 13.9284 1200 115.809 37.6292 464.663
2573 0 90.0749 12.8116 1154 119.563 37.4965 461.789
2574 0 93.1106 14.2196 1324 115.713 37.8837 462.017
2575 0 94.0991 13.1351 1236 120.53 37.873 462.307
2576 0 97.2071 13.6307 1325 117.653 37.8913 457.082
2577 0 100.067 13.0912 1310 119.877 37.9359 458.967
2578 0 105.082 13.6464 1434 120.573 37.9268 458.221
2579 0 105.062 13.1827 1385 122.697 37.3083 455.397
2580 1 56.0308 11.1903 627 122.716 37.3589 480.813
2581 0 59.1585 12.1707 720 119.958 38.8153 480.257
2582 0 62.1819 11.2734 701 120.461 39.1484 477.05
2583 0 67.2172 13.8804 933 111.621 39.0354 475.718
2584 0 66.0687 12.5324 828 116.408 39.6486 474.505
2585 0 69.0814 12.5794 869 117.414 39.0403 472.919
2586 0 71.1866 12.7552 908 117.627 39.2115 472.268
2587 0 73.0843 12.7661 933 118.857 39.6356 471.324
2588 0 76.2321 13.0785 997 119.543 39.6118 469.014
2589 0 80.1114 13.7558 1102 117.83 39.7731 468.058
2590 0 81.1528 13.567 1101 121.347 38.7738 466.17
2591 0 83.1928 12.5371 1043 125.705 39.2339 466.921
2592 0 87.1004 13.1687 1147 123.489 39.0087 465.76
2593 0 90.1077 13.5283 1219 124.148 38.7203 462.567
2594 0 94.1694 13.7093 1291 122.988 39.409 462.513
2595 0 95.1036 12.6388 1202 127.06 39.1581 463.201
2596 1 53.0386 10.9354 580 128.16 40.2328 483.829
2597 0 55.0623 12.0046 661 128.646 40.4902 481.51
2598 0 58.0451 12.1802 707 129.71 40.6025 470.273
2599 0 59.0567 12.9367 764 123.573 40.3482 475.704
2600 0 60.0854 13.4642 809 123.779 40.843 476.711
2601 0 61.066 13.8211 844 122.422 40.9633 477.791
2602 0 63.1288 13.5279 854 123.73 40.1358 477.268
2603 0 64.0834 13.2484 849 126.059 40.0165 472.966
2604 0 67.0469 12.8716 863 126.204 37.555 476.359
2605 0 69.0521 13.4102 926 123.901 37.7225 472.346
2606 0 73.0656 13.1389 960 123.576 36.9406 474.144
2607 0 74.0637 12.5298 928 126.2 37.7328 471.966
2608 0 77.0995 14.371 1108 121.501 38.3168 471.036
2609 0 79.1348 13.9762 1106 123.703 37.2116 469.086
2610 0 81.1326 13.2253 1073 126.628 37.0867 467.862
2611 0 83.0802 12.9754 1078 127.53 37.5223 468.921
2612 0 87.1095 14.0398 1223 125.679 37.1586 465.661
2613 0 90.1026 13.7066 1235 125.892 37.6899 465.476
2614 0 91.1333 13.5625 1236 127.559 37.7985 462.797
2615 0 96.0707 13.4484 1292 127.789 38.1656 463.218
2616 0 97.0736 14.319 1390 126.984 38.7777 462.085
2617 0 101.117 14.2904 1445 127.234 38.0215 459.388
2618 0 104.066 13.2127 1375 130.758 37.5178 459.492
2619 0 108.119 14.0123 1515 128.172 37.9393 457.964
2620 0 111.204 12.7604 1419 131.794 38.0698 459.213
2621 1 59.1418 11.6669 690 134.961 37.1014 482.013
2622 0 62.1857 12.4305 773 121.096 38.3816 480.809
2623 0 64.1956 11.7142 752 122.678 38.6636 480.199
2624 0 64.1033 11.8247 758 119.383 38.595 478.278
2625 0 66.0805 12.515 827 119.378 38.5985 480.485
2626 0 70.0901 12.5981 883 116.461 38.3907 475.89
2627 0 71.0778 12.7747 908 118.523 38.5022 477.313
2628 0 73.099 12.2163 893 121.013 38.028 476.53
2629 0 76.1809 13.7436 1047 116.729 38.384 474.373
2630 0 78.3359 12.74 998 120.31 38.2325 472.318
2631 0 79.121 12.4998 989 122.005 38.7796 474.519
2632 0 83.1238 13.7867 1146 118.521 38.4232 471.328
2633 0 86.193 13.2145 1139 121.564 37.7428 471.19
2634 0 87.2567 13.5348 1181 123.591 36.8696 469.489
2635 0 92.1466 13.3591 1231 124.314 36.7514 469.545
2636 0 92.1605 12.3697 1140 129.861 37.3675 466.398
2637 0 97.189 13.1805 1281 129.237 36.9063 464.178
2638 0 99.1103 13.1772 1306 128.78 37.023 464.056
2639 1 52.0928 10.9804 572 128.297 37.6766 487.815
2640 0 56.0409 12.3124 690 126.817 37.4478 487.41
2641 0 56.3025 11.527 649 125.393 37.3683 484.273
2642 0 57.0642 10.8124 617 122.833 37.4652 479.374
2643 0 61.1299 12.269 750 118.931 36.4987 477.132
2644 0 64.0615 12.9251 828 119.056 37.2186 479.144
2645 0 65.119 12.5309 816 119.88 36.3775 476.243
2646 0 68.0873 12.8218 873 118.339 35.9874 474.426
2647 0 69.0979 13.1842 911 119.662 35.843 472.614
2648 0 70.0914 12.6692 888 121.454 36.1284 472.695
2649 0 75.1336 12.1384 912 121.746 36.4485 471.493
2650 0 77.0583 12.0039 925 123.52 36.0854 470.881
2651 0 82.1159 12.2388 1005 122.94 36.3891 470.42
2652 0 83.1907 12.4052 1032 124.277 36.6599 470.17
2653 0 85.0588 12.944 1101 124.488 35.4732 469.329
2654 0 88.1253 12.1985 1075 126.676 36.0493 467.927
2655 0 90.0549 12.5701 1132 127.661 35.8454 466.727
2656 0 94.1531 13.1276 1236 134.676 34.8252 468.275
2657 1 52.0494 11.1241 579 134.556 35.3489 490.397
2658 0 53.0516 10.9893 583 132.791 35.1269 489.3
2659 0 56.1219 13.1856 740 125.866 35.4162 486.788
2660 0 56.0327 12.1893 683 126.012 35.4553 486.441
2661 0 58.0847 13.2048 767 122.357 34.6076 484.58
2662 0 59.084 12.8292 758 124.361 35.1082 483.45
2663 0 61.0933 12.9802 793 124.057 35.2207 484.038
2664 0 65.0796 13.7524 895 120.394 34.4302 481.317
2665 0 65.1724 12.5667 819 125.339 34.5751 481.376
2666 0 67.0755 12.8065 859 124.754 34.7986 476.743
2667 0 70.0898 12.6267 885 124.347 34.5582 477.194
2668 0 73.1084 12.6798 927 124.485 35.0539 475.214
2669 0 74.1084 12.7381 944 124.81 34.7659 473.809
2670 0 77.1104 11.9958 925 126.675 35.1232 474.551
2671 0 80.0729 13.163 1054 124.567 34.629 471.934
2672 0 82.0989 13.2523 1088 125.666 35.6103 469.915
2673 0 83.0558 12.4495 1034 128.915 35.0068 469.598
2674 0 86.0734 13.0819 1126 127.345 34.5719 469.509
2675 0 89.079 14.3019 1274 124.814 34.7904 467.016
2676 0 88.0852 11.4548 1009 137.641 34.6531 467.572
2677 0 94.0848 13.4241 1263 130.753 35.8884 468.167
2678 0 98.0961 13.864 1360 128.613 35.6191 465.563
2679 0 101.086 13.8793 1403 129.543 35.0763 464.386
2680 0 102.127 12.1516 1241 134.386 35.4351 460.409
2681 1 60.0599 11.1222 668 131.737 34.4296 483.305
2682 0 64.0578 12.3326 790 126.111 35.1354 484.534
2683 0 65.091 13.0586 850 126.856 35.4106 479.731
2684 0 66.0876 12.9979 859 118.338 35.5809 482.41
2685 0 67.156 11.0042 739 121.934 35.4276 481.637
2686 0 71.0743 11.889 845 118.354 35.3822 479.679
2687 0 73.0542 11.7173 856 118.727 34.972 477.839
2688 0 74.1261 12.2764 910 117.315 34.9692 478.173
2689 0 76.0731 11.5284 877 120.302 34.984 474.063
2690 0 80.0827 11.3258 907 120.271 35.2657 472.713
2691 0 83.1117 13.4999 1122 113.915 35.7852 471.991
2692 0 84.081 12.4166 1044 117.74 35.4636 469.779
2693 0 88.1072 12.0875 1065 115.506 35.0563 472.414
2694 0 91.0518 10.7082 975 120.072 35.1949 468.884
2695 1 50.0648 10.3466 518 119.288 34.6216 488.017
2696 0 51.0376 10.9135 557 124.271 34.2334 486.497
2697 0 54.2412 12.4444 675 121.044 35.437 483.956
2698 0 57.043 12.6045 719 121.398 34.911 484.349
2699 0 58.0567 11.127 646 125.949 34.7337 483.868
2700 0 60.0284 12.4441 747 122.023 34.8327 483.851
2701 0 61.0125 11.4403 698 126.477 34.8295 481.983
2702 0 63.0467 11.7849 743 125.731 34.9354 480.941
2703 0 64.0167 11.825 757 126.6 35.1083 480.371
2704 0 65.0486 11.8219 769 127.007 35.8986 479.83
2705 0 66.0298 11.6463 769 126.869 35.1495 479.073
2706 0 69.0884 13.2873 918 121.855 34.8061 479.667
2707 0 71.0807 12.3099 875 124.782 35.2663 478.017
2708 0 74.0777 12.5544 930 124.419 35.071 476.161
2709 0 77.0391 12.7208 980 124.245 35.801 474.798
2710 0 78.0728 12.6164 985 125.513 35.8914 474.193
2711 0 81.0617 12.6817 1028 125.807 36.142 473.313
2712 0 84.0707 12.5014 1051 126.335 35.9781 473.291
2713 0 86.1306 12.5043 1077 127.011 36.1913 470.207
2714 0 89.0816 12.1462 1082 127.607 36.6091 469.54
2715 1 50.0503 11.0489 553 122.226 36.689 489.844
2716 0 49.0966 11.5079 565 120.696 36.9327 490.166
2717 0 49.0556 10.4983 515 124.668 38.165 488.703
2718 0 52.0282 11.8205 615 115.478 36.9512 487.816
2719 0 54.1465 12.4292 673 116.285 38.2689 486.941
2720 0 57.1962 12.4659 713 115.857 37.4614 486.773
2721 0 57.1042 12.2408 699 119.076 38.0672 485.02
2722 0 59.0883 11.5251 681 121.182 37.9618 485.802
2723 0 61.0367 12.1566 742 120.906 38.6361 484.671
2724 0 63.0939 11.7919 744 121.968 37.9099 483.976
2725 0 65.1626 13.1824 859 119.221 37.6263 481.598
2726 0 68.1007 13.0982 892 117.762 38.1054 480.649
2727 0 69.0684 13.3056 919 113.814 37.8172 477.639
2728 0 69.1644 12.0293 832 119.108 36.7524 477.494
2729 0 72.1976 12.4519 899 117.746 36.8053 477.529
2730 0 75.2119 12.724 957 117.063 37.3396 475.605
2731 0 77.1662 12.7387 983 117.286 37.5849 474.384
2732 0 79.3405 12.7426 1011 117.691 37.6518 472.85
2733 0 83.2718 13.1257 1093 116.437 36.2617 470.033
2734 0 86.3625 13.0149 1124 116.802 36.5222 469.441
2735 0 86.2681 12.9016 1113 118.587 36.5355 466.652
2736 0 90.3192 13.1201 1185 117.918 36.0878 465.511
2737 0 92.3723 13.0126 1202 119.513 36.0774 464.527
2738 0 95.1935 12.837 1222 118.715 37.1849 466.826
2739 1 50.1222 11.4121 572 118.65 36.1713 486.488
2740 0 52.1647 12.0771 630 116.454 37.3016 486.89
2741 0 53.1401 12.1754 647 118.298 36.2257 486.604
2742 0 55.0958 11.4165 629 117.027 36.7568 486.335
2743 0 57.0743 12.8779 735 117.476 36.4939 485.167
2744 0 59.0629 12.6306 746 118.11 36.9209 483.999
2745 0 60.0876 12.5983 757 118.626 36.8798 483.855
2746 0 62.0456 13.4417 834 116.952 36.5803 481.492
2747 0 62.1071 12.1081 752 121.774 36.5585 479.956
2748 0 64.0895 12.2797 787 122.15 36.6747 479.994
2749 0 69.1402 13.2918 919 117.831 36.6017 479.729
2750 0 71.109 13.6129 968 117.466 36.782 476.373
2751 0 73.1605 13.6686 1000 117.241 37.466 477.227
2752 0 76.09 13.0635 994 119.185 37.5694 475.07
2753 0 80.0632 14.3137 1146 115.474 37.034 474.95
2754 0 81.0784 14.4675 1173 115.246 37.3973 474.241
2755 0 81.1979 13.4117 1089 120.163 37.2948 472.758
2756 0 87.071 14.4365 1257 116.431 37.3691 471.164
2757 0 88.1039 13.5295 1192 119.55 37.1695 470.82
2758 0 88.0281 12.5301 1103 122.802 36.6972 470.098
2759 0 93.1896 12.8448 1197 119.06 37.1855 467.286
2760 0 97.1326 14.3103 1390 115.786 37.3266 468.145
2761 0 101.193 13.578 1374 118.85 37.9563 464.648
2762 1 54.062 11.7458 635 120.805 37.6409 487.562
2763 0 57.1069 11.5223 658 120.953 37.6474 487.55
2764 0 59.0312 13.0948 773 117.625 37.2173 485.962
2765 0 59.0748 12.5773 743 120.112 37.0727 484.476
2766 0 60.0771 12.2676 737 115.609 38.2049 481.974
2767 0 65.2683 13.8965 907 110.65 38.1169 480.075
2768 0 65.1859 12.9169 842 113.353 38.0344 479.443
2769 0 68.2456 14.3159 977 109.725 38.2794 477.469
2770 0 71.2393 12.7177 906 114.5 38.8565 477.406
2771 0 73.2434 13.8579 1015 112.827 37.9547 474.414
2772 0 73.2248 12.687 929 116.264 37.5479 476.273
2773 0 76.1478 12.9748 988 115.541 37.6599 473.978
2774 0 79.247 13.2497 1050 115.15 37.459 469
2775 0 80.1084 13.4443 1077 115.797 37.7818 470.693
2776 0 83.2413 14.1156 1175 114.521 36.9072 469.634
2777 0 86.1332 13.8506 1193 115.906 37.4149 463.202
2778 0 89.1471 14.5826 1300 113.467 37.5685 464.732
2779 0 92.2904 14.7469 1361 112.581 37.2035 467.224
2780 0 92.1152 13.6242 1255 117.882 37.2183 465.916
2781 0 96.2463 13.3823 1288 117.912 37.0481 465.205
2782 0 98.1689 13.0286 1279 118.829 36.9492 464.241
2783 0 103.262 13.0929 1352 119.01 36.4638 462.95
2784 0 102.216 11.8572 1212 123.093 36.6741 460.842
2785 0 107.201 12.5372 1344 120.992 36.1406 459.031
2786 0 112.317 14.0941 1583 116.927 37.1238 457.099
2787 0 117.208 14.6407 1716 115.083 36.866 454.757
2788 0 119.156 13.3523 1591 119.783 36.7624 451.668
2789 1 67.0723 11.8082 792 117.302 37.3561 479.254
2790 0 69.1162 12.7611 882 118.21 37.7823 476.785
2791 0 71.2044 12.8222 913 112.136 37.0296 474.779
2792 0 74.2276 11.8015 876 115.87 37.2237 471.597
2793 0 77.2089 12.8483 992 113.626 37.3317 472.439
2794 0 80.1873 12.0593 967 114.678 37.7187 473.576
2795 0 83.1175 13.0658 1086 114.517 37.5221 469.402
2796 0 86.1231 13.9916 1205 112.828 38.1527 469.434
2797 0 90.0979 14.2623 1285 114.379 37.3004 467.167
2798 0 92.0536 13.4921 1242 115.703 37.6795 468.97
2799 0 93.1779 12.5996 1174 120.269 36.3194 460.407
2800 0 99.2028 14.294 1418 114.47 36.9154 462.297
2801 0 100.129 13.3728 1339 117.01 36.4205 461.642
2802 0 104.118 13.8689 1444 115.452 36.9301 460.057
2803 0 107.096 12.1107 1297 119.676 36.7363 459.15
2804 0 110.154 12.9455 1426 118.814 37.1304 456.947
2805 0 114.211 13.1773 1505 120.41 37.3249 454.71
2806 0 118.257 13.31 1574 121.361 36.7103 443.658
2807 1 65.2011 12.1164 790 114.587 36.2443 477.696
2808 0 68.0436 12.9329 880 118.548 36.8932 477.622
2809 0 71.0655 13.4102 953 116.361 37.6946 477.043
2810 0 73.1159 13.1162 959 117.181 37.6913 474.852
2811 0 75.1213 12.0871 908 118.993 37.7225 469.706
2812 0 78.1902 13.3137 1041 115.91 36.951 469.067
2813 0 79.194 12.7535 1010 117.699 37.0307 471.85
2814 0 82.2022 13.8561 1139 112.526 36.8832 471.701
2815 0 86.2102 14.685 1266 110.221 36.0482 468.298
2816 0 88.1084 13.4607 1186 113.595 34.9646 466.971
2817 0 92.1406 13.4903 1243 112.359 35.7836 466.418
2818 0 94.2086 14.0327 1322 111.636 35.5318 463.886
2819 0 96.2185 12.191 1173 116.156 34.7732 463.419
2820 0 97.1269 14.1876 1378 109.718 35.0493 453.389
2821 0 100.141 12.2926 1231 113.596 36.0991 455.085
2822 0 100.161 12.4999 1252 114.906 35.5863 450.974
2823 0 108.463 12.8985 1399 112.164 36.7791 449.661
2824 0 110.258 12.4254 1370 114.176 35.7591 447.142
2825 0 116.307 12.9829 1510 111.903 35.5185 447.668
2826 0 121.203 13.7455 1666 109.546 36.1321 445.96
2827 0 127.349 13.7497 1751 108.754 36.4603 440.467
2828 1 66.1278 9.55725 632 108.565 36.0364 469.976
2829 0 72.119 10.7877 778 105.019 36.347 472.29
2830 0 76.1476 12.2394 932 102.131 35.2897 476.277
2831 0 77.112 11.827 912 104.93 35.6294 474.707
2832 0 81.173 12.689 1030 103.926 35.6806 471.933
2833 0 85.1731 12.727 1084 103.987 35.3921 471.145
2834 0 87.1419 12.5428 1093 106.712 36.0174 469.714
2835 0 92.3182 12.7385 1176 104.532 35.5502 469.812
2836 0 93.2011 12.0707 1125 106.706 34.8356 465.498
2837 0 95.2602 12.2822 1170 108.271 34.8829 464.15
2838 0 102.361 14.4489 1479 102.336 34.8736 460.755
2839 0 105.189 13.9558 1468 104.713 34.1226 456.744
2840 0 107.312 12.6547 1358 109.94 34.3409 457.378
2841 0 109.307 12.0395 1316 110.703 34.7865 459.135
2842 1 60.1179 11.2778 678 104.791 36.0162 484.879
2843 0 60.0806 10.5858 636 107.398 36.3915 484.417
2844 0 63.1431 11.1334 703 105.922 36.4609 482.982
2845 0 67.135 13.1377 882 100.509 36.4955 480.533
2846 0 69.1363 12.5549 868 101.994 36.1463 478.74
2847 0 72.1442 12.1978 880 101.68 36.7341 477.965
2848 0 75.1261 12.3259 926 101.618 37.0896 477.821
2849 0 76.1114 12.3109 937 101.586 37.0544 476.217
2850 0 79.1382 11.3725 900 102.613 35.9878 469.268
2851 0 81.1034 11.4668 930 102.651 35.6581 472.252
2852 0 86.205 11.9483 1030 101.585 36.4573 470.271
2853 0 87.0965 11.4471 997 102.426 35.6269 470.515
2854 0 91.2201 12.3218 1124 100.302 35.6833 469.968
2855 0 94.073 12.7879 1203 100.134 35.7681 464.879
2856 0 99.1138 12.5916 1248 99.9535 36.0208 463.845
2857 0 102.118 12.5933 1286 100.671 35.8904 461.953
2858 0 104.174 11.5575 1204 103.869 36.1694 462.989
2859 1 57.1369 11.0087 629 102.013 37.0572 482.008
2860 0 57.1391 11.1657 638 103.357 34.6411 484.193
2861 0 60.1206 11.4769 690 97.3681 35.6957 476.616
2862 0 58.1832 10.3122 600 102.023 35.41 474.313
2863 0 64.127 12.4441 798 100.179 34.8747 482.018
2864 0 67.194 12.6946 853 99.9672 34.9004 479.716
2865 0 70.1588 12.9848 911 99.1921 33.7662 477.756
2866 0 71.2768 12.0656 860 101.65 34.5919 476.902
2867 0 72.2343 12.3349 891 102.384 34.3928 475.439
2868 0 75.2423 11.8417 891 103.909 34.5264 474.236
2869 0 77.1808 13.5785 1048 99.6536 35.5286 475.582
2870 0 79.1697 11.8353 937 105.13 34.7215 474.049
2871 0 81.2274 12.9759 1054 103.794 34.3767 471.827
2872 0 82.1261 11.7015 961 105.949 35.488 472.078
2873 0 86.2277 11.8059 1018 106.286 35.5373 471.58
2874 0 88.3366 11.7958 1042 107.487 35.9731 472.229
2875 0 89.218 12.4302 1109 108.202 35.9243 469.922
2876 0 93.1233 12.564 1170 110.049 36.0026 467.283
2877 0 95.0727 11.7594 1118 113.39 35.847 465.685
2878 0 99.1638 13.2407 1313 110.582 36.0503 465.085
2879 0 99.2805 11.9359 1185 114.066 35.6776 464.562
2880 0 104.201 14.2609 1486 109.085 35.9515 460.388
2881 0 109.276 11.5671 1264 114.413 35.4723 461.794
2882 0 109.183 11.8517 1294 114.445 35.6638 459.722
2883 0 113.089 11.407 1290 115.528 35.5667 457.774
2884 0 116.126 12.0817 1403 115.139 35.3835 453.703
2885 0 120.343 11.9326 1436 116.763 35.8719 446.646
2886 1 65.1324 11.1465 726 113.215 35.9628 478.434
2887 0 69.2573 12.4608 863 115.268 35.0718 477.235
2888 0 69.1547 12.5227 866 117.04 36.5254 472.704
2889 0 71.2699 13.3015 948 113.923 35.7036 471.792
2890 0 75.3459 13.2854 1001 116.054 36.007 471.755
2891 0 76.2003 13.9501 1063 115.524 35.6021 470.981
2892 0 75.2711 11.7442 884 121.632 35.2919 468.787
2893 0 77.1427 13.1056 1011 117.594 35.5272 470.176
2894 0 80.2379 13.273 1065 116.897 35.4939 470.29
2895 0 81.1364 12.8056 1039 118.914 35.999 468.815
2896 0 85.1533 13.188 1123 115.127 35.6901 467.106
2897 0 87.113 12.7765 1113 116.447 35.4987 460.313
2898 0 91.1793 12.777 1165 115.7 35.0755 460.322
2899 0 92.1398 12.4702 1149 116.815 35.3873 460.778
2900 0 96.2265 12.6992 1222 114.628 35.4746 459.68
2901 0 98.1808 12.5381 1231 117.054 34.6791 455.689
2902 1 54.0792 9.67099 523 111.359 36.9924 476.247
2903 0 57.0633 10.2868 587 105.259 37.1533 474.753
2904 0 60.0985 11.2981 679 95.651 35.3741 478.82
2905 0 62.0787 11.0183 684 96.4211 36.155 479.303
2906 0 63.1137 11.202 707 96.1443 36.0085 480.02
2907 0 64.0546 9.39823 602 100.91 36.1944 475.505
2908 0 69.0763 11.5959 801 95.387 36.6929 475.871
2909 0 70.1831 11.014 773 96.3364 36.8176 475.242
2910 0 71.0701 11.4253 812 96.7094 36.5936 471.714
2911 0 75.1224 11.3149 850 96.9871 36.0988 470.071
2912 0 77.1151 10.8669 838 97.994 35.6277 469.698
2913 0 78.0955 12.1006 945 96.5471 36.0741 470.807
2914 0 81.0373 10.8715 881 99.2474 35.664 466.362
2915 0 86.1476 13.0822 1127 94.1375 36.2476 464.633
2916 0 87.1035 11.9398 1040 96.6413 36.6731 464.764
2917 0 88.0955 10.8292 954 99.4078 36.1939 464.517
2918 0 91.129 10.6552 971 102.001 35.7611 460.076
2919 0 97.1879 12.4707 1212 104.011 36.8498 465.422
2920 0 100.115 12.5755 1259 104.685 35.8809 461.246
2921 0 108.143 17.1902 1859 89.2916 35.5073 454.353
2922 1 56.0622 10.2921 577 103.518 36.8631 483.061
2923 0 60.1536 13.1663 792 98.9104 36.2828 480.846
2924 0 61.0398 11.599 708 97.5339 36.8531 481.154
2925 0 63.0644 11.5596 729 98.4184 35.144 481.442
2926 0 64.0337 12.1655 779 97.6508 35.9037 477.325
2927 0 67.0793 11.9858 804 98.5697 35.7699 477.153
2928 0 68.1078 11.3937 776 99.6714 36.4407 477.366
2929 0 71.1982 11.3907 811 98.1985 36.7374 472.099
2930 0 73.079 11.6312 850 98.1612 36.4471 472.133
2931 0 76.1948 10.1188 771 101.125 36.5798 473.252
2932 0 78.0695 11.6307 908 100.16 36.3612 472.149
2933 0 82.1268 12.2372 1005 99.3522 36.208 471.714
2934 0 83.1248 11.5489 960 102.223 35.6646 468.034
2935 0 84.0869 11.3216 952 103.778 35.6471 468.503
2936 0 89.1261 12.8918 1149 101.605 35.6466 464.994
2937 0 91.2037 11.6333 1061 104.34 35.7625 465.169
2938 0 95.2585 11.9674 1140 104.01 35.9079 464.005
2939 0 97.1564 11.2396 1092 105.931 36.2408 462.284
2940 0 102.195 11.7618 1202 105.961 35.411 461.947
2941 0 105.142 12.1265 1275 109.342 35.1396 458.121
2942 0 110.155 13.1906 1453 107.079 35.1356 456.928
2943 1 61.1566 9.82723 601 106.517 34.1697 481.616
2944 0 62.1148 10.1264 629 106.342 34.752 481.283
2945 0 65.0822 10.7403 699 106.157 35.4063 478.773
2946 0 67.0943 11.9384 801 103.325 34.2959 477.041
2947 0 69.0883 12.4044 857 101.72 36.1785 474.895
2948 0 74.1323 12.2754 910 101.257 35.7549 474.833
2949 0 75.048 11.2062 841 103.673 36.0809 472.828
2950 0 79.1381 11.8022 934 102.179 35.9122 471.729
2951 0 84.2565 12.0347 1014 101.068 36.0247 470.448
2952 0 83.1799 11.5172 958 103.696 36.5251 468.134
2953 0 88.1735 12.362 1090 101.623 36.1174 467.536
2954 0 90.1325 11.3722 1025 104.382 35.7132 464.56
2955 0 93.2055 11.598 1081 103.599 35.1332 461.893
2956 0 96.2799 11.3315 1091 104.984 35.67 460.786
2957 0 99.2558 12.8254 1273 102.942 36.1383 459.324
2958 0 100.268 12.6162 1265 104.987 35.5597 456.364
2959 0 105.294 12.4699 1313 106.625 35.6283 458.163
2960 1 56.1269 10.6901 600 109.295 36.5317 483.527
2961 0 62.1693 11.7743 732 107.292 36.2213 482.261
2962 0 62.0307 13.4611 835 113.066 36.3365 477.837
2963 0 66.073 12.9856 858 114.807 37.0536 474.896
2964 0 68.0894 13.306 906 114.494 36.447 476.97
2965 0 65.0789 12.7384 829 119.215 36.7346 476.51
2966 0 69.138 12.6992 878 117.377 36.5251 478.276
2967 0 71.1099 12.6424 899 118.602 36.7019 476.066
2968 0 73.0844 14.2712 1043 114.833 36.4362 477.481
2969 0 75.1245 13.2979 999 118.849 36.3233 474.012
2970 0 76.0693 12.9881 988 120.705 37.1579 472.028
2971 0 79.0717 13.1779 1042 120.089 36.9405 471.708
2972 0 82.1036 14.031 1152 118.304 36.9748 471.83
2973 0 85.1242 13.4392 1144 120.108 36.5804 470.677
2974 0 87.1079 14.086 1227 120.488 36.5713 467.408
2975 0 89.0859 14.0763 1254 121.522 36.2727 466.626
2976 0 92.1411 13.0886 1206 122.645 36.4859 466.985
2977 0 96.1035 14.037 1349 119.396 36.2528 466.958
2978 0 95.1842 12.7857 1217 126.803 36.3114 463.463
2979 0 102.193 14.091 1440 122.365 35.7611 460.262
2980 0 103.186 13.2188 1364 127.487 35.382 462.696
2981 1 58.2077 12.1118 705 124.99 35.1007 486.522
2982 0 59.1186 11.9083 704 123.659 34.6179 485.536
2983 0 61.1276 12.204 746 116.705 34.2346 479.84
2984 0 61.1664 10.7085 655 110.273 35.2748 481.046
2985 0 64.0988 12.1999 782 107.387 35.2673 479.036
2986 0 64.0605 10.7867 691 111.606 34.8003 478.806
2987 0 66.1692 11.8182 782 111.294 34.555 476.882
2988 0 71.1919 12.4452 886 106.744 34.5688 477.944
2989 0 72.0398 11.7019 843 109.351 35.2017 476.6
2990 0 73.1496 11.4833 840 111.242 34.7524 472.304
2991 0 76.1129 12.5997 959 107.743 34.8008 472.96
2992 0 78.0728 12.5652 981 107.713 34.631 472.53
2993 0 83.085 12.6617 1052 106.319 33.9087 470.33
2994 0 84.0734 13.0124 1094 106.829 34.6371 468.684
2995 0 87.0631 12.8298 1117 107.757 34.8442 466.757
2996 0 91.1937 12.6544 1154 108.23 34.7513 466.052
2997 0 93.0941 12.7505 1187 108.432 35.0758 462.872
2998 0 94.2506 12.2333 1153 110.249 34.4146 463.053
2999 0 101.101 13.8575 1401 105.165 34.3519 461.987
3000 0 102.101 13.2908 1357 108.139 34.2911 457.069
3001 0 106.032 13.5054 1432 107.584 34.7158 458.757
3002 0 107.175 12.223 1310 112.665 34.6939 454.754
3003 0 113.171 12.8744 1457 110.885 35.477 453.021
3004 1 62.1098 13.0736 812 119.834 35.2204 481.27
3005 0 64.0221 12.4332 796 115.428 35.1621 476.161
3006 0 66.0379 12.2657 810 115.356 35.1296 475.567
3007 0 70.0374 12.222 856 114.678 35.493 476.721
3008 0 71.0919 12.5471 892 114.858 34.1984 475.934
3009 0 75.0284 13.0617 980 112.277 33.9429 474.451
3010 0 76.083 12.999 989 113.08 33.6229 473.735
3011 0 80.0816 13.1491 1053 112.477 34.264 472.507
3012 0 80.092 12.8352 1028 114.481 33.7023 471.556
3013 0 84.1179 13.1958 1110 114.14 34.5 468.699
3014 0 85.0885 12.8337 1092 114.832 34.6291 468.215
3015 0 89.05 13.2173 1177 113.221 34.1572 464.015
3016 0 92.0887 12.9875 1196 113.88 33.9682 465.519
3017 0 93.1005 12.03 1120 117.027 34.3518 462.461
3018 0 99.1056 12.7238 1261 114.991 34.8152 461.43
3019 0 102.052 13.4834 1376 112.346 34.8554 461.629
3020 0 104.073 13.7404 1430 112.638 34.7133 458.747
3021 0 108.21 13.0394 1411 113.965 34.6839 456.435
3022 0 111.228 12.4699 1387 112.717 34.9964 450.412
3023 0 115.215 12.6026 1452 115.157 34.9318 453.099
3024 1 65.2055 10.4286 680 116.363 35.7103 484.125
3025 0 67.1242 11.6202 780 111.386 33.7385 476.114
3026 0 69.0621 12.0182 830 111.275 34.3446 475.392
3027 0 71.155 12.0301 856 108.55 35.1647 473.478
3028 0 75.1162 12.3276 926 107.978 35.2257 474.428
3029 0 77.2961 11.2684 871 111.27 34.318 472.094
3030 0 81.2011 11.9826 973 109.918 34.3813 470.219
3031 0 84.2422 13.0457 1099 110.499 33.8881 471.772
3032 0 86.1417 12.4562 1073 113.902 33.124 469.461
3033 0 90.1704 13.3303 1202 111.522 34.2304 469.766
3034 0 92.1169 13.396 1234 110.551 34.4076 471.876
3035 0 95.1489 13.0007 1237 113.742 34.7769 468.707
3036 0 99.1977 14.1435 1403 113.169 34.3685 465.876
3037 0 103.093 13.7351 1416 113.936 34.125 466.938
3038 0 104.101 13.3043 1385 115.908 35.1292 464.614
3039 0 107.193 12.2117 1309 118.437 34.7227 463.493
3040 0 113.205 13.5683 1536 115.515 34.7318 458.903
3041 0 115.177 12.2159 1407 119.714 34.9161 457.634
3042 0 120.206 12.5285 1506 119.327 35.1228 454.375
3043 1 66.1474 12.1093 801 113.353 36.0312 480.765
3044 0 68.2117 12.989 886 110.488 36.2946 481.523
3045 0 70.1453 13.0729 917 110.261 35.3021 479.326
3046 0 71.0403 11.951 849 108.713 35.6914 478.792
3047 0 72.0964 12.1227 874 113.68 35.6384 479.293
3048 0 72.0482 12.45 897 116.777 35.3946 478.365
3049 0 73.0889 11.8623 867 107.453 36.0623 479.166
3050 0 73.1432 12.0996 885 115.311 36.8554 477.118
3051 0 76.2117 12.6883 967 116.079 36.2399 478.019
3052 0 75.1515 11.9359 897 119.538 35.7993 476.583
3053 0 77.2231 11.6934 903 118.717 34.7542 477.162
3054 0 82.2064 12.3956 1019 115.896 35.9607 475.89
3055 0 84.0875 12.9984 1093 114.349 36.0512 473.695
3056 0 87.1423 12.7607 1112 114.018 36.2185 473.799
3057 0 92.1617 12.7602 1176 112.009 36.2534 469.191
3058 0 93.1357 12.659 1179 112.024 36.1459 465.72
3059 0 98.1885 13.4945 1325 106.991 36.5728 464.452
3060 0 100.249 12.8381 1287 109.787 36.1632 460.047
3061 0 103.427 13.275 1373 108.397 36.2542 457.449
3062 0 105.286 14.0285 1477 106.793 36.0115 458.798
3063 0 109.333 13.0702 1429 110.03 35.3072 456.078
3064 0 112.349 12.8973 1449 110.934 35.5072 455.268
3065 1 60.2452 10.0423 605 112.755 35.4992 479.441
3066 0 61.1335 12.1701 744 108.926 36.0941 478.868
3067 0 63.3034 12.1952 772 109.776 35.0816 479.944
3068 0 65.1679 12.0458 785 112.331 35.9529 479.33
3069 0 67.1807 11.2086 753 115.851 36.9296 478.469
3070 0 69.3665 12.0952 839 116.433 36.124 476.687
3071 0 71.1462 13.2966 946 118.391 35.7051 473.918
3072 0 74.0898 13.4566 997 118.591 36.2026 476.081
3073 0 75.1277 13.0711 982 121.883 35.7912 474.979
3074 0 76.3069 13.6685 1043 123.302 36.419 471.328
3075 0 77.1994 12.1763 940 128.285 36.0085 473.041
3076 0 80.3095 12.5016 1004 129.626 36.1614 470.613
3077 0 82.1217 12.5911 1034 131.648 35.7901 470.052
3078 0 84.3686 13.1328 1108 131.611 35.4061 470.49
3079 0 86.1284 13.7701 1186 132.137 35.769 468.417
3080 0 88.1268 12.6749 1117 135.286 35.615 468.651
3081 0 93.1451 13.9675 1301 131.679 35.3851 467.611
3082 0 94.2413 14.5796 1374 132.096 35.6572 463.469
3083 0 96.1213 13.7535 1322 136.745 35.612 462.911
3084 0 101.181 14.4692 1464 133.7 35.612 463.029
3085 0 104.114 14.3593 1495 135.508 35.511 459.936
3086 0 107.18 13.2301 1418 139.913 36.1142 458.319
3087 1 61.1358 11.8098 722 136.63 35.3712 482.756
3088 0 63.2333 11.8292 748 139.074 36.2981 480.405
3089 0 65.0673 13.1249 854 132.427 36.3255 481.63
3090 0 66.099 12.5267 828 136.287 34.6594 473.902
3091 0 69.3162 12.9696 899 132.792 35.2392 475.616
3092 0 70.245 13.0258 915 135.78 35.7454 475.555
3093 0 72.213 13.2525 957 135.352 35.5601 474.668
3094 0 77.1534 14.024 1082 131.735 35.7061 471.832
3095 0 80.1809 13.9934 1122 132.004 35.3164 470.614
3096 0 80.2227 13.7368 1102 133.933 35.0318 469.75
3097 0 85.1922 13.358 1138 134.503 35.7909 467.572
3098 0 86.3436 14.1528 1222 132.65 35.1825 464.592
3099 0 90.2121 13.9671 1260 131.794 35.331 465.184
3100 0 94.2794 13.9479 1315 132.064 35.3065 459.999
3101 0 97.1964 15.515 1508 127.048 35.8574 452.592
3102 0 100.188 14.2732 1430 131.234 35.1126 452.866
3103 0 102.239 14.4368 1476 130.732 35.832 455.377
3104 0 105.287 14.7311 1551 130.321 35.6402 456.15
3105 0 108.22 14.221 1539 132.519 36.358 453.73
3106 0 110.367 13.3011 1468 135.757 36.3924 453.714
3107 0 114.285 13.8601 1584 135.051 35.596 452.692
3108 0 119.359 13.3296 1591 135.967 35.5173 450.52
3109 0 122.261 13.6756 1672 135.166 36.1423 445.344
3110 0 127.177 14.9084 1896 128.862 35.4873 442.579
3111 1 69.0697 10.9455 756 133.984 35.4815 467.679
3112 0 74.0914 12.8625 953 127.291 36.5876 468.299
3113 0 77.2153 12.0572 931 118.944 36.261 467.882
3114 0 79.1773 12.1499 962 119.637 35.7848 465.223
3115 0 84.2657 12.2944 1036 118.036 35.9093 465.242
3116 0 85.1906 12.6188 1075 118.707 36.1274 462.939
3117 0 88.1154 12.8922 1136 118.664 35.5854 463.374
3118 0 90.1043 11.9195 1074 121.619 35.0624 464.577
3119 0 95.2877 12.3521 1177 119.784 35.9915 459.841
3120 0 99.1572 13.2517 1314 117.909 35.7291 459.75
3121 0 103.34 12.4927 1291 118.1 36.017 459.479
3122 0 107.242 12.6722 1359 121.057 35.4709 454.816
3123 1 59.1237 11.8227 699 116.24 35.6767 480.034
3124 0 61.1189 11.9603 731 113.721 35.5048 482.989
3125 0 64.0609 11.9574 766 121.564 35.218 479.837
3126 0 64.1884 11.9648 768 121.392 36.8633 477.919
3127 0 67.155 13.2082 887 118.082 36.7091 473.958
3128 0 70.1943 12.1947 856 119.943 35.9428 474.736
3129 0 71.2768 11.1818 797 122.787 35.7114 472.841
3130 0 74.1802 11.7686 873 120.782 35.7285 471.586
3131 0 76.2364 12.5531 957 117.94 36.6176 472.409
3132 0 78.2771 12.609 987 118.636 36.8855 470.752
3133 0 85.1868 15.7301 1340 107.847 36.9 467.233
3134 0 84.1574 12.5123 1053 119.416 36.9715 466.632
3135 0 87.2244 12.7373 1111 118.152 36.8434 467.418
3136 0 87.2117 11.8791 1036 122.643 36.7201 465.725
3137 0 93.3583 13.0894 1222 118.372 37.1318 465.373
3138 0 97.2387 13.7085 1333 117.56 36.8635 462.527
3139 0 98.3154 12.1039 1190 123.334 37.1773 460.258
3140 0 103.257 15.4082 1591 113.793 36.9038 457.968
3141 0 104.285 13.1275 1369 122.064 37.1388 459.541
3142 0 107.136 13.8235 1481 114.714 37.1715 457.063
3143 0 112.271 13.022 1462 115.907 37.9596 457.22
3144 0 116.084 14.1881 1647 113.798 37.932 453.702
3145 1 64.096 10.9211 700 117.284 37.8457 480.41
3146 0 69.0862 11.9416 825 115.377 38.3079 477.505
3147 0 70.0935 11.6559 817 116.551 37.8678 475.53
3148 0 70.1158 11.3099 793 117.536 37.1299 466.7
3149 0 72.055 11.9076 858 116.717 38.2995 466.484
3150 0 73.1161 10.6133 776 120.839 37.9137 466.424
3151 0 78.1301 11.916 931 117.356 37.5199 465.183
3152 0 81.0865 12.8875 1045 113.897 36.8565 463.151
3153 0 83.0872 11.8911 988 116.507 37.2632 462.984
3154 0 82.2151 11.6402 957 119.428 36.7377 459.001
3155 0 87.1593 12.3796 1079 116.599 35.9398 459.496
3156 0 91.1518 12.8138 1168 115.211 36.7688 458.046
3157 0 91.1833 11.8662 1082 119.24 37.0684 456.03
3158 0 97.1659 12.5044 1215 115.572 37.1572 459.867
3159 0 95.0773 10.949 1041 122.4 36.7973 454.538
3160 0 101.231 12.4666 1262 116.7 36.5824 456.983
3161 0 104.216 10.9772 1144 120.37 36.4309 450.948
3162 0 108.084 10.6862 1155 119.818 36.387 450.689
3163 0 109.111 11.4562 1250 116.856 35.4432 453.946
3164 0 113.097 11.079 1253 118.488 36.1756 448.754
3165 1 60.0683 9.52249 572 112.764 35.4476 475.369
3166 0 65.0383 10.563 687 109.215 35.2576 471.924
3167 0 67.1189 10.5336 707 102.059 35.553 473.693
3168 0 69.1934 10.4634 724 100.744 35.8674 471.018
3169 0 72.0735 11.2663 812 98.947 35.702 470.866
3170 0 73.0287 13.1455 960 95.7823 35.7094 470.626
3171 0 77.1327 11.2663 869 99.5213 34.8493 469.387
3172 0 77.1558 10.5371 813 101.657 35.2386 467.421
3173 0 79.2132 10.2887 815 102.131 35.362 467.313
3174 0 82.2633 10.5393 867 102.645 35.7636 466.536
3175 0 88.2467 12.2724 1083 98.6445 35.446 464.084
3176 0 87.1044 11.0442 962 102.905 34.7152 463.856
3177 0 90.2148 10.4639 944 104.45 35.4608 463.405
3178 0 95.1581 12.7472 1213 99.8549 35.197 461.449
3179 0 96.1642 11.3244 1089 104.242 35.4536 459.523
3180 0 98.0925 11.0814 1087 106.01 35.2493 457.109
3181 0 102.081 12.5881 1285 101.792 35.4786 460.001
3182 0 106.214 12.343 1311 104.008 34.9024 455.995
3183 0 108.104 11.3224 1224 106.885 34.9755 454.009
3184 0 113.159 11.5678 1309 106.081 35.5271 455.606
3185 0 114.149 9.84679 1124 112.013 35.9706 458.398
3186 0 116.208 10.5242 1223 113.537 35.2617 453.404
3187 0 123.108 10.9985 1354 114.352 34 451.7
3188 1 69.118 11.0391 763 111.118 34.0682 478.529
3189 0 66.1673 9.9596 659 102.302 35.7815 474.449
3190 0 72.1243 12.7003 916 98.0186 36.2926 476.17
3191 0 75.1245 12.7122 955 97.1581 36.5707 477.133
3192 0 77.1268 12.8749 993 97.5156 35.576 472.772
3193 0 77.1403 11.9911 925 100.938 35.4735 472.868
3194 0 80.2048 12.3185 988 100.614 35.2551 471.221
3195 0 82.1343 12.0534 990 101.918 35.0485 470.722
3196 0 86.1674 11.9651 1031 100.017 35.1086 469.051
3197 0 92.1248 12.4396 1146 97.9546 35.3316 466.531
3198 0 92.0854 11.3047 1041 101.34 34.8607 467.266
3199 0 95.1454 11.6769 1111 101.797 35.0864 464.414
3200 0 97.0809 12.5359 1217 100.806 35.3969 464.053
3201 0 99.0921 11.8778 1177 102.437 34.6924 460.506
3202 0 105.087 12.6086 1325 99.7215 34.5072 460.687
3203 0 109.082 13.9253 1519 96.5899 35.1363 460.427
3204 0 111.192 12.2311 1360 101.54 34.5397 453.545
3205 0 111.215 11.6532 1296 104.186 34.8156 452.961
3206 0 116.221 12.7085 1477 102.06 34.1679 454.456
3207 0 120.219 12.7434 1532 102.675 33.7108 453.819
3208 0 122.245 12.6058 1541 104.182 34.5788 450.847
3209 0 127.238 12.4176 1580 104.137 33.9816 449.387
3210 0 130.216 12.9708 1689 102.23 34.7176 446.591
3211 0 134.193 12.3479 1657 103.649 34.8401 443.786
3212 0 139.284 12.8442 1789 103.079 34.0732 443.099
3213 0 143.16 12.0704 1728 106.115 33.6667 441.131
3214 1 81.1009 10.6411 863 103.028 34.0603 473.813
3215 0 84.2564 11.6549 982 101.874 33.2475 469.884
3216 0 85.1586 12.5413 1068 101.922 34.3127 465.772
3217 0 89.1144 12.2315 1090 101.495 34.9349 467.062
3218 0 91.1624 13.0427 1189 100.749 34.5467 465.752
3219 0 94.1356 12.4289 1170 102.166 34.9068 464.873
3220 0 97.3264 12.792 1245 101.8 35.0691 461.088
3221 0 101.242 13.5814 1375 100.185 35.3825 460.138
3222 0 105.271 12.9761 1366 101.602 34.6237 458.411
3223 0 105.255 12.0849 1272 105.501 34.9631 455.287
3224 0 112.148 12.8313 1439 101.985 34.9201 456.366
3225 0 117.221 14.1442 1658 99.6242 35.6538 453.265
3226 0 117.229 13.5462 1588 100.532 35.0422 448.783
3227 1 70.2389 12.5999 885 99.8655 34.9751 473.611
3228 0 71.0868 12.0979 860 101.257 36.2256 474.043
3229 0 73.1293 12.1702 890 100.646 35.0517 471.644
3230 0 73.3283 11.5644 848 103.521 35.6026 468.074
3231 0 74.1336 11.4793 851 104.137 35.8837 466.45
3232 0 79.1413 10.8035 855 104.93 35.3392 466.233
3233 0 80.2139 11.6439 934 103.55 35.1852 465.566
3234 0 84.1288 11.8271 995 101.965 35.3236 465.573
3235 0 86.111 12.5884 1084 101.327 34.5867 464.078
3236 0 90.1492 11.8359 1067 104.361 34.8032 462.464
3237 0 92.2702 11.4013 1052 103.408 34.096 460.088
3238 0 92.2436 10.559 974 102.26 34.6335 459.801
3239 0 99.3274 12.0611 1198 97.9299 34.3756 460.254
3240 0 100.225 11.9631 1199 99.849 34.3028 456.139
3241 0 104.252 11.5106 1200 101.489 33.9058 454.235
3242 0 104.138 10.5245 1096 104.614 33.3869 451.753
3243 0 110.123 11.5054 1267 104.765 33.4672 450.515
3244 0 111.086 10.6674 1185 109.949 33.7316 451.28
3245 0 116.16 11.7597 1366 109.242 33.6047 452.749
3246 0 121.115 13.0785 1584 107.688 33.9609 449.523
3247 0 123.134 11.7433 1446 110.122 33.3873 448.284
3248 1 67.1659 11.0622 743 103.069 33.6783 473.611
3249 0 69.146 9.79088 677 105.393 34.1669 471.904
3250 0 73.1327 12.4021 907 108.251 34.323 470.826
3251 0 73.1082 11.4351 836 110.965 33.3373 471.191
3252 0 80.1167 13.4554 1078 105.313 33.3265 470.049
3253 0 82.0751 12.8541 1055 106.919 33.128 469.961
3254 0 83.1367 11.9682 995 110.785 33.4412 466.225
3255 0 84.1201 13.029 1096 109.578 33.3148 466.281
3256 0 89.1956 12.8482 1146 110.791 33.5558 462.69
3257 0 91.1693 12.7784 1165 111.089 33.8747 465.245
3258 0 93.1087 13.2641 1235 112.039 34.1709 461.282
3259 0 96.1159 13.5253 1300 111.528 33.74 463.478
3260 0 99.1698 13.1189 1301 114.295 33.7571 461.025
3261 0 101.157 12.6042 1275 115.492 34.4471 460.595
3262 0 105.213 13.3253 1402 112.999 33.6262 461.21
3263 0 106.114 12.7127 1349 117.342 33.9444 459.848
3264 0 114.242 15.2045 1737 110.449 34.2953 452.413
3265 0 117.179 14.5759 1708 113.172 33.7717 450.552
3266 0 120.212 13.8006 1659 116.421 33.9222 454.291
3267 0 123.163 13.6973 1687 117.151 34.6426 451.778
3268 0 126.239 13.419 1694 118.375 34.6263 450.857
3269 0 131.156 13.2514 1738 110.41 35.3452 445.202
3270 0 135.228 12.2756 1660 115.207 34.7663 445.236
3271 0 139.17 11.6979 1628 117.861 35.4969 441.023
3272 0 143.273 12.9054 1849 111.764 35.1595 433.764
3273 1 80.1249 11.5694 927 113.963 35.6472 464.053
3274 0 84.1297 12.0053 1010 111.941 35.8812 464.373
3275 0 86.0713 11.4324 984 113.75 35.127 463.419
3276 0 87.1757 11.3678 991 113.821 35.11 462.418
3277 0 93.1165 12.7045 1183 110.875 35.4615 459.679
3278 0 93.1202 11.759 1095 114.785 35.3452 455.575
3279 0 97.1121 12.1715 1182 113.285 34.6531 458.394
3280 0 99.1626 11.7786 1168 114.202 34.8348 457
3281 0 102.134 11.6318 1188 114.759 34.8678 456.243
3282 0 107.207 11.6317 1247 114.204 34.6704 456.419
3283 0 111.098 12.7905 1421 113.314 35.3751 456.785
3284 0 115.247 13.38 1542 109.346 34.6187 453.311
3285 0 114.128 11.0315 1259 118.658 34.3813 449.039
3286 0 119.119 13.6754 1629 112.146 35.2038 447.153
3287 1 69.1415 11.3969 788 109.293 34.8579 475.188
3288 0 70.2396 12.1442 853 108.535 35.4912 471.834
3289 0 72.2063 12.0211 868 108.956 34.9343 470.94
3290 0 75.1698 11.9995 902 108.856 33.8969 471.271
3291 0 77.2707 12.825 991 106.526 34.2755 468.535
3292 0 82.2073 12.9672 1066 105.656 34.6726 467.153
3293 0 83.1575 12.8792 1071 105.949 34.4725 466.091
3294 0 86.1561 13.6729 1178 104.577 34.6452 464.093
3295 0 90.1247 12.6713 1142 106.206 33.9142 465.751
3296 0 92.1068 13.8752 1278 104.298 34.3748 464.318
3297 0 96.1016 13.6314 1310 105.935 34.4069 462.195
3298 0 98.0922 12.8654 1262 109.597 34.3201 459.825
3299 0 102.189 12.9662 1325 110.826 34.5819 460.176
3300 0 104.129 12.5806 1310 114.956 34.7321 458.778
3301 0 108.106 13.3757 1446 113.416 35.3112 458.37
3302 0 111.134 12.4264 1381 116.906 36.4837 456.04
3303 0 115.177 13.0495 1503 115.248 36.9894 450.053
3304 0 122.148 13.3036 1625 113.352 37.2892 451.064
3305 1 65.0737 10.5573 687 118.419 37.54 476.295
3306 0 68.1142 13.4627 917 111.983 36.988 477.814
3307 0 67.1159 11.8452 795 121.358 36.4868 473.946
3308 0 70.0872 12.0136 842 120.424 36.8076 472.268
3309 0 73.0878 12.2729 897 119.159 36.9721 471.163
3310 0 74.0797 11.6361 862 121.625 37.406 469.905
3311 0 78.0888 12.7419 995 118.265 36.9005 467.132
3312 0 80.0626 12.6026 1009 118.869 36.443 466.294
3313 0 83.1386 12.858 1069 117.971 36.9673 466.404
3314 0 85.1437 12.1677 1036 121.118 37.9846 463.123
3315 0 88.1301 11.9255 1051 121.366 37.7945 463.465
3316 0 90.0896 12.0214 1083 121.982 37.4866 460.208
3317 0 93.1065 12.9314 1204 120.179 36.8713 457.78
3318 0 95.1266 12.2784 1168 122.961 37.3408 457.496
3319 0 97.1252 13.4775 1309 120.327 36.5462 458.733
3320 0 102.123 13.5327 1382 120.044 36.5999 455.465
3321 0 103.179 12.4444 1284 123.911 36.9587 453.807
3322 0 106.277 12.0817 1284 125.757 37.0031 452.077
3323 0 110.249 11.9185 1314 126.667 36.1857 451.995
3324 0 112.11 12.9515 1452 123.185 36.6915 446.597
3325 0 114.198 13.0213 1487 124.293 36.0121 446.857
3326 0 120.154 13.7407 1651 122.704 34.4918 450.199
3327 0 124.302 12.9443 1609 125.121 34.4723 450.334
3328 0 129.254 13.7481 1777 124.427 35.0011 447.137
3329 0 132.319 13.2937 1759 125.597 34.7453 438.989
3330 1 72.0837 8.85082 638 133.245 34.116 465.854
3331 0 79.1648 11.3561 899 126.152 33.703 460.308
3332 0 78.1903 10.3593 810 121.983 34.316 462.922
3333 0 82.1265 10.6056 871 121.804 35.6843 464.637
3334 0 85.1252 10.5844 901 122.723 35.7137 464.889
3335 0 85.254 10.4746 893 124.157 35.1725 464.209
3336 0 89.1056 11.7052 1043 115.54 35.559 460.014
3337 0 92.171 11.1749 1030 118.697 35.2146 456.84
3338 0 94.2321 11.3868 1073 120.833 34.9003 455.112
3339 0 99.3594 12.017 1194 118.95 35.0578 456.147
3340 0 99.1802 11.6556 1156 122.694 34.2093 450.312
3341 0 103.145 10.6452 1098 125.727 35.2878 450.764
3342 0 107.233 11.4517 1228 122.347 35.6547 449.151
3343 0 109.208 10.9882 1200 123.888 35.1233 448.363
3344 0 111.091 11.036 1226 124.312 34.7855 446.841
3345 0 113.2 10.3445 1171 127.261 35.3015 442.652
3346 0 116.304 10.8681 1264 126.037 35.4185 440.827
3347 0 121.287 11.7654 1427 122.386 35.9713 441.54
3348 0 125.116 10.8299 1355 126.522 34.9875 439.027
3349 1 73.1445 10.322 755 125.172 35.8848 467.499
3350 0 74.1254 11.0623 820 122.587 35.6463 466.596
3351 0 79.1283 11.1591 883 121.281 37.2797 468.071
3352 0 82.0819 11.7444 964 120.207 36.7749 465.434
3353 0 83.0836 10.7001 889 124.016 36.7222 463.981
3354 0 86.1042 10.9054 939 123.625 36.5602 465.273
3355 0 89.1554 10.8126 964 124.145 36.1089 463.536
3356 0 92.2281 11.5258 1063 122.643 36.2173 462.591
3357 0 91.2463 10.8059 986 120.937 35.713 459.299
3358 0 92.324 11.1455 1029 121.575 36.1186 454.666
3359 0 99.3485 12.0284 1195 118.797 35.282 454.234
3360 0 100.341 11.3712 1141 120.81 35.2883 453.966
3361 0 105.113 12.282 1291 118.279 35.5391 457.242
3362 0 108.193 11.8769 1285 120.06 35.4319 454.267
3363 0 111.137 11.4634 1274 122.635 35.0416 453.073
3364 0 114.208 11.2689 1287 123.249 35.7374 454.026
3365 0 117.128 12.6016 1476 120.449 35.7331 449.392
3366 0 118.133 11.7072 1383 124.82 35.0557 449.645
3367 0 123.166 11.3343 1396 127.734 34.5781 444.927
3368 0 126.237 11.8032 1490 128.501 34.655 443.338
3369 0 133.161 12.7665 1700 124.438 35.3194 444.748
3370 0 137.169 12.3351 1692 127.102 34.4439 439.756
3371 0 137.242 11.549 1585 130.059 34.4978 436.471
3372 0 145.167 11.9311 1732 122.363 35.8181 440.399
3373 1 79.0943 9.36856 741 117.063 35.5088 467.03
3374 0 84.0792 9.65756 812 122.884 34.447 463.686
3375 0 83.0268 10.2617 852 123.227 35.7218 461.498
3376 0 86.071 10.8167 931 122.932 35.4855 460.085
3377 0 91.0707 11.0354 1005 122.552 36.0726 467.878
3378 0 93.1066 11.5674 1077 121.943 36.1523 465.406
3379 0 97.0922 12.0195 1167 121.706 36.3153 460.735
3380 0 100.175 12.6478 1267 120.515 36.614 454.753
3381 0 103.107 11.7353 1210 124.53 35.6769 448.921
3382 0 106.129 11.9948 1273 124.42 35.7675 447.896
3383 0 107.139 11.0884 1188 127.103 35.7189 447.146
3384 0 113.114 12.43 1406 124.209 35.7575 447.205
3385 0 115.142 12.5497 1445 124.802 36.3536 442.917
3386 0 115.129 11.6218 1338 128.368 35.7272 443.639
3387 0 122.111 13.889 1696 122.945 36.0425 441.234
3388 0 127.15 13.2993 1691 123.721 36.1668 442.49
3389 0 131.124 13.4605 1765 125.269 35.7411 442.775
3390 0 131.14 12.9633 1700 128.285 35.7588 439.879
3391 0 138.115 12.9602 1790 128.213 35.2201 437.461
3392 0 142.119 12.9891 1846 129.677 35.4642 431.248
3393 0 148.125 12.6853 1879 129.352 35.2751 432.022
3394 0 152.147 13.5658 2064 128.6 35.7103 431.145
3395 1 90.1536 11.6024 1046 128.065 36.2495 455.979
3396 0 93.1293 12.4773 1162 124.929 35.9639 446.241
3397 0 94.1008 11.6365 1095 126.717 36.6338 457.059
3398 0 97.1132 13.2732 1289 123.218 36.18 461.206
3399 0 100.223 12.3724 1240 125.136 36.1887 459.756
3400 0 102.102 12.6344 1290 123.645 36.2504 460.455
3401 0 106.108 13.6936 1453 119.893 34.329 458.554
3402 0 108.073 13.5372 1463 120.61 34.136 455.877
3403 0 110.061 12.6385 1391 124.124 35.1143 458.022
3404 0 115.127 13.8977 1600 120.46 36.2275 453.139
3405 0 118.095 12.1597 1436 124.593 35.89 454.439
3406 0 122.251 13.3741 1635 120.903 35.7505 450.582
3407 0 125.079 12.3122 1540 123.17 35.8864 450.978
3408 0 126.208 12.7251 1606 123.098 34.8219 448.54
3409 0 132.248 13.0966 1732 121.301 35.4752 441.598
3410 0 137.287 12.157 1669 124.319 35.2714 440.89
3411 0 141.129 12.0245 1697 123.064 34.4938 441.2
3412 0 147.196 13.2952 1957 121.215 34.3807 437.591
3413 1 83.1139 11.0691 920 116.917 34.0207 469.703
3414 0 87.0999 12.1585 1059 113.394 33.9679 468.356
3415 0 89.1413 11.2518 1003 117.563 34.675 465.244
3416 0 90.1464 11.6255 1048 117.719 34.3798 465.115
3417 0 93.0683 11.411 1062 119.127 33.5697 464.645
3418 0 96.1377 11.0675 1064 115.71 34.2697 458.883
3419 0 101.091 12.1969 1233 114.017 34.0981 457.309
3420 0 103.192 11.842 1222 117.036 34.27 452.411
3421 0 108.119 11.9036 1287 116.713 34.5952 456.295
3422 0 109.201 11.9321 1303 118.466 34.4551 453.926
3423 0 111.222 11.05 1229 122.367 34.2783 451.078
3424 0 115.151 11.7758 1356 120.942 33.9948 450.253
3425 0 117.275 11.5882 1359 123.186 34.5732 445.13
3426 0 122.244 11.5588 1413 122.599 34.6681 445.851
3427 0 125.197 11.8213 1480 121.174 34.4209 445.566
3428 0 128.204 13.0417 1672 119.129 34.5736 443.658
3429 0 131.218 12.2468 1607 121.231 34.6154 443.072
3430 0 135.174 11.4445 1547 122.622 34.234 438.178
3431 0 140.139 11.2032 1570 123.994 34.5236 438.854
3432 0 147.209 13.0766 1925 119.724 35.1678 436.635
3433 1 82.1068 8.45241 694 114.223 34.8876 469.179
3434 0 84.0831 9.14572 769 119.101 34.7906 463.358
3435 0 88.2311 11.3679 1003 107.849 35.7667 463.328
3436 0 90.1978 11.1311 1004 109.707 35.8785 462.053
3437 0 91.1099 11.0306 1005 111.176 36.407 460.89
3438 0 95.1809 11.3468 1080 110.814 36.5333 459.495
3439 0 97.2344 12.3207 1198 109.568 36.2529 458.063
3440 0 100.161 12.1006 1212 111.166 35.6749 456.506
3441 0 104.197 11.5743 1206 112.447 35.7371 457.35
3442 0 106.193 11.658 1238 114.092 35.9095 453.037
3443 0 109.144 12.598 1375 111.092 35.8284 455.265
3444 0 111.179 10.6135 1180 118.555 35.4831 452.174
3445 0 114.232 12.3258 1408 117.087 35.544 447.849
3446 0 118.16 11.1459 1317 121.096 36.164 447.248
3447 0 123.135 10.9392 1347 122.851 35.147 448.143
3448 1 65.1242 10.5644 688 122.185 36.0654 479.706
3449 0 68.078 12.3388 840 115.165 36.2595 479.793
3450 0 70.1971 12.5219 879 115.742 33.7611 471.267
3451 0 71.1005 12.2503 871 114.45 32.8817 475.037
3452 0 73.1956 11.6264 851 116.657 33.6827 473.623
3453 0 75.1107 12.3018 924 116.239 33.8268 472.488
3454 0 76.1173 12.5596 956 117.86 33.3985 469.667
3455 0 78.1219 13.1717 1029 116.873 32.7891 469.611
3456 0 82.0929 13.034 1070 116.812 32.8019 467.973
3457 0 84.1029 13.0435 1097 117.549 33.5141 466.082
3458 0 87.1648 12.9869 1132 117.731 33.303 466.224
3459 0 87.096 12.2623 1068 121.522 33.5 465.878
3460 0 91.137 13.5839 1238 118.993 32.1809 462.168
3461 0 93.1046 13.0713 1217 120.618 33.0896 464.769
3462 0 95.2095 12.4147 1182 122.887 33.0922 459.553
3463 0 99.1631 13.0996 1299 121.018 32.8483 460.283
3464 0 103.164 12.5528 1295 122.893 32.878 457.995
3465 1 56.0792 9.98588 560 130.5 31.8786 478.605
3466 0 59.1536 11.3434 671 128.73 32.9568 479.478
3467 0 62.0849 12.9661 805 123.839 34.6124 481.426
3468 0 62.2136 10.9783 683 132.66 34.4905 481.041
3469 0 65.1863 12.2418 798 129.163 33.6203 479.363
3470 0 67.2244 12.7335 856 127.475 34.7079 477.967
3471 0 69.0764 12.5368 866 128.4 34.851 476.52
3472 0 69.1406 12.5252 866 129.564 34.5254 475.77
3473 0 75.252 13.0495 982 125.812 34.721 475.295
3474 0 73.2618 12.5304 918 130.563 35.1176 472.653
3475 0 77.1753 13.2944 1026 127.194 34.6784 473.769
3476 0 79.1791 13.2484 1049 128.927 33.878 470.03
3477 0 81.1868 12.6252 1025 130.527 34.3307 469.956
3478 0 84.3128 12.8806 1086 129.108 34.0331 465.621
3479 0 86.4282 12.6001 1089 130.422 34.1396 464.901
3480 0 87.3317 13.3399 1165 130.967 34.0034 461.762
3481 0 88.313 11.3687 1004 135.344 34.0717 462.71
3482 0 90.1339 12.0931 1090 122.682 34.278 463.691
3483 0 93.1648 12.3759 1153 122.291 34.039 466.703
3484 0 95.2044 12.1423 1156 125.029 33.9412 464.671
3485 0 98.1425 13.5008 1325 121.796 34.4174 462.032
3486 0 102.169 13.1449 1343 123.599 34.1162 461.639
3487 0 104.196 12.918 1346 125.296 33.789 460.57
3488 0 108.116 12.8196 1386 125.922 33.7908 458.832
3489 0 110.149 12.2561 1350 129.556 33.2444 454.594
3490 0 115.065 13.5228 1556 125.185 34.1195 456.272
3491 0 116.08 12.8532 1492 128.635 33.3867 453.173
3492 0 121.146 12.6706 1535 127.936 33.5055 450.126
3493 0 127.134 13.3088 1692 125.079 33.9681 448.446
3494 0 130.067 13.1625 1712 125.877 33.8248 444.558
3495 0 133.093 12.6753 1687 129.002 33.885 442.789
3496 0 139.209 13.1529 1831 126.58 33.4604 439.298
3497 1 79.1102 10.34 818 123.166 33.2971 471.584
3498 0 83.1087 11.503 956 121.497 33.4655 472.104
3499 0 84.0809 11.81 993 121.602 33.0514 463.257
3500 0 88.0649 13.0018 1145 117.561 33.3799 466.311
3501 0 90.1113 12.2515 1104 120.25 33.9221 461.62
3502 0 92.1973 12.0069 1107 121.742 34.224 460.94
3503 0 95.1912 11.4506 1090 124.144 34.144 455.772
3504 0 99.1788 12.8052 1270 119.703 33.3496 454.68
3505 0 103.216 12.2268 1262 121.466 33.4849 457.829
3506 0 105.082 13.0184 1368 117.746 34.8304 452.512
3507 0 108.218 12.1237 1312 119.63 34.4581 454.399
3508 0 111.185 12.7175 1414 119.071 34.2532 453.042
3509 0 112.13 11.4688 1286 123.995 33.8561 451.705
3510 0 116.194 12.6684 1472 122.136 33.4905 447.66
3511 0 117.289 12.2688 1439 123.759 34.4128 448.993
3512 0 124.339 12.86 1599 120.913 33.3965 445.392
3513 0 129.162 12.3643 1597 122.142 34.3557 446.055
3514 0 132.229 13.3329 1763 119.153 34.5797 445.434
3515 0 133.357 12.8677 1716 121.01 34.6585 443.462
3516 0 138.23 12.1826 1684 123.523 34.7684 443.326
3517 0 144.227 13.7492 1983 122.678 35.2431 438.153
3518 0 148.284 11.9905 1778 129.724 35.104 437.189
3519 0 152.401 12.8936 1965 128.138 35.5517 435.772
3520 0 159.259 12.8407 2045 127.205 34.6934 432.449
3521 0 164.243 13.5957 2233 125.702 34.9637 430.531
3522 0 170.298 13.6584 2326 125.217 35.3865 426.813
3523 0 175.341 12.0622 2115 129.287 34.4005 421.639
3524 1 101.38 11.6492 1181 120.208 34.315 457.79
3525 0 104.306 12.147 1267 120.354 35.0205 456.843
3526 0 107.245 12.3269 1322 121.399 34.0083 454.227
3527 0 108.455 11.5531 1253 124.354 33.9441 452.75
3528 0 113.363 12.5085 1418 121.006 35.0353 450.019
3529 0 118.4 12.9307 1531 120.68 35.0059 447.122
3530 0 121.278 13.1681 1597 122.245 34.7658 444.897
3531 0 125.344 13.2595 1662 122.032 35.4182 446.719
3532 0 128.309 12.8752 1652 123.719 35.1701 443.923
3533 0 131.536 12.3464 1624 125.668 34.4083 442.628
3534 0 136.352 13.4065 1828 122.949 34.215 440.204
3535 0 139.349 12.013 1674 127.845 34.9922 436.057
3536 0 143.437 12.8488 1843 125.492 34.8861 434.907
3537 0 148.303 13.5533 2010 123.868 34.5766 435.895
3538 0 154.335 13.6262 2103 122.939 34.5069 437.474
3539 0 158.248 14.3888 2277 123.38 35.0523 431.476
3540 0 163.368 13.1237 2144 128.208 35.4865 429.11
3541 0 167.392 13.0352 2182 128.464 35.4565 422.638
3542 0 173.351 13.614 2360 126.554 35.5453 423.235
3543 0 177.341 12.7381 2259 128.69 35.1926 421.49
3544 0 185.453 14.3163 2655 125.406 35.3122 417.471
3545 0 186.42 13.1048 2443 129.608 35.4572 416.038
3546 0 193.488 12.8535 2487 130.548 34.8854 414.586
3547 0 200.535 14.0424 2816 128.318 34.8999 409.97
3548 0 206.374 13.65 2817 130.569 34.945 406.007
3549 0 214.374 14.0502 3012 128.399 34.7782 401.633
3550 0 221.365 14.0808 3117 128.914 34.4841 399.565
3551 0 225.378 14.0298 3162 129.522 34.6148 397.597
3552 0 234.339 14.4278 3381 128.775 35.081 393.662
3553 0 240.514 13.7539 3308 131.303 35.2542 391.336
3554 0 248.523 13.8337 3438 131.095 35.3953 385.97
3555 0 257.599 14.0063 3608 128.778 35.6608 383.892
3556 1 198.302 12.4204 2463 131.069 35.2911 415.054
3557 1 63.069 11.2099 707 112.967 36.5785 482.199
3558 0 63.046 12.0071 757 114.894 36.5403 478.816
3559 0 64.0573 10.8965 698 116.582 36.8524 479.864
3560 0 65.0928 11.5527 752 113.906 36.9455 479
3561 0 67.069 12.8972 865 112.531 36.7202 476.871
3562 0 70.2322 10.7073 752 119.069 34.1928 473.158
3563 0 71.2402 9.91013 706 120.167 34.6926 475.542
3564 0 73.1092 9.90299 724 121.506 35.6064 471.682
3565 0 78.1395 12.0554 942 116.373 35.7144 470.528
3566 0 80.2088 10.6721 856 119.681 35.0292 471.179
3567 0 82.1664 11.3185 930 119.02 34.5226 469.647
3568 0 85.1344 12.1455 1034 116.582 34.5658 468.51
3569 0 87.1697 12.3208 1074 118.017 35.4534 466.312
3570 0 89.1454 11.3859 1015 120.114 34.9389 465.792
3571 0 88.176 11.5905 1022 120.425 34.7984 466.019
3572 0 94.1762 14.2286 1340 111.684 34.591 462.263
3573 0 93.2287 13.6224 1270 115.523 34.652 465.151
3574 0 95.115 13.3523 1270 117.224 33.8488 464.093
3575 0 99.209 13.0633 1296 118.25 35.2168 463.898
3576 0 101.122 13.6172 1377 116.303 34.8867 462.121
3577 0 99.2743 10.9192 1084 115.359 34.9456 461.673
3578 0 104.125 11.928 1242 112.257 34.7013 460.956
3579 0 107.306 13.1027 1406 115.725 35.1543 456.521
3580 1 62.2904 10.2905 641 114.602 36.0109 478.273
3581 0 67.2542 12.1777 819 112.306 34.5507 466.717
3582 0 68.2082 12.1833 831 113.839 35.5283 453.215
3583 0 67.2559 11.2258 755 117.095 35.4252 453.264
3584 0 71.2148 12.708 905 113.099 34.2785 448.856
3585 0 74.2017 13.5576 1006 110.089 35.7316 450.29
3586 0 77.2161 13.7148 1059 108.431 36.0642 451.59
3587 0 76.0661 12.5943 958 113.995 36.3434 448.372
3588 0 77.0676 10.7438 828 118.831 35.6099 449.42
3589 0 81.1175 12.8086 1039 113.894 35.9808 450.405
3590 0 83.093 12.5763 1045 114.272 35.8708 448.392
3591 0 86.1734 12.8346 1106 113.424 36.283 449.951
3592 0 87.1282 12.8661 1121 114.22 36.2632 449.172
3593 0 89.226 12.855 1147 114.975 35.9869 450.826
3594 0 91.1379 12.6073 1149 116.523 35.8303 452.222
3595 0 94.1029 11.7956 1110 118.924 35.3946 452.835
3596 0 95.1484 12.9692 1234 117.192 36.0989 455.479
3597 0 97.206 12.993 1263 117.017 35.6952 460.882
3598 0 102.195 14.1592 1447 113.851 36.1555 459.672
3599 0 104.23 13.1057 1366 117.995 36.0849 457.751
3600 0 109.236 13.0359 1424 118.266 35.9916 457.079
3601 0 109.185 13.6832 1494 118.795 36.7316 449.738
3602 0 119.255 17.3494 2069 107.061 35.7463 448.768
3603 0 116.22 12.7947 1487 122.711 36.6866 448.392
3604 0 121.232 13.371 1621 122.427 36.2048 447.413
3605 0 123.296 13.2932 1639 123.777 36.5095 445.621
3606 0 128.217 14.1713 1817 121.226 35.9626 443.455
3607 1 79.0431 12.0567 953 114.073 35.3169 466.595
3608 0 81.2459 9.95742 809 118.787 35.5278 465.4
3609 0 82.0417 10.8238 888 116.178 36.6982 462.399
3610 0 82.0862 11.1956 919 117.213 35.4015 459.106
3611 0 89.0611 12.4746 1111 113.338 34.8299 459.086
3612 0 91.05 12.2021 1111 115.39 34.7741 455.631
3613 0 96.088 12.3949 1191 108.154 35.2015 456.741
3614 0 96.0997 13.0177 1251 108.842 35.5212 455.247
3615 0 101.096 13.1658 1331 107.279 35.4778 454.978
3616 0 102.078 12.2063 1246 109.978 34.8186 452.562
3617 0 107.144 12.8426 1376 103.201 36.21 452.84
3618 0 108.093 13.2108 1428 103.269 35.6331 453.52
3619 0 112.214 12.3335 1384 107.083 36.2334 448.095
3620 0 117.165 12.6147 1478 107.137 35.5785 445.804
3621 0 119.201 12.0889 1441 108.373 36.4351 444.718
3622 0 123.304 12.7003 1566 108.135 36.1807 443.051
3623 0 125.292 10.9344 1370 112.487 36.6679 437.986
3624 1 75.0736 10.2166 767 101.613 35.8957 470.947
3625 0 75.1258 11.6338 874 105.328 36.786 465.542
3626 0 78.0824 11.808 922 104.863 37.1952 462.726
3627 0 80.0911 11.6617 934 106.147 37.5482 462.697
3628 0 84.1047 11.2479 946 106.49 36.8192 462.288
3629 0 85.0813 10.1785 866 102.636 36.2829 460.113
3630 0 85.0477 10.7822 917 102.237 36.3064 457.386
3631 0 90.0543 10.5159 947 102.452 36.1922 458.062
3632 0 95.1207 11.7955 1122 98.7692 35.9055 458.469
3633 0 99.0507 12.3775 1226 97.429 35.783 460.156
3634 0 102.131 11.5147 1176 99.6854 35.9192 456.786
3635 0 103.089 10.9323 1127 102.138 36.5342 452.673
3636 0 107.062 11.0124 1179 101.194 35.9423 452.395
3637 0 108.197 10.7582 1164 102.693 35.4751 447.833
3638 0 116.2 11.0585 1285 101.005 35.9642 449.772
3639 0 111.159 10.2016 1134 103.354 35.4127 448.004
3640 0 117.123 10.7579 1260 102.525 36.3492 444.172
3641 0 125.104 10.6631 1334 102.621 36.6904 441.822
3642 0 127.137 10.4219 1325 103.948 35.4815 439.891
3643 0 126.117 10.9026 1375 103.88 35.7193 437.935
3644 0 132.115 10.3698 1370 104.774 36.4438 434.582
3645 0 137.096 10.8829 1492 104.397 36.0724 430.446
3646 0 144.178 11.5482 1665 102.992 35.5982 425.976
3647 0 149.215 10.1129 1509 106.484 35.3055 426.898
3648 0 150.252 11.92 1791 110.307 34.5081 421.991
3649 0 155.201 11.6945 1815 110.147 34.1658 419.186
3650 0 160.166 10.9636 1756 113.752 34.4442 414.577
3651 1 94.0428 10.8568 1021 104.456 35.2302 457.546
3652 0 101.186 11.8297 1197 101.923 34.8496 458.342
3653 0 100.092 10.7701 1078 106.998 34.3117 454.195
3654 0 106.067 11.9642 1269 104.251 34.7526 454.058
3655 0 109.126 12.4168 1355 104.32 34.6133 451.092
3656 0 114.055 12.2046 1392 104.677 34.6918 451.932
3657 0 117.164 11.9917 1405 105.577 34.5473 449.813
3658 1 66.0749 10.0795 666 99 34.8754 477.414
3659 0 67.0882 11.3731 763 95.3329 34.768 474.822
3660 0 67.0414 10.6054 711 92.0197 35.5373 469.997
3661 0 71.0571 9.96382 708 92.0339 34.702 472.634
3662 0 71.0561 10.6676 758 92.2955 34.496 472.05
3663 0 73.0929 9.27587 678 96.0708 34.8643 466.86
3664 0 77.1388 11.071 854 91.452 35.4227 471.609
3665 0 81.2379 10.9678 891 92.0168 35.1582 469.909
3666 0 84.1625 11.2996 951 91.5542 34.4963 468.571
3667 0 85.1234 10.6786 909 93.5996 35.1221 468.669
3668 0 87.1645 11.507 1003 92.9511 34.5254 467.406
3669 0 91.1802 11.6692 1064 92.6927 34.9756 467.669
3670 0 92.1009 12.128 1117 93.5819 34.9517 464.357
3671 0 96.1944 12.0901 1163 93.9011 34.939 461.236
3672 0 98.0884 11.8872 1166 94.9331 34.9031 462.153
3673 0 100.102 11.5382 1155 96.7004 34.9792 460.608
3674 0 102.196 10.7147 1095 99.7507 34.21 459.487
3675 0 107.094 11.5879 1241 98.7284 34.4746 457.761
3676 0 112.173 12.6946 1424 97.8216 34.6735 456.306
3677 0 114.104 12.5499 1432 100.214 34.2849 454.689
3678 0 118.097 12.4643 1472 100.664 34.4925 451.979
3679 0 120.146 12.2851 1476 102.033 33.6043 454.376
3680 0 126.135 13.0337 1644 103.286 33.7172 452.023
3681 0 129.189 13.8712 1792 103.376 33.6496 449.716
3682 0 133.125 13.2357 1762 104.942 34.0096 445.892
3683 0 139.283 13.469 1876 103.804 33.0714 444.149
3684 1 81.0903 11.1727 906 103.797 32.9945 474.94
3685 0 83.0881 12.4326 1033 102.162 33.2914 474.471
3686 0 84.1026 13.0555 1098 102.981 32.8024 468.351
3687 0 89.1064 12.0642 1075 108.764 32.6707 469.133
3688 0 90.2208 11.6381 1050 110.305 32.7714 468.622
3689 0 95.1681 12.8089 1219 106.483 32.7071 468.049
3690 0 96.0737 12.4384 1195 107.967 32.2921 466.85
3691 0 100.156 13.3791 1340 105.663 32.7097 464.868
3692 0 102.209 13.7659 1407 105.059 33.6553 461.797
3693 0 105.223 12.9534 1363 107.28 33.4607 461.737
3694 0 107.206 14.0011 1501 105.306 33.6882 457.589
3695 0 111.282 13.7039 1525 106.606 33.8774 458.572
3696 0 114.296 13.745 1571 106.819 33.1916 457.174
3697 0 112.271 12.4699 1400 110.924 32.5514 456.714
3698 0 121.288 13.6123 1651 108.191 33.4525 454.079
3699 0 123.404 11.9121 1470 110.859 33.6367 453.947
3700 0 125.585 12.39 1556 111.345 33.5521 450.003
3701 0 131.39 12.7711 1678 110.631 33.3689 445.777
3702 0 133.377 12.3334 1645 111.899 33.1173 447.65
3703 0 139.202 12.0616 1679 112.415 32.9404 443.519
3704 0 145.366 13.8753 2017 108.544 33.2276 442.311
3705 0 149.368 13.3027 1987 109.66 32.5058 440.156
3706 0 152.467 12.1469 1852 113.492 33.6776 434.256
3707 0 159.584 14.049 2242 109.822 34.008 431.551
3708 0 165.323 13.64 2255 110.603 33.0807 430.807
3709 0 169.569 14.2243 2412 109.49 33.738 428.521
3710 0 175.668 12.8994 2266 111.833 33.4073 424.276
3711 0 181.92 14.0501 2556 108.975 32.5559 422.706
3712 0 188.891 14.8604 2807 106.537 32.6299 417.19
3713 0 190.632 11.8395 2257 115.075 32.6695 411.664
3714 0 199.623 13.9513 2785 109.427 33.1677 412.164
3715 0 203.537 13.8107 2811 109.536 33.4482 404.602
3716 0 210.455 13.9982 2946 109.081 32.9389 408.471
3717 0 215.561 13.6527 2943 110.69 32.9813 403.52
3718 0 222.415 14.4729 3219 109.238 32.8549 398.382
3719 0 228.403 14.0848 3217 110.476 32.438 392.451
3720 0 234.425 13.7229 3217 111.677 32.7613 390.357
3721 0 242.446 13.1534 3189 114.496 32.7002 387.323
3722 1 58.1148 10.6513 619 92.7334 34.5525 486.491
3723 0 61.1552 12.5419 767 89.4146 34.7106 484.61
3724 0 61.0366 11.5504 705 93.2723 33.8355 483.101
3725 0 65.038 11.3165 736 93.3465 34.6508 482.765
3726 0 64.0778 10.7526 689 96.5646 35.1524 479.655
3727 0 67.0565 11.6469 781 95.1882 34.4994 480.379
3728 0 69.1171 11.6324 804 96.5087 34.3607 476.316
3729 0 70.0962 11.0277 773 99.1539 34.1734 473.317
3730 0 73.1142 10.5041 768 100.115 34.0065 475.266
3731 0 78.0749 12.9235 1009 95.7294 34.114 474.881
3732 0 78.0725 12.1682 950 98.0695 34.0589 472.601
3733 0 81.0913 11.9618 970 99.0392 34.8103 469.302
3734 0 84.109 12.3411 1038 98.0347 34.5222 469.742
3735 0 91.2008 14.8135 1351 90.0044 34.6788 447.401
3736 0 96.172 15.0356 1446 89.1625 34.5989 446.622
3737 0 97.1533 14.8425 1442 93.4404 34.0201 408.173
3738 0 102.243 15.786 1614 89.1865 34.2993 402.219
3739 0 102.145 17.2108 1758 88.2548 34.1268 404.424
3740 0 98.1225 13.0042 1276 101.619 33.9107 405.955
3741 0 101.098 12.3642 1250 103.55 34.2448 411.966
3742 0 102.249 11.1884 1144 105.236 34.0044 420.223
3743 0 105.214 11.1963 1178 106.535 33.9346 428.381
3744 0 105.159 10.8408 1140 107.675 33.5877 436.919
3745 0 111.217 11.5899 1289 106.078 35.0497 447.133
3746 0 114.162 12.4472 1421 104.224 34.1323 452.436
3747 0 119.149 13.7307 1636 102.051 34.0049 448.336
3748 0 121.126 12.7388 1543 104.862 34.0207 447.914
3749 0 125.139 12.4182 1554 105.533 34.6538 449.218
3750 0 130.172 13.5666 1766 102.958 34.7039 446.434
3751 1 83.241 10.1873 848 102.517 34.0165 469.746
3752 0 82.1362 11.8096 970 102.202 34.6289 466.496
3753 0 87.2174 13.0135 1135 94.1982 34.2793 466.137
3754 0 86.1095 11.706 1008 98.7054 34.6667 463.613
3755 0 91.149 11.9146 1086 98.6464 34.8066 463.731
3756 0 91.1525 10.6305 969 102.97 35.3055 461.461
3757 0 97.2197 12.7649 1241 97.5351 35.3505 462.582
3758 0 97.2265 11.4475 1113 102.747 35.31 451.004
3759 0 99.1722 11.1422 1105 105.693 35.5131 453.543
3760 0 106.375 12.1269 1290 103.059 35.9124 455.642
3761 0 108.189 12.0715 1306 105.754 36.4464 456.294
3762 0 111.201 11.9153 1325 107.522 36.2506 450.986
3763 0 116.322 10.9695 1276 109.957 35.6693 448.623
3764 0 120.259 12.4232 1494 106.815 35.3454 442.981
3765 0 121.259 10.993 1333 111.253 35.4336 440.127
3766 1 72.1959 9.00328 650 101.966 35.8754 472.443
3767 0 76.0837 11.6714 888 100.546 36.6014 471.441
3768 0 75.2056 10.6242 799 100.158 36.4393 466.049
3769 0 76.1489 11.0442 841 100.468 36.5898 463.445
3770 0 77.131 9.97005 769 103.888 35.9623 462.757
3771 0 81.1971 10.9117 886 102.095 36.6467 462.307
3772 0 85.2012 10.7393 915 103.345 36.1563 458.882
3773 0 88.265 11.3635 1003 102.296 37.1645 460.409
3774 0 90.1935 11.0429 996 103.025 36.488 459.402
3775 0 93.1351 11.9826 1116 104.211 37.7616 461.248
3776 0 98.1354 12.442 1221 102.468 37.5127 460.925
3777 0 101.163 12.8308 1298 101.46 36.6433 463.3
3778 0 101.089 12.3554 1249 105.058 36.9616 459.569
3779 0 107.149 12.9259 1385 103.318 37.226 458.816
3780 0 109.124 12.6737 1383 104.521 37.8279 458.666
3781 0 112.168 11.8839 1333 108.018 37.1523 456.062
3782 0 115.1 12.9974 1496 106.516 37.1778 451.104
3783 0 118.213 11.8684 1403 109.398 36.8446 452.073
3784 0 120.2 12.762 1534 107.777 37.0991 447.58
3785 0 124.167 11.7262 1456 110.586 37.2225 448.562
3786 0 127.152 11.6081 1476 111.675 37.6301 448.716
3787 0 130.151 11.4866 1495 111.294 37.5438 443.873
3788 0 136.158 12.2431 1667 109.015 37.4049 443.533
3789 0 139.169 11.6693 1624 110.591 37.016 443.829
3790 0 142.222 11.4469 1628 113.756 36.3937 439.382
3791 0 147.384 12.1452 1790 114.575 36.5581 437.365
3792 1 85.1122 10.1278 862 113.91 36.7796 470.756
3793 0 90.0942 12.6756 1142 114.354 36.6086 465.546
3794 0 93.2024 13.0683 1218 113.785 36.8949 464.667
3795 0 94.1684 12.8812 1213 116.669 36.4114 458.88
3796 0 97.2096 11.0586 1075 120.937 37.0763 458.66
3797 0 102.186 12.9079 1319 116.058 36.3639 457.928
3798 0 103.157 13.2322 1365 115.511 36.2615 456.382
3799 0 106.139 12.5496 1332 116.378 36.723 455.623
3800 0 109.199 12.546 1370 117.114 36.2912 451.892
3801 0 112.158 13.4007 1503 113.866 36.4691 451.887
3802 0 114.179 12.0074 1371 114.907 36.6054 452.581
3803 0 118.126 12.8677 1520 113.472 35.9684 449.624
3804 0 123.24 13.3722 1648 111.465 36.5789 448.64
3805 0 127.268 13.0198 1657 110.832 36.061 447.162
3806 1 73.2112 11.1595 817 114.592 37.4578 470.417
3807 0 74.1862 11.5251 855 111.03 34.4643 470.757
3808 0 76.0898 12.2224 930 106.524 34.7527 473.674
3809 0 79.0644 13.1159 1037 106.559 34.2363 470.203
3810 0 81.1042 11.9353 968 109.04 33.8564 468.116
3811 0 84.0303 11.8053 992 110.147 34.2722 469.641
3812 0 87.0652 11.8762 1034 110.595 33.9981 465.821
3813 0 90.0554 13.2696 1195 107.81 34.4109 466.172
3814 0 92.0936 13.0519 1202 107.687 35.0208 465.644
3815 0 96.0966 14.1732 1362 104.959 34.3524 462.729
3816 0 99.2107 13.9299 1382 105.364 35.9978 462.2
3817 0 100.042 13.2644 1327 107.879 35.2999 462.4
3818 0 103.054 13.8374 1426 107.527 34.317 456.772
3819 0 108.106 13.755 1487 107.615 34.0531 457.562
3820 0 110.102 13.9961 1541 107.625 34.1888 453.473
3821 0 114.102 14.6185 1668 105.472 34.5935 451.919
3822 0 118.135 14.4834 1711 105.6 34.8761 451.36
3823 0 119.139 14.0088 1669 107.589 34.7052 448.688
3824 0 121.158 13.6104 1649 108.449 34.8872 446.331
3825 0 127.15 14.7779 1879 104.371 34.8441 447.895
3826 0 128.122 14.0959 1806 107.391 35.0321 447.734
3827 0 132.158 13.8395 1829 106.497 35.3658 446.689
3828 0 137.135 12.9799 1780 108.16 34.9152 447.141
3829 1 77.0168 11.6598 898 108.345 35.4421 472.562
3830 0 81.0827 12.9991 1054 104.58 34.7533 471.931
3831 0 82.1755 13.1183 1078 100.458 35.6753 470.491
3832 0 85.0921 12.0458 1025 98.1151 35.2244 467.164
3833 0 87.1221 12.6604 1103 96.8214 35.126 465.974
3834 0 91.1077 12.6883 1156 97.423 35.1021 465.208
3835 0 93.0973 11.88 1106 100.379 34.5045 463.631
3836 0 95.0879 11.6734 1110 103.141 34.0081 462.428
3837 0 100.179 12.6573 1268 100.883 34.6964 464.115
3838 0 101.083 12.5442 1268 101.853 34.8241 457.987
3839 0 102.154 11.884 1214 104.913 34.3394 456.308
3840 0 106.1 12.3846 1314 103.663 34.812 457.67
3841 0 109.212 11.4456 1250 106.519 34.7224 454.81
3842 0 112.296 11.3451 1274 109.047 34.5471 451.73
3843 0 115.196 11.6324 1340 108.79 34.3821 449.332
3844 0 116.256 10.7263 1247 111.117 34.6872 448.303
3845 0 120.177 11.1918 1345 109.026 34.9628 449.284
3846 0 125.281 11.542 1446 108.955 35.184 446.513
3847 0 128.196 11.8647 1521 109.558 34.3195 445.151
3848 0 132.217 11.8896 1572 109.632 34.6101 442.588
3849 0 136.13 11.9959 1633 108.669 34.8047 440.966
3850 0 142.272 12.5113 1780 107.525 35.1506 437.29
3851 1 87.0631 11.6467 1014 103.824 34.8679 469.966
3852 0 88.1008 11.8841 1047 106.831 34.4947 467.679
3853 0 92.0864 13.2484 1220 102.645 34.4566 466.813
3854 0 93.1546 12.2377 1140 100.437 34.964 461.297
3855 0 94.1448 10.675 1005 105.472 35.6836 457.605
3856 0 98.1802 12.4669 1224 101.734 34.9583 456.161
3857 0 102.256 12.2731 1255 102.46 35.4454 457.088
3858 0 104.133 11.9846 1248 103.865 35.9647 455.498
3859 0 107.181 11.8304 1268 107.45 35.3675 452.061
3860 0 109.185 12.3826 1352 106.479 35.5399 450.789
3861 0 114.11 13.338 1522 104.68 36.0677 450.644
3862 0 115.238 12.5479 1446 109.729 35.6611 447.473
3863 0 120.127 13.6106 1635 107.48 35.9113 448.333
3864 0 123.151 13.4469 1656 109.586 35.3587 444.6
3865 0 125.172 13.7411 1720 109.795 36.0384 442.519
3866 0 130.129 13.4097 1745 112.606 35.3731 439.809
3867 0 134.189 12.9668 1740 115.11 35.0282 440.357
3868 0 139.218 12.5272 1744 116.739 35.1898 439.613
3869 1 79.0971 9.03952 715 114.915 35.3315 467.687
3870 0 82.0825 11.4641 941 109.464 35.2253 467.553
3871 0 86.067 12.2114 1051 109.038 35.2873 465.01
3872 0 88.1973 11.8938 1049 102.931 35.4156 465.241
3873 0 91.1928 11.5141 1050 103.765 35.6133 465.051
3874 0 92.0438 11.9291 1098 104.697 35.0902 458.838
3875 0 94.0739 10.7362 1010 108.653 35.3109 457.563
3876 0 99.0913 11.9082 1180 106.827 34.2364 456.811
3877 0 104.112 12.9572 1349 103.941 35.7917 456.58
3878 0 105.132 12.9932 1366 105.541 35.3748 454.429
3879 0 108.104 12.229 1322 108.995 35.4879 454.451
3880 0 110.188 13.2773 1463 107.379 35.7362 453.506
3881 0 114.076 12.3251 1406 110.879 35.2795 450.777
3882 0 116.055 12.6664 1470 111.5 35.1694 449.991
3883 0 118.11 12.1327 1433 114.532 34.8535 446.895
3884 0 123.178 11.4225 1407 115.972 34.5458 448.663
3885 0 126.173 12.0549 1521 115.335 35.6463 443.832
3886 0 132.148 13.2503 1751 111.958 35 442.378
3887 0 138.147 13.1672 1819 112.995 34.1083 440.999
3888 0 143.2 13.5335 1938 112.918 34.8922 442.158
3889 0 147.178 13.7112 2018 114.221 35.7101 440.034
3890 0 151.201 13.3333 2016 116.309 34.3919 439.034
3891 0 154.25 12.9076 1991 122.619 34.12 432.766
3892 0 162.303 13.7213 2227 120.201 34.5083 432.243
3893 0 165.34 13.318 2202 123.217 34.9024 428.672
3894 0 171.281 13.3057 2279 123.749 34.9232 429.827
3895 0 177.273 13.2903 2356 123.743 33.8141 428.409
3896 1 102.161 12.4803 1275 116.862 34.1992 466.523
3897 0 103.151 12.2442 1263 120.117 34.1591 464.447
3898 0 107.231 12.4497 1335 122.269 34.6037 459.073
3899 0 107.123 11.7901 1263 123.174 33.6651 460.281
3900 0 113.143 12.8864 1458 119.598 34.5261 457.878
3901 0 116.304 12.5791 1463 121.077 34.9795 456.695
3902 0 121.267 12.9137 1566 119.729 35.0632 457.223
3903 0 124.183 12.4816 1550 125.865 35.1684 452.016
3904 0 127.313 12.4496 1585 125.592 35.5628 451.626
3905 0 131.447 13.5644 1783 121.418 34.9804 448.693
3906 0 135.352 11.9097 1612 128.997 34.9045 446.648
3907 0 138.456 12.2349 1694 127.054 34.9776 444.843
3908 0 143.269 13.0174 1865 125.817 35.3271 443.864
3909 0 148.335 12.5459 1861 128.647 36.2531 441.535
3910 0 152.395 11.6999 1783 131.661 35.9484 438.858
3911 0 157.353 13.3903 2107 127.857 35.047 430.254
3912 0 162.279 12.7065 2062 129.503 35.0616 434.727
3913 0 167.256 13.3867 2239 127.295 35.5315 435.338
3914 0 170.306 11.9608 2037 132.737 34.6357 428.052
3915 0 176.197 12.2874 2165 132.947 34.7557 430.534
3916 0 181.201 11.8598 2149 134.628 33.919 426.232
3917 0 188.19 13.1038 2466 130.931 33.7725 423.416
3918 0 193.324 13.4903 2608 130.464 32.9375 420.895
3919 0 197.234 13.1417 2592 133.786 33.576 419.768
3920 0 203.369 12.3864 2519 136.519 34.0981 417.14
3921 1 46.0648 9.81226 452 121.226 33.1173 490.274
3922 0 47.1549 11.0911 523 115.185 32.6138 486.885
3923 0 47.0211 10.3571 487 110.32 34.23 485.195
3924 0 47.0928 10.681 503 117.066 35.165 490.918
3925 0 48.0637 10.819 520 118.125 35.3019 488.744
3926 0 52.0933 11.2683 587 116.743 34.4855 490.843
3927 0 55.2658 13.806 763 108.363 33.3958 485.406
3928 0 54.2333 12.0406 653 115.887 34.4288 486.021
3929 0 57.2502 12.4366 712 113.701 34.7374 486.809
3930 0 55.247 11.4938 635 117.828 34.2724 487.301
3931 0 59.2677 12.0133 712 115.683 34.1798 484.476
3932 0 60.3126 12.7171 767 113.14 34.1408 484.093
3933 0 62.278 13.0383 812 112.334 34.1933 483.454
3934 0 64.2928 12.4897 803 114.296 34.2354 482.03
3935 0 65.2819 13.2655 866 111.518 34.679 482.76
3936 0 69.1845 12.5606 869 113.419 34.3222 481.268
3937 0 69.0935 12.4035 857 114.042 33.3559 481.065
3938 0 71.0802 12.9572 921 112.476 33.5071 480.505
3939 0 72.2797 12.2026 882 121.788 33.2676 477.778
3940 0 73.146 11.2378 822 120.2 33.4221 474.63
3941 0 76.1622 11.9482 910 117.437 33.8396 470.367
3942 0 77.1339 10.566 815 122.55 33.427 473.107
3943 0 80.1364 11.2683 903 118.9 33.5858 476.793
3944 0 80.1656 12.1873 977 118.992 32.9816 469.313
3945 0 86.039 12.5524 1080 117.802 32.9019 472.118
