time division length width area intensity CMx CMy
0 0 46.0566 11.6813 538 144.059 808.374 477.519
1 0 48.0406 12.198 586 141.677 808.773 477.408
2 0 50.0277 11.0939 555 144.685 809.496 478.049
3 0 51.0592 12.084 617 141.363 809.438 476.911
4 0 52.071 12.5598 654 140.388 808.593 477.125
5 0 52.071 12.579 655 127.882 807.582 477.147
6 0 55.0373 11.6467 641 143.766 808.889 475.54
7 0 54.0455 11.6753 631 144.204 809.127 474.77
8 0 59.1087 12.2655 725 138.557 808.928 475.05
9 0 59.0363 12.0604 712 140.555 809.117 474.164
10 0 62.0281 13.0747 811 136.75 808.15 473.094
11 0 62.0407 11.6859 725 141.663 808.793 472.143
12 0 67.1139 12.7246 854 137.026 807.814 471.11
13 0 69.081 12.4781 862 137.365 807.363 470.278
14 0 72.0316 12.6611 912 137.388 807.567 468.266
15 1 37.0171 10.5357 390 142.226 808.003 487.136
16 0 39.0738 11.8494 463 138.123 807.618 486.067
17 0 41.0888 11.828 486 136.537 808.031 485.949
18 0 42.0164 11.8049 496 135.962 807.022 485.635
19 0 40.0286 11.7166 469 135.401 807.968 487.036
20 0 42.0098 12.8779 541 129.797 806.348 487.266
21 0 41.0157 11.1665 458 138.011 806.179 485.753
22 0 44.0148 12.0641 531 131.556 806.079 486.889
23 0 45.1216 12.6104 569 130.863 806.269 485.51
24 0 47.0741 12.321 580 129.926 805.241 485.471
25 0 47.059 11.9212 561 132.497 805.196 483.752
26 0 49.0423 11.8469 581 129.79 805.873 486.392
27 0 51.1675 13.8369 708 124.232 806.332 482.484
28 0 54.084 13.1092 709 125.568 805.3 481.487
29 0 53.0883 12.5075 664 128.446 805.69 480.783
30 0 54.0744 12.5568 679 127.702 804.918 482.58
31 0 57.0741 12.475 712 127.382 804.698 478.958
32 0 58.0853 12.0512 700 128.189 804.471 479.161
33 0 62.0761 12.098 751 127.19 805.109 477.895
34 0 64.0824 11.9534 766 126.112 804.372 478.611
35 0 67.0886 11.7307 787 126.394 804.999 477.692
36 0 69.1414 12.4817 863 125.422 804.638 474.397
37 0 70.0914 11.057 775 129.452 804.576 473.855
38 0 75.1257 12.0065 902 125.159 804.111 473.562
39 0 78.0927 13.5992 1062 121.141 804.823 471.202
40 0 79.0752 12.583 995 123.798 804.476 470.406
41 0 81.0642 12.3729 1003 125.093 804.275 468.184
42 0 85.096 11.6574 992 124.77 804.302 470.3
43 0 88.1102 12.3255 1086 123.823 805.24 463.103
44 0 92.2145 13.1433 1212 121.133 805.023 463.791
45 0 96.1617 13.2589 1275 119.786 804.609 460.627
46 0 97.1588 12.6597 1230 120.838 804.557 459.454
47 0 102.107 12.1637 1242 123.778 804.883 460.341
48 0 108.137 14.944 1616 115.652 804.415 458.045
49 0 108.176 12.1746 1317 124.034 803.49 458.023
50 0 110.236 11.2849 1244 126.674 803.513 458.572
51 0 115.172 11.6955 1347 122.991 804.376 457.86
52 0 120.228 13.1002 1575 119.379 803.688 453.693
53 0 125.185 12.4376 1557 119.844 804.319 452.83
54 1 65.0949 14.1947 924 118.076 803.985 477.344
55 0 69.0485 13.0198 899 119.775 804.103 478.531
56 0 71.0885 14.8266 1054 116.211 804.138 475.363
57 0 76.0647 15.4211 1173 114.712 802.654 473.42
58 0 77.0471 13.1608 1014 121.844 803.319 470.839
59 0 82.0381 13.2012 1083 120.952 803.974 471.395
60 0 85.0455 14.31 1217 118.577 803.88 470.023
61 0 88.0998 13.7004 1207 121.098 804.032 468.459
62 0 89.0495 12.0495 1073 125.346 803.207 468.314
63 0 94.1254 14.4488 1360 118.342 802.55 465.924
64 1 49.0756 10.1069 496 122.609 803.123 487.774
65 0 49.0331 11.9919 588 120.31 804.071 486.617
66 0 51.0569 11.6341 594 118.658 803.752 486.175
67 0 52.0734 13.577 707 115.614 803.658 484.54
68 0 53.0766 11.2856 599 117.619 803.609 485.499
69 0 55.0555 12.0061 661 115.802 803.11 485.858
70 0 56.0291 13.2074 740 114.201 803.619 484.258
71 0 59.0579 12.7163 751 114.883 803.317 482.557
72 0 61.1026 13.5182 826 113.056 802.774 482.309
73 0 64.043 13.7095 878 114.006 803.355 481.575
74 0 65.08 12.8918 839 118.65 804.186 480.696
75 0 67.0852 12.745 855 117.53 803.648 480.604
76 0 69.1169 13.2529 916 118.986 803.428 476.624
77 0 72.0879 12.4709 899 119.711 803.731 477.803
78 0 75.1699 14.0881 1059 116.098 803.632 475.246
79 0 78.0823 13.7547 1074 117.89 803.654 474.477
80 0 79.1263 13.4595 1065 119.596 803.543 472.805
81 0 82.1744 13.6904 1125 118.552 803.171 471.996
82 0 86.155 14.4507 1245 116.87 804.002 468.984
83 0 87.1235 13.9113 1212 118.827 803.606 470.418
84 0 90.2059 14.3117 1291 117.998 804.156 469.677
85 0 90.1303 11.905 1073 125.02 803.57 465.956
86 0 94.1146 13.3879 1260 119.505 802.879 465.116
87 0 98.136 13.1348 1289 118.028 803.027 460.769
88 0 99.1413 12.4166 1231 119.95 802.352 456.827
89 0 105.144 13.0868 1376 118.895 802.443 459.363
90 1 57.0912 9.98403 570 117.707 803.379 484.821
91 0 61.0475 11.8269 722 118.733 803.598 482.767
92 0 64.0597 13.0191 834 117.177 801.987 482.578
93 0 63.0915 12.0618 761 114.647 802.41 483.742
94 0 66.0474 11.522 761 115.773 802.435 483.051
95 0 67.0394 11.4261 766 118.594 802.129 481.422
96 0 71.031 12.4875 887 115.882 802.028 480.242
97 0 73.0524 12.2789 897 118.205 802.658 477.514
98 0 75.0655 12.7089 954 118.431 802.085 476.072
99 0 79.087 12.6317 999 119.293 802.369 474.742
100 0 82.1402 12.4056 1019 120.279 801.794 474.379
101 0 86.0488 13.0624 1124 118.1 802.153 473.508
102 0 90.078 12.6668 1141 119.137 802.507 473.872
103 0 91.1468 12.3976 1130 121.386 802.621 470.275
104 0 95.2918 12.4985 1191 120.488 802.156 469.604
105 0 97.17 11.9893 1165 121.571 802.058 467.254
106 0 103.249 13.666 1411 117.193 801.835 465.388
107 1 54.0604 12.0236 650 121 802.558 488.528
108 0 55.0777 10.7848 594 124.845 803.072 488.894
109 0 58.1292 13.642 793 118.202 801.498 487.026
110 0 60.1162 13.3408 802 118.406 801.323 486.357
111 0 63.2449 12.9813 821 119.16 801.872 485.82
112 0 64.0969 13.4172 860 118.588 802.014 483.763
113 0 66.0901 11.9836 792 122.501 801.91 483.596
114 0 68.1385 13.2524 903 120.121 801.89 481.566
115 0 70.145 13.1157 920 121.239 801.927 479.535
116 0 72.1547 13.2216 954 120.83 801.671 480.195
117 0 74.1285 13.6789 1014 121.353 801.889 477.876
118 0 77.1021 12.9309 997 122.554 802.038 476.493
119 0 78.0883 12.3962 968 124.313 801.594 477.441
120 0 83.1254 14.5563 1210 117.413 801.785 475.098
121 0 87.089 13.6412 1188 120.252 801.638 472.858
122 0 87.1154 13.8207 1204 120.491 801.568 471.831
123 0 91.1112 13.3134 1213 122.32 802.352 469.82
124 0 93.078 12.6668 1179 124.305 802.105 467.703
125 1 46.0571 11.616 535 118.467 802.247 490.333
126 0 48.0406 11.3654 546 116.445 800.588 490.445
127 0 48.0506 11.1341 535 114.763 800.781 489.794
128 0 50.0819 12.799 641 109.802 801.593 488.899
129 0 52.0508 11.7001 609 111.42 801.816 489.65
130 0 56.0349 13.8842 778 105.748 801.839 487.375
131 0 57.083 12.438 710 119.708 801.4 486.204
132 0 57.1811 12.9064 738 119.715 801.077 485.408
133 0 59.0811 12.5929 744 119.117 801.41 485.511
134 0 61.0878 12.6867 775 119.166 800.494 483.444
135 0 62.0418 12.7172 789 118.129 801.138 483.925
136 0 64.1809 14.4435 927 80.891 801.274 483.646
137 0 68.064 12.6939 864 112.926 801.963 481.969
138 0 70.1476 12.8729 903 116.401 801.81 479.607
139 0 73.1022 12.9408 946 116.334 800.933 479.043
140 0 73.1266 13.0185 952 117.974 801.246 477.438
141 0 76.0727 13.9209 1059 116.837 801.359 475.483
142 0 79.1527 13.2781 1051 118.535 800.849 474.783
143 0 82.1074 13.5676 1114 117.15 801.373 474.281
144 0 83.2928 13.4585 1121 118.321 801.481 473.117
145 0 87.1294 12.5905 1097 120.356 801.849 472.094
146 1 43.0306 10.783 464 117.86 802.399 492.287
147 0 45.0682 12.2037 550 114.824 800.565 489.338
148 0 47.0562 11.9007 560 114.505 801.396 490.966
149 0 48.063 11.152 536 116.31 802.146 491.243
150 0 49.0321 12.8487 630 112.684 801.64 488.765
151 0 51.0197 13.1126 669 111.64 801.723 488.801
152 0 54.0505 12.7103 687 120.457 801.447 487.732
153 0 54.0624 12.5781 680 121.282 801.529 485.928
154 0 56.0483 12.4892 700 120.671 801.96 485.569
155 0 58.0618 11.7633 683 118.507 801.265 485.224
156 0 58.0536 12.075 701 120.009 802.026 482.88
157 0 63.0737 13.6348 860 116.095 801.478 481.531
158 0 66.039 13.5072 892 115.326 801.617 481.022
159 0 67.0263 13.8304 927 114.934 801.319 481.44
160 0 68.1014 13.6708 931 116.114 801.119 480.635
161 0 71.1524 13.5765 966 118.247 802.029 477.627
162 0 71.2142 13.4243 956 120.286 801.209 476.126
163 0 76.2518 14.0456 1071 118.328 800.838 474.313
164 0 79.2439 13.7298 1088 119.948 800.853 471.174
165 0 82.2755 14.3178 1178 119.683 800.74 469.087
166 0 83.2929 13.7587 1146 122.435 800.258 468.531
167 0 87.2574 13.7753 1202 122.582 800.622 467.947
168 0 90.1951 14.0695 1269 122.706 800.515 465.25
169 0 93.2142 12.8736 1200 125.805 800.508 464.659
170 0 96.3617 13.989 1348 123.399 800.427 462.404
171 0 99.3089 14.47 1437 126.15 800.331 459.384
172 1 50.1257 12.7679 640 125.277 800.361 484.103
173 0 54.2756 12.934 702 123.424 801.041 484.49
174 0 56.3087 13.1951 743 122.536 800.46 483.217
175 0 57.2811 12.9362 741 123.826 800.893 482.525
176 0 59.2054 13.715 812 123.153 800.456 480.036
177 0 60.3361 13.3254 804 126.169 800.706 478.516
178 0 64.2554 13.5864 873 123.558 800.582 477.259
179 0 64.4691 13.0915 844 125.54 801.053 477.243
180 0 71.5018 12.8528 919 125.432 800.794 476.424
181 0 71.4044 12.9124 922 126.766 800.84 474.207
182 0 73.2913 13.6032 997 125.53 800.682 472.921
183 0 77.2753 12.7337 984 127.625 800.871 471.565
184 0 78.3284 12.9455 1014 128.899 800.248 469.626
185 0 82.2583 14.0655 1157 126.633 800.491 466.78
186 0 85.2866 12.5459 1070 130.635 800.616 468.233
187 0 88.222 12.8199 1131 132.088 801.218 465.92
188 0 91.4938 13.9791 1279 129.69 801.229 464.253
189 0 94.2545 14.1107 1330 132.323 800.632 461.296
190 1 45.1023 11.2411 507 133.613 800.564 485.868
191 0 47.2767 13.1566 622 127.178 800.735 485.354
192 0 47.2006 12.0337 568 134.25 800.801 485.287
193 0 49.1382 12.2105 600 134.552 801.012 484.38
194 0 52.1517 12.3486 644 133.567 801.036 483.477
195 0 52.1375 12.8506 670 132.678 801.402 483.13
196 0 55.2199 12.7671 705 133.983 801.514 480.692
197 0 55.0792 12.2732 676 136.124 801.655 481.488
198 0 59.1818 12.9263 765 134.014 801.387 480.595
199 0 60.0921 13.8288 831 132.23 801.262 479.252
200 0 64.1292 13.3013 853 131.757 801.203 479.416
201 0 64.1477 13.3442 856 134.641 800.869 477.853
202 0 64.1572 12.7343 817 139.337 800.532 476.535
203 0 69.155 13.1444 909 136.833 801.464 474.757
204 0 72.2774 13.7664 995 134.508 800.788 474.102
205 0 72.2295 13.6509 986 136.767 801.811 473.214
206 0 74.1577 13.7949 1023 137.157 800.963 470.973
207 0 75.122 12.8192 963 139.163 800.436 470.909
208 0 79.2349 13.3906 1061 137.037 800.802 468.222
209 0 79.15 12.988 1028 139.005 800.709 467.107
210 0 84.2298 13.7244 1156 136.699 800.278 465.334
211 0 85.16 13.1869 1123 139.868 800.919 463.598
212 0 89.0814 13.3586 1190 138.579 800.886 462.485
213 0 92.1157 13.3853 1233 138.548 801.049 462.203
214 0 97.1333 14.9177 1449 133.132 801.74 462.578
215 0 101.162 14.1752 1434 135.304 800.912 459.196
216 0 104.132 12.4649 1298 139.272 801.351 457.767
217 0 104.119 13.0331 1357 138.211 801.424 452.184
218 1 58.0593 11.8844 690 121.728 802.099 477.436
219 0 59.0373 12.1957 720 124.656 801.479 480.815
220 0 61.1134 11.5687 707 126.225 801.608 479.55
221 0 61.0838 11.9344 729 125.911 802.129 479.877
222 0 66.0782 12.0615 797 124.528 801.785 478.154
223 0 66.0412 12.1439 802 125.921 801.713 475.608
224 0 66.0533 10.9911 726 130.38 802.307 475.124
225 0 71.0371 12.2471 870 126.393 802.122 475.301
226 0 72.0765 12.4312 896 127.109 802.407 472.516
227 0 74.0514 11.5055 852 130.776 802.116 471.8
228 0 77.1289 11.8633 915 129.974 802.02 469.63
229 0 81.0607 13.126 1064 126.472 802.159 467.657
230 0 83.0474 12.5471 1042 127.789 802.621 466.655
231 0 86.0982 13.0897 1127 126.425 802.137 464.668
232 0 90.09 12.4653 1123 127.242 801.804 465.184
233 0 91.0826 13.098 1193 127.555 802.274 461.57
234 0 96.1009 13.1216 1261 125.385 803.06 462.048
235 0 99.1294 12.4988 1239 126.607 802.867 458.337
236 1 51.0965 10.0203 512 119.137 802.35 483.772
237 0 52.0876 10.4247 543 121.389 802.869 483.514
238 0 55.0682 12.4573 686 115.499 802.453 482.34
239 0 55.061 10.9697 604 113.538 802.038 483.917
240 0 56.0103 11.2836 632 113.32 801.649 484.81
241 0 58.067 10.6429 618 116.057 801.853 481.953
242 0 62.0895 11.4834 713 113.478 801.67 481.1
243 0 63.0373 10.3431 652 115.908 801.59 481.485
244 0 67.0367 12.0084 805 112.437 802.025 479.371
245 0 67.1046 10.0887 677 118.108 801.694 477.91
246 0 70.0895 10.8718 762 116.97 802.087 475.804
247 0 74.0274 11.82 875 115.835 802.447 475.59
248 0 77.0287 13.112 1010 113.343 801.562 472.722
249 0 80.0544 11.3923 912 118.027 801.948 472.276
250 0 81.0874 11.5554 937 118.081 802.107 471.162
251 0 85.0557 12.6035 1072 115.594 801.834 469.63
252 0 87.1281 11.8102 1029 117.976 801.568 468.312
253 1 44.0764 9.39278 414 120.031 801.522 489.684
254 0 44.1077 10.157 448 116.033 800.835 490.752
255 0 47.1385 10.6707 503 114.547 801.457 488.571
256 0 47.0925 11.2969 532 108.092 801.855 488.549
257 0 49.0533 11.5589 567 108.457 801.686 488.235
258 0 51.108 11.0159 563 109.339 801.556 487.748
259 0 52.0603 12.1206 631 107.783 801.748 486.835
260 0 52.0829 11.0017 573 111.705 801.674 485.986
261 0 55.083 11.5099 634 116.502 801.058 482.599
262 0 57.0864 11.2636 643 116.384 801.135 484.768
263 0 56.0799 11.1983 628 118.524 801.282 484.258
264 0 58.0913 9.81214 570 122.956 801.154 481.539
265 0 62.0679 12.1319 753 116.688 801.076 481.728
266 0 61.1441 9.94372 608 121.984 801.153 482.959
267 0 66.0927 12.1345 802 117.693 802.052 480.963
268 0 66.0744 9.73146 643 125.442 801.165 479.351
269 0 68.1312 10.788 735 123.09 801.71 478.99
270 0 69.1178 11.9217 824 121.868 801.708 477.237
271 0 72.219 12.7806 923 119.366 801.821 476.352
272 0 73.1442 11.4021 834 124.04 801.89 476.695
273 0 76.1513 11.8842 905 122.72 802.108 475.912
274 0 79.2772 13.2068 1047 119.121 801.489 474.358
275 1 42.0468 10.417 438 121.425 801.438 491.989
276 0 45.126 11.1023 501 117.369 801.415 491.804
277 0 46.0183 12.0387 554 112.466 801.264 491.72
278 0 49.0989 13.5237 664 82.9714 802.503 491.164
279 0 46.0312 11.8398 545 112.105 802.442 491.451
280 0 46.04 11.0339 508 115.27 802.014 489.201
281 0 49.0413 12.1326 595 110.973 802.126 489.482
282 0 47.0724 11.3017 532 115.618 801.852 487.348
283 0 51.0377 11.6776 596 113.302 802.846 488.101
284 0 53.0983 11.6765 620 113.973 802.174 487.023
285 0 53.0264 12.258 650 113.471 802.569 486.097
286 0 55.0598 11.3695 626 115.676 802.115 487.112
287 0 57.0782 11.5806 661 114.941 802.543 484.908
288 0 57.042 12.7625 728 113.536 802.19 485.484
289 0 59.0703 11.3932 673 117.337 801.367 484.287
290 0 62.0994 12.9792 806 113.525 802.289 482.934
291 0 64.0711 13.2353 848 112.459 801.794 482.716
292 0 65.0777 12.923 841 114.78 801.528 480.772
293 0 67.029 12.7109 852 115.575 802.142 479.263
294 0 71.0685 13.6066 967 112.867 801.7 479.996
295 0 69.0862 13.0272 900 116.673 801.499 478.228
296 0 75.0482 13.4047 1006 114.952 801.472 476.766
297 0 77.0741 12.4296 958 116.126 801.187 475.906
298 1 40.1105 11.3437 455 114.78 801.747 493.824
299 0 42.087 12.0227 506 112.219 802.077 493.368
300 0 44.0627 12.7772 563 110.353 801.702 492.391
301 0 44.062 12.0512 531 114.623 801.552 490.768
302 0 45.1015 12.8155 578 112.879 802.123 491.275
303 0 46.0725 12.5455 578 113.74 802.121 490.042
304 0 49.0392 12.7245 624 112.369 802.062 488.851
305 0 50.0165 13.5355 677 110.82 802.414 488.716
306 0 52.0661 11.8119 615 115.13 802.528 489.083
307 0 53.0227 12.8436 681 113.065 802.558 487.504
308 0 53.0544 12.5343 665 116.382 801.839 485.723
309 0 54.0182 13.0882 707 114.857 801.863 485.762
310 0 54.062 12.1157 655 117.794 801.579 485.398
311 0 58.0332 13.8714 805 111.753 802.088 482.96
312 0 58.0256 12.9598 752 114.605 802.17 483.027
313 0 61.043 13.9574 852 109.426 802.138 483.851
314 0 64.049 13.1462 842 111.808 801.634 481.414
315 0 65.0336 11.9015 774 114.561 801.158 481.63
316 0 65.0947 12.2744 799 113.861 801.559 478.449
317 0 71.0914 13.7851 980 108.336 801.288 477.367
318 0 73.0355 12.7883 934 110.981 801.442 477.582
319 0 77.1136 12.4492 960 111.146 801.949 476.761
320 0 79.0571 13.2436 1047 109.297 801.657 474.68
321 0 81.0333 12.4147 1006 111.807 801.464 471.767
322 0 84.049 13.5873 1142 109.451 801.728 469.582
323 0 84.049 13.5873 1142 134.583 801.728 469.582
324 1 46.0327 10.775 496 111.002 801.883 491.23
325 0 47.0402 10.5867 498 111.892 802.329 489.912
326 0 48.0213 12.3279 592 109.427 801.862 488.448
327 0 49.0405 12.194 598 109.231 802.324 486.896
328 0 51.0392 11.8536 605 109.774 802.18 488.218
329 0 56.0609 12.7362 714 106.409 802.361 485.497
330 0 56.0612 12.4864 700 108.363 802.621 486.344
331 0 56.0338 12.3318 691 110.996 802.343 483.864
332 0 59.0344 13.8394 817 106.409 801.683 483.294
333 0 60.1022 12.0961 727 111.044 801.543 482.671
334 0 63.0578 12.5916 794 110.048 802.082 481.218
335 0 64.0808 12.0473 772 112.325 801.392 481.066
336 0 64.0848 12.1558 779 136.006 800.406 481.155
337 0 71.13 12.2452 871 111.295 801.634 479.328
338 0 72.0796 12.9163 931 111.617 801.892 477.522
339 0 76.1062 11.8519 902 114.095 802.332 476.941
340 0 79.0534 13.3707 1057 111.937 802.052 474.919
341 0 81.2034 12.2162 992 116.127 801.712 472.636
342 0 85.1361 12.3332 1050 115.972 802.117 470.331
343 0 87.2137 11.6381 1015 118.283 801.803 468.944
344 0 92.2028 12.8087 1181 115.873 801.542 468.859
345 1 48.018 10.746 516 114.494 803.213 490.184
346 0 50.0345 10.9924 550 112.644 803.029 490.02
347 0 54.0494 11.2675 609 112.514 802.228 487.993
348 0 54.1035 12.5685 680 110.921 803.54 484.926
349 0 56.0615 12.3079 690 110.858 802.613 486.933
350 0 58.0478 12.3519 717 110.82 802.856 484.036
351 0 60.052 12.1228 728 112.125 802.624 483.1
352 0 61.0539 12.2351 747 112.396 802.89 483.798
353 0 61.0539 12.1204 740 138.723 803.889 483.87
354 0 65.1013 11.7663 766 114.294 801.98 481.572
355 0 69.125 11.9638 827 113.189 801.642 479.432
356 0 70.1026 12.6814 889 111.096 802.306 481.327
357 0 73.0504 11.5126 841 115.133 802.13 478.602
358 0 76.131 11.8349 901 115.024 801.878 475.751
359 0 79.0999 11.5803 916 116.794 802.61 475.01
360 0 80.081 12.0378 964 117.584 802.826 474.7
361 0 85.138 11.8044 1005 117.8 802.173 473.707
362 0 85.0621 11.8854 1011 119.917 801.942 469.957
363 0 91.0382 12.0389 1096 115.536 802.145 469.682
364 0 94.1047 12.0823 1137 119.398 802.049 466.83
365 1 52.0178 9.91969 516 115.415 801.291 488.114
366 0 53.0839 11.7361 623 115.621 801.74 487.886
367 0 54.119 10.5508 571 117.538 801.746 488.408
368 0 56.1374 11.65 654 115.745 802.018 486.445
369 0 59.074 12.7806 755 113.613 802.262 485.037
370 0 61.0686 12.3959 757 113.856 801.974 484.962
371 0 62.0366 11.8156 733 116.63 801.723 484.005
372 0 64.1176 11.8532 760 117.828 801.88 482.004
373 0 67.058 14.5396 975 109.558 801.88 480.134
374 0 70.0751 13.1145 919 112.21 801.727 480.007
375 0 70.0634 12.2461 858 115.945 801.972 478.148
376 0 73.0968 11.4643 838 117.582 801.853 476.666
377 0 76.0746 13.0135 990 113.477 802.316 475.011
378 0 79.1281 13.0548 1033 113.517 801.935 473.052
379 0 82.0768 12.3177 1011 115.454 801.311 472.768
380 0 84.0716 11.4545 963 117.648 801.515 471.672
381 0 89.1736 13.6251 1215 111.363 801.908 470.267
382 0 89.0525 11.3079 1007 119.483 801.62 464.32
383 1 47.0575 9.77528 460 114.404 802.076 491.063
384 0 50.1111 10.7162 537 113.87 801.657 490.717
385 0 51.0687 12.2776 627 109.357 801.373 488.818
386 0 53.0915 12.2619 651 109.833 801.671 488.398
387 0 53.0455 12.0463 639 111.408 802.136 487.003
388 0 54.0566 11.562 625 111.168 801.92 488.206
389 0 57.0471 12.3407 704 109.125 801.328 485.587
390 0 59.11 12.2314 723 108.365 800.799 484.932
391 0 59.0893 12.2526 724 109.525 801.873 483.25
392 0 62.106 13.0422 810 106.877 801.253 485.207
393 0 63.2421 13.4562 851 106.372 801.787 481.773
394 0 65.1195 11.9166 776 109.7 801.79 481.295
395 0 65.0796 12.5539 817 108.88 801.681 481.74
396 0 67.0677 12.3457 828 109.368 801.606 480.681
397 0 71.0828 12.802 910 107.882 801.245 477.791
398 0 73.0527 12.0461 880 109.534 800.495 478.373
399 0 75.1593 11.2162 843 110.569 801.887 478.272
400 0 77.1958 12.8634 993 109.173 802.37 474.561
401 0 81.1442 12.6934 1030 109.086 801.952 472.533
402 0 83.1997 13.2092 1099 107.965 802.232 473.101
403 0 86.2242 12.2471 1056 111.427 801.745 471.236
404 0 87.1709 11.9765 1044 112.943 801.403 469.595
405 0 92.251 12.7587 1177 110.942 801.659 467.88
406 1 47.0837 10.407 490 114.982 801.571 489.7
407 0 51.142 12.2795 628 110.127 800.678 487.795
408 0 53.0288 13.3512 708 107.534 801.212 486.614
409 0 53.0814 12.4526 661 107.427 801.809 486.805
410 0 56.0988 11.8897 667 105.772 801.81 488.315
411 0 56.1295 10.6005 595 110.664 801.639 486.397
412 0 56.085 10.8407 608 110.872 801.291 486.832
413 0 59.1326 11.1952 662 109.569 802.039 484.535
414 0 61.1035 11.0959 678 112.417 801.352 483.409
415 0 61.1035 11.145 681 134.198 800.336 483.418
416 0 65.0923 12.0905 787 110.233 801.72 482.36
417 0 66.0934 12.0284 795 111.316 801.904 479.771
418 0 70.0716 13.0153 912 109.503 801.959 478.739
419 0 70.0608 11.6899 819 113.198 801.498 478.067
420 0 73.0548 12.8397 938 111.612 801.723 475.889
421 0 78.1524 12.1685 951 112.007 801.783 476.496
422 0 77.1074 11.6331 897 115.377 802.309 473.839
423 0 82.1925 13.2615 1090 112.017 803.076 470.243
424 1 43.1113 10.8324 467 111.443 801.593 492.077
425 0 44.0631 11.075 488 111.785 801.818 491.68
426 0 46.1114 10.865 501 111.687 802.02 492.2
427 0 47.0455 12.3072 579 111.138 803.61 488.744
428 0 50.0513 11.4682 574 112.098 804.192 489.787
429 0 48.1302 11.552 556 107.185 803.286 490.3
430 0 49.1424 11.66 573 107.41 802.558 489
431 0 51.0288 11.5621 590 107.444 802.966 488.792
432 0 53.0775 11.4173 606 108.183 802.616 487.998
433 0 55.0667 11.1501 614 108.594 802.906 488.601
434 0 56.1767 12.2471 688 107.741 802.985 487.013
435 0 55.0658 11.1866 616 109.557 803.297 488.856
436 0 58.1649 10.7453 625 111.093 803.35 487.382
437 0 59.081 13.0837 773 107.488 802.301 484.32
438 0 62.1508 11.2307 698 110.564 802.675 485.358
439 0 64.0781 11.3299 726 111.384 803.2 482.894
440 0 66.1069 12.7521 843 108.114 803.129 481.875
441 0 67.0744 11.3009 758 112.388 802.872 481.778
442 0 70.1245 11.9074 835 110.709 802.598 480.116
443 0 72.0965 11.4707 827 112.213 802.949 478.515
444 0 76.2293 12.2132 931 110.559 802.379 477.204
445 0 78.129 12.9145 1009 110.205 802.987 475.241
446 0 81.1681 12.2832 997 111.102 803.414 475.627
447 0 81.1693 12.2091 991 138.089 802.437 475.78
448 0 85.1572 11.9779 1020 114.499 802.972 471.686
449 0 89.158 12.9097 1151 111.721 803.043 470.843
450 1 47.0206 11.8033 555 113.677 803.357 490.159
451 0 51.103 12.5824 643 110.687 802.869 489.453
452 0 51.045 11.2058 572 114.934 803.049 490.096
453 0 50.0646 11.9246 597 116.472 803.995 488.853
454 0 53.0661 13.5114 717 111.483 803.819 488.833
455 0 54.1154 12.3255 667 115.012 803.442 488.519
456 0 57.0428 13.2883 758 112.763 803.277 487.272
457 0 57.0273 13.0815 746 116.353 803.473 486.019
458 0 58.1237 12.8863 749 117.047 803.159 484.936
459 0 61.0492 12.449 760 117.368 803.409 484.155
460 0 62.0452 13.3129 826 116.485 803.294 482.597
461 0 65.14 13.9239 907 114.678 803.418 482.806
462 0 68.0356 12.9638 882 115.992 802.914 481.723
463 0 71.0816 13.1258 933 115.305 802.535 479.448
464 0 72.0452 14.1855 1022 113.477 802.822 476.694
465 0 75.0405 13.033 978 112.637 801.704 477.452
466 0 77.0446 13.8881 1070 110.823 801.319 477.088
467 0 81.0401 13.5242 1096 111.034 800.526 474.667
468 0 83.1055 13.2602 1102 111.819 801.508 474.197
469 0 86.0739 14.0345 1208 111.078 800.974 473.012
470 0 90.0571 13.0029 1171 113.114 801.375 471.202
471 0 90.0706 12.5013 1126 115.856 801.107 469.217
472 0 91.1375 12.2013 1112 121.38 800.954 465.622
473 0 91.1375 12.1575 1108 163.729 800.963 465.653
474 1 51.0517 11.5569 590 113.993 800.776 489.52
475 0 51.0166 11.9765 611 113.543 801.696 488.511
476 0 54.1389 12.1539 658 114.117 801.246 487.219
477 0 54.1148 11.9746 648 116.218 800.98 485.306
478 0 56.0783 13.5525 760 111.851 801.214 485.87
479 0 59.1273 12.9044 763 111.938 801.165 485.556
480 0 58.0864 12.3093 715 113.99 800.785 485.147
481 0 59.1093 12.5023 739 115.202 800.893 482.534
482 0 64.0921 13.1998 846 111.531 800.564 482.162
483 0 65.1003 12.5499 817 113.065 801.3 483.133
484 0 67.0326 13.1578 882 113 801.297 479.302
485 0 69.1195 12.9196 893 113.456 801.225 478.926
486 0 71.0912 13.757 978 112.259 800.75 477.962
487 0 73.0715 12.8915 942 114.389 800.952 477.225
488 0 75.1855 13.194 992 113.495 800.428 477.692
489 0 79.219 14.0623 1114 112.984 801.374 472.411
490 0 82.1432 14.7669 1213 110.775 801.142 472.955
491 0 84.0671 13.406 1127 114.033 801.066 471.967
492 0 86.1523 13.1511 1133 115.665 801.467 469.423
493 0 89.1145 14.2513 1270 113.442 801.553 467.221
494 1 44.032 10.0836 444 115.565 801.327 490.928
495 0 48.0943 11.4359 550 112 802.844 489.944
496 0 48.0629 10.944 526 113.738 802.646 488.506
497 0 49.0401 11.5008 564 105.787 802.702 490.168
498 0 50.0096 11.7377 587 106.284 802.782 489.801
499 0 52.0935 12.7271 663 104.406 803.404 488.967
500 0 52.0732 10.5621 550 114.829 802.705 487.325
501 0 57.0922 12.4535 711 111.328 803.242 485.98
502 0 57.0621 12.3199 703 111.316 803.011 487.084
503 0 59.0463 11.7874 696 114.662 803.517 484.99
504 0 62.0519 11.8288 734 113.808 803.334 484.113
505 0 65.073 12.4476 810 113.654 803.559 482.088
506 0 65.0642 11.8037 768 117.964 802.37 481.504
507 0 68.109 11.9221 812 116.164 802.674 483.106
508 0 68.109 11.878 809 144.541 802.66 483.11
509 0 75.0351 12.4875 937 113.692 801.495 475.767
510 0 77.0703 12.9752 1000 116.003 801.844 476.943
511 0 79.0436 11.5379 912 120.621 801.583 475.618
512 0 83.1174 12.741 1059 118.085 801.761 474.084
513 0 85.059 12.6971 1080 119.224 801.267 472.254
514 0 89.0353 12.8264 1142 119.432 801.358 470.215
515 0 90.0468 12.6601 1140 121.783 800.999 469.724
516 0 93.0767 11.9471 1112 123.831 801.317 467.715
517 0 96.0442 12.5359 1204 124.703 802.196 466.312
518 0 101.086 12.7021 1284 121.129 802.007 461.97
519 1 53.021 11.1654 592 115.706 802.323 484.044
520 0 52.118 9.38256 489 122.74 802.526 480.07
521 0 56.0887 10.9291 613 119.276 801.631 478.202
522 0 55.1138 10.1245 558 120.219 800.654 480.048
523 0 59.0556 10.5325 622 117.111 802.273 481.066
524 0 58.1215 10.1167 588 121.258 801.963 475.571
525 0 61.1008 9.72164 594 121.136 802.374 477.446
526 0 63.0936 10.8093 682 120.767 802.166 477.252
527 0 65.3132 10.9779 717 122.826 801.484 473.955
528 0 67.2711 9.43942 635 127.365 801.62 473.948
529 0 72.0553 12.2406 882 136.359 800.796 475.526
530 0 76.1389 12.4247 946 136.656 801.29 474.767
531 0 79.0366 13.3862 1058 134.668 801.222 472.738
532 0 82.1034 12.9958 1067 137.615 801.618 471.256
533 0 85.0858 13.3865 1139 136.673 801.627 471.779
534 0 88.149 11.5827 1021 144.021 801.192 469.957
535 1 47.041 9.77871 460 139.341 801.863 491.043
536 0 50.0554 11.4873 575 137.377 800.743 489.864
537 0 50.0595 11.2266 562 140.087 801.299 488.687
538 0 53.0369 11.8785 630 126.771 802.075 489.032
539 0 52.0509 12.0267 626 128.511 801.84 486.056
540 0 55.089 11.7991 650 127.474 802.691 487.954
541 0 57.0609 11.5315 658 128.953 802.454 487.289
542 0 59.154 12.29 727 126.135 802.563 485.275
543 0 61.0564 12.644 772 126.041 803.254 482.723
544 0 63.1795 11.7443 742 129.004 802.904 483.224
545 0 64.0822 12.3279 790 127.792 803.343 482.904
546 0 66.0516 12.0815 798 128.729 803.145 481.128
547 0 68.1554 11.6939 797 129.338 802.685 479.863
548 0 72.0827 12.2082 880 126.756 803.24 480.484
549 0 73.0986 12.6815 927 127.19 803.012 477.175
550 0 75.1491 11.2842 848 131.005 802.745 476.09
551 0 78.1293 11.8265 924 130.113 801.97 474.503
552 0 81.0926 12.5042 1014 131.508 803.47 474.878
553 0 84.1434 11.8132 994 134.31 802.906 473.529
554 1 43.0432 10.1991 439 129.909 803.139 490.761
555 0 45.033 10.0815 454 135.216 803.2 491.396
556 0 44.0198 11.0178 485 129.691 802.231 491.963
557 0 46.0243 10.212 470 130.721 801.998 492.206
558 0 47.0363 10.6726 502 131.392 802.199 490.044
559 0 50.0645 11.2655 564 126.972 803.239 489.23
560 0 50.0458 10.2506 513 129.296 803.304 490.064
561 0 50.0413 10.1716 509 131.059 803.308 490.151
562 0 54.0376 10.8073 584 128.592 803.012 489.079
563 0 54.1031 10.0918 546 131.401 802.892 488.068
564 0 55.0509 10.5902 583 130.602 803.324 486.851
565 0 57.0879 10.8079 617 127.942 803.314 488.191
566 0 59.0653 11.5804 684 126.893 803.02 486.028
567 0 59.1163 11.8411 700 126.933 802.266 484.759
568 0 63.1045 12.5506 792 124.287 803.025 483.967
569 0 63.0939 11.7127 739 126.413 802.383 484.263
570 0 65.0274 11.5028 748 126.255 802.714 482.243
571 0 69.2068 11.704 810 122.944 802.649 482.289
572 0 70.1303 11.6212 815 125.244 802.391 478.942
573 0 73.0619 12.0856 883 124.932 803.016 477.83
574 0 77.0865 11.8309 912 122.866 803.573 479.005
575 0 79.1317 11.3355 897 125.085 802.874 478.113
576 0 80.1229 12.2562 982 124.961 803.021 475.734
577 1 45.0695 10.8277 488 125.809 802.471 492.135
578 0 46.0803 11.4366 527 124.063 802.915 490.622
579 0 46.0803 11.3932 525 145.297 803.905 490.554
580 0 48.0934 12.4133 597 120.973 803.303 491.759
581 0 50.0917 15.4916 776 111.79 802.795 490.253
582 0 51.0741 12.7658 652 120.906 803.25 490.046
583 0 53.1518 12.3796 658 122.008 802.719 490.284
584 0 53.0654 11.9852 636 124.355 803.538 489.439
585 0 56.2045 14.1448 795 117.677 802.879 488.473
586 0 56.1287 11.9903 673 127.163 802.657 489.034
587 0 57.1542 12.5275 716 122.483 802.534 489.369
588 0 58.1213 11.7341 682 126.66 801.842 487.242
589 0 63.23 11.8298 748 126.013 802.18 486.711
590 0 61.1487 11.8564 725 128.771 801.85 486.065
591 0 66.2379 13.5119 895 123.22 801.188 484.12
592 0 67.1194 13.0812 878 125.624 801.384 483.138
593 0 68.2391 13.1303 896 126.632 802.367 483.297
594 0 70.1497 12.288 862 128.193 802.396 484.222
595 0 72.153 12.6259 911 129.199 802.238 480.564
596 0 74.2232 13.0822 971 128.047 802.006 479.357
597 0 78.2009 13.0433 1020 126.842 801.988 479.277
598 0 82.0865 13.7782 1131 124.862 802.124 476.4
599 1 43.0201 11.4598 493 134.278 803.32 493.195
600 0 45.1101 12.7688 576 128.7 801.193 495.042
601 0 45.02 12.4167 559 131.27 800.941 494.932
602 0 46.0382 13.2716 611 128.155 800.694 494.422
603 0 50.0934 13.0157 652 126.399 800.701 492.505
604 0 50.0314 12.9319 647 129.4 800.904 491.036
605 0 53.064 14.4165 765 122.999 801.634 490.813
606 0 53.0234 13.6355 723 129.277 801.436 490.858
607 0 55.0742 13.7269 756 128.221 801.012 488.601
608 0 57.0272 13.9933 798 128.134 800.294 488.868
609 0 59.0275 14.1798 837 124.307 801.852 488.043
610 0 60.0373 13.6415 819 126.045 801.982 487.698
611 0 61.0855 13.1782 805 128.588 802.16 486.055
612 0 64.0882 14.4956 929 122.98 801.954 484.399
613 0 66.0347 13.0235 860 126.351 801.745 484.724
614 0 70.0781 14.4981 1016 121.343 802.389 482.853
615 0 72.0622 13.5439 976 124.488 802.202 482.539
616 0 75.1467 13.6932 1029 124.1 801.91 479.508
617 0 77.0541 13.4062 1033 126.11 802.264 478.009
618 0 81.0347 14.3889 1166 121.708 802.02 477.329
619 0 84.0876 13.5216 1137 123.811 802.153 476.043
620 0 87.0612 13.4963 1175 122.877 802.386 474.874
621 0 89.1185 12.792 1140 126.104 802.855 473.15
622 1 50.0105 12.3974 620 129.847 801.1 492.356
623 0 50.1316 12.5869 631 128.997 801.501 489.255
624 0 52.0199 13.168 685 121.365 801.493 489.781
625 0 55.0186 12.6139 694 115.213 801.954 488.213
626 0 56.0538 13.6298 764 118.047 802.457 489.266
627 0 58.0547 13.4356 780 118.651 802.82 488.556
628 0 61.0854 13.2438 809 118.053 802.197 487.524
629 0 63.0761 13.0636 824 118.828 801.621 485.591
630 0 63.0715 12.6206 796 121.225 802 484.928
631 0 66.0815 12.4392 822 115.99 801.369 482.122
632 0 67.1505 12.1071 813 118.502 801.784 480.996
633 0 71.055 13.9751 993 113.443 801.778 479.587
634 0 72.0579 12.7259 917 117.737 801.408 478.076
635 0 75.0836 13.2386 994 116.633 801.874 476.252
636 0 77.078 13.1814 1016 116.913 802.167 476.515
637 0 81.1419 13.5565 1100 117.051 801.789 474.574
638 0 84.1178 13.4811 1134 116.415 801.147 473.908
639 0 85.0979 12.8558 1094 118.856 801.874 472.829
640 0 88.09 14.1333 1245 116.033 802.399 471.79
641 0 92.0632 12.8825 1186 119.941 801.33 469.758
642 0 96.1405 14.2084 1366 117.643 801.344 468.648
643 0 98.0885 13.3451 1309 121.044 800.604 466.632
644 1 53.0277 11.8617 629 121.183 801.062 492.512
645 0 52.1069 11.3804 593 121.378 801.776 491.231
646 0 54.1141 12.5106 677 119.145 802.176 488.099
647 0 56.0753 11.6629 654 119.919 801.402 489.691
648 0 59.09 12.7094 751 116.262 802.069 488.336
649 0 61.0788 13.0487 797 115.711 801.488 486.432
650 0 62.0503 12.3126 764 117.521 801.444 485.746
651 0 66.0904 13.2243 874 114.693 801.157 484.558
652 0 68.0754 12.824 873 116.323 801.221 482.252
653 0 72.04 13.548 976 113.489 801.935 484.178
654 0 72.0782 12.1535 876 117.946 801.639 479.896
655 0 74.1016 12.8742 954 116.998 801.576 478.015
656 0 79.067 12.8499 1016 115.533 801.605 478.845
657 0 80.0802 12.9121 1034 117.388 801.501 475.956
658 0 84.1342 13.5736 1142 117.09 801.094 475.987
659 0 88.1336 12.5037 1102 118.561 801.55 476.553
660 0 88.154 11.8089 1041 122.18 801.503 470.818
661 1 49.2243 12.0266 592 118.345 802.242 491.709
662 0 50.2388 11.9629 601 121.865 801.968 488.587
663 0 51.275 11.9162 611 122.223 801.953 490.869
664 0 52.1193 12.1068 631 120.347 802.036 490.884
665 0 57.1506 11.4085 652 119.617 801.978 489.595
666 0 56.0884 11.5354 647 120.437 801.402 489.298
667 0 60.1063 11.3632 683 120.666 800.807 487.731
668 0 60.0796 12.1838 732 119.119 801.175 486.296
669 0 63.1156 12.2157 771 118.518 801.86 484.406
670 0 66.1369 12.0961 800 118.041 801.34 483.2
671 0 66.125 11.8715 785 119.52 801.987 482.871
672 0 70.0662 12.9449 907 117.632 801.402 481.409
673 0 71.0926 13.0253 926 119.364 801.193 480.482
674 0 74.1739 13.2392 982 120.185 801.329 479.832
675 0 77.083 13.3492 1029 120.145 801.994 478.136
676 0 80.1059 12.9079 1034 123.206 801.23 478.033
677 0 81.1399 13.2117 1072 124.896 801.14 476.115
678 0 86.1384 13.1416 1132 125.477 801.564 473.484
679 0 85.1693 12.0349 1025 130.551 801.815 471.722
680 0 90.2085 12.7261 1148 128.357 801.915 471.459
681 0 94.2563 12.8479 1211 128.983 801.688 469.356
682 0 97.2128 13.383 1301 128.85 800.781 466.595
683 1 51.1439 11.0864 567 124.434 801.804 492.028
684 0 54.1335 11.8226 640 122.57 801.956 488.772
685 0 54.0165 12.1074 654 122.128 802.125 490.685
686 0 55.1314 11.8626 654 125.242 801.752 488.48
687 0 58.0602 11.6086 674 124.473 802.09 488.813
688 0 61.0826 13.1298 802 119.929 801.753 487.453
689 0 63.0774 12.5877 794 121.141 802.224 487.047
690 0 63.057 12.4015 782 123.462 802.676 484.767
691 0 65.0899 11.4611 746 125.913 802.105 483.394
692 0 68.1258 11.9045 811 125.158 802.134 480.942
693 0 72.1205 13.0476 941 120.473 802.268 480.497
694 0 72.1272 12.2977 887 124.05 802.481 480.246
695 0 76.0481 12.8997 981 122.549 802.18 479.039
696 0 77.1651 12.6352 975 124.393 801.662 476.753
697 0 81.0541 12.7816 1036 123.447 802.248 476.934
698 0 83.1118 12.9103 1073 126.116 801.452 473.695
699 0 86.1512 12.6174 1087 126.821 802.132 472.893
700 0 90.2234 12.5688 1134 127.087 801.465 471.123
701 1 46.0796 9.98272 460 127.617 801.344 492.096
702 0 49.1525 11.2914 555 125.139 800.663 490.382
703 0 51.0238 13.0135 664 120.38 800.886 488.804
704 0 53.0347 12.9726 688 122.642 800.535 488.74
705 0 53.0787 13.885 737 119.684 800.886 487.54
706 0 55.0529 13.3871 737 123.015 800.003 487.839
707 0 56.0339 13.3491 748 123.882 800.663 487.58
708 0 57.0344 13.4831 769 124.148 800.112 485.953
709 0 59.0458 13.2609 783 124.506 800.248 486.351
710 0 61.0271 13.0598 797 125.731 800.866 484.831
711 0 63.0341 14.0242 884 123.683 800.587 483.722
712 0 64.0344 13.1804 844 126.577 800.31 482.802
713 0 67.0576 14.9573 1003 121.177 800.481 480.224
714 0 71.0327 13.5571 963 123.162 800.704 479.79
715 0 72.0746 13.3473 962 125.335 800.09 478.158
716 0 75.0399 14.0059 1051 122.469 800.023 478.317
717 0 77.0501 13.7573 1060 124.681 801.064 477.386
718 0 78.0405 13.5186 1055 125.391 800.278 474.996
719 0 79.0672 12.9384 1023 127.826 800.718 474.231
720 0 84.1448 13.3223 1121 126.288 800.954 472.656
721 0 89.1087 13.1525 1172 125.943 800.597 471.141
722 0 90.121 13.1157 1182 125.609 800.671 468.118
723 1 45.0495 11.3875 513 126.068 801.142 493.084
724 0 45.086 12.2433 552 125.346 800.219 490.208
725 0 47.0387 13.0743 615 126.14 800.059 490.003
726 0 50.0564 12.9054 646 124.927 800.048 491.166
727 0 53.1024 13.0314 692 122.961 800.529 489.87
728 0 53.0805 12.6977 674 124.76 800.571 490.016
729 0 56.0881 11.3928 639 126.905 800.847 488.842
730 0 58.0954 12.5311 728 122.766 801.356 486.734
731 0 59.1451 12.9174 764 123.921 801.636 483.683
732 0 61.1194 12.7455 779 124.994 801.264 484.273
733 0 63.1473 13.2231 835 123.514 801.429 483.378
734 0 65.1438 13.1402 856 125.256 801.491 482.025
735 0 69.1222 13.0638 903 124.712 801.743 481.218
736 0 69.1781 12.7786 884 127.075 801.089 481.089
737 0 72.0613 13.0028 937 126.799 801.232 479.432
738 0 74.0854 12.904 956 127.343 801.204 478.7
739 0 76.0984 13.1146 998 128.298 801.713 477.166
740 0 79.1042 13.6149 1077 127.493 801.103 475.656
741 0 80.1039 13.0705 1047 130.668 801.709 473.458
742 0 84.1416 13.6199 1146 127.905 801.382 473.442
743 0 83.1562 12.1218 1008 127.231 801.353 473.857
744 0 85.0892 11.1412 948 132.781 801.803 472.446
745 0 90.0914 13.0867 1179 127.33 802.026 471.589
746 0 92.0962 13.3556 1230 126.88 801.432 470.562
747 0 94.3067 12.5654 1185 130.856 800.77 468.852
748 0 98.1093 13.5461 1329 128.633 800.868 465.29
749 0 101.22 13.8016 1397 128.188 800.952 464.321
750 0 104.16 13.5849 1415 127.448 801.11 463.563
751 0 108.113 13.6061 1471 128.362 801.514 459.892
752 0 112.157 13.811 1549 126.805 801.071 458.846
753 0 115.11 13.4394 1547 128.01 801.784 458.697
754 0 119.281 13.5143 1612 129.904 801.21 453.919
755 1 58.071 12.4158 721 123.416 800.046 484.444
756 0 59.09 12.4048 733 119.232 801.321 478.522
757 0 62.1386 12.0054 746 118.651 801.286 479.021
758 0 67.1146 12.1434 815 114.307 801.08 484.995
759 0 66.0726 10.9576 724 117.501 801.79 482.106
760 0 71.1032 12.6155 897 113.608 800.625 480.149
761 0 74.0551 12.1801 902 112.823 801.191 481.59
762 0 77.0972 12.3221 950 112.329 801.053 479.319
763 0 80.1175 11.9075 954 114.327 801.48 478.103
764 0 79.0581 11.2702 891 117.423 801.692 477.245
765 0 83.2162 11.2478 936 116.636 801.558 475.813
766 0 87.1455 13.2307 1153 117.353 800.814 473.336
767 0 89.1068 10.897 971 119.648 801.071 473.174
768 0 93.2805 10.9348 1020 117.699 800.65 469.067
769 0 97.1896 12.5013 1215 114.099 800.382 467.571
770 0 100.361 12.7739 1282 114.208 800.289 464.674
771 0 103.203 11.5404 1191 116.956 800.333 465.107
772 1 57.0922 11.7704 672 110.283 801.354 487.167
773 0 59.112 11.4359 676 110.214 800.646 487.723
774 0 59.084 11.5429 682 110.17 801.246 486.519
775 0 59.0389 11.0097 650 111.549 801.82 484.954
776 0 64.0519 13.4422 861 104.186 800.48 483.527
777 0 65.1647 12.1078 789 109.302 800.465 483.292
778 0 69.1174 12.4571 861 107.974 800.568 481.179
779 0 70.0645 11.9604 838 109.914 800.982 480.541
780 0 72.166 11.1271 803 111.981 800.868 478.044
781 0 77.0738 12.8448 990 107.416 801.314 477.74
782 0 80.0674 12.1523 973 109.086 800.75 476.912
783 0 82.2407 12.3053 1012 109.592 800.874 473.928
784 0 86.0666 12.9435 1114 108.206 801.267 473.846
785 0 87.1202 11.3866 992 111.987 801.654 473.04
786 0 90.1029 12.1528 1095 111.379 801.907 473.313
787 1 45.0714 10.5388 475 116.248 801.392 493.227
788 0 48.0688 13.0438 627 110.786 801.627 491.923
789 0 49.055 12.4554 611 111.944 802.085 491.452
790 0 50.0695 12.4827 625 114.387 800.76 490.616
791 0 53.1443 12.8894 685 112.333 800.49 488.003
792 0 55.1252 12.1179 668 114.22 800.762 486.738
793 0 57.199 12.7625 730 113.297 800.749 486.495
794 0 59.0411 13.4144 792 111.928 800.95 485.499
795 0 62.1663 13.9304 866 110.058 801.415 485.99
796 0 61.1161 12.7626 780 115.545 800.759 484.553
797 0 65.093 13.642 888 112.357 800.596 482.705
798 0 67.131 12.8108 860 115.956 800.614 482.833
799 0 69.0896 13.5621 937 114.726 800.82 480.383
800 0 71.1368 13.0453 928 118.967 801.176 482.149
801 0 72.0857 13.4007 966 119.417 801.183 476.736
802 0 75.0686 13.1879 990 119.992 800.737 478.76
803 0 79.2495 13.3881 1061 120.518 800.344 475.635
804 0 82.2305 14.0337 1154 121.566 800.978 474.442
805 0 86.3917 14.5037 1253 121.093 800.758 470.899
806 0 87.3016 13.4362 1173 126.579 800.748 470.542
807 0 91.315 13.7108 1252 126.458 800.403 471.372
808 0 91.186 13.9385 1271 127.416 799.78 469.271
809 0 97.2764 14.6695 1427 125.96 800.818 467.87
810 0 99.2845 14.7455 1464 127.048 800.236 466.871
811 0 99.2609 13.4091 1331 134.145 801.476 463.658
812 0 104.217 14.4602 1507 130.051 800.709 465.61
813 0 107.431 14.9118 1602 128.824 800.31 463.462
814 0 111.296 15.1039 1681 130.864 800.027 459.904
815 0 114.28 13.4845 1541 136.489 800.043 459.435
816 0 118.411 15.1169 1790 131.569 800.618 458.245
817 0 122.34 14.852 1817 133.976 799.816 456.479
818 0 126.229 15.2026 1919 135.908 800.759 450.083
819 0 131.421 14.9368 1963 137.286 800.536 447.415
820 0 135.293 15.8544 2145 133.991 800.693 450.208
821 0 142.272 15.6953 2233 136.332 800.112 445.39
822 0 146.347 15.839 2318 137.509 801.335 442.943
823 0 152.292 15.989 2435 136.686 800.942 438.966
824 0 155.247 15.5945 2421 138.763 800.458 436.942
825 0 161.344 16.6167 2681 134.711 800.816 435.91
826 0 165.325 15.3395 2536 140.326 800.751 433.896
827 0 170.251 14.7253 2507 140.436 800.506 435.262
828 1 91.2269 13.45 1227 143.496 800.853 470.663
829 0 96.1188 14.2428 1369 141.389 800.423 468.41
830 0 96.1305 13.8458 1331 145.506 799.611 467.199
831 0 100.127 15.1507 1517 142.664 799.106 464.506
832 0 105.1 15.6233 1642 140.051 799.691 463.636
833 0 109.115 14.9201 1628 142.712 800.003 461.337
834 0 113.127 14.9036 1686 142.486 799.692 459.162
835 0 118.132 14.797 1748 142.564 799.856 457.515
836 0 119.097 14.4084 1716 143.955 799.553 453.721
837 0 126.3 15.1624 1915 138.85 799.542 453.544
838 0 129.269 14.4582 1869 141.762 799.782 452.04
839 0 134.225 14.6247 1963 141.638 799.634 447.702
840 0 139.214 14.7543 2054 139.982 800.016 447.078
841 0 144.131 15.2847 2203 137.67 799.562 442.928
842 0 150.143 14.1665 2127 140.996 799.746 439.817
843 0 155.281 14.7281 2287 140.457 799.502 437.441
844 1 84.0808 12.1074 1018 137.279 799.543 472.889
845 0 86.0636 13.9664 1202 133.231 799.909 470.741
846 0 88.0973 12.1911 1074 137.894 799.296 468.737
847 0 90.0486 12.471 1123 138.101 798.925 466.026
848 0 94.1705 13.4118 1263 134.291 799.081 464.691
849 0 98.0818 13.2237 1297 133.773 798.385 463.239
850 0 101.187 13.0254 1318 133.133 799.69 462.357
851 0 102.177 12.9187 1320 134.846 799.551 459.219
852 0 109.095 14.0245 1530 129.614 799.035 457.737
853 0 111.136 13.5149 1502 131.919 799.371 455.267
854 0 115.143 13.7829 1587 129.497 799.527 453.909
855 0 120.347 13.3115 1602 130.64 798.996 449.931
856 0 124.29 13.8306 1719 127.497 799.878 448.342
857 0 127.162 12.8576 1635 130.355 799.942 443.429
858 0 133.14 12.393 1650 130.307 799.918 440.712
859 1 79.0435 10.9813 868 112.697 799.366 468.783
860 0 77.0679 9.47217 730 118.985 800.084 463.278
861 0 81.0779 9.04069 733 117.554 799.894 472.561
862 0 86.0529 10.1565 874 114.235 800.458 471.939
863 0 84.0971 9.28688 781 117.868 799.631 468.183
864 0 90.1693 10.9017 983 113.332 800.235 469.964
865 0 95.1206 12.2161 1162 110.818 800.584 467.535
866 0 97.0939 10.9791 1066 114.394 800.496 463.227
867 0 99.1292 10.3804 1029 115.547 800.659 463.688
868 0 104.242 10.0728 1050 117.056 800.259 458.982
869 0 106.167 9.68286 1028 116.682 800.767 461.225
870 0 113.113 11.0598 1251 116.528 800.214 457.847
871 0 115.21 10.789 1243 116.346 800.306 459.974
872 0 119.178 12.0996 1442 115.31 800.555 450.682
873 1 64.0597 10.3341 662 108.817 801.434 479.918
874 0 65.1417 9.22604 601 109.027 801.032 480.819
875 0 67.0877 10.3596 695 110.99 801.119 477.882
876 0 68.0614 9.9469 677 104.609 801.511 478.205
877 0 70.0732 8.8907 623 105.966 800.257 478.952
878 0 70.069 8.32038 583 107.777 800.379 480.647
879 0 76.0622 9.57111 728 106.269 800.15 472.334
880 0 77.0378 9.69654 747 107.071 800.564 473.995
881 0 78.0769 9.61873 751 106.997 800.929 473.815
882 0 83.0651 12.111 1006 102.965 800.507 473.03
883 0 83.1354 10.9701 912 106.491 800.548 470.934
884 0 88.0711 11.2863 994 106.381 801.209 470.257
885 0 89.0912 10.652 949 108.983 800.666 467.953
886 0 91.1105 10.7562 980 111.149 801.117 464.405
887 0 96.1162 10.248 985 111.527 800.679 461.91
888 0 98.1516 9.74004 956 112.429 800.849 467.998
889 0 102.132 10.3983 1062 113.035 800.981 463.263
890 0 104.123 10.8621 1131 111.372 800.5 460.433
891 0 108.07 10.3452 1118 110.827 801.051 460.868
892 0 113.116 11.5899 1311 108.168 800.776 457.499
893 0 117.085 12.5122 1465 114.704 799.878 450.944
894 0 121.135 12.2261 1481 114.317 799.358 450.205
895 0 124.137 9.98898 1240 120.394 799.901 449.754
896 1 67.1067 10.4759 703 106.578 800.643 479.323
897 0 70.075 9.83232 689 104.566 800.596 479.364
898 0 73.0866 11.2333 821 102.748 800.697 479.391
899 0 76.0434 12.2693 933 101.228 800.835 477.442
900 0 76.068 10.4643 796 106.913 800.133 477.707
901 0 79.0679 11.977 947 104.907 800.018 473.261
902 0 82.1998 12.5548 1032 104.498 800.19 470.914
903 0 84.1851 12.0092 1011 106.98 800.329 469.196
904 0 87.1398 11.6939 1019 108.961 799.551 469.29
905 0 89.0987 12.1214 1080 108.664 799.853 468.38
906 0 91.1694 10.7602 981 112.439 799.861 467.8
907 0 94.1355 11.6959 1101 110.73 799.789 467.151
908 0 98.1909 12.2924 1207 110.647 799.685 465.321
909 0 101.154 13.1285 1328 109.386 799.663 462.389
910 0 105.21 12.3847 1303 111.14 799.85 460.997
911 1 51.0971 11.6641 596 106.737 799.48 485.715
912 0 54.1443 10.8783 589 108.441 799.596 485.526
913 0 56.0433 11.1342 624 108.518 799.165 484.276
914 0 59.1038 12.1312 717 104.609 799.589 485.307
915 0 58.0645 10.9533 636 110.038 799.083 486.186
916 0 59.0413 10.9754 648 110.153 799.151 486.988
917 0 63.1325 11.3729 718 108.649 799.464 484.571
918 0 63.0422 10.7388 677 110.684 798.963 483.836
919 0 66.0432 12.3404 815 109.082 799.253 481.382
920 0 67.0598 11.4376 767 110.954 799.325 480.205
921 0 68.0535 11.682 795 111.447 799.255 481.338
922 0 72.0547 12.6154 909 109.706 799.729 479.653
923 0 75.1336 12.6974 954 109.738 799.743 478.541
924 0 76.1381 12.4773 950 111.009 799.038 477.337
925 0 80.1163 12.5942 1009 110.296 799.838 474.707
926 0 81.129 12.2274 992 111.616 799.406 474.266
927 0 84.1294 10.9831 924 115.167 799.436 471.821
928 0 89.0756 12.9441 1153 110.307 799.552 470.694
929 0 90.0586 12.5363 1129 112.079 799.795 469.706
930 0 94.1899 13.2392 1247 111.155 800.026 467.38
931 0 97.0884 12.7616 1239 112.699 799.98 466.442
932 0 100.132 13.9616 1398 111.155 801.159 466.632
933 1 53.063 12.4004 658 114.751 801.134 489.535
934 0 55.0758 11.7293 646 116.714 801.743 488.415
935 0 56.1724 12.6397 710 116.286 801.311 486.855
936 0 57.0746 12.545 716 114.891 802.423 487.168
937 0 59.0481 12.9725 766 114.124 801.698 486.154
938 0 61.0507 13.1366 802 114.162 801.488 485.384
939 0 63.0458 13.4664 849 114.196 801.38 484.302
940 0 66.093 14.4947 958 112.074 801.199 483.213
941 0 68.1127 13.6685 931 115.633 801.098 480.684
942 0 70.1494 13.9702 980 115.74 801.251 481.561
943 0 71.0974 13.2213 940 119.434 801.205 479.965
944 0 73.1696 14.3092 1047 117.821 801.326 478.248
945 0 76.0805 13.4463 1023 120.665 801.337 478.309
946 0 78.1276 14.1819 1108 120.116 800.679 477.263
947 0 83.2319 14.5978 1215 117.567 801.543 476.779
948 0 83.1169 14.2691 1186 122.023 801.268 472.371
949 0 88.139 14.931 1316 119.935 800.687 471.616
950 0 89.2383 13.7609 1228 125.617 800.363 469.896
951 0 93.2999 14.6195 1364 123.251 800.279 468.682
952 0 95.2451 14.195 1352 125.262 799.446 466.458
953 1 48.1564 11.5873 558 131.296 799.158 489.943
954 0 51.0664 12.1019 618 129.542 801.275 489.511
955 0 52.2122 12.679 662 128.471 800.286 487.494
956 0 51.0473 12.6941 648 118.812 800.934 489.71
957 0 54.1671 13.6799 741 113.672 801.375 489.301
958 0 57.1833 12.9059 738 116.107 801.42 486.196
959 0 56.1106 14.115 792 113.283 801.026 485.187
960 0 57.1084 12.6776 724 117.905 800.46 486.344
961 0 59.1394 12.7157 752 117.574 800.811 484.012
962 0 63.1046 12.7883 807 115.09 801.03 484.249
963 0 62.0886 12.0473 748 115.624 800.267 481.118
964 0 66.1013 12.617 834 113.409 800.709 481.013
965 0 67.1274 12.1858 818 114.429 800.281 480.369
966 0 72.1329 13.586 980 110.317 800.182 478.004
967 0 71.1576 12.0156 855 118.979 800.372 477.268
968 0 74.0968 12.1463 900 118.224 800.25 476.142
969 0 76.167 12.0393 917 119.735 799.59 474.167
970 0 80.351 12.5823 1011 118.972 800.603 471.055
971 0 83.2512 13.7416 1144 116.448 799.942 469.823
972 0 85.2952 12.3688 1055 124.882 799.823 471.259
973 0 87.6231 11.6065 1017 126.883 800.352 468.307
974 1 44.0395 11.6941 515 119.922 799.922 487.922
975 0 45.1607 10.7173 484 122.26 799.775 486.905
976 0 46.0519 10.7704 496 122.2 800.121 487.161
977 0 49.0482 10.3368 507 118.499 802.195 487.854
978 0 50.0514 11.4482 573 116.745 801.197 489.304
979 0 52.0734 11.4262 595 115.622 801.338 489.529
980 0 52.0861 11.6538 607 116.409 801.008 487.916
981 0 55.0754 12.2196 673 114.574 801.147 485.495
982 0 57.0345 12.2733 700 114.724 801.43 483.294
983 0 60.0315 12.8932 774 113.128 801.217 484.671
984 0 59.0425 12.2793 725 115.094 801.469 484.177
985 0 63.1338 11.3727 718 117.751 800.632 480.308
986 0 64.2364 12.7342 818 116.516 801.146 478.938
987 0 65.1942 12.0103 783 119.241 801.37 478.9
988 0 68.2391 12.6027 860 117.992 801.178 477.405
989 0 70.0883 13.1691 923 117.337 801.451 475.886
990 0 73.3127 13.3128 976 117.96 801.173 474.697
991 0 77.2042 14.1314 1091 116.105 800.808 472.105
992 0 80.3762 14.3326 1152 116.038 800.458 471.159
993 0 83.5029 13.7121 1145 120.105 801.187 468.713
994 0 84.4002 14.1232 1192 119.142 800.348 467.78
995 0 87.2361 12.9075 1126 123.331 800.634 463.94
996 0 90.3579 13.3691 1208 121.999 800.688 464.056
997 0 94.1669 13.5292 1274 121.679 800.936 461.745
998 0 99.2252 15.097 1498 116.901 799.972 459.582
999 1 51.0509 11.1066 567 121.303 800.958 484.963
1000 0 52.0929 12.5161 652 116.153 801.584 484.452
1001 0 51.2632 9.61704 493 116.548 800.18 480.142
1002 0 56.0738 11.2887 633 112.85 799.891 481.485
1003 0 56.086 12.3382 692 111.734 801.28 480.027
1004 0 58.0837 11.69 679 111.973 800.601 481.193
1005 0 59.0645 10.7002 632 114.242 801.174 482.707
1006 0 64.0689 12.2524 785 110.781 800.678 481.046
1007 0 67.1107 12.3378 828 110.216 800.896 480.581
1008 0 67.1022 12.548 842 111.19 800.438 479.765
1009 0 70.067 12.4024 869 111.169 801.205 480.016
1010 0 72.1088 12.4257 896 112.383 801.065 476.221
1011 0 74.0443 12.0198 890 114.762 800.148 476.237
1012 0 76.0784 11.843 901 115.519 800.299 475.922
1013 0 81.095 12.7135 1031 114.398 800.508 473.8
1014 0 84.0642 13.3231 1120 112.829 799.38 472.489
1015 0 86.147 11.5965 999 118.642 800.775 469.476
1016 1 46.0805 12.1961 562 109.598 801.327 489.281
1017 0 47.088 10.937 515 113.109 801.598 490.567
1018 0 49.0903 11.8964 584 111.45 801.957 489.486
1019 0 50.258 11.5206 579 109.687 801.705 489.812
1020 0 52.1512 12.6363 659 107.577 801.373 487.404
1021 0 52.1093 12.6465 659 108.915 801.044 486.618
1022 0 54.0897 12.0171 650 110.745 801.092 486.288
1023 0 57.1664 11.8776 679 110.782 801.222 486.166
1024 0 59.1803 12.7914 757 110.05 801.144 484.881
1025 0 61.1156 12.5827 769 110.375 802.051 483.095
1026 0 60.1321 11.5412 694 115.666 800.657 482.728
1027 0 62.1321 12.8597 799 112.889 801.517 481.874
1028 0 64.122 13.1468 843 113.571 799.818 480.848
1029 0 64.0126 11.5134 737 117.395 800.147 480.099
1030 0 67.0655 11.8839 797 117.517 800.34 479.452
1031 0 70.0507 13.3903 938 114.535 800.666 478.531
1032 0 72.0747 12.1541 876 118.461 801.111 475.124
1033 0 73.0414 11.6235 849 119.788 800.491 475.198
1034 0 78.0484 11.8516 925 118.629 800.915 474.853
1035 0 80.1133 12.5947 1009 118.871 800.551 471.819
1036 0 83.0639 12.677 1053 117.681 800.678 472.06
1037 0 84.0728 11.716 985 121.358 801.523 469.086
1038 1 47.0516 11.4343 538 113.348 801.662 490.455
1039 0 46.0162 10.3877 478 115.847 800.791 489.741
1040 0 47.0341 11.9275 561 111.829 800.105 488.872
1041 0 49.1111 12.4819 613 111.506 801.051 489.971
1042 0 49.0785 12.0419 591 111.775 799.347 489.926
1043 0 51.0706 11.0435 564 114.229 800.456 487.447
1044 0 53.0593 11.685 620 113.094 800.531 486.585
1045 0 52.0669 10.5249 548 116.889 800.575 484.586
1046 0 55.0972 10.8717 599 114.88 800.199 483.886
1047 0 56.0723 10.754 603 115.766 800.224 484.585
1048 0 60.0629 12.0707 725 112.306 800.145 482.748
1049 0 62.1008 11.0466 686 114.84 799.765 481.494
1050 0 63.0835 11.2074 707 115.699 800.6 481.545
1051 0 67.0538 12.2737 823 112.041 800.171 479.499
1052 0 69.0755 11.7842 814 113.165 799.464 476.907
1053 0 69.0821 12.1739 841 114.139 799.6 477.222
1054 0 71.0831 11.4936 817 116.427 799.603 477.769
1055 0 74.0901 12.1204 898 115.149 799.943 473.478
1056 0 75.154 10.5783 795 118.333 799.869 474.42
1057 0 78.152 11.6952 914 116.743 800.154 471.237
1058 0 80.1749 11.3128 907 118.427 800.461 469.569
1059 0 84.0899 11.5947 975 117.089 800.425 470.574
1060 0 87.0885 11.5859 1009 118.65 800.045 468.219
1061 0 91.0383 11.226 1022 120.735 799.665 467.109
1062 1 48.0287 11.1183 534 114.959 799.586 487.249
1063 0 48.0709 10.0477 483 118.23 799.632 485.172
1064 0 50.0897 11.3197 567 119.683 800.122 484.305
1065 0 53.2082 12.1786 648 117.948 799.892 483.917
1066 0 54.1491 12.1701 659 117.621 800.46 483.935
1067 0 54.1334 11.0653 599 122.661 800.289 482.928
1068 0 56.1066 11.692 656 121.296 800.124 483.402
1069 0 57.1154 11.6256 664 121.931 800.244 482.789
1070 0 61.1507 11.0056 673 122.202 799.719 482.166
1071 0 62.1132 12.0747 750 120.871 800.079 480.765
1072 0 65.1352 12.9884 846 119.311 800.1 479.922
1073 0 66.141 13.5166 894 118.796 799.988 480.116
1074 0 67.1353 12.1099 813 124.702 799.886 478.138
1075 0 71.164 13.49 960 121.155 800.12 477.281
1076 0 73.1256 12.0478 881 125.754 799.797 474.713
1077 0 75.2417 14.2474 1072 121.084 799.268 474.494
1078 0 79.0932 13.8191 1093 120.909 799.808 474.2
1079 0 78.2171 12.0434 942 129.929 800.124 471.097
1080 0 83.1446 13.3623 1111 125.722 799.494 470.236
1081 0 86.1122 12.9018 1111 127.522 800.461 469.278
1082 0 89.2313 13.8404 1235 124.965 800.066 468.465
1083 1 47.1209 10.0168 472 128.689 799.322 488.826
1084 0 48.0472 10.9059 524 126.87 798.954 487.328
1085 0 49.0572 10.8649 533 125.636 798.966 486.22
1086 0 48.0741 9.58936 461 120.64 800.232 481.822
1087 0 51.0426 10.2855 525 121.086 800.737 481.804
1088 0 58.0502 11.9207 692 122.863 801.668 486.857
1089 0 58.0389 12.6467 734 121.837 801.222 486.425
1090 0 58.0359 11.8203 686 124.943 801.984 484.182
1091 0 63.032 12.2636 773 123.036 801.819 482.877
1092 0 62.0998 11.0951 689 117.041 801.552 483.154
1093 0 62.0954 11.128 691 130.453 801.554 483.114
1094 0 65.0698 10.3735 675 118.744 800.296 481.379
1095 0 68.1216 12.3162 839 114.553 799.589 480.141
1096 0 70.1288 10.9228 766 117.426 800.644 478.734
1097 0 73.1071 11.531 843 116.149 801.046 477.394
1098 0 77.1107 11.9698 923 114.795 800.489 475.777
1099 0 77.1069 12.0352 928 114.915 801.151 474.335
1100 0 80.188 11.3857 913 114.2 800.979 475.553
1101 0 82.1281 12.103 994 114.791 800.938 469.758
1102 0 85.1313 11.6996 996 115.305 800.611 471.504
1103 0 87.1423 11.6247 1013 116.426 800.533 469.199
1104 0 92.0946 11.6619 1074 116.421 800.31 466.293
1105 1 46.1281 9.82047 453 118.49 801.172 487.826
1106 0 49.0926 9.37006 460 118.62 801.33 486.035
1107 0 53.0719 13.0766 694 106.912 802.118 483.977
1108 0 55.0359 11.1563 614 110.388 801.283 483.577
1109 0 57.0327 11.5372 658 108.489 799.907 482.804
1110 0 59.0941 12.0655 713 106.851 799.495 485.318
1111 0 62.0283 11.9945 744 106.801 799.333 481.269
1112 0 64.0261 12.6198 808 104.877 799.791 483.256
1113 0 66.028 12.419 820 105.866 799.707 480.671
1114 0 67.0275 11.9652 802 107.546 799.71 479.055
1115 0 70.067 12.1027 848 107.279 799.974 475.381
1116 0 72.0559 11.8935 857 108.424 798.972 477.676
1117 0 73.0366 11.9803 875 109.205 798.839 476.374
1118 0 77.0284 10.931 842 111.513 799.018 474.821
1119 0 78.0744 12.3216 962 110.061 799.494 474.211
1120 0 81.1385 13.1873 1070 111.107 798.918 472.636
1121 0 84.1449 12.1457 1022 115.386 799.369 470.882
1122 0 88.2032 12.6979 1120 114.277 799.129 471.407
1123 0 90.2783 13.3587 1206 114.767 798.653 469.732
1124 0 89.2952 12.5315 1119 118.969 799.122 470.231
1125 0 93.2786 12.1035 1129 121.138 799.888 469.968
1126 1 50.093 10.8398 543 125.004 799.971 485.965
1127 0 52.1276 11.7212 611 122.178 799.406 486.534
1128 0 54.1188 10.7541 582 122.607 798.859 486.44
1129 0 52.0447 10.5678 550 114.987 799.647 487.064
1130 0 55.0432 11.2094 617 112.626 799.796 487.749
1131 0 56.0566 10.8462 608 114.038 799.442 486.301
1132 0 59.036 12.3823 731 109.557 799.183 485.67
1133 0 60.0618 10.9387 657 111.848 799.702 486.671
1134 0 60.0944 10.9162 656 114.345 799.215 484.088
1135 0 64.0572 11.6302 745 112.91 799.803 483.576
1136 0 66.0693 11.3517 750 113.833 799.227 482.519
1137 0 67.1151 12.6499 849 112.641 800.289 478.996
1138 0 70.121 11.9508 838 114.544 800.79 477.995
1139 0 72.1054 12.3985 894 114.601 800.346 476.927
1140 0 76.1038 12.3515 940 114.6 800.566 477.256
1141 0 77.1568 11.9497 922 117.721 800.773 475.674
1142 0 79.1539 12.4441 985 117.841 800.994 473.009
1143 0 83.1966 13.0534 1086 117.36 800.067 471.364
1144 0 84.2235 11.9088 1003 120.706 800.35 472.069
1145 0 89.1093 13.9492 1243 116.303 799.998 469.644
1146 0 91.2496 13.1069 1196 119.523 799.5 469.107
1147 0 94.3041 12.64 1192 121.92 799.699 466.763
1148 0 97.1993 12.6133 1226 122.98 799.624 464.698
1149 0 101.129 12.9537 1310 123.379 799.628 462.676
1150 1 54.1975 11.2367 609 119.064 799.54 485.939
1151 0 56.129 11.1173 624 118.149 800.04 486.17
1152 0 57.1269 11.7283 670 118.009 800.093 484.897
1153 0 61.2142 12.5461 768 114.184 800.092 483.682
1154 0 65.1116 13.162 857 111.656 799.822 482.218
1155 0 64.1626 12.0943 776 115.178 799.982 482.164
1156 0 66.0647 11.186 739 116.866 800.177 481.256
1157 0 70.1229 12.8061 898 113.251 799.791 476.821
1158 0 71.0982 11.7725 837 114.889 799.28 477.202
1159 0 73.1124 12.556 918 114.639 799.885 477.426
1160 0 76.0888 11.9729 911 116.75 800.451 474.876
1161 0 79.0891 11.7463 929 118.636 799.352 473.015
1162 0 81.1003 11.1344 903 121.369 799.41 471.67
1163 0 85.0881 11.5997 987 120.081 799.678 471.943
1164 0 87.0775 12.2535 1067 117.484 799.293 471.791
1165 0 90.1904 10.8992 983 122.326 799.865 468.179
1166 1 48.1319 9.95182 479 115.035 800.595 488.706
1167 0 51.0814 10.9433 559 111.275 800.281 487.674
1168 0 52.1226 11.6072 605 110.342 800.638 487.276
1169 0 52.1373 11.6999 610 111.741 800.277 485.482
1170 0 54.2039 12.0471 653 111.311 800.167 484.94
1171 0 54.1279 11.4359 619 113.388 800.869 483.087
1172 0 55.1125 11.6307 641 112.649 800.513 482.562
1173 0 59.0487 11.9901 708 111.186 800.446 481.67
1174 0 61.0908 11.5729 707 111.126 800.591 480.655
1175 0 60.0383 11.3927 684 112.732 799.738 480.134
1176 0 63.1452 12.1308 766 110.572 799.296 478.01
1177 0 65.082 11.9542 778 110.945 800.553 476.509
1178 0 65.1669 10.4808 683 114.253 800.435 474.675
1179 0 68.1759 11.617 792 111.307 799.494 474.5
1180 0 71.0996 11.6175 826 110.941 800.082 472.961
1181 0 73.122 11.3372 829 112.029 800.689 470.639
1182 0 75.0844 10.7346 806 113.687 800.455 471.845
1183 0 78.1385 10.2382 800 114.885 800.066 471.778
1184 0 82.1677 12.2067 1003 110.369 800.289 466.804
1185 1 42.0585 9.70077 408 111.561 800.917 489.493
1186 0 44.1827 10.5471 466 109.489 800.172 488.38
1187 0 43.1324 11.1285 480 109.688 799.906 487.1
1188 0 43.1776 10.5147 454 111.866 800.273 485.698
1189 0 46.1878 10.912 504 109.728 800.381 485.681
1190 0 46.0263 11.3631 523 115.094 800.987 487.516
1191 0 47.096 11.5084 542 111.168 799.445 488.601
1192 0 47.0187 10.4852 493 114.304 799.728 487.432
1193 0 51.0765 11.5317 589 110.431 801.139 485.458
1194 0 50.0605 10.787 540 112.507 801.43 484.504
1195 0 52.0933 10.9035 568 112.375 800.887 483.416
1196 0 51.0445 9.65823 493 115.097 800.414 485.576
1197 0 54.0453 11.3608 614 112.07 800.373 482.197
1198 0 55.0713 11.1855 616 112.377 800.049 482.318
1199 0 57.1498 10.0963 577 113.726 800.539 481.423
1200 0 58.0296 10.4257 605 114.213 800.149 480.164
1201 0 60.0959 11.0823 666 110.887 800.324 481.12
1202 0 61.1098 10.2111 624 113.117 800.231 479.014
1203 0 65.1222 10.2576 668 111.714 799.901 478.139
1204 0 67.1619 10.3332 694 111.772 799.768 476.082
1205 0 69.0796 10.7847 745 110.536 799.709 476.264
1206 0 73.0757 11.7412 858 107.739 800.276 475.521
1207 0 76.1216 10.5095 800 108.909 800.358 477.019
1208 0 77.109 10.9196 842 109.464 799.998 474.171
1209 0 81.0621 12.3856 1004 106.161 799.574 472.17
1210 0 80.1133 10.3978 833 112.186 799.281 469.198
1211 0 86.1575 11.595 999 108.674 799.484 468.294
1212 0 89.1106 11.2444 1002 108.326 799.828 469.782
1213 0 89.2724 11.0448 986 110.543 799.87 463.172
1214 0 94.0761 11.6714 1098 108.533 799.67 464.139
1215 0 96.2704 11.0834 1067 110.085 799.687 463.998
1216 0 101.083 12.4749 1261 106.577 799.324 460.886
1217 0 103.145 11.0718 1142 109.117 799.898 461.01
1218 0 107.082 11.9068 1275 106.964 799.521 459.312
1219 0 109.12 12.4633 1360 107.89 799.762 456.629
1220 0 115.071 12.5487 1444 107.447 799.366 455.28
1221 0 118.093 12.9898 1534 107.206 799.888 452.139
1222 0 123.231 12.4481 1534 109.081 799.383 451.651
1223 0 122.229 12.5502 1534 139.178 799.377 451.554
1224 0 129.134 12.5296 1618 112.024 799.164 443.13
1225 0 136.285 14.7045 2004 107.618 799.343 442.43
1226 0 138.201 13.2705 1834 111.34 799.86 441.738
1227 0 146.14 14.5272 2123 107.819 799.254 439.572
1228 1 83.1006 12.1178 1007 105.38 799.014 471.216
1229 0 87.1486 14.5613 1269 99.1876 799.674 470.697
1230 0 90.1122 12.7397 1148 103.031 799.429 467.852
1231 0 91.0678 13.3747 1218 103.782 799.509 466.553
1232 0 93.1993 11.4164 1064 108.63 799.352 468.669
1233 0 97.1424 13.1971 1282 105.064 799.046 465.569
1234 0 100.377 11.7159 1176 106.009 800.02 463.044
1235 0 103.161 12.6114 1301 107.976 799.294 458.967
1236 0 106.335 11.8682 1262 109.381 798.746 459.496
1237 0 110.288 12.8935 1422 106.786 798.421 454.405
1238 0 109.269 12.3365 1348 109.382 799.097 450.323
1239 0 113.264 11.5217 1305 110.909 799.247 446.365
1240 0 116.224 11.5639 1344 109.891 798.455 444.115
1241 1 66.0853 10.1838 673 105.9 799.624 472.106
1242 0 69.0242 10.5325 727 111.97 800.602 473.894
1243 0 73.1135 11.7215 857 108.361 800.197 474.736
1244 0 72.0846 12.1801 878 108.497 799.925 472.895
1245 0 78.0807 12.4871 975 105.933 800.177 471.46
1246 0 81.0763 12.2107 990 106.703 799.808 469.191
1247 0 82.1228 12.6031 1035 106.336 800.003 467.776
1248 0 82.0907 11.9015 977 108.69 800.041 465.957
1249 0 85.0798 12.0828 1028 107.3 799.852 465.755
1250 0 88.108 11.9512 1053 105.204 799.201 463.302
1251 0 91.0491 12.5976 1147 104.68 798.987 464.618
1252 0 92.1092 11.4429 1054 107.855 799.168 461.689
1253 0 95.0879 11.1265 1058 108.662 799.653 460.508
1254 0 99.0958 12.0086 1190 106.745 800.215 458.907
1255 0 99.1461 11.1048 1101 110.357 799.849 452.862
1256 0 105.084 11.9048 1251 108.396 799.444 452.799
1257 0 105.122 12.0241 1264 108.952 798.756 450.996
1258 0 111.284 11.8705 1321 109.689 799.042 448.428
1259 0 115.147 12.4624 1435 108.047 798.833 446.074
1260 0 116.192 11.7306 1363 110.247 798.759 446.803
1261 0 126.145 12.6204 1592 107.497 798.359 447.288
1262 1 68.0537 10.7562 732 106.989 798.822 471.574
1263 0 73.0478 11.5951 847 105.96 799.697 468.675
1264 0 75.1345 12.1782 915 105.186 799.99 465.972
1265 0 77.2293 11.0968 857 107.953 798.904 467.693
1266 0 80.2057 12.4804 1001 107.101 798.978 473.19
1267 0 82.189 11.8751 976 109.95 798.581 469.635
1268 0 87.1487 13.1729 1148 106.557 798.939 470.675
1269 0 89.2506 12.5041 1116 108.634 798.496 469.522
1270 0 91.1411 12.936 1179 108.062 798.652 469.809
1271 0 95.0772 13.347 1269 108.099 798.881 468.852
1272 0 95.1653 11.748 1118 113.218 798.918 467.873
1273 0 99.1371 13.0425 1293 112.403 799.181 463.232
1274 0 103.128 13.3621 1378 111.346 799.479 461.136
1275 0 105.133 13.0216 1369 112.771 799.145 460.543
1276 0 106.132 12.0793 1282 116.945 799.484 458.699
1277 0 112.138 13.1445 1474 114.592 798.277 456.153
1278 0 113.141 13.8146 1563 157.68 797.378 454.827
1279 0 120.153 14.648 1760 111.539 798.939 452.144
1280 0 120.211 12.8274 1542 117.073 799.267 452.908
1281 0 126.294 13.6269 1721 116.295 799.003 449.253
1282 0 131.232 13.7771 1808 116.123 799.877 448.174
1283 1 71.1229 11.3044 804 113.705 801.152 476.628
1284 0 72.1579 9.46535 683 119.283 801.266 475.723
1285 0 77.0645 11.1465 859 114.546 800.224 475.276
1286 0 79.1306 13.3577 1057 114.061 800.259 472.094
1287 0 80.1948 13.4797 1081 116.364 799.615 469.539
1288 0 83.23 12.4595 1037 117.345 800.384 471.473
1289 0 85.1648 13.057 1112 118.607 799.844 467.082
1290 0 87.1586 12.1617 1060 120.867 800.808 467.688
1291 0 88.1293 11.8916 1048 122.54 800.473 466.148
1292 0 92.1353 13.9469 1285 118.61 799.834 463.455
1293 0 94.1304 13.5025 1271 120.376 800.635 463.406
1294 0 95.1422 12.2028 1161 124.079 799.502 461.674
1295 0 99.1109 12.824 1271 121.777 800.561 461.439
1296 0 103.241 13.1246 1355 121.728 799.832 456.96
1297 0 104.215 12.3974 1292 123.422 799.933 457.617
1298 0 109.058 13.149 1434 119.957 799.384 458.642
1299 0 112.097 13.1225 1471 120.614 799.865 454.587
1300 0 115.119 13.2385 1524 120.563 799.467 452.337
1301 0 118.132 12.4013 1465 121.8 800.466 452.725
1302 0 123.131 13.2541 1632 119.487 800.303 448.918
1303 0 126.264 12.9016 1629 120.41 799.916 447.225
1304 1 66.1026 10.045 664 118.654 800.857 476.42
1305 0 72.1149 11.7035 844 110.659 801.286 475.002
1306 0 71.0934 12.0405 856 111.825 800.99 470.74
1307 0 75.1689 11.7868 886 107.015 800.297 475.367
1308 0 78.1034 11.8945 929 106.521 800.252 474.904
1309 0 79.0822 13.0624 1033 105.157 799.984 473.161
1310 0 82.2218 12.1136 996 107.807 800.154 471.231
1311 0 86.1227 12.2035 1051 107.308 800.693 469.925
1312 0 87.1289 12.0282 1048 108.986 800.045 466.26
1313 0 87.1479 11.4403 997 110.805 800.404 464.892
1314 0 93.1119 11.1371 1037 108.235 800.202 467.079
1315 0 94.0948 11.0102 1036 109.194 800.339 467.341
1316 0 96.099 11.2696 1083 107.418 800.357 462.693
1317 0 99.1104 10.1907 1010 109.767 799.987 461.153
1318 0 103.12 11.2878 1164 107.058 799.287 459.966
1319 0 107.176 12.0269 1289 109.801 799.198 459.997
1320 0 111.229 11.9214 1326 109.851 799.66 458.901
1321 0 114.149 12.3698 1412 106.707 798.868 454.186
1322 0 119.272 12.0649 1439 107.065 798.398 457.309
1323 1 64.2553 11.6877 751 104.455 799.779 477.502
1324 0 66.1103 12.1161 801 103.146 799.884 477.562
1325 0 68.2029 11.1139 758 101.805 799.098 474.497
1326 0 71.072 10.609 754 103.149 799.46 472.707
1327 0 74.1462 12.0977 897 100.462 798.462 473.827
1328 0 77.222 12.4187 959 99.8811 798.836 473.087
1329 0 78.1175 12.8908 1007 100.347 799.261 471.863
1330 0 82.1266 11.5188 946 103.049 800.05 469.581
1331 0 83.1886 9.4965 790 108.173 799.56 468.448
1332 0 86.2086 11.6114 1001 103.934 800.297 467.338
1333 0 88.2141 11.7895 1040 105.101 799.199 466.788
1334 0 94.222 13.3408 1257 101.979 799.453 464.632
1335 0 96.0576 12.5029 1201 105.002 798.85 466.155
1336 0 100.117 11.2268 1124 107.776 798.635 460.041
1337 0 102.128 12.3766 1264 105.847 799.406 461.396
1338 0 106.191 13.1461 1396 105.973 799.302 459.228
1339 1 56.1714 11.1267 625 103.296 798.896 483.195
1340 0 60.159 12.2509 737 101.521 799.298 483.107
1341 0 61.1035 12.4706 762 102.436 799.819 481.381
1342 0 64.2155 11.586 744 104.085 800.055 481.8
1343 0 63.1374 10.5326 665 108.012 800.21 481.188
1344 0 68.0693 13.6919 932 100.629 800.099 478.156
1345 0 70.0654 12.4027 869 103.539 800.189 477.367
1346 0 72.1054 10.9562 790 106.199 800.601 476.468
1347 0 74.0766 12.2981 911 103.18 800.371 475
1348 0 76.0997 12.4048 944 103.244 801.073 476.225
1349 0 78.1198 12.7497 996 103.275 800.262 474.552
1350 0 81.0971 13.4653 1092 102.463 800.118 471.484
1351 0 81.0898 10.9632 889 108.615 800.448 468.503
1352 0 86.1472 12.409 1069 105.548 800.213 469.956
1353 0 91.1359 13.3537 1217 104.252 799.989 469.395
1354 0 92.1504 13.7601 1268 105.64 800.759 468.065
1355 0 96.2534 12.3944 1193 108.158 800.239 466.036
1356 0 98.4182 12.0811 1189 110.799 799.831 463.906
1357 0 100.269 12.297 1233 111.522 800.248 462.312
1358 1 51.2772 9.12686 468 108.718 801.173 487.526
1359 0 54.0419 11.2505 608 103.831 800.041 488.73
1360 0 55.1277 11.1378 614 107.272 799.599 486.068
1361 0 57.1386 11.2708 644 106.402 799.857 484.756
1362 0 59.2071 11.2655 667 106.327 799.315 485.115
1363 0 60.1164 11.195 673 108.004 799.434 481.311
1364 0 64.0805 12.9525 830 103.743 799.898 482.523
1365 0 66.1077 13.3873 885 101.975 799.576 482.332
1366 0 68.0849 13.5125 920 102.439 799.599 481.1
1367 0 70.2769 12.65 889 105.595 799.909 478.918
1368 0 72.1546 12.4455 898 106.431 799.853 478.007
1369 0 74.1519 13.5398 1004 104.888 799.443 477
1370 0 77.1577 12.5198 966 107.853 800.004 474.911
1371 0 78.1217 12.4933 976 109.69 800.13 474.941
1372 0 79.1702 12.3531 978 111.405 799.566 472.865
1373 0 82.1011 12.3384 1013 112.406 800.044 471.712
1374 0 85.1461 13.4122 1142 110.172 799.793 472.302
1375 0 86.0539 11.0628 952 116.742 799.983 472.832
1376 0 89.0384 10.8829 969 121.743 800.086 469.655
1377 0 92.1084 11.975 1103 119.727 800.525 468.194
1378 0 94.1078 11.7525 1106 116.62 799.729 466.439
1379 0 97.0981 12.7294 1236 114.49 799.766 465.879
1380 0 99.1063 12.754 1264 115.718 800.036 462.315
1381 0 103.139 10.3065 1063 120.164 799.818 465.156
1382 0 107.135 12.4796 1337 116.777 800.315 459.682
1383 1 59.0411 10.5012 620 115.21 797.939 484.818
1384 0 63.0556 12.1321 765 111.929 798.191 481.967
1385 0 63.0579 11.9573 754 114.305 798.932 482.028
1386 0 63.0579 12.0207 758 141.698 799.92 482.095
1387 0 67.1115 12.7698 857 109.907 798.177 480.191
1388 0 69.1527 12.4362 860 110.041 799.592 477.551
1389 0 73.1245 12.2667 897 109.559 799.068 478.146
1390 0 73.0806 12.3152 900 111.37 799.158 476.008
1391 0 77.0807 12.3377 951 111.37 798.378 473.788
1392 0 79.0873 11.1522 882 115.412 798.48 471.325
1393 0 83.1134 13.1988 1097 109.683 798.716 471.335
1394 0 83.2375 11.4492 953 110.002 798.866 470.923
1395 0 88.1271 12.0508 1062 107.553 798.763 470.578
1396 0 90.1192 11.6623 1051 108.307 798.985 469.509
1397 0 94.0669 12.7569 1200 106.242 798.847 465.709
1398 0 98.1076 12.0888 1186 106.848 798.864 464.5
1399 0 99.1396 11.388 1129 108.552 798.407 463.611
1400 0 102.123 9.77249 998 111.558 798.86 458.847
1401 1 53.1459 10.0854 536 107.972 797.991 484.614
1402 0 56.1498 10.846 609 106.077 799.473 482.755
1403 0 57.1264 11.5708 661 103.941 800.977 483.711
1404 0 59.0527 11.4305 675 105.116 799.945 482.421
1405 0 62.1873 11.594 721 104.355 799.258 480.66
1406 0 63.1579 12.3817 782 102.916 799.639 478.073
1407 0 63.1596 10.988 694 107.644 798.784 478.34
1408 0 68.1955 11.9363 814 104.215 799.559 477.65
1409 0 71.0829 11.5499 821 105.432 799.521 477.123
1410 0 72.1007 12.5103 902 105.014 798.961 474.248
1411 0 74.1421 11.7882 874 107.602 799.324 473.268
1412 0 75.2772 11.8761 894 107.603 799.294 471.775
1413 0 79.1353 11.9668 947 107.778 798.961 470.688
1414 0 81.2023 12.1671 988 107.23 799.038 469.566
1415 0 86.09 13.4278 1156 103.318 799.595 469.032
1416 0 86.1524 12.4431 1072 106.924 799.609 467.441
1417 0 92.081 13.184 1214 105.09 799.687 465.577
1418 0 93.0981 12.5996 1173 107.743 799.303 463.061
1419 0 95.0768 12.0534 1146 109.977 798.908 462.067
1420 1 48.0398 10.2207 491 113.218 799.668 484.42
1421 0 53.0431 11.6132 616 103.959 799.782 484.912
1422 0 52.0266 11.571 602 104.372 800.143 483.698
1423 0 54.0233 11.1248 601 105.699 800.083 481.581
1424 0 55.0816 11.4013 628 105.774 799.691 480.065
1425 0 57.064 11.6536 665 104.675 800.577 479.728
1426 0 56.053 11.6318 652 105.34 801.276 481.121
1427 0 59.0488 12.0917 714 103.822 799.863 479.514
1428 0 60.0927 12.4308 747 104.096 800.95 477.11
1429 0 63.1061 12.5186 790 103.657 800.181 477.168
1430 0 64.0582 11.9267 764 105.779 800.474 477.546
1431 0 66.0353 10.7821 712 108.462 800.412 475.396
1432 0 68.0883 10.9123 743 109.433 799.83 472.693
1433 0 70.0876 12.3702 867 106.872 799.528 472.233
1434 0 73.0708 12.221 893 107.917 799.894 470.868
1435 0 74.0468 12.249 907 108.678 800.272 468.544
1436 0 77.1602 12.8434 991 107.729 799.91 468.243
1437 0 80.0626 12.8275 1027 108.345 800.023 467.638
1438 0 83.0944 12.552 1043 109.834 799.877 467.231
1439 0 84.0659 12.7043 1068 110.427 799.593 466.594
1440 0 85.1032 11.7739 1002 113.199 799.888 463.625
1441 0 90.1122 13.4277 1210 109.127 799.426 461.352
1442 0 93.0924 12.74 1186 111.209 799.695 462.126
1443 0 95.0651 12.381 1177 114.168 800.313 458.572
1444 0 98.0934 11.9886 1176 116.105 800.519 457.428
1445 0 101.132 12.8742 1302 114.813 799.875 457.055
1446 0 104.089 12.3549 1286 116.163 799.353 455.818
1447 0 107.106 12.0348 1289 117.561 799.769 455.748
1448 0 112.055 12.3957 1389 117.447 799.496 452.33
1449 1 62.0922 11.499 714 117.625 799.424 474.824
1450 0 62.0604 10.8926 676 117.768 800.106 476.03
1451 0 62.1145 11.189 695 115.499 799.388 467.812
1452 0 65.1102 10.5053 684 109.966 798.83 466.975
1453 0 69.1597 11.2204 776 106.468 799.334 467.099
1454 0 72.1477 12.3912 894 103.012 798.925 466.772
1455 0 74.1074 11.3889 844 106.078 798.336 464.95
1456 0 76.1113 11.1679 850 106.468 799.393 466.062
1457 0 78.1708 12.3831 968 105.728 799.717 462.335
1458 0 81.1732 11.2229 911 108.558 799.345 461.993
1459 0 83.2512 11.0389 919 110.213 798.953 460.332
1460 0 83.1075 10.8173 899 111.524 798.573 460.042
1461 0 87.1181 10.6063 924 113.47 798.904 458.042
1462 0 88.1599 11.4224 1007 113.366 799.064 457.996
1463 0 94.0819 12.2659 1154 111.206 799.108 453.724
1464 0 95.1705 10.2868 979 117.552 798.458 453.116
1465 0 98.2219 10.9039 1071 119.229 798.018 450.349
1466 0 101.125 10.3733 1049 122.889 798.161 447.699
1467 0 106.167 11.9435 1268 121.237 798.431 448.704
1468 1 56.0553 11.1854 627 111.421 799.464 475.834
1469 0 57.0633 11.5486 659 112.795 799.633 474.182
1470 0 58.0896 10.501 610 110.226 798.462 476.257
1471 0 59.0522 9.99117 590 113.119 798.817 472.198
1472 0 61.0637 10.4809 640 110.494 798.845 476.095
1473 0 62.1552 10.3772 645 111.662 798.977 477.462
1474 0 63.097 11.5853 731 110.531 798.985 474.914
1475 0 64.0658 11.3789 729 113.738 798.48 477.779
1476 0 63.0873 10.6361 671 116.519 798.77 477.161
1477 0 68.1779 10.854 740 115.555 798.423 476.357
1478 0 69.0636 10.8451 749 116.696 798.854 475.569
1479 0 69.0669 10.6563 736 143.63 799.86 475.856
1480 0 71.0888 10.8878 774 116.363 798.959 470.714
1481 0 72.1068 10.956 790 118.733 798.256 467.062
1482 0 75.1179 11.8214 888 116.301 799.355 467.452
1483 0 80.1105 12.5452 1005 114.574 798.96 464.868
1484 0 80.075 10.9647 878 120.196 799.417 461.892
1485 0 83.0585 13.0751 1086 115.145 799.104 461.233
1486 0 87.067 12.5191 1090 116.085 798.746 460.045
1487 0 93.2742 13.1977 1231 114.757 798.34 460.219
1488 0 95.1013 12.8284 1220 114.543 798.204 457.488
1489 0 97.0713 12.6093 1224 118.135 798.469 456.226
1490 1 56.0708 12.1989 684 114.525 798.768 478.075
1491 0 57.1033 11.0852 633 123.518 799.319 480.284
1492 0 60.0681 12.003 721 123.646 797.288 481.422
1493 0 62.0231 12.7049 788 122.86 797.47 481.42
1494 0 65.0797 11.4014 742 125.111 797.412 482.253
1495 0 67.1424 12.3916 832 125.567 797.697 478.936
1496 0 70.1189 12.8781 903 122.008 797.617 477.997
1497 0 73.1331 11.7047 856 124.546 797.342 477.88
1498 0 74.1239 11.6292 862 126.78 797.929 475.326
1499 0 77.1336 12.6404 975 123.515 797.904 474.317
1500 0 78.0329 10.8672 848 121.993 797.329 473.619
1501 0 82.0478 11.993 984 119.478 797.732 472.278
1502 1 44.0169 10.1325 446 114.197 797.267 492.386
1503 0 45.0275 10.3492 466 106.079 798.365 492.034
1504 0 46.057 10.9864 506 108.508 798.561 489.498
1505 0 49.0432 12.1118 594 106.322 797.625 489.692
1506 0 48.0198 12.3282 592 105.127 798.821 489.422
1507 0 46.092 10.197 470 117.296 798.692 487.989
1508 0 49.0771 11.5533 567 112.896 799.249 488.109
1509 0 50.0509 11.3085 566 115.226 798.55 487.171
1510 0 52.0825 11.2514 586 114.181 798.85 486.911
1511 0 53.0476 10.8582 576 113.29 798.464 486.189
1512 0 56.15 11.3268 636 111.195 798.635 486.019
1513 0 57.11 11.259 643 109.068 799.395 484.799
1514 0 58.1986 10.9968 640 110.394 798.761 480.977
1515 0 60.1093 11.7785 708 107.89 799.391 483.008
1516 0 61.1633 11.1832 684 109.159 799.193 482.924
1517 0 62.1589 11.4545 712 109.781 799.239 480.142
1518 0 65.1724 11.7688 767 108.219 798.96 480.484
1519 0 65.1455 11.8657 773 110.12 798.706 478.701
1520 0 67.2874 11.6367 783 112.206 799.464 478.469
1521 0 69.1661 11.9567 827 112.978 799.244 474.888
1522 0 72.1744 11.874 857 113.54 799.066 475.516
1523 0 74.2401 10.8567 806 118.203 798.458 474.731
1524 0 74.1453 12.1518 901 118.01 798.542 474.314
1525 0 76.1604 11.699 891 122.098 798.615 473.107
1526 0 77.1804 11.4537 884 124.784 798.812 472.692
1527 0 77.159 10.9903 848 127.8 799.087 471.613
1528 0 80.1508 11.8152 947 126.442 798.394 471.872
1529 0 81.2061 11.6247 944 128.903 798.463 468.433
1530 0 85.1844 12.5492 1069 126.664 798.244 468.491
1531 0 87.2197 12.0615 1052 129.679 798.079 467.18
1532 0 90.1871 12.463 1124 129.512 798.661 465.556
1533 0 93.1896 11.321 1055 133.14 798.437 464.616
1534 1 51.1494 9.22787 472 123.261 798.6 487.818
1535 0 52.1896 11.2666 588 121.774 797.33 483.417
1536 0 52.1162 10.7452 560 125.196 797.273 483.236
1537 0 55.1881 10.5095 580 123.028 797.228 485.671
1538 0 56.134 10.9559 615 123.202 797.415 484.41
1539 0 57.07 10.8639 620 123.863 797.86 484.642
1540 0 60.1136 11.5947 697 122.554 797.581 484.166
1541 0 62.1432 11.3608 706 122.895 797.735 482.31
1542 0 63.1548 11.3214 715 122.982 797.456 481.594
1543 0 66.111 12.116 801 121.602 797.228 480.98
1544 0 67.0839 13.5502 909 118.13 798.085 480.789
1545 0 70.1731 12.1699 854 121.574 797.774 478.206
1546 0 72.0864 12.1243 874 123.535 797.181 477.295
1547 0 73.0922 12.0943 884 124.052 796.764 477.221
1548 0 73.105 11.1347 814 127.62 796.883 475.752
1549 0 77.1505 12.7932 987 123.15 797.224 476.342
1550 0 81.1098 12.6372 1025 122.193 796.977 474.03
1551 0 81.06 12.7313 1032 123.005 797.546 471.124
1552 0 86.1399 11.4813 989 126.037 797.351 470.481
1553 0 88.1539 11.6614 1028 127.248 797.43 470.077
1554 0 90.1453 11.8475 1068 127.633 797.123 467.389
1555 0 93.1596 12.5376 1168 125.808 797.089 467.194
1556 0 96.3106 11.5979 1117 127.897 797.171 465.406
1557 0 100.139 11.474 1149 128.146 796.723 463.446
1558 0 102.135 12.8066 1308 125.454 796.966 460.783
1559 1 57.0596 12.3555 705 118.445 797.862 485.217
1560 0 60.1223 11.5099 692 121.98 797.808 482.171
1561 0 61.1056 11.3738 695 123.899 797.822 482.283
1562 0 65.0584 11.8663 772 118.51 797.269 482.433
1563 0 66.0946 12.5578 830 116.648 797.736 481.924
1564 0 69.072 12.6679 875 116.463 797.259 478.17
1565 0 71.19 12.7686 909 115.462 797.81 478.634
1566 0 73.1476 13.0148 952 115.525 797.597 476.735
1567 0 76.0623 13.2654 1009 114.564 797.712 475.03
1568 0 79.0855 12.3664 978 116.691 797.497 474.755
1569 0 80.1738 12.9219 1036 116.677 796.924 472.745
1570 0 82.1332 12.4919 1026 118.47 796.764 470.9
1571 0 85.1133 12.924 1100 116.764 797.307 470.33
1572 0 88.1293 12.3001 1084 119.267 796.562 469.662
1573 0 89.146 13.0011 1159 118.551 797.258 465.69
1574 0 94.0893 12.722 1197 118.184 797.144 464.152
1575 0 96.1417 12.2944 1182 119.845 796.538 464.459
1576 0 101.087 12.87 1301 118.14 796.935 462.618
1577 0 104.113 12.7554 1328 118.989 797.185 461.435
1578 0 106.097 12.9032 1369 120.324 795.903 457.992
1579 1 59.0548 11.4978 679 117.3 797.937 485.71
1580 0 60.0866 12.8648 773 115.732 795.95 482.132
1581 0 62.0979 10.3063 640 111.62 797.248 476.969
1582 0 63.1158 10.758 679 111.191 796.965 478.943
1583 0 64.1412 11.8177 758 111.111 796.591 474.255
1584 0 69.2794 11.0134 763 111.435 796.586 475.263
1585 0 69.1659 10.8869 753 112.738 796.477 473.332
1586 0 71.3018 10.9394 780 114.991 796.981 471.395
1587 0 75.2076 12.4987 940 111.637 797.163 468.993
1588 0 76.2785 13.0443 995 111.081 796.131 469.726
1589 0 78.1657 12.384 968 112.998 795.969 468.217
1590 0 82.2767 12.4458 1024 112.704 795.91 468.83
1591 0 86.2052 12.7487 1099 113.214 795.618 465.381
1592 0 88.1558 12.4439 1097 114.119 796.181 464.232
1593 0 91.181 12.0639 1100 115.633 796.379 462.318
1594 0 94.1972 10.5311 992 120.341 796.385 460.54
1595 0 98.2555 12.7321 1251 115.469 796.535 459.643
1596 1 52.2634 10.1027 528 116.731 796.261 479.32
1597 0 57.1275 12.1132 692 110.517 796.728 480.013
1598 0 58.1471 11.3505 660 108.745 796.88 480.235
1599 0 59.1791 11.0005 651 111.172 797.091 478.902
1600 0 63.1318 12.0541 761 106.481 797.639 479.954
1601 0 64.1517 11.0675 710 110.021 797.163 476.99
1602 0 65.0566 10.7138 697 112.64 796.943 476.859
1603 0 67.1184 10.2952 691 113.619 796.618 474.307
1604 0 72.1104 11.2882 814 110.43 797.032 474.286
1605 0 71.0912 12.0831 859 111.85 796.753 473.46
1606 0 71.1068 10.2662 730 117.11 797.271 472.392
1607 0 76.1247 10.5222 801 116.62 797.136 471.901
1608 0 78.1116 11.8164 923 115.012 797.532 470.311
1609 0 81.2023 11.0219 895 116.882 797.198 469.677
1610 0 84.3247 11.7522 991 116.306 796.495 468.709
1611 0 87.3622 11.893 1039 116.652 796.754 465.588
1612 0 89.1631 11.3276 1010 118.453 796.956 463.87
1613 0 91.2972 11.0518 1009 121.107 796.264 461.708
1614 1 50.1183 10.4952 526 109.342 795.924 485.892
1615 0 50.0711 8.84742 443 116.973 796.483 482.675
1616 0 52.0509 10.5666 550 118.118 797.005 481.887
1617 0 55.0361 11.9376 657 109.059 796.597 481.056
1618 0 54.0844 11.3896 616 112.172 796.95 478.438
1619 0 55.2056 11.0496 610 113.205 796.948 479.331
1620 0 59.1827 11.5405 683 112.218 795.625 479.46
1621 0 59.0763 11.1043 656 114.816 796.648 475.107
1622 0 62.139 11.2168 697 115.291 796.449 474.273
1623 0 66.141 11.9442 790 112.516 796.614 474.797
1624 0 67.0776 11.7923 791 114.643 795.881 473.162
1625 0 69.215 12.2661 849 114.53 795.903 471.868
1626 0 72.1593 12.7911 923 113.229 795.992 471.476
1627 0 73.2221 12.1411 889 115.85 796.31 470.801
1628 0 73.1378 11.7039 856 118.613 796.104 466.245
1629 0 77.0855 12.0126 926 117.688 795.911 467.048
1630 0 80.2234 12.4527 999 117.115 796.047 466.734
1631 0 83.0968 12.347 1026 116.585 795.923 467.105
1632 0 82.1011 11.973 983 120.578 795.723 462.908
1633 0 87.1271 12.9236 1126 117.382 795.703 462.17
1634 0 89.1551 12.9662 1156 117.961 796.074 463.072
1635 0 93.1744 13.5552 1263 116.365 795.717 458.884
1636 0 96.1605 13.2383 1273 120.018 796.385 462.032
1637 0 100.127 15.0109 1503 122.013 795.187 465.647
1638 0 103.138 14.1655 1461 124.891 795.761 462.66
1639 1 56.0797 9.91447 556 129.104 795.086 486.797
1640 0 59.0562 12.0055 709 126.983 795.587 483.207
1641 0 62.0358 12.3316 765 125.294 794.726 483.676
1642 0 62.0634 13.2445 822 126.096 795.568 481.504
1643 0 65.0935 12.7509 830 127.675 796.765 479.508
1644 0 67.0643 13.2559 889 124.937 795.71 481.756
1645 0 70.2214 12.5033 878 128.246 796.314 478.106
1646 0 73.2655 13.922 1020 124.252 796.338 476.783
1647 0 75.1157 14.2979 1074 123.701 796.02 475.909
1648 0 78.1853 13.8901 1086 125.097 797.01 474.167
1649 0 78.1778 13.9042 1087 147.407 799.008 474.102
1650 0 83.2791 13.2806 1106 127.661 795.985 473.176
1651 0 84.3342 13.7785 1162 126.87 796.841 471.076
1652 0 87.2261 13.8376 1207 126.723 795.974 470.254
1653 0 90.2071 13.6907 1235 127.373 795.23 468.581
1654 0 93.2075 14.5053 1352 125.82 795.914 465.988
1655 0 96.2159 13.9894 1346 126.62 795.588 465.114
1656 0 98.1844 14.6255 1436 125.331 795.838 463.823
1657 0 102.109 12.9959 1327 128.949 795.301 462.995
1658 0 105.21 13.1831 1387 129.308 795.972 459.5
1659 0 107.45 13.8669 1490 127.56 795.689 457.386
1660 1 59.2733 11.6241 689 126.467 796.136 480.708
1661 0 63.2957 12.6707 802 122.64 795.97 479.616
1662 0 64.2667 12.2925 790 123.609 796.373 479.257
1663 0 65.1153 12.4855 813 122.784 795.411 480.733
1664 0 68.1841 12.7449 869 122.414 795.041 478.597
1665 0 69.3212 12.9975 901 122.539 795.556 479.865
1666 0 71.1338 12.9334 920 119.622 795.521 479.06
1667 0 75.26 12.9949 978 119.5 795.511 477.019
1668 0 77.0863 13.9324 1074 117.374 795.382 475.605
1669 0 77.1293 11.9928 925 123.449 795.657 474.621
1670 0 81.2234 12.5703 1021 122.171 795.284 473.552
1671 0 83.2084 12.8352 1068 121.939 794.361 471.911
1672 0 87.2978 13.3795 1168 120.053 795.918 470.747
1673 0 87.1142 12.4549 1085 125.307 796.048 467.943
1674 0 93.2254 12.8184 1195 123.837 795.337 467.197
1675 0 94.2342 12.5432 1182 125.058 796.276 464.524
1676 0 98.1999 12.2607 1204 124.916 796.696 459.226
1677 0 99.1552 12.5762 1247 118.83 797.034 456.808
1678 1 54.0304 9.75377 527 119.042 797.013 478.085
1679 0 54.1705 11.4453 620 116.048 797.302 478.432
1680 0 57.111 9.59535 548 116.808 797.367 474.808
1681 0 60.2722 9.93824 599 114.99 797.239 475.823
1682 0 62.1618 10.3922 646 115.587 797.014 475.441
1683 0 65.1652 10.2202 666 116.832 796.542 475.036
1684 0 66.2148 10.3451 685 116.685 797.485 474.561
1685 0 70.1537 11.8454 831 114.397 796.273 473.741
1686 0 72.1521 11.7252 846 115.454 796.305 471.631
1687 0 73.1573 10.867 795 119.449 795.935 470.43
1688 0 78.0894 11.8326 924 117.187 796.741 468.725
1689 0 80.2315 12.4889 1002 117.124 796.624 468.52
1690 0 82.2026 10.9242 898 123.089 796.656 468.392
1691 0 83.157 10.9792 913 125.634 796.334 465.647
1692 0 86.258 11.6279 1003 126.458 795.982 465.194
1693 0 88.0974 11.1127 979 132.06 795.217 463.103
1694 0 94.1843 12.7197 1198 128.231 795.784 460.162
1695 0 97.2236 13.3712 1300 126.908 796.762 459.112
1696 0 98.2391 13.5791 1334 128.421 795.777 457.07
1697 0 100.202 11.896 1192 134.347 795.595 456.603
1698 0 105.24 12.2672 1291 132.198 795.852 455.606
1699 1 58.0818 10.5024 610 129.185 794.785 478.003
1700 0 60.0717 11.5862 696 123.352 795.688 478.148
1701 0 64.1815 12.2933 789 115.616 796.426 478.096
1702 0 65.0848 10.7245 698 120.385 796.241 475.348
1703 0 68.085 11.9703 815 116.156 795.417 474.574
1704 0 69.0819 10.9146 754 115.479 795.883 473.305
1705 0 74.07 11.7456 870 112.31 795.833 472.479
1706 0 76.1274 12.0587 918 110.992 796.234 468.571
1707 0 78.0566 11.7607 918 112.113 796.484 467.113
1708 0 81.0532 12.3129 998 109.911 796.268 467.1
1709 0 83.0866 12.1319 1008 110.892 795.726 466.017
1710 0 86.1067 12.0084 1034 111.515 795.607 465.333
1711 0 88.1172 11.9954 1057 111.904 796.369 464.413
1712 0 92.1028 12.7358 1173 110.059 795.83 460.003
1713 0 95.2003 11.3235 1078 114.308 796.145 462.206
1714 0 97.1219 12.4277 1207 112.085 796.231 460.558
1715 0 102.116 12.711 1298 113.174 795.374 456.365
1716 0 102.09 12.1266 1238 117.072 795.658 453.268
1717 0 108.179 13.1818 1426 113.732 795.955 454.393
1718 1 55.0889 9.56635 527 117.787 796.011 479.586
1719 0 57.14 11.4981 657 117.537 795.464 478.872
1720 0 61.0708 10.4796 640 110.047 795.328 478.091
1721 0 63.1246 12.9902 820 104.161 795.656 478.852
1722 0 64.0644 11.8162 757 108.131 795.723 478.329
1723 0 67.0923 11.2084 752 109.201 796.938 475.335
1724 0 67.088 10.8812 730 111.474 796.07 474.784
1725 0 71.1589 10.849 772 110.784 796.236 474.959
1726 0 73.1898 12.7203 931 108.148 795.784 472.171
1727 0 78.0815 11.4752 896 109.746 795.986 473.725
1728 0 80.137 11.9545 958 112.256 796.095 472.872
1729 0 81.0645 11.5464 936 121.92 797.014 474.651
1730 0 86.1228 14.0497 1210 115.766 797.058 472.789
1731 0 89.1182 12.388 1104 119.724 796.997 472.177
1732 1 48.0202 10.9329 525 121.034 797.368 491.547
1733 0 49.0637 12.3309 605 119.851 796.969 488.992
1734 0 51.0129 12.0558 615 118.691 796.306 488.594
1735 0 53.0488 13.2708 704 119.945 796.776 487.621
1736 0 55.0343 12.7012 699 121.607 796.791 487.102
1737 0 54.0764 12.6303 683 124.761 796.628 485.934
1738 0 57.0477 11.99 684 124.982 796.787 486.436
1739 0 60.0845 13.4477 808 120.223 796.793 486.55
1740 0 60.0512 12.8057 769 123.351 797.075 484.655
1741 0 63.1537 13.4751 851 121.609 796.052 482.719
1742 0 64.0371 13.0081 833 124.24 796.585 482.214
1743 0 65.0361 13.2849 864 123.324 796.54 482.101
1744 0 68.0478 13.9902 952 121.694 796.133 479.87
1745 0 71.0994 13.9523 992 121.304 796.157 480.573
1746 0 71.0751 13.5068 960 123.395 795.73 479.883
1747 0 71.0737 13.1272 933 127.364 795.765 476.323
1748 0 74.1059 14.061 1042 124.896 796.035 475.462
1749 0 79.0405 14.2332 1125 124.003 796.816 474.087
1750 0 80.14 13.7634 1103 125.668 795.916 475.059
1751 0 83.0895 13.5757 1128 126.774 795.514 473.271
1752 0 85.1602 13.5509 1154 129.294 795.835 471.274
1753 0 88.1145 14.7876 1303 126.611 795.668 469.529
1754 0 91.1167 13.6199 1241 130.631 796.234 468.788
1755 0 94.2093 14.3086 1348 129.887 796.093 466.104
1756 0 99.1832 14.5488 1443 128.683 796.593 464.895
1757 0 99.2282 14.3205 1421 131.157 796.357 463.435
1758 0 102.3 14.0176 1434 132.285 795.923 463.292
1759 0 106.373 13.3868 1424 133.118 796.273 461.709
1760 0 110.139 13.5102 1488 129.803 795.808 462.878
1761 1 59.0564 11.0742 654 124.223 795.96 484.528
1762 0 61.0654 10.3987 635 126 796.329 481.093
1763 0 61.0806 12.9337 790 121.148 797.743 480.749
1764 0 64.0681 12.5335 803 122.154 796.897 480.151
1765 0 67.2192 12.5559 844 121.674 796.76 476.851
1766 0 69.0361 11.8778 820 124.291 796.643 475.243
1767 0 71.1426 11.3996 811 126.492 796.603 480.975
1768 0 75.1914 13.6718 1028 120.837 797.191 476.718
1769 0 78.1055 12.5087 977 123.533 796.994 477.399
1770 0 79.1014 12.642 1000 124.69 797.209 476.027
1771 0 83.2107 12.6787 1055 123.967 796.487 472.808
1772 0 85.1071 13.3009 1132 122.929 796.215 471.49
1773 0 87.1005 13.008 1133 123.292 797.234 470.821
1774 0 89.1792 13.243 1181 124.084 796.316 470.732
1775 0 93.168 13.6206 1269 124.118 796.513 469.157
1776 0 96.1851 12.5695 1209 128.156 795.905 465.773
1777 0 101.114 13.6084 1376 129.519 795.85 465.201
1778 0 107.122 13.5919 1456 127.218 795.805 465.298
1779 1 56.0835 12.8023 718 124.1 796.364 487.968
1780 0 58.0246 13.546 786 125.552 795.827 484.936
1781 0 60.0286 13.7434 825 127.735 796.215 483.884
1782 0 62.0227 14.0432 871 127.791 796.558 483.393
1783 0 63.0526 14.5117 915 128.126 796.434 481.428
1784 0 64.168 13.9322 894 129.888 796.471 481.507
1785 0 69.1479 13.6664 945 130.383 796.073 478.941
1786 0 68.0807 14.1743 965 130.417 795.967 477.821
1787 0 71.1403 13.0025 925 132.395 795.995 477.474
1788 0 76.2956 14.6929 1121 127.226 796.012 475.576
1789 0 78.1418 14.5889 1140 126.876 795.192 475.015
1790 0 78.0889 14.1505 1105 130.712 795.805 473.128
1791 0 80.1469 12.9387 1037 133.567 795.783 474.288
1792 0 83.1472 14.1797 1179 131.182 795.064 470.116
1793 0 86.1271 13.8632 1194 132.173 795.022 468.203
1794 0 89.1468 13.8311 1233 132.495 795.122 467.079
1795 0 93.1295 14.1309 1316 131.017 795.571 466.69
1796 0 93.1295 14.1738 1320 159.684 795.571 466.591
1797 0 94.164 12.8287 1208 132.006 796.532 465.922
1798 0 99.1037 13.7432 1362 128.145 795.991 464.554
1799 0 102.163 14.7802 1510 124.9 796.455 462.924
1800 0 106.131 14.0958 1496 127.106 796.856 461.306
1801 0 110.193 15.0917 1663 124.023 796.826 459.93
1802 0 114.123 14.3003 1632 126.515 796.605 457.382
1803 0 119.085 15.7282 1873 121.83 796.387 456.668
1804 1 62.055 13.1819 818 124.949 795.806 484.737
1805 0 64.0355 12.9459 829 124.043 796.327 480.745
1806 0 67.0347 14.1718 950 120.586 795.945 479.197
1807 0 67.0778 13.0744 877 124.531 796.352 479.46
1808 0 71.1296 14.0588 1000 120.92 796.167 479.781
1809 0 74.1071 13.1836 977 123.809 796.626 476.269
1810 0 78.0141 14.1 1100 120.129 796.594 476.672
1811 0 80.0898 14.0467 1125 121.29 796.052 473.909
1812 0 82.0634 13.7333 1127 123.078 795.72 473.533
1813 0 85.1204 15.437 1314 119.692 795.629 471.514
1814 0 89.105 13.8825 1237 123.701 795.661 468.843
1815 0 92.0918 14.6267 1347 122.233 795.385 467.824
1816 0 94.1815 13.697 1290 125.088 795.581 466.095
1817 0 97.0455 14.7354 1430 123.291 795.692 466.601
1818 0 99.058 14.6177 1448 124.569 795.651 463.335
1819 0 100.121 13.1141 1313 131.062 795.235 463.101
1820 0 104.057 14.3094 1489 127.125 795.667 464.384
1821 0 108.104 14.301 1546 127.721 795.446 461.719
1822 0 112.141 14.8117 1661 126.393 795.558 459.025
1823 0 114.09 13.91 1587 129.703 796.012 458.481
1824 0 118.127 14.4844 1711 128.47 796.236 453.975
1825 0 122.297 13.7943 1687 129.704 796.306 452.308
1826 0 128.155 14.0611 1802 127.24 795.946 450.529
1827 0 131.207 15.2126 1996 126.047 795.619 445.353
1828 0 135.246 14.9431 2021 127.66 795.793 442.384
1829 0 138.233 13.8173 1910 132.08 796.106 439.537
1830 0 143.349 14.1403 2027 131.33 795.983 439.517
1831 0 147.161 14.4128 2121 132.387 795.181 434.979
1832 0 155.199 14.9356 2318 130.42 795.78 433.792
1833 0 157.218 13.6053 2139 136.548 795.705 429.26
1834 0 165.246 14.2333 2352 133.684 795.446 430.007
1835 0 172.331 14.8957 2567 132.539 794.684 422.812
1836 1 77.2252 11.6024 896 136.191 795.974 470.542
1837 0 81.1448 13.211 1072 134.475 796.401 468.174
1838 0 83.0419 13.6076 1130 137.109 795.549 471.281
1839 0 87.045 14.4178 1255 134.319 795.782 470.174
1840 0 89.0508 14.0369 1250 135.729 796.311 467.654
1841 0 91.0435 13.5649 1235 138.155 796.029 465.742
1842 0 94.1836 13.4631 1268 134.377 795.954 467.849
1843 0 100.144 14.2196 1424 130.97 795.969 466.053
1844 0 104.093 13.3342 1388 133.38 796.326 462.981
1845 1 49.0521 12.8639 631 129.445 795.525 489.945
1846 0 51.1179 12.8526 657 131.19 796.939 489.271
1847 0 54.3811 12.5963 685 135.48 796.95 487.473
1848 0 56.2094 14.1613 796 131.469 796.854 485.327
1849 0 58.3067 13.7549 802 132.227 796.39 485.4
1850 0 58.491 13.6089 796 134.819 796.693 481.195
1851 0 61.5711 12.2135 752 139.613 796.71 481.036
1852 0 62.5267 13.3863 837 136.892 796.724 479.865
1853 0 66.4653 13.8268 919 133.532 797.242 480.177
1854 0 68.425 14.0153 959 134.633 796.452 477.638
1855 0 69.1828 13.1825 912 134.502 796.204 477.796
1856 0 72.1131 14.8378 1070 129.101 795.84 475.831
1857 0 73.3018 13.3285 977 134.67 796.227 474.536
1858 0 75.3056 14.0893 1061 132.573 795.97 469.562
1859 0 76.1842 14.1237 1076 132.2 795.996 472.118
1860 0 80.1401 14.3873 1153 130.022 795.626 469.86
1861 0 82.1694 14.3606 1180 130.188 795.803 466.897
1862 0 88.1704 14.5287 1281 125.234 796.02 468.296
1863 0 88.2429 13.2249 1167 130.117 795.596 464.555
1864 0 91.2146 13.4189 1224 130.109 796.109 462.219
1865 0 95.165 14.4171 1372 126.022 795.73 461.098
1866 0 97.1128 14.3029 1389 125.743 796.708 461.873
1867 0 102.125 15.011 1533 122.404 796.353 458.203
1868 1 55.1509 11.9309 658 127.52 795.675 480.842
1869 0 57.2 12.4126 710 124.57 796.314 482.099
1870 0 58.0249 11.9087 691 130.903 797.782 479.527
1871 0 59.0672 12.3419 729 130.438 797.701 478.578
1872 0 61.0891 12.5554 767 128.662 796.894 477.476
1873 0 63.1527 13.5386 855 125.595 796.123 477.205
1874 0 65.1571 12.8305 836 127.481 796.871 476.593
1875 0 68.104 13.4206 914 126.161 796.613 475.977
1876 0 70.1066 13.7505 964 124.851 796.869 474.916
1877 0 72.1212 13.3941 966 125.913 796.656 473.678
1878 0 72.1776 13.2451 956 127.882 797.478 473.143
1879 0 76.0998 14.7569 1123 122.056 796.622 472.622
1880 0 78.0719 14.0896 1100 124.959 796.701 472.225
1881 0 81.1878 14.177 1151 124.452 797.195 470.316
1882 0 82.1241 13.7718 1131 127.164 797.275 469.43
1883 0 86.1703 14.3901 1240 125.395 796.753 466.851
1884 0 89.1449 13.6183 1214 127.801 796.743 465.253
1885 0 91.1639 13.1631 1200 127.141 796.347 462.152
1886 0 96.1718 13.1535 1265 125.749 796.395 462.177
1887 0 100.245 13.1179 1315 126.104 795.941 460.097
1888 1 52.0985 11.555 602 121.252 796.836 483.638
1889 0 52.0582 11.8905 619 121.464 796.139 481.21
1890 0 59.066 13.1378 776 106.22 797.423 483.55
1891 0 57.1471 13.1765 753 113.695 796.935 484.359
1892 0 61.0809 14.1452 864 110.378 797.198 483.094
1893 0 62.1131 13.4754 837 112.998 797.2 482.063
1894 0 64.0717 12.6109 808 113.713 797.251 481.905
1895 0 67.1171 13.2753 891 111.74 797.126 480.726
1896 0 68.0481 12.256 834 114.487 797.006 478.625
1897 0 70.102 12.3106 863 114.219 797.409 478.616
1898 0 74.0953 13.9415 1033 109.5 797.358 475.614
1899 0 77.2719 13.666 1056 109.89 796.784 475.99
1900 0 77.1046 12.3858 955 114.284 796.977 472.714
1901 0 79.0471 13.7133 1084 112.764 796.951 472.235
1902 0 84.1773 13.7448 1157 112.864 797.017 470.764
1903 0 86.1215 13.4461 1158 115.326 796.276 469.126
1904 0 88.1687 13.1793 1162 119.939 796.877 468.324
1905 0 89.0941 13.0873 1166 120.249 796.702 468.803
1906 0 94.1725 13.5284 1274 118.761 796.756 465.914
1907 0 96.1299 13.1385 1263 121.209 796.71 465.968
1908 0 99.1843 13.5404 1343 121.203 796.648 464.085
1909 0 102.186 12.9079 1319 122.817 796.444 458.748
1910 0 107.327 13.8363 1485 120.455 796.131 458.136
1911 1 58.0982 11.0503 642 121.151 796.425 483.377
1912 0 61.0715 11.3146 691 122.588 796.9 483.602
1913 0 63.1198 13.0545 824 122.95 796.308 481.125
1914 0 66.0512 14.0951 931 122.387 796.091 481.454
1915 0 68.3476 13.285 908 124.751 795.639 479.934
1916 0 70.0646 12.831 899 125.865 795.926 478.651
1917 0 73.2138 13.604 996 123.385 796.132 477.908
1918 0 74.0644 12.3811 917 128.253 795.905 475.608
1919 0 75.0607 12.6831 952 123.011 795.658 476.18
1920 0 79.042 13.1323 1038 122.366 796.022 473.729
1921 0 82.1371 14.5001 1191 119.228 796.113 473.432
1922 0 85.2285 13.235 1128 123.083 795.747 472.764
1923 0 88.1117 13.9028 1225 121.429 796.245 471.473
1924 0 89.1006 14.8708 1325 119.323 796.335 471.487
1925 0 92.1508 14.8886 1372 120.103 795.377 471.179
1926 0 95.0966 14.3433 1364 122.896 796.111 469.268
1927 0 97.1269 13.1889 1281 127.716 796.672 466.483
1928 0 101.112 13.2427 1339 127.982 796.263 464.181
1929 0 105.206 15.0182 1580 122.605 796.332 461.425
1930 0 106.137 13.1245 1393 124.996 796.48 458.637
1931 0 109.247 13.3733 1461 127.588 796.523 454.203
1932 0 113.12 13.2868 1503 131.141 796.122 454.426
1933 0 117.31 13.5795 1593 131.372 796.446 454.079
1934 0 119.222 13.0178 1552 132.653 796.14 451.653
1935 1 67.0312 12.7851 857 121.705 796.387 478.39
1936 0 70.0954 12.269 860 123.49 796.367 477.577
1937 0 72.0708 13.126 946 121.304 796.449 475.516
1938 0 76.0726 14.197 1080 122.225 796.639 460.16
1939 0 77.0833 13.2065 1018 127.239 796.401 458.833
1940 0 80.0692 14.3876 1152 122.538 796.45 459.608
1941 0 84.2819 14.2498 1201 123.238 796.363 461.384
1942 0 84.2026 13.9544 1175 125.756 796.083 464.61
1943 0 89.1937 14.1602 1263 125.238 796.725 465.39
1944 0 90.2074 13.7794 1243 126.949 796.609 465.337
1945 0 92.2552 13.3217 1229 129.145 797.182 466.541
1946 0 95.2433 13.1243 1250 131.44 796.873 465.933
1947 0 97.1366 13.1773 1280 131.462 797.249 464.62
1948 0 102.168 13.1548 1344 131.106 796.645 463.384
1949 0 105.164 14.3301 1507 127.942 796.595 462.297
1950 0 107.158 13.6061 1458 130.864 795.826 458.547
1951 0 111.237 12.9004 1435 131.294 795.617 459.415
1952 0 114.119 12.7148 1451 131.389 795.488 457.252
1953 0 116.2 12.6334 1468 132.223 795.715 455.116
1954 0 123.19 14.6765 1808 125.441 796.252 448.52
1955 0 127.249 14.1848 1805 128.342 795.761 445.613
1956 0 131.167 14.3786 1886 128.708 795.668 446.698
1957 0 136.17 14.3864 1959 130.191 796.202 445.196
1958 1 76.1039 11.8128 899 127.33 795.414 472.556
1959 0 80.0674 12.9641 1038 125.111 796.087 468.913
1960 0 81.0903 12.5169 1015 125.13 795.677 470.899
1961 0 86.1929 12.2516 1056 125.778 796.528 466.786
1962 0 87.1696 12.3896 1080 124.948 796.054 466.155
1963 0 91.1513 13.5708 1237 122.045 795.577 465.416
1964 0 93.2292 12.3245 1149 125.482 796.499 460.74
1965 0 96.1603 12.396 1192 125.857 796.311 458.018
1966 0 101.102 12.888 1303 123.88 796.483 458.401
1967 0 104.191 12.9474 1349 123.574 795.85 455.85
1968 0 107.217 12.9457 1388 123.534 796.545 453.649
1969 0 110.223 13.4818 1486 122.822 796.675 452.841
1970 0 115.22 13.3396 1537 122.382 797.215 448.095
1971 0 119.221 13.2108 1575 121.3 796.701 450.792
1972 0 122.181 12.0068 1467 126.241 796.757 444.211
1973 0 126.278 14.1514 1787 121.805 796.832 444.355
1974 0 132.323 13.8072 1827 122.585 796.286 439.235
1975 0 137.277 15.1154 2075 119.97 795.69 436.82
1976 0 143.276 14.7268 2110 120.067 796.544 437.133
1977 0 147.334 14.5859 2149 122.631 796.958 431.456
1978 1 84.4435 12.0199 1015 120.794 796.911 464.913
1979 0 88.3805 12.9101 1141 119.961 796.568 463.6
1980 0 91.2816 12.5874 1149 122.503 795.719 462.04
1981 0 93.4189 13.402 1252 120.526 796.606 461.132
1982 0 99.4847 13.7609 1369 118.325 796.128 459.877
1983 0 99.1763 11.4544 1136 123.988 796.553 457.983
1984 0 105.33 13.4055 1412 119.187 796.497 455.453
1985 0 107.216 11.724 1257 124.936 795.554 452.125
1986 0 113.297 13.9191 1577 118.264 796.583 452.752
1987 0 116.268 13.2797 1544 120.321 796.814 451.363
1988 0 120.473 13.0984 1578 122.449 796.161 446.267
1989 1 66.178 12.2699 812 112.979 796.117 477.496
1990 0 70.175 11.9986 842 113.906 797.29 478.464
1991 0 70.0776 10.8166 758 116.869 797.811 478.504
1992 0 72.0875 11.8606 855 116.703 797.564 474.717
1993 0 73.0468 11.9786 875 117.792 796.379 473.982
1994 0 75.1377 11.7651 884 117.554 796.594 471.706
1995 0 80.2223 11.5055 923 117.14 796.691 470.29
1996 0 84.0771 13.2854 1117 116.527 797.243 468.41
1997 0 85.0601 12.8732 1095 119.69 797.011 465.92
1998 0 89.0828 12.943 1153 119.058 796.343 466.232
1999 0 93.101 12.9429 1205 119.563 796.821 465.854
2000 0 94.1466 13.224 1245 120.32 796.476 464.21
2001 0 97.0972 12.3587 1200 123.214 797.372 462.207
2002 0 100.149 13.0505 1307 122.435 797.065 459.558
2003 0 103.147 14.3678 1482 119.787 797.181 459.092
2004 0 105.084 12.9896 1365 123.908 796.956 457.911
2005 0 107.118 12.5469 1344 126.391 796.292 455.926
2006 0 112.182 13.2285 1484 124.707 796.808 453.547
2007 0 116.167 13.2912 1544 124.951 797.081 452.659
2008 0 119.099 13.1068 1561 125.853 795.774 449.936
2009 0 122.206 13.9764 1708 124.785 796.431 447.662
2010 0 127.222 14.6279 1861 122.434 796.281 446.36
2011 0 131.297 14.4939 1903 123.202 796.234 443.313
2012 0 136.346 13.8618 1890 125.74 795.964 437.065
2013 0 139.259 12.5593 1749 129.842 796.357 435.005
2014 0 144.314 12.3411 1781 132.074 795.942 429.824
2015 0 147.221 12.1586 1790 131.601 795.915 423.542
2016 1 83.0973 10.8427 901 123.574 796.765 467.382
2017 0 87.2593 13.6604 1192 121.846 795.979 464.004
2018 0 90.3462 13.5479 1224 125.735 796.739 465.098
2019 0 94.4732 13.5171 1277 125.629 796.41 459.948
2020 0 95.2936 12.6137 1202 126.277 796.147 458.218
2021 0 97.1673 11.9176 1158 121.243 795.709 460.995
2022 0 102.153 12.5987 1287 119.301 796.174 457.938
2023 0 103.218 12.1684 1256 122.046 796.271 457.158
2024 0 107.264 13.6672 1466 118.677 796.344 456.027
2025 0 111.316 12.8913 1435 121.215 796.268 453.6
2026 0 114.208 11.6192 1327 122.914 796.928 453.493
2027 0 119.188 13.8521 1651 120.09 797.307 444.463
2028 0 121.312 12.8677 1561 123.434 796.792 443.521
2029 0 126.276 13.1774 1664 121.79 796.198 442.363
2030 0 130.389 12.363 1612 123.96 796.304 439.925
2031 0 135.348 13.1069 1774 122.262 796.939 436.611
2032 0 140.337 12.2633 1721 123.875 796.027 433.445
2033 1 77.2446 10.2531 792 114.783 796.015 467.039
2034 0 81.2667 12.1206 985 111.385 796.262 467.108
2035 0 83.0851 10.9767 912 111.805 795.94 469.466
2036 0 86.0578 10.3535 891 112.865 795.15 467.488
2037 0 90.1277 10.9289 985 111.897 795.583 465.93
2038 0 91.1384 10.5554 962 114.065 795.885 458.774
2039 0 93.2032 11.2121 1045 113.664 795.306 460.69
2040 0 97.1807 11.2985 1098 113.876 795.558 458.129
2041 0 102.187 12.7511 1303 111.269 795.216 456.163
2042 0 105.168 11.6861 1229 114.591 795.815 457.609
2043 0 106.243 12.0761 1283 115.678 795.728 455.648
2044 0 111.258 12.6552 1408 114.175 796.241 450.734
2045 0 113.226 12.3735 1401 115.971 795.608 449.024
2046 0 117.154 12.7098 1489 114.805 795.454 449.216
2047 0 120.142 12.685 1524 114.743 796.49 448.904
2048 0 124.114 10.9818 1363 128.259 796.047 450.205
2049 0 131.127 11.5537 1515 123.016 796.466 445.937
2050 0 134.182 11.8794 1594 123.747 796.512 440.477
2051 1 74.1345 10.3191 765 114.067 796.451 471.358
2052 0 79.0875 12.5178 990 111.046 796.84 468.359
2053 0 81.1927 12.9322 1050 119.653 797.409 467.067
2054 0 82.2449 12.2074 1004 121.685 797.084 466.958
2055 0 86.1965 13.7128 1182 117.702 796.858 464.986
2056 0 86.1325 12.1905 1050 123.642 796.507 463.647
2057 0 89.1706 12.7957 1141 121.859 797.152 463.401
2058 0 93.1082 13.3071 1239 120.567 796.83 462.414
2059 0 95.1401 13.1175 1248 121.647 796.966 460.824
2060 0 98.098 13.1399 1289 122.494 796.88 458.696
2061 0 97.1737 11.9168 1158 128.959 797.028 456.657
2062 0 101.207 12.4596 1261 128.634 796.799 456.324
2063 0 105.139 13.3537 1404 127.014 796.633 455.213
2064 0 108.153 12.5933 1362 128.98 796.076 453.43
2065 0 112.18 13.8883 1558 124.544 796.793 452.451
2066 0 114.116 13.6878 1562 125.912 797.028 451.513
2067 0 115.298 13.0531 1505 128.563 795.684 448.923
2068 0 121.191 13.3921 1623 127.344 796.05 446.356
2069 0 125.252 14.1874 1777 124.66 795.876 446.41
2070 0 129.27 13.9553 1804 125.766 795.774 445.708
2071 0 133.131 14.0463 1870 125.576 796.706 442.092
2072 0 136.332 14.472 1973 124.797 796.628 441.345
2073 0 142.334 14.0515 2000 125.636 796.528 438.984
2074 0 146.162 13.834 2022 127.363 796.316 435.202
2075 1 80.0739 11.1022 889 122.028 796.786 472.486
2076 0 83.2486 11.772 980 121.888 797.476 467.746
2077 0 85.098 12.1625 1035 123.037 796.79 459.366
2078 0 87.0823 12.1379 1057 123.834 797.014 459.247
2079 0 91.1765 12.2071 1113 123.919 796.783 457.495
2080 0 91.1105 12.0403 1097 125.361 796.16 455.427
2081 0 97.1343 12.3334 1198 123.113 796.248 457.516
2082 0 97.2505 10.9408 1064 127.901 796.407 458.171
2083 0 100.132 11.9542 1197 126.026 795.64 456.47
2084 0 99.138 11.3579 1126 130.621 795.956 455.642
2085 0 105.255 13.5576 1427 123.852 796.518 453.648
2086 0 105.251 13.0545 1374 126.705 796.033 452.937
2087 0 110.183 13.0147 1434 126.173 796.49 454.506
2088 0 112.12 12.5758 1410 128.751 796.705 452.228
2089 0 115.146 12.2627 1412 130.562 796.118 448.021
2090 0 120.235 13.091 1574 127.094 796.519 448.863
2091 0 122.291 13.5824 1661 127.913 795.974 443.385
2092 0 124.213 12.0841 1501 132.13 795.811 439.486
2093 0 129.388 13.2701 1717 125.677 795.597 440.776
2094 0 134.467 12.5309 1685 130.541 795.843 435.337
2095 0 138.641 13.5891 1884 129.731 796.206 433.691
2096 1 82.3999 10.449 861 121.483 796.535 464.173
2097 0 84.2461 10.1014 851 113.361 795.188 462.354
2098 0 85.0812 9.61434 818 116.015 796.01 461.655
2099 0 88.2685 10.7513 949 113.07 795.557 462.275
2100 0 90.0938 11.7433 1058 111.111 796.477 463.396
2101 0 91.1343 11.9604 1090 112.706 795.786 461.75
2102 0 95.1916 10.7152 1020 116.426 796.093 460.055
2103 0 96.11 11.362 1092 115.192 795.577 458.935
2104 0 99.0766 11.2943 1119 115.14 795.995 458.595
2105 0 103.123 11.2099 1156 116.122 796.132 455.599
2106 0 106.139 10.816 1148 121.539 794.975 451.519
2107 0 109.089 11.8527 1293 119.921 795.626 450.176
2108 0 113.131 12.8258 1451 116.522 796.296 451.318
2109 0 115.175 10.5144 1211 122.718 795.249 447.675
2110 0 120.231 11.7191 1409 120.502 796.016 445.204
2111 0 124.162 11.1065 1379 122.704 795.376 442.456
2112 0 127.157 11.3639 1445 120.725 795.014 444.32
2113 0 133.372 11.3517 1514 121.513 795.374 438.895
2114 1 73.1445 9.15995 670 112.351 795.939 469.393
2115 0 79.1761 9.51045 753 111.361 795.757 469.033
2116 0 81.2992 10.3199 839 108.908 796.772 469.963
2117 0 85.1464 10.2764 875 110.339 796.683 466.912
2118 0 88.1967 11.9959 1058 108.309 795.755 463.304
2119 0 91.2029 10.9646 1000 111.058 796.151 464.049
2120 0 95.253 11.4642 1092 109.75 795.906 462.162
2121 0 98.2371 11.0854 1089 110.813 795.905 462.218
2122 0 99.3781 11.2097 1114 112.788 795.771 459.984
2123 0 101.151 11.6855 1182 113.024 795.801 456.442
2124 0 105.235 12.0112 1264 111.911 796.344 458.274
2125 0 109.266 11.4491 1251 113.681 796.714 455.46
2126 0 109.28 11.1823 1222 116.875 796.241 452.202
2127 1 53.1152 10.1666 540 103.485 797.17 484.189
2128 0 54.1428 9.95515 539 107.323 796.802 482.562
2129 0 54.143 9.77043 529 108.166 796.892 479.144
2130 0 56.049 11.6148 651 102.482 797.449 481.286
2131 0 56.1377 12.6118 708 102.244 797.104 481.706
2132 0 58.0662 10.5053 610 106.308 797.275 481.403
2133 0 58.0777 11.4502 665 104.447 796.794 477.311
2134 0 61.2165 11.2715 690 103.929 796.529 479.455
2135 0 63.264 10.6854 676 106.513 796.638 477.825
2136 0 65.1128 11.4877 748 103.797 796.162 477.836
2137 0 66.1808 12.2996 814 103.182 797.027 476.547
2138 0 68.1757 11.9984 818 104.474 796.83 474.862
2139 0 69.2218 12.3372 854 104.313 796.22 474.126
2140 0 70.2254 10.6656 749 110.077 797.303 472.744
2141 0 71.2909 11.4881 819 108.707 796.481 470.663
2142 0 72.1648 11.1827 807 110.686 796.887 473.147
2143 0 74.2051 10.161 754 113.314 796.69 471.614
2144 0 77.2185 10.425 805 113.104 795.85 470.647
2145 0 80.3134 11.3929 915 113.612 795.953 465.951
2146 0 81.3616 12.0942 984 112.68 796.15 464.627
2147 0 83.1438 10.8727 904 108.417 794.721 464.352
2148 0 86.0558 9.64491 830 109.945 794.351 463.778
2149 0 89.1295 10.9279 974 109.269 795.23 460.438
2150 0 91.0828 10.5289 959 111.965 795.576 458.054
2151 0 95.0576 10.8671 1033 112.54 794.691 456.937
2152 0 96.1156 10.6955 1028 116.135 795.114 457.099
2153 0 100.149 11.6826 1170 113.024 795.497 457.587
2154 0 101.142 11.1724 1130 116.177 794.829 453.706
2155 0 106.289 11.798 1254 114.791 795.937 448.457
2156 0 111.324 12.513 1393 113.39 795.868 447.736
2157 0 113.359 11.9973 1360 115.385 796.23 445.856
2158 0 117.33 12.614 1480 114.72 795.082 444.19
2159 0 119.227 11.8681 1415 117.465 794.827 442.949
2160 1 18.0113 7.82841 141 89.617 798.936 498.128
2161 0 17.1087 7.54004 129 88.8837 798.977 497.504
2162 0 16.0613 2.36593 38 96.421 799.447 497.5
2163 0 20.0439 5.7374 115 93.5044 797.835 493.8
2164 0 17.0194 5.69939 97 93.7938 797.918 495.443
2165 0 14.0024 4.4278 62 95.0806 797.694 499.032
2166 0 20.0364 5.63973 113 93.4513 797.628 496.168
2167 0 21.0118 3.28387 69 94.5072 797.58 497.87
2168 0 19.0224 6.30834 120 89.9333 797.683 498.892
2169 0 19.0266 5.93906 113 89.3982 797.566 498.982
2170 0 21.0351 5.84737 123 90.9187 797.878 494.545
2171 0 22.0817 3.03419 67 92.2985 798.702 497.418
2172 0 15.0036 3.59914 54 91.7593 798.963 499.796
2173 0 17.0366 5.40012 92 90.2717 799 498.304
2174 0 16.0035 2.18702 35 96.1143 798.8 498.314
2175 0 18.0361 6.32066 114 88.9561 798.535 498.289
2176 0 15.0298 1.66336 25 98.04 797.96 496.36
2177 0 16.0046 6.998 112 89.0714 798.321 497.116
2178 0 21.0161 6.23333 131 89.313 798.695 497.351
2179 0 17.002 4.64652 79 89.5949 799.57 499.722
2180 0 18.0021 5.27717 95 90.021 798.684 499.442
2181 0 19.0417 3.46607 66 91.3182 798.576 499.955
2182 0 20.0317 7.08876 142 87.3873 798.592 497.894
2183 0 18.005 6.10941 110 87.0727 798.927 500.255
2184 0 17.0013 4.47025 76 91.0263 799.54 499.118
2185 0 20.009 6.39714 128 91.5078 798.75 496.57
2186 0 19.0033 3.89406 74 92.7973 798.324 500.257
2187 0 16.0025 6.18652 99 89.8889 797.343 501.414
2188 0 18.0026 5.99914 108 88.5741 797.88 503
2189 0 16.0125 5.55815 89 89.4944 797.416 503.034
2190 0 26.0061 6.26776 163 89.4417 797.656 500.08
2191 0 24.031 5.07678 122 89.3361 798.139 500.926
2192 0 22.002 4.45415 98 90.4796 798.163 499.173
2193 0 21.0064 6.23619 131 87.4504 798.015 500.748
2194 0 17.003 4.11692 70 90.6714 797.457 502.857
2195 0 19.01 3.31404 63 87.873 796.968 501.064
2196 0 19.0229 5.41452 103 89.5825 796.913 500.641
2197 0 21.0984 7.10954 150 87.3467 797.427 501.08
2198 0 20.0047 5.9486 119 91.9076 797.235 499.975
2199 0 16.1093 7.07664 114 87.5175 796.579 502.316
2200 1 139.499 11.2044 1563 109.515 796.792 438.473
2201 0 142.273 11.2179 1596 111.789 796.11 435.741
2202 0 147.396 10.5362 1553 113.668 795.502 431.771
2203 0 153.294 12.277 1882 109.67 796.342 433.953
2204 0 158.333 12.4801 1976 111.026 795.943 428.483
2205 0 161.184 12.9913 2094 111.121 795.928 426.292
2206 0 162.171 10.267 1665 119.03 795.36 421.927
2207 0 171.188 13.5933 2327 113.377 795.463 419.819
2208 0 172.397 11.8912 2050 124.079 795.016 417.139
2209 0 180.287 12.7519 2299 120.727 795.66 410.89
2210 0 185.37 13.5944 2520 120.052 795.814 409.045
2211 0 188.192 13.2896 2501 122.758 795.663 407.944
2212 0 194.515 12.0351 2341 127.677 795.546 405.591
2213 0 199.391 13.8873 2769 123.334 795.363 407.793
2214 0 203.368 13.8763 2822 124.237 795.919 403.977
2215 0 207.458 12.899 2676 129.059 795.295 396.589
2216 0 214.36 14.0418 3010 126.029 794.757 395.142
2217 0 220.713 12.3554 2727 131.578 794.897 395.187
2218 0 227.468 13.8745 3156 128.081 794.875 390.997
2219 0 232.624 13.3348 3102 130.694 795.406 383.651
2220 0 237.714 12.8852 3063 133.291 795.329 378.589
2221 1 28.0846 5.16297 145 92.3172 795.159 493.579
2222 0 24.1796 3.14315 76 91.4342 795.671 498.263
2223 0 24.0185 5.32923 128 85.5391 795.273 493.312
2224 0 33.1291 2.14313 71 90.3521 795.676 489.761
2225 0 30.0311 6.79295 204 85.9167 795.426 491.137
2226 1 17.0398 3.46247 59 90.661 797.373 491.136
2227 0 25.1283 4.57652 115 87.6783 797.461 484.922
2228 0 20.023 5.89322 118 88.3644 797.585 485.695
2229 0 23.0941 3.59399 83 91.4458 797.458 480.446
2230 0 25.1618 4.61017 116 89.8017 796.5 482.569
2231 0 29.11 3.81312 111 92.4144 797.595 480.243
2232 0 30.1221 4.74734 143 95.6853 798.035 484.664
2233 0 35.1972 5.85273 206 92.8107 798.019 487.573
2234 0 32.0554 5.92725 190 93.0053 797.384 487.074
2235 0 39.04 6.04509 236 96.7415 798.292 486.585
2236 0 40.0317 4.52142 181 98.3757 798.21 483.265
2237 1 281.514 13.1255 3695 134.743 795.05 351.993
2238 0 291.419 15.0608 4389 130.651 795.022 346.866
2239 0 300.517 13.9327 4187 134.14 794.746 340.68
2240 0 308.676 14.0989 4352 126.656 794.596 331.68
2241 0 319.83 16.8621 5393 120.449 794.979 333.684
2242 0 325.937 14.7391 4804 130.807 794.191 324.44
2243 1 36.3882 4.97414 181 94.6298 795.26 491.006
2244 0 34.2454 5.40219 185 90.427 794.249 493.27
2245 0 35.0376 6.30751 221 88.7647 794.493 495.706
2246 0 32.0394 4.36961 140 92.5429 793.743 489.486
2247 0 35.06 4.90587 172 93.75 795.198 493.913
2248 0 35.1281 7.85695 276 89.2283 795.601 492.156
2249 0 29.257 4.99025 146 92.3288 795.021 489.925
2250 0 27.3255 5.37959 147 97.1769 795.816 449.585
2251 0 32.2726 6.84791 221 91.0272 794.728 454.294
2252 0 40.45 5.68603 230 94.1304 794.796 459.765
2253 1 56.3333 2.50296 141 97.1844 795.092 464.645
2254 0 55.2204 3.00613 166 94.012 794.126 471.428
2255 1 34.342 5.00845 172 94.0349 794.616 449.262
2256 0 33.1894 6.23693 207 94.3865 796.29 444.44
2257 0 30.1512 4.77594 144 96.8542 795.632 450.243
2258 0 30.1512 4.6101 139 104.77 795.64 450.396
2259 0 29.2608 7.04013 206 91.0825 796.33 472.558
2260 1 46.1523 6.60855 305 91.6688 792.482 342.515
2261 0 46.0822 7.42153 342 93.2895 792.21 339.751
2262 0 214.503 14.5359 3118 106.826 794.39 249.302
2263 0 219.458 13.8706 3044 108.498 793.786 252.933
2264 0 224.474 12.4157 2787 113.999 793.892 254.424
2265 0 236.542 14.8937 3523 105.799 793.253 255.197
2266 0 241.594 14.1974 3430 106.429 793.103 261.881
2267 0 247.314 13.59 3361 109.254 792.904 260.29
2268 0 256.488 13.8564 3554 106.417 792.879 266.286
2269 0 266.495 15.0622 4014 103.052 792.481 268.865
2270 0 274.498 15.5448 4267 102.448 792.219 274.364
2271 0 282.431 15.317 4326 104.177 791.62 275.578
2272 0 282.431 15.3206 4327 145.251 791.625 275.13
2273 0 299.432 16.3243 4888 103.761 791.215 279.139
2274 0 307.369 15.0373 4622 108.084 791.63 274.69
2275 0 314.948 14.1928 4470 111.237 792.223 244.374
2276 0 326.144 15.3184 4996 109.665 791.729 241.694
2277 0 332.464 13.4511 4472 115.84 791.994 241.006
2278 0 341.216 14.6359 4994 114.37 791.743 240.767
2279 0 349.607 16.6844 5833 109.909 791.757 242.15
2280 0 355.203 17.2943 6143 110.505 791.289 250.106
2281 0 365.164 16.409 5992 114.886 791.419 250.367
2282 0 367.535 15.7482 5788 116.786 791.487 259.365
2283 0 369.315 15.1795 5606 118.3 791.062 258.428
2284 1 169.663 10.12 1717 107.994 789.745 390.319
2285 0 171.722 11.4371 1964 107.092 789.333 393.399
2286 0 171.452 9.75786 1673 110.586 789.737 399.454
2287 0 175.369 11.1536 1956 105.019 789.831 407.166
2288 0 180.382 9.5076 1715 108.418 789.048 413.456
2289 0 184.468 9.70359 1790 108.223 789.414 422.213
2290 0 190.44 11.1741 2128 105.617 788.648 421.368
2291 0 195.461 15.3125 2993 96.0625 788.967 399.167
2292 0 195.348 10.9702 2143 108.017 789.208 404.434
2293 0 198.343 12.3523 2450 103.398 788.674 408.715
2294 0 201.389 8.40166 1692 109.894 791.027 417.999
2295 0 201.592 8.23943 1661 105.078 789.27 425.09
2296 1 154.61 11.1507 1724 97.1914 789.064 435.173
2297 0 158.533 10.7675 1707 98.7124 789.77 434.137
2298 0 163.528 10.7321 1755 99.3863 789.356 431.765
2299 0 164.616 11.1107 1829 99.6594 789.148 424.531
2300 0 167.408 12.4367 2082 98.7911 790.447 424.271
2301 0 170.415 11.6715 1989 101.368 790.026 423.467
2302 0 174.388 10.7175 1869 103.647 789.885 424.593
2303 0 177.597 11.1714 1984 103.821 789.188 423.732
2304 0 183.837 10.2373 1882 105.861 790.199 421.368
2305 0 186.649 10.3242 1927 107.456 789.74 415.136
2306 0 192.585 11.5845 2231 104.589 789.902 416.745
2307 0 192.69 12.1335 2338 105.59 789.225 409.444
2308 0 201.771 11.0125 2222 108.375 789.095 407.892
2309 0 206.911 10.9274 2261 109.736 788.753 407.09
2310 0 212.986 11.4609 2441 108.74 788.864 406.436
2311 0 218.788 10.741 2350 109.772 788.661 407.708
2312 0 224.743 11.2573 2530 110.034 789.038 402.696
2313 0 227.549 11.1932 2547 111.507 789.185 396.652
2314 0 239.848 12.3286 2957 108.532 789.481 397.272
2315 0 244.359 12.2238 2987 110.795 787.978 396.667
2316 0 253.373 14.0465 3559 105.396 789.291 394.447
2317 0 259.282 12.6426 3278 109.794 789.027 390.555
2318 0 264.504 12.8921 3410 109.941 788.589 390.883
2319 0 271.574 12.4018 3368 111.931 787.831 382.108
2320 0 278.598 13.7761 3838 108.792 788.758 380.971
2321 0 284.406 13.8956 3952 110.076 788.457 367.972
2322 0 291.515 16.2667 4742 103.759 788.529 363.122
2323 0 296.595 14.0461 4166 110.465 789.37 352.66
2324 0 305.606 16.0435 4903 106.241 789.46 360.434
2325 0 314.725 16.7289 5265 105.32 789.123 350.986
2326 0 322.675 15.5265 5010 108.92 788.609 344.964
2327 0 329.625 15.2961 5042 109.719 788.953 344.822
2328 0 339.514 16.073 5457 108.525 788.794 337.35
2329 0 348.536 16.1533 5630 108.569 788.88 337.918
2330 0 359.739 15.6614 5634 110.187 789.18 329.244
2331 0 371.658 14.9519 5557 112.042 789.105 318.671
2332 0 381.807 15.83 6044 108.653 788.818 318.464
2333 0 390.76 14.2389 5564 112.279 789.568 310.084
2334 0 403.914 16.454 6646 106.146 789.027 307.839
2335 0 417.226 15.6174 6516 109.59 789.451 297.516
2336 0 427.375 16.2106 6928 108.789 789.438 291.856
2337 0 437.822 16.2098 7097 109.563 789.186 287.852
2338 0 415.772 15.2488 6340 113.503 790.385 294.124
2339 1 35.0782 4.76079 167 80.485 789.275 498.904
2340 0 36.1352 5.83917 211 77.128 788.384 497.592
2341 0 36.0861 6.59534 238 73.7479 788.765 495.349
2342 0 33.0564 4.02342 133 73.5564 790.008 494.549
