time division length width area intensity CMx CMy
0 0 88.0595 14.865 1309 132.907 884.203 455.921
1 1 48.0155 14.2246 683 140.365 884.671 477.047
2 0 50.1082 14.1095 707 143.693 885.28 476.843
3 0 50.0719 13.7802 690 145.513 885.167 476.733
4 0 53.081 14.2989 759 142.465 884.238 475.101
5 0 52.081 14.0358 731 164.577 883.308 474.633
6 0 54.0785 14.6639 793 141.296 884.556 474.141
7 0 56.0457 14.167 794 134.306 884.924 475.749
8 0 56.0779 13.9449 782 137.317 884.637 475.936
9 0 59.0634 14.2559 842 135.118 884.663 473.929
10 0 60.0944 13.3956 805 136.465 883.653 472.16
11 0 61.0382 13.2048 806 138.246 884.408 473.252
12 0 63.1337 14.6039 922 134.645 883.453 471.217
13 0 65.0894 13.3355 868 137.922 882.924 470.232
14 0 69.098 13.821 955 139.275 883.238 471.308
15 0 70.0581 14.4309 1011 136.652 883.392 469.471
16 0 72.0617 13.6689 985 138.684 882.757 469.127
17 0 74.0547 14.9754 1109 134.498 883.032 469.405
18 0 75.117 14.4042 1082 138.674 882.526 467.731
19 0 80.133 14.114 1131 139.522 882.851 466.443
20 0 83.107 14.8965 1238 136.454 881.888 464.182
21 0 86.1106 14.4465 1244 136.173 882.168 463.389
22 0 89.0521 14.3961 1282 134.239 881.988 462.249
23 0 92.1122 14.0698 1296 133.012 882.097 461.711
24 0 94.1011 14.3038 1346 133.025 880.96 457.063
25 0 97.2112 12.7352 1238 139.736 880.716 458.401
26 1 51.0664 12.1411 620 132.413 881.339 483.645
27 0 53.0464 13.328 707 132.245 881.74 481.18
28 0 55.1539 13.1813 727 131.312 881.136 480.378
29 0 56.053 12.952 726 124.894 881.664 481.989
30 0 58.0385 13.1637 764 123.622 881.072 479.452
31 0 61.0361 13.5166 825 121.749 880.847 479.073
32 0 63.0723 12.3351 778 125.165 880.594 477.512
33 0 67.0473 13.7515 922 119.044 881.555 475.575
34 0 68.0931 13.1731 897 120.734 880.688 476.625
35 0 71.0498 13.5679 964 121.734 881.252 472.381
36 0 74.1106 13.3314 988 120.702 880.945 473.788
37 0 77.0849 13.8419 1067 120.89 880.892 471.085
38 0 80.1144 13.1063 1050 123.771 880.419 469.229
39 0 82.1155 13.9072 1142 122.008 881.004 467.063
40 0 84.1034 12.5322 1054 125.435 880.276 467.584
41 0 88.3104 13.1242 1159 123.437 879.579 464.374
42 0 93.1012 14.4037 1341 119.889 879.561 463.013
43 0 95.1135 13.4261 1277 122.143 880.35 461.305
44 0 100.142 12.8617 1288 122.773 880.521 459.649
45 1 48.088 9.35785 450 118.151 880.564 489.1
46 0 52.0893 12.517 652 110.956 880.336 485.813
47 0 53.0567 11.6102 616 115.562 881.084 483.722
48 0 55.0279 12.6481 696 111.838 880.332 482.251
49 0 58.0308 11.3388 658 114.322 879.421 480.953
50 0 61.0361 12.4517 760 111.125 879.684 481.211
51 0 61.09 12.8826 787 111.489 880.422 479.072
52 0 65.0516 12.2979 800 111.401 879.688 478.196
53 0 68.0589 13.1357 894 109.079 880.341 477.198
54 0 70.0462 12.7487 893 110.443 880.026 475.85
55 0 73.0937 12.8739 941 116.349 880.15 475.914
56 0 75.121 12.6196 948 117.699 880.144 473.463
57 0 77.1118 11.9956 925 118.766 878.775 473.028
58 0 80.1287 12.6546 1014 116.146 879.571 472.888
59 0 82.0197 13.3017 1091 115.111 880.285 469.934
60 0 87.187 12.066 1052 115.287 880.064 469.944
61 0 87.0524 12.7165 1107 115.08 880.137 467.147
62 0 88.154 12.0584 1063 117.745 879.529 464.889
63 0 92.065 10.7424 989 118.041 878.88 467.626
64 0 96.0632 11.7631 1130 115.125 879.554 461.779
65 0 101.18 12.5618 1271 112.613 879.947 461.682
66 0 104.098 11.7293 1221 113.609 879.218 458.234
67 1 48.0655 12.6702 609 105.053 879.741 487.261
68 0 49.0698 11.718 575 106.12 879.245 487.31
69 0 50.0796 11.3819 570 107.119 878.898 487.425
70 0 52.1051 10.1334 528 110.121 879.222 485.845
71 0 54.1028 11.6075 628 106.74 878.946 485.433
72 0 56.0134 12.372 693 104.176 878.355 484.999
73 0 59.0929 11.3888 673 106.958 879.123 483.068
74 0 61.1294 12.1218 741 106.815 879.93 482.08
75 0 63.0307 12.7081 801 105.308 879.498 481.079
76 0 66.0588 13.0338 861 105.789 879.214 480.013
77 0 67.0729 12.2404 821 107.776 879.341 479.097
78 0 70.0357 12.4936 875 107.648 879.112 478.215
79 0 73.0552 13.8799 1014 105.131 879.08 477.129
80 0 76.0559 12.4514 947 112.767 879.377 474.627
81 0 79.126 12.5117 990 112.769 879.108 475.606
82 0 79.0857 12.1261 959 114.342 879.905 473.304
83 0 83.1744 11.8546 986 114.426 879.422 473.079
84 0 86.1567 11.63 1002 116.272 879.976 469.02
85 0 88.1462 11.9801 1056 117.011 879.225 464.974
86 1 48.1145 11.057 532 114.41 878.767 487.618
87 0 51.1895 12.0923 619 110.279 879.309 486.868
88 0 51.0353 11.11 567 114.695 879.219 485.871
89 0 54.0558 12.4316 672 111.193 878.668 485.741
90 0 55.0252 11.9036 655 111.832 878.838 486.527
91 0 58.0713 13.4318 780 108.738 878.817 483.578
92 0 60.0673 11.5371 693 111.743 877.716 483.361
93 0 63.091 14.0907 889 104.73 878.15 483.719
94 0 64.0375 12.4458 797 109.212 878.514 482.137
95 0 65.0271 12.2103 794 111.273 878.076 480.397
96 0 66.0689 12.7594 843 109.386 878.081 480.639
97 0 70.0802 13.2562 929 108.17 878.342 478.717
98 0 72.0892 12.221 881 110.434 877.944 477.687
99 0 73.0989 12.9687 948 109.895 878.027 477.818
100 0 75.0694 11.8557 890 113.781 877.479 475.381
101 0 78.0282 11.906 929 114.3 877.698 472.757
102 0 82.1263 13.394 1100 111.564 878.069 472.92
103 0 83.141 12.5209 1041 115.466 877.761 470.625
104 0 89.1717 13.0535 1164 111.768 877.56 472.891
105 0 92.1127 14.4063 1327 109.873 877.522 468.023
106 0 95.1732 13.6173 1296 111.396 877.411 467.995
107 0 98.2024 13.2482 1301 113.798 877.367 464.437
108 0 103.184 13.4323 1386 113.622 877.733 462.986
109 1 55.1073 10.9786 605 105.302 876.81 489.726
110 0 56.0629 11.2552 631 104.552 876.938 486.429
111 0 57.0292 12.9583 739 103.847 877.916 484.892
112 0 60.0326 14.0757 845 101.983 878.193 485.161
113 0 61.0312 12.8295 783 106.011 878.089 484.318
114 0 63.0504 12.7993 807 105.792 877.87 480.392
115 0 65.0331 12.0862 786 108.44 878.093 481.373
116 0 68.077 13.3966 912 105.217 877.828 479.922
117 0 69.1037 12.966 896 107.378 878.059 478.461
118 0 71.0604 14.171 1007 105.497 878.096 477.049
119 0 72.0222 12.2046 879 111.402 877.782 477.652
120 0 76.0736 14.6437 1114 106.022 877.958 474.006
121 0 77.1203 12.6167 973 111.175 877.701 473.848
122 0 82.1013 14.275 1172 107.054 877.843 472.721
123 0 86.0936 14.3216 1233 107.131 878.457 470.511
124 0 87.1934 12.8794 1123 110.699 878.196 466.938
125 0 91.146 13.6046 1240 109.453 877.868 468.35
126 0 93.2211 13.3017 1240 110.446 877.067 468.023
127 0 96.1152 13.2133 1270 110.149 877.18 466.453
128 1 51.1116 12.2673 627 107.804 878.34 488.325
129 0 51.0527 11.8113 603 100.634 877.789 482.949
130 0 52.0478 10.3751 540 107.733 877.357 486.456
131 0 54.0519 11.1004 600 107.172 877.113 485.147
132 0 55.0455 11.5722 637 106.785 876.928 483.774
133 0 59.0594 12.2419 723 103.369 877.25 485.254
134 0 63.08 13.142 829 101.615 876.515 482.358
135 0 63.0871 10.9848 693 106.766 876.524 481.623
136 0 69.0236 9.09834 628 76.3232 876.734 487.599
137 0 66.1166 10.6176 702 108.292 877.12 480.617
138 0 70.0749 12.0728 846 105.722 877.369 476.409
139 0 71.0991 11.1816 795 109.044 876.38 476.884
140 0 76.1224 12.1778 927 108.419 876.715 475.842
141 0 75.0782 11.9342 896 110.597 876.786 474.089
142 0 82.1164 11.7881 968 109.377 876.343 474.923
143 0 84.1531 13.119 1104 107.83 876.841 471.105
144 0 87.0914 12.6878 1105 109.66 877.004 469.338
145 0 89.0668 11.2724 1004 112.688 877.47 469.952
146 0 93.1362 12.2616 1142 111.773 877.476 466.686
147 1 48.0594 11.0696 532 112.147 876.019 488.444
148 0 49.05 11.4169 560 110.473 876.816 489.32
149 0 49.0662 10.6795 524 113.284 877.193 488.05
150 0 53.0433 11.8582 629 107.24 877.672 486.593
151 0 54.0362 12.0105 649 106.792 877.347 485.858
152 0 57.0478 12.7437 727 105.937 876.75 485.962
153 0 57.0594 11.9174 680 108.678 876.769 485.432
154 0 59.0473 12.1089 715 107.547 877.361 483.842
155 0 59.0837 12.1692 719 109.566 876.811 481.426
156 0 63.091 12.4899 788 106.659 877.584 480.24
157 0 67.0423 12.8874 864 104.016 877.091 480.606
158 0 66.1161 12.8713 851 105.613 877.82 477.644
159 0 70.1326 12.4051 870 105.857 877.656 479.022
160 0 73.0707 13.4801 985 103.659 877.627 475.892
161 0 75.0927 12.5978 946 106.83 878.622 473.333
162 0 76.0923 11.9986 913 108.275 877.869 474.356
163 0 81.0747 13.4814 1093 104.514 877.513 472.894
164 0 82.1034 13.6535 1121 105.45 877.677 470.484
165 0 85.0989 13.0436 1110 107.221 877.519 469.744
166 0 87.1611 12.5974 1098 108.332 876.92 468.341
167 0 89.0632 13.2041 1176 116.548 877.544 467.378
168 0 92.0513 13.2535 1220 116.251 877.46 466.333
169 0 95.1385 12.4765 1187 118.54 877.338 463.554
170 0 98.1224 13.6768 1342 115.906 877.28 460.776
171 0 101.189 12.6298 1278 118.736 876.574 461.813
172 0 104.141 12.8191 1335 117.439 876.866 460.279
173 0 109.138 13.0569 1425 116.554 877.502 457.771
174 0 111.167 11.3523 1262 120.915 877.051 455.243
175 0 116.243 13.8245 1607 113.905 877.088 449.709
176 0 120.288 12.2622 1475 118.204 876.632 448.781
177 0 124.476 12.3317 1535 120.891 876.852 447.326
178 0 128.201 11.8407 1518 118.7 877.135 449.949
179 1 65.0846 11.293 735 116.162 877.363 476.54
180 0 67.1103 12.7253 854 112.662 877.068 478.6
181 0 70.0969 10.9991 771 115.638 877.064 477.449
182 0 73.1211 12.5135 915 112.751 877.134 473.496
183 0 75.0587 12.4969 938 112.09 877.333 473.146
184 0 77.0568 12.8477 990 111.091 876.821 472.125
185 0 80.1503 12.6887 1017 111.854 877.691 469.472
186 0 83.1657 12.6975 1056 112.505 877.802 465.551
187 0 85.2534 12.281 1047 114.961 878.372 465.246
188 0 86.2648 12.4037 1070 114.589 878.287 463.379
189 0 90.2849 12.4273 1122 115.227 877.646 462.15
190 0 94.1371 12.9173 1216 113.59 877.886 462.219
191 1 47.1151 9.3176 439 114.296 878.385 483.841
192 0 47.0571 8.94658 421 113.931 877.404 486.724
193 0 51.036 11.4037 582 107.976 877.101 487.359
194 0 51.0177 12.0546 615 107.855 877.376 485.574
195 0 54.0457 11.7678 636 108.918 877.937 483.87
196 0 56.0693 12.1992 684 106.887 877.927 484.646
197 0 58.0451 12.4903 725 106.996 878.218 481.623
198 0 60.0663 12.3697 743 107.026 878.213 479.754
199 0 60.0318 11.4439 687 108.706 877.804 481.246
200 0 65.0559 12.4201 808 106.322 877.718 478.989
201 0 65.0335 12.9933 845 107.251 877.524 478.164
202 0 69.0797 13.0719 903 107.446 876.927 477.302
203 0 70.0484 13.4193 940 107.609 877.819 476.702
204 0 71.0729 13.0429 927 109.785 877.358 473.918
205 0 73.0951 11.6013 848 114.061 878.285 473.18
206 0 78.1214 12.327 963 111.499 877.503 473.982
207 0 80.0595 12.066 966 111.858 877.087 472.204
208 0 82.1391 12.3693 1016 112.962 877.451 468.241
209 0 85.1041 13.3954 1140 111.631 877.454 468.878
210 0 89.1329 12.2626 1093 112.836 876.817 467.148
211 0 92.2128 12.4928 1152 112.193 877.476 464.561
212 0 95.1137 11.3759 1082 113.589 877.377 464.873
213 1 51.036 10.7179 547 107.717 877.963 487.83
214 0 51.0313 11.1304 568 108.746 878.445 485.658
215 0 55.066 12.7483 702 104.226 877.483 484.161
216 0 54.0592 11.3579 614 108.879 877.831 484.392
217 0 56.0705 11.6461 653 109.297 877.802 481.45
218 0 58.0866 11.81 686 107.554 878.219 482.157
219 0 58.1088 11.0654 643 110.501 877.199 481.949
220 0 63.0704 12.5257 790 106.467 877.387 479.929
221 0 65.0424 11.9768 779 108.173 877.915 479.263
222 0 67.1609 12.2393 822 108.17 877.661 477.651
223 0 69.0207 12.0544 832 108.218 877.55 476.079
224 0 70.0645 12.4457 872 108.673 877.974 476.256
225 0 71.0928 11.6327 827 113.7 877.29 473.973
226 0 73.074 12.0152 878 113.402 877.494 475.162
227 0 77.1035 12.5156 965 113.457 877.169 472.933
228 0 80.1299 12.6669 1015 113.656 877.12 470.395
229 0 82.059 13.8803 1139 112.04 877.341 468.343
230 0 83.2095 11.9217 992 117.151 877.733 466.339
231 0 86.1043 13.2746 1143 114.11 877.339 467.168
232 0 91.0827 11.8025 1075 116.212 877.031 464.354
233 1 45.0483 10.4111 469 113.759 877.301 487.011
234 0 47.0451 11.6271 547 112.04 878.027 484.38
235 0 50.0877 11.999 601 110.2 877.977 483.958
236 0 50.0319 11.1729 559 105.367 878.08 484.304
237 0 51.1011 11.7023 598 104.935 878.485 482.677
238 0 52.0973 10.1733 530 106.887 878.628 483.564
239 0 54.1843 10.2059 553 107.591 878.002 482.693
240 0 59.0818 11.7126 692 104.117 877.572 480.772
241 0 59.051 10.8212 639 107.635 877.709 480.513
242 0 61.1045 11.8158 722 106.148 877.242 478.298
243 0 64.1036 12.5578 805 104.273 877.354 478.883
244 0 68.0693 12.1053 824 104.765 877.731 477.83
245 0 68.0767 12.3978 844 106.469 877.449 475.564
246 0 69.0578 12.5692 868 106.904 877.717 476.152
247 0 72.0731 12.2792 885 109.094 877.939 474.312
248 0 74.0729 11.8937 881 110.876 877.243 471.766
249 0 77.0686 11.7687 907 112.632 877.762 471.151
250 0 78.1188 12.161 950 112.62 877.63 468.546
251 0 82.1144 11.8859 976 114.148 878.341 464.375
252 0 85.2456 12.1883 1039 113.067 878.32 465.61
253 0 88.1327 12.4471 1097 114.097 878.139 465.17
254 0 90.1268 11.617 1047 116.698 877.592 461.117
255 0 93.081 11.345 1056 118.014 878.454 461.962
256 0 97.068 12.4243 1206 116.297 878.072 457.86
257 1 48.0668 9.79886 471 112.372 878.603 486.482
258 0 51.0714 10.7496 549 112.06 877.898 484.168
259 0 55.042 11.0461 608 115.37 878.401 484.457
260 0 54.0723 10.4675 566 112.104 878.272 484.2
261 0 57.1151 11.3455 648 110.23 878.233 480.485
262 0 59.1282 12.8703 761 105.72 878.088 481.607
263 0 61.0844 12.2617 749 108.136 878.155 479.574
264 0 61.042 9.84568 601 112.997 878.178 480.747
265 0 66.1069 11.2394 743 110.293 877.991 478.816
266 0 66.0921 11.6202 768 110.469 877.967 477.042
267 0 69.0604 11.7289 810 110.641 878.809 475.993
268 0 73.2045 11.0376 808 111.276 878.007 475.614
269 0 75.1139 11.9951 901 109.619 878.45 475.104
270 0 76.0633 10.7016 814 114.545 878.319 473.283
271 0 79.1041 12.5657 994 111.049 878.046 470.722
272 0 82.072 12.4037 1018 112.79 878.697 468.875
273 0 84.0625 12.0862 1016 113.973 878.617 467.924
274 0 89.0901 12.3919 1104 112.527 878.132 468.516
275 0 89.1592 11.3617 1013 116.111 878.514 466.295
276 0 93.1346 11.6069 1081 116.026 878.597 461.388
277 0 98.1826 12.6397 1241 113.677 878.254 462.106
278 0 102.148 12.6287 1290 91.7108 878.077 460.435
279 1 55.0876 10.5468 581 114.148 878.43 485.095
280 0 58.0688 11.8136 686 112.864 878.522 482.497
281 0 57.0544 10.5864 604 111.416 876.17 485.697
282 0 56.0699 11.0219 618 113.62 875.927 483.105
283 0 61.1118 11.9453 730 109.766 877.049 482.919
284 0 62.0863 10.5337 654 113.549 876.434 480.959
285 0 63.2203 10.4397 660 114.476 876.923 479.992
286 0 66.1374 10.0246 663 114.315 876.462 479.718
287 0 70.1518 11.6889 820 109.73 877.199 478.161
288 0 72.2007 11.5511 834 110.523 876.839 477.199
289 0 73.1329 9.24344 676 113.362 876.234 476.587
290 0 76.1769 10.3837 791 112.446 877.071 472.308
291 0 79.1503 10.5243 833 113.03 876.676 471.052
292 0 83.1319 11.2833 938 111.064 876.544 471.255
293 1 45.0601 9.92009 447 109.87 876.524 488.557
294 0 45.0672 11.0946 500 106.974 876.35 487.72
295 0 46.0219 11.299 520 111.963 876.1 488.106
296 0 47.0791 10.2168 481 110.308 877.854 485.254
297 0 49.0437 10.6028 520 107.471 877.944 487.571
298 0 49.0841 11.6127 570 106.472 878.182 484.665
299 0 53.2417 9.56018 509 108.859 878.067 486.792
300 0 54.179 10.3546 561 108.333 877.535 484.92
301 0 56.0853 10.5019 589 108.643 877.676 484.394
302 0 57.1207 10.2415 585 110.145 878.053 482.462
303 0 60.0972 11.315 680 107.375 877.956 482.291
304 0 60.1559 10.3731 624 110.274 878.111 480.279
305 0 63.0818 10.8114 682 109.411 878.37 479.705
306 0 65.1129 12.8239 835 105.89 878.587 477.237
307 0 68.1672 10.9877 749 109.207 878.78 476.299
308 0 72.0874 11.167 805 108.913 878.753 475.224
309 0 73.2601 12.244 897 107.455 878.813 475.657
310 0 77.0681 12.4565 960 106.379 878.247 475.551
311 0 77.0658 11.0425 851 110.08 878.987 473.886
312 0 81.173 11.3585 922 109.869 878.453 469.99
313 0 84.0779 11.4418 962 110.065 878.23 468.11
314 1 44.0405 9.78645 431 106.661 878.657 490.03
315 0 45.0321 9.99287 450 106.231 875.936 489.184
316 0 48.0894 10.8756 523 102.679 876.352 489.591
317 0 49.0482 10.4183 511 98.6771 876.912 487.814
318 0 47.0459 10.1816 479 102.973 877.482 487.754
319 0 51.1267 10.4838 536 101.888 877.082 488.162
320 0 53.0452 11.198 594 99.303 876.845 485.279
321 0 55.0826 10.9472 603 99.2836 876.62 485.567
322 0 57.1861 11.3664 650 97.3692 876.937 486.078
323 0 56.1818 11.1602 627 123.555 876.908 485.638
324 0 59.1734 10.4608 619 100.013 876.903 484.74
325 0 61.0839 11.476 701 97.2111 877.508 483.484
326 0 63.0437 11.6427 734 96.8815 877.091 479.847
327 0 65.0716 9.86605 642 100.383 877.732 479.564
328 0 66.0359 9.81285 648 100.159 877.417 478.764
329 0 70.0797 10.0314 703 98.9659 877.772 478.667
330 0 72.2315 12.3215 890 94.6191 878.13 475.28
331 0 75.0983 11.5316 866 96.5901 878.067 476.326
332 0 78.0828 10.9627 856 97.4381 877.404 474.208
333 0 82.0696 12.0629 990 95.2808 877.534 471.763
334 0 83.0542 11.041 917 97.253 877.975 473.575
335 0 87.1124 11.6746 1017 97.5034 877.485 467.289
336 0 85.1115 11.5848 986 128.978 876.443 466.52
337 1 45.0718 10.2947 464 97.7694 878.272 491.69
338 0 46.0346 10.2314 471 97.9894 878.142 488.223
339 0 49.0135 10.9562 537 95.5326 879.344 488.363
340 0 49.0206 10.3834 509 97.947 879.47 486.295
341 0 47.1266 10.9068 514 97.8268 878.475 487.588
342 0 53.0254 12.1263 643 94.4479 878.306 487.757
343 0 53.0398 11.3688 603 95.7479 878.139 488.182
344 0 53.039 10.9542 581 97.6902 877.964 484.916
345 0 55.0729 10.2228 563 98.1208 879.224 487.034
346 0 57.0368 11.8169 674 95.089 878.869 484.728
347 0 60.0787 12.0176 722 94.7604 878.656 484.463
348 0 63.0795 12.2861 775 94.6516 879.911 482.032
349 0 62.0801 11.6785 725 96.4786 878.81 484.001
350 0 64.0258 11.5578 740 97.3716 879.092 480.055
351 0 68.0594 11.299 769 97.2601 878.754 480.559
352 0 69.0449 12.7598 881 93.6424 879.115 481.829
353 0 69.0449 12.615 871 125.253 880.121 481.773
354 0 69.0425 12.5865 869 124.881 881.102 481.73
355 0 77.1057 12.658 976 95.1783 877.856 477.012
356 0 77.1559 11.3148 873 99.197 878.342 474.631
357 0 80.1006 11.2608 902 99.4213 878.038 474.53
358 0 84.0939 12.379 1041 97.2123 877.877 472.573
359 0 85.1786 11.6461 992 99.8942 878.593 470.247
360 0 89.1462 11.7672 1049 99.7359 878.861 469.495
361 0 91.1415 11.334 1033 100.718 878.082 468.268
362 0 95.06 12.4763 1186 99.3364 878.089 466.737
363 0 99.1413 12.3964 1229 100.102 878.34 466.233
364 0 98.1172 10.8747 1067 104.061 878.244 463.563
365 0 105.161 11.9912 1261 101.596 877.729 459.897
366 0 109.155 12.4869 1363 100.424 877.932 459.612
367 1 56.1896 9.84167 553 100.537 877.962 485.66
368 0 58.0951 10.9992 639 97.3192 878.9 484.252
369 0 59.1202 12.0433 712 93.4494 879.083 483.94
370 0 63.0754 11.621 733 92.2101 877.449 484.585
371 0 65.0352 11.4092 742 91.9609 877.094 482.764
372 0 67.0334 13.4261 900 88.7733 877.364 480.714
373 0 68.074 12.2367 833 90.419 877.431 481.532
374 0 70.0346 10.7804 755 93.6927 877.167 479.607
375 0 72.0467 11.7702 848 92.2335 877.572 477.769
376 0 76.1082 12.5348 954 91.2799 877.379 476.531
377 0 80.0955 11.9982 961 90.9178 877.798 476.494
378 0 82.1053 12.0699 991 91.8819 877.539 474.808
379 0 84.0473 12.5762 1057 91.1835 877.135 473.114
380 0 87.0448 12.9588 1128 90.4069 877.394 472.28
381 0 89.1455 12.0814 1077 92.8394 877.684 470.629
382 0 93.2067 12.7673 1190 91.7546 877.672 469.74
383 0 96.1082 12.3507 1187 91.6318 878.451 465.904
384 0 98.1447 11.9416 1172 93.8737 878.468 464.361
385 0 103.163 11.3025 1166 95.1724 877.955 462.682
386 0 105.105 9.85682 1036 98.1255 878.261 459.987
387 0 109.05 11.0592 1206 96.2098 877.8 458.374
388 0 113.148 12.603 1426 94.2994 877.586 455.115
389 1 61.2518 11.2323 688 92.3081 876.796 485.283
390 0 62.0577 11.6666 724 93.7707 876.57 482.133
391 0 65.0537 12.0516 784 92.8852 878.395 482.195
392 0 65.0242 11.4265 743 95.0727 877.246 482.774
393 0 68.1074 11.2763 768 95.332 877.711 481.148
394 0 71.0495 12.7235 904 93.385 877.774 479.19
395 0 72.0493 11.3395 817 96.8164 878.012 478.088
396 0 74.0584 11.788 873 95.7812 877.726 479.383
397 0 78.1018 10.9985 859 97.5506 877.293 476.804
398 0 80.1085 11.1349 892 97.5112 876.63 476.9
399 0 83.1052 11.4193 949 97.2624 877.926 471.843
400 0 84.078 11.2871 949 98.1001 878.246 473.976
401 0 87.0657 11.6579 1015 97.801 877.692 472.766
402 0 88.2277 10.6429 939 100.796 877.936 471.333
403 0 92.0593 10.6779 983 100.913 877.431 469.416
404 0 95.0824 11.5374 1097 100.262 877.013 467.253
405 0 98.0401 12.2297 1199 99.3211 877.279 464.023
406 0 101.13 12.0241 1216 99.4679 878.025 461.898
407 0 105.099 12.6738 1332 98.3138 877.133 461.279
408 0 108.129 10.8205 1170 101.504 877.457 462.52
409 0 113.164 11.5054 1302 99.917 877.388 461.373
410 0 115.132 11.5085 1325 99.9117 877.335 458.399
411 1 59.0647 11.2927 667 97.9115 877.397 485.52
412 0 59.0436 9.29821 549 104.213 877.011 482.936
413 0 64.1041 12.9009 827 99.0351 877.634 480.403
414 0 67.0659 13.5538 909 97.0539 877.05 480.483
415 0 67.0639 13.435 901 124.229 876.067 480.441
416 0 71.1876 12.2353 871 100.168 877.92 478.675
417 0 73.1169 11.297 826 101.92 878.053 475.176
418 0 75.1869 11.252 846 102.81 878.155 475.85
419 0 79.2476 12.9972 1030 98.5951 877.56 472.712
420 0 82.1589 14.545 1195 95.369 877.729 472.235
421 0 85.0982 13.9133 1184 96.8404 877.738 473.188
422 0 86.1415 13.118 1130 99.0496 878.024 471.354
423 0 91.2336 12.9886 1185 99.946 878.079 466.04
424 0 93.1573 13.6114 1268 99.2429 877.79 466.89
425 0 95.1642 12.4206 1182 102.8 877.501 464.808
426 0 98.0823 12.6832 1244 102.402 877.776 463.157
427 0 99.1999 12.3589 1226 103.554 877.029 462.049
428 0 106.201 14.529 1543 98.6403 877.795 458.736
429 0 107.153 12.6361 1354 106.661 877.53 454.939
430 1 55.047 10.0641 554 102.875 877.105 484.531
431 0 56.1537 10.5781 594 104.684 877.14 482.99
432 0 59.0159 12.0645 712 95.3371 877.966 483.603
433 0 61.0686 10.5128 642 105.899 878.597 484.911
434 0 64.0368 11.9306 764 104.779 878.65 480.885
435 0 66.1464 13.2585 877 101.889 877.843 480.972
436 0 66.0366 11.3119 747 106.827 879.062 479.023
437 0 71.0624 12.4116 882 104.079 878.4 479.498
438 0 75.0499 12.1919 915 105.203 878.708 477.642
439 0 75.0369 12.7537 957 105.22 879.387 475.805
440 0 79.0972 13.4897 1067 104.323 879.45 475.018
441 0 81.0444 11.3641 921 108.85 879.113 473.915
442 0 83.0492 13.1729 1094 106.455 878.642 472.176
443 0 86.0487 11.7492 1011 109.776 879.038 470.368
444 0 90.1486 12.5792 1134 108.682 878.414 467.817
445 0 94.0643 11.8642 1116 109.263 879.043 469.422
446 0 95.0959 11.1151 1057 112.708 879.374 465.97
447 0 95.1047 11.0405 1050 140.988 880.373 465.874
448 1 50.0219 10.7553 538 101.355 877.922 488.836
449 0 52.0704 12.4255 647 96.643 879.097 487.643
450 0 52.0486 10.3173 537 102.993 878.644 487.441
451 0 53.0949 10.566 561 101.863 878.995 488.378
452 0 55.1111 10.125 558 104.224 878.443 485.389
453 0 55.07 10.5502 581 105.491 879.289 483.974
454 0 58.0519 11.128 646 104.392 879.296 483.709
455 0 59.089 10.6957 632 105.973 878.976 483.422
456 0 63.0467 10.7698 679 105.295 879.062 482.94
457 0 63.1619 10.8768 687 107.355 879.245 482.381
458 0 67.0879 11.1794 750 106.745 878.841 480.013
459 0 70.0724 12.5727 881 104.439 879.132 478.938
460 0 69.096 10.2756 710 111.245 879.017 478.324
461 0 74.08 11.3391 840 109.202 879.119 477.379
462 0 77.1754 11.9209 920 107.653 878.705 475.687
463 0 79.09 10.722 848 111.183 878.491 474.249
464 1 44.0674 12.027 530 108.308 879.492 491.802
465 0 45.0176 12.0842 544 109.379 879.32 491.079
466 0 45.0484 11.4988 518 111.705 878.828 491.378
467 0 47.0766 12.8089 603 109.645 878.028 488.745
468 0 49.1191 12.2763 603 111.216 878.245 488.92
469 0 48.0231 12.0151 577 115.276 877.007 488.929
470 0 53.0228 11.1273 590 115.893 877.214 488.015
471 0 54.0669 11.9482 646 114.235 877.158 487.361
472 0 57.1091 13.0802 747 111.241 877.388 486.827
473 0 55.1062 12.1946 672 144.152 876.335 485.42
474 0 57.2252 11.6382 666 117.524 878.183 483.755
475 0 63.2066 13.3214 842 112.558 878.821 484.039
476 0 62.0712 12.8079 795 115.806 878.264 484.514
477 0 65.1702 13.9327 908 112.972 877.906 483.041
478 0 66.1783 12.8743 852 116.869 878.269 481.702
479 0 67.1023 12.3543 829 118.416 878.024 481.375
480 0 72.0788 15.0252 1083 111.255 877.672 480.05
481 0 72.1312 14.03 1012 115.497 877.705 479.385
482 0 74.0928 12.6193 935 119.835 877.211 477.343
483 0 78.2054 14.3213 1120 114.848 878.037 477.425
484 0 82.1346 13.9527 1146 114.612 877.983 476.154
485 0 81.1769 13.4891 1095 117.756 878.003 475.317
486 0 85.1149 13.8636 1180 117.466 877.353 472.597
487 0 86.1681 13.0791 1127 121.432 877.493 471.146
488 0 89.1055 11.9072 1061 123.539 877.213 471.225
489 0 92.1963 13.0483 1203 122.732 877.852 468.327
490 0 95.1518 12.706 1209 123.561 877.778 465.071
491 0 97.2278 12.3833 1204 122.421 877.763 468.415
492 0 102.077 13.2449 1352 121.144 877.926 463.775
493 0 103.121 11.9568 1233 120.41 878.017 461.324
494 0 107.095 12.1294 1299 119.541 878.134 462.193
495 0 112.1 13.5772 1522 119.547 878.145 460.771
496 0 114.163 12.2895 1403 119.899 877.659 458.552
497 0 122.286 13.6074 1664 116.26 877.799 457.203
498 0 125.154 12.3049 1540 120.375 877.835 453.277
499 1 64.0648 12.144 778 114.069 879.253 482.815
500 0 69.0659 12.7125 878 115.844 878.187 480.612
501 0 69.0517 13.1351 907 118.935 878.777 478.266
502 0 73.061 12.3595 903 120.926 878.332 478.74
503 0 76.0798 12.9075 982 119.907 878.81 476.299
504 0 79.0555 12.9782 1026 118.317 878.807 476.669
505 0 81.0519 12.7449 1033 120.104 879.027 472.748
506 0 85.2078 13.2382 1128 119.637 877.791 472.023
507 0 88.0506 12.5155 1102 120.222 878.237 471.522
508 0 88.0527 12.6288 1112 128.287 879.239 471.46
509 0 94.11 12.581 1184 122.372 877.959 466.701
510 0 97.1254 12.6949 1233 121.156 878.161 466.762
511 0 99.1097 11.8858 1178 122.093 878.321 464.012
512 1 53.0961 11.9218 633 114.972 878.333 488.36
513 0 54.0649 11.0793 599 118.316 878.237 486.613
514 0 58.0236 12.0468 699 115.668 878.312 485.303
515 0 57.0421 11.9035 679 118.439 877.825 484.346
516 0 59.0282 12.1806 719 117.207 878.095 485.359
517 0 62.0706 11.3419 704 118.781 878.68 483.57
518 0 64.0823 11.4072 731 118.174 878.746 482.542
519 0 65.0363 10.8247 704 121.053 878.457 480.923
520 0 69.0643 11.5834 800 118.419 878.824 480.626
521 0 71.0886 12.2804 873 117.548 878.147 478.525
522 0 73.1606 12.3427 903 117.244 877.096 477.238
523 0 77.1202 12.5778 970 116.908 878.524 476.855
524 0 77.0942 11.8945 917 119.664 878.249 476.013
525 0 82.1582 12.4029 1019 118.719 878.357 473.328
526 0 84.1114 11.9247 1003 120.031 878.255 472.659
527 0 88.1129 11.9506 1053 119.255 877.65 471.617
528 0 90.1272 10.8957 982 122.841 877.836 470.533
529 0 92.1302 11.1581 1028 124.692 877.723 468.689
530 0 97.1028 11.8328 1149 123.741 878.136 466.084
531 1 52.0349 11.4923 598 120.689 878.376 488.816
532 0 55.0172 11.8872 654 122.41 878.356 486.101
533 0 55.032 11.7568 647 124.808 878.756 486.743
534 0 57.0729 11.459 654 116.24 878.425 487.621
535 0 57.083 10.984 627 120.105 878.742 485.386
536 0 62.0503 11.7324 728 116.133 878.404 485.416
537 0 63.0923 12.2043 770 115.375 878.408 482.568
538 0 65.0891 12.721 828 114.664 878.32 481.738
539 0 68.092 11.3376 772 117.495 877.858 480.972
540 0 72.1164 12.05 869 115.07 878.704 479.19
541 0 73.1213 11.9801 876 115.796 878.314 478.656
542 0 76.08 12.2897 935 115.514 878.49 474.387
543 0 79.2033 12.0955 958 116.676 878.621 474.775
544 0 82.1571 12.4639 1024 115.305 878.188 475.453
545 0 85.1131 12.5363 1067 115.585 878.664 471.242
546 1 46.0852 11.0665 510 115.698 879.167 493.533
547 0 48.1118 12.658 609 112.552 877.695 491.511
548 0 50.059 12.7649 639 110.563 878.599 492.829
549 0 48.0411 11.7608 565 115.681 878.073 492.002
550 0 49.0681 11.2089 550 117.705 878.1 491.982
551 0 50.1175 11.7923 591 117.597 877.545 490.876
552 0 54.078 12.8518 695 113.521 878.688 489.689
553 0 55.0786 12.3641 681 115.219 878.421 490.427
554 0 57.0965 11.5769 661 119.116 878.014 488.407
555 0 59.0617 11.9028 703 118.393 878.124 486.071
556 0 59.0583 11.8527 700 121.201 878.19 484.664
557 0 62.0922 12.2076 758 119.286 877.801 486.185
558 0 64.183 12.6202 810 119.628 878.067 483.685
559 0 65.1166 12.7003 827 119.14 878.22 484.063
560 0 69.1248 13.5552 937 115.16 878.903 483.975
561 0 72.0947 12.4558 898 119.994 878.743 481.334
562 0 74.1276 12.6673 939 119.593 877.839 479.679
563 0 77.1682 12.7902 987 119.311 877.965 480.182
564 0 77.096 12.0499 929 117.147 878.265 476.448
565 0 81.0553 12.5593 1018 115.707 878.257 474.636
566 0 84.0313 12.412 1043 116.556 878.07 474.851
567 0 87.1078 13.7416 1197 113.093 877.221 472.929
568 0 90.0984 13.1745 1187 120.805 878.337 473.287
569 1 50.0438 11.45 573 122.937 878.01 493.356
570 0 49.0109 12.0585 591 123.934 878.535 491.728
571 0 50.0815 12.0603 604 118.381 878.338 488.533
572 0 52.0801 12.1351 632 115.85 877.76 484.335
573 0 53.0704 12.2856 652 118.405 878.558 490.428
574 0 54.0402 11.4544 619 120.236 879.162 489.826
575 0 57.1129 12.2564 700 118.34 878.63 488.051
576 0 57.0455 12.4813 712 118.157 878.501 487.309
577 0 61.0472 13.7271 838 114.64 877.74 485.98
578 0 62.071 12.2924 763 118.568 878.055 485.014
579 0 63.0764 12.7464 804 136.798 879.032 485.571
580 0 66.0742 12.0773 798 118.216 878.381 483.388
581 0 70.0534 13.1899 924 115.266 877.95 481.752
582 0 70.0522 12.8761 902 116.112 878.139 480.137
583 0 76.0519 12.6361 961 114.802 877.708 479.972
584 0 77.0345 12.8644 991 114.078 878.575 478.628
585 0 82.0651 12.7582 1047 113.195 878.224 475.747
586 0 84.1222 13.5161 1137 110.057 878.179 474.432
587 0 87.0735 12.4148 1081 112.673 878.422 470.115
588 0 91.0868 13.0754 1191 110.934 877.68 469.059
589 1 43.0708 10.9355 471 109.134 878.578 493.588
590 0 43.1222 10.8529 468 112.759 877.842 488.169
591 0 47.0442 11.9675 563 107.197 877.338 488.06
592 0 48.0282 12.0554 579 109.708 878.121 492.832
593 0 49.0876 11.8971 584 110.89 878.353 491.928
594 0 53.0195 12.071 640 108.923 878.397 490.267
595 0 54.0566 12.6719 685 108.194 878.047 488.69
596 0 56.0819 13.6764 767 106.524 877.949 487.953
597 0 58.0676 12.8299 745 108.396 877.878 487.827
598 0 59.098 13.9768 826 106.357 877.823 486.185
599 0 62.144 13.9997 870 106.384 878.48 484.187
600 0 63.0552 13.8292 872 108.341 878.217 482.99
601 0 66.1179 13.2642 877 109.87 877.832 483.031
602 0 68.0703 12.2227 832 111.588 877.564 484.797
603 0 71.0839 12.3235 876 112.669 877.458 482.176
604 0 73.0867 12.0268 879 114.76 877.512 481.696
605 0 76.1349 11.7292 893 113.937 878.113 480.669
606 0 79.0581 12.8766 1018 114.225 877.918 477.512
607 0 81.1226 13.005 1055 114.642 877.435 475.323
608 0 83.0449 10.9941 913 119.011 876.655 476.123
609 0 88.0595 12.06 1062 117.892 877.778 473.776
610 1 44.0221 11.4715 505 117.099 877.358 492.495
611 0 47.0501 11.3071 532 115.115 878.054 494.331
612 0 48.0348 12.8449 617 113.06 877.7 491.857
613 0 49.0556 12.6183 619 113.189 877.52 492.546
614 0 49.0484 11.4377 561 117.1 878.07 491.483
615 0 51.0266 10.9747 560 117.539 877.998 490.668
616 0 54.0551 11.2848 610 115.995 877.338 489.266
617 0 55.0697 12.4025 683 113.909 877.616 487.294
618 0 58.0673 12.5888 731 112.554 877.644 486.186
619 0 60.0576 12.105 727 111.758 877.674 485.945
620 0 62.0665 11.6971 726 113.105 878.12 483.966
621 0 63.0337 11.5176 726 112.97 878.315 482.682
622 0 70.0584 12.8321 899 108.207 877.564 481.85
623 0 68.1065 10.88 741 113.252 878.157 478.264
624 0 74.0547 12.1667 901 108.852 877.128 477.577
625 0 77.0443 11.1884 862 111.737 877.406 476.797
626 0 78.0559 11.1715 872 113.656 877.893 473.437
627 1 37.0728 11.0593 410 106.188 878.495 496.502
628 0 38.0672 10.4289 397 107.501 878.091 494.877
629 0 39.0191 11.4816 448 105.924 877.438 493.355
630 0 42.1324 10.6806 450 105.171 877.849 494.824
631 0 39.0491 8.39969 328 112.061 877.558 492.53
632 0 44.1062 11.0415 487 105.587 877.92 491.491
633 0 45.0267 9.74977 439 107.41 877.417 491.497
634 0 48.0461 10.3651 498 106.894 876.602 491.143
635 0 45.0909 9.09275 410 117.978 877.176 490.717
636 0 52.0684 10.9087 568 113.352 877.569 488.405
637 0 51.1182 9.54651 488 115.742 877.213 488.57
638 0 54.1242 11.1041 601 112.889 876.534 486.205
639 0 55.0798 11.8011 650 111.306 877.466 486.883
640 0 57.102 10.7702 615 113.728 877.984 484.127
641 0 60.1035 10.5318 633 112.58 877.092 484.727
642 0 62.1164 11.0277 685 111.134 877.172 484.685
643 0 64.1154 11.8224 758 111.049 876.504 481.212
644 0 66.1027 12.0872 799 109.829 877.151 482.363
645 0 69.0631 12.2786 848 105.729 877.379 481.013
646 0 72.094 11.6515 840 106.832 877.504 477.269
647 0 75.1378 11.9647 899 106.307 876.615 477.386
648 0 77.0799 11.3129 872 107.808 877.343 477.058
649 0 80.1301 11.681 936 108.504 876.836 475.019
650 0 80.0949 10.1629 814 112.254 876.655 474.806
651 1 43.0298 9.69097 417 108.597 876.137 492.384
652 0 46.0744 11.4814 529 105.926 877.391 489.618
653 0 47.0447 12.35 581 105.341 877.224 490.608
654 0 48.0546 11.7991 567 108.663 876.065 489.57
655 0 51.3004 11.7933 605 110.144 876.911 489.964
656 0 49.0923 10.5923 520 112.792 876.908 488.475
657 0 52.0617 13.2343 689 106.688 876.772 487.428
658 0 51.0646 11.6715 596 110.755 876.3 489.164
659 0 52.0429 11.0486 575 112.242 876.751 485.282
660 0 56.1274 13.5406 760 105.499 876.684 485.772
661 0 58.078 11.9667 695 108.455 877.105 485.278
662 0 60.1491 10.1747 612 111.824 877.966 484.17
663 0 64.0557 12.0676 773 108.113 877.979 481.155
664 0 64.0543 10.7253 687 109.47 878.345 482.633
665 0 67.0234 11.22 752 108.298 878.339 479.758
666 0 70.1203 11.9937 841 106.508 877.826 478.533
667 0 73.1099 12.6385 924 106.66 876.991 475.618
668 0 77.1496 13.1822 1017 105.455 876.927 475.382
669 0 78.1133 11.3553 887 109.132 877.599 474.66
670 1 40.1191 10.2944 413 104.308 877.259 494.879
671 0 40.0432 11.8122 473 99.8351 877.364 495.03
672 0 41.0257 10.8956 447 97.7517 876.794 491.186
673 0 43.1692 11.536 498 100.582 876.092 494.635
674 0 46.0514 12.334 568 98.9278 876.366 492.357
675 0 47.1329 11.7752 555 99.7045 877.088 491.582
676 0 49.061 12.2501 601 98.0682 876.518 491.451
677 0 49.0947 12.2417 601 98.5424 876.647 492.742
678 0 50.0143 11.3368 567 100.714 877.817 489.707
679 0 51.0367 12.4224 634 99.1972 877.379 490.05
680 0 54.0757 12.0017 649 98.6872 878.049 488.425
681 0 55.0729 11.276 621 100.422 877.63 487.137
682 0 58.0322 11.9072 691 100.111 876.89 486.803
683 0 57.1268 10.4504 597 103.42 877.374 486.992
684 0 61.0646 11.9709 731 100.888 877.49 482.276
685 0 62.1062 11.4803 713 101.072 877.731 484.809
686 0 63.0703 12.0817 762 101.314 877.493 481.257
687 0 67.1944 13.3791 899 98.6641 877.684 481.574
688 0 70.0488 14.0045 981 97.3976 877.184 480.929
689 0 72.0649 12.6553 912 99.5822 877.626 481.906
690 0 75.0729 12.2947 923 101.761 878.102 478.366
691 0 75.1263 11.3542 853 104.943 877.52 476.394
692 0 81.0674 13.3593 1083 100.841 877.531 474.569
693 0 83.0974 13.057 1085 102.996 877.649 472.203
694 1 41.0474 9.52557 391 108.726 877.949 493.675
695 0 44.0423 11.5344 508 106.323 877.9 491.205
696 0 44.1976 10.9508 484 107.719 877.657 491.719
697 0 46.073 11.6554 537 102.4 878.652 491.827
698 0 46.0727 11.3516 523 106 877.836 490.702
699 0 47.085 11.6385 548 105.381 878.524 490.56
700 0 48.0802 11.3976 548 105.504 878.082 489.515
701 0 52.0472 10.2983 536 106.741 878.401 488.597
702 0 54.0842 12.3881 670 102.612 877.94 487.472
703 0 56.042 12.1159 679 103.325 877.826 487.707
704 0 57.0283 11.3277 646 103.678 877.703 485.796
705 0 59.0684 12.1723 719 103.058 878.018 486.829
706 0 61.0881 11.6553 712 103.581 877.036 485.489
707 0 64.0514 12.8334 822 101.68 877.625 482.849
708 0 65.0574 12.0816 786 103.936 876.901 480.938
709 0 68.0726 12.3545 841 103.19 876.665 481.043
710 0 68.0816 10.7077 729 108.586 877.296 479.132
711 0 74.051 11.3705 842 105.83 877.343 480.109
712 0 76.1098 12.7316 969 105.97 877.012 476.34
713 0 79.1129 13.6387 1079 103.652 877.249 477.113
714 0 82.0648 12.5754 1032 106.766 877.447 473.069
715 0 87.1131 13.0176 1134 106.189 876.927 472.269
716 1 43.025 11.226 483 106.718 877.07 493.838
717 0 45.0266 11.149 502 109.651 878 492.151
718 0 46.0643 12.8516 592 107.63 876.791 491.438
719 0 45.04 11.7451 529 108.709 876.654 491.722
720 0 49.0606 12.6171 619 107.551 876.1 491.514
721 0 50.0268 12.3134 616 109.325 876.192 490.216
722 0 52.0225 11.8218 615 110.698 877.011 489.951
723 0 53.0462 11.7822 625 110.614 877.498 489.443
724 0 54.0372 13.2686 717 108.685 877.593 488.319
725 0 57.0766 14.0513 802 106.395 877.113 487.122
726 0 57.1293 12.813 732 110.885 876.999 486.197
727 0 60.0832 12.8489 772 109.854 877.424 487.354
728 0 60.0639 12.3535 742 113.036 876.848 486.554
729 0 62.0537 12.6342 784 113.823 877.503 483.774
730 0 65.0654 12.9101 840 112.482 877.794 483.737
731 0 67.0771 13.2981 892 112.428 877.326 482.796
732 0 68.047 12.5942 857 115.853 877.274 481.21
733 0 73.085 13.1628 962 112.184 877.475 480.819
734 0 73.092 12.3817 905 117.442 877.362 478.245
735 0 77.1603 13.5432 1045 114.881 877.566 476.903
736 0 78.1544 12.4753 975 117.947 877.033 478.296
737 0 83.0594 13.4602 1118 115.979 877.354 474.93
738 1 42.0195 10.2095 429 120.73 877.725 494.235
739 0 45.0147 12.0405 542 118.446 876.753 493.236
740 0 47.0319 12.2683 577 118.464 876.097 492.251
741 0 47.0216 12.5262 589 119.917 878.277 491.525
742 0 50.0495 14.0261 702 115.644 877.85 490.684
743 0 47.0363 11.2466 529 118.815 877.263 491.803
744 0 50.0384 12.3905 620 117.016 877.674 491.171
745 0 52.0482 11.8352 616 118.622 878.07 490.575
746 0 51.0741 11.0232 563 121.568 877.607 490.192
747 0 54.045 11.731 634 121.297 876.991 489.344
748 0 56.0516 12.3815 694 120.581 877.095 487.592
749 0 58.0896 12.7734 742 119.97 877.116 487.035
750 0 59.0244 11.5545 682 123.582 877.169 485.592
751 0 61.0779 12.1484 742 122.759 877.567 485.724
752 0 65.0408 12.669 824 120.119 876.708 483.627
753 0 67.0425 12.1714 816 121.523 877.647 483.795
754 0 70.0756 12.7006 890 120.929 877.26 482.522
755 0 72.1296 12.6994 916 121.377 876.312 481.89
756 0 74.0283 11.8874 880 124.676 877.072 479.74
757 0 78.0721 12.8471 1003 122.806 877.614 477.826
758 0 80.109 13.1945 1057 122.662 876.879 476.87
759 0 83.0813 13.3604 1110 123.176 877.374 472.964
760 0 86.0737 12.2918 1058 127.628 876.234 472.898
761 1 45.0091 12.2642 552 121.063 877.188 494.04
762 0 46.0152 11.5831 533 125.064 877.146 493.959
763 0 49.0343 11.91 584 130.406 877.586 490.257
764 0 49.0157 12.3634 606 121.612 877.579 491.718
765 0 51.0556 12.5158 639 120.898 877.562 491.7
766 0 50.0336 12.3717 619 124.252 876.901 489.359
767 0 52.0964 11.2868 588 123.949 877.202 490.054
768 0 55.0738 12.6557 697 119.957 876.964 489.082
769 0 55.0436 12.0813 665 124.158 876.821 487.18
770 0 58.0527 13.1604 764 120.366 876.92 486.991
771 0 59.0641 12.461 736 124.126 876.607 486.334
772 0 63.0232 12.2653 773 123.437 877.396 485.003
773 0 63.0297 12.2165 770 126.101 876.866 484.223
774 0 66.1164 13.0225 861 122.708 877.503 482.174
775 0 68.0291 12.2742 835 124.746 877.17 481.14
776 0 71.0755 12.5078 889 124.36 876.577 479.998
777 0 73.0993 12.4078 907 124.696 876.797 480.682
778 0 76.0911 12.7873 973 124.262 876.856 477.563
779 0 77.1193 11.8129 911 127.445 877.423 476.204
780 0 83.1849 13.0553 1086 122.603 877.181 474.041
781 0 83.1357 12.0766 1004 127.036 877.823 471.806
782 1 41.1288 10.771 443 127.688 877.248 493.402
783 0 44.0954 11.9967 529 124.085 877.117 492.987
784 0 46.0371 11.8817 547 123.731 877.441 491.695
785 0 47.024 12.802 602 115.751 877.811 493.296
786 0 47.0148 10.7838 507 121.846 877.917 493.258
787 0 49.025 10.7088 525 123.12 876.81 489.998
788 0 51.0495 11.2832 576 122.109 877.403 488.267
789 0 53.049 13.1953 700 116.867 877.793 487.264
790 0 55.0255 10.8677 598 122.214 876.967 488.841
791 0 56.0664 11.7183 657 121.393 877.011 485.441
792 0 59.1106 13.0434 771 118.458 877.003 484.392
793 0 60.0628 11.6878 702 121.346 877.147 485.224
794 0 63.1177 13.5937 858 118.348 877.528 481.65
795 0 66.0915 12.1801 805 120.835 877.719 481.585
796 0 69.071 13.059 902 118.752 877.165 480.115
797 0 71.0321 12.4028 881 121.02 877.339 479.546
798 0 72.0335 12.1888 878 124.476 877.445 477.691
799 0 76.0969 13.3777 1018 120.4 877.406 476.902
800 0 78.0597 13.2975 1038 122.373 877.653 475.051
801 0 80.0458 11.9557 957 126.286 877.823 475.345
802 0 84.0703 13.679 1150 122.386 877.342 471.987
803 0 89.0609 13.1146 1168 123.048 876.973 472.844
804 0 91.1018 13.699 1248 121.643 877.85 470.189
805 1 49.0242 11.3413 556 121.96 878.036 491.335
806 0 51.0525 11.6547 595 123.277 878.03 488.827
807 0 50.0732 11.7029 586 116.78 876.785 484.724
808 0 53.0776 11.5303 612 115.757 876.175 483.985
809 0 52.0554 11.9296 621 118.823 877.053 490.348
810 0 56.06 12.772 716 117.466 877.335 489.08
811 0 56.1078 12.6007 707 120.198 878.496 487.816
812 0 59.0141 11.6074 685 123.114 877.806 487.953
813 0 61.0878 12.7194 777 121.784 877.233 485.048
814 0 61.0556 12.202 745 125.315 876.985 484.103
815 0 65.1272 12.6982 827 123.21 876.855 484.056
816 0 68.0408 12.9775 883 122.814 877.687 482.698
817 0 69.0587 13.2062 912 123.224 876.934 482.571
818 0 72.174 13.6476 985 123.104 877.782 480.375
819 0 75.0799 12.9995 976 125.874 877.565 478.748
820 0 77.0781 13.0387 1005 125.589 877.836 478.508
821 0 81.0596 12.3983 1005 127.299 877.234 475.147
822 0 83.1273 12.7275 1058 127.725 878.399 474.001
823 0 87.1099 13.1558 1146 125.243 877.821 473.132
824 1 45.024 11.6382 524 123.345 878.111 491.708
825 0 42.0845 10.7165 451 124.933 877.377 487.466
826 0 46.0778 12.2836 566 115.585 877.823 488.332
827 0 46.0756 10.4611 482 120.008 877.299 488.645
828 0 48.1484 11.1738 538 119.162 877.589 488.734
829 0 46.1055 10.0856 465 124.903 877.159 485.581
830 0 51.0612 11.6919 597 118.727 876.395 484.41
831 0 52.0491 10.663 555 120.914 875.663 486.335
832 0 54.0353 11.8071 638 119.915 876.356 483.423
833 0 57.0551 11.7606 671 115.25 876.852 485.824
834 0 59.0769 12.8985 762 113.135 876.598 483.577
835 0 60.0767 12.3842 744 114.777 876.692 482.876
836 0 62.1305 11.7334 729 114.772 876.458 482.815
837 0 64.0766 11.3146 725 115.903 876.506 480.561
838 0 67.0673 11.7196 786 115.13 876.599 479.672
839 0 68.0642 11.9299 812 115.023 876.424 479.387
840 0 70.1735 12.3978 870 117.857 876.545 480.332
841 0 73.0926 12.792 935 116.378 876.341 479.808
842 0 74.1475 12.2998 912 118.077 876.401 478.907
843 0 76.1046 11.9441 909 119.557 876.408 477.596
844 0 79.0507 11.8531 937 119.242 876.481 475.227
845 0 82.0176 12.3144 1010 118.196 876.98 474.703
846 0 86.0694 12.4667 1073 118.026 876.893 473.115
847 0 85.0658 11.2501 957 121.671 876.133 474.298
848 0 90.0964 12.5088 1127 118.643 876.31 471.846
849 0 92.1472 11.2754 1039 121.304 875.614 469.558
850 0 96.2101 12.8157 1233 117.262 876.93 466.984
851 1 52.0762 10.7727 561 123.847 877.504 487.547
852 0 55.1346 11.6805 644 119.899 876.253 486.693
853 0 56.0455 11.0446 619 121.995 877.257 487.078
854 0 58.1452 12.2452 712 118.358 876.878 485.044
855 0 62.0728 12.6948 788 116.411 876.367 484.617
856 0 64.1689 12.8255 823 112.424 877.19 485.355
857 0 63.171 11.2393 710 118.628 877.256 481.411
858 0 68.1462 12.1797 830 114.339 877.081 480.355
859 0 69.128 11.5872 801 115.961 876.482 478.637
860 0 69.2901 11.3869 789 117.091 876.603 478.084
861 0 73.1164 10.2029 746 108.606 876.786 479.582
862 0 75.0834 10.6015 796 107.673 877.041 476.928
863 0 78.0822 11.4367 893 105.447 876.252 475.326
864 0 81.2922 10.37 843 108.255 876.289 472.708
865 0 86.1729 11.1172 958 105.889 875.881 472.118
866 1 43.1144 9.99667 431 104.035 875.71 493.26
867 0 43.0629 9.47452 408 105.603 875.951 490.392
868 0 45.0481 10.9217 492 102.48 875.488 489.974
869 0 48.1133 10.8286 521 101.846 876.244 488.875
870 0 49.0772 10.4733 514 102.311 875.531 489.288
871 0 51.0963 11.0771 566 101.309 875.597 487.141
872 0 52.0674 11.7732 613 101.413 876.002 485.788
873 0 53.1036 9.62271 511 106.401 876.342 487.446
874 0 55.1237 11.6284 641 102.85 875.796 482.866
875 0 58.0994 11.6525 677 103.072 875.888 482.064
876 0 59.113 10.8944 644 106.123 875.508 483.242
877 0 60.2815 11.6785 704 105.202 875.233 482.114
878 0 64.0763 11.8609 760 104.755 875.42 480.366
879 0 67.1229 12.1419 815 104.248 875.313 480.47
880 0 68.0608 11.5485 786 106.818 875.562 478.874
881 0 71.1725 12.4486 886 104.726 875.657 479.208
882 0 73.0455 12.7592 932 105.512 875.357 478.112
883 0 75.0504 11.5522 867 109.257 875.458 477.839
884 0 77.0688 12.5213 965 109.415 876.089 474.93
885 0 79.1038 10.9856 869 112.564 875.634 475.583
886 0 83.1154 10.5155 874 115.476 875.89 472.816
887 0 86.161 10.4456 900 115.092 875.349 470.589
888 1 44.0234 10.0174 441 111.848 875.095 491.719
889 0 45.0061 9.2432 416 113.38 875.875 491.786
890 0 47.0824 11.0232 519 108.468 875.938 490.314
891 0 49.0089 11.202 549 109.461 875.525 489.107
892 0 47.0619 10.2631 483 111.248 876.385 490.472
893 0 50.0932 9.94146 498 111.514 877.359 488.651
894 0 53.1117 10.9016 579 108.449 877.097 488.687
895 0 55.044 10.7005 589 108.506 877.693 488.55
896 0 53.0545 10.1405 538 111.645 877.507 485.446
897 0 57.0515 11.4107 651 108.774 877.118 484.613
898 0 60.0829 12.1998 733 105.336 877.326 484.696
899 0 60.0569 11.9054 715 105.958 877.421 484.92
900 0 62.0657 11.7134 727 106.861 876.784 482.395
901 0 64.1324 12.6457 811 105.848 877.313 480.873
902 0 67.0847 11.5078 772 108.313 877.513 481.987
903 0 70.1079 12.2953 862 106.484 877.433 480.948
904 0 71.0983 11.8006 839 107.379 875.503 477.827
905 0 75.1206 13.485 1013 103.366 875.825 475.904
906 0 78.0944 12.9331 1010 104.442 875.947 476.378
907 0 81.0547 13.5217 1096 103.59 875.797 472.636
908 0 80.1066 11.0727 887 110.416 875.856 472.209
909 0 85.105 12.4199 1057 106.662 875.852 472.183
910 0 87.034 11.9953 1044 107.598 876.802 472.772
911 0 91.0514 11.0267 1004 109.072 876.572 471.027
912 0 95.0978 11.0938 1055 108.495 877.028 470.839
913 1 52.0767 11.5791 603 104.493 877.264 490.269
914 0 53.0421 13.2725 704 102.881 877.23 488.226
915 0 54.0574 12.3387 667 104.183 876.925 488.229
916 0 56.0154 12.4073 695 101.786 876.704 487.865
917 0 57.051 13.1461 750 100.992 876.973 485.421
918 0 58.144 14.0169 815 104.415 876.788 484.631
919 0 59.0988 12.8937 762 107.261 876.8 483.755
920 0 63.0737 12.6519 798 105.872 877.053 483.647
921 0 64.0367 12.2117 782 106.936 876.772 479.458
922 0 66.0214 12.6323 834 105.673 877.272 479.121
923 0 70.0769 12.8858 903 104.732 877.224 479.844
924 0 71.0452 13.6392 969 103.711 876.464 478.066
925 0 73.0809 13.4508 983 101.648 877.252 478.318
926 0 76.058 14.0551 1069 100.965 876.831 474.905
927 0 81.0866 14.6633 1189 100.622 876.865 474.941
928 0 82.0865 13.0959 1075 104.893 876.858 472.193
929 0 82.1248 13.9057 1142 103.084 877.019 471.18
930 0 85.1142 12.8886 1097 105.949 877.294 471.779
931 0 88.0713 12.9895 1144 106.709 877.12 470.124
932 0 91.0939 14.7869 1347 103.191 877.268 467.747
933 0 92.1196 13.2437 1220 108.261 876.72 464.782
934 0 95.0697 12.4225 1181 109.456 877.487 464.891
935 0 99.1528 12.0824 1198 109.195 877.393 463.393
936 0 104.114 12.7168 1324 108.65 877.594 462.573
937 0 106.175 13.0916 1390 108 876.853 457.438
938 1 57.1262 10.7306 613 106.612 876.949 482.759
939 0 58.0983 10.7404 624 102.5 876.189 478.909
940 0 61.1171 11.2734 689 103.08 876.245 479.695
941 0 61.0919 11.0489 675 99.8859 876.483 479.631
942 0 64.1094 9.67097 620 103.247 876.694 478.773
943 0 67.0822 12.1791 817 99.0636 876.523 475.794
944 0 70.101 10.7987 757 102.131 876.816 477.314
945 0 73.1098 11.0519 808 103.031 876.906 472.408
946 0 77.1133 11.8527 914 100.732 876.573 474.356
947 0 79.0871 12.0247 951 101.02 877.102 473.95
948 0 83.1144 12.8498 1068 100.986 876.914 471.342
949 0 85.0598 12.2855 1045 103.041 876.357 470.969
950 0 88.083 12.6358 1113 102.098 876.397 471.783
951 0 92.0799 12.3371 1136 104.285 876.658 468.711
952 0 93.0778 11.9255 1110 106.297 875.65 467.404
953 0 93.1269 11.5541 1076 108.24 875.641 465.063
954 0 99.0653 12.7593 1264 107.063 876.382 464.972
955 0 101.103 12.1658 1230 111.228 876.692 462.37
956 0 104.201 11.6698 1216 113.447 876.646 458.574
957 0 107.195 12.1087 1298 113.217 876.311 456.636
958 0 113.256 12.2907 1392 111.704 876.66 458.935
959 0 117.347 11.9475 1402 112.974 876.044 454.994
960 0 121.281 13.2832 1611 110.403 875.918 452.083
961 0 126.405 12.0644 1525 112.184 875.754 448.462
962 1 63.1401 9.56603 604 103.93 876.988 480.896
963 0 68.1809 11.7042 798 100.944 876.034 478.816
964 0 71.1576 11.2848 803 100.78 876.946 477.464
965 0 73.1366 11.7862 862 100.754 876.536 475.788
966 0 75.1061 10.7581 808 102.689 876.406 475.172
967 0 77.2053 10.7506 830 102.323 876.502 474.339
968 0 81.186 13.0072 1056 98.6572 876.532 473.038
969 0 84.2299 11.3855 959 102.733 875.842 469.877
970 0 86.2068 11.194 965 102.749 876.796 470.71
971 0 88.1966 10.2498 904 106.392 876.014 465.533
972 0 93.1402 11.939 1112 102.307 875.92 466.601
973 0 96.1175 11.5588 1111 103.301 876.459 463.378
974 1 49.2063 10.7303 528 98.9848 877.078 486.381
975 0 52.0462 11.9125 620 97.4806 876.686 486.581
976 0 52.0937 10.5195 548 99.1478 876.872 486.292
977 0 55.0474 11.7353 646 96.3731 877.624 484.663
978 0 56.015 11.1042 622 98.0177 876.686 484.317
979 0 54.076 10.8181 585 100.891 876.525 483.86
980 0 58.1336 10.6651 620 101.315 876.453 482.139
981 0 59.0411 13.4483 794 95.84 876.577 483.286
982 0 61.0334 11.9279 728 100.295 876.955 480.459
983 0 63.0757 12.3978 782 100.385 876.983 481.231
984 0 65.0774 10.7103 697 103.882 877.159 479.283
985 0 67.098 12.9661 870 99.1161 876.472 480.847
986 0 67.1098 12.189 818 103.185 877.146 477.753
987 0 68.0551 12.7544 868 102.446 877.366 478.02
988 0 71.0822 11.9298 848 105.149 877.421 475.438
989 0 75.0452 12.8323 963 103.502 877.514 475.748
990 0 78.0781 12.6924 991 104.306 877.289 474.139
991 0 79.0731 13.0639 1033 105.178 877.079 474.664
992 0 82.1282 12.5535 1031 106.641 876.844 474.714
993 0 86.1466 13.2449 1141 105.042 877.439 473.793
994 0 87.0377 12.891 1122 108.055 876.684 470.17
995 0 91.0948 13.4805 1228 107.886 876.877 468.317
996 0 94.0812 13.499 1270 107.846 877.058 465.934
997 0 97.1536 13.0721 1270 108.96 877.418 466.171
998 0 101.145 14.1975 1436 110.536 876.573 461.729
999 1 51.0751 10.9447 559 113.583 877.424 487.184
1000 0 58.1509 12.1924 709 108.929 877.787 486.278
1001 0 59.0594 12.1742 719 110.268 876.907 485.576
1002 0 59.0733 12.019 710 111.611 877.045 484.148
1003 0 60.0387 12.2588 736 111.727 877.863 481.279
1004 0 65.1393 12.9568 844 106.666 877.15 480.938
1005 0 66.1165 11.8881 786 110.303 877.08 477.955
1006 0 69.1425 13.1323 908 107.608 876.535 478.65
1007 0 70.1006 12.3822 868 110.512 876.795 477.574
1008 0 75.2117 12.99 977 108.574 876.12 476.435
1009 0 77.1956 12.708 981 109.843 876.917 474.505
1010 0 79.0989 13.8434 1095 107.982 876.905 473.279
1011 0 81.054 12.4485 1009 112.225 876.097 470.697
1012 0 82.1398 12.4057 1019 112.966 876.353 470.204
1013 0 90.1384 12.9911 1171 110.487 876.401 470.424
1014 0 90.0845 13.6316 1228 110.361 875.3 466.51
1015 0 92.1236 13.2648 1222 112.051 876.424 463.473
1016 0 97.1124 13.5719 1318 110.599 876.275 464.19
1017 0 100.259 13.5648 1360 111.448 876.5 461.101
1018 1 49.0752 11.4722 563 109.48 877.538 486.016
1019 0 52.0494 12.7571 664 107.006 877.14 486.535
1020 0 53.074 13.9993 743 107.081 876.908 485.6
1021 0 55.046 14.2608 785 106.18 877.026 486.394
1022 0 56.1077 11.8878 667 111.678 877.126 485.49
1023 0 60.0338 12.0932 726 111.171 877.208 485.551
1024 0 62.1128 13.073 812 109.486 877.431 485.039
1025 0 62.0543 12.0217 746 113.759 878.139 481.259
1026 0 64.0535 12.3803 793 114.039 876.792 481.716
1027 0 67.0977 12.9513 869 112.116 877.554 481.47
1028 0 69.0972 12.6923 877 114.26 876.619 479.535
1029 0 73.0664 12.865 940 113.199 876.939 477.939
1030 0 75.1095 13.447 1010 112.868 877.156 477.463
1031 0 76.0593 13.3317 1014 114.936 877.512 477.454
1032 0 78.0492 12.1462 948 118.177 877.757 474.987
1033 0 82.0528 13.211 1084 115.798 877.244 472.502
1034 0 84.0216 13.3775 1124 116.257 877.18 472.172
1035 0 87.08 13.9182 1212 116.032 876.779 469.713
1036 0 90.081 13.7543 1239 116.417 876.679 469.994
1037 0 92.0529 12.1995 1123 121.809 877.515 467.906
1038 0 96.0816 13.093 1258 119.676 877.467 464.548
1039 0 99.0528 12.559 1244 121.384 876.973 465.057
1040 1 50.0546 13.0258 652 113.982 876.923 488.899
1041 0 51.0444 11.6369 594 117.675 877.726 489.052
1042 0 55.0319 12.5018 688 115.73 874.983 486.331
1043 0 54.1044 12.6422 684 113.534 877.648 485.855
1044 0 57.0415 12.3419 704 113.797 877.678 486.456
1045 0 60.0429 13.6736 821 110.669 877.512 485.06
1046 0 61.0284 12.699 775 112.846 877.357 485.684
1047 0 65.0447 12.8988 839 112.497 877.235 484.415
1048 0 64.0715 12.8762 825 114.435 877.162 481.968
1049 0 67.0381 13.9622 936 111.528 876.968 481.73
1050 0 70.14 13.9863 981 111.04 877.562 479.172
1051 0 72.0711 12.6264 910 114.511 877.247 479.896
1052 0 72.0513 12.8381 925 114.979 876.515 477.389
1053 0 75.0722 13.0541 980 114.314 876.651 475.169
1054 0 79.0564 13.737 1086 112.002 876.531 475.262
1055 0 82.0613 13.3193 1093 112.739 876.85 473.497
1056 0 83.1513 12.2307 1017 116.715 876.783 471.493
1057 0 87.087 13.1248 1143 113.703 876.907 470.82
1058 0 90.061 14.2237 1281 111.018 877.239 468.393
1059 1 45.0308 10.5039 473 118.182 877.429 490.345
1060 0 47.2193 11.7748 556 116.191 876.82 489.149
1061 0 48.0616 11.6933 562 103.539 876.027 485.244
1062 0 50.056 12.1264 607 100.997 876.109 484.124
1063 0 51.0486 12.6154 644 108.161 876.158 487.835
1064 0 53.0404 12.5376 665 107.904 877.442 487.69
1065 0 55.0313 12.7019 699 107.494 877.442 484.888
1066 0 58.0444 12.5766 730 105.656 878.136 486.951
1067 0 59.0318 14.3821 849 102.857 877.843 483.243
1068 0 60.0748 11.9351 717 109.006 877.601 483.275
1069 0 61.0887 11.9498 730 109.455 877.885 483.222
1070 0 65.0257 12.9641 843 106.527 876.586 482.518
1071 0 68.0744 12.3688 842 108.312 876.646 480.011
1072 0 71.0891 13.265 943 106.44 877.435 480.186
1073 0 71.058 12.2857 873 109.52 877.205 478.979
1074 0 73.0878 12.5876 920 108.527 876.909 476.742
1075 0 77.0838 13.7124 1057 107.055 876.879 475.961
1076 0 79.0716 13.2032 1044 109.276 876.543 475.262
1077 0 81.0954 12.2695 995 112.57 875.828 472.88
1078 0 82.0657 11.6736 958 114.661 876.093 474.815
1079 1 44.0496 12.4859 550 114.344 877.275 492.869
1080 0 45.0823 13.0872 590 114.763 876.202 491.581
1081 0 47.0407 11.9684 563 118.249 877.625 490.577
1082 0 48.0164 12.2875 590 118.978 877.107 490.124
1083 0 50.0437 12.2093 611 119.75 876.54 489.552
1084 0 51.0287 12.0716 616 119.977 876.545 488.724
1085 0 54.0234 12.5871 680 117.357 877.024 489.428
1086 0 55.0316 13.0289 717 118.515 876.794 486.877
1087 0 55.0441 13.3711 736 119.342 876.307 486.72
1088 0 58.1346 13.0043 756 119.437 876.95 486.761
1089 0 58.1256 12.9203 751 120.418 876.403 486.743
1090 0 60.0444 13.6899 822 118.55 877.234 485.252
1091 0 63.0322 13.4058 845 118.433 877.148 483.862
1092 0 67.0791 14.3413 962 114.828 877.238 481.734
1093 0 67.0791 14.4009 966 142.651 877.219 481.877
1094 0 69.0745 13.8546 957 114.567 875.645 480.384
1095 0 71.0648 13.9872 994 115.414 875.012 478.967
1096 0 75.039 13.6329 1023 115.046 876.156 477.892
1097 0 76.1311 13.8183 1052 115.69 876.591 476.644
1098 0 79.1233 13.4221 1062 116.905 875.933 474.923
1099 0 80.0782 12.6876 1016 118.598 876.632 475.163
1100 1 42.0958 11.9727 504 119.058 876.768 492.065
1101 0 46.1141 13.7485 634 113.153 877.066 491.409
1102 0 43.0279 10.5048 452 115.571 875.628 492.584
1103 0 46.0395 11.9897 552 111.257 875.529 490.549
1104 0 47.0321 13.225 622 107.712 875.486 490.31
1105 0 48.0381 9.34676 449 115.494 875.922 490.857
1106 0 51.0175 12.4663 636 107.116 875.961 489.624
1107 0 54.0337 11.6594 630 107.979 876.732 489.46
1108 0 55.0148 11.5787 637 108.512 875.813 485.556
1109 0 57.0353 10.5198 600 109.79 876.802 486.167
1110 0 59.0268 12.0962 714 101.102 876.157 482.859
1111 0 60.0353 11.7598 706 101.704 875.994 481.942
1112 0 61.1128 11.2742 689 102.942 876.424 480.106
1113 0 64.0955 11.4361 733 106.348 876.798 484.392
1114 0 67.0561 12.3926 831 105.458 875.998 479.337
1115 0 69.0534 11.7445 811 106.793 876.744 478.116
1116 0 72.0869 12.0133 866 105.044 875.701 478.073
1117 0 73.127 12.2253 894 104.809 875.722 476.312
1118 0 76.1584 11.371 866 106.239 875.794 477.328
1119 0 78.089 10.3087 805 106.56 875.911 472.345
1120 0 83.0675 11.7856 979 103.356 875.104 471.408
1121 1 42.021 9.1145 383 107.841 875.366 493.264
1122 0 45.0147 11.8628 534 103.637 875.397 492.105
1123 0 48.0499 13.6108 654 99.2064 875.144 491.531
1124 0 47.0737 11.5776 545 106.558 875.132 489.675
1125 0 49.0759 12.9188 634 103.945 875.792 490.473
1126 0 49.1049 12.6668 622 105.521 876.294 488.153
1127 0 52.1298 12.7566 665 103.642 876.09 488.159
1128 0 55.0764 10.8213 596 103.678 875.742 484.896
1129 0 57.0897 11.0353 630 103.798 875.97 485.557
1130 0 60.0848 12.6654 761 101.361 876.168 483.314
1131 0 60.0419 11.492 690 106.465 875.807 481.13
1132 0 62.0791 12.2263 759 105.318 875.394 480.847
1133 0 64.133 12.5365 804 104.914 876.039 481.318
1134 0 67.04 11.6647 782 106.922 875.483 479.109
1135 0 69.0339 11.4581 791 107.645 875.895 479.279
1136 0 72.063 12.0173 866 107.819 875.438 477.671
1137 0 73.126 11.8152 864 109.615 875.688 475.348
1138 0 77.1511 13.0134 1004 107.851 876.177 473.582
1139 0 81.0388 12.6112 1022 108.436 875.627 474.112
1140 0 82.0771 11.209 920 112.257 875.95 472.808
1141 0 85.1069 11.8439 1008 111.252 876.121 472.148
1142 0 88.0535 12.0154 1058 111.408 876.299 470.005
1143 0 93.1351 13.067 1217 109.022 875.516 469.598
1144 0 93.0926 11.6443 1084 112.869 875.541 467.252
1145 1 47.0247 11.3345 533 110.647 874.771 490.662
1146 0 50.0188 11.8955 595 104.087 874.741 490.997
1147 0 51.0922 12.4089 634 105.069 875.136 486.604
1148 0 51.0834 13.1354 671 103.654 874.922 487.435
1149 0 51.1116 11.5629 591 108.731 874.939 484.589
1150 0 55.1706 10.5128 580 108.55 874.45 487.138
1151 0 57.0285 12.3447 704 105.199 874.881 483.707
1152 0 60.1533 11.8364 712 105.341 874.66 483.027
1153 0 59.0791 12.0178 710 104.938 874.745 483.503
1154 0 63.0711 12.2401 772 103.983 874.426 480.895
1155 0 65.0643 11.4502 745 105.383 874.407 480.651
1156 0 65.1373 12.3125 802 103.953 874.736 480.519
1157 0 69.1291 12.3971 857 102.957 874.48 479.365
1158 0 74.0638 12.9753 961 100.678 873.982 478.116
1159 0 73.0588 12.004 877 105.225 874.439 476.171
1160 0 77.1197 12.1499 937 104.633 875.024 476.025
1161 0 80.0883 12.7859 1024 105.508 873.962 472.442
1162 0 82.233 11.7228 964 107.152 874.042 474.857
1163 0 85.1915 12.0669 1028 108.309 874.115 468.835
1164 0 88.1849 12.9727 1144 107.063 873.778 466.315
1165 0 90.141 12.2142 1101 107.92 874.578 467.579
1166 0 93.1082 12.856 1197 107.581 874.612 464.336
1167 0 97.1582 12.7936 1243 109.098 874.385 460.34
1168 0 99.1877 12.0882 1199 110.779 874.737 460.004
1169 0 103.127 11.1319 1148 111.689 874.432 460.654
1170 0 106.16 11.1718 1186 113.097 874.342 458.151
1171 0 111.146 12.4701 1386 111.863 875.208 452.436
1172 0 116.166 12.7317 1479 110.623 875.034 452.955
1173 0 120.191 12.6881 1525 112.957 875.029 448.588
1174 0 124.102 12.248 1520 114.368 875.201 448.956
1175 0 127.267 12.4777 1588 114.634 874.645 447.44
1176 0 133.346 13.3037 1774 114.929 874.08 445.004
1177 1 68.2281 12.5022 853 114.68 875.837 472.941
1178 0 73.2271 13.4513 985 109.553 875.001 476.028
1179 0 73.0958 11.5875 847 113.417 874.732 476.982
1180 0 76.1323 12.0711 919 112.565 875.012 473.817
1181 0 77.211 12.0838 933 113.323 875.732 472.148
1182 0 82.1926 11.8016 970 113.48 875.406 471.106
1183 0 83.1362 12.0525 1002 114.878 875.112 469.869
1184 0 87.2477 12.8599 1122 113.437 875.218 468.368
1185 0 90.1856 12.2969 1109 116.981 875.158 468.325
1186 0 93.1299 11.79 1098 122.324 874.974 464.192
1187 0 98.2212 12.7976 1257 119.137 874.774 463.939
1188 0 100.101 12.6072 1262 120.045 875.112 458.567
1189 0 104.205 12.1587 1267 120.77 875.049 459.95
1190 0 110.15 13.0459 1437 117.37 875.25 457.277
1191 0 111.129 12.7959 1422 119.993 874.557 454.633
1192 0 117.307 13.503 1584 118.787 875.213 449.273
1193 0 119.426 12.1665 1453 122.105 875.433 446.869
1194 0 126.36 12.8047 1618 121.024 875.764 445.949
1195 0 128.206 12.7217 1631 122.814 875.237 441.235
1196 0 135.282 13.2464 1792 122.546 874.664 441.236
1197 0 139.239 14.4787 2016 117.646 874.904 440.784
1198 0 143.234 13.272 1901 119.97 874.519 442.184
1199 0 148.223 13.1693 1952 120.808 874.945 437.764
1200 0 153.254 13.2525 2031 121.203 874.953 437.051
1201 0 159.376 13.2328 2109 121.511 875.589 432.23
1202 0 164.358 13.2151 2172 121.829 875.523 431.129
1203 0 170.386 14.3908 2452 119.55 875.17 429.286
1204 0 175.262 13.9334 2442 120.453 875.005 429.803
1205 0 181.267 14.3656 2604 121.738 874.743 420.404
1206 0 188.343 13.3586 2516 123.663 875.308 421.3
1207 0 194.493 13.6663 2658 125.122 875.278 416.994
1208 0 200.25 13.9525 2794 124.465 874.89 415.752
1209 0 205.263 13.1928 2708 128.142 874.457 411.234
1210 0 214.36 14.0325 3008 126.183 874.243 410.376
1211 0 221.578 13.7829 3054 127.254 873.786 400.363
1212 0 229.311 14.5392 3334 125.665 874.229 396.042
1213 0 235.457 15.1578 3569 125.284 874.437 393.586
1214 1 246.398 14.4157 3552 127.76 874.117 389.729
1215 1 64.2242 12.1605 781 114.344 874.931 475.991
1216 0 67.2144 13.4049 901 108.455 874.346 476.347
1217 0 69.1438 11.9461 826 114.499 875.763 479.718
1218 0 71.2891 12.1758 868 114.712 875.257 477.712
1219 0 76.2706 13.2423 1010 111.841 875.373 476.714
1220 0 77.285 13.4049 1036 113.014 875.048 473.744
1221 0 80.302 12.3658 993 115.385 875.45 471.496
1222 0 84.2953 12.563 1059 115.973 875.751 469.49
1223 0 84.2887 12.5402 1057 145.001 876.744 469.555
1224 0 87.3704 12.8533 1123 117.437 875.435 464.476
1225 0 90.4539 13.0453 1180 118.867 875.097 462.098
1226 0 96.3123 13.9338 1342 115.663 875.534 461.627
1227 0 97.4789 12.7207 1240 118.056 875.212 459.78
1228 0 102.158 12.9799 1326 117.75 875.394 456.654
1229 0 104.289 13.2899 1386 118.219 876.022 456.989
1230 1 57.0398 12.3949 707 112.085 876.366 482.98
1231 0 53.0805 10.2674 545 117.699 876.76 481.695
1232 0 55.0683 11.2406 619 115.284 876.507 480.325
1233 0 59.0878 12.253 724 111.829 876.106 483.815
1234 0 60.119 11.8764 714 112.587 876.535 482.41
1235 0 61.0833 11.7708 719 115.001 876.295 480.245
1236 0 64.2243 11.709 752 114.903 875.536 480.258
1237 0 66.0331 12.6452 835 112.943 875.183 476.598
1238 0 68.022 12.3931 843 113.674 875.993 476.404
1239 0 71.0582 12.145 863 116.038 875.925 475.441
1240 0 74.096 12.0384 892 115.176 874.826 474.046
1241 0 74.122 11.7374 870 116.899 875.402 472.397
1242 0 78.1052 11.7278 916 115.936 876.16 471.88
1243 0 81.1481 11.3127 918 119.033 875.57 467.623
1244 0 83.0725 12.2303 1016 116.263 875.286 468.307
1245 1 47.0663 8.4774 399 117.794 875.892 485.388
1246 0 49.02 10.5467 517 113.191 875.263 484.985
1247 0 51.0583 11.4575 585 112.344 873.964 483.682
1248 0 54.1033 12.0325 651 115.891 874.76 487.109
1249 0 53.0468 11.4239 606 109.023 874.513 488.127
1250 0 56.1212 10.5842 594 112.232 873.643 487.253
1251 0 55.0732 10.9128 601 113.007 873.77 486.631
1252 0 57.0612 10.3923 593 113.831 874.061 485.513
1253 0 60.0742 10.0709 605 112.975 874.539 483.293
1254 0 63.1005 11.6798 737 108.936 875.351 482.265
1255 0 66.0782 11.6983 773 108.876 874.854 480.858
1256 0 67.1094 12.04 808 109.048 874.076 479.73
1257 0 70.1022 11.1837 784 109.189 874.381 480.946
1258 0 71.0904 11.2392 799 110.521 875.517 476.821
1259 0 73.1327 11.8825 869 109.428 875.667 477.328
1260 0 77.0325 11.6185 895 109.97 875.722 474.703
1261 0 80.0612 12.5404 1004 108.488 875.465 472.092
1262 0 83.0634 11.9668 994 109.948 875.701 470.736
1263 0 83.092 11.6377 967 111.761 876.173 468.273
1264 0 88.0299 13.2228 1164 107.836 875.57 469.653
1265 0 88.1068 10.1695 896 115.152 875.52 467.305
1266 0 94.1258 11.7715 1108 113.221 875.447 465.733
1267 1 46.0076 10.3679 477 110.442 875.784 488.553
1268 0 49.1407 11.0295 542 107.777 874.498 488.371
1269 0 50.0785 12.9397 648 109.637 876.202 487.128
1270 0 52.0692 10.9854 572 113.603 876.292 486.131
1271 0 53.0419 11.8774 630 112.652 876.514 485.368
1272 0 55.0308 11.0665 609 114.808 876.762 484.002
1273 0 55.1437 11.7692 649 114.948 876.901 482.61
1274 0 58.0688 13.8456 804 109.016 877.3 481.306
1275 0 58.055 12.0575 700 112.787 877.047 481.899
1276 0 62.0797 12.2101 758 112.447 877.174 480.819
1277 0 62.2386 12.2111 760 113.368 876.059 478.07
1278 0 62.2386 12.1789 758 130.522 874.059 478.062
1279 0 68.0791 12.4414 847 112.685 876.203 475.877
1280 0 70.087 13.3834 938 111.055 876.21 475.389
1281 0 72.0754 12.5702 906 113.893 875.765 474.587
1282 0 75.1077 11.9695 899 115.232 876.232 474.23
1283 0 78.1307 13.375 1045 112.31 876.864 472.267
1284 0 79.0989 12.5033 989 115.412 876.732 471.854
1285 0 83.1398 12.7616 1061 114.181 876.026 469.167
1286 0 84.1113 12.531 1054 115.367 876.074 467.54
1287 0 88.0942 12.8726 1134 114.667 875.478 465.567
1288 0 90.2185 12.5362 1131 115.348 875.844 464.73
1289 0 93.2147 11.672 1088 116.811 875.534 465.109
1290 1 46.1141 10.2572 473 116.573 876.12 486.636
1291 0 49.1891 9.94123 489 111.683 875.798 485.094
1292 0 50.0053 11.2788 564 113.138 873.917 485.963
1293 0 52.0814 11.2324 585 112.231 874.597 485.296
1294 0 52.0386 11.8758 618 111.341 873.718 483.557
1295 0 56.0328 12.0822 677 109.437 874.836 482.945
1296 0 56.033 13.3493 748 107.386 874.308 481.499
1297 0 59.0521 12.108 715 109.101 873.994 480.014
1298 0 62.0376 12.8954 800 106.751 873.548 481.258
1299 0 64.0542 13.0983 839 105.942 873.915 479.902
1300 0 65.0717 12.8474 836 107.33 873.69 477.47
1301 0 67.048 12.2151 819 108.532 874.581 478.137
1302 0 69.0588 12.3663 854 108.539 874.765 474.415
1303 0 73.0465 13.4298 981 105.688 874.437 474.678
1304 0 75.0957 13.7291 1031 105.539 874.786 474.557
1305 0 76.1168 13.6895 1042 104.593 875.513 474.274
1306 0 78.1408 14.0515 1098 104.361 875.075 472.426
1307 0 80.1061 13.1575 1054 106.867 874.516 470.465
1308 0 84.0455 13.0525 1097 106.772 874.591 466.813
1309 0 86.067 13.3152 1146 107.698 874.78 469.847
1310 0 88.1438 13.2851 1171 108.143 875.081 465.664
1311 0 93.1505 12.7321 1186 108.677 875.823 461.958
1312 1 48.1506 11.0487 532 110.212 875.686 487.746
1313 0 48.0276 9.91097 476 107.8 875.54 479.653
1314 0 47.0404 10.863 511 107.067 875.425 481.472
1315 0 52.1171 10.745 560 105.954 875.555 479.793
1316 0 52.0268 10.6291 553 106.007 875.814 481.617
1317 0 55.025 11.7765 648 103.245 875.977 479.201
1318 0 58.0186 12.0823 701 100.752 875.663 479.116
1319 0 59.0541 12.1922 720 101.425 875.143 476.931
1320 0 64.1297 12.4123 796 100.569 875.688 476.554
1321 0 64.0805 11.0486 708 103.352 874.763 476.415
1322 0 64.0627 11.7073 750 103.059 874.853 475.479
1323 0 68.0735 11.8548 807 102.981 874.929 472.623
1324 0 74.1012 11.5923 859 101.969 875.024 472.937
1325 0 73.1059 11.1072 812 104.751 874.606 470.514
1326 0 74.1669 13.6314 1011 100.803 874.852 468.746
1327 0 79.1371 11.8402 937 102.988 873.686 468.598
1328 0 81.1169 11.6622 946 104.143 874.201 466.192
1329 0 86.1969 12.7847 1102 100.916 874.755 468.015
1330 0 88.081 13.4422 1184 100.053 875.629 465.075
1331 0 89.21 13.0142 1161 101.786 875.107 465.68
1332 0 92.1934 12.951 1194 102.308 875.459 466.413
1333 1 48.1824 10.8338 522 101.096 873.761 486.632
1334 0 49.1087 11.6273 571 99.4834 874.256 486.8
1335 0 52.1167 11.6853 609 98.7603 873.598 486.686
1336 0 53.1082 12.1262 644 97.9565 873.739 486.408
1337 0 54.0403 11.6765 631 99.4374 875.488 486.422
1338 0 55.1668 12.0544 665 98.4346 875.293 483.994
1339 0 58.101 11.807 686 98 874.407 482.937
1340 0 60.1067 11.3132 680 98.9441 874.75 482.093
1341 0 62.2146 12.5373 780 96.559 875.156 480.859
1342 0 63.0847 12.9191 815 96.4478 875.434 480.39
1343 0 66.0363 12.7051 839 96.8963 875.338 478.484
1344 0 68.0894 12.6158 859 97.8242 874.527 476.093
1345 0 70.1558 13.0567 916 97.1376 874.725 474.953
1346 0 72.2068 12.6027 910 97.9352 875.062 477.275
1347 0 71.1104 11.672 830 101.361 875.284 472.881
1348 0 77.068 11.8856 916 100.559 875.787 473.493
1349 0 78.1123 13.0965 1023 99.3343 874.932 472.238
1350 0 79.0875 11.658 922 103.087 874.941 468.548
1351 0 83.0885 12.7093 1056 101.586 875.294 469.312
1352 0 87.077 13.4708 1173 100.707 875.262 470.46
1353 0 88.0844 12.0907 1065 104.454 875.1 468.669
1354 0 91.1734 11.2752 1028 107.636 876.01 461.882
1355 0 94.0758 10.9805 1033 107.362 875.515 465.764
1356 0 98.0637 12.9508 1270 105.25 875.074 462.109
1357 0 101.129 13.3789 1353 104.092 875.804 462.581
1358 0 106.181 12.7707 1356 106.042 875.899 457.81
1359 0 109.135 12.4341 1357 109.043 874.552 452.147
1360 1 61.0532 12.0223 734 105.456 874.06 480.801
1361 0 64.0834 11.8127 757 100.133 875.231 476.701
1362 0 65.1176 11.9323 777 101.598 874.616 474.707
1363 0 64.0533 11.2875 723 105.001 874.723 473.23
1364 0 70.1636 12.5849 883 101.704 875.012 471.502
1365 0 73.0711 12.3852 905 102.762 874.831 471.698
1366 0 76.1648 11.6852 890 104.324 874.964 472.707
1367 0 79.1453 11.6495 922 106.727 875.08 469.306
1368 0 82.059 11.9548 981 106.792 875.146 467.791
1369 0 84.1464 12.5852 1059 105.375 874.789 467.906
1370 0 87.0535 12.3028 1071 107.08 875.215 463.75
1371 0 89.1248 11.8149 1053 108.127 875.368 465.178
1372 0 92.3047 12.0362 1111 107.857 874.166 462.658
1373 0 93.1532 10.7135 998 114.025 875.344 461.218
1374 0 98.1481 11.8698 1165 112.535 875.203 463.187
1375 0 100.156 11.7517 1177 114.051 874.846 459.54
1376 0 104.181 11.7104 1220 113.875 875.026 457.11
1377 1 58.1561 12.2945 715 102.716 874.615 479.929
1378 0 59.1969 11.7236 694 104.45 874.562 482.101
1379 0 63.1294 12.4348 785 107.419 875.376 481.107
1380 0 64.0761 12.017 770 111.639 875.651 481.256
1381 0 65.1565 12.5084 815 111.274 875.391 479.739
1382 0 68.1527 12.7801 871 111.057 875.953 478.448
1383 0 71.2116 11.7958 840 112.73 875.379 478.454
1384 0 72.1035 13.2449 955 110.822 875.387 475.792
1385 0 76.1633 14.075 1072 108.529 876.175 473.389
1386 0 76.1628 14.0751 1072 132.401 877.206 473.474
1387 0 81.1673 13.1703 1069 111.429 875.607 472.677
1388 0 80.1157 12.6442 1013 114.875 876.999 470.335
1389 0 82.0984 11.4497 940 117.076 876.548 469.962
1390 0 86.1568 12.5585 1082 113.552 876.603 469.858
1391 0 91.1058 13.0069 1185 111.562 875.603 465.581
1392 0 94.1452 12.6507 1191 112.589 875.617 463.983
1393 0 96.2166 11.9522 1150 109.592 875.401 463.877
1394 0 100.184 13.1358 1316 109.364 875.154 461.388
1395 0 103.234 12.1181 1251 112.284 875.06 461.094
1396 0 106.242 12.4904 1327 111.815 875.213 460.302
1397 1 58.0539 9.4395 548 110.688 875.237 484.049
1398 0 62.0481 11.475 712 107.225 875.358 482.237
1399 0 64.1849 12.6821 814 110.098 874.909 478.246
1400 0 66.1065 12.3891 819 110.242 876.243 478.151
1401 0 67.1356 10.9331 734 114.635 876.03 477.959
1402 0 70.1535 11.5033 807 113.606 876.517 476.268
1403 0 73.1384 12.0593 882 111.983 876.701 475.169
1404 0 73.1853 11.546 845 115.333 875.749 472.778
1405 0 78.2187 10.8158 846 117.307 874.968 469.343
1406 0 76.1117 10.7868 821 119.284 875.631 470.692
1407 0 82.1629 13.2663 1090 113.017 874.667 468.125
1408 0 83.1403 12.2564 1019 115.88 875.348 465.187
1409 0 87.1842 11.3553 990 118.71 875.235 463.375
1410 0 89.1222 12.365 1102 116.569 874.678 465.426
1411 0 92.1529 12.6746 1168 115.424 875.176 461.045
1412 0 94.281 12.0279 1134 110.393 874.552 462.02
1413 0 96.1626 11.2206 1079 113.223 874.057 458.238
1414 0 100.211 11.1066 1113 114.189 874.306 457.428
1415 1 55.0612 9.28058 511 108.46 875.033 483.62
1416 0 56.1299 10.8855 611 104.823 874.655 480.314
1417 0 55.0979 8.8751 489 110.472 875.11 481.438
1418 0 60.0811 10.2528 616 108.024 873.362 479.69
1419 0 61.0675 11.5937 708 105.28 874.072 480.667
1420 0 64.0972 10.1096 648 107.296 872.994 481.14
1421 0 66.0596 10.0969 667 108.991 873.103 477.799
1422 0 69.0957 11.2308 776 107.495 873.794 475.86
1423 0 69.064 10.7292 741 108.753 873.91 474.954
1424 0 72.0835 10.4323 752 108.818 873.59 473.863
1425 0 75.0822 10.9746 824 109.967 874.898 470.894
1426 0 78.088 10.7827 842 110.197 875.662 471.564
1427 0 82.0895 13.2051 1084 105.65 874.449 469.309
1428 0 84.1515 11.9546 1006 109.801 875.62 466.965
1429 0 88.1154 11.5076 1014 110.732 874.822 467.901
1430 1 47.0727 10.4944 494 111.52 874.656 486.482
1431 0 49.0353 12.0729 592 109.603 874.527 486.238
1432 0 50.081 11.5413 578 115.344 874.173 482.503
1433 0 52.0203 12.8796 670 115.616 873.628 481.273
1434 0 51.1134 12.3255 630 120.925 874.481 482.017
1435 0 55.1911 12.0309 664 120.581 874.861 481.221
1436 0 56.1364 11.9352 670 120.531 874.516 481.531
1437 0 56.1202 11.3863 639 123.729 874.745 480.31
1438 0 59.1153 12.5348 741 120.843 874.621 480.123
1439 0 59.1042 11.9281 705 124.356 874.349 476.56
1440 0 62.1103 12.9769 806 121.036 874.669 477.818
1441 0 64.2305 13.6695 878 120.09 874.336 475.268
1442 0 65.087 13.0134 847 122.932 874.458 475.057
1443 0 67.1075 12.2192 820 124.488 875.178 474.774
1444 0 71.1508 12.7335 906 123.525 875.368 473.125
1445 0 70.0714 12.1162 849 126.72 874.777 473.102
1446 0 72.0854 13.1788 950 125.203 874.393 469.881
1447 0 76.1535 13.0657 995 124.463 874.926 470.679
1448 0 77.1484 11.6788 901 129.437 874.575 469.37
1449 0 80.2794 11.9831 962 128.79 874.109 466.76
1450 0 84.1735 13.7573 1158 123.248 874.9 464.395
1451 0 87.1423 12.8984 1124 124.593 875.274 463.324
1452 0 90.1805 11.7431 1059 120.217 874.492 464.816
1453 0 89.1022 11.2904 1006 123.883 874.965 460.591
1454 1 49.1135 11.1375 547 116.951 874.993 484.366
1455 0 51.214 12.1256 621 116.52 874.502 482.947
1456 0 51.0874 11.0986 567 114.979 875.46 480.298
1457 0 54.0638 11.246 608 116.773 875.692 482.952
1458 0 56.0759 12.8576 721 112.022 875.436 482.953
1459 0 60.0376 12.5755 755 112.126 874.999 482.879
1460 0 58.0525 11.9547 694 116.079 874.677 481.231
1461 0 61.0702 12.3301 753 114.199 875.291 482.766
1462 0 63.0811 13.554 855 111.229 875.416 481.199
1463 0 66.1466 13.0317 862 111.497 875.542 479.556
1464 0 68.1443 13.0459 889 112.049 874.968 478.883
1465 0 69.0519 13.0047 898 112.822 874.511 477.959
1466 0 71.0398 12.4015 881 113.849 874.262 477.76
1467 0 73.0468 12.184 890 114.007 874.376 476.694
1468 0 75.0879 13.331 1001 111.007 875.257 476.079
1469 0 78.1413 12.375 967 112.647 875.277 473.69
1470 0 79.1332 11.8408 937 114.748 874.815 471.142
1471 0 84.1422 13.0256 1096 110.327 875.361 473.043
1472 0 85.0902 12.5161 1065 112.498 875.378 470.756
1473 0 88.0616 13.57 1195 110.424 874.939 467.278
1474 0 90.1565 12.2786 1107 113.846 874.779 464.6
1475 0 94.1378 12.0674 1136 115.234 874.158 464.876
1476 0 98.1013 12.2934 1206 120.352 874.489 459.31
1477 1 50.0338 12.8913 645 113.24 873.513 482.991
1478 0 50.0599 11.5861 580 116.459 873.941 482.3
1479 0 50.0599 11.6061 581 130.336 873.917 482.404
1480 0 55.0704 13.0923 721 108.111 874.259 481.548
1481 0 56.0646 12.2359 686 111.227 873.627 479.778
1482 0 59.0646 12.1054 715 110.738 874.629 480.904
1483 0 59.0619 11.6149 686 113.029 874.29 478.65
1484 0 64.0426 12.2575 785 110.372 874.673 477.271
1485 0 64.0688 11.9403 765 111.495 874.209 477.648
1486 0 66.0508 12.339 815 110.86 873.838 475.961
1487 0 70.0928 12.2694 860 111.435 873.083 473.972
1488 0 72.0535 13.0459 940 109.832 873.094 472.457
1489 0 75.092 12.3715 929 111.702 873.422 474.344
1490 0 78.0432 11.8268 923 113.121 873.135 471.49
1491 0 78.0966 11.9083 930 114.794 873.916 471.922
1492 0 83.1414 13.3989 1114 113.671 873.705 469.225
1493 0 87.103 12.3302 1074 117.189 873.598 469.119
1494 1 45.1277 10.6808 482 120.915 873.477 488.699
1495 0 47.0281 11.3762 535 117.836 873.576 487.963
1496 0 48.0332 11.846 569 116.819 873.3 489.047
1497 0 50.0439 11.45 573 116.871 873.133 487.18
1498 0 50.1007 11.3372 568 118.338 873.549 486.248
1499 0 54.1142 12.9356 700 114.023 873.556 484.906
1500 0 56.0763 12.9288 725 113.997 873.139 483.779
1501 0 57.0787 12.0535 688 116.702 873.805 483.962
1502 0 63.0532 11.7837 743 114.748 873.088 482.793
1503 0 63.0348 11.8347 746 110.024 873.922 482.316
1504 0 61.0464 10.8278 661 116.607 874.325 481.188
1505 0 63.0406 12.0875 762 115.499 873.621 481.663
1506 0 66.0473 12.2185 807 113.081 873.907 481.572
1507 0 65.0803 11.0172 717 123.103 873.633 481.708
1508 0 67.0536 11.9457 801 122.05 874.281 480.821
1509 0 66.0282 11.6465 769 126.046 873.626 480.511
1510 0 69.0943 13.0691 903 121.374 873.559 480.627
1511 0 71.0508 11.1047 789 125.39 873.361 476.828
1512 0 75.0777 11.6413 874 121.855 873.43 478.286
1513 0 79.1016 12.604 997 118.568 874.103 473.844
1514 0 81.0685 12.1872 988 118.768 873.483 474.126
1515 0 83.163 10.9303 909 120.822 873.992 475.561
1516 0 84.1166 10.7827 907 121.353 874.019 470.732
1517 0 88.1746 11.9082 1050 119.334 874.694 468.373
1518 0 87.1854 10.9078 951 124.449 873.75 467.156
1519 1 52.0967 11.7858 614 119.393 873.331 488.205
1520 0 52.1343 12.3527 644 121.534 874.283 485.325
1521 0 53.1211 11.822 628 122.651 874.322 487.1
1522 0 54.0728 12.6866 686 121.188 874.539 485.227
1523 0 57.0346 12.5012 713 122.004 873.975 486.121
1524 0 59.0253 12.1982 720 123.772 874.122 484.26
1525 0 60.1167 12.193 733 124.162 873.419 482.476
1526 0 59.0186 12.2843 725 126.057 874.266 483.612
1527 0 63.0407 12.0398 759 125.602 874.314 483.291
1528 0 65.0662 11.7419 764 127.623 874.89 480.921
1529 0 68.1176 12.0233 819 125.864 874.872 481.166
1530 0 69.0813 10.9147 754 130.39 874.584 478.183
1531 0 69.0412 10.9065 753 132.339 874.4 478.689
1532 0 71.0337 11.938 848 130.923 874.998 477.637
1533 0 71.0798 11.4097 811 134.277 874.663 475.146
1534 0 78.0595 11.7731 919 131.542 874.291 476.531
1535 0 77.0826 12.4023 956 132.081 873.172 475.668
1536 0 79.1024 11.2386 889 136.24 873.061 472.538
1537 0 82.0549 12.0042 985 133.748 872.479 469.912
1538 0 87.0835 12.1607 1059 132.149 872.772 471.008
1539 0 88.1403 11.9242 1051 134.727 873.182 466.846
1540 1 48.0216 11.1408 535 127.286 873.813 490.624
1541 0 49.0673 10.3531 508 129.941 873.902 489.069
1542 0 50.0128 11.2971 565 120.942 873.366 487.773
1543 0 52.0199 11.3995 593 121.659 873.029 487.476
1544 0 52.0646 11.4473 596 119.248 874.376 486.304
1545 0 56.129 12.4713 700 115.72 874.273 485.846
1546 0 57.0676 12.3538 705 117.26 873.618 483.634
1547 0 59.0735 10.9694 648 120.639 873.15 484.523
1548 0 59.1077 10.7093 633 122.695 873.038 484.032
1549 0 63.1029 12.8996 814 116.275 873.431 482.101
1550 0 65.132 11.2387 732 120.482 872.821 479.62
1551 0 66.2234 12.8353 850 116.779 873.416 477.951
1552 0 69.1312 12.5992 871 117.483 873.425 480.281
1553 0 72.116 13.0207 939 115.911 873.313 477.984
1554 0 74.1837 13.2644 984 115.002 873.005 478.903
1555 0 75.1067 12.3158 925 118.577 872.892 474.237
1556 0 80.1197 12.6935 1017 116.021 873.253 477.113
1557 0 82.1102 12.8364 1054 117.243 872.704 472.92
1558 0 81.0818 11.9386 968 119.892 872.984 470.557
1559 0 88.1043 13.0868 1153 115.393 873.271 469.903
1560 0 89.1098 12.378 1103 117.6 873.431 470.091
1561 0 95.0872 12.6621 1204 115.88 873.687 467.862
1562 0 97.1198 12.6751 1231 115.773 872.935 466.964
1563 1 56.063 11.1838 627 114.175 874.214 488.303
1564 0 53.0873 10.9254 580 113.514 873.66 486.39
1565 0 57.1067 11.4523 654 108.904 874.089 484.401
1566 0 57.1145 12.2911 702 107.312 873.792 483.034
1567 0 60.0573 12.921 776 104.383 873.945 482.684
1568 0 62.1006 12.8984 801 103.287 873.586 482.511
1569 0 63.1244 12.1981 770 104.636 873.149 481.849
1570 0 63.0423 11.7064 738 105.724 872.988 481.497
1571 0 68.1434 11.6226 792 103.92 873.467 479.047
1572 0 69.0679 12.6108 871 102.484 872.599 477.454
1573 0 70.0677 11.4889 805 104.48 873.406 476.448
1574 0 71.1108 11.8547 843 104.185 873.358 475.796
1575 0 74.0768 11.4071 845 104.101 872.606 476.918
1576 0 76.0591 11.4122 868 104.282 872.988 473.992
1577 0 78.1708 10.6689 834 106.237 873.234 472.3
1578 0 80.0858 11.2754 903 105.559 872.128 471.368
1579 0 87.098 12.5261 1091 100.973 873.195 470.849
1580 0 88.0521 12.2655 1080 102.091 872.94 467.623
1581 0 90.1752 10.7347 968 104.967 873.672 468.727
1582 0 94.1142 11.8792 1118 103.469 873.063 467.511
1583 0 96.159 11.7514 1130 105.756 872.394 462.336
1584 1 54.3087 11.6004 630 104.248 872.111 480.027
1585 0 56.1577 11.8951 668 105.834 872.24 479.811
1586 0 58.1735 11.7751 685 105.566 872.65 481.485
1587 0 57.091 11.8407 676 106.22 873.003 480.809
1588 0 60.1812 12.1799 733 106.153 871.984 480.679
1589 0 62.1118 13.5884 844 104.084 871.953 479.429
1590 0 65.0868 13.8277 900 103.481 871.94 478.018
1591 0 64.1144 11.885 762 109.865 871.646 476.328
1592 0 68.1626 12.2354 834 107.986 872.423 476.706
1593 0 70.1271 12.4346 872 108.859 872.625 475.198
1594 0 70.0715 12.4159 870 111.378 872.575 472.664
1595 0 74.1221 12.6413 937 110.884 872.641 471.768
1596 0 75.0992 13.1293 986 111.337 872.538 470.121
1597 0 80.1759 13.3332 1069 110.163 872.633 469.225
1598 0 86.2218 13.7784 1188 109.215 872.32 467.588
1599 0 86.1648 13.4394 1158 112.257 872.466 467.703
1600 0 88.1316 13.1508 1159 113.712 873.003 464.173
1601 0 90.2128 13.4571 1214 113.89 872.68 464.929
1602 0 94.1386 13.8307 1302 113.031 872.536 464.821
1603 0 96.1335 12.5347 1205 113.99 872.557 462.182
1604 0 101.072 12.7039 1284 112.593 872.824 463.489
1605 1 53.0426 10.5199 558 117.53 872.952 481.543
1606 0 56.0979 12.0504 676 116.055 873.05 477.138
1607 0 57.1115 12.712 726 115.387 873.147 475.43
1608 0 60.0779 12.5004 751 114.45 873.252 475.965
1609 0 64.1443 13.532 868 111.427 872.903 478.963
1610 0 64.0494 13.3959 858 113.024 871.754 481.902
1611 0 65.1138 12.3476 804 117.403 872.07 480.364
1612 0 70.0719 12.5014 876 116.25 872.313 479.772
1613 0 72.1465 13.0429 941 114.733 871.649 477.338
1614 0 74.1412 13.4608 998 114.801 871.356 474.218
1615 0 77.1027 13.722 1058 114.055 872.248 474.836
1616 0 80.0937 13.4343 1076 115.544 871.799 472.822
1617 0 82.1205 14.1134 1159 114.293 871.436 471.488
1618 0 85.1107 13.6646 1163 115.204 871.859 470.695
1619 0 88.1576 13.1356 1158 116.269 871.694 471.39
1620 0 91.0736 13.5275 1232 116.015 870.743 468.722
1621 0 93.1122 12.4044 1155 119.649 871.786 466.714
1622 0 96.1821 13.7864 1326 116.484 871.384 464.299
1623 0 100.188 13.3648 1339 116.461 871.607 465.116
1624 0 101.183 13.7474 1391 117.102 871.066 460.434
1625 0 103.157 12.6604 1306 120.378 871.034 458.21
1626 0 109.09 13.4109 1463 116.976 871.116 457.424
1627 0 114.118 13.118 1497 116.946 871.627 456.856
1628 1 61.0728 11.6746 713 120.689 871.393 479.626
1629 0 62.0775 12.9999 807 118.144 870.83 478.677
1630 0 63.0635 12.1148 764 117.598 870.959 480.783
1631 0 65.1208 12.8991 840 116.17 870.931 480.089
1632 0 69.0593 12.5255 865 117.659 870.682 476.957
1633 0 73.055 12.5796 919 116.334 870.534 476.259
1634 0 73.026 11.4343 835 121.442 871.066 474.065
1635 0 75.0443 13.5253 1015 117.12 870.774 474.064
1636 0 76.0528 12.2415 931 121.712 871.516 471.545
1637 0 80.0625 12.9774 1039 119.15 870.759 473.189
1638 0 83.1746 12.3114 1024 121.617 871.562 469.466
1639 0 87.1155 11.4101 994 123.038 871.155 470.361
1640 0 89.1264 12.1401 1082 123.761 871.79 466.949
1641 0 92.2077 13.0792 1206 123.722 871.005 462.971
1642 0 94.0855 13.0732 1230 123.793 871.436 463.242
1643 0 99.143 13.2536 1314 124.333 872.555 461.145
1644 0 100.255 12.2688 1230 127.565 872.297 460.015
1645 1 58.114 12.1657 707 121.468 873.43 482.061
1646 0 57.1372 10.7636 615 126.055 873.356 482.859
1647 0 62.0947 12.8513 798 119.947 872.733 479.987
1648 0 64.0631 13.0809 838 120.804 873.872 479.099
1649 0 64.0631 13.0809 838 142.635 874.878 479.169
1650 0 66.09 12.3014 813 119.204 872.686 480.863
1651 0 69.0906 12.9974 898 118.589 873.906 475.727
1652 0 71.0447 12.9496 920 118.336 872.608 477.134
1653 0 74.059 13.6513 1011 116.64 872.451 474.25
1654 0 76.0889 12.8797 980 119.454 873.028 471.853
1655 0 77.076 12.1568 937 122.13 872.679 470.903
1656 0 80.1024 13.3204 1067 119.408 872.79 468.891
1657 0 82.0609 12.4664 1023 121.494 872.416 469.541
1658 0 86.0922 12.6957 1093 120.337 872.79 466.188
1659 0 90.1023 13.4403 1211 117.751 872.58 463.243
1660 0 94.1536 14.3808 1354 114.674 873.113 463.705
1661 0 94.1384 12.5879 1185 121.332 872.564 460.723
1662 0 99.1436 14.3832 1426 115.931 872.936 458.694
1663 0 103.173 14.5678 1503 115.48 872.276 458.339
1664 0 102.126 13.4148 1370 120.145 871.67 456.118
1665 0 109.149 13.9351 1521 118.492 872.228 455.495
1666 0 111.114 13.7066 1523 119.274 872.274 456.473
1667 0 112.135 12.3779 1388 124.246 871.87 451.573
1668 0 116.319 12.6892 1476 125.073 871.545 450.406
1669 1 63.1946 11.7415 742 122.073 871.714 474.86
1670 0 61.1266 10.83 662 127.115 871.432 473.55
1671 0 66.0636 12.2004 806 121.581 870.527 473.476
1672 0 68.0968 12.5556 855 120.798 872.308 472.794
1673 0 70.1138 11.9663 839 124.641 872.296 469.884
1674 0 74.1523 11.7596 872 123.805 871.682 468.862
1675 0 76.0489 12.3736 941 121.816 872.165 468.79
1676 0 78.1433 12.5283 979 117.132 872.286 468.421
1677 0 82.0436 12.4202 1019 117.092 872.298 467.08
1678 0 85.0689 13.73 1168 112.969 872.434 464.631
1679 0 88.0698 12.774 1125 115.301 872.634 465.509
1680 0 89.0906 13.1664 1173 117.292 872.539 462.325
1681 0 94.1272 12.6956 1195 117.915 872.469 460.35
1682 0 98.1577 13.1523 1291 117.053 872.383 459.386
1683 0 101.092 13.5124 1366 116.658 871.765 457.131
1684 0 105.071 13.6098 1430 116.137 872.56 454.351
1685 1 53.063 10.1577 539 125.299 871.23 477.527
1686 0 55.041 11.0281 607 122.076 871.442 477.862
1687 0 60.041 11.742 705 109.634 871.58 477.56
1688 0 58.1026 11.015 640 113.298 872.322 475.164
1689 0 61.0897 11.5404 705 112.241 872.305 475.986
1690 0 65.1164 12.4239 809 109.46 872.431 474.492
1691 0 67.0907 11.5068 772 112.666 872.232 474.414
1692 0 67.0788 12.0157 806 114.077 871.841 469.77
1693 0 70.1142 12.1659 853 112.091 871.353 471.155
1694 0 73.0757 11.1118 812 114.536 871.98 469.196
1695 0 76.0914 12.2221 930 112.794 872.772 466.796
1696 0 79.1185 13.3344 1055 111.227 871.958 466.073
1697 0 81.2407 13.4908 1096 111.959 871.69 465.59
1698 0 83.1432 13.3384 1109 113.86 872.014 464.832
1699 0 87.0842 12.3099 1072 117.424 870.622 463.534
1700 0 89.1979 13.7335 1225 114.385 871.465 461.008
1701 0 91.1931 12.2158 1114 121.314 871.713 461.381
1702 0 95.1506 14.1355 1345 118.413 871.595 459.966
1703 0 99.2251 14.2 1409 118.755 870.799 457.82
1704 0 100.206 12.3445 1237 122.21 871.424 453.733
1705 0 103.196 14.1091 1456 118.143 871.235 453.576
1706 0 104.204 11.4775 1196 124.919 871.669 451.772
1707 0 109.218 11.6373 1271 124.85 871.908 446.624
1708 0 112.211 12.9933 1458 120.785 871.763 445.287
1709 1 62.1072 10.0472 624 118.077 871.09 470.074
1710 0 68.2105 12.7546 870 115.874 871.208 475.072
1711 0 68.1378 10.3173 703 113.62 872.41 468.521
1712 0 73.1107 11.1064 812 112.142 871.432 473.286
1713 0 74.2702 10.2464 761 115.281 871.711 471.256
1714 0 77.0732 11.1063 856 113.207 871.928 470.279
1715 0 79.096 12.4026 981 110.767 871.064 468.091
1716 0 82.1012 10.2313 840 115.231 871.257 468.201
1717 0 85.1322 10.4661 891 114.888 871.531 467.294
1718 0 86.1979 10.9283 942 115.247 871.62 465.575
1719 0 89.1807 11.7626 1049 113.532 871.085 464.665
1720 0 90.1712 10.5799 954 118.264 870.892 461.787
1721 0 94.09 11.7547 1106 114.803 871.242 463.529
1722 0 95.1426 12.1292 1154 116.292 871.324 460.704
1723 0 100.319 12.4004 1244 114.646 873.167 461.962
1724 0 102.208 11.9267 1219 116.785 872.158 460.797
1725 0 105.213 12.8786 1355 114.326 872.22 458.28
1726 0 109.234 11.5532 1262 117.607 871.74 457.601
1727 0 111.21 11.9953 1334 119.331 872.074 454.424
1728 0 114.343 11.7541 1344 120.847 872.164 453.137
1729 0 115.144 9.81376 1130 125.974 872.31 451.514
1730 0 120.332 11.4849 1382 123.09 872.417 449.602
1731 0 125.367 12.4913 1566 121.875 872.267 448.245
1732 0 129.485 12.1481 1573 122.79 871.819 443.163
1733 0 134.501 11.6579 1568 126.237 871.724 436.772
1734 0 138.253 12.5205 1731 122.805 871.006 433.683
1735 0 145.179 12.6189 1832 123.933 871.567 430.99
1736 1 80.0466 11.6807 935 116.098 872.472 469.478
1737 0 84.1621 12.167 1024 123.048 872.339 468.99
1738 0 87.0735 12.8742 1121 122.533 872.376 463.203
1739 0 88.1639 12.6696 1117 117.319 872.689 466.414
1740 0 91.0813 11.7807 1073 120.267 872.907 463.746
1741 0 95.1025 12.2079 1161 119.03 871.902 464.703
1742 0 97.0487 12.0352 1168 121.518 872.344 461.081
1743 0 101.079 11.4169 1154 122.444 872.46 460.019
1744 0 102.099 11.1852 1142 123.772 872.014 458.754
1745 0 108.195 12.0892 1308 121.139 871.953 455.922
1746 0 112.177 12.2396 1373 119.95 871.535 456.923
1747 0 111.119 11.0152 1224 125.061 871.516 451.444
1748 0 118.145 12.2476 1447 121.024 871.788 449.801
1749 1 63.0806 9.41652 594 124.17 872.192 472.357
1750 0 67.1398 11.4835 771 119.153 870.724 473.357
1751 0 72.067 11.6419 839 116.017 871.687 476.939
1752 0 72.0434 11.2432 810 118.515 871.842 474.532
1753 0 74.1072 10.6197 787 120.112 871.876 472.452
1754 0 79.0426 9.83015 777 119.66 872.821 471.116
1755 0 80.0952 11.1118 890 116.419 872.62 468.9
1756 0 84.0361 11.1381 936 114.688 873.294 469.182
1757 0 86.0515 10.9469 942 115.747 873.202 468.201
1758 0 89.1088 11.0988 989 114.971 873.03 466.162
1759 0 91.1139 10.4485 952 116.006 873.322 465.401
1760 0 93.0843 10.6785 994 116.15 872.58 461.195
1761 0 96.1291 11.547 1110 113.671 871.28 461.294
1762 0 99.2295 9.95672 988 116.675 872.642 461.343
1763 0 101.207 10.8689 1100 116.905 873.3 455.625
1764 1 57.3018 9.79027 561 109.873 873.242 480.875
1765 0 56.1689 9.50705 534 111.826 873.21 478.363
1766 0 60.1344 10.6927 643 110.535 872.886 477.392
1767 0 60.162 11.3859 685 109.928 873.426 478.861
1768 0 63.1137 10.1087 638 113.252 872.814 479.031
1769 0 64.0283 10.3548 663 113.983 872.395 477.186
1770 0 67.1429 11.3787 764 111.292 873.395 474.257
1771 0 69.198 10.9396 757 112.749 872.922 473.634
1772 0 69.1308 11.2974 781 113.437 872.658 471.626
1773 0 74.2224 11.8832 882 110.918 873.533 471.074
1774 0 77.211 13.094 1011 108.726 872.716 469.274
1775 0 78.1167 12.0077 938 112.984 872.921 468.93
1776 0 80.0965 12.7097 1018 111.365 872.281 469.275
1777 0 82.1506 12.4284 1021 112.993 872.219 467.761
1778 0 86.1169 13.0869 1127 111.207 872.04 466.567
1779 0 90.2734 13.2597 1197 110.997 872.262 466.214
1780 0 93.1254 13.6053 1267 111.066 872.032 464.249
1781 0 96.1506 13.2293 1272 112.413 872.292 464.614
1782 0 98.0551 12.4216 1218 115.094 872.525 464.313
1783 1 52.0505 8.95284 466 111.856 871.397 484.635
1784 0 55.0879 11.6178 640 109.988 871.422 484.155
1785 0 57.1107 13.6752 781 105.443 871.077 484.821
1786 0 57.132 11.6222 664 111.271 871.029 483.529
1787 0 61.1311 12.1869 745 108.919 871.083 482.542
1788 0 61.1018 13.5184 826 107.291 871.047 481.205
1789 0 64.0906 14.3547 920 104.161 870.425 480.514
1790 0 66.0721 12.1988 806 108.82 871.031 479.593
1791 0 67.1798 11.2534 756 112.216 871.111 476.758
1792 0 67.2056 11.5615 777 112.148 870.573 474.42
1793 0 72.1204 12.4098 895 109.102 870.916 474.981
1794 0 72.1327 11.3541 819 112.408 870.884 475.016
1795 0 75.1236 12.526 941 109.423 871.001 472.335
1796 0 75.1236 12.4994 939 130.73 872 472.376
1797 0 80.0825 14.9845 1200 105.063 871.915 470.632
1798 0 82.0692 12.0264 987 112.212 871.49 467.37
1799 0 84.1625 11.2639 948 113.311 871.885 469.055
1800 0 84.1279 11.4944 967 114.019 872.337 463.87
1801 0 92.2113 12.5147 1154 110.356 872.51 463.986
1802 0 94.2345 13.0738 1232 108.926 872.395 463.671
1803 0 96.1572 12.3028 1183 111.146 872.305 462.007
1804 0 100.125 13.1735 1319 108.146 871.938 460.5
1805 0 103.088 12.1159 1249 110.018 872.359 458.869
1806 0 106.169 11.2462 1194 110.816 872.437 456.454
1807 1 61.0574 10.8423 662 110.057 872.174 480.725
1808 0 63.0904 10.4453 659 110.375 872.085 478.707
1809 0 65.2013 11.8096 770 102.919 871.868 474.906
1810 0 65.0954 10.4155 678 101.709 872.698 475.835
1811 0 67.1873 11.2968 759 100.308 872.331 475.304
1812 0 69.0398 8.98032 620 104.047 872.16 471.355
1813 0 74.0671 11.7191 868 98.1382 871.947 473.225
1814 0 76.055 12.4121 944 97.0434 872.351 469.503
1815 0 77.0165 11.0756 853 100.524 872.211 469.453
1816 0 81.0634 11.7316 951 99.1735 872.627 469.105
1817 0 81.0419 9.88377 801 103.372 872.428 466.423
1818 0 84.0346 10.4838 881 101.917 872.444 466.481
1819 0 89.0323 10.9174 972 100.935 871.882 466.09
1820 0 91.0827 11.6268 1059 100.175 872.169 465.509
1821 0 94.1243 11.8885 1119 99.4924 872.689 462.737
1822 0 97.0787 10.7027 1039 103.889 871.944 459.597
1823 0 101.154 13.0099 1316 105.137 872.817 458.378
1824 0 104.138 11.2927 1176 108.719 872.707 457.353
1825 0 108.11 11.7565 1271 107.472 872.722 454.543
1826 0 111.13 11.1941 1244 109.345 872.339 452.591
1827 0 114.161 10.7042 1222 110.128 871.865 451.155
1828 0 113.155 11.6301 1316 130.29 872.774 449.72
1829 0 122.185 10.9752 1341 109.5 872.3 448.681
1830 0 125.139 11.5551 1446 109.454 872.288 445.191
1831 0 129.198 8.98619 1161 115.294 871.957 441.084
1832 0 136.3 11.416 1556 109.989 872.08 443.079
1833 0 139.326 10.1776 1418 112.339 871.899 440.014
1834 0 141.23 10.9467 1546 114.902 872.003 438.796
1835 1 77.0906 10.9222 842 110.746 872.017 467.79
1836 0 82.1124 9.42611 774 111.959 873.248 470.508
1837 0 84.0572 10.2073 858 111.14 873.675 468.01
1838 0 91.061 10.795 983 109.16 873.447 468.49
1839 0 91.0891 12.9543 1180 105.74 873.671 467.458
1840 0 91.1756 11.922 1087 106.771 874.154 464.299
1841 0 95.1633 11.475 1092 109.016 873.825 463.203
1842 0 99.2449 11.396 1131 110.346 872.882 462.383
1843 0 99.2304 10.2186 1014 115.056 872.723 461.622
1844 0 99.226 10.2997 1022 113.959 871.584 463.606
1845 0 106.294 11.5905 1232 114.045 870.989 454.3
1846 0 107.198 11.3435 1216 116.166 871.762 453.144
1847 0 111.314 11.6247 1294 116.077 871.682 453.423
1848 0 116.171 12.1028 1406 115.23 871.818 454.53
1849 0 117.208 11.7313 1375 118.185 871.385 450.609
1850 0 123.216 13.099 1614 115.086 871.913 447.88
1851 0 126.191 12.5286 1581 118.108 871.998 448.1
1852 0 133.197 13.2285 1762 116.606 872.148 444.988
1853 0 135.18 12.4945 1689 119.854 872.431 441.602
1854 0 141.232 12.4971 1765 119.33 871.873 440.109
1855 0 146.24 12.3564 1807 120.547 871.896 438.452
1856 0 149.238 10.5938 1581 125.834 871.615 433.205
1857 0 154.339 11.6756 1802 123.159 872.274 434.401
1858 1 85.2068 9.94053 847 120.577 872.261 466.462
1859 0 91.1724 10.9024 994 118.936 872.918 459.17
1860 0 93.1121 11.2445 1047 117.644 872.922 463.02
1861 0 95.0715 11.6965 1112 118.617 873.149 460.123
1862 0 100.165 13.1084 1313 115.655 872.682 458.62
1863 0 103.301 11.6262 1201 119.228 872.469 458.861
1864 0 104.236 13.1912 1375 119.471 872.455 459.099
1865 0 107.253 12.4472 1335 122.106 871.804 455.703
1866 0 114.209 13.4052 1531 118.035 872.732 454.248
1867 0 116.22 14.2402 1655 116.609 872.26 454.085
1868 0 118.338 12.8699 1523 120.916 871.242 450.382
1869 0 122.2 12.2996 1503 122.164 872.001 448.828
1870 0 124.254 12.1525 1510 122.703 871.939 447.221
1871 0 128.122 11.9028 1525 113.963 872.408 447.868
1872 0 131.262 11.6561 1530 115.039 871.788 445.027
1873 0 136.107 12.5416 1707 113.241 870.991 443.333
1874 0 140.311 12.1088 1699 113.504 871.879 438.532
1875 0 147.235 12.1914 1795 114.921 871.414 434.963
1876 0 151.293 11.4348 1730 115.105 871.913 433.441
1877 0 155.412 11.0223 1713 116.654 871.925 427.265
1878 1 88.2478 10.2552 905 111.227 872.992 461.201
1879 0 94.3641 11.9643 1129 105.579 872.116 460.304
1880 0 95.2354 12.1909 1161 109.425 871.474 460.036
1881 0 99.2218 12.4973 1240 108.483 872.011 457.582
1882 0 102.288 12.2889 1257 109.475 872.173 457.16
1883 0 105.375 14.2539 1502 105.483 871.778 454.26
1884 0 110.332 13.3143 1469 107.741 871.95 453.862
1885 0 113.442 12.3587 1402 109.79 871.994 453.126
1886 0 114.331 12.7437 1457 109.732 872.036 451.428
1887 0 121.35 13.6383 1655 107.195 871.715 448.628
1888 0 122.326 12.4504 1523 110.649 872.324 446.815
1889 0 126.396 12.8485 1624 109.861 872.01 446.269
1890 0 128.435 12.5122 1607 111.854 872.583 443.906
1891 0 134.255 13.385 1797 108.954 872.319 441.292
1892 0 138.462 12.9422 1792 109.972 872.561 438.979
1893 0 139.249 12.589 1753 109.569 872.708 434.791
1894 1 79.2055 7.63836 605 111.912 872.415 462.15
1895 0 81.2013 10.4678 850 105.009 872.415 461.194
1896 0 86.1917 9.22363 795 105.975 872.39 459.899
1897 0 85.1479 9.3367 795 106.935 872.669 458.704
1898 0 91.1879 10.5167 959 103.667 872.432 457.589
1899 0 95.1226 11.112 1057 102.619 871.969 456.789
1900 0 98.1334 10.3533 1016 104.711 872.142 452.966
1901 0 102.139 11.0927 1133 103.538 872.101 450.537
1902 0 106.147 11.9174 1265 101.259 872.289 453.503
1903 0 111.132 11.8508 1317 101.847 871.829 449.965
1904 0 113.227 10.8543 1229 104.213 872.601 449.66
1905 0 114.159 9.18896 1049 108.209 872.398 445.442
1906 0 122.185 10.9834 1342 103.359 872.548 446.569
1907 0 125.139 11.3314 1418 104.731 872.221 435.432
1908 0 127.14 12.5846 1600 99.49 872.531 446.094
1909 0 132.082 12.2349 1616 97.7976 872.2 446.798
1910 0 132.373 11.4676 1518 105.579 872.031 443.265
1911 1 73.1187 10.1889 745 94.5987 872.642 471.738
1912 0 76.082 10.2915 783 94.9387 872.867 474.232
1913 0 78.1231 9.75383 762 95.9173 872.854 472.083
1914 0 80.1189 9.77298 783 94.8876 872.912 469.663
1915 0 82.1705 10.5026 863 94.7555 872.526 469.162
1916 0 86.1327 10.2052 879 95.9818 872.654 464.708
1917 0 85.1161 10.3741 883 97.0747 872.695 463.437
1918 0 89.2834 10.7523 960 97.1802 872.567 464.368
1919 0 93.1305 10.2866 958 98.1576 872.982 464.182
1920 0 90.2115 9.43338 851 102.636 872.544 457.686
1921 0 95.1813 10.2961 980 102.457 872.796 457.969
1922 0 100.266 11.0706 1110 101.347 872.414 460.655
1923 0 103.332 11.4872 1187 102.516 872.634 455.334
1924 0 105.222 10.3401 1088 105.164 872.774 455.537
1925 0 111.402 11.7861 1313 103.028 871.741 453.356
1926 0 113.299 11.8801 1346 104.003 872.574 452.284
1927 0 116.241 11.6827 1358 104.446 873.009 451.775
1928 0 118.234 10.3693 1226 107.653 872.353 450.078
1929 0 123.196 11.4127 1406 105.893 872.275 449.708
1930 0 126.137 11.0039 1388 109.264 872.065 444.679
1931 0 133.187 11.818 1574 113.84 872.131 445.083
1932 0 137.171 11.5258 1581 109.841 871.658 439.542
1933 0 139.518 10.6008 1479 115.343 872.302 433.538
1934 1 77.1156 9.55708 737 103.959 872.864 461.349
1935 0 81.0509 12.449 1009 109.102 873.681 469.909
1936 0 84.0485 11.7789 990 110.618 873.762 468.093
1937 0 85.1442 11.181 952 112.872 873.1 467.99
1938 0 90.1023 12.0086 1082 110.926 873.387 468.154
1939 0 91.158 11.5075 1049 113.757 873.154 468.043
1940 0 96.2229 13.583 1307 108.467 872.755 465.239
1941 0 99.1014 12.6335 1252 111.673 872.448 463.9
1942 0 100.168 12.6787 1270 113.489 872.222 460.832
1943 0 103.229 13.0099 1343 113.68 872.584 461.098
1944 0 105.322 13.4255 1414 114.244 872.342 456.395
1945 0 107.321 12.1225 1301 118.121 872.899 453.245
1946 0 112.331 14.1011 1584 113.335 872.45 454.08
1947 0 114.462 12.6854 1452 117.671 872.68 451.74
1948 0 116.442 12.7445 1484 118.58 872.026 449.605
1949 0 120.298 13.3917 1611 117.655 871.962 447.224
1950 0 123.235 13.5838 1674 116.508 871.694 443.185
1951 0 124.354 12.5528 1561 119.116 871.436 440.486
1952 0 125.165 12.3677 1548 119.2 871.315 433.73
1953 0 133.437 13.5495 1808 115.79 871.444 434.369
1954 1 69.0853 8.71386 602 119.206 872.854 468.666
1955 0 73.0853 10.522 769 112.85 872.39 463.39
1956 0 72.2057 10.2347 739 120.544 872.315 462.896
1957 0 79.0967 11.0371 873 117.719 873.401 464.451
1958 0 82.0349 12.2265 1003 114.952 872.603 463.17
1959 0 83.0504 13.2811 1103 112.896 873.109 458.465
1960 0 87.0848 12.8036 1115 112.909 872.785 461.513
1961 0 89.1709 11.5957 1034 117.531 873.655 458.842
1962 0 92.0618 11.7747 1084 116.792 873.271 456.721
1963 0 95.0567 12.34 1173 115.876 872.754 455.397
1964 0 96.0765 12.7711 1227 115.316 873.5 454.917
1965 0 102.07 13.0302 1330 114.105 873.335 452.955
1966 0 103.086 12.019 1239 117.154 873.556 451.709
1967 0 108.117 13.0321 1409 113.692 872.702 449.177
1968 0 112.108 12.8536 1441 114.03 873.36 449.336
1969 0 117.143 12.9243 1514 109.54 873.234 448.821
1970 1 65.0764 11.0639 720 104.067 873.844 473.917
1971 0 66.1 10.9228 722 108.762 872.033 472.283
1972 0 69.044 10.2543 708 102.832 872.646 472.829
1973 0 71.0867 10.7052 761 102.753 872.712 469.488
1974 0 74.0512 10.0471 744 104.278 872.168 471.657
1975 0 76.1088 10.3142 785 105.322 871.801 466.687
1976 0 79.0911 11.0885 877 103.372 872.712 469.672
1977 0 81.1041 11.5654 938 103.335 873.208 468.327
1978 0 84.0935 12.0699 1015 103.945 872.905 464.232
1979 0 90.0563 11.9259 1074 103.599 872.602 465.989
1980 0 90.0609 12.8469 1157 102.843 871.666 459.599
1981 0 92.0572 11.4385 1053 105.631 872.483 460.286
1982 0 95.1192 11.4067 1085 106.169 872.106 460.053
1983 0 100.094 12.1186 1213 104.401 872.542 456.404
1984 0 102.154 11.2086 1145 107.405 872.553 453.493
1985 0 107.205 13.6374 1462 102.126 871.303 450.232
1986 0 110.21 12.0225 1325 105.097 872.461 452.086
1987 1 57.1399 10.378 593 103.45 872.963 478.128
1988 0 58.1377 9.94192 578 132.481 873.986 478.502
1989 0 57.0725 10.8108 617 103.69 872.272 474.071
1990 0 62.049 11.0397 685 101.682 872.853 476.934
1991 0 65.116 11.6561 759 100.395 873.382 475.87
1992 0 67.103 12.071 810 100.716 873.21 473.289
1993 0 67.0816 12.209 819 101.27 871.957 473.303
1994 0 70.0534 11.22 786 103.3 872.309 472.173
1995 0 74.0441 11.3446 840 103.135 872.446 472.1
1996 0 73.13 12.5256 916 102.085 872.932 471.157
1997 0 77.0569 11.2255 865 105.548 872.452 467.933
1998 0 79.0803 11.09 877 106.428 871.296 466.263
1999 0 83.1032 12.298 1022 104.357 872.027 465.875
2000 0 85.1302 12.6512 1077 104.523 871.624 463.66
2001 0 88.145 12.1277 1069 106.135 872.544 463.14
2002 0 89.133 11.5109 1026 108.222 872.268 460.812
2003 0 93.0445 13.155 1224 103.673 872.383 463.572
2004 0 97.0425 13.3241 1293 104.465 872.388 460.322
2005 0 100.122 13.2938 1331 105.009 871.739 457.557
2006 0 103.202 12.742 1315 106.71 872.411 457.306
2007 0 106.085 11.6605 1237 110.025 872.805 456.331
2008 0 110.055 12.5756 1384 108.329 871.669 454.129
2009 1 61.042 11.9262 728 107.793 872.345 478.332
2010 0 61.0658 11.5941 708 116.73 871.528 476.643
2011 0 64.0358 10.3848 665 116.018 873.026 475.392
2012 0 66.1051 12.934 855 105.697 872.711 475.298
2013 0 68.0733 12.2662 835 106.538 873.064 474.508
2014 0 71.0915 12.3503 878 106.809 872.383 472.063
2015 0 72.0946 11.901 858 110.219 872.422 471.443
2016 0 76.0791 13.6174 1036 106.561 872.415 470.183
2017 0 76.0818 11.3168 861 113.567 871.847 470.985
2018 0 82.061 13.1122 1076 109.934 872.506 468.53
2019 0 82.0769 12.2081 1002 114.016 872.538 466.382
2020 0 85.1151 12.6417 1076 113.351 872.387 467.571
2021 0 85.1282 11.9114 1014 117.836 871.848 464.158
2022 0 92.1086 13.6904 1261 112.998 872.32 462.243
2023 0 93.1044 12.2765 1143 117.841 872.377 459.479
2024 0 98.0497 12.4427 1220 117.252 872.357 459.878
2025 0 100.14 13.4811 1350 117.027 872.235 456.989
2026 0 102.178 13.0263 1331 117.814 872.861 455.305
2027 0 108.17 12.9795 1404 116.745 872.651 455.628
2028 0 111.072 13.5227 1502 117.535 872.226 454.058
2029 0 115.082 13.234 1523 117.406 871.661 451.613
2030 1 61.0876 9.9038 605 121.417 872.083 475.336
2031 0 64.0818 11.6882 749 115.296 872.94 474.107
2032 0 65.0825 12.6148 821 117.873 872.043 472.074
2033 0 68.0546 12.2402 833 112.627 872.296 473.442
2034 0 72.0946 12.8858 929 110.034 872.424 470.412
2035 0 71.0254 11.2777 801 114.684 872.204 470.598
2036 0 72.0484 11.298 814 116.208 871.486 466.715
2037 0 75.0637 11.0573 830 116.681 872.105 467.412
2038 0 78.0527 11.7485 917 115.902 872.311 465.877
2039 0 80.0675 11.4653 918 117.499 871.978 465.255
2040 0 83.1123 12.1883 1013 116.954 872.123 463.67
2041 0 84.1547 11.7403 988 119.273 871.725 460.189
2042 0 90.0541 13.8472 1247 114.429 872.425 459.948
2043 0 92.2826 12.5376 1157 118.479 872.384 458.34
2044 0 97.1642 12.2576 1191 119.793 872.608 458.485
2045 0 97.0772 12.5467 1218 121.692 871.842 455.243
2046 0 101.161 12.3269 1247 123.759 871.815 454.433
2047 0 104.174 12.6327 1316 124.389 872.807 453.274
2048 0 110.16 13.7618 1516 122.184 872.092 452.21
2049 0 109.151 13.5775 1482 125.52 872.544 450.225
2050 0 114.172 11.5527 1319 131.011 872.318 446.784
2051 1 61.1716 10.0046 612 133.431 872.016 470.157
2052 0 63.3908 11.4685 727 131.697 872.913 474.129
2053 0 68.208 12.6231 861 126.516 872.933 471.787
2054 0 67.0864 11.8355 794 130.285 872.189 465.511
2055 0 72.285 13.8756 1003 122.269 872.184 468.5
2056 0 72.1881 12.5367 905 126.473 872.097 467.661
2057 0 76.0585 13.0031 989 122.94 872.712 466.623
2058 0 76.037 12.7043 966 124.532 872.426 464.231
2059 0 80.0399 12.2064 977 121.894 872.397 463.424
2060 0 80.0628 12.1405 972 124.882 872.268 462.425
2061 0 85.091 11.8814 1011 125.007 872.511 461.587
2062 0 88.1347 12.844 1132 122.653 872.347 458.895
2063 0 88.1362 11.902 1049 125.739 872.191 459.606
2064 0 92.145 13.1098 1208 121.672 871.464 459.607
2065 0 92.1542 12.4031 1143 124.106 872.484 455.143
2066 0 98.0837 12.0509 1182 123.5 872.8 453.629
2067 0 103.066 12.4483 1283 120.195 871.533 451.825
2068 0 109.101 13.5654 1480 115.245 871.614 444.187
2069 0 112.442 12.6999 1428 118.151 871.311 449.574
2070 1 63.0181 11.3142 713 117.151 871.362 477.926
2071 0 65.0886 11.2769 734 117.729 871.766 476.452
2072 0 67.0733 12.2403 821 115.421 871.598 475.065
2073 0 68.1928 11.6141 792 117.01 871.941 473.737
2074 0 72.1332 11.8531 855 115.034 871.596 475.467
2075 0 75.1982 12.2875 924 114.74 871.445 468.867
2076 0 76.3054 12.9349 987 112.571 872.218 471.408
2077 0 80.2515 13.6945 1099 111.241 871.816 467.9
2078 0 80.2771 12.1828 978 115.296 871.941 467.44
2079 0 82.3683 12.1406 1000 115.631 871.624 463.88
2080 0 83.2494 11.7478 978 116.422 870.736 462.542
2081 0 86.4392 12.9802 1122 113.414 871.077 461.447
2082 0 85.3651 11.0467 943 119.774 871.159 458.332
2083 0 92.2826 13.2961 1227 113.154 870.522 456.773
2084 0 91.3538 12.3367 1127 117.24 871.168 455.799
2085 0 95.2289 12.1182 1154 117.418 871.831 455.24
2086 0 98.2506 11.5419 1134 119.095 871.44 454.689
2087 0 103.5 12.2802 1271 117.338 871.818 452.208
2088 0 105.397 12.8277 1352 116.305 872.06 452.356
2089 0 109.401 12.7238 1392 116.347 871.609 450.979
2090 0 113.297 13.5573 1536 115.218 872.034 447.863
2091 0 117.272 12.1853 1429 119.059 871.479 447.316
2092 1 65.2711 10.4794 684 107.098 871.69 477.015
2093 0 67.1071 9.98404 670 110.428 871.439 470.518
2094 0 68.2316 10.479 715 113.213 871.992 471.723
2095 0 71.5536 11.6696 835 112.948 872.133 469.246
2096 0 76.2442 11.0828 845 112.65 872.232 470.282
2097 0 76.2125 11.1924 853 113.89 871.578 470.699
2098 0 80.3332 11.7262 942 112.901 872.296 466.477
2099 0 81.2677 11.9728 973 113.628 871.792 466.395
2100 0 85.3435 11.6588 995 114.32 872.57 463.029
2101 0 88.3759 11.4737 1014 113.791 871.55 462.686
2102 0 92.4468 13.0021 1202 110.552 871.739 463.464
2103 0 92.2487 11.1763 1031 115.576 871.219 462.561
2104 0 96.3449 12.0712 1163 113.978 871.608 462.301
2105 0 98.3605 11.2647 1108 117.431 871.739 459.467
2106 0 101.317 12.1007 1226 116.297 870.503 455.23
2107 0 104.467 12.1856 1273 115.496 871.178 457.862
2108 0 107.489 12.3548 1328 117.144 871.772 452.349
2109 0 110.244 12.4905 1377 117.436 870.682 449.46
2110 0 115.353 12.6915 1464 115.941 871.324 450.747
2111 0 121.334 14.2252 1726 111.831 870.593 448.939
2112 0 124.518 15.3713 1914 108.82 870.28 445.544
2113 0 129.298 13.6275 1762 113.17 870.596 445.28
2114 1 67.1096 11.131 747 111.507 870.841 475.344
2115 0 68.1907 11.4092 778 112.495 871.003 473.988
2116 0 72.2917 11.7441 849 111.587 871.892 472.466
2117 0 76.3199 12.7097 970 112.176 871.608 471.198
2118 0 76.1743 13.2853 1012 113.271 871.04 468.691
2119 0 80.2289 12.5391 1006 114.439 871.356 469
2120 0 83.1395 13.0864 1088 113.817 871.119 466.618
2121 0 86.1358 13.0608 1125 113.701 871.005 468.08
2122 0 87.4427 12.4882 1092 117.437 870.758 465.49
2123 0 89.2592 12.7606 1139 117.591 870.847 464.421
2124 0 95.2383 14.1435 1347 114.465 871.272 463.359
2125 0 95.2779 12.8361 1223 119.782 871.737 462.052
2126 0 100.265 13.8932 1393 117.727 871.374 460.33
2127 0 103.204 13.8657 1431 118.32 871.077 458.293
2128 0 104.245 13.3052 1387 121.196 870.797 456.092
2129 0 109.355 13.3053 1455 122.122 870.909 453.603
2130 0 111.205 13.7944 1534 122.053 871.445 452.408
2131 0 115.203 13.602 1567 122.264 871.236 451.897
2132 0 118.403 13.3442 1580 123.944 871.451 449.909
2133 0 122.543 13.6034 1667 122.947 871.125 449.578
2134 0 127.33 13.7831 1755 122.706 870.883 447.185
2135 0 130.494 14.2306 1857 122.531 871.145 442.781
2136 0 136.291 14.4837 1974 121.583 870.783 441.664
2137 0 139.364 14.0926 1964 123.682 871.616 439.386
2138 0 143.273 15.5717 2231 120.779 871.449 439.562
2139 0 147.357 14.509 2138 124.856 871.01 436.428
2140 0 154.363 15.2174 2349 123.107 871.987 435.105
2141 0 159.432 13.962 2226 126.724 871.294 432.307
2142 0 163.592 14.3283 2344 127.349 871.741 429.674
2143 0 166.786 13.1426 2192 132.316 871.525 427.277
2144 1 78.2177 12.1328 949 125.709 870.578 471.045
2145 0 80.2492 13.0967 1051 125.356 870.66 468.638
2146 0 84.4855 12.0612 1019 126.622 870.997 469.126
2147 0 85.284 12.8512 1096 126.332 870.615 466.642
2148 0 88.19 12.6885 1119 128.004 870.372 463.654
2149 0 92.329 12.5963 1163 128.493 871.029 465.503
2150 0 95.2633 12.8696 1226 129.036 871.344 460.862
2151 0 98.3397 12.4568 1225 130.934 870.547 458.89
2152 0 104.281 12.7732 1332 129.119 870.585 459.006
2153 0 107.243 13.4182 1439 128.069 870.861 456.189
2154 0 109.436 12.9939 1422 130.679 870.2 453.013
2155 0 114.441 13.378 1531 129.432 871.083 450.984
2156 0 118.293 12.4691 1475 131.447 870.92 450.954
2157 0 123.322 13.2904 1639 130.229 871.375 446.295
2158 0 128.25 13.8714 1779 127.925 870.304 445.015
2159 0 132.248 14.6392 1936 123.965 869.951 443.636
2160 1 57.1413 10.1503 580 126.022 870.916 477.097
2161 0 62.3349 11.5184 718 121.677 870.953 477.33
2162 0 62.1069 11.0616 687 126.825 871.757 475.221
2163 0 66.14 11.7629 778 124.733 871.134 474.742
2164 0 68.1668 12.4401 848 122.827 870.938 473.776
2165 0 70.1714 12.0277 844 124.345 870.229 472.925
2166 0 73.0963 12.6272 923 122.293 870.567 473.075
2167 0 78.1349 14.9741 1170 112.647 870.642 468.15
2168 1 97.4235 14.8629 1448 102.964 871.28 463.356
2169 0 98.292 16.1865 1591 100.384 871.274 461.888
2170 0 97.2717 15.0301 1462 106.386 870.808 461.603
2171 0 94.3734 16.6996 1576 104.923 871.195 459.689
2172 0 89.296 14.7487 1317 115.139 871.333 458.91
2173 0 89.2686 12.4792 1114 125.68 871.119 462.575
2174 0 90.3004 12.8239 1158 125.364 871.151 461.356
2175 0 96.2638 14.1174 1359 122.155 870.58 461.685
2176 0 100.2 14.6707 1470 119.998 870.676 458.113
2177 0 102.2 13.3757 1367 125.767 870.724 457.59
2178 0 106.343 13.1462 1398 125.763 870.757 458.264
2179 0 110.25 13.9411 1537 124.451 871.73 456.358
2180 0 110.17 12.4081 1367 132.445 871.039 449.367
2181 0 115.237 13.5721 1564 128.802 870.573 452.565
2182 0 117.315 12.7008 1490 131.991 870.886 451.421
2183 0 120.326 13.5216 1627 130.995 871.041 446.937
2184 0 123.189 13.6863 1686 131.816 871.525 446.129
2185 0 127.28 13.2149 1682 133.953 871.332 442.854
2186 0 130.2 13.487 1756 133.392 871.039 443.173
2187 0 134.215 13.4783 1809 134.524 870.24 437.39
2188 0 138.481 12.8104 1774 136.623 871.048 433.644
2189 0 145.385 14.9053 2167 130.75 870.687 435.162
2190 0 151.242 13.7858 2085 135.313 870.456 431.294
2191 0 154.316 12.6623 1954 139.649 871.304 428.543
2192 0 161.421 13.598 2195 137.319 871.02 424.99
2193 0 167.314 13.4119 2244 138.862 870.738 423.331
2194 1 94.3037 9.66027 911 129.508 870.478 461.535
2195 0 98.1969 11.7315 1152 122.6 870.398 459.31
2196 0 98.262 12.1207 1191 121.54 870.16 451.262
2197 0 101.312 11.4004 1155 123.839 870.668 450.036
2198 0 106.239 12.9802 1379 118.354 870.389 451.233
2199 0 109.174 11.3122 1235 122.417 870.912 448.419
2200 0 112.246 12.1252 1361 119.771 871.276 444.589
2201 0 115.171 10.7232 1235 124.445 870.613 440.854
2202 0 116.194 10.3104 1198 126.42 870.082 437.077
2203 1 11.0032 3.54444 39 86.3333 873.744 497.667
2204 0 13.0009 4.92272 64 85.4219 873.641 497.984
2205 0 14.0114 4.28223 60 83.7667 873.267 499.167
2206 0 15.0684 2.72092 41 86.0244 872.829 498
2207 0 11.0004 4.54529 50 82.66 873.68 499.56
2208 0 11.0013 2.90876 32 86.1875 873.719 499.906
2209 0 12.0022 2.7495 33 87.0303 873.394 500.848
2210 0 9.00289 6.10915 55 86.4182 873.509 502.2
2211 0 12.0009 4.91631 59 84.7966 874.254 500.356
2212 0 11 1 11 90.4545 873.909 500.455
2213 0 9.00939 1.99791 18 89.6667 872.722 501.611
2214 0 12 0.999997 12 91.75 873.5 500.083
2215 0 10.0012 1.89977 19 93.7895 873.158 501.105
2216 0 12.0022 4.83245 58 89.8793 873.448 502.431
2217 0 10.0007 4.99966 50 88.6 873.6 502.18
2218 0 13.0041 3.99874 52 91 873.808 500.635
2219 0 10.0008 4.89959 49 87.3469 873.612 504.673
2220 0 9.00043 2.77764 25 93.68 872.8 502
2221 0 12.0012 2.41642 29 93.5517 873.172 501.655
2222 0 11.0022 1.54514 17 95.2353 872.941 500.471
2223 0 12.0162 3.74494 45 93.5556 873.111 501.867
2224 0 10.0039 2.49904 25 95.68 871.36 501.2
2225 0 13.003 4.22981 55 90.0545 872.836 502.945
2226 0 11.014 3.45014 38 94.7368 873.342 501.632
2227 0 11.0009 2.90886 32 94.5938 873.438 501.156
2228 0 14.0111 2.35528 33 93.6061 873.758 502.636
2229 1 61.127 9.30848 569 94.8278 871.7 478.41
2230 0 66.1588 9.41674 623 103.974 869.878 474.096
2231 0 67.1236 9.28139 623 105.661 870.403 475.024
2232 0 67.1615 10.78 724 103.905 870.528 475.994
2233 0 66.1731 8.9009 589 107.666 871.056 477.049
2234 0 72.1851 10.1406 732 106.684 870.268 473.921
2235 0 74.169 10.5839 785 106.048 870.624 472.457
2236 0 74.1277 8.86308 657 102.578 871.239 475.828
2237 0 75.0766 8.88425 667 106.511 870.733 472.753
2238 1 25.0137 5.83681 146 95.6849 871.137 498.459
2239 0 25.0091 3.67866 92 97.5978 871.022 498.935
2240 0 26.0173 5.99602 156 95.7564 870.5 498.417
2241 0 26.0542 5.21989 136 97.3456 870.265 495.684
2242 0 26.024 7.45467 194 93.6856 869.438 489.804
2243 0 28.1106 5.9764 168 96.2381 869.732 491.792
2244 0 28.0211 8.20809 230 97.2696 869.822 492.648
2245 0 27.1515 6.07702 165 102.23 870.285 492.061
2246 0 31.0762 7.46553 232 96.2974 869.832 492.004
2247 0 29.01 8.20406 238 100.723 869.777 492.122
2248 0 30.0307 8.45802 254 101.343 869.492 489.988
2249 0 27.0112 6.88603 186 105.382 870.005 492.274
2250 1 49.1725 14.988 737 68.7218 870.418 483.053
2251 0 56.5561 7.10799 402 86.1045 869.866 486.373
2252 0 47.06 9.94475 468 80.3846 869.942 484.085
2253 0 45.1991 13.6728 618 74.3706 869.34 485.146
2254 0 51.3303 8.64985 444 86.4887 869.538 488.045
2255 0 52.2228 9.17224 479 84.5929 869.818 488.28
2256 0 46.0549 15.5249 715 72.5776 870.987 484.453
2257 0 44.0125 12.3601 544 83.3235 870.154 490.158
2258 0 43.009 11.1372 479 110.29 870.09 489.754
2259 0 41.1813 11.3158 466 88.3498 870.124 491.828
2260 0 35.0515 12.6671 444 90.795 870.574 493.869
2261 0 38.0864 11.4739 437 88.6178 870.03 491.444
