time division length width area intensity CMx CMy
0 0 51.0721 12.0222 614 141.664 505.494 477.875
1 0 53.0458 12.3478 655 139.687 505.87 476.809
2 0 55.1463 12.1858 672 138.658 506.549 476.817
3 0 54.0914 10.9999 595 141.279 506.422 476.212
4 0 56.1024 11.9246 669 137.293 505.517 475.114
5 0 56.1024 11.9246 669 134.97 505.508 475.012
6 0 61.1293 12.1709 744 134.491 505.921 473.414
7 0 63.1014 11.9173 752 133.194 506.07 473.392
8 0 64.0956 12.3253 790 131.937 505.928 475.067
9 0 66.1251 11.7505 777 134.129 505.974 472.395
10 1 35.0082 10.2833 360 135.636 505.747 488.408
11 0 36.0194 10.3833 374 134.591 506.211 486.746
12 0 39.0432 10.45 408 131.993 505.439 486.319
13 0 38.0321 10.6226 404 129.131 504.663 485.322
14 0 39.0411 10.2968 402 129.493 504.475 484.988
15 0 42.1165 11.6106 489 125.429 505.121 483.415
16 0 43.0297 11.6431 501 127.527 504.451 484.435
17 0 43.0529 11.4278 492 128.425 504.65 485.268
18 0 45.0836 11.8669 535 125.344 504.159 484.411
19 0 48.047 12.2796 590 121.625 504.58 483.927
20 0 48.0925 11.4571 551 124.265 503.724 482.221
21 0 49.0462 12.1722 597 121.66 503.769 482.834
22 0 51.0606 11.927 609 120.726 503.34 481.783
23 0 51.0194 11.6818 596 124.22 503.701 479.529
24 0 55.071 11.8574 653 120.369 502.512 479.833
25 0 57.0372 11.887 678 120.133 502.488 478.46
26 0 57.0273 11.4156 651 120.785 503.14 478.046
27 0 56.1214 9.97837 560 124.543 503.402 476.652
28 0 61.0802 11.8369 723 119.028 502.548 476.874
29 0 60.0636 10.4889 630 122.254 502.525 475.91
30 0 62.0951 11.0637 687 118.367 501.696 474.068
31 0 65.2244 11.3301 739 117.49 501.507 472.608
32 0 67.0878 11.7011 785 116.241 501.266 472.4
33 0 70.0889 11.728 822 117.039 502.175 471.873
34 0 73.1338 13.7556 1006 112.484 501.359 471.562
35 0 75.1605 12.8259 964 119.962 501.869 472.255
36 0 79.1032 13.4255 1062 116.945 501.569 471.123
37 0 80.0822 12.6745 1015 119.25 501.365 469.522
38 0 84.1347 12.3849 1042 119.088 500.724 466.3
39 1 46.059 11.2681 519 118.617 501.493 486.459
40 0 48.0405 10.8658 522 117.341 501.111 488.747
41 0 49.0604 11.0884 544 119.335 500.66 486.349
42 0 53.1183 14.4771 769 111.298 501.384 483.183
43 0 53.1495 13.6972 728 113.566 502.129 483.725
44 0 54.0935 12.5893 681 117.458 501.968 484.57
45 0 56.0533 13.398 751 115.133 501.68 484.812
46 0 59.0517 13.6829 808 113.892 501.484 483.084
47 0 61.1061 14.0411 858 111.301 501.427 481.528
48 0 62.0789 14.401 894 111.332 500.796 481.284
49 0 65.026 13.856 901 111.963 500.006 480.33
50 0 67.1453 12.5251 841 115.929 500.119 479.989
51 0 71.071 13.3388 948 113.77 500.945 477.59
52 0 72.0662 13.668 985 113.834 500.321 477.372
53 0 77.1278 13.2896 1025 113.194 501.018 474.121
54 0 79.0635 14.052 1111 111.716 500.555 473.474
55 0 80.0806 13.6737 1095 113.419 500.432 472.441
56 0 82.0535 13.0647 1072 114.858 500.559 473.594
57 0 87.0908 13.4228 1169 113.703 499.241 471.227
58 0 86.1344 12.2715 1057 118.139 499.922 467.157
59 0 91.1159 13.2908 1211 115.227 500.73 469.549
60 1 47.0322 12.417 584 114.416 500.806 489.575
61 0 49.0724 13.3069 653 111.988 500.801 487.047
62 0 50.0546 11.5674 579 117.195 500.587 487.142
63 0 50.0165 12.7158 636 107.833 499.759 487.234
64 0 53.0275 11.692 620 109.302 500.366 488.032
65 0 54.1066 14.3236 775 103.923 500.657 486.77
66 0 54.0704 11.4665 620 110.532 499.956 485.863
67 0 57.0549 12.8122 731 108.855 500.053 483.93
68 0 60.1018 13.2608 797 107.511 500.064 482.188
69 0 61.0237 11.9626 730 110.433 499.5 482.182
70 0 64.0514 12.1621 779 110.404 499.919 481.494
71 0 68.0413 12.8598 875 109.233 499.713 480.927
72 0 67.0605 12.5707 843 112.083 499.37 478.251
73 0 71.0383 13.0915 930 111.608 499.929 477.93
74 0 75.2268 13.24 996 112.328 500.502 475.777
75 0 76.08 13.0126 990 113.447 499.972 473.453
76 0 82.0582 13.5514 1112 112.334 500.047 473.741
77 0 84.0624 13.2164 1111 112.728 500.428 472.95
78 0 85.1217 13.3691 1138 114.301 500.354 469.92
79 0 88.0673 13.6259 1200 113.629 500.223 470.262
80 0 91.1036 12.4364 1133 114.88 500.172 468.978
81 0 94.1106 13.3141 1253 112.595 499.602 466.409
82 1 49.0547 11.6401 571 110.872 500.674 488.795
83 0 51.0322 11.6985 597 111.146 500.045 487.697
84 0 54.0396 12.4908 675 109.09 500.412 488.099
85 0 55.0539 11.8248 651 110.244 500.086 487.106
86 0 57.0436 13.3231 760 107.232 499.387 486.522
87 0 60.0425 12.8409 771 108.449 499.549 484.986
88 0 62.0644 13.9371 865 105.058 499.229 483.899
89 0 63.0415 13.0707 824 107.608 499.125 481.899
90 0 67.0524 12.3635 829 108.001 500.053 482.145
91 0 70.129 11.8211 829 109.086 500.194 481.096
92 0 72.1228 14.0593 1014 104.964 499.109 478.12
93 0 76.1194 12.5461 955 105.302 499.599 481.007
94 0 77.0872 11.3378 874 108.154 499.379 479.034
95 0 80.0952 12.56 1006 106.047 498.921 477.387
96 0 84.1596 12.1674 1024 105.975 498.841 474.67
97 0 85.2137 10.6438 907 108.514 499.161 474.98
98 0 88.1748 12.4185 1095 104.573 498.617 470.707
99 1 45.0658 11.1615 503 104.592 499.193 494.01
100 0 47.1146 12.2255 576 105.745 498.661 491.167
101 0 49.0087 12.712 623 105.12 499.49 489.029
102 0 50.0877 12.7177 637 106.215 499.447 487.81
103 0 52.0551 11.3534 591 104.653 498.601 488.635
104 0 52.0533 12.6985 661 102.43 498.449 489.011
105 0 54.038 11.973 647 103.708 498.442 486.811
106 0 54.0393 11.6212 628 105.42 498.409 485.968
107 0 57.0705 12.6335 721 103.029 498.315 485.571
108 0 59.066 12.122 716 104.683 498.612 483.806
109 0 61.1164 13.1552 804 102.595 498.167 483.306
110 0 64.0702 12.4395 797 105.538 498.105 484.655
111 0 64.0849 13.1856 845 107.099 498.585 482.768
112 0 67.1787 13.3525 897 106.414 498.906 481.191
113 0 70.0512 13.0761 916 108.032 498.812 480.821
114 0 72.1779 13.0095 939 108.308 498.639 477.331
115 0 74.1181 12.2102 905 110.935 498.844 479.236
116 0 77.1977 13.459 1039 108.671 498.057 474.08
117 0 81.1245 12.7705 1036 110.651 498.555 473.596
118 0 82.169 12.2187 1004 113.004 499.063 470.496
119 1 42.044 10.156 427 113.028 498.932 492.314
120 0 42.0577 9.93873 418 105.359 498.888 487.292
121 0 42.028 10.3978 437 109.426 498.723 486.65
122 0 45.0179 12.5283 564 103.943 498.066 492.498
123 0 45.0341 10.814 487 110.532 498.77 490.01
124 0 49.1214 11.4003 560 108.041 498.736 490.012
125 0 49.154 11.6369 572 108.516 498.196 488.199
126 0 53.0753 12.6989 674 106.45 497.424 488.693
127 0 54.0904 12.8673 696 106.802 497.713 488.086
128 0 55.0984 11.67 643 111.446 498.014 487.639
129 0 57.1 12.5044 714 112.94 498.188 485.831
130 0 59.0943 12.4208 734 111.095 498.189 484.793
131 0 60.0964 13.8278 831 112.096 497.745 482.982
132 0 63.1197 11.9297 753 115.062 497.47 482.91
133 0 65.0987 13.4104 873 113.19 497.798 480.741
134 0 67.1452 13.5974 913 114.587 496.85 480.302
135 0 69.0814 13.1294 907 116.385 497.363 479.632
136 0 69.1075 11.9234 824 84.4381 497.626 481.536
137 0 73.1032 12.667 926 117.856 497.862 476.974
138 0 78.1027 12.7524 996 114.169 498.832 474.464
139 0 80.0742 13.7248 1099 112.419 498.099 472.761
140 0 81.1378 11.8317 960 118.144 498.415 471.729
141 1 44.0311 11.3556 500 114.158 499.364 492.184
142 0 46.1268 11.7936 544 114.062 498.833 491.349
143 0 46.0259 10.4072 479 121.184 499.528 490.501
144 0 49.1078 12.6253 620 117.487 497.827 488.652
145 0 50.0437 11.6898 585 111.791 498.547 488.438
146 0 50.0387 12.1906 610 112.175 498.462 487.434
147 0 53.086 11.7922 626 112.538 497.388 489.105
148 0 55.0936 12.8327 707 110.267 498.148 487.164
149 0 55.0362 12.2465 674 112.516 498.49 487.096
150 0 58.1315 11.4568 666 113.956 499.026 485.553
151 0 60.0421 12.4413 747 112.794 498.961 483.75
152 0 62.0547 12.2795 762 113.066 498.774 484.454
153 0 63.1069 12.5026 789 113.507 498.861 484.223
154 0 66.0925 13.3601 883 111.942 499.249 481.507
155 0 65.0952 11.9978 781 117.826 498.665 481.437
156 0 69.0618 12.4961 863 116.714 499.38 479.922
157 0 71.078 13.1686 936 116.044 498.829 479.21
158 0 74.0579 13.7595 1019 115.41 498.78 477.155
159 0 74.0766 12.0281 891 122.248 498.559 474.869
160 0 79.085 12.7331 1007 119.866 498.446 475.104
161 0 82.0815 12.8043 1051 121.466 499.339 473.415
162 0 83.1476 12.3034 1023 130.562 498.723 472.082
163 0 88.0882 12.7259 1121 129.318 498.134 470.504
164 0 90.0947 13.175 1187 125.058 498.572 469.273
165 0 93.1042 12.8566 1197 128.857 498.327 468.02
166 1 47.0858 11.8719 559 123.642 498.233 491.166
167 0 49.0619 12.7186 624 123.024 498.574 488.942
168 0 50.1124 13.0706 655 122.192 498.446 487.492
169 0 52.0508 11.9499 622 123.487 498.584 488.293
170 0 52.034 12.9531 674 122.355 497.497 485.875
171 0 55.0602 13.3127 733 120.87 497.34 486.548
172 0 55.0468 12.8981 710 122.358 497.621 485.768
173 0 56.0188 12.1566 681 126.655 498.339 485.584
174 0 58.0344 12.7338 739 126.24 497.954 484.752
175 0 59.1172 12.2299 723 127.775 497.965 484.779
176 0 61.0619 12.9868 793 128.431 497.467 482.595
177 0 63.0494 12.6092 795 129.872 497.619 481.844
178 0 67.1177 13.156 883 126.593 497.451 481.16
179 0 68.0948 13.2316 901 126.726 497.971 480.946
180 0 70.0608 12.2322 857 131.281 497.749 480.968
181 0 70.0469 12.9342 906 130.748 497.743 477.295
182 0 74.0444 12.6276 935 132.242 497.688 475.448
183 0 75.0927 12.2249 918 134.432 497.975 475.559
184 0 79.1447 13.7596 1089 130.712 497.43 473.046
185 0 79.2204 12.4715 988 135.133 497.986 471.615
186 0 85.166 12.5637 1070 132.735 498.012 470.813
187 0 87.2246 13.2875 1159 134.694 498.461 467.373
188 0 87.0558 11.5673 1007 134.589 498.777 468.517
189 0 94.092 14.3158 1347 124.939 498.053 466.088
190 1 49.0841 10.9404 537 127.726 498.756 488.661
191 0 51.0088 12.194 622 124.643 498.709 487.682
192 0 53.1434 13.266 705 121.186 498.597 486.196
193 0 55.0247 12.0673 664 122.67 498.791 487.131
194 0 54.02 12.4584 673 123.712 498.946 485.183
195 0 56.1009 12.121 680 122.899 499.354 484.932
196 0 58.0462 12.335 716 121.532 499.197 483.626
197 0 61.042 12.1883 744 121.027 499.305 482.739
198 0 62.0296 12.6875 787 120.614 499.104 481.25
199 0 64.0296 12.1194 776 121.054 498.835 479.271
200 0 68.0313 12.0974 823 120.168 498.661 479.923
201 0 69.1022 13.6465 943 117.665 498.3 477.585
202 0 72.0622 13.3079 959 118.953 497.986 476.672
203 0 73.0209 12.9826 948 120.975 498.884 476.101
204 0 75.0759 13.2399 994 120.13 498.363 475.673
205 0 81.0894 13.9846 1134 118.025 499.11 474.542
206 0 82.0899 13.1441 1079 122.215 498.331 474.168
207 0 85.1474 13.9875 1191 121.488 497.748 472.305
208 0 88.0579 14.7857 1302 119.272 498.099 470.149
209 1 44.0747 11.0948 489 121.898 497.75 492.059
210 0 47.1429 13.0242 614 116.655 497.104 488.889
211 0 49.0624 13.1465 645 117.454 498.099 490.175
212 0 48.0307 12.95 622 121.285 497.326 488.587
213 0 49.0794 12.7956 628 123.627 497.69 486.514
214 0 50.0338 13.4909 675 121.046 498.164 486.403
215 0 53.0419 13.5176 717 119.727 497.208 486.524
216 0 53.0208 12.2216 648 123.731 497.917 486.213
217 0 54.0499 12.7475 689 123.18 497.775 482.75
218 0 58.0361 12.8368 745 119.883 498.009 483.82
219 0 58.0456 13.4377 780 119.379 497.322 483.485
220 0 61.0448 13.187 805 119.111 497.363 482.014
221 0 63.0581 14.0505 886 117.139 497.878 480.326
222 0 64.0415 13.8348 886 118.448 497.541 478.938
223 0 67.0893 14.3987 966 115.785 497.618 478.41
224 0 66.0466 12.9757 857 121.131 498.038 476.23
225 0 71.1112 15.1593 1078 114.87 498.018 476.676
226 0 74.145 14.121 1047 116.704 498.391 476.332
227 0 76.16 14.0494 1070 117.849 498.067 473.678
228 0 77.1189 13.6283 1051 119.246 497.957 473.887
229 0 81.1317 14.5936 1184 117.118 498.198 471.695
230 0 81.136 13.9272 1130 119.099 498.674 473.177
231 0 85.1487 13.177 1122 121.578 498.14 468.503
232 0 89.19 13.2638 1183 120.438 497.857 469.271
233 0 92.0708 13.8806 1278 119.786 498.371 466.829
234 0 94.441 12.9075 1219 122.293 499.069 464.51
235 0 97.2384 12.9887 1263 122.296 499.151 461.362
236 1 54.1148 11.7528 636 115.811 498.961 486.986
237 0 56.2108 12.8089 720 115.064 499.301 485.086
238 0 57.1324 13.0924 748 116.48 498.836 481.449
239 0 58.0777 12.6038 732 113.721 498.042 483.821
240 0 60.0731 13.1007 787 113.15 497.696 481.92
241 0 63.0933 13.5197 853 112.487 497.81 481.368
242 0 65.0657 12.7717 831 114.789 497.481 480.981
243 0 66.1725 12.0594 798 117.301 497.596 478.342
244 0 69.0795 12.681 876 114.813 497.858 478.49
245 0 71.0739 12.8599 914 114.681 497.638 477.784
246 0 74.0825 12.864 953 114.967 497.986 473.229
247 0 78.1129 12.7124 993 114.881 498.245 474.522
248 0 77.0671 11.0294 850 118.94 497.369 473.042
249 0 81.1028 12.6383 1025 115.185 497.902 472.031
250 0 85.0492 12.0283 1023 115.017 497.822 470.938
251 0 85.1007 12.8319 1092 115.077 498.027 465.074
252 0 87.1324 12.3261 1074 116.142 497.959 465.031
253 0 92.1995 12.256 1130 115.503 497.979 463.432
254 0 94.1867 12.6451 1191 114.853 497.358 462.542
255 0 97.0624 11.539 1120 115.954 498.125 463.091
256 0 98.0875 11.1533 1094 117.406 497.728 457.976
257 0 105.096 12.6456 1329 113.734 497.552 454.533
258 0 107.179 11.5041 1233 115.346 497.272 453.754
259 0 110.173 12.7436 1404 112.956 497.471 449.588
260 0 115.143 11.7419 1352 114.769 497.454 449.233
261 0 118.185 11.372 1344 115.495 497.612 446.596
262 0 125.178 11.7513 1471 114.396 497.634 443.317
263 0 126.242 12.5632 1586 115.044 497.7 439.546
264 0 130.194 12.2356 1593 115.443 497.738 440.075
265 0 137.163 13.072 1793 113.755 497.614 436.775
266 0 142.147 12.1072 1721 115.698 497.539 436.026
267 0 148.104 11.6675 1728 118.671 498.399 433.867
268 1 76.05 8.81 670 119.355 497.955 468.051
269 0 84.107 13.2807 1117 112.494 498.984 471.503
270 0 85.1067 11.5737 985 118.883 498.664 467.852
271 0 88.172 12.0673 1064 117.732 497.996 467.923
272 0 91.1812 11.3949 1039 119.296 498.895 467.214
273 0 94.153 11.407 1074 120.601 498.819 464.551
274 0 98.1724 13.0688 1283 115.723 498.338 465.595
275 0 99.129 12.6502 1254 116.907 498.71 462.573
276 0 103.103 12.0171 1239 117.941 497.634 462.322
277 0 107.095 11.7092 1254 118.998 497.178 459.695
278 0 111.14 11.8049 1312 95.2561 497.208 452.673
279 0 114.07 12.7641 1456 116.956 496.931 453.035
280 0 121.107 13.1123 1588 113.698 497.045 454.449
281 0 124.149 12.2514 1521 113.784 496.91 448.385
282 1 66.0416 10.9779 725 103.684 497.8 481.156
283 0 70.0935 10.8427 760 103.849 498.388 479.886
284 0 69.1234 10.2715 710 107.162 497.47 477.503
285 0 75.2932 12.033 906 112.089 497.672 475.543
286 0 76.1592 11.5547 880 111.92 497.055 475.87
287 0 77.1917 11.0634 854 113.646 497.717 475.098
288 0 81.1556 11.94 969 110.41 497.671 473.082
289 0 83.1122 11.0453 918 107.187 497.229 472.576
290 0 86.0788 11.6753 1005 106.734 498.184 469.321
291 0 89.0481 12.2294 1089 106.623 498.012 469.302
292 0 91.2785 12.2482 1118 107.857 497.761 466.608
293 0 92.1441 10.2665 946 112.52 498.53 468.172
294 0 97.2452 11.5687 1125 110.062 498.556 462.901
295 1 48.1856 11.2067 540 105.233 499.035 486.363
296 0 50.2064 7.86752 395 112.334 499.157 488.572
297 0 51.1724 9.32144 477 109.713 499.088 486.6
298 0 53.0736 9.62814 511 110.54 499.511 487.297
299 0 56.0531 11.5605 648 106.728 497.008 485.293
300 0 58.06 10.7131 622 109.965 496.272 485.881
301 0 59.0406 12.1781 719 108.787 496.363 484.427
302 0 61.0592 11.6772 713 110.297 497.01 483.797
303 0 62.0724 11.6477 723 111.674 496.923 481.101
304 0 64.0607 12.2696 786 110.214 497.225 481.028
305 0 68.0315 11.7152 797 110.243 497.604 480.435
306 0 69.0849 11.7826 814 111.381 497.757 479.947
307 0 71.0983 13.0664 929 108.433 497.769 477.647
308 0 73.078 11.9325 872 111.127 497.751 475.786
309 0 74.0492 11.5059 852 113.298 497.682 475.938
310 0 77.0737 12.8708 992 109.885 497.38 474.446
311 0 80.0966 12.9718 1039 109.259 497.876 473.785
312 0 81.0836 12.074 979 113.743 497.485 471.826
313 0 83.1759 12.2511 1019 114.38 497.903 473.167
314 0 88.1452 14.011 1235 110.307 497.789 470.132
315 0 90.0701 14.411 1298 113.673 496.518 468.817
316 0 94.1232 13.8329 1302 114.762 496.841 467.512
317 0 98.1333 14.2663 1400 114.244 497.201 466.609
318 0 98.144 13.4598 1321 117.004 497.395 464.849
319 0 101.105 13.2733 1342 118.702 497.676 462.549
320 0 104.11 12.8902 1342 118.418 497.374 462.197
321 1 56.1502 11.3268 636 115.283 496.939 487.737
322 0 56.0345 12.4209 696 114.46 497.611 484.943
323 0 56.0345 12.3852 694 140.971 498.591 484.947
324 0 59.0814 11.8142 698 104.533 497.278 485.441
325 0 60.1104 11.5787 696 105.244 497.904 483.701
326 0 62.0407 11.428 709 105.243 497.472 482.516
327 0 63.0502 11.7367 740 104.654 497.986 482.901
328 0 64.0702 10.6602 683 107.635 497.824 481.139
329 0 66.0705 12.1083 800 105.271 498.195 479.76
330 0 70.1095 11.967 839 103.753 498.347 478.03
331 0 73.1331 11.7047 856 105.083 498.241 477.318
332 0 73.0459 11.2806 824 106.335 497.609 476.847
333 0 77.1534 12.1706 939 104.46 497.579 473.891
334 0 80.172 11.6499 934 104.782 498.273 474.604
335 0 82.1132 12.1296 996 104.996 497.672 474.24
336 0 82.1132 12.2636 1007 120.69 497.666 474.011
337 0 85.144 11.5217 981 107.137 498.18 470.739
338 0 90.1191 12.9162 1164 104.167 498.422 467.719
339 0 92.1357 11.0164 1015 109.071 498.912 464.884
340 0 94.0541 11.9718 1126 108.074 498.735 466.857
341 1 50.0504 8.99094 450 113.58 497.667 490.433
342 0 50.053 10.349 518 110.68 498.375 489.185
343 0 54.0237 12.2909 664 106.235 497.822 487.352
344 0 55.0357 12.0467 663 106.406 497.65 487.11
345 0 56.067 12.7883 717 98.9805 499.404 486.371
346 0 56.067 12.8418 720 125.156 501.399 486.311
347 0 59.0874 12.3377 729 101.263 497.764 485.487
348 0 59.0805 11.9837 708 102.784 499.025 485.46
349 0 64.0166 12.6061 807 99.0967 498.398 485.641
350 0 65.0737 13.2465 862 98.3376 498.565 481.658
351 0 66.2049 11.555 765 102.749 498.603 483.736
352 0 68.0416 11.831 805 102.769 499.17 481.159
353 0 66.0404 11.7807 778 139.843 499.154 481.728
354 0 73.1213 12.1169 886 101.951 498.445 479.574
355 0 76.0567 13.0692 994 99.9608 498.067 477.712
356 0 78.0615 12.4773 974 101.239 498.846 477.738
357 0 80.0706 12.3016 985 101.776 498.683 475.793
358 0 83.1303 12.8593 1069 99.7979 498.431 475.578
359 0 86.2007 12.3085 1061 101.51 499.133 472.616
360 0 88.0836 12.5222 1103 101.693 499.241 472.092
361 0 92.2209 12.199 1125 102.317 498.676 470.399
362 0 95.2486 13.1655 1254 100.545 498.348 468.577
363 1 49.0733 10.6575 523 106.503 497.7 489.583
364 0 51.0946 9.98148 510 106.675 499.671 488.988
365 0 50.091 10.8403 543 96.2578 497.851 486.781
366 0 52.0276 11.5323 600 103.272 497.718 489.605
367 0 53.0393 11.7837 625 103.97 497.896 487.41
368 0 56.0807 12.5355 703 100.964 498.104 488.883
369 0 57.0633 11.6712 666 105.069 498.311 486.916
370 0 57.0913 12.2961 702 103.692 498.259 487.497
371 0 61.0442 12.7612 779 103.321 498.017 487.285
372 0 62.0854 12.354 767 104.699 498.213 484.52
373 0 63.0363 11.9614 754 104.926 498.336 484.692
374 0 64.1868 13.0712 839 104.473 498.111 481.54
375 0 68.0606 13.2088 899 103.696 498.456 482.58
376 0 68.0552 12.3429 840 106.987 498.335 481.919
377 0 72.0893 12.8452 926 104.541 498.797 477.889
378 0 74.1039 12.7389 944 105.04 498.561 478.01
379 0 76.0816 13.8273 1052 102.84 498.128 476.957
380 0 80.0625 12.6151 1010 103.823 498.119 476.999
381 0 83.0567 12.6179 1048 104.022 498.345 475.899
382 0 87.0315 14.4201 1255 99.5275 498.391 474.358
383 0 85.0316 13.1128 1115 137.586 499.353 476.591
384 0 90.0325 12.9065 1162 104.123 498.801 470.736
385 0 93.1474 13.7953 1285 102.43 498.43 470.741
386 0 96.0751 12.6255 1213 104.92 498.844 468.471
387 1 50.0394 11.431 572 106.684 498.963 490.17
388 0 52.0796 12.5769 655 101.823 498.634 489.342
389 0 52.0385 11.7797 613 102.718 498.039 488.316
390 0 54.0931 12.2382 662 102.029 497.538 488.935
391 0 56.0882 11.678 655 103.478 498.544 488.224
392 0 57.082 11.4046 651 105.699 497.974 487.916
393 0 58.0901 11.9125 692 104.76 498.382 486.179
394 0 62.0797 10.7926 670 105.339 498.485 488.151
395 0 64.0609 12.6286 809 102.847 498.332 483.305
396 0 66.1186 12.5229 828 103.011 498.328 482.635
397 0 67.2428 12.2838 826 104.374 497.943 480.931
398 0 73.0445 13.1701 962 101.45 497.298 481.836
399 0 74.1248 13.2479 982 102.081 498.381 479
400 0 75.1206 11.3284 851 106.739 498.801 477.156
401 0 78.1451 13.3086 1040 102.969 498.338 474.925
402 0 81.0974 13.8722 1125 102.089 498.947 476.972
403 0 82.0513 13.3087 1092 103.931 498.41 474.768
404 0 85.2059 13.0273 1110 104.681 498.175 472.611
405 0 90.1433 14.011 1263 101.679 498.423 472.358
406 0 91.1207 12.4779 1137 105.657 498.821 468.638
407 0 95.1587 12.7156 1210 104.698 498.68 467.879
408 0 99.0958 13.0883 1297 103.497 499.029 466.731
409 0 102.072 12.07 1232 106.515 498.873 463.6
410 0 106.125 13.9175 1477 101.482 498.922 461.673
411 0 108.139 13.2792 1436 103.549 498.904 460.107
412 0 115.285 12.6642 1460 105.466 498.407 460.214
413 0 118.139 12.807 1513 105.999 499.262 456.48
414 1 63.05 12.5932 794 108.562 499.249 483.463
415 0 63.05 12.4822 787 135.952 499.264 483.629
416 0 69.0576 12.714 878 106.129 500.102 482.97
417 0 70.1548 13.3277 935 105.81 500.159 481.724
418 0 72.0755 13.3887 965 106.926 500.184 479.269
419 0 76.1642 13.1689 1003 107.472 499.745 478.14
420 0 79.1425 12.9387 1024 108.558 499.89 477.184
421 0 81.0566 14.4837 1174 106.342 499.864 475.102
422 0 85.0791 13.5638 1154 107.744 500.223 474.428
423 0 88.114 13.562 1195 107.924 500.156 472.89
424 0 88.1084 13.4153 1182 110.239 499.679 470.778
425 0 93.1437 14.0858 1312 108.6 499.197 469.29
426 0 98.1625 14.1194 1386 107.607 499.303 469.479
427 1 50.0649 11.6249 582 112.469 499.347 490.739
428 0 54.1135 12.4368 673 108.577 500.034 490.553
429 0 50.0543 10.9681 549 108.222 498.601 484.78
430 0 53.0272 11.4847 609 100.026 498.227 486.396
431 0 55.0652 11.4773 632 101.236 498.758 484.424
432 0 57.1057 11.8727 678 100.215 498.531 483.9
433 0 57.0378 10.9401 624 103.247 498.766 482.41
434 0 60.0789 10.6027 637 103.965 498.958 482.163
435 0 62.0289 10.5757 656 104.607 499.046 480.572
436 0 65.0241 11.7341 763 102.628 499.235 479.98
437 0 65.0477 12.0834 786 103.211 498.114 478.071
438 0 69.0872 12.1441 839 102.894 498.406 477.252
439 0 71.0779 13.5063 960 100.823 499.19 476.279
440 0 73.0776 11.7409 858 105.112 499.146 475.206
441 0 76.0613 11.5828 881 106.482 498.764 472.873
442 0 79.0598 13.4455 1063 103.304 498.527 470.335
443 0 81.0869 11.9131 966 106.755 498.93 469.944
444 0 84.0578 12.0988 1017 107.424 498.396 467.571
445 0 89.0512 13.0374 1161 104.991 499.062 465.832
446 0 89.0483 11.7464 1046 109.634 499.583 465.471
447 0 89.0483 11.724 1044 147.345 499.574 465.388
448 1 49.0133 11.8539 581 102.298 499.551 488.809
449 0 50.0213 10.7954 540 103.5 499.663 488.178
450 0 51.1379 11.1854 572 104.028 499.54 485.766
451 0 54.0978 13.3462 722 100.122 499.82 486.348
452 0 54.1509 11.745 636 104.849 499.281 486.3
453 0 56.1651 11.8045 663 105.772 500.133 485.722
454 0 59.0579 13.7154 810 108.265 500.186 486.783
455 0 59.0676 13.4592 795 111.591 499.756 485.492
456 0 63.0889 11.6978 738 114.74 499.683 485.843
457 0 61.0598 12.3813 756 115.104 499.796 484.753
458 0 65.0844 12.5376 816 113.561 499.564 484.626
459 0 68.0967 13.1871 898 112.645 499.83 482.333
460 0 71.0945 13.8267 983 111.456 499.729 481.74
461 0 71.1408 13.0024 925 114.872 499.888 480.373
462 0 76.0775 13.0525 993 112.89 499.453 479.602
463 0 78.0571 13.7335 1072 112.909 499.188 475.055
464 0 80.146 13.1011 1050 114.433 499.691 476.653
465 0 83.1066 13.7895 1146 113.817 499.25 473.548
466 0 85.0582 13.8729 1180 115.269 498.726 472.22
467 0 87.0925 13.3995 1167 115.862 498.062 471.324
468 0 91.1736 13.1946 1203 115.926 498.913 471.51
469 0 96.1492 13.2606 1275 116.467 498.434 468.936
470 0 99.1585 14.4819 1436 114.312 498.593 465.21
471 0 101.142 13.1894 1334 118.06 498.441 466.335
472 1 51.0332 12.4037 633 120.235 498.82 488.85
473 0 53.0476 13.0826 694 144.716 498.833 489.902
474 0 57.0904 12.6816 724 117.265 499.278 488.72
475 0 57.025 12.9768 740 116.472 498.545 486.647
476 0 59.0467 13.2607 783 115.612 498.475 487.079
477 0 63.0536 13.0048 820 115.356 497.955 485.271
478 0 65.1912 13.5294 882 115.056 498.432 483.617
479 0 66.0579 12.7918 845 117.34 498.337 482.871
480 0 70.0582 15.6727 1098 109.383 498.052 482.298
481 0 67.0756 12.2101 819 122.079 498.143 481.514
482 0 72.0823 13.0406 940 119.097 497.768 480.872
483 0 74.0668 11.8002 874 122.176 498.428 480.847
484 0 77.0592 12.6526 975 120.508 498.309 477.807
485 0 76.0422 12.4405 946 123.183 498.374 475.017
486 0 84.1525 13.4042 1128 117.95 497.783 474.412
487 0 85.0643 12.6728 1078 120.218 497.955 472.48
488 0 88.1166 13.3913 1180 117.667 497.542 470.914
489 0 92.0485 12.9823 1195 118.549 498.272 472.787
490 1 51.0257 12.0136 613 120.83 498.393 489.339
491 0 52.1134 12.8374 669 119.191 498.58 488.021
492 0 53.1221 12.3301 655 113.797 498.776 489.015
493 0 53.1052 11.4866 610 116.252 498.97 490.1
494 0 56.0458 12.5612 704 115.31 499.074 486.31
495 0 58.0568 12.3672 718 115.494 498.767 486.358
496 0 60.0808 11.7508 706 116.266 498.282 486.341
497 0 61.0668 11.9377 729 116.675 498.535 483.955
498 0 65.114 13.223 861 112.654 498.731 483.597
499 0 68.0406 12.9041 878 114.52 499.294 482.575
500 0 70.0475 13.2482 928 115.213 498.741 481.865
501 0 71.113 12.1356 863 121.692 499.327 480.875
502 0 74.0721 12.8524 952 120.334 499.094 480.146
503 0 76.0312 12.4291 945 122.316 499.577 478.322
504 0 80.0805 12.3251 987 122.545 499.43 476.262
505 0 82.0801 12.6584 1039 122.628 499.41 475.784
506 0 87.0348 13.5808 1182 117.959 498.338 473.762
507 0 88.0702 12.138 1069 119.122 499.039 469.394
508 0 88.0702 12.1494 1070 150.225 500.046 469.327
509 0 95.071 12.4749 1186 123.938 498.454 469.37
510 1 50.074 10.7241 537 115.926 499.168 490.562
511 0 53.0895 12.6202 670 118.449 499.128 490.302
512 0 53.0943 11.6773 620 113.719 498.861 486.661
513 0 54.037 12.8801 696 119.244 498.171 487.852
514 0 56.0582 12.38 694 122.114 498.408 487.091
515 0 58.0863 12.5503 729 120.646 497.883 486.824
516 0 60.0658 12.786 768 120.253 498.191 486.242
517 0 62.031 12.2358 759 120.206 498.913 485.826
518 0 65.0595 13.6183 886 116.587 498.933 484.262
519 0 66.063 13.5325 894 118.05 498.595 483.86
520 0 70.1482 13.9562 979 116.25 498.965 481.702
521 0 70.0632 13.5164 947 119.006 498.26 480.49
522 0 72.0764 12.1676 877 122.617 497.237 479.262
523 0 76.1279 13.8451 1054 117.33 498.835 479.25
524 0 77.1017 13.5795 1047 119.521 498.403 478.076
525 0 80.1394 13.3392 1069 120.543 498.687 476.11
526 0 83.0431 13.8001 1146 119.651 498.75 474.559
527 0 86.1361 12.1087 1043 124.439 498.035 473.517
528 1 45.0363 11.7017 527 121.501 498.224 494.816
529 0 45.0533 11.1202 501 125.535 498.074 493.026
530 0 48.0959 12.5582 604 122.606 498.676 492.583
531 0 49.0614 11.4958 564 130.957 498.654 490.801
532 0 53.0722 13.378 710 126.014 498.446 490.759
533 0 53.0821 12.7727 678 129.516 498.319 489.624
534 0 54.073 11.7619 636 132.623 498.008 489.557
535 0 57.0882 13.1726 752 129.559 498.645 487.609
536 0 58.0703 13.432 780 128.258 498.19 487.194
537 0 60.0601 12.9537 778 129.201 498.272 485.555
538 0 63.1235 13.0062 821 128.351 498.302 484.317
539 0 65.0399 12.9613 843 129.395 497.531 483.345
540 0 66.0859 13.3463 882 128.67 498.218 481.872
541 0 69.1453 14.0284 970 127.381 497.73 479.798
542 0 72.0665 14.2507 1027 125.135 498.002 481.07
543 0 74.1414 13.3798 992 129.456 498.053 479.564
544 0 73.1489 12.7685 934 152.955 498.02 478.701
545 0 77.0612 13.4958 1040 131.921 498.118 477.64
546 0 80.0833 14.0354 1124 130.163 498.184 476.787
547 0 83.1122 14.4624 1202 128.784 497.913 475.088
548 0 83.1572 13.5526 1127 128.699 498.654 474.834
549 0 84.062 11.4915 966 136.665 498.023 474.269
550 0 89.1464 13.0796 1166 132.36 498.015 471.199
551 0 92.119 13.9711 1287 128.859 497.189 470.471
552 0 95.0606 12.8234 1219 131.688 498.237 468.286
553 0 98.1189 12.5052 1227 133.506 497.756 467.516
554 1 50.0961 12.1766 610 128.451 497.407 490.52
555 0 51.0436 11.9506 610 130.674 499.007 490.872
556 0 54.0681 12.3363 667 128.813 499.226 490.4
557 0 54.0718 13.7225 742 125.813 498.683 488.767
558 0 57.072 12.6156 720 126.965 499.131 489.067
559 0 59.067 12.4774 737 129.033 499.419 486.887
560 0 64.0838 12.3588 792 126.155 500.162 486.745
561 0 66.0764 12.9093 853 124.98 500.064 485.913
562 0 66.0879 13.3307 881 124.612 499.271 485.02
563 0 69.0676 12.8425 887 126.632 499.259 484.383
564 0 70.0498 13.8758 972 125.388 499.817 482.781
565 0 74.082 12.6346 936 128.081 499.594 481.748
566 0 78.0514 13.6577 1066 124.662 499.434 481.273
567 0 79.0786 12.9997 1028 127.333 498.666 478.988
568 0 80.0903 12.361 990 130.577 499.479 478.521
569 0 84.1019 13.2577 1115 128.739 498.962 475.061
570 0 88.1725 13.0199 1148 128.91 499.328 473.717
571 0 91.1162 13.0493 1189 128.142 499.241 473.587
572 0 96.0662 14.4171 1385 122.858 498.851 472.035
573 1 47.0763 11.3645 535 133.284 500.045 491.452
574 0 49.0253 12.3202 604 128.161 500.429 491.705
575 0 50.0369 12.5108 626 129.444 499.89 490.356
576 0 53.0628 12.9846 689 126.846 499.945 491.033
577 0 55.024 13.4123 738 125.813 499.157 490.247
578 0 55.0144 13.7055 754 126.912 499.492 488.354
579 0 55.0144 13.6873 753 151.001 499.494 488.319
580 0 59.0373 12.5514 741 127.862 499.679 487.64
581 0 62.0888 13.5773 843 124.329 499.28 486.211
582 0 63.0628 13.5262 853 125.08 499.776 484.917
583 0 64.1102 13.0089 834 127.63 499.252 483.998
584 0 65.1146 12.455 811 129.469 500.005 482.741
585 0 69.0773 13.9843 966 123.644 499.65 482.175
586 0 71.1156 13.4148 954 126.191 499.525 480.835
587 0 74.1045 13.8183 1024 123.627 499.866 480.283
588 0 75.0704 12.8946 968 119.99 498.855 479.536
589 0 77.1235 11.9419 921 122.333 499.281 480.276
590 0 82.0338 13.2628 1088 118.442 498.926 477.497
591 0 83.0883 12.7334 1058 120.903 498.492 476.206
592 0 86.0478 12.3187 1060 122.984 498.641 475.675
593 0 90.0548 11.4597 1032 124.203 499.008 473.332
594 0 95.086 13.6087 1294 116.538 498.992 471.066
595 1 51.0461 12.7336 650 117.631 499.309 491.677
596 0 51.0409 11.6573 595 117.158 499.136 492.297
597 0 51.0322 12.6587 646 115.091 499.149 492.87
598 0 54.0825 12.9802 702 114.309 499.034 489.104
599 0 54.095 12.4041 671 116.653 499.811 489.386
600 0 58.0666 13.0023 755 113.793 499.476 488.216
601 0 59.0586 12.0727 713 116.273 499.181 487.704
602 0 60.1293 12.0574 725 117.134 498.826 487.05
603 0 63.149 12.3676 781 116.214 498.574 485.155
604 0 64.0304 12.5409 803 118.408 498.711 482.954
605 0 68.116 12.9191 880 116.528 499.481 483.975
606 0 68.0786 12.1624 828 123.459 499.399 480.812
607 0 73.1043 12.7763 934 120.24 498.939 479.627
608 0 74.039 13.0202 964 121.478 498.298 479.551
609 0 77.1212 12.7462 983 122.27 499.395 478.804
610 0 78.0743 12.9364 1010 123.153 498.748 476.755
611 0 84.0782 13.4518 1131 120.638 498.909 476.11
612 1 42.009 11.7118 492 123.892 499.388 494.795
613 0 44.0745 11.7755 519 122.819 498.952 494.545
614 0 44.0142 10.1558 447 129.781 499.047 493.64
615 0 46.0391 11.9029 548 124.909 498.635 492.586
616 0 45.1125 11.5489 521 118.228 499.046 494.052
617 0 47.0995 11.1466 525 119.91 499.337 494.621
618 0 49.123 11.6239 571 117.014 499.154 492.091
619 0 52.0925 13.4184 699 111.282 499.255 492.08
620 0 51.1214 11.0521 565 119.053 499.466 491.86
621 0 53.0634 11.5711 614 116.363 499.849 492.881
622 0 53.1704 11.6418 619 118.829 498.924 488.281
623 0 57.0817 12.3157 703 115.058 499.373 489.966
624 0 60.1077 11.6624 701 115.639 498.425 488.874
625 0 61.0966 11.7683 719 116.284 498.53 487.324
626 0 65.1386 12.435 810 113.058 498.965 487.016
627 0 66.0404 11.0538 730 114.929 498.941 484.315
628 0 68.1042 11.8642 808 114.489 498.342 481.593
629 0 71.1334 12.4555 886 112.916 497.352 480.331
630 0 74.0552 12.5312 928 113.516 497.796 481.258
631 0 76.0969 12.0504 917 116.176 497.696 479.425
632 0 79.1147 12.6652 1002 116.616 498.184 477.88
633 0 84.0857 13.8311 1163 114.806 498.04 475.322
634 0 84.057 12.3845 1041 121.558 497.524 475.796
635 0 89.1247 13.2287 1179 121.355 498.625 471.856
636 1 44.1655 11.6833 516 116.273 499.545 493.01
637 0 45.2606 11.4669 519 117.308 499.258 491.335
638 0 46.1017 12.6026 581 115.236 498.389 490.134
639 0 49.0271 11.973 587 114.262 498.191 494.692
640 0 49.0382 11.8887 583 116.345 499.588 491.559
641 0 52.0767 12.2128 636 115.664 498.601 491.064
642 0 55.0785 12.1281 668 114.252 498.985 491.502
643 0 55.1808 11.562 638 116.682 498.165 489.522
644 0 57.127 12.5335 716 114.789 498.694 487.841
645 0 59.0748 11.5955 685 115.92 498.994 488.448
646 0 62.1133 12.7831 794 113.931 499.052 485.878
647 0 63.1146 12.6595 799 114.944 498.126 486.005
648 0 67.1174 13.3497 896 112.846 498.969 484.682
649 0 67.0696 12.6138 846 115.837 498.255 484.195
650 0 70.0788 12.0008 841 116.294 498.046 483.334
651 0 73.0849 13.0396 953 114.627 497.899 480.58
652 0 74.1223 11.7239 869 119.834 497.86 479.086
653 0 77.1164 11.956 922 119.45 498.523 479.806
654 0 82.2252 11.6266 956 119.146 498.297 478.521
655 0 83.2356 11.089 923 121.034 498.394 477.663
656 1 44.0405 11.1261 490 117.708 498.937 495.773
657 0 45.0685 11.4271 515 117.656 497.118 493.87
658 0 47.0741 12.5547 591 115.252 496.423 492.543
659 0 49.0576 12.7401 625 114.574 498.664 494.677
660 0 47.0187 11.8463 557 119.431 498.682 493.327
661 0 50.0455 13.0881 655 115.766 498.948 492.876
662 0 51.0819 13.3119 680 115.36 498.578 493.206
663 0 54.066 13.7795 745 113.419 498.667 491.121
664 0 55.0698 12.1664 670 116.728 499.019 487.976
665 0 56.0739 12.537 703 115.186 498.999 489.654
666 0 57.1723 12.9958 743 114.105 498.616 489.987
667 0 58.081 12.4998 726 115.897 497.736 489.084
668 0 60.0607 12.4208 746 116.575 497.67 486.642
669 0 60.0983 12.6459 760 117.387 498.401 485.975
670 0 64.2273 12.5025 803 117.156 497.753 483.394
671 0 68.1358 13.752 937 113.973 498.393 484.504
672 0 69.2038 13.8865 961 114.545 497.957 482.704
673 0 71.1028 14.036 998 115.223 497.679 481.087
674 0 74.0503 14.058 1041 115.809 497.895 479.732
675 0 76.0886 13.4186 1021 116.678 498.696 481.354
676 0 78.0978 13.291 1038 119.382 497.868 478.568
677 0 79.0757 13.8348 1094 118.314 497.871 479.04
678 0 82.1269 13.2234 1086 120.762 497.577 476.181
679 0 86.1685 14.1699 1221 117.486 497.653 476.183
680 1 44.131 10.922 482 121.037 498.4 495.838
681 0 43.045 11.639 501 114.453 497.852 492.365
682 0 45.0281 11.4151 514 114.94 496.897 490.819
683 0 48.052 13.423 645 112.253 498.231 495.744
684 0 46.027 11.3629 523 120.057 498.633 495.537
685 0 48.0335 11.6377 559 119.934 498.606 496.016
686 0 49.1096 12.2176 600 121.887 498.555 493.102
687 0 52.0513 13.1793 686 118.293 498.793 492.039
688 0 53.1108 12.7658 678 119.062 498.314 492.497
689 0 54.043 13.0452 705 119.257 498.881 491.183
690 0 56.0485 12.7925 717 121.038 499.165 490.449
691 0 58.0471 12.4382 722 121.94 498.65 489.579
692 0 61.1988 12.5166 766 120.569 498.632 489.368
693 0 64.055 14.1909 909 115.936 498.69 487.234
694 0 66.0774 11.88 785 121.526 499.076 488.539
695 0 67.0771 12.6273 847 121.882 498.804 484.048
696 0 70.0753 12.7292 892 120.723 498.583 484.59
697 0 74.0736 13.3921 992 118.312 499.143 481.228
698 0 77.0875 13.9582 1076 116.365 498.497 479.824
699 0 79.0642 14.5704 1152 114.55 499.194 479.23
700 0 82.0633 14.0623 1154 115.42 498.594 478.33
701 0 86.0969 13.7636 1185 116.734 498.754 475.373
702 1 45.0357 12.3902 558 117.217 498.344 495.97
703 0 45.0171 11.3068 509 119.36 498.532 495.802
704 0 45.0739 11.6919 527 121.051 497.108 491.818
705 0 48.0652 12.7951 615 115.896 497.724 492.024
706 0 48.0702 13.5011 649 115.787 497.932 493.616
707 0 50.0544 12.7062 636 117.105 498.453 491.16
708 0 53.0597 13.155 698 114.87 497.994 489.782
709 0 55.136 12.2787 677 116.852 497.592 490.273
710 0 56.217 12.2561 689 116.954 498.325 488.652
711 0 57.1275 13.6712 781 114.247 498.233 486.041
712 0 61.1832 13.6312 834 112.952 497.977 486.863
713 0 62.059 12.472 774 116.877 498.189 485.004
714 0 64.1567 12.4071 796 116.768 498.477 483.564
715 0 64.0855 12.9827 832 116.958 497.792 482.953
716 0 67.1288 12.2898 825 117.085 497.554 482.149
717 0 72.2203 12.7665 922 115.722 498.454 482.153
718 0 75.2706 13.7105 1032 114.084 497.641 478.942
719 0 75.2558 12.2914 925 122.678 498.011 479.661
720 0 78.1274 12.4412 972 122.685 497.654 477.723
721 0 81.0508 12.449 1009 121.851 497.989 476.218
722 0 84.1487 12.2878 1034 117.486 498.024 474.747
723 1 43.0316 10.7595 463 115.814 498.501 496.467
724 0 42.0394 10.8945 458 116.629 497.854 495.5
725 0 46.0597 11.941 550 112.669 497.518 494.775
726 0 46.0156 11.3875 524 116.124 498.357 494.111
727 0 47.034 11.6937 550 116.84 498.818 494.302
728 0 49.0456 12.519 614 115.272 498.741 492.917
729 0 52.0876 12.4982 651 112.975 498.813 491.932
730 0 51.0858 12.3909 633 116.499 499.033 490.332
731 0 54.0835 11.5932 627 117.236 498.611 489.974
732 0 55.1155 12.7369 702 114.811 498.611 488.721
733 0 57.0434 13.0252 743 114.419 498.631 487.042
734 0 60.0726 13.4504 808 114.748 498.7 487.754
735 0 62.0729 13.1942 819 116.361 498.841 485.983
736 0 63.0741 12.5567 792 119.302 498.271 485.798
737 0 65.174 12.8119 835 118.921 498.527 484.535
738 0 67.0816 12.6562 849 121.009 498.517 482.813
739 0 69.0946 12.9098 892 120.141 499.013 482.9
740 0 71.0587 12.4826 887 122.268 498.472 481.991
741 0 73.1597 12.5479 918 124.408 499.032 479.52
742 0 77.0739 12.8578 991 122.521 498.672 478.766
743 0 78.2322 11.9005 931 125.449 498.163 479.336
744 0 81.0532 12.6337 1024 125.629 498.522 475.496
745 0 84.0851 12.0711 1015 127.257 498.973 474.867
746 1 44.0395 10.8766 479 128.365 498.846 493.929
747 0 47.0423 12.2868 578 123.284 498.368 494.062
748 0 48.0471 11.9466 574 123.922 498.599 492.223
749 0 47.1468 11.8354 558 120.636 498.461 492.249
750 0 50.0981 11.5374 578 121.272 498.825 493.682
751 0 52.1195 12.3179 642 121.033 499.19 491.148
752 0 53.0827 10.8698 577 124.39 498.634 490.858
753 0 54.0801 10.7988 584 125.503 499.555 490.57
754 0 55.0453 11.9901 660 123.371 499.148 490.53
755 0 59.1774 12.1837 721 121.999 497.821 489.218
756 0 60.154 12.1189 729 123.837 498.765 487.392
757 0 63.1009 12.4087 783 122.525 499.037 486.593
758 0 65.0956 12.5047 814 121.753 498.362 486.211
759 0 70.0975 12.8678 902 119.028 498.656 484.52
760 0 69.124 12.6584 875 122.071 497.632 483.469
761 0 72.1324 12.5464 905 121.752 498.182 482.128
762 0 74.1598 12.9046 957 121.193 498.177 482.71
763 0 76.1315 12.9513 986 122.294 498.527 481.006
764 0 80.0618 12.8651 1030 122.286 498.755 479.044
765 0 82.0931 12.7416 1046 123.785 498.618 477.227
766 0 84.1082 12.4007 1043 124.9 497.916 477.014
767 0 86.0459 12.1214 1043 125.349 498.249 474.715
768 1 43.0928 11.0227 475 124.011 498.221 495.297
769 0 45.0169 11.6845 526 122.148 498.276 493.789
770 0 47.1241 12.5838 593 120.882 498.793 492.82
771 0 48.0355 11.4291 549 123.727 498.9 493.015
772 0 50.0422 12.0698 604 121.768 499.523 492.29
773 0 50.0614 11.5858 580 124.031 498.757 492.284
774 0 53.1464 13.4346 714 116.88 499.366 491.832
775 0 53.0161 11.7889 625 122.822 498.979 490.254
776 0 55.0354 12.5737 692 120.397 498.656 489.23
777 0 58.0526 12.8676 747 119.145 498.693 489.645
778 0 57.0574 13.7055 782 118.684 498.733 487.123
779 0 61.0732 13.6066 831 117.594 499.262 486.702
780 0 60.0529 11.8396 711 122.97 498.862 486.395
781 0 63.054 13.0206 821 120.088 499.262 484.782
782 0 66.0749 13.2728 877 118.091 498.694 484.556
783 0 67.0494 12.3342 827 121.827 498.704 483.432
784 0 69.1586 13.4618 931 118.963 498.871 481.989
785 0 71.0967 13.5168 961 118.494 498.94 481.258
786 0 72.129 13.6006 981 119.718 499.153 482.25
787 0 73.0895 12.8746 941 122.566 498.042 481.075
788 0 74.0439 12.7222 942 124.699 498.627 478.377
789 0 79.1544 12.9746 1027 122.901 498.35 477.527
790 0 80.1589 13.0241 1044 122.18 497.304 475.929
791 0 83.1236 13.0649 1086 122.651 497.494 475.721
792 0 85.1311 12.839 1093 124.214 497.329 474.547
793 0 89.1204 12.4551 1110 123.941 497.419 472.086
794 0 92.1382 12.4161 1144 125.087 497.639 470.295
795 0 95.1283 13.3083 1266 122.371 498.241 471.07
796 0 98.1373 13.7562 1350 121.627 497.699 467.614
797 0 99.1104 12.7938 1268 124.616 497.697 466.871
798 1 51.0312 10.0919 515 126.134 498.633 491.965
799 0 54.0607 10.5807 572 124.682 497.339 490.748
800 0 56.1604 12.9629 728 114.793 497.777 488.026
801 0 56.1123 11.9582 671 118.708 497.702 487.264
802 0 59.0414 13.1095 774 115.28 497.074 486.549
803 0 61.0307 11.4696 700 119.163 496.714 486.723
804 0 62.1032 12.447 773 118.598 497.409 484.926
805 0 66.1054 12.6011 833 117.399 497.284 483.156
806 0 66.1328 13.0646 864 118.228 497.21 483.153
807 0 68.1231 13.0206 887 119.722 497.072 481.17
808 0 71.1688 13.6998 975 117.356 496.452 481.466
809 0 72.0657 13.904 1002 118.548 497.327 480.449
810 0 75.13 14.2287 1069 117.762 496.839 478.268
811 0 77.0543 14.1589 1091 119.644 498.064 476.479
812 0 78.0284 13.0465 1018 122.602 497.574 476.078
813 0 81.128 14.397 1168 118.249 497.957 472.687
814 0 83.1235 13.8709 1153 120.958 497.679 471.727
815 0 86.1197 12.9471 1115 124.286 497.552 472.095
816 0 89.1784 13.8374 1234 121.836 498.336 469.336
817 0 93.0833 13.4503 1252 122.464 497.665 467.323
818 0 95.1166 14.2141 1352 121.414 498.417 467.431
819 0 98.0898 13.3551 1310 123.277 498.25 464.851
820 0 101.133 13.0225 1317 123.276 498.459 466.07
821 0 105.07 13.0104 1367 123.361 497.662 463.868
822 0 108.142 13.1772 1425 123.903 498.968 460.815
823 1 57.0747 11.0557 631 124.816 499.17 485.117
824 0 58.0672 12.2272 710 122.787 498.593 484.192
825 0 62.0869 12.9818 806 120.823 498.934 483.112
826 0 63.1876 13.1513 831 123.045 497.738 484.322
827 0 64.1131 12.8055 821 120.436 497.372 482.378
828 0 65.0631 12.4033 807 122.927 497.781 484.722
829 0 68.215 12.5339 855 123.126 497.415 481.301
830 0 71.1364 12.9329 920 122.185 496.692 480.202
831 0 73.118 12.1448 888 123.495 495.957 479.432
832 0 78.1413 14.4226 1127 117.16 496.654 477.613
833 0 78.2102 12.7477 997 122.624 496.963 477.561
834 0 83.0905 12.5646 1044 122.539 496.734 474.512
835 0 85.1223 13.1458 1119 120.895 496.829 473.284
836 0 88.0829 13.124 1156 119.022 496.637 470.237
837 0 90.0521 12.1818 1097 119.471 496.583 468.622
838 1 46.1135 10.6693 492 115.238 498.449 489.38
839 0 46.046 11.3365 522 113.745 498.561 488.238
840 0 47.0322 11.0137 518 114.809 498.967 487.45
841 0 49.047 11.1526 547 114.143 498.41 487.318
842 0 51.0602 12.6126 644 110.017 498.498 485.57
843 0 52.0379 11.3571 591 114.105 498.272 485.379
844 0 53.0498 12.2338 649 111.125 498.183 484.498
845 0 55.0598 11.7872 649 112.382 498.63 484.27
846 0 56.0559 11.8096 662 113.654 498.017 488.728
847 0 58.0705 12.1576 706 113.806 497.642 487.116
848 0 59.0624 12.2921 726 114.278 497.751 484.439
849 0 61.1172 12.1733 744 113.874 496.866 484.825
850 0 66.0345 13.0689 863 109.316 498.349 483.637
851 0 68.0988 13.407 913 108.966 498.045 481.951
852 0 70.0421 12.364 866 111.92 497.461 480.67
853 0 71.0631 12.4678 886 112.361 497.841 479.287
854 0 73.0475 11.7321 857 113.916 498.112 479.785
855 1 39.0322 9.96613 389 113.895 498.406 495.964
856 0 42.0423 11.2506 473 110.266 499.26 494.222
857 0 44.0179 12.0405 530 110.609 499.2 493.811
858 0 44.0382 12.3302 543 110.628 499.085 494.352
859 0 44.045 11.6245 512 113.639 498.486 493.301
860 0 47.0682 12.4288 585 111.407 498.547 492.957
861 0 46.0493 11.7048 539 116.633 498.594 492.126
862 0 49.0318 10.7073 525 117.455 498.97 492.088
863 0 50.0493 12.0681 604 115.752 498.013 489.464
864 0 53.0413 12.8579 682 114.251 498.089 490.062
865 0 53.0495 12.5732 667 116.73 498.639 489.387
866 0 56.0947 12.2472 687 116.445 498.702 489.21
867 0 56.1009 12.6558 710 116.38 498.768 487.908
868 0 59.0687 13.3743 790 114.911 498.168 487.49
869 0 60.0939 12.3973 745 118.285 498.605 487.008
870 0 62.0245 12.1726 755 120.804 497.944 484.897
871 0 65.086 13.1211 854 118.345 497.939 483.856
872 0 66.0445 12.9761 857 121.371 498.286 482.296
873 0 67.1942 12.8731 865 122.494 498.662 482.664
874 0 72.1122 13.0075 938 122.936 497.868 480.983
875 0 73.0947 13.1884 964 123.211 497.902 480.912
876 0 76.1674 13.1027 998 124.32 497.557 479.452
877 0 76.2363 13.2614 1011 128.011 496.506 477.094
878 0 79.1856 13.1463 1041 129.165 496.891 476.313
879 1 42.0512 11.5573 486 126.619 497.494 495.138
880 0 43.0987 12.1349 523 124.566 497.769 494.79
881 0 48.0185 12.8076 615 119.597 497.85 494.85
882 0 46.0332 11.7524 541 126.882 497.527 493.087
883 0 50.0727 12.8014 641 122.064 497.521 492.991
884 0 51.1173 12.0703 617 126.212 498.316 492.344
885 0 51.0937 12.3499 631 126.927 497.845 490.532
886 0 52.1367 13.3112 694 125.094 498.043 490.147
887 0 55.0531 12.824 706 121.428 497.657 488.561
888 0 56.0369 12.6345 708 126.96 497.638 489.208
889 0 58.1045 12.7013 738 127.023 497.759 486.268
890 0 61.0369 13.1232 801 124.577 497.326 487.212
891 0 62.0889 12.2888 763 127.953 497.819 487.443
892 0 66.0647 13.2597 876 125.284 497.532 484.683
893 0 67.0937 13.5333 908 136.963 497.355 482.448
894 0 72.1906 13.3951 967 134.957 497.153 481.819
895 0 72.1289 12.3945 894 139.31 497.786 480.218
896 0 77.0679 12.6901 978 136.7 497.905 480.261
897 0 78.1 13.9949 1093 134.524 497.345 476.728
898 0 80.0657 13.2142 1058 135.751 497.554 477.995
899 0 82.1322 13.0643 1073 137.563 497.739 475.784
900 0 85.0997 13.208 1124 137.19 497.004 474.09
901 0 89.0916 12.7846 1139 139.135 497.632 472.296
902 0 93.0901 14.2013 1322 134.697 497.718 470.76
903 1 46.0528 11.2697 519 133.557 498.624 493.597
904 0 48.0419 11.1153 534 131.893 497.811 492.573
905 0 50.0461 13.0679 654 125.324 498.003 492.034
906 0 51.0782 12.4515 636 128.318 498.06 490.314
907 0 52.1097 12.4161 647 128.74 497.969 491.141
908 0 55.1386 13.6928 755 124.446 497.837 489.038
909 0 55.115 13.2813 732 127.052 497.885 488.434
910 0 58.0906 13.9265 809 124.245 497.821 487.714
911 0 60.0896 12.8142 770 135.926 497.486 485.796
912 0 63.1706 13.1548 831 133.632 497.539 486
913 0 64.1474 13.0792 839 135.367 497.323 483.774
914 0 66.0852 12.1964 806 136.202 497.531 483.947
915 0 68.0724 13.2947 905 133.4 497.014 482.366
916 0 71.095 12.7716 908 134.144 497.064 482.385
917 0 74.1213 13.6803 1014 132.356 497.231 479.605
918 0 76.1944 13.4656 1026 133.469 496.912 478.212
919 0 78.1243 13.8625 1083 134.38 497.059 475.544
920 0 79.1846 12.5782 996 136.788 497.225 475.786
921 0 85.1878 12.9596 1104 134.14 497.119 476.016
922 0 87.102 13.8803 1209 132.323 497.49 473.111
923 0 90.171 13.5742 1224 134.761 497.683 469.532
924 0 93.2566 14.7014 1371 130.6 496.643 470.932
925 0 95.1253 13.5821 1292 134.432 497.322 468.32
926 0 99.1359 13.4865 1337 135.025 496.942 466.438
927 1 50.1195 11.5125 577 131.14 497.359 490.409
928 0 50.0154 12.3562 618 128.699 497.257 488.898
929 0 56.0444 13.6142 763 120.478 497.67 488.801
930 0 57.0595 13.5998 776 119.553 498.113 487.121
931 0 56.0752 12.0909 678 125.161 498.038 487.496
932 0 58.095 12.2902 714 122.922 498.226 485.996
933 0 64.0747 13.4686 863 116.902 497.699 485.241
934 0 66.0739 13.2125 873 118.047 498.293 483.002
935 0 66.0857 13.1496 869 119.155 497.937 481.838
936 0 70.0774 14.1701 993 115.674 497.925 480.02
937 0 73.1059 13.8156 1010 115.857 497.074 478.488
938 0 75.0459 14.4045 1081 114.893 497.222 477.141
939 0 79.2318 15.0823 1195 113.3 496.886 475.164
940 0 82.2552 13.835 1138 116.229 496.563 473.161
941 0 84.3083 13.7709 1161 117.865 496.471 471.861
942 0 87.2285 14.869 1297 115.596 496.718 468.75
943 0 91.2375 13.7334 1253 116.646 496.637 470.272
944 0 92.1748 13.8216 1274 110.699 497.056 466.234
945 1 47.0439 9.86312 464 114.013 496.664 485.474
946 0 49.0408 12.2551 601 115.05 496.702 488.779
947 0 50.0675 12.4831 625 115.299 498.262 491.326
948 0 53.077 12.3782 657 116.111 498.272 489.633
949 0 55.0929 12.6695 698 115.12 497.951 489.593
950 0 56.0642 12.1825 683 116.969 498.088 488.748
951 0 58.0588 12.2634 712 116.192 498.374 488.434
952 0 60.0805 12.0006 721 117.051 497.419 486.77
953 0 60.0954 12.2638 737 116.73 497.362 485.468
954 0 63.0338 13.3896 844 113.28 498.148 485.935
955 0 65.1185 12.3928 807 116.706 498.445 484.204
956 0 67.0787 13.4618 903 113.725 497.949 483.25
957 0 69.2007 12.8467 889 115.737 497.84 482.144
958 0 71.1143 12.5994 896 116.846 498.08 479.877
959 0 72.0666 11.5171 830 118.982 497.766 477.284
960 0 78.0864 13.3442 1042 114.339 497.36 477.022
961 0 80.1158 13.1435 1053 114.167 497.583 476.328
962 0 83.0745 12.7596 1060 114.327 498.004 475.062
963 0 86.1422 13.1759 1135 113.426 497.482 473.787
964 0 89.1365 12.2284 1090 114.726 497.952 472.65
965 0 92.0703 12.0886 1113 114.934 497.397 469.396
966 1 49.024 9.8931 485 115.233 498.047 489.847
967 0 51.1161 11.5619 591 111.374 498.073 488.455
968 0 52.0888 11.3652 592 113.818 498.188 487.027
969 0 55.0514 12.6609 697 109.529 497.667 486.76
970 0 57.1319 12.3924 708 110.424 497.881 485.435
971 0 59.1807 12.0985 716 108.925 497.257 486.683
972 0 60.2433 12.6985 765 109.678 497.063 484.62
973 0 62.2196 11.4594 713 112.302 497.555 483.624
974 0 66.17 13.3746 885 107.447 497.893 482.427
975 0 67.1439 12.6445 849 109.141 497.496 481.631
976 0 66.1643 12.741 843 111.386 497.528 478.472
977 0 70.3416 12.3398 868 111.262 498.592 479.725
978 0 73.1705 12.2864 899 112.191 497.848 478.308
979 0 75.2015 12.2338 920 112.996 497.84 476.705
980 0 79.1951 12.4629 987 113 497.475 475.649
981 0 82.2359 12.8533 1057 111.886 497.715 474.168
982 0 85.2117 11.9702 1020 114.118 498.009 471.941
983 0 89.2487 11.8097 1054 112.673 497.681 470.554
984 0 90.2535 13.1186 1184 107.479 497.867 467.421
985 0 93.1069 11.5781 1078 110.596 497.014 465.183
986 1 48.0181 12.4953 600 103.558 498.692 489.868
987 0 50.0858 12.3787 620 103.085 498.95 490.335
988 0 50.0504 12.7072 636 103.137 499.006 488.921
989 0 50.0483 11.8485 593 104.956 499.1 488.29
990 0 54.1426 12.1531 658 103.356 498.843 486.676
991 0 54.1471 11.6719 632 105.603 498.508 486.323
992 0 57.0628 11.8291 675 105.701 497.865 485.867
993 0 57.1402 12.1631 695 105.131 498.849 486.007
994 0 62.1676 12.1285 754 104.045 497.939 483.459
995 0 62.1803 11.1772 695 106.901 498.033 482.622
996 0 64.0509 12.3027 788 105.126 498.293 481.831
997 0 66.0754 12.8035 846 104.096 498.697 481.72
998 0 69.1133 12.9208 893 104.545 497.802 479.848
999 0 71.0823 12.3378 877 106.188 498.259 478.749
1000 0 73.103 12.8996 943 105.62 498.63 477.899
1001 0 76.07 12.988 988 105.951 497.792 475.081
1002 0 78.1173 13.2365 1034 105.78 497.779 475.487
1003 0 81.0938 13.6509 1107 105.005 498.79 473.865
1004 0 83.1696 12.721 1058 107.015 498.196 473.355
1005 0 85.0681 12.1902 1037 108.725 498.215 474.416
1006 0 89.2221 13.1582 1174 107.192 497.418 469.117
1007 0 93.1188 12.7794 1190 107.319 497.724 469.372
1008 0 95.1282 12.2151 1162 108.451 496.99 467.808
1009 1 50.03 11.1733 559 112.342 498.465 487.283
1010 0 54.1226 12.213 661 107.309 498.324 486.57
1011 0 55.1406 12.7492 703 106.683 497.55 485.89
1012 0 55.0707 12.4204 684 105.171 498.221 485.845
1013 0 57.0307 11.6779 666 107.113 498.207 486.222
1014 0 59.0955 12.4206 734 104.677 497.065 485.587
1015 0 62.1868 13.6042 846 102.416 498.064 484.593
1016 0 64.1064 13.2436 849 103.34 497.906 483.802
1017 0 65.1841 12.4877 814 106.09 498.016 481.398
1018 0 66.0995 13.1468 869 104.663 498.985 479.601
1019 0 70.1217 12.2929 862 106.299 498.984 478.001
1020 0 71.0756 12.6344 898 106.12 498.586 479.14
1021 0 74.146 13.1767 977 104.507 498.101 475.179
1022 0 76.143 13.0675 995 104.794 498.235 476.44
1023 0 80.0821 12.5122 1002 106.47 498.262 474.258
1024 0 82.099 12.9112 1060 106.08 498.584 474.132
1025 0 85.1083 12.631 1075 106.164 499.471 472.704
1026 0 88.0582 12.5826 1108 106.995 498.09 471.3
1027 0 91.1371 13.1341 1197 104.718 498.736 470.84
1028 0 95.1294 12.7826 1216 106.386 497.715 467.503
1029 0 98.1308 13.8183 1356 103.621 498.183 465.287
1030 1 52.0188 11.0345 574 111.07 499.075 485.918
1031 0 51.0758 9.84811 503 112.97 499.207 484.115
1032 0 52.1321 9.66775 504 101.367 498.927 479.998
1033 0 55.1076 11.1237 613 96.0995 498.124 481.316
1034 0 58.1002 10.7057 622 96.8006 498.061 479.736
1035 0 57.0701 11.0916 633 97.504 497.335 480.062
1036 0 59.121 11.5357 682 97.0235 497.367 478.597
1037 0 59.098 9.50963 562 101.973 498.148 476.246
1038 0 65.0722 12.7397 829 102.726 497.587 483.133
1039 0 65.0284 11.1182 723 108.213 496.813 482.068
1040 0 68.0612 13.0618 889 103.049 496.884 480.127
1041 0 72.1262 12.9218 932 103.074 497.572 478.57
1042 0 73.0447 12.5403 916 105.186 495.901 478.313
1043 0 75.0672 11.8161 887 106.232 497.023 478.68
1044 0 78.0662 12.5534 980 104.409 497.111 476.796
1045 0 80.0718 12.8635 1030 104.268 496.969 475.761
1046 0 84.0954 13.8414 1164 101.4 496.738 474.35
1047 0 86.1692 13.8448 1193 101.303 496.868 472.611
1048 0 88.2137 12.4924 1102 104.772 496.688 473.015
1049 0 91.1344 12.9589 1181 104.209 496.478 470.32
1050 0 96.3182 13.9953 1348 102.277 497.307 469.291
1051 1 51.1735 12.5846 644 105.963 496.568 488.295
1052 0 54.25 11.5023 624 100.327 496.301 484.447
1053 0 52.287 10.8249 566 102.237 496.555 483.689
1054 0 56.0907 11.107 623 99.8347 496.385 485.371
1055 0 56.1328 11.9182 669 99.3886 496.726 483.188
1056 0 58.1108 11.4781 667 100.522 496.603 483.48
1057 0 60.1222 11.0608 665 101.281 496.716 481.889
1058 0 59.1242 10.6724 631 103.151 497.027 479.235
1059 0 64.077 12.1572 779 99.5083 497.121 480.222
1060 0 65.1457 10.2079 665 104.481 496.752 479.066
1061 0 69.1502 12.0318 832 101.047 496.446 477.498
1062 0 71.113 11.9387 849 101.645 496.386 476.101
1063 0 74.2027 11.3069 839 103.234 496.554 475.791
1064 0 77.0727 11.1064 856 104.322 496.929 474.154
1065 0 80.1666 12.8482 1030 101.405 496.848 472.852
1066 0 84.2084 12.1128 1020 103.093 497.386 472.284
1067 0 88.1094 13.3698 1178 100.72 497.143 472.143
1068 0 90.1625 12.0893 1090 104.813 497.067 470.057
1069 0 91.1559 11.9904 1093 106.963 497.176 467.235
1070 0 95.1284 13.4765 1282 104.354 496.765 466.278
1071 1 50.0984 10.4195 522 102.569 497.743 489.831
1072 0 52.1345 11.7772 614 101.477 497.769 487.212
1073 0 54.095 12.6259 683 105.176 497.962 488.911
1074 0 56.0529 14.6826 823 104.462 497.94 487.654
1075 0 56.1853 13.9004 781 108.517 497.877 488.12
1076 0 59.0848 14.3692 849 106.614 497.707 488.121
1077 0 60.0471 13.1064 787 110.801 496.961 487.827
1078 0 62.0677 12.7603 792 111.458 497.196 486.169
1079 0 65.0688 14.1235 919 109.2 497.742 484.157
1080 0 67.0752 14.1632 950 108.924 497.154 484.015
1081 0 68.0505 13.7986 939 111.059 498.052 482.785
1082 0 72.0548 13.0873 943 112.257 497.518 481.992
1083 0 74.0491 14.6794 1087 109.14 496.959 479.643
1084 0 74.0959 13.415 994 113.293 496.878 479.059
1085 0 77.0703 13.0271 1004 114.335 497.367 478.773
1086 0 80.0708 14.6121 1170 110.621 497.077 475.055
1087 0 82.0472 13.7238 1126 113.194 496.845 475.178
1088 0 86.1406 13.6057 1172 113.247 497.613 473.686
1089 0 86.086 14.137 1217 113.175 497.072 473.076
1090 0 91.0957 13.7767 1255 112.354 497.586 471.257
1091 0 93.0865 12.3541 1150 121.383 497.343 467.574
1092 0 95.1 13.3333 1268 119.147 497.417 466.492
1093 0 98.1241 12.1988 1197 120.802 496.566 467.543
1094 0 102.163 12.1473 1241 121.163 496.068 463.488
1095 0 105.154 13.038 1371 117.435 495.798 462.292
1096 0 106.26 11.933 1268 115.088 496.882 458.849
1097 0 110.109 12.2061 1344 119.987 497.193 458.839
1098 0 114.145 12.7995 1461 114.21 496.064 456.979
1099 0 118.194 12.0902 1429 119.171 496.798 454.244
1100 0 121.222 12.1265 1470 118.014 496.546 451.882
1101 1 68.2293 12.6192 861 115.23 496.806 471.913
1102 0 70.0553 12.2903 861 116.101 496.267 477.508
1103 0 73.1251 13.7436 1005 110.896 496.557 474.914
1104 0 73.1017 12.4074 907 112.566 496.325 473.945
1105 0 76.0412 12.2434 931 112.97 496.91 472.024
1106 0 78.1289 12.7354 995 112.206 496.893 472.494
1107 0 81.0932 13.7126 1112 111.098 497.668 468.714
1108 0 85.0961 14.09 1199 110.298 496.65 468.077
1109 0 87.0887 12.8604 1120 113.325 497.061 468.954
1110 0 89.2125 12.8569 1147 113.889 496.64 466.446
1111 0 94.0551 14.2257 1338 109.339 496.351 465.377
1112 0 97.2247 14.4511 1405 108.912 496.957 462.674
1113 0 100.156 13.4091 1343 111.513 496.849 462.427
1114 0 102.109 14.3278 1463 109.424 496.902 461.424
1115 0 106.117 13.9751 1483 109.65 497.312 453.732
1116 0 110.107 14.5041 1597 107.58 496.266 449.594
1117 0 114.161 13.227 1510 109.726 496.242 448.765
1118 1 59.1811 12.3857 733 103.154 496.958 478.832
1119 0 62.0345 11.6548 723 106.154 497.183 481.759
1120 0 65.1156 11.3798 741 105.668 496.611 481
1121 0 66.1126 12.3728 818 104.785 497.141 480.795
1122 0 68.131 12.065 822 106.501 496.856 480.204
1123 0 69.101 12.4455 860 107.197 495.979 479.696
1124 0 73.1534 12.3029 900 107.93 496.436 478.876
1125 0 74.0528 11.3838 843 110.164 497.191 478.221
1126 0 76.0798 12.3949 943 109.253 497.672 476.034
1127 0 79.1136 13.5501 1072 107.965 496.909 474.073
1128 0 80.1721 11.9493 958 112.41 496.698 471.863
1129 0 84.124 12.4816 1050 112.056 496.776 469.262
1130 0 89.0979 12.9969 1158 110.886 496.874 469.097
1131 0 90.2359 13.8082 1246 110.795 496.579 468.774
1132 0 95.1969 13.782 1312 110.286 496.227 468.648
1133 0 98.0938 13.2118 1296 114.351 496.519 467.762
1134 0 102.199 13.4248 1372 113.339 495.95 466.177
1135 0 104.115 15.2812 1591 110.438 496.45 463.584
1136 0 108.196 12.385 1340 116.936 495.86 464.819
1137 0 110.102 13.5602 1493 116.214 496.054 460.961
1138 0 114.226 14.5939 1667 114.901 496.812 455.959
1139 0 118.185 14.1558 1673 115.99 496.317 455.599
1140 0 123.228 13.7469 1694 115.991 496.579 456.981
1141 0 127.229 12.6229 1606 118.939 496.817 453.212
1142 0 134.282 13.9631 1875 115.991 496.96 452.946
1143 0 138.198 12.5761 1738 121.543 495.97 448.524
1144 0 143.172 13.3964 1918 118.347 496.204 446.635
1145 1 79.1046 13.3368 1055 112.254 496.476 475.199
1146 0 83.1437 13.2902 1105 112.219 496.189 475.09
1147 0 86.0986 13.2523 1141 112.854 496.645 473.282
1148 0 88.2074 13.831 1220 112.762 496.373 470.167
1149 0 89.1198 12.8254 1143 116.08 496.351 469.623
1150 0 91.1586 12.3192 1123 117.766 495.885 466.774
1151 0 98.1447 13.3069 1306 114.198 496.316 466.349
1152 0 101.088 13.6713 1382 113.456 496.065 463.435
1153 0 103.171 13.5406 1397 113.321 496.15 462.431
1154 0 109.229 13.2748 1450 113.008 495.87 461.142
1155 0 112.344 13.699 1539 113.455 495.882 458.368
1156 0 114.087 13.6387 1556 112.891 496.181 458.436
1157 0 120.214 13.4677 1619 112.958 495.806 453.145
1158 0 125.154 14.1665 1773 110.617 495.338 452.07
1159 0 127.231 11.6953 1488 118.755 495.761 447.705
1160 0 135.387 13.8123 1870 113.894 495.205 441.058
1161 0 139.352 13.8355 1928 114.95 494.109 441.295
1162 0 144.554 13.7942 1994 115.7 494.544 439.38
1163 0 148.378 13.5937 2017 116.288 494.785 436.061
1164 1 80.3907 12.489 1004 114.183 494.526 468.756
1165 0 83.1891 12.153 1011 114.685 495.338 469.466
1166 0 85.2959 12.9432 1104 114.321 495.376 466.614
1167 0 88.4275 12.0325 1064 116.72 495.192 465.427
1168 0 91.6414 12.6144 1156 116.899 495.529 461.938
1169 0 94.4164 11.9259 1126 119.12 495.311 463.85
1170 0 98.4416 12.515 1232 118.562 495.08 462.062
1171 0 102.317 13.3702 1368 115.944 495.8 459.828
1172 0 103.23 11.5276 1190 120.545 495.41 462.001
1173 0 106.353 13.3518 1420 118.138 495.334 456.445
1174 0 109.319 12.8706 1407 119.925 495.451 454.166
1175 0 113.28 12.5618 1423 119.207 494.731 454.054
1176 0 119.229 12.9163 1540 119.125 494.141 451.616
1177 0 120.299 12.311 1481 121.448 495.325 449.772
1178 0 125.195 13.6587 1710 118.454 494.958 448.204
1179 0 131.256 12.8452 1686 120.814 493.988 446.867
1180 0 133.179 13.0275 1735 122.531 494.549 443.714
1181 0 139.208 13.196 1837 121.871 495.197 443.391
1182 0 143.127 13.9317 1994 121.664 494.97 440.064
1183 0 145.181 12.6532 1837 127.003 494.791 436.412
1184 0 152.273 13.1475 2002 121.676 495.45 436.359
1185 1 85.1568 12.5768 1071 118.542 495.093 466.97
1186 0 87.3295 12.5616 1097 122.91 495.386 462.725
1187 0 88.2732 12.6312 1115 122.083 495.121 459.807
1188 0 93.3391 12.31 1149 121.825 495.562 460.088
1189 0 96.2829 12.0478 1160 121.68 495.653 461.675
1190 0 99.3182 12.3844 1230 119.519 496.145 457.733
1191 0 102.202 11.4284 1168 123.072 495.58 457.896
1192 0 105.128 11.4812 1207 122.637 495.846 458.441
1193 0 109.184 13.143 1435 118.17 496.275 459.581
1194 0 113.121 13.8259 1564 116.565 496.605 457.751
1195 0 115.088 12.3818 1425 121.948 495.99 456.027
1196 0 120.181 13.3132 1600 120.602 495.501 454.218
1197 0 123.141 11.4828 1414 125.178 494.89 449.533
1198 0 127.11 11.9975 1525 124.073 494.705 447.525
1199 0 131.189 12.3029 1614 122.735 495.247 446.349
1200 0 138.102 12.8093 1769 121.891 495.046 444.864
1201 0 142.188 13.1445 1869 121.997 496.111 442.011
1202 0 147.388 13.6375 2010 121.107 496.104 439.707
1203 0 150.285 12.9953 1953 123.778 495.733 435.535
1204 0 155.334 12.6373 1963 125.466 495.572 433.866
1205 0 161.295 13.156 2122 124.861 495.367 431.324
1206 0 166.335 13.0039 2163 125.764 495.96 429.282
1207 0 171.403 13.2145 2265 126.857 495.896 425.605
1208 0 177.408 13.1448 2332 127.909 495.506 422.511
1209 0 184.38 13.6729 2521 127.104 495.082 418.909
1210 1 96.2576 10.046 967 124.816 495.61 463.703
1211 0 102.218 11.1038 1135 121.438 495.351 463.4
1212 0 105.208 11.2539 1184 117.36 495.979 459.882
1213 0 108.198 12.5418 1357 118.873 495.932 459.753
1214 0 114.176 12.8048 1462 118.391 495.568 456.759
1215 0 118.223 11.8421 1400 119.297 495.986 453.458
1216 0 123.284 11.4289 1409 120.045 495.505 451.554
1217 0 126.342 11.7855 1489 118.905 496.2 449.246
1218 0 131.259 11.9154 1564 118.957 495.875 446.115
1219 1 71.1616 11.0172 784 110.981 496.855 480.454
1220 0 73.1802 12.0388 881 111.389 496.271 477.474
1221 0 77.2289 11.9774 925 105.128 497.186 475.311
1222 0 77.1167 11.6706 900 106.58 497.377 477.09
1223 0 77.1167 11.6577 899 124.97 497.37 477.051
1224 0 83.2998 11.8488 987 107.114 496.853 472.415
1225 0 85.202 11.0913 945 110.556 496.395 470.757
1226 0 89.2449 11.8662 1059 108.189 496.804 468.967
1227 0 90.1662 11.867 1070 109.177 495.982 465.199
1228 0 95.1203 11.2489 1070 110.409 496.399 466.473
1229 0 95.1674 10.4763 997 114.135 496.81 463.586
1230 0 96.2799 9.5347 918 117.821 496.505 462.774
1231 0 101.153 10.6472 1077 113.426 496.591 464.083
1232 0 103.188 11.0478 1140 115.22 496.236 458.404
1233 0 106.18 11.5841 1230 115.082 495.833 457.543
1234 0 109.214 11.5461 1261 115.964 496.259 455.047
1235 0 114.308 12.8337 1467 113.329 495.947 452.791
1236 0 115.161 11.1496 1284 118.879 495.14 453.327
1237 0 121.238 11.5063 1395 117.66 494.656 451.781
1238 0 125.229 12.569 1574 115.482 495.428 451.439
1239 1 60.1797 10.236 616 114.938 497.216 486.031
1240 0 62.2065 11.4136 710 112.961 494.818 481.717
1241 0 65.2606 11.3085 738 113.089 496.31 482.341
1242 0 66.12 11.7362 776 112.515 496.951 481.745
1243 0 70.2262 11.5342 810 112.842 496.631 482.077
1244 0 71.2585 12.7002 905 110.571 496.262 480.297
1245 0 73.2313 12.3171 902 112.4 496.524 477.643
1246 0 76.2381 12.579 959 111.542 496.164 474.716
1247 0 77.263 12.451 962 112.326 496.339 475.997
1248 0 80.1892 13.3684 1072 109.512 496.533 474.602
1249 0 83.1758 12.8282 1067 110.955 496.465 472.473
1250 0 85.1723 12.5158 1066 112.096 495.961 471.75
1251 0 88.1465 13.6364 1202 110.047 495.841 470.011
1252 0 89.3323 12.4367 1111 113.527 495.843 467.725
1253 0 91.2529 12.5475 1145 114.719 496.364 466.174
1254 0 93.217 11.8862 1108 117.663 496.967 466.071
1255 0 96.2921 11.0082 1060 119.174 496.849 466.508
1256 0 101.217 12.6065 1276 116.432 495.985 462.875
1257 0 104.118 13.5327 1409 114.055 495.382 462.103
1258 0 106.301 12.8691 1368 117.874 495.762 459.581
1259 0 110.132 12.8845 1419 118.838 495.705 458.551
1260 0 112.292 12.7614 1433 119.514 495.854 457.307
1261 0 114.295 11.4878 1313 124.372 494.819 456.292
1262 0 120.27 12.1144 1457 121.86 495.108 453.806
1263 0 124.354 12.7379 1584 120.613 495.859 450.687
1264 0 128.407 11.4558 1471 123.869 495.646 449.842
1265 0 133.274 13.0558 1740 120.643 495.543 444.869
1266 0 139.516 13.1597 1836 121.379 495.272 444.246
1267 1 75.301 11.8723 894 119.232 495.566 475.756
1268 0 75.2516 10.5779 796 125.783 495.964 474.629
1269 0 81.2956 13.3095 1082 120.236 495.663 475.003
1270 0 84.3077 12.3476 1041 122.653 495.798 474.039
1271 0 86.3783 12.5726 1086 123.549 496.036 471.505
1272 0 88.4972 12.4976 1106 124.216 496.205 468.567
1273 0 91.3941 12.2656 1121 124.676 496.335 469.706
1274 0 93.4698 12.603 1178 124.751 497.007 464.49
1275 0 99.4625 13.7338 1366 120.004 496.681 463.827
1276 0 100.482 13.3655 1343 122.567 496.908 455.639
1277 0 104.426 12.8512 1342 123.774 495.939 454.285
1278 0 107.671 12.2224 1316 123.834 496.508 456.062
1279 0 110.15 11.2574 1240 120.84 496.944 461.837
1280 0 116.1 12.7994 1486 116.731 496.904 458.75
1281 0 118.224 12.5355 1482 116.846 495.91 450.882
1282 1 62.0395 11.0091 683 110.015 497.083 481.076
1283 0 64.1257 10.6354 682 111.045 496.345 479.331
1284 0 66.232 10.8709 720 111.643 496.357 478.404
1285 0 70.4321 11.5714 815 109.471 495.865 476.606
1286 0 71.2238 11.513 820 110.939 496.046 473.578
1287 0 73.4523 11.4224 839 113.373 495.385 470.919
1288 0 75.2115 11.3015 850 113.835 495.987 470.614
1289 0 78.255 11.3475 888 115.009 495.408 471.1
1290 0 80.283 11.8456 951 114.391 496.607 470.894
1291 0 81.2359 12.2729 997 114.144 495.591 471.101
1292 0 85.413 12.8435 1097 114.1 494.867 465.946
1293 0 86.4942 11.388 985 117.743 495.652 464.151
1294 0 90.5145 12.2522 1109 116.051 494.709 462.902
1295 0 92.3595 11.282 1042 118.752 495.715 463.713
1296 0 95.3715 12.4356 1186 116.497 495.278 460.33
1297 0 101.5 12.4827 1267 115.091 495.106 458.864
1298 1 52.3213 11.3911 596 112.153 494.737 483.693
1299 0 52.1391 10.1459 529 115.282 495.236 482.885
1300 0 55.2414 11.2416 621 112.343 495.026 480.172
1301 0 58.2585 13.4744 785 105.873 495.916 481.838
1302 0 60.0424 10.9256 656 110.605 495.707 483.793
1303 0 61.1356 11.6135 710 110.248 496.831 481.889
1304 0 62.1035 11.658 724 111.459 496.86 480.837
1305 0 65.1158 12.7926 833 109.054 497.02 480.837
1306 0 67.0605 12.8242 860 109.131 496.815 478.764
1307 0 70.164 12.7843 897 107.787 496.598 479.423
1308 0 71.1374 13.003 925 108.379 496.645 476.373
1309 0 73.0492 13.046 953 108.126 496.405 478.39
1310 0 75.0847 12.7456 957 109.527 495.944 477.564
1311 0 78.08 14.3443 1120 107.166 496.616 473.978
1312 0 79.1391 12.636 1000 111.957 496.132 472.199
1313 0 84.176 13.3767 1126 108.556 496.909 471.908
1314 0 85.2246 14.0452 1197 108.688 496.789 468.82
1315 0 89.1388 13.6192 1214 109.964 496.701 468.678
1316 0 92.2217 14.3242 1321 108.31 497.236 467.394
1317 0 93.2597 13.264 1237 111.76 496.882 466.199
1318 0 97.2263 13.9366 1355 110.293 496.472 461.259
1319 0 98.2115 13.1858 1295 113.978 495.839 460.235
1320 0 102.314 13.5173 1383 114.882 496.45 458.54
1321 0 103.289 13.3413 1378 119.499 495.606 460.78
1322 0 105.247 14.2807 1503 119.039 495.63 458.996
1323 0 108.212 13.9726 1512 120.259 495.954 459.306
1324 0 110.181 13.269 1462 123.993 495.901 456.176
1325 1 60.1988 12.0268 724 113.789 496.438 479.855
1326 0 61.0991 11.9969 733 115.443 496.765 484.694
1327 0 62.1441 14.2733 887 111.493 495.528 482.032
1328 0 63.1646 12.9028 815 115.029 495.73 482.834
1329 0 64.0321 13.1965 845 115.585 495.354 480.47
1330 0 67.0622 12.6002 845 116.04 495.756 479.392
1331 0 71.1042 11.8558 843 117.063 495.167 479.818
1332 0 71.04 12.5985 895 116.924 496.126 476.41
1333 0 73.1069 13.1314 960 116.514 495.694 475.06
1334 0 78.1305 12.5687 982 115.809 496.168 476.723
1335 0 81.0831 13.3073 1079 114.552 494.83 474.942
1336 0 81.0429 12.7957 1037 117.203 494.862 472.367
1337 0 85.0904 12.4926 1063 118.219 495.585 472.067
1338 0 87.1317 12.9115 1125 117.163 495.231 469.911
1339 0 89.0598 13.025 1160 117.652 494.449 468.091
1340 0 91.057 13.6069 1239 116.892 494.901 468.662
1341 0 91.0958 12.2399 1115 121.387 495.379 465.686
1342 0 95.0797 13.4414 1278 118.669 495.608 466.525
1343 0 95.1068 12.5964 1198 122.2 495.645 466.639
1344 0 98.1056 13.0676 1282 120.397 495.646 464.99
1345 0 99.1153 13.7012 1358 119.859 495.733 463.49
1346 0 100.106 12.6466 1266 122.648 496.024 462.419
1347 0 102.152 13.0688 1335 121.819 496.103 459.963
1348 0 104.192 13.2543 1381 120.602 496.711 463.407
1349 0 108.146 13.2414 1432 121.017 495.897 459.897
1350 0 107.185 12.595 1350 122.936 495.914 460.22
1351 0 109.108 12.7214 1388 122.685 496.377 459.478
1352 0 111.089 12.6925 1410 123.342 495.94 460.071
1353 0 110.039 12.841 1413 123.928 495.709 457.672
1354 0 114.206 13.9222 1590 122.861 496.495 456.408
1355 0 113.161 12.522 1417 127.748 496.031 456.071
1356 0 116.161 13.5846 1578 124.861 495.745 454.293
1357 0 118.129 12.8673 1520 124.278 496.206 452.031
1358 0 119.236 12.0685 1439 125.545 496.501 452.944
1359 0 120.199 13.2447 1592 123.396 495.094 452.212
1360 0 122.088 14.0473 1715 121.883 494.718 452.323
1361 0 120.107 12.4972 1501 125.06 494.965 451.728
1362 0 123.156 13.422 1653 122.53 494.492 450.443
1363 0 124.172 14.4718 1797 119.179 494.77 450.115
1364 0 124.3 12.6709 1575 124.498 495.001 451.85
1365 0 125.161 13.0232 1630 124.079 494.785 449.377
1366 0 128.179 13.8166 1771 121.247 494.908 449.819
1367 0 127.262 13.3897 1704 123.21 495.208 447.785
1368 0 129.142 13.6129 1758 122.174 495.195 447.548
1369 0 130.159 12.7229 1656 124.535 494.807 448.971
1370 0 132.126 13.6007 1797 121.1 495.511 448.552
1371 0 131.125 12.1716 1596 125.598 495.593 446.804
1372 0 132.268 13.2005 1746 122.611 495.128 447.972
1373 0 133.151 13.3457 1777 126.097 495.648 446.548
1374 0 133.209 13.5276 1802 127.014 495.344 446.047
1375 0 134.276 12.8094 1720 127.564 495.24 444.377
1376 0 133.156 12.8346 1709 126.449 495.329 444.968
1377 0 136.248 13.4461 1832 123.911 495.841 446.446
1378 0 136.23 13.0368 1776 124.493 495.042 445.884
1379 0 135.203 12.8622 1739 126.448 495.137 444.149
1380 0 137.277 14.2704 1959 121.376 495.416 443.232
1381 0 137.281 14.0005 1922 122.58 495.148 443.957
1382 0 139.279 14.1515 1971 120.914 495.78 445.843
1383 0 139.301 13.137 1830 123.228 495.176 447.089
1384 0 140.287 14.3278 2010 120.305 495.275 443.189
1385 0 140.257 13.8817 1947 120.234 496.058 444.538
1386 0 140.257 13.9245 1953 153.291 497.056 444.614
1387 0 140.346 13.0179 1827 121.528 495.556 445.458
1388 0 141.249 13.7842 1947 118.915 496.897 442.762
1389 0 141.295 13.7089 1937 119.562 496.455 442.488
1390 0 141.355 13.2503 1873 119.349 496.529 444.454
1391 0 141.25 13.7983 1949 117.178 495.726 440.676
1392 0 141.219 12.3496 1744 119.962 495.9 444.022
1393 0 141.201 13.1585 1858 117.925 495.958 442.995
1394 0 144.192 14.5293 2095 114.313 495.959 443.23
1395 0 144.213 13.591 1960 115.181 495.752 444.368
1396 0 144.237 13.2352 1909 115.256 496.014 442.86
1397 0 145.184 13.6585 1983 114.663 495.65 441.009
1398 0 144.29 13.161 1899 114.918 495.827 441.362
1399 0 145.154 14.0816 2044 111.827 495.405 441.759
1400 0 144.1 13.1367 1893 114.455 495.72 439.673
1401 0 143.218 12.5194 1793 115.407 495.519 439.686
1402 0 146.227 14.7989 2164 108.797 496.091 441.925
1403 0 147.17 14.541 2140 108.987 496.284 439.007
1404 0 145.272 12.8655 1869 113.888 495.278 435.755
1405 0 146.174 14.2843 2088 109.475 494.694 438.84
1406 0 147.133 13.3961 1971 110.865 495.398 439.124
1407 0 147.149 13.4014 1972 110.38 494.52 439.073
1408 0 146.188 14.1803 2073 109.246 495.25 436.772
1409 0 147.222 13.6732 2013 109.931 495.175 437.341
1410 0 147.166 14.0386 2066 108.732 494.657 440.076
1411 0 150.161 13.7253 2061 108.843 495.236 438.41
1412 0 147.16 13.3188 1960 109.689 495.11 438.761
1413 0 149.317 14.0171 2093 108.398 494.722 436.592
1414 0 149.149 13.9391 2079 108.888 494.707 434.748
1415 0 148.15 13.0341 1931 110.395 495.03 433.349
1416 0 150.153 13.9258 2091 106.794 495.012 437.313
1417 0 149.215 13.7788 2056 108.078 495.114 434.66
1418 0 150.18 13.0909 1966 108.748 494.899 437.16
1419 0 152.339 14.1986 2163 106.296 494.45 434.508
1420 0 149.12 13.1103 1955 109.339 494.501 433.781
1421 0 153.295 13.4707 2065 107.275 494.662 435.028
1422 0 152.182 14.0884 2144 106.457 495.153 433.794
1423 0 152.294 13.5987 2071 106.117 495.415 436.279
1424 0 152.145 14.0064 2131 104.789 495.061 433.158
1425 0 154.152 14.5506 2243 102.988 495.955 433.391
1426 0 152.247 13.1825 2007 106.435 496.486 430.881
1427 0 150.341 11.281 1696 110.09 495.244 431.016
1428 0 155.269 13.9242 2162 103.239 496.451 433.275
1429 0 152.138 12.6595 1926 106.667 495.69 430.893
1430 0 154.154 13.3568 2059 104.763 495.98 432.623
1431 0 155.19 14.1117 2190 103.305 496.099 430.94
1432 0 153.125 13.12 2009 105.973 495.74 431.222
1433 0 155.17 12.6893 1969 105.326 495.318 432.326
1434 0 154.234 12.5265 1932 106.154 495.753 432.146
1435 0 155.211 13.5622 2105 103.344 496.079 433.119
1436 0 157.247 14.2896 2247 101.818 495.707 432.167
1437 0 159.203 14.0952 2244 103.557 495.999 432.517
1438 0 157.203 13.912 2187 101.582 495.662 425.038
1439 0 157.196 13.9826 2198 103.926 495.338 423.29
1440 0 157.162 12.4776 1961 104.065 495.684 426.313
1441 0 152.15 12.6125 1919 101.329 495.394 424.921
1442 0 153.138 14.8363 2272 98.7399 495.677 422.786
1443 0 153.12 13.1073 2007 102.84 496.283 422.98
1444 0 158.241 13.1192 2076 104.064 496.477 428.832
1445 0 154.202 12.542 1934 101.44 495.923 429.195
1446 0 155.162 13.618 2113 100.915 495.418 424.31
1447 0 155.298 13.8766 2155 101.227 495.705 423.813
1448 0 156.132 13.0979 2045 105.585 495.557 424.957
1449 0 154.301 13.6163 2101 101.296 494.82 424.743
1450 0 156.384 14.5475 2275 100.065 495.477 425.607
1451 0 155.255 13.9963 2173 100.346 495.977 430.192
1452 0 156.289 13.1615 2057 102.261 495.11 428.664
1453 0 158.277 12.7182 2013 102.935 495.783 426.823
1454 0 159.392 13.6017 2168 100.96 495.154 429.487
1455 0 157.181 15.4345 2426 97.1702 494.912 430.135
1456 0 155.181 12.3146 1911 103.898 495.549 430.425
1457 0 158.298 14.4285 2284 99.4111 495 429.662
1458 0 157.411 13.7221 2160 101.145 494.666 427.249
1459 0 159.303 13.8353 2204 101.746 494.267 428.499
1460 0 159.502 14.119 2252 100.527 494.127 429.665
1461 0 159.361 14.6774 2339 100.44 494.758 430.745
1462 0 159.256 12.3512 1967 101.666 494.822 428.446
1463 0 163.286 13.5958 2220 101.412 495.34 425.573
1464 0 164.292 13.9994 2300 99.5578 494.74 424.751
1465 0 164.358 13.0691 2148 101.27 494.136 425.355
1466 0 164.313 14.9106 2450 97.9359 493.841 423.56
1467 0 164.263 13.2288 2173 101.58 493.986 423.982
1468 0 161.332 13.4381 2168 100.942 494.627 429.925
1469 0 164.265 14.2148 2335 98.7079 494.727 429.753
1470 0 164.373 14.5522 2392 98.5142 494.327 425.763
1471 0 163.269 13.6707 2232 99.6187 494.929 429.508
1472 0 162.317 12.3215 2000 101.921 495.094 428.075
1473 0 162.41 13.4105 2178 99.6217 494.765 429.127
