time division length width area intensity CMx CMy
0 0 28.0143 11.3157 317 152.426 202.924 487.991
1 0 31.0134 11.4467 355 148.684 201.251 487.8
2 0 32.0426 12.9827 416 142.889 202.041 487.279
3 0 33.0364 12.7435 421 140.302 202.192 487.777
4 0 33.047 12.8 423 139.846 201.064 486.641
5 0 33.0212 13.1128 433 138.316 203.406 486.988
6 0 33.1357 12.3432 409 139.244 203.318 489.066
7 0 32.021 11.9609 383 139.044 202.862 488.749
8 0 35.0453 12.2413 429 136.212 202.002 489.305
9 0 35.0096 12.6822 444 137.901 202.284 487.764
10 0 36.0585 10.9822 396 142.035 201.088 488.313
11 0 37.0787 12.1363 450 138.724 201.849 488.193
12 0 37.0667 12.5719 466 137.622 201.058 487.856
13 0 36.0556 12.6471 456 141.327 200.75 485.991
14 0 37.0373 11.8529 439 145.087 201.271 487.56
15 0 41.0755 13.5117 555 135.119 201.169 486.31
16 0 43.0309 13.7343 591 134.218 200.997 486.536
17 0 45.0445 13.2758 598 134.206 201.097 485.988
18 0 45.0307 13.1466 592 137.554 200.623 484.926
19 0 45.1407 13.0481 589 140.526 201.131 484.851
20 0 47.0368 13.3513 628 136.225 200.126 484.435
21 0 48.0585 13.4212 645 136.722 200.225 483.495
22 0 50.0591 13.7837 690 135.178 199.903 483.88
23 0 52.13 13.7349 716 133.658 200.103 484.895
24 0 52.1376 12.6972 662 137.39 199.172 483.224
25 0 55.1109 13.1916 727 133.795 199.004 483.629
26 0 57.075 14.2094 811 130.123 199.725 482.201
27 0 59.0812 14.844 877 127.309 199.972 481.314
28 0 59.0333 13.7888 814 131.817 199.028 479.737
29 0 63.0752 13.4284 847 130.423 199.447 480.279
30 0 65.1307 13.7416 895 128.956 198.793 478.779
31 0 68.0732 16.0416 1092 121.398 198.403 476.423
32 0 70.0692 14.6141 1024 124.317 198.254 477.486
33 0 71.09 14.9388 1062 124.984 198.899 474.067
34 0 74.1564 14.1997 1053 125.169 198.192 474.468
35 0 77.0258 14.7094 1133 123.691 198.77 473.154
36 0 80.1108 14.7046 1178 122.084 198.514 471.765
37 0 83.1369 14.2656 1186 122.556 198.457 471.89
38 0 87.0437 14.5559 1267 122.857 198.076 467.54
39 0 88.1106 14.0959 1242 125.24 198.687 465.411
40 0 92.147 13.9017 1281 124.65 198.171 464.719
41 1 49.0918 13.4646 661 125.398 198.014 484.576
42 0 51.0338 13.932 711 123.145 197.81 485.098
43 0 52.0746 12.9046 672 127.418 198.28 483.134
44 0 55.0986 13.3034 733 123.42 198.202 482.909
45 0 54.0901 13.1447 711 125.056 197.771 480.969
46 0 58.1202 13.1107 762 123.257 197.718 480.937
47 0 60.1989 13.0069 783 124.036 198.14 479.413
48 0 63.0483 14.2272 897 118.484 197.507 480.604
49 0 67.0536 12.7361 854 122.2 196.896 478.86
50 0 66.1097 13.7045 906 121.682 196.87 478.26
51 0 70.1354 14.5433 1020 118.475 197.737 478.084
52 0 72.0595 13.2668 956 122.629 197.099 475.9
53 0 75.1014 13.6083 1022 121.084 197.386 472.623
54 0 79.0494 13.5232 1069 120.669 196.888 473.534
55 0 82.172 14.494 1191 119.289 197.134 470.966
56 1 43.1055 12.1794 525 117.267 197.678 491.598
57 0 45.0584 11.4074 514 116.125 196.216 491.695
58 0 47.0697 14.2767 672 113.359 196.94 489.976
59 0 45.1019 12.0394 543 114.228 197.626 488.867
60 0 47.0359 11.8208 556 114.46 197.538 489.317
61 0 49.1039 12.1172 595 113.261 197.635 489.793
62 0 50.035 12.5912 630 113.198 197.019 488.025
63 0 53.0447 12.9325 686 111.98 196.251 488.07
64 0 53.0484 12.8939 684 113.211 196.98 486.497
65 0 55.0658 12.2762 676 114.16 197.325 486.744
66 0 59.0591 13.4272 793 111.897 196.448 484.83
67 0 63.1165 13.2295 835 115.186 196.511 483.316
68 0 62.0702 13.5008 838 116.047 196.592 481.353
69 0 63.0903 12.7436 804 114.617 195.752 480.928
70 0 68.0446 13.6528 929 110.294 196.322 480.382
71 0 69.0876 13.1572 909 112.579 195.937 479.622
72 0 71.0458 11.8656 843 116.999 195.514 477.896
73 0 73.0638 12.2769 897 115.108 196.492 478.457
74 0 76.1217 12.4143 945 115.329 197.203 476.854
75 1 40.0687 11.8047 473 111.696 196.774 493.351
76 0 41.0379 11.3554 466 113.826 196.732 494.133
77 0 41.0624 11.5677 475 112.046 196.829 494.029
78 0 42.0436 11.4167 480 113.4 196.86 492.827
79 0 43.0735 11.5152 496 115.095 197.004 493.746
80 0 45.0329 13.1015 590 112.412 196.934 492.295
81 0 46.0282 13.2093 608 113.454 196.612 491.447
82 0 48.0201 12.5572 603 114.297 197.3 490.93
83 0 50.1128 12.5517 629 114.97 196.649 490.261
84 0 50.0171 12.4557 623 117.382 197.124 487.966
85 0 51.0407 11.7749 601 119.087 196.531 488.374
86 0 54.025 13.2531 716 115.11 195.932 487.145
87 0 55.0227 11.8497 652 119.374 196.081 488.175
88 0 58.0532 12.3507 717 118.651 195.328 485.838
89 0 59.1012 11.4042 674 121.95 195.23 483.702
90 0 63.0527 12.9098 814 117.598 195.694 484.319
91 0 65.1235 12.9293 842 119.274 195.964 483.378
92 0 67.1101 14.5135 974 117.548 194.835 480.831
93 0 69.1303 13.8868 960 123.431 195.384 479.874
94 0 70.1021 13.1237 920 125.226 195.042 478.625
95 0 76.0866 14.0892 1072 121.51 194.644 477.319
96 0 76.1837 12.6799 966 125.676 194.575 476.163
97 0 80.1642 12.9609 1039 124.22 194.931 475.691
98 0 83.0643 13.6882 1137 121.266 194.436 474.83
99 0 86.1695 13.6707 1178 120.954 194.828 472.579
100 0 85.0322 11.9367 1015 125.665 194.363 468.961
101 0 90.1096 11.7634 1060 123.858 194.714 469.186
102 0 92.0689 12.0996 1114 123.233 195.157 470.198
103 0 96.2026 12.4841 1201 122.925 195.184 464.873
104 1 52.0766 12.0592 628 118.992 194.715 488.39
105 0 54.2127 12.6539 686 116.716 195.675 483.08
106 0 55.066 12.0946 666 117.836 194.886 487.544
107 0 55.0251 11.7401 646 113.31 194.836 486.316
108 0 58.1402 12.573 731 109.826 195.094 488.011
109 0 58.0888 11.2931 656 113.695 194.576 487.425
110 0 62.0504 12.0547 748 112.611 194.305 483.731
111 0 65.1205 11.855 772 110.768 195.308 482.618
112 0 66.1087 11.6929 773 112.058 195.613 480.41
113 0 68.0783 11.2518 766 112.251 195.364 480.965
114 0 70.0998 10.6848 749 113.656 195.342 479.318
115 0 74.0746 11.4344 847 112.476 195.491 477.314
116 0 77.0691 12.0152 926 111.294 195.178 474.781
117 0 80.1135 12.4948 1001 109.94 195.475 473.779
118 0 82.0853 11.6464 956 112.951 195.736 474.565
119 0 85.068 11.8611 1009 113.273 195.357 473.373
120 0 89.092 10.9774 978 116.255 195.647 471.25
121 0 92.2116 12.0918 1115 114.984 195.495 468.707
122 0 94.1864 10.7128 1009 118.108 195.384 468.5
123 0 99.1417 11.539 1144 118.403 196.152 465.702
124 0 102.181 11.4307 1168 121.326 194.836 461.078
125 1 53.1291 10.7286 570 111.674 194.87 484.526
126 0 56.0442 11.598 650 115.715 193.769 485.734
127 0 57.0283 11.8888 678 109.423 194.954 484.42
128 0 58.0567 12.2811 713 110.332 195.647 484.714
129 0 59.1335 10.823 640 114.466 195.802 484.556
130 0 61.0939 12.2271 747 111.033 195.693 482.289
131 0 65.0868 11.477 747 112.549 195.261 483.489
132 0 67.0819 11.1207 746 114.773 194.881 480.885
133 0 69.1328 11.8757 821 114.939 195.223 478.328
134 0 71.0542 12.5256 890 114.391 194.425 477.352
135 0 74.1228 12.8031 949 113.783 195.002 478.863
136 0 77.1704 15.848 1223 78.7032 194.634 476.868
137 0 77.0389 11.7473 905 121.168 194.699 473.106
138 0 83.2171 12.4854 1039 117.731 195.154 473.403
139 0 85.2164 12.5211 1067 119.345 194.476 472.643
140 0 88.1747 12.4752 1100 120.863 194.812 471.29
141 1 44.0938 9.97872 440 122.7 195.214 492.493
142 0 44.1203 10.494 463 123.525 194.702 491.181
143 0 47.1324 10.3962 490 123.388 195.235 489.19
144 0 48.1598 11.2334 541 121.651 195.159 488.786
145 0 48.0753 12.0644 580 121.145 195.631 488.433
146 0 47.0525 10.1164 476 122.702 195.468 490.284
147 0 50.06 12.1055 606 117.074 194.246 489.256
148 0 52.0319 11.0701 576 118.601 194.889 490.028
149 0 52.0526 11.2963 588 118.811 195.26 488.548
150 0 54.0541 11.766 636 119.008 194.642 486.476
151 0 56.105 12.0667 677 117.6 194.734 486.148
152 0 58.0538 12.4712 724 116.699 194.492 484.294
153 0 56.0379 11.0282 618 123.005 195.604 484.636
154 0 63.1188 12.8488 811 116.174 196.053 483.377
155 0 62.0923 11.7728 731 120.777 195.308 482.435
156 0 67.1169 12.4559 836 117.609 196.269 482.417
157 0 69.0823 13.9399 963 114.114 195.707 481.097
158 0 68.075 12.736 867 119.985 195.755 478.284
159 0 73.1772 13.5151 989 116.422 195.454 477.252
160 0 75.1067 12.9815 975 118.059 195.462 477.027
161 0 76.0661 12.7258 968 118.748 196.437 476.334
162 0 78.1338 12.2994 961 119.984 195.493 474.399
163 0 82.0811 13.3283 1094 117.233 195.251 472.467
164 0 85.1766 14.0531 1197 116.343 195.346 469.93
165 0 88.159 15.0977 1331 113.694 195.163 469.391
166 0 90.1233 13.4926 1216 116.608 194.595 468.213
167 0 93.1626 13.4174 1250 115.655 194.778 464.874
168 1 48.0788 11.0652 532 113.633 195.336 485.679
169 0 51.0394 12.363 631 101.618 195 481.444
170 0 50.0676 9.94655 498 106.831 195.249 488.456
171 0 50.156 10.8262 543 112.624 195.175 488.002
172 0 54.1167 13.2491 717 105.59 195.124 485.358
173 0 57.1059 11.8376 676 107.905 195.933 486.092
174 0 59.2577 12.1334 719 106.234 195.488 483.362
175 0 60.0484 11.7905 708 106.78 195.72 484.027
176 0 64.2126 12.3808 795 105.756 195.391 481.989
177 0 66.1384 11.8993 787 107.019 195.498 480.607
178 0 66.1615 11.1848 740 109.192 195.358 479.72
179 0 70.153 12.7151 892 105.24 195.787 478.473
180 0 73.1853 12.8168 938 105.087 195.549 477.64
181 0 75.1762 12.9163 971 105.261 195.451 476.898
182 0 78.2417 13.9056 1088 103.386 195.39 474.117
183 0 79.0475 13.1313 1038 108.756 194.013 472.474
184 0 83.0739 13.3255 1107 109.246 193.424 470.251
185 0 87.0656 13.4726 1173 108.514 193.747 470.13
186 1 44.0127 10.4288 459 111.773 193.946 492.203
187 0 43.019 10.2745 442 115.568 195.613 490.851
188 0 48.0554 11.7781 566 109.862 195.986 491.601
189 0 49.0952 12.2211 600 109.572 195.163 489.807
190 0 50.0168 11.6961 585 111.224 193.781 490.191
191 0 52.0365 11.9532 622 106.666 194.449 489.031
192 0 54.0309 12.6779 685 104.866 194.146 488.69
193 0 54.0499 11.1749 604 109.894 194.642 486.952
194 0 54.071 11.4294 618 111.387 194.65 486.764
195 0 55.0604 11.1696 615 112.989 194.94 486.35
196 0 56.0332 11.0113 617 114.585 194.93 484.601
197 0 60.0349 11.7432 705 111.803 195.101 485.108
198 0 62.0671 11.4876 713 113.698 195.104 484.418
199 0 64.1324 11.6634 748 113.975 194.733 483.09
200 0 67.1695 12.8779 865 110.903 194.637 481.564
201 0 68.0338 11.1709 760 115.012 194.346 482.866
202 0 72.0795 12.3336 889 111.894 194.121 481.238
203 0 74.0182 11.3215 838 113.401 195.036 480.643
204 0 78.0547 13.1318 1025 110.202 194.585 475.478
205 0 80.0325 12.5449 1004 113.245 195.305 475.027
206 0 82.1434 12.0521 990 114.229 194.444 475.096
207 0 85.0754 12.6006 1072 112.452 193.945 472.092
208 0 87.0753 11.8518 1032 114.026 194.29 472.362
209 1 46.0441 11.4673 528 112.527 193.856 491.674
210 0 46.0333 10.6227 489 117.519 193.348 492.129
211 0 49.0398 12.5408 615 115.348 194.15 488.795
212 0 52.0712 13.059 680 111.407 193.863 488.135
213 0 51.0207 10.9955 561 109.471 194.31 489.401
214 0 51.0547 11.4779 586 108.747 194.896 489.108
215 0 54.0411 11.7318 634 108.014 193.954 487.468
216 0 56.1286 12.703 713 105.303 194.662 487.303
217 0 58.0953 13.4951 784 103.554 194.601 485.115
218 0 60.0916 13.3297 801 104.185 195.081 482.995
219 0 61.1367 11.6133 710 109.461 194.025 483.014
220 0 64.0936 12.9654 831 106.44 194.195 482.629
221 0 65.1099 12.6862 826 107.324 194.844 482.091
222 0 68.0942 12.9086 879 107.422 194.65 479.976
223 0 70.062 13.2026 925 106.735 194.884 478.632
224 0 71.0415 12.7109 903 109.011 195.437 478.441
225 0 75.1283 12.9512 973 109.222 195.254 476.826
226 0 75.1333 12.6575 951 112.063 195.485 474.919
227 0 81.1072 13.5623 1100 110.381 195.096 473.952
228 0 84.2199 13.4885 1136 112.943 194.983 472.533
229 0 86.2006 14.4779 1248 112.532 195.252 469.962
230 1 42.0644 11.2922 475 114.493 196.421 492.491
231 0 47.085 12.6367 595 109.911 195.341 491.765
232 0 47.0703 12.322 580 113.476 194.947 490.972
233 0 51.034 13.2853 678 105.938 195.276 490.553
234 0 51.0516 11.6941 597 111.166 196.801 490.779
235 0 51.1575 12.4908 639 110.394 196.696 489.421
236 0 55.1141 12.6828 699 109.398 195.878 489.074
237 0 56.0564 12.4874 700 110.899 196.399 487.967
238 0 57.0592 12.4432 710 110.561 196.365 487.17
239 0 60.0773 14.0319 843 106.796 195.716 485.781
240 0 58.0557 12.2813 713 114.414 195.398 484.865
241 0 63.1269 12.6887 801 112.422 195.542 482.782
242 0 66.069 12.9259 854 110.303 195.252 481.866
243 0 66.0941 11.6047 767 114.432 195.286 480.507
244 0 69.1202 13.4548 930 109.857 195.701 481.347
245 0 73.1392 12.8522 940 113.187 195.159 479.362
246 0 75.1336 13.4827 1013 113.461 195.37 478.408
247 0 77.137 13.3529 1030 117.047 195.523 475.444
248 1 37.0516 9.20338 341 116.997 195.757 496.05
249 0 37.0516 9.20338 341 156.126 194.733 496.076
250 0 41.046 12.2789 504 111.083 195.946 493.8
251 0 41.0154 12.1418 498 111.968 196.347 492.735
252 0 45.0401 12.1891 549 109.566 196.226 492.067
253 0 45.0836 11.2901 509 113.965 196.206 491.206
254 0 47.0539 12.3263 580 109.419 195.247 492.474
255 0 47.0397 12.6701 596 111.312 196.326 488.732
256 0 48.1566 11.8156 569 113.469 196.093 489.685
257 0 50.0259 12.2337 612 112.954 195.485 487.498
258 0 53.083 11.9812 636 112.61 195.459 487.662
259 0 52.0413 11.2219 584 115.363 195.916 487.534
260 0 56.1495 13.6065 764 109.48 195.707 486.713
261 0 59.1751 13.2657 785 109.959 195.918 485.15
262 0 58.0689 12.3991 720 114.072 195.707 484.061
263 0 61.0954 12.5869 769 113.9 195.905 483.1
264 0 62.1051 12.2856 763 116.017 195.906 481.723
265 0 64.0658 12.8462 823 116.508 195.763 481.205
266 0 65.0495 13.2822 864 116.684 195.586 478.582
267 0 68.1126 12.9051 879 117.29 196.39 479.02
268 0 70.0829 12.8705 902 118.051 195.634 477.355
269 0 71.0472 12.5269 890 118.126 195.844 478.7
270 0 76.1198 13.0058 990 117.516 195.648 475.585
271 0 77.0963 12.3093 949 120.626 195.196 473.506
272 0 78.1 12.1895 952 122.296 195.66 471.658
273 1 45.3198 11.6064 526 119.584 194.595 487.464
274 0 46.2073 11.3186 523 121.294 193.968 486.153
275 0 46.015 12.8436 591 118.897 195.763 489.315
276 0 45.0659 10.5623 476 118.09 196.162 485.216
277 0 46.0552 11.6599 537 115.302 195.577 484.026
278 0 47.0776 11.5979 546 88.7949 195.337 484.386
279 0 49.072 11.0246 541 116.148 194.129 490.015
280 0 52.0231 11.8217 615 117.735 194.361 487.696
281 0 53.0783 12.5663 667 115.711 194.042 487.759
282 0 55.0596 12.2958 677 116.771 193.789 485.872
283 0 56.0982 12.7633 716 115.732 194.862 485.314
284 0 56.1514 11.9855 673 118.957 194.226 483.672
285 0 58.1155 12.1654 707 118.365 194.83 484.003
286 0 62.1273 12.4422 773 118.771 194.16 483.228
287 0 62.0601 13.2613 823 118.587 194.767 481.352
288 0 65.0693 12.3561 804 120.336 194.398 480.927
289 0 67.1372 13.4352 902 117.358 193.816 480.237
290 0 68.0832 12.2644 835 120.314 194.697 477.641
291 0 71.187 11.7718 838 120.971 194.399 477.6
292 0 74.1628 13.0524 968 118.162 194.063 476.573
293 0 77.1059 14.1364 1090 116.017 194.638 475.157
294 0 79.0583 13.4078 1060 118.221 194.292 473.253
295 0 82.1069 12.1427 997 120.415 194.267 472.868
296 0 84.0868 12.4514 1047 120.184 194.501 471.604
297 1 46.0276 11.3627 523 114.786 194.876 492.094
298 0 47.0947 12.2519 577 113.369 195.461 489.3
299 0 50.0844 10.9016 546 116.423 195.452 489.952
300 0 52.1801 12.936 675 111.44 194.917 488.855
301 0 52.0436 12.4127 646 114.071 194.995 488.336
302 0 53.0573 13.7964 732 111.475 195.5 486.518
303 0 54.0361 11.8439 640 115.866 195.377 487.189
304 0 54.0529 11.2482 608 118.605 195.4 484.727
305 0 58.0401 11.9573 694 115.327 195.781 483.457
306 0 59.0646 11.6313 687 117.128 195.891 483.189
307 0 62.0784 11.4371 710 115.349 195.841 483.349
308 0 64.057 12.5981 807 113.437 195.493 481.426
309 0 65.0643 12.357 804 114.448 195.371 479.83
310 0 68.0174 11.4529 779 117.633 195.036 477.969
311 0 71.0446 13.2171 939 112.273 195.587 477.907
312 0 72.1238 12.0626 870 116.315 195.277 477.51
313 0 74.054 11.8427 877 118.086 195.151 474.717
314 0 79.1168 13.676 1082 114.895 195.018 472.966
315 0 82.1838 13.2265 1087 119.631 194.761 471.924
316 0 85.1115 13.4294 1143 118.907 194.941 471.712
317 0 85.1717 12.9268 1101 120.56 194.526 470.58
318 0 90.0942 13.0197 1173 121.353 194.416 467.457
319 0 90.1174 12.4171 1119 124.586 195.006 465.24
320 0 92.0318 11.7242 1079 124.778 194.694 464.76
321 0 96.1163 11.4861 1104 125.295 194.442 462.182
322 0 96.1163 11.5069 1106 149.402 193.431 462.014
323 0 96.1211 11.4959 1105 148.974 192.436 461.994
324 1 53.0108 11.9221 632 114.418 194.511 487.508
325 0 53.1339 11.1605 593 117.221 195.175 486.444
326 0 57.0318 11.2218 640 115.708 194.75 485.942
327 0 60.0215 11.9957 720 112.846 195.388 486.062
328 0 61.0598 12.2503 748 112.897 195.312 484.138
329 0 64.0694 11.9558 766 115.249 195.745 481.845
330 0 66.1614 12.3486 817 114.606 195.813 480.508
331 0 66.2061 10.4522 692 121.286 195.91 479.767
332 0 72.0396 13.6869 986 112.083 195.369 478.114
333 0 75.1537 12.9734 975 113.974 195.373 477.078
334 0 75.2172 12.4573 937 117.66 195.974 475.397
335 0 80.1346 13.0655 1047 115.667 195.296 475.734
336 0 82.1843 12.9587 1065 122.353 195.912 471.532
337 0 85.1736 12.7974 1090 121.61 195.771 471.131
338 0 88.1708 13.6666 1205 118.973 195.983 470.258
339 0 87.2785 11.893 1038 125.145 196.29 469.641
340 0 93.1408 12.2717 1143 124.123 195.891 467.783
341 0 95.1862 12.7014 1209 123.626 195.475 465.403
342 0 101.38 12.4088 1258 123.001 195.873 465.432
343 1 54.1102 11.1809 605 118.096 195.643 488.038
344 0 55.1821 12.0148 663 118.08 195.382 486.495
345 0 57.2637 10.2159 585 122.699 196.53 485.26
346 0 59.2257 12.8323 760 118.02 196.158 484.609
347 0 59.1229 11.6368 688 126.516 195.737 483.786
348 0 62.1545 12.308 765 124.524 196.843 484.02
349 0 62.1747 12.69 789 149.028 197.849 484.27
350 0 67.1829 12.5181 841 124.279 196.3 481.17
351 0 67.1829 12.4883 839 159.036 194.303 481.172
352 0 71.1198 12.2188 869 124.44 196.155 480.796
353 0 71.1469 12.1579 865 152.785 199.153 480.808
354 0 75.099 12.9429 972 125.362 195.154 477.391
355 0 78.2721 12.546 982 125.866 194.974 475.412
356 0 79.177 12.7941 1013 126.215 195.326 475.465
357 0 82.1032 12.7644 1048 124.926 195.023 475.417
358 0 85.1825 12.7021 1082 123.993 194.78 473.511
359 0 88.1223 12.0968 1066 125.325 195.532 472.788
360 0 90.2038 12.3055 1110 126.534 195.637 469.208
361 0 92.1218 12.4183 1144 125.073 195.332 470.452
362 0 96.128 12.3065 1183 125.088 195.037 467.729
363 0 100.21 13.6514 1368 121.765 195.309 464.528
364 0 100.139 11.0646 1108 127.392 195.003 463.382
365 0 106.114 11.9777 1271 122.155 194.518 464.869
366 0 107.111 11.9222 1277 121.731 194.894 462.056
367 0 111.07 12.4787 1386 120.971 194.908 457.597
368 0 114.175 12.2969 1404 120.359 195.563 456.053
369 1 59.0139 10.7263 633 118.385 196.191 483.382
370 0 61.0446 11.5981 708 117.329 196.177 482.565
371 0 63.0605 11.259 710 112.046 195.142 481.561
372 0 66.0868 11.9842 792 108.277 195.37 481.264
373 0 67.1431 11.6319 781 108.534 196.159 480.335
374 0 68.0864 11.3826 775 109.945 195.819 477.299
375 0 72.0442 11.9788 863 107.612 195.779 478.618
376 0 74.0614 13.0432 966 105.948 195.722 477.11
377 0 76.0713 10.8714 827 110.885 195.994 473.536
378 0 78.0375 12.9425 1010 107.755 195.707 471.963
379 0 82.0964 12.1199 995 108.91 195.887 470.125
380 0 84.0655 11.0152 926 109.84 196.063 473.386
381 0 89.1045 13.3214 1187 105.767 195.725 470.087
382 0 90.1386 11.3381 1022 111.079 195.704 468.153
383 0 93.0837 11.4628 1067 111.026 195.8 465.67
384 0 97.0762 12.382 1202 109.28 195.515 464.996
385 0 98.1638 12.3263 1210 111.166 195.116 461.691
386 0 102.098 12.1843 1244 111.793 195.232 460.012
387 1 53.0615 11.9107 632 104.239 195.671 487.612
388 0 53.0901 11.2827 599 104.694 195.988 486.76
389 0 53.0576 9.04678 480 110.302 195.962 487.85
390 0 57.0329 11.0813 632 105.598 195.318 487.91
391 0 57.1238 11.1162 635 107.342 196.627 485.321
392 0 59.0562 11.2266 663 106.875 195.701 485.486
393 0 60.093 11.9814 720 106.104 196.429 483.639
394 0 64.062 11.7074 750 104.587 196.449 484.228
395 0 65.0574 11.4975 748 105.87 196.543 481.299
396 0 64.1005 10.6083 680 109.016 196.415 482.646
397 0 68.0655 11.8268 805 107.471 195.876 480.359
398 0 70.1702 12.6692 889 105.142 195.147 481.173
399 0 74.0884 11.9992 889 105.645 196.346 479.154
400 0 73.1297 11.9377 873 108.145 196.718 476.18
401 0 76.1089 11.9303 908 107.836 196.122 477.975
402 0 80.183 11.7606 943 107.94 196.385 477.805
403 0 81.1436 12.0897 981 108.126 195.691 474.927
404 0 85.1476 11.5212 981 109.142 195.441 473.872
405 0 88.0511 13.1855 1161 105.774 195.477 472.87
406 0 91.0829 12.6588 1153 108.055 195.891 469.578
407 0 92.0663 11.861 1092 110.587 195.321 468.867
408 0 94.0754 11.3207 1065 112.773 195.869 468.992
409 0 99.0791 12.4547 1234 110.952 195.702 466.32
410 0 102.06 12.5416 1280 110.748 195.591 461.739
411 1 54.0304 10.4571 565 109.958 194.735 486.719
412 0 56.1346 11.5615 649 106.844 194.508 486.092
413 0 58.0933 12.7553 741 105.941 195.186 485.958
414 0 61.0646 12.6096 770 106.295 194.697 483.617
415 0 62.0479 11.8618 736 108.626 195.068 482.076
416 0 65.1848 12.5029 815 106.618 195.777 481.372
417 0 64.1919 11.5124 739 110.461 195.928 480.495
418 0 71.1954 12.0513 858 110.796 195.837 480.99
419 0 70.14 11.5626 811 113.815 195.481 479.443
420 0 73.1552 12.0019 878 112.19 195.514 478.005
421 0 75.2042 11.7414 883 115.519 195.649 475.672
422 0 78.1877 11.9712 936 113.813 196.174 474.85
423 0 77.0758 11.9363 920 114.314 196.005 472.251
424 0 82.0523 12.3336 1012 112.759 195.713 471.835
425 0 83.1245 12.1504 1010 113.399 195.35 470.263
426 0 88.0761 11.3992 1004 114.725 195.776 470.053
427 0 90.1742 13.0082 1173 111.631 195.065 468.137
428 0 93.0982 11.6221 1082 115.66 195.121 467.628
429 1 50.0883 10.8409 543 111.773 194.293 488.713
430 0 50.0877 9.90263 496 115.212 195.917 488.417
431 0 53.1048 12.0517 640 106.052 196.647 488.569
432 0 54.0914 12.1276 656 106.617 195.377 486.604
433 0 56.3193 11.8077 665 107.626 196.283 484.093
434 0 56.0934 12.0513 676 108.459 196.151 485.973
435 0 59.0476 11.3807 672 109.661 196.365 483.06
436 0 60.0665 11.121 668 110.43 196.446 483.148
437 0 63.0577 11.9414 753 108.384 195.368 482.612
438 0 66.073 11.7446 776 109.143 195.639 480.911
439 0 67.171 11.8206 794 108.584 196.168 480.393
440 0 69.0718 12.3784 855 108.077 196.311 480.923
441 0 73.1059 12.8581 940 107.302 195.96 477.82
442 0 75.0974 12.9965 976 107.65 195.701 478.541
443 0 78.0884 12.87 1005 115.582 196.284 476.124
444 0 78.0982 11.8184 923 119.987 196.062 473.146
445 0 82.0648 12.0393 988 118.803 196.554 473.039
446 0 84.0833 11.441 962 121.249 196.977 471.929
447 0 84.0833 11.4291 961 144.739 196.971 471.946
448 0 91.1494 11.355 1035 120.941 196.356 469.479
449 0 94.1161 13.1327 1236 116.117 196.103 468.884
450 1 51.049 10.9111 557 114.422 196.68 490.203
451 0 54.0244 11.6429 629 112.008 196.9 488.83
452 0 54.0568 11.6914 632 110.873 196.223 487.415
453 0 55.0546 12.424 684 107.117 195.575 486.36
454 0 57.035 12.0452 687 108.594 197.111 485.68
455 0 58.0298 11.6492 676 109.914 196.862 486.186
456 0 58.0352 11.0967 644 113.846 196.784 484.318
457 0 62.0689 12.7439 791 109.286 196.778 483.843
458 0 64.0443 13.0535 836 109.548 196.745 483.35
459 0 65.0921 12.5668 818 111.621 196.972 481.28
460 0 68.0658 13.913 947 108.474 196.8 481.363
461 0 69.0965 14.0818 973 109.863 196.943 479.748
462 0 70.0662 12.7023 890 113.513 196.47 479.74
463 0 73.1895 12.9663 949 113.122 196.036 478.737
464 0 76.0792 12.947 985 113.435 196.544 477.288
465 0 79.0425 12.9804 1026 113.845 196.185 478.103
466 0 79.1097 13.5887 1075 114.821 195.552 473.216
467 0 80.2554 12.9337 1038 117.043 194.702 473.494
468 0 84.0965 13.7937 1160 115.259 195.579 471.89
469 0 86.1446 13.3264 1148 117.476 195.041 471.289
470 0 88.1806 13.0301 1149 118.88 195.132 468.868
471 0 92.1705 12.4009 1143 120.801 194.779 467.99
472 0 96.1248 12.3381 1186 120.19 194.691 468.306
473 1 54.0517 10.9895 594 118.476 195.589 488.209
474 0 51.0726 10.4557 534 112.346 195.322 483.243
475 0 54.0437 11.0096 595 109.844 195.469 483.886
476 0 55.0332 10.957 603 107.648 195.861 483.751
477 0 57.0358 11.3087 645 107.186 195.353 481.682
478 0 59.075 10.2751 607 108.461 195.787 482.549
479 0 63.0544 11.3236 714 106.539 195.569 480.665
480 0 64.0952 11.795 756 106.479 195.065 479.144
481 0 66.087 12.1355 802 106.774 195.006 476.237
482 0 70.1404 12.475 875 105.502 194.711 477.923
483 0 70.1633 11.7725 826 108.432 195.378 475.803
484 0 73.0938 11.8341 865 108.383 195.37 475.04
485 0 74.1046 11.7537 871 110.688 195.207 471.378
486 0 77.0841 11.8312 912 109.232 194.717 472.726
487 0 80.0757 11.4517 917 110.119 194.875 470.184
488 0 82.118 11.6661 958 110.201 194.479 465.919
489 0 84.1107 10.6883 899 112.09 195.138 465.474
490 0 86.0482 12.493 1075 110.826 194.972 460.821
491 0 91.1479 12.6717 1155 110.644 195.001 462.139
492 0 93.1252 12.3812 1153 113.767 195.21 460.59
493 1 53.1035 9.75453 518 111.539 196.042 483.739
494 0 56.0669 11.3079 634 104.019 195.782 480.662
495 0 58.1222 11.8199 687 105.546 195.77 483.186
496 0 60.1166 12.01 722 105.992 194.704 486.227
497 0 60.065 10.7883 648 108.199 195.091 486.287
498 0 63.0457 12.8795 812 104.911 195.236 483.251
499 0 65.0719 12.4324 809 105.749 196.215 482.136
500 0 69.0746 11.7409 811 109.327 195.723 481.756
501 0 70.1183 12.2222 857 111.893 196.384 477.431
502 0 74.1366 12.1937 904 110.938 196.465 479.772
503 0 75.0971 11.8513 890 113.271 196.971 478.126
504 0 79.0447 13.2204 1045 110.734 196.811 474.527
505 0 81.0254 12.5269 1015 113.093 197.033 475.741
506 0 83.0916 11.8544 985 117.901 196.014 473.311
507 0 86.1708 12.1967 1051 116.68 196.232 470.29
508 0 88.0915 11.1135 979 119.741 195.941 469.443
509 1 45.0765 10.4933 473 113.943 196.292 492.211
510 0 45.1107 10.5962 478 114.069 196.19 491.598
511 0 48.0623 11.9636 575 110.72 196.144 489.254
512 0 50.0832 11.441 573 114.574 195.818 491.408
513 0 51.0722 12.3551 631 112.124 194.786 489.569
514 0 53.0702 12.0406 639 114.679 195.064 486.864
515 0 54.1326 11.5642 626 116.321 194.428 488.086
516 0 56.0941 11.6412 653 116.562 194.524 485.181
517 0 58.0703 12.4676 724 113.89 195.199 485.696
518 0 60.0745 12.7508 766 113.886 195.238 485.427
519 0 60.0751 11.5189 692 116.844 195.075 483.701
520 0 64.0587 12.0671 773 115.338 196.116 483.287
521 0 66.1119 12.5242 828 114.981 195.406 481.85
522 0 67.1371 12.5862 845 115.985 194.457 481.043
523 0 69.2666 12.8922 893 116.053 196.057 482.334
524 0 70.0786 12.4717 874 119.048 195.8 479.383
525 0 75.1378 14.2538 1071 113.617 196.105 478.941
526 0 78.0788 13.4608 1051 116.869 195.584 477.138
527 0 78.1884 12.764 998 119.695 195.272 474.819
528 0 84.1315 13.0867 1101 117.162 195.51 476
529 0 86.1448 13.814 1190 118.198 195.302 471.323
530 0 89.0972 12.3236 1098 124.322 194.764 470.668
531 1 47.0346 10.7155 504 120.698 194.623 493.165
532 0 48.0371 12.4904 600 117.575 194.997 490.76
533 0 50.2169 12.2071 613 117.246 195.085 489.791
534 0 53.0823 13.3943 711 112.973 194.336 490.307
535 0 54.1045 13.4 725 109.367 195.061 489.974
536 0 55.0774 12.1284 668 111.874 194.494 490.289
537 0 57.033 13.3607 762 108.613 194.835 487.543
538 0 56.1093 11.2103 629 115.719 194.636 487.59
539 0 59.091 11.1523 659 114.504 194.181 486.445
540 0 61.1008 12.7985 782 110.097 195.098 485.159
541 0 63.0447 12.0232 758 112.348 194.877 485.636
542 0 65.0761 12.4777 812 111.887 195.111 483.713
543 0 68.1298 11.6689 795 114.389 195.121 483.087
544 0 69.1601 12.9265 894 113.774 194.777 480.912
545 0 71.1584 12.3246 877 116.001 195.314 479.298
546 0 75.0821 13.7583 1033 111.887 195.231 479.929
547 0 75.0641 12.2162 917 118.076 194.648 478.245
548 0 79.1152 12.7535 1009 116.046 195.057 478.26
549 0 82.1606 13.1572 1081 116.56 194.98 475.318
550 0 83.1492 12.2431 1018 117.905 194.712 477.449
551 0 84.1573 11.1102 935 123.112 194.231 472.392
552 0 90.0541 12.2593 1104 118.413 195.388 471.289
553 1 48.0069 10.1652 488 118.361 195.348 492.549
554 0 49.0225 9.99541 490 118.08 194.455 491.941
555 0 51.1883 11.487 588 114.245 193.816 489.325
556 0 52.0634 11.2939 588 111.906 196.318 489.395
557 0 54.1818 11.4799 622 110.556 195.969 489.54
558 0 54.0668 11.6522 630 111.71 196.171 487.773
559 0 57.0704 13.0541 745 106.929 196.415 486.893
560 0 58.1396 11.7304 682 110.092 196.699 486.192
561 0 60.0622 11.4881 690 110.862 196.697 485.516
562 0 62.09 12.0148 746 109.914 195.641 483.105
563 0 64.1962 12.6487 812 107.837 195.671 484.05
564 0 66.1234 12.6279 835 106.962 196.261 483.414
565 0 69.1295 12.5706 869 106.54 195.929 480.449
566 0 72.0866 13.1647 949 104.954 195.763 479.862
567 0 73.0801 11.9321 872 108.267 195.044 478.577
568 0 76.0466 11.2694 857 110.417 196.148 479.121
569 0 78.1069 11.2538 879 110.09 195.524 475.929
570 1 41.0249 11.6027 476 107.651 196.498 495.634
571 0 40.0446 9.81405 393 113.987 196.639 494.12
572 0 43.0281 10.0632 433 113.831 196.182 492.952
573 0 45.1156 12.0579 544 105.654 196.607 493.265
574 0 45.0829 10.2256 461 109.685 197.256 491.92
575 0 47.0769 12.2565 577 105.263 196.548 491.097
576 0 49.0535 10.9472 537 106.54 196.467 491.881
577 0 51.1444 12.9828 664 101.586 195.791 488.758
578 0 51.1159 11.875 607 104.45 196.156 488.885
579 0 55.1145 11.9569 659 103.106 196.241 489.033
580 0 56.1073 12.084 678 102.771 196.341 487.883
581 0 55.0748 11.4027 628 105.734 195.841 488.236
582 0 58.1246 11.9399 694 104.177 196.32 486.248
583 0 56.0773 10.9135 612 108.23 195.941 485.739
584 0 62.0987 11.5139 715 105.066 196.67 486.053
585 0 63.1151 12.1682 768 104.168 196.234 484.839
586 0 64.118 11.3229 726 106.821 196.102 484.658
587 0 67.0466 12.1855 817 104.463 196.378 483.356
588 0 69.0935 12.4469 860 104.144 195.557 481.217
589 0 72.0781 12.9304 932 104.268 195.814 479.043
590 0 76.1375 11.9783 912 106.044 195.561 479.38
591 0 78.1437 12.9505 1012 104.943 195.322 476.118
592 0 80.1111 13.0569 1046 105.5 195.591 475.815
593 0 83.1153 13.2587 1102 106.583 195.94 472.924
594 0 87.0544 13.371 1164 106.363 196.082 473.741
595 0 89.1538 13.4374 1198 107.051 195.739 472.775
596 0 90.1801 11.5547 1042 113.038 195.606 471.802
597 0 95.067 12.4333 1182 111.495 195.493 470.097
598 0 97.0931 12.4829 1212 113.259 195.561 467.13
599 0 101.134 11.549 1168 115.677 196.21 467.908
600 0 103.111 12.3556 1274 116.644 195.968 464.562
601 0 108.047 12.5778 1359 115.408 195.669 465.08
602 0 108.218 11.9759 1296 118.125 195.287 464.337
603 0 114.133 12.5117 1428 116.368 195.127 461.767
604 0 115.194 11.3114 1303 119.975 195.102 460.936
605 1 59.0561 11.7346 693 111.482 196.368 488.127
606 0 62.2159 11.1065 691 116.706 196.194 485.449
607 0 65.1236 11.9465 778 114.305 195.587 484.762
608 0 66.1528 12.6828 839 114.263 195.008 479.988
609 0 69.2291 12.7403 882 112.285 196.083 480.331
610 0 70.1314 12.9186 906 112.767 195.491 480.276
611 0 74.1479 12.7987 949 113.362 195.652 478.025
612 0 75.1862 12.8348 965 113.851 195.43 475.711
613 0 77.129 11.6169 896 116.653 195.464 475.482
614 0 83.0776 12.8314 1066 112.041 194.2 476.199
615 0 84.1287 13.515 1137 111.92 194.254 474.428
616 0 88.1341 14.3531 1265 109.483 194.176 472.802
617 0 90.1805 13.5506 1222 112.639 194.382 470.998
618 0 95.1498 13.9044 1323 111.105 194.283 467.909
619 0 97.1769 12.2457 1190 115.228 194.518 466.621
620 0 101.166 13.0577 1321 113.207 194.764 466.439
621 0 106.303 13.8378 1471 111.37 195.333 463.772
622 1 56.1029 11.265 632 115.767 194.547 488.266
623 0 56.1568 11.7884 662 116.823 194.959 486.033
624 0 59.1214 12.5843 744 114.82 193.409 485.415
625 0 60.0908 12.2981 739 116.172 193.576 484.957
626 0 64.1273 13.2861 852 112.644 194.126 483.379
627 0 65.1202 12.285 800 116.681 194.359 483.168
628 0 68.1064 13.7432 936 113.678 194.159 481.375
629 0 69.1797 12.894 892 116.243 194.05 479.271
630 0 71.2255 13.001 926 115.478 194.923 479.329
631 0 71.2197 12.0191 856 117.472 194.453 476.689
632 0 73.1658 10.8384 793 115.637 194.142 477.628
633 0 80.1804 12.5342 1005 109.979 195.417 478.235
634 0 79.0726 11.3693 899 114.977 194.999 476.385
635 0 81.0982 10.7401 871 117.212 195.46 474.933
636 1 45.0275 10.9044 491 113.57 196.163 492.725
637 0 47.0637 10.6876 503 114.571 195.793 491.913
638 0 48.0429 10.7612 517 119.923 195.176 491.052
639 0 50.1315 11.8488 594 116.131 196.084 491.114
640 0 50.0372 10.9319 547 119.355 196.559 490.951
641 0 53.0276 10.8623 576 119.391 195.632 489.642
642 0 52.0407 11.491 598 120.085 195.656 488.391
643 0 56.0778 13.303 746 113.692 194.866 488.653
644 0 57.1167 11.923 681 117.182 195.498 488.041
645 0 59.0564 10.9387 646 120.492 195.842 486.684
646 0 60.1596 13.1151 789 115.594 195.676 484.3
647 0 61.2282 13.2129 809 115.969 194.773 484.422
648 0 62.184 12.463 775 118.586 195.539 482.645
649 0 66.1416 12.3372 816 118.423 195.016 483.021
650 0 66.1134 12.2819 812 119.089 194.566 479.954
651 0 69.1717 12.4907 864 117.338 194.544 479.743
652 0 71.2322 12.9296 921 117.869 194.383 476.657
653 0 72.154 11.7249 846 120.365 194.956 478.483
654 0 76.2581 12.497 953 117.83 194.631 477.025
655 0 78.3902 12.4378 975 117.771 194.562 475.212
656 0 82.4301 13.4053 1105 114.866 194.537 474.958
657 0 84.2045 11.6977 985 119.515 194.389 473.243
658 1 44.1883 9.55004 422 115.116 193.576 493.107
659 0 45.0623 11.3399 511 106.061 196.078 493.004
660 0 46.0608 12.5921 580 103.321 194.795 492.141
661 0 47.0253 11.8872 559 104.538 195.419 492.106
662 0 48.0688 11.0675 532 106.853 195.086 492.429
663 0 48.1008 11.0809 533 108.266 195.25 491.899
664 0 51.183 11.5663 592 105.029 195.443 489.262
665 0 54.0815 11.797 638 104.011 195.625 488.246
666 0 54.1801 11.3695 616 106.89 194.992 488.37
667 0 55.0937 11.4714 632 107.144 194.269 487.457
668 0 58.0407 12.9564 752 104.182 194.624 486.392
669 0 59.0553 12.7 750 104.911 195.429 487.263
670 0 61.1682 12.7517 780 105.423 194.733 485.345
671 0 63.0913 12.9019 814 105.86 195.204 483.687
672 0 65.1581 13.4289 875 104.581 194.723 482.177
673 0 67.0786 12.7164 853 107.645 194.512 482.853
674 0 71.1223 13.0479 928 107.848 194.631 480.514
675 0 72.2552 13.1063 947 108.158 195.308 478.976
676 0 75.1081 13.2209 993 108.909 194.541 478.644
677 0 78.1639 12.0516 942 112.158 194.613 477.172
678 0 79.1966 12.3869 981 112.138 195.03 476.665
679 1 42.1117 11.517 485 113.575 195.472 495.32
680 0 43.275 10.7683 466 116.854 194.678 492.266
681 0 43.0125 9.50886 409 114.017 195.428 490.367
682 0 47.0501 11.5409 543 115.842 194.68 491.668
683 0 47.0225 11.5902 545 115.728 195.132 491.949
684 0 49.0241 11.9125 584 114.978 195.341 490.08
685 0 51.038 11.7951 602 115.07 195.573 489.236
686 0 52.0186 11.1691 581 116.621 195.448 489.444
687 0 54.0336 11.974 647 114.594 195.635 487.269
688 0 56.0161 11.1575 625 115.827 194.994 487.371
689 0 57.0246 10.6971 610 116.313 195.602 487.593
690 0 59.0259 11.1138 656 115.335 196.136 484.485
691 0 60.0207 11.8792 713 113.285 195.606 484.853
692 0 63.0345 12.6756 799 110.849 195.576 484.776
693 0 64.1064 11.4809 736 113.25 195.849 482.97
694 0 68.1982 12.581 858 112.192 194.385 481.43
695 0 71.1104 12.4595 886 110.804 194.168 481.593
696 0 72.1096 11.6073 837 114.07 194.039 479.61
697 0 75.259 12.4636 938 111.945 194.755 479.371
698 0 77.2265 13.5187 1044 111.036 194.366 476.021
699 0 78.1862 11.2936 883 115.928 195.206 476.481
700 0 83.5029 12.1313 1013 113.961 195.155 473.276
701 0 86.3187 14.0294 1211 108.159 195.505 471.036
702 0 88.1228 11.9606 1054 106.085 195.055 470.225
703 0 93.177 11.9772 1116 107.758 194.866 468.03
704 1 49.0361 9.68674 475 108.531 194.827 489.459
705 0 51.1296 10.6005 542 106.098 193.572 486.945
706 0 53.0911 12.5068 664 103.119 192.7 484.926
707 0 55.0902 12.1619 670 104.53 193.46 482.967
708 0 56.0505 12.2925 689 102.853 194.84 487.878
709 0 59.0925 12.1843 720 102.8 194.65 487.244
710 0 60.0633 12.5368 753 103.212 195.296 485.125
711 0 64.0541 13.3325 854 100.272 195.24 486.025
712 0 63.0592 12.5913 794 104.034 194.937 484.123
713 0 67.0928 12.6839 851 103.96 195.11 483.383
714 0 66.1838 12.4955 827 106.034 195.339 483.189
715 0 69.1206 12.0659 834 108.607 194.577 480.486
716 0 72.2052 13.2539 957 105.596 194.591 480.669
717 0 72.1285 11.4934 829 111.449 195.536 480.311
718 0 75.1376 11.9647 899 110.214 194.838 479.614
719 0 78.1503 13.9219 1088 107.575 194.884 477.333
720 0 80.1359 13.1527 1054 111.145 194.544 474.833
721 0 82.0996 11.6322 955 114.356 194.872 475.096
722 0 84.1113 12.6261 1062 111.928 195.037 473.208
723 0 88.1246 12.4369 1096 110.763 195.457 475.78
724 0 89.1026 12.4351 1108 113.131 195.108 472.616
725 0 93.1288 13.025 1213 112.603 194.463 469.072
726 0 96.1212 12.4738 1199 114.665 194.224 467.782
727 0 100.198 12.2458 1227 113.415 194.699 466.557
728 1 51.1156 11.4642 586 113.191 195.657 489.973
729 0 51.0773 12.1385 620 110.529 193.834 489.282
730 0 54.1 13.0129 704 104.841 194.141 489.374
731 0 57.0689 12.3885 707 104.741 193.803 489.095
732 0 59.0721 12.7641 754 104.66 193.871 487.463
733 0 59.0602 13.1391 776 103.867 193.974 486.303
734 0 60.06 12.4043 745 105.76 193.817 486.694
735 0 63.0597 13.6696 862 102.932 193.99 485.194
736 0 64.1462 12.1597 780 106.988 193.454 484.519
737 0 68.0797 12.7057 865 104.304 193.942 482.805
738 0 69.076 12.508 864 105.259 193.875 481.787
739 0 72.0896 13.511 974 102.908 194.343 481.643
740 0 75.0786 12.8665 966 104.905 193.754 480.05
741 0 75.039 12.3802 929 107.686 194.26 480.516
742 0 77.1885 13.4217 1036 105.868 194.031 477.525
743 0 81.0964 12.8859 1045 107.267 193.64 477.125
744 0 82.073 12.7326 1045 108.955 194.003 475.66
745 0 84.1136 12.3761 1041 109.28 194.391 474.087
746 0 88.0625 12.1164 1067 109.189 193.785 472.859
747 0 89.0786 12.9212 1151 109.703 193.248 469.26
748 0 93.0981 12.0088 1118 111.75 193.196 468.599
749 0 98.0812 13.9476 1368 107.637 193.3 466.246
750 0 101.131 12.2713 1241 111.638 193.293 464.112
751 0 105.1 13.5395 1423 109.992 193.71 465.004
752 1 55.0877 11.7812 649 107.738 192.866 489.624
753 0 58.0261 11.8223 686 110.472 193.768 487.262
754 0 58.0554 12.867 747 114.104 193.568 485.181
755 0 62.0774 12.8066 795 113.914 192.444 486.47
756 0 60.2381 11.604 699 119.508 193.681 484.087
757 0 66.0992 13.4797 891 113.14 193.828 482.75
758 0 67.0923 14.249 956 111.525 193.159 482.349
759 0 67.0885 12.3717 830 117.42 193.704 481.757
760 0 72.1828 12.4129 896 115.829 192.69 482.574
761 0 74.131 13.0175 965 115.06 193.322 480.261
762 0 77.2106 13.8841 1072 112.858 193.169 478.56
763 0 78.1134 13.0323 1018 115.937 193.681 477.058
764 0 81.1873 13.0193 1057 116.061 193.903 475.234
765 1 43.0506 10.9638 472 114.314 193.949 495.981
766 0 42.0303 12.4434 523 104.933 193.111 494.74
767 0 44.0295 11.0835 488 107.285 193.439 493.936
768 0 47.034 12.6292 594 102.749 193.478 494.981
769 0 47.043 13.3495 628 102.51 193.334 492.912
770 0 48.0458 12.1759 585 105.819 193.463 491.78
771 0 51.1605 12.4315 636 104.333 193.382 492.668
772 0 51.0405 12.6958 648 104.194 194.191 490.519
773 0 53.1249 12.48 663 105.042 193.614 489.897
774 0 55.088 12.6162 695 104.688 194.07 490.396
775 0 56.0212 12.1026 678 106.224 193.649 490.407
776 0 59.049 13.2771 784 102.129 193.588 488.251
777 0 61.0514 14.3158 874 100.751 193.767 486.759
778 0 62.0981 13.3015 826 104.156 193.7 485.935
779 0 62.0155 11.6745 724 109.436 194.203 486.598
780 0 66.0397 12.7348 841 106.894 194.036 485.254
781 0 67.0415 13.8123 926 105.45 194.665 483.921
782 0 68.1024 12.8777 877 108.913 194.07 483.482
783 0 71.0707 12.9167 918 109.364 194.028 481.383
784 0 74.0607 12.5033 926 111.035 194.222 480.485
785 0 75.0555 12.6839 952 111.812 194.368 480.685
786 0 78.0831 13.1014 1023 111.911 194.591 478.223
787 0 82.0655 14.4397 1185 109.868 193.414 477.134
788 0 87.1694 14.0302 1223 109.868 193.955 477.153
789 0 88.0711 13.0009 1145 122.254 194.814 476.141
790 1 46.0312 11.7094 539 121.918 195.174 495.85
791 0 47.1544 12.3424 582 121.069 195.239 494.567
792 0 50.1358 13.0246 653 108.914 194.821 492.965
793 0 49.0253 13.2381 649 114.37 193.53 492.547
794 0 50.0516 12.8867 645 116.009 193.709 492.322
795 0 54.0491 12.5072 676 115.629 194.339 491.575
796 0 55.1079 13.4464 741 113.058 193.908 491.073
797 0 56.077 12.1797 683 116.397 193.865 489.199
798 0 59.234 13.4551 797 113.256 194 488.671
799 0 60.0351 13.059 784 114.684 193.923 487.685
800 0 64.1625 13.6684 877 112.792 194.086 486.57
801 0 67.0676 14.0157 940 112.569 194.216 484.617
802 0 70.0866 14.2681 1000 111.903 193.74 483.075
803 0 70.1057 12.6381 886 112.445 193.979 478.384
804 0 74.1 13.4818 999 110.22 194.916 479.624
805 0 75.1263 13.2976 999 112.511 194.834 479.073
806 0 78.164 12.8704 1006 115.746 194.669 478.191
807 0 80.192 12.6571 1015 118.366 194.276 475.305
808 0 83.0761 12.8196 1065 118.976 193.642 474.689
809 0 87.0876 14.273 1243 116.781 194.627 473.49
810 0 89.0634 13.496 1202 120.068 194.042 473.123
811 0 94.132 14.9471 1407 116.971 195.352 471.979
812 0 94.1166 14.4395 1359 120.042 194.653 473.502
813 0 95.0912 13.934 1325 122.949 194.229 472.628
814 0 99.0852 13.1604 1304 127.784 193.764 469.104
815 0 103.174 14.335 1479 127.243 193.229 462.068
816 0 106.267 14.407 1531 128.053 193.992 462.789
817 0 107.17 13.6698 1465 131.698 193.573 464.601
818 0 112.255 14.5116 1629 129.868 194.259 461.062
819 0 117.268 13.9254 1633 131.174 194.058 457.809
820 0 122.289 15.4307 1887 125.818 194.246 457.232
821 0 125.329 14.7052 1843 130.889 193.468 450.889
822 0 128.442 13.8584 1780 134.646 194.82 449.198
823 0 134.341 13.9868 1879 132.804 194.365 445.296
824 0 139.501 13.4622 1878 134.365 194.012 444.1
825 0 145.357 14.6948 2136 131.049 194.38 442.097
826 0 152.393 14.128 2153 134.165 194.293 440.107
827 0 155.446 14.1786 2204 136.508 194.114 434.881
828 0 160.587 15.0199 2412 133.771 194.418 430.865
829 0 168.492 14.9978 2527 133.18 194.101 431.008
830 0 174.343 15.7964 2754 130.792 193.285 424.867
831 1 90.1904 13.7376 1239 133.749 192.952 468.693
832 0 91.1606 12.9113 1177 136.431 192.878 467.105
833 0 95.1624 13.6503 1299 133.899 194.064 466.007
834 0 97.2051 13.5384 1316 134.923 193.851 461.211
835 0 101.09 13.8391 1399 130.878 194.736 462.971
836 0 105.145 13.9997 1472 128.375 194.352 459.575
837 0 110.106 15.0854 1661 124.737 194.185 460.485
838 0 112.112 14.3071 1604 128.791 194.354 457.986
839 0 117.161 14.2368 1668 128.93 193.998 455.624
840 0 122.193 13.7651 1682 129.401 194.539 453.265
841 0 126.147 13.516 1705 128.749 194.236 452.122
842 0 132.181 14.2835 1888 126.252 194.326 446.522
843 1 70.0933 10.7286 752 121.217 193.766 475.267
844 0 73.1128 11.6122 849 120.506 194.093 471.4
845 0 75.2748 11.6506 877 113.292 194.27 472.09
846 0 78.206 11.93 933 113.257 193.877 471.592
847 0 83.0621 12.7134 1056 110.67 193.499 470.552
848 0 85.1952 11.28 961 115.68 193.575 467.964
849 0 90.1307 11.1283 1003 114.846 192.796 469.982
850 0 91.1532 11.7165 1068 115.536 194.148 463.026
851 0 94.2649 12.1678 1147 114.353 193.833 460.611
852 0 98.0862 11.5001 1128 117.459 193.301 459.056
853 0 101.066 13.041 1318 114.093 193.588 457.826
854 1 51.0501 10.049 513 115.585 194.029 481.62
855 0 55.0553 9.97179 549 123.111 192.617 481.654
856 0 56.0773 9.45124 530 123.175 194.104 481.777
857 0 58.0586 11.2817 655 120.591 195.449 485.256
858 0 62.1165 11.9131 740 117.078 195.597 486.808
859 0 63.0581 11.7511 741 118.487 194.799 485.1
860 0 64.1405 12.3947 795 117.743 194.882 483.644
861 0 68.1367 12.7391 868 117.219 194.945 483.653
862 0 69.1013 11.3312 783 120.697 195.294 482.713
863 0 71.0955 12.8137 911 117.409 194.328 482.237
864 0 74.1204 12.3718 917 119.862 194.668 480.819
865 0 74.0893 11.4726 850 123.048 194.928 479.965
866 0 77.0715 12.6895 978 121.108 195.033 478.332
867 0 79.0851 11.848 937 122.365 195.155 478.129
868 0 82.0784 12.1226 995 122.455 194.345 475.727
869 0 84.0718 11.7162 985 123.915 194.885 474.994
870 0 87.2108 12.5902 1098 122.423 194.276 472.493
871 0 91.094 13.3708 1218 119.378 194.109 471.838
872 0 94.1064 12.369 1164 123.543 194.552 470.466
873 0 99.1263 12.9834 1287 120.627 194.854 470.514
874 0 98.0951 12.2024 1197 125.157 194.087 464.942
875 1 50.053 11.0483 553 118.391 194.722 490.698
876 0 53.1121 10.732 570 114.044 194.461 490.821
877 0 55.082 11.4738 632 116.809 194.169 490.965
878 0 57.0748 12.4749 712 114.485 194.135 489.428
879 0 57.0759 11.1781 638 119.257 194.038 489.77
880 0 59.1574 12.2216 723 117.375 194.214 488.62
881 0 61.0603 12.5122 764 116.623 194.276 486.3
882 0 64.0619 12.9406 829 115.302 193.963 485.603
883 0 64.0659 11.4257 732 121.242 194.022 484.869
884 0 68.1099 12.979 884 116.569 194.676 483.109
885 0 71.195 13.3717 952 115.304 194.255 483.179
886 0 71.1349 13.7766 980 117.335 194.653 480.97
887 0 72.0888 13.1366 947 119.836 194.07 480.863
888 0 77.1118 13.448 1037 118.33 194.05 479.453
889 0 78.0734 12.7444 995 121.393 194.442 477.427
890 0 80.0664 13.239 1060 121.154 193.929 477.58
891 0 85.1064 13.7475 1170 119.444 194.32 476.872
892 0 87.0924 13.8589 1207 120.849 194.099 474.645
893 0 91.1392 14.2968 1303 119.659 194.427 474.238
894 0 92.1217 13.4822 1242 122.87 194.11 471.008
895 0 96.1433 13.043 1254 119.371 194.73 469.211
896 0 99.1227 12.7216 1261 121.251 194.776 464.713
897 1 51.0458 10.8334 553 114.794 194.161 486.539
898 0 56.1396 12.7183 714 125.123 193.036 488.193
899 0 55.0646 11.2413 619 130.68 192.948 486.667
900 0 59.0808 11.9159 704 122.621 192.534 488.642
901 0 60.0707 13.1179 788 120.374 193.338 486.261
902 0 62.0874 12.5146 777 122.761 193.425 485.234
903 0 63.0894 12.3634 780 124.249 193.454 486.194
904 0 66.086 13.0587 863 122.731 192.787 483.386
905 0 65.0344 12.2858 799 126.881 193.176 484.622
906 0 70.1569 13.2845 932 122.667 193.291 482.891
907 0 70.0593 12.6607 887 125.733 193.223 481.408
908 0 74.0685 14.1356 1047 121.137 193.156 480.559
909 0 76.1006 14.4546 1100 119.776 193.289 480.125
910 0 79.1033 14.7781 1169 118.872 193.341 478.983
911 0 81.077 14.9117 1209 119.778 193.211 476.703
912 0 81.0682 12.1873 988 128.336 193.285 475.826
913 0 86.1121 13.7379 1183 123.401 193.178 472.918
914 0 89.1855 14.0382 1252 122.621 193.278 472.238
915 0 92.0951 13.9204 1282 121.856 192.693 472.048
916 0 95.0508 13.8663 1318 123.33 192.82 469.731
917 0 98.2416 13.3548 1312 123.628 194.104 466.721
918 0 101.168 13.1267 1328 124.535 194.011 467.231
919 1 55.0425 12.1361 668 124.331 194.856 489.521
920 0 57.0369 13.2195 754 118.98 194.076 488.41
921 0 59.0554 12.4967 738 126.576 192.299 486.238
922 0 61.0867 13.0634 798 124.975 192.561 485.143
923 0 61.1085 12.2078 746 126.779 192.546 487.055
924 0 65.0508 11.76 765 127.026 191.797 485.492
925 0 64.0562 11.5211 738 128.496 192.531 484.363
926 0 67.0752 12.0313 807 126.605 192.201 482.793
927 0 70.1532 13.2852 932 122.851 192.24 480.274
928 0 71.0864 12.5481 892 125.34 192.251 480.541
929 0 75.1016 11.9438 897 125.784 192.487 479.939
930 0 76.142 13.0546 994 124.021 192.734 477.954
931 0 80.1637 13.4974 1082 121.768 192.76 477.006
932 0 81.1235 13.3007 1079 123.249 193.047 475.485
933 0 84.1141 13.3509 1123 123.461 192.443 474.947
934 0 87.1585 13.2173 1152 122.706 192.925 473.171
935 0 88.126 12.6864 1118 125.671 192.898 472.412
936 0 92.1288 13.1229 1209 124.58 193.135 471.551
937 0 93.1214 12.7038 1183 126.167 192.453 468.68
938 0 98.2279 13.5196 1328 123.562 192.334 466.797
939 0 99.1558 12.7577 1265 127.851 192.383 464.326
940 0 105.204 13.0414 1372 126.042 192.956 465.032
941 0 109.301 13.9157 1521 123.539 193.179 461.947
942 0 110.295 13.1375 1449 127.035 193.518 458.296
943 0 115.195 13.1603 1516 126.463 193.197 457.511
944 1 63.1053 11.4412 722 125.673 193.125 485.821
945 0 63.0802 12.3811 781 119.679 193.201 483.383
946 0 66.1074 13.8714 917 113.764 194.559 484.186
947 0 70.1313 13.161 923 114.544 194.986 482.348
948 0 70.0803 12.9708 909 116.358 194.66 482.314
949 0 74.0754 13.2703 983 115.629 194.44 479.87
950 0 75.078 12.3871 930 118.713 194.633 479.971
951 0 78.1427 13.2322 1034 116.392 194.877 478.596
952 0 82.0774 13.5238 1110 116.432 193.966 476.136
953 0 82.1543 12.6348 1038 120.465 193.851 475.079
954 0 88.2143 13.8413 1221 116.171 194.349 474.312
955 0 88.1529 12.9207 1139 119.839 194.611 474.411
956 0 91.1813 13.2922 1212 119.641 194.191 471.914
957 0 96.2038 13.0972 1260 119.002 194.048 470.08
958 0 98.152 14.2636 1400 117.564 194.284 468.369
959 0 100.178 12.897 1292 121.481 194.166 467.599
960 1 52.0812 11.8085 615 127.161 194.091 488.657
961 0 54.1835 12.1439 658 123.904 194.258 488.562
962 0 57.2153 11.9374 683 124.753 194.615 487.075
963 0 57.1885 12.9921 743 117.568 194.338 487.468
964 0 60.1206 13.9719 840 113.686 194.821 487.707
965 0 61.1114 12.1581 743 119.639 194.351 487.645
966 0 62.2256 12.3904 771 120.606 194.311 485.113
967 0 64.1328 12.5677 806 119.87 194.421 485.323
968 0 66.1648 12.4991 827 119.584 194.433 484.915
969 0 67.1873 11.3265 761 123.957 193.783 482.409
970 0 70.1289 11.7783 826 121.904 194.65 480.726
971 0 74.1674 11.7976 875 120.603 193.658 480.507
972 0 76.2448 12.9058 984 118.131 193.504 478.221
973 0 78.1856 12.1889 953 120.727 193.891 476.717
974 0 81.2434 11.484 933 121.209 194.225 475.311
975 0 84.0659 12.0382 1012 118.004 194.681 474.07
976 1 41.0249 10.1158 415 120.896 195.547 490.863
977 0 44.0408 10.6719 470 115.402 196.091 488.828
978 0 45.1087 11.306 510 115.825 194.847 485.931
979 0 46.1073 9.95503 459 105.902 194.51 487.074
980 0 47.0878 11.8715 559 103.238 194.258 487.417
981 0 49.0997 10.998 540 104.969 194.391 485.265
982 0 50.1055 11.3161 567 104.425 194.82 486.457
983 0 52.0901 11.4993 599 105.189 194.442 483.973
984 0 52.1891 10.9601 572 106.656 194.671 485.998
985 0 55.0532 12.5152 689 110.711 194.377 487.73
986 0 55.1217 10.9939 606 115.833 195.114 487.733
987 0 59.1368 11.3635 672 113.333 195.126 486.798
988 0 61.06 12.7579 779 109.792 195.195 485.389
989 0 61.1268 13.4638 823 109.063 195.084 482.954
990 0 65.1594 11.9246 777 111.12 195.162 483.202
991 0 68.1664 12.5722 857 109.41 194.796 482.168
992 0 68.1366 12.8125 873 110.64 194.479 480.803
993 0 72.1269 13.6981 988 108.273 195.139 479.276
994 0 75.1013 12.4099 932 111.464 194.34 480.404
995 0 75.134 12.2448 920 113.522 194.574 478.921
996 0 79.128 13.4087 1061 109.804 194.878 478.594
997 0 82.0929 13.1802 1082 111.453 195.058 475.868
998 1 44.0359 10.1508 447 120.973 194.676 492.926
999 0 46.0162 11.2134 516 116.674 195.101 493.963
1000 0 49.0352 12.4196 609 109.724 195.673 490.629
1001 0 47.0651 12.1746 573 117.827 192.686 487.946
1002 0 52.0411 12.7015 661 113.62 192.924 488.814
1003 0 54.0352 13.1026 708 112.271 193.89 487.65
1004 0 54.0952 13.7166 742 111.476 194.927 490.156
1005 0 56.1436 13.4299 754 113.115 194.775 488.183
1006 0 57.1252 13.5842 776 113.527 194.39 487.802
1007 0 58.0878 13.5657 788 114.492 194.633 486.336
1008 0 61.0824 13.3426 815 114.49 193.8 486.496
1009 0 62.0576 12.6979 788 115.933 194.746 486.211
1010 0 63.154 12.7625 806 115.167 194.393 483.908
1011 0 66.0512 13.7772 910 111.88 193.746 482.743
1012 0 67.0542 13.1983 885 113.098 193.931 482.139
1013 0 72.1112 14.0339 1012 109.364 193.914 479.852
1014 0 74.1181 14.4634 1072 108.086 192.922 478.904
1015 0 75.0548 12.6174 947 113.122 194.207 477.501
1016 0 80.0723 13.0632 1046 110.201 193.946 474.642
1017 0 84.0986 13.5079 1136 108.521 194.298 474.228
1018 0 87.0993 13.41 1168 107.826 194.711 472.508
1019 0 89.0674 13.0126 1159 109.022 194.636 473.381
1020 0 93.2352 13.0959 1221 111.948 194.02 467.55
1021 0 91.1545 12.956 1181 109.742 193.238 464.847
1022 1 47.0131 11.8265 556 108.05 193.376 486.754
1023 0 49.0268 11.8507 581 110.313 194.804 492.298
1024 0 51.0413 13.7144 700 107.329 194.964 490.403
1025 0 52.0632 12.7345 663 108.964 195.612 491.106
1026 0 54.0228 12.2911 664 111.113 194.304 488.931
1027 0 55.0337 14.2822 786 107.005 195.01 488.7
1028 0 58.081 12.2415 711 111.828 193.999 487.48
1029 0 59.0389 12.6865 749 110.391 194.449 487.407
1030 0 61.1162 12.9753 793 111.415 194.544 485.358
1031 0 63.0211 13.7414 866 111.24 194.8 483.574
1032 0 67.0712 12.3451 828 113.992 195.192 483.917
1033 0 68.0841 13.2336 901 113.598 194.845 482.114
1034 0 71.1569 12.6059 897 115.32 194.802 481.411
1035 0 73.0762 13.3422 975 114.535 194.475 481.643
1036 0 77.113 14.4074 1111 113.519 194.495 477.737
1037 0 79.1216 13.6499 1080 116.31 195.297 477.401
1038 0 83.1048 14.8848 1237 111.235 195.278 476.075
1039 0 86.1071 13.4135 1155 117.113 194.744 473.874
1040 1 44.0235 12.2207 538 119.19 195.108 495.972
1041 0 48.0414 11.6566 560 120.821 196.016 493.539
1042 0 48.048 13.1119 630 118.171 194.454 492.403
1043 0 48.1229 12.6759 610 118.977 195.289 491.428
1044 0 50.0899 12.5375 628 119.384 195.393 491.419
1045 0 53.0948 12.9391 687 118.528 195.355 490.416
1046 0 53.0832 14.0157 744 115.699 195.062 490.7
1047 0 55.0639 13.8566 763 118.126 195.03 488.644
1048 0 56.03 13.6712 766 119.03 194.685 486.531
1049 0 61.1065 14.3356 876 114.935 194.457 486.582
1050 0 62.077 13.0322 809 119.576 195.263 486.124
1051 0 64.1155 13.1949 846 119.876 194.753 485.132
1052 0 66.0518 13.7771 910 117.622 193.8 484.112
1053 0 69.0779 13.6657 944 117.725 193.859 483.499
1054 0 70.1032 13.3375 935 118.911 193.541 481.234
1055 0 72.0239 13.3011 958 118.546 193.849 481.093
1056 0 75.0822 13.4786 1012 117.806 193.338 480.387
1057 0 78.1024 13.5079 1055 117.24 193.485 477.361
1058 0 80.2316 13.5981 1091 116.686 193.86 477.301
1059 0 83.1177 13.3185 1107 117.664 193.703 477.735
1060 0 86.0714 13.2564 1141 117.508 193.549 476.61
1061 1 45.0867 11.866 535 122.948 193.013 494.772
1062 0 46.0497 12.9208 595 118.319 193.06 493.726
1063 0 47.0618 12.9192 608 119.036 193.367 492.347
1064 0 47.0814 12.7014 598 121.448 193.724 492.458
1065 0 48.0857 13.372 643 121.732 193.739 489.631
1066 0 51.056 14.3176 731 118.223 194.263 490.016
1067 0 51.055 12.3005 628 125.371 194.143 490.441
1068 0 54.1134 13.6011 736 121.598 194.003 488.512
1069 0 56.0971 14.0292 787 120.766 194.186 487.681
1070 0 55.0865 13.5242 745 123.603 193.674 487.8
1071 0 60.0711 14.2664 857 119.796 193.982 486.265
1072 0 61.2378 13.6027 833 122.88 194.073 484.562
1073 0 63.2656 13.4512 851 123.336 193.707 483.333
1074 0 64.1032 12.8855 826 126.481 193.666 482.34
1075 0 66.1739 14.5072 960 121.935 193.857 482.275
1076 0 70.3045 14.6079 1027 120.655 193.574 481.334
1077 0 72.2284 14.3572 1037 123.052 192.853 478.823
1078 0 75.2748 15.3039 1152 119.424 193.321 477.935
1079 0 76.2198 14.2745 1088 123.962 193.737 474.507
1080 0 81.1398 14.5921 1184 121.734 193.254 474.29
1081 0 81.2336 14.8461 1206 122.051 194.176 472.039
1082 0 85.2683 14.5541 1241 121.894 193.634 470.962
1083 0 87.1374 14.7124 1282 121.083 193.031 467.78
1084 0 88.5837 13.5804 1203 121.929 192.995 463.53
1085 0 90.2238 13.5663 1224 121.764 193.486 460.186
1086 1 47.3975 10.7601 510 116.6 193.62 486.524
1087 0 46.1286 11.4463 528 114.142 193.633 485.998
1088 0 49.038 11.5013 564 116.768 194.404 492.402
1089 0 52.0689 13.1748 686 112.315 193.869 492.034
1090 0 51.0808 11.6091 593 117.589 194.668 489.513
1091 0 55.0939 12.5967 694 114.411 194.546 487.585
1092 0 57.1261 12.7787 730 113.132 194.734 488.085
1093 0 58.0991 12.5819 731 114.045 193.527 487.134
1094 0 59.0246 12.4694 736 115.783 193.048 484.111
1095 0 62.1496 11.8907 739 116.037 192.683 482.932
1096 0 65.1532 14.535 947 108.681 194.021 481.362
1097 0 68.1207 13.6963 933 109.777 194.3 482.013
1098 0 70.0798 12.3716 867 113.727 193.919 480.805
1099 0 74.136 12.7603 946 112.307 194.76 479.891
1100 0 74.2265 12.4619 925 111.089 194.414 476.897
1101 0 78.1444 14.3452 1121 106.693 194.46 473.339
1102 0 81.1739 12.7874 1038 109.237 193.989 472.754
1103 0 83.0787 13.1442 1092 109.363 193.982 469.266
1104 0 87.0904 12.7109 1107 109.763 193.736 471.947
1105 0 89.0888 12.2687 1093 110.626 194.122 468.575
1106 0 93.1404 12.7657 1189 112.394 194.184 467.062
1107 1 47.0261 10.0582 473 105.778 195.531 491.717
1108 0 47.1737 10.4295 492 106.079 194.484 488.646
1109 0 49.0501 11.7431 576 111.615 194.608 491.847
1110 0 52.0475 12.7768 665 108.28 194.281 490.958
1111 0 53.0453 12.1406 644 110.404 194.2 491.269
1112 0 55.0355 12.501 688 109.023 194.661 490.699
1113 0 57.0601 13.109 748 108.778 194.628 487.373
1114 0 61.0589 12.9875 793 108.656 194.517 487.633
1115 0 59.0464 11.8551 700 113.846 194.893 485.804
1116 0 63.0406 12.7378 803 110.636 193.78 485.289
1117 0 64.0257 13.7289 879 110.685 193.742 484.697
1118 0 65.0923 13.3503 869 113.621 193.77 481.941
1119 0 67.0371 11.9635 802 117.576 194.259 483.004
1120 0 73.0772 13.8757 1014 111.806 193.233 480.302
1121 0 76.1185 14.5957 1111 109.833 193.696 480.895
1122 0 79.0566 12.7377 1007 116.231 193.325 478.816
1123 0 81.0424 13.4004 1086 115.341 192.955 476.654
1124 0 81.0386 11.8709 962 113.032 193.19 470.345
1125 0 86.087 12.801 1102 110.283 193.958 471.143
1126 1 44.0333 9.99244 440 107.434 195.327 491.639
1127 0 44.0297 11.1061 489 110.36 194.333 488.863
1128 0 48.0311 12.3045 591 123.008 194.623 491.14
1129 0 51.0864 12.8606 657 120.629 194.764 490.309
1130 0 52.031 13.3382 694 119.481 194.771 491.271
1131 0 54.0499 12.507 676 122.327 194.451 490.822
1132 0 55.0843 12.381 682 123.333 194.069 489.871
1133 0 55.0742 12.8191 706 123.965 194.493 488.331
1134 0 56.0486 11.9896 672 126.402 194.004 488.987
1135 0 59.1142 13.1948 780 122.862 194.433 488.246
1136 0 59.029 12.3329 728 125.565 193.85 487.379
1137 0 62.0358 13.6534 847 122.538 194.097 485.745
1138 0 65.0613 13.6179 886 121.48 194.589 484.044
1139 0 67.143 13.7021 920 120.861 194.023 484.112
1140 0 68.0694 12.5313 853 125.923 194.368 483.021
1141 0 70.0476 12.4201 870 126.116 194.456 482.549
1142 0 72.1018 12.9539 934 125.515 194.725 480.717
1143 1 39.0566 10.6768 417 127.54 194.122 496.674
1144 0 41.0311 12.259 503 121.231 194.362 497.956
1145 0 43.0323 12.479 537 123.985 193.855 495.13
1146 0 44.099 12.8121 565 124.255 193.535 494.727
1147 0 45.0992 12.1288 547 127.013 193.797 494.318
1148 0 47.044 13.1366 618 124.38 193.531 492.998
1149 0 48.2615 13.6341 658 125.116 192.857 491.46
1150 0 48.1103 12.2635 590 129.539 192.456 491.908
1151 0 50.1089 12.7522 639 127.3 192.875 492.39
1152 0 51.1441 13.4717 689 126.919 192.578 489.464
1153 0 54.0936 13.8094 747 123.549 192.676 490.284
1154 0 53.1019 13.8413 735 125.918 192.35 489.298
1155 0 55.1243 13.7145 756 126.671 192.481 488.152
1156 0 56.1584 12.9099 725 128.494 192.659 487.701
1157 0 59.1379 13.9335 824 123.763 192.246 486.754
1158 0 61.169 13.6343 834 124.267 191.781 486.127
1159 0 63.0917 13.5834 857 126.089 192.422 485.046
1160 0 64.1654 13.9327 894 126.52 192.898 483.68
1161 0 65.2048 14.0174 914 127.58 191.824 483.372
1162 0 70.1539 13.6272 956 127.998 191.85 482.276
1163 0 71.0848 13.7442 977 129.084 192.101 479.77
1164 0 71.2632 13.4852 961 130.585 191.717 479.69
1165 0 76.1203 14.8712 1132 124.693 192.434 478.876
1166 0 76.1389 14.0795 1072 129.462 192.628 476.704
1167 1 40.032 11.1411 446 129.07 193.502 497.058
1168 0 42.0372 12.1321 510 130.551 193.837 495.594
1169 0 42.0735 12.0266 506 130.043 193.549 494.951
1170 0 45.0893 12.3976 559 122.606 192.848 495.242
1171 0 44.081 13.5886 599 120.945 193.968 494.361
1172 0 45.0832 12.7098 573 124.26 193.482 494.325
1173 0 47.1473 12.2383 577 125.234 193.343 493.052
1174 0 50.0942 13.0754 655 122.629 193.492 491.771
1175 0 49.1327 11.6827 574 127.632 192.831 492.493
1176 0 53.1101 13.312 707 122.168 192.235 491.332
1177 0 53.1863 13.1613 700 124.28 193.534 489.476
1178 0 56.1274 13.4872 757 121.499 193.321 490.041
1179 0 59.0726 14.6599 866 117.61 192.452 488.673
1180 0 59.0809 13.3884 791 123.321 192.875 486.204
1181 0 60.1767 12.7956 770 126.383 193.827 486.478
1182 0 62.094 13.3346 828 124.331 193.554 486.168
1183 0 63.0683 13.5567 855 125.505 193 484.986
1184 0 64.041 12.9448 829 126.794 193.223 484.621
1185 0 70.1419 13.9146 976 122.149 192.998 484.925
1186 0 71.1036 14.7813 1051 122.827 192.806 480.75
1187 0 72.1104 14.2143 1025 124.657 192.698 482.328
1188 0 74.119 13.5863 1007 128.038 192.95 479.87
1189 0 77.1651 13.7886 1064 126.648 192.79 479.039
1190 0 80.1608 13.685 1097 127.603 193.127 475.241
1191 0 83.1716 13.8148 1149 127.413 192.627 474.439
1192 0 86.1158 13.1335 1131 128.879 193.187 474.299
1193 0 89.2083 13.4405 1199 127.796 193.389 473.224
1194 1 49.0732 12.8176 629 127.269 193.941 491.585
1195 0 50.0549 12.8459 643 128.535 193.35 490.449
1196 0 52.0617 13.945 726 126.303 192.869 490.189
1197 0 51.0294 13.3452 681 128.808 193.164 490.796
1198 0 55.1359 13.5484 747 126.256 192.732 490.058
1199 0 57.0357 13.5179 771 125.409 193.195 488.699
1200 0 56.0913 13.7811 773 127.814 192.653 486.992
1201 0 59.0841 13.3538 789 126.776 193.09 487.75
1202 0 59.179 12.2848 727 131.098 192.873 486.567
1203 0 62.1474 12.9048 802 128.906 192.463 484.561
1204 0 66.2314 14.2078 941 124.038 192.271 481.806
1205 0 68.155 13.7481 937 124.315 192.097 482.502
1206 0 72.1133 13.7145 989 121.508 193.026 480.903
1207 0 74.1775 13.4947 1001 122.923 192.857 478.856
1208 0 75.1108 12.7279 956 125.387 192.68 477.305
1209 0 79.0967 12.9967 1028 123.747 192.238 476.71
1210 0 82.1817 13.6527 1122 121.832 192.146 475.959
1211 0 84.202 13.0519 1099 122.885 192.198 476.363
1212 0 88.0748 13.2615 1168 121.897 192.583 474.796
1213 1 45.0742 11.3812 513 129.119 193.039 493.29
1214 0 48.0495 13.4237 645 121.237 192.746 491.881
1215 0 49.0092 13.2832 651 122.794 192.971 491.842
1216 0 49.0443 12.8047 628 125.151 192.331 491.573
1217 0 49.13 12.5789 618 125.694 193.1 490.825
1218 0 52.1613 13.2665 692 123.081 192.686 488.74
1219 0 53.1379 12.5334 666 125.227 192.799 489.396
1220 0 54.0836 13.701 741 122.584 192.628 486.991
1221 0 57.1053 12.871 735 122.558 193.176 487.347
1222 0 58.149 14.1705 824 119.375 193.381 488.309
1223 0 60.0871 14.1295 849 120.094 192.347 486.234
1224 0 63.1091 14.3719 907 118.794 192.899 483.83
1225 0 63.16 13.1729 832 122.663 192.544 483.393
1226 0 65.0963 12.1973 794 124.443 192.931 483.092
1227 0 70.1174 14.0764 987 118.525 192.495 480.759
1228 0 73.1082 14.5948 1067 116.278 192.894 482.033
1229 0 75.1129 14.0322 1054 119.182 193.313 477.878
1230 0 75.0759 13.7194 1030 121.24 193.139 476.63
1231 0 78.0632 14.0271 1095 118.308 193.066 475.732
1232 0 83.1108 13.0308 1083 118.631 192.897 477.252
1233 0 85.1278 14.0847 1199 113.64 192.607 474.59
1234 0 89.0471 13.5434 1206 114.235 193.172 473.721
1235 1 48.0752 13.1253 631 116.824 193.19 492.309
1236 0 47.0582 12.1339 571 119.958 191.953 490.809
1237 0 51.0611 13.1215 670 113.297 191.391 492.716
1238 0 51.047 14.3985 735 112.107 192.06 491.371
1239 0 54.0332 13.2696 717 115.067 192.278 489.883
1240 0 55.1405 14.2182 784 113.886 191.217 488.864
1241 0 56.0909 14.1021 791 115.195 191.716 489.128
1242 0 58.0524 14.0046 813 115.856 192.474 487.493
1243 0 59.0422 13.8037 815 117.199 192.21 485.881
1244 0 63.0797 14.7115 928 114.319 191.843 486.241
1245 0 65.0574 14.6793 955 115.042 192.117 485.683
1246 0 66.0758 13.2121 873 119.158 192.065 484.813
1247 0 68.0305 14.1701 964 118.599 192.1 483.146
1248 0 71.1568 14.9107 1061 116.904 192.233 479.507
1249 0 72.121 13.5883 980 121.318 192.25 481.271
1250 0 75.1516 14.2911 1074 119.853 191.754 478.867
1251 0 78.078 13.0639 1020 123.925 191.656 477.659
1252 0 82.1432 14.5965 1199 118.727 191.763 477.002
1253 0 82.0702 13.2691 1089 124.003 192.202 476.5
1254 0 85.0356 14.3234 1218 122.412 192.778 470.838
1255 0 90.0989 14.6395 1319 120.306 192.84 470.368
1256 1 48.1882 12.7002 612 127.448 192.126 485.431
1257 0 50.0363 13.3903 670 127.337 191.424 483.716
1258 0 52.1752 12.7072 663 117.066 192.712 488.06
1259 0 53.1079 12.71 675 118.35 192.72 489.529
1260 0 57.1258 13.8992 794 115.204 192.795 489.199
1261 0 55.0789 12.4367 685 123.371 192.542 488.067
1262 0 60.1227 14.3207 861 115.897 192.697 486.822
1263 0 60.057 13.7703 827 119.288 193.323 485.675
1264 0 65.1242 14.5721 949 116.247 193.066 485.521
1265 0 63.0533 14.1943 895 121.669 192.925 484.306
1266 0 66.113 13.3711 884 125.241 192.91 481.77
1267 0 68.0467 13.814 940 124.719 192.902 481.935
1268 0 73.19 14.3736 1052 122.505 193.112 481.907
1269 0 74.1031 13.4542 997 127.996 192.813 479.912
1270 0 78.0909 14.2782 1115 125.679 192.99 478.947
1271 0 81.1196 14.9286 1211 126.22 193.028 476.577
1272 0 82.1676 14.3852 1182 128.85 193.086 472.611
1273 0 87.2443 14.6944 1282 127.947 193.275 472.23
1274 0 89.0943 13.8168 1231 130.506 193.741 470.447
1275 1 43.1923 13.2662 573 125.215 193.976 494.497
1276 0 45.0733 11.8696 535 130.421 194.052 493.357
1277 0 47.1715 14.3095 675 128.553 192.45 490.378
1278 0 50.1808 13.9695 701 133.081 192.997 491.354
1279 0 50.0132 13.4564 673 127.782 192.38 490.7
1280 0 53.0534 14.2121 754 123.963 192.523 489.208
1281 0 55.0776 13.599 749 126.407 192.215 489.077
1282 0 56.088 14.0315 787 126.168 192.587 487.107
1283 0 59.0744 13.4576 795 127.088 193.22 487.218
1284 0 61.0677 13.6897 836 126.906 193.075 485.581
1285 0 62.1055 12.6237 784 129.991 192.541 485.147
1286 0 65.0437 14.5902 949 125.989 192.45 482.802
1287 0 65.0412 13.6068 885 132.384 191.88 481.696
1288 0 68.1097 14.0802 959 129.479 192.484 482.745
1289 0 72.1493 14.4284 1041 128.135 192.08 481.093
1290 0 72.0993 13.8559 999 132.435 192.78 479.522
1291 0 75.1313 14.1619 1064 131.044 192.365 479.173
1292 0 79.0946 14.805 1171 130.423 191.838 476.99
1293 0 80.1434 13.688 1097 134.217 192.742 474.733
1294 0 84.1794 14.2315 1198 130.397 191.707 474.72
1295 0 84.1741 13.1038 1103 135.702 192.747 473.717
1296 0 87.1645 13.9277 1214 133.773 192.222 470.947
1297 0 88.2146 14.2153 1254 133.444 192.018 470.9
1298 0 92.123 12.8307 1182 136.787 191.542 468.634
1299 0 96.1327 14.0847 1354 132.634 191.999 467.593
1300 0 99.1758 13.9147 1380 133.251 191.754 465.742
1301 0 104.186 14.167 1476 130.438 192.761 464.685
1302 0 108.129 14.3255 1549 131.391 192.881 458.905
1303 0 110.15 13.4181 1478 134.08 192.595 458.742
1304 0 116.19 14.1922 1649 131.236 192.726 457.224
1305 0 120.157 13.8735 1667 132.824 193.104 452.344
1306 1 60.0507 14.4878 870 129.816 193.012 482.491
1307 0 62.0911 13.8184 858 131.973 192.558 480.988
1308 0 64.0624 15.563 997 126.238 192.488 479.798
1309 0 67.1011 14.5303 975 127.487 192.269 480.068
1310 0 69.1612 14.6614 1014 127.778 192.58 477.391
1311 0 72.1825 14.9344 1078 125.702 193.079 478.201
1312 0 74.075 14.5258 1076 128.359 192.511 474.639
1313 0 76.0619 14.2384 1083 129.591 193.044 473.404
1314 0 78.1656 13.8808 1085 131.635 192.581 473.52
1315 0 81.0995 15.1172 1226 128.578 192.703 472.758
1316 0 83.2027 15.336 1276 130.149 193.071 471.473
1317 0 88.1699 15.6176 1377 129.85 192.641 470.72
1318 0 89.1206 14.5533 1297 133.598 192.317 469.785
1319 0 94.2956 15.1439 1428 130.655 191.827 467.127
1320 0 98.255 16.1926 1591 128.157 192.421 464.505
1321 1 46.1999 14.8918 688 136.501 191.846 489.202
1322 0 47.0779 15.0176 707 136.269 191.966 488.539
1323 0 47.1203 15.1739 715 136.61 192.206 486.506
1324 0 51.045 15.1435 773 133.671 192.136 486.965
1325 0 54.0595 15.7419 851 131.079 191.874 485.879
1326 0 54.0985 15.86 858 132.791 192.065 485.445
1327 0 57.0986 15.3944 879 133.918 191.055 483.677
1328 0 60.0774 16.1458 970 130.951 191.469 482.366
1329 0 61.0436 15.3661 938 135.21 191.928 481.838
1330 0 64.1648 15.6316 1003 132.895 192.453 480.748
1331 0 66.1903 16.4677 1090 130.876 191.958 480.613
1332 0 67.111 15.1093 1014 136.193 192.662 480.528
1333 0 69.2297 15.6436 1083 137.362 191.603 478.896
1334 0 71.0771 15.6309 1111 138.298 192.101 477.509
1335 0 74.1182 15.2999 1134 138.282 191.55 476.431
1336 0 76.1512 15.7975 1203 136.648 191.399 476.303
1337 0 81.2453 16.2348 1319 134.6 192.233 474.569
1338 0 83.1466 16.1402 1342 135.116 191.987 471.606
1339 0 85.1772 15.6967 1337 137.592 191.23 471.527
1340 0 89.295 15.1968 1357 139.055 191.696 469.007
1341 1 47.1186 14.3468 676 142.623 192.101 488.676
1342 0 47.14 15.1888 716 141.982 192.32 488.546
1343 0 49.3391 15.4239 761 140.92 192.389 487.213
1344 0 51.1754 15.5739 797 140.972 192.279 485.019
1345 0 53.1862 15.2107 809 140.494 192.413 486.032
1346 0 55.1863 16.1272 890 139.03 192.67 484.572
1347 0 57.1343 15.6998 897 140.129 192.656 483.132
1348 0 58.1067 16.0739 934 140.734 193.348 481.511
1349 0 60.2017 16.1457 972 141.34 192.548 481.038
1350 0 62.1194 15.6634 973 143.606 192.478 481.169
1351 0 65.1404 16.0883 1048 142.451 192.85 481.489
1352 0 67.0989 15.425 1035 145.422 192.588 480.103
1353 0 69.1088 16.0472 1109 143.832 192.234 478.474
1354 0 72.1088 16.281 1174 143.258 193.069 476.836
1355 0 75.1425 17.1674 1290 139.661 192.646 475.509
1356 0 75.1626 16.3246 1227 144.666 192.309 473.449
1357 0 79.1646 16.1689 1280 144.127 192.75 472.798
1358 0 81.0862 15.8597 1286 145.947 193.087 471.828
1359 0 85.0854 16.3718 1393 143.803 191.846 467.933
1360 0 87.1771 16.1051 1404 146.787 191.453 465.881
1361 0 91.1178 16.1439 1471 145.475 191.697 465.917
1362 0 94.2478 15.3637 1448 148.106 191.265 463.488
1363 1 43.1315 14.1428 610 150.879 191.379 488.484
1364 0 46.088 14.1468 652 148.376 191.693 488.158
1365 0 47.1105 14.5615 686 148.898 191.448 487.192
1366 0 47.1034 14.5849 687 151.454 191.566 486.479
1367 0 52.0557 14.7534 768 148.188 191.876 485.857
1368 0 52.0749 14.94 778 151.636 191.829 484.224
1369 0 55.108 14.7166 811 151.583 191.44 485.09
1370 0 56.08 15.6562 878 151.212 192.036 482.549
1371 0 59.0865 14.4703 855 157 192.266 481.784
1372 0 59.0978 15.0767 891 157.388 191.661 481.278
1373 0 59.0908 14.96 884 160.723 192.169 479.874
1374 0 64.0557 14.7216 943 160.424 191.9 478.854
1375 0 65.0424 15.1593 986 160.046 191.783 477.188
1376 0 66.1632 14.4945 959 163.93 191.863 476.239
1377 0 68.1001 14.6989 1001 164.392 192.365 476.162
1378 0 72.0464 15.3373 1105 161.05 191.702 476.258
1379 0 72.0586 15.3209 1104 164.812 191.672 474.031
1380 0 78.0585 15.1681 1184 162.357 191.97 472.89
1381 0 78.0774 15.0876 1178 164.567 191.67 471.115
1382 0 83.0967 15.5 1288 161.439 192.261 470.465
1383 0 87.0976 15.8328 1379 158.746 191.699 469.835
1384 0 90.1082 15.7144 1416 159.537 191.711 466.609
1385 0 93.2248 15.7254 1466 158.555 192.502 464.88
1386 0 98.074 15.886 1558 156.768 192.074 462.11
1387 1 49.008 12.1817 597 161.296 191.973 485.484
1388 0 52.0986 12.4379 648 159.943 193.264 484.097
1389 0 52.0603 12.8121 667 160.321 192.861 484.568
1390 0 53.0499 13.3459 708 158.291 192.832 483.037
1391 0 57.0883 13.3828 764 154.916 192.033 483.075
1392 0 60.1652 12.8812 775 156.228 192.181 482.581
1393 0 62.0815 15.0447 934 148.565 192.34 482.455
1394 0 62.1297 13.6328 847 156.093 192.379 481.56
1395 0 64.1237 14.3473 920 152.596 192.167 481.35
1396 0 68.2298 15.2719 1042 148.475 192.436 479.482
1397 0 72.0965 11.5678 834 159.427 191.953 478.415
1398 0 72.2763 15.247 1102 148.027 192.259 476.129
1399 0 75.2923 14.7558 1111 148.087 191.719 475.027
1400 0 75.0728 14.6791 1102 149.515 192.165 474.07
1401 0 80.2997 14.695 1180 147.624 191.819 472.063
1402 0 83.3379 14.1712 1181 147.841 192.378 471.08
1403 0 85.2984 13.318 1136 150.804 192.679 467.293
1404 0 89.2019 12.6567 1129 152.912 191.614 465.006
1405 0 92.3302 13.2893 1227 150.655 191.022 463.288
1406 0 97.3278 14.2919 1391 147.365 191.48 462.354
1407 0 96.2209 13.6561 1314 150.258 190.606 462.834
1408 0 99.3449 13.6394 1355 151.883 191.269 458.013
1409 0 105.491 13.4609 1420 151.574 191.263 456.846
1410 0 106.454 13.5363 1441 153.112 190.743 455.463
1411 0 111.414 13.939 1553 151.068 191.134 451.052
1412 0 116.323 13.7634 1601 151.404 191.032 448.443
1413 0 119.486 13.9096 1662 151.205 190.627 447.482
1414 0 122.41 12.9728 1588 155.336 190.669 444.637
1415 0 127.517 13.5041 1722 153.151 190.807 442.502
1416 0 131.346 13.8945 1825 151.747 190.803 441.386
1417 0 135.312 13.2878 1798 154.887 190.875 438.928
1418 0 138.429 14.2166 1968 152.752 190.683 437.192
1419 0 143.394 12.9922 1863 157.972 190.171 431.054
1420 0 148.597 13.3785 1988 157.325 190.331 428.175
1421 0 154.409 14.4228 2227 152.894 190.333 429.144
1422 0 157.673 12.9065 2035 159.922 190.796 425.078
1423 0 164.431 13.9024 2286 155.238 191.01 421.857
1424 1 40.0657 9.734 390 118.508 190.213 491.323
1425 0 42.1448 10.4876 442 116.946 191.097 489.414
1426 0 39.1154 9.28023 363 118.97 192.667 492.744
1427 0 38.0984 8.50429 324 122.031 191.324 492.33
1428 0 38.1245 9.96736 380 119.3 192.658 490.111
1429 0 38.1892 9.29583 355 118.741 191.408 492.177
1430 0 46.1395 6.39366 295 122.431 191.502 490.953
1431 0 46.0803 7.33502 338 120.737 191.793 487.991
1432 0 45.1242 8.35472 377 118.454 191.491 486.602
1433 0 46.0275 7.64761 352 119.281 191.034 486.148
1434 0 47.0674 7.81858 368 118.821 191.394 485.285
1435 0 46.0369 5.49559 253 119.798 191.719 490.051
1436 0 52.1218 7.50166 391 116.123 191.673 485.826
1437 0 53.0352 8.39066 445 114.569 192.018 481.279
1438 0 58.1097 6.50494 378 116.124 191.839 482.992
1439 0 54.0837 6.2126 336 117.872 191.438 481.167
1440 0 60.2206 7.32308 441 115.757 192.059 475.868
1441 0 62.1464 9.01098 560 111.268 191.609 479.989
1442 0 65.1788 8.63778 563 112.938 191.911 475.556
1443 0 67.1852 8.33517 560 112.645 192.546 475.57
1444 0 67.3092 7.35412 495 114.836 192.689 477.41
1445 0 73.2441 8.60138 630 113.625 192.213 471.879
1446 0 73.0759 7.99169 584 114.247 191.979 469.12
1447 0 77.1238 8.44098 651 113.052 192.14 473.834
1448 0 77.1526 7.85456 606 114.683 191.873 472.257
1449 1 54.0167 2.99907 162 122.327 190.34 488.401
1450 0 59.0833 6.2962 372 116.879 191.524 481.25
1451 1 27.0508 5.10151 138 120.58 192.036 495.123
1452 0 30.1087 8.20362 247 116.874 191.219 493.696
1453 0 27.0324 5.84483 158 115.88 191.424 496.854
1454 1 46.0248 8.97343 413 125.225 193.317 484.646
1455 0 50.1988 9.84088 494 114.113 192.196 488.182
1456 0 49.1684 9.7827 481 114.439 193.033 488.295
1457 0 48.1027 6.44454 310 121.935 193.171 485.81
1458 0 53.151 10.6301 565 113.582 192.678 484.304
1459 0 57.1797 10.091 577 115.451 192.215 485.109
1460 0 58.1277 9.41032 547 118.181 191.954 484.066
1461 0 59.0953 10.4408 617 117.102 192.348 482.708
1462 0 62.1071 11.7378 729 114.641 192.517 481.255
1463 0 62.1676 10.7934 671 118.311 192.569 481.012
1464 0 65.1691 11.9228 777 116.485 191.961 480.458
1465 0 66.1859 10.8633 719 119.008 191.743 481.655
1466 0 71.1156 11.0243 784 117.884 191.328 479.055
1467 0 72.1594 11.1697 806 118.083 191.604 478.871
1468 0 75.1027 11.1581 838 120.155 192.885 475.576
1469 0 75.0602 11.1777 839 121.698 192.99 474.366
1470 0 79.0478 11.6385 920 120.065 192.411 473.629
1471 0 81.0953 11.9489 969 121.028 193.11 471.963
1472 0 82.1418 12.5149 1028 121.602 193.129 471.648
1473 0 92.1312 13.3614 1231 115.403 192.882 472.342
1474 0 93.4016 14.4858 1353 114.926 192.454 466.202
1475 0 95.322 12.7463 1215 119.774 191.917 466.125
1476 1 50.3369 10.5688 532 118.893 193.194 488.006
1477 0 51.2861 11.0361 566 116.021 192.551 486.456
1478 0 55.5374 11.8299 657 119.3 192.454 484.426
1479 0 57.2095 13.7564 787 109.823 193.936 485.629
1480 0 59.156 12.7121 752 112.588 193.592 485.399
1481 0 59.1628 12.6938 751 114.927 192.79 483.795
1482 0 58.288 11.7691 686 118.799 193.738 483.157
1483 0 64.1084 12.4009 795 117.117 193.411 481.53
1484 0 65.1536 12.1252 790 118.505 193.673 479.84
1485 0 67.1642 12.6407 849 117.733 193.342 479.148
1486 0 69.3231 12.6221 875 118.033 192.973 477.736
1487 0 72.4435 12.2716 889 119.3 192.035 477.102
1488 0 74.3404 11.7433 873 118.7 191.994 478.123
1489 0 76.2591 13.0476 995 116.973 192.37 475.84
1490 0 78.3632 12.5697 985 119.221 191.881 473.242
1491 0 84.3379 11.4895 969 118.926 192.788 475.959
1492 0 84.3202 12.5237 1056 121.33 192.355 471.55
1493 0 87.243 13.1472 1147 120.867 192.25 468.557
1494 0 90.3137 12.2241 1104 123.259 192.303 469.863
1495 1 48.1892 10.6455 513 121.183 192.548 489.271
1496 0 51.2075 11.717 600 117.633 192.448 488.632
1497 0 52.254 12.1904 637 116.664 192.124 487.911
1498 0 56.1882 11.1055 624 116.454 192.553 485.535
1499 0 56.1141 12.5637 705 110.129 192.668 486.396
1500 0 58.2351 11.5223 671 114.237 191.817 482.162
1501 0 60.1846 12.4118 747 110.576 192.1 483.051
1502 0 60.1489 10.3576 623 116.811 192.082 482.475
1503 0 65.1784 12.7956 834 111.755 191.423 482.493
1504 0 65.0606 12.496 813 113.483 191.807 482.419
1505 0 65.2148 12.6352 824 115.78 191.142 480.049
1506 0 66.1143 12.7053 840 114.043 191.351 480.014
1507 0 64.0878 12.358 792 118.874 191.716 477.143
1508 0 66.2334 13.1505 871 116.379 192.478 478.406
1509 0 67.2068 12.6624 851 119.846 191.875 477.247
1510 0 71.2209 12.0189 856 120.257 192.104 476.482
1511 0 74.2637 12.1728 904 117.459 191.741 476.341
1512 0 76.1763 11.841 902 118.153 191.961 474.113
1513 0 78.2834 12.7358 997 113.882 192.697 474.612
1514 0 82.268 12.6538 1041 114.183 192.066 472.783
1515 1 44.2484 10.8026 478 111.636 193.029 491.038
1516 0 45.2151 10.638 481 110.056 193.067 493.484
1517 0 47.2674 11.5513 546 110.178 192.802 489.826
1518 0 48.0715 11.0876 533 110.811 192.492 489.355
1519 0 48.06 10.903 524 119.878 191.613 489.992
1520 0 51.1884 12.8154 656 118.428 191.131 489.488
1521 0 52.1371 12.6781 661 122.377 191.234 487.867
1522 0 53.1132 13.0664 694 121.66 190.686 489.565
1523 0 55.2233 13.1466 726 122.977 190.35 486.623
1524 0 55.1406 13.5653 748 123.524 190.483 487.636
1525 0 56.2312 13.4623 757 125.349 190.831 486.835
1526 0 59.2103 13.7476 814 124.775 190.842 487.086
1527 0 61.0678 12.8873 787 128.187 191.164 485.464
1528 0 61.1043 13.256 810 129.709 190.74 483.875
1529 0 62.1155 13.813 858 129.244 190.633 484.359
1530 0 64.126 13.4111 860 131.276 190.431 484.063
1531 0 65.1098 13.8996 905 131.277 190.429 481.091
1532 0 68.0714 12.7807 870 134.625 190.91 482.252
1533 0 69.1207 13.3679 924 135.262 190.663 481.332
1534 0 71.1202 13.3155 947 136.394 190.402 480.571
1535 0 73.1477 13.794 1009 138.416 189.358 479.058
1536 0 74.0457 13.6267 1009 145.864 189.534 477.693
1537 0 76.2122 13.2 1006 146.866 189.018 476.913
1538 0 76.2328 12.6455 964 148.744 189.366 475.659
1539 0 79.1404 11.4859 909 148.011 190.223 475.689
1540 0 81.1093 12.403 1006 142.486 190.342 477.679
1541 0 86.1282 12.9458 1115 142.239 190.075 473.66
1542 0 87.2184 12.3025 1073 143.714 189.944 474.156
1543 0 89.1242 12.8136 1142 143.612 189.628 470.259
1544 0 93.1378 13.2921 1238 141.602 190.522 471.417
1545 0 96.1227 13.5764 1305 140.533 190.525 469.106
1546 0 97.1665 12.6381 1228 144.256 189.998 466.066
1547 0 101.197 12.6288 1278 143.879 189.568 465.093
1548 0 105.43 13.4781 1421 140.584 190.199 461.564
1549 0 110.262 13.2231 1458 140.591 190.576 459.968
1550 0 114.359 13.7113 1568 139.239 190.006 457.573
1551 0 118.12 13.0206 1538 141.083 190.215 457.382
1552 1 63.095 11.2053 707 134.608 190.686 479.601
1553 0 66.2019 12.0238 796 132.235 190.769 478.366
1554 0 70.0441 13.0061 911 136.17 189.751 479.863
1555 0 72.2169 12.8502 928 134.375 189.011 480.579
1556 0 74.0556 13.1658 975 133.963 189.234 478.426
1557 0 77.1111 12.7089 980 135.389 188.873 476.314
1558 0 79.1246 12.4487 985 136.44 189.217 473.497
1559 0 83.1003 12.1179 1007 135.938 189.519 473.257
1560 0 85.19 13.0766 1114 133.281 189.522 471.174
1561 0 86.1004 13.0081 1120 132.992 189.706 471.812
1562 0 91.1452 13.1658 1200 132.318 189.199 468.253
1563 0 92.1668 12.4882 1151 134.428 189.689 467.494
1564 0 95.1758 12.955 1233 132.804 189.585 465.674
1565 0 98.3264 13.1094 1289 132.073 190.228 461.326
1566 0 103.223 12.5747 1298 132.814 190.001 458.144
1567 0 107.395 13.4363 1443 130.161 190.199 456.92
1568 0 112.259 13.7094 1539 128.368 189.908 455.517
1569 1 59.1407 10.3482 612 124.425 189.536 482.877
1570 0 62.1038 12.0282 747 121.819 188.758 479.056
1571 0 65.1452 12.8482 837 121.937 188.885 480.541
1572 0 66.1509 10.6121 702 128.028 188.101 483.007
1573 0 70.1744 11.6139 815 124.682 189.321 479.609
1574 0 72.2184 11.9775 865 123.868 189.372 477.906
1575 0 75.4071 12.4524 939 121.825 188.73 478.31
1576 0 77.2875 12.0589 932 123.207 189.247 475.16
1577 0 77.2504 12.4789 964 123.487 189.427 474.566
1578 0 83.392 11.9436 996 123.619 188.332 473.139
1579 0 84.4277 11.8918 1004 123.62 189.404 471.648
1580 0 87.2464 11.9203 1040 123.019 189.348 470.891
1581 0 90.4261 11.866 1073 120.43 190.33 467.666
1582 0 92.1523 11.9802 1104 112.198 190.519 467.465
1583 0 94.1197 12.3779 1165 112.832 190.204 467.315
1584 0 97.1715 11.3614 1104 114.882 190.144 464.839
1585 0 100.171 11.6102 1163 115.439 189.966 463.899
1586 0 104.162 12.3941 1291 114.594 190.246 462.853
1587 0 108.28 11.6919 1266 116.148 190.26 460.9
1588 0 112.203 11.907 1336 116.856 189.588 456.446
1589 0 116.445 12.7099 1480 114.576 189.186 455.259
1590 1 67.0926 10.1501 681 114.257 190.075 481.35
1591 0 69.1778 10.7115 741 114.601 189.714 479.204
1592 0 69.1778 10.6971 740 136.173 188.708 479.164
1593 0 73.1457 12.1812 891 108.201 190.788 479.103
1594 0 75.1219 11.3549 853 109.748 190.826 479.667
1595 0 77.0567 12.0561 929 108.647 190.717 476.369
1596 0 77.1179 10.2051 787 111.912 190.809 478.089
1597 0 81.1185 11.3168 918 110.632 190.892 474.568
1598 0 84.0951 11.4751 965 109.714 190.427 474.752
1599 0 88.066 10.5489 929 112.388 190.705 472.784
1600 0 91.1627 11.0901 1011 111.049 191.118 470.316
1601 0 94.0796 11.7347 1104 109.817 190.679 470.159
1602 0 93.1737 10.6897 996 113.488 190.638 466.539
1603 0 99.1461 12.3858 1228 108.756 189.97 465.787
1604 0 101.134 10.3922 1051 112.916 190.322 466.427
1605 0 103.131 10.4721 1080 113.377 190.054 463.942
1606 0 108.076 12.1488 1313 110.161 190.612 460.249
1607 0 111.136 11.3554 1262 111.746 190.209 459.758
1608 0 113.156 10.6667 1207 114.212 190.598 456.247
1609 0 119.204 13.0784 1559 108.213 190.268 454.47
1610 0 122.143 11.7076 1430 110.544 189.262 452.996
1611 0 126.2 12.7892 1614 109.233 189.434 451.061
1612 0 131.143 12.2995 1613 109.952 189.745 446.42
1613 0 135.211 11.4266 1545 110.164 189.596 447.137
1614 1 74.2172 10.6579 791 107.407 188.927 470.776
1615 0 78.5182 13.0161 1022 107.031 190.199 468.605
1616 0 78.0926 12.1266 947 108.517 188.812 469.659
1617 0 84.1249 13.4205 1129 104.04 188.528 468.909
1618 0 84.1184 13.6118 1145 105.045 188.796 467.566
1619 0 88.1446 12.4795 1100 107.884 188.911 465.264
1620 0 90.0562 11.6261 1047 109.742 187.848 464.207
1621 0 90.1316 11.5831 1044 111.222 188.794 462.623
1622 0 94.0476 11.9408 1123 111.176 188.644 459.913
1623 0 95.1077 11.8497 1127 112.094 188.835 458.95
1624 0 101.098 12.2753 1241 110.78 188.247 456.156
1625 0 102.089 12.019 1227 111.416 188.236 454.21
1626 0 108.264 11.943 1293 110.455 188.362 451.91
1627 0 108.174 12.2303 1323 110.204 188.814 447.259
1628 0 110.289 11.8416 1306 112.342 188.783 447.328
1629 1 58.0802 10.3133 599 106.663 189.559 472.043
1630 0 65.1065 9.53822 621 106.378 189.76 474.742
1631 0 66.1081 9.09117 601 104.378 189.045 480.689
1632 0 66.1623 9.8999 655 105.345 188.844 477.714
1633 0 71.2866 10.4648 746 103.921 188.796 478.16
1634 0 72.1048 9.43072 680 106.529 189.144 477.281
1635 0 75.1568 10.2452 770 106.644 188.79 473.364
1636 0 80.2004 12.0448 966 101.213 188.833 475.074
1637 0 84.284 11.4257 963 103.091 188.229 471.746
1638 0 86.2363 12.3034 1061 103.517 188.697 471.31
1639 0 88.0931 12.7706 1125 103.727 188.237 470.039
1640 0 90.1564 12.5227 1129 108.917 188.562 468.847
1641 0 93.1183 12.7258 1185 109.116 187.84 467.132
1642 0 97.1344 13.5071 1312 106.713 188.29 467.489
1643 0 102.174 13.5064 1380 106.015 189.349 463.634
1644 0 103.127 14.5839 1504 104.55 188.261 462.787
1645 0 104.145 12.6363 1316 110.286 188.856 458
1646 0 108.2 13.1331 1421 108.147 188.8 458.617
1647 0 113.134 13.8243 1564 105.729 188.668 455.331
1648 1 64.064 10.8954 698 106.996 189.698 483.785
1649 0 68.0422 13.33 907 100.946 190.58 483.241
1650 0 65.0614 12.6035 820 101.289 188.477 482.712
1651 0 68.177 13.4649 918 99.2048 189.212 480.483
1652 0 69.0717 12.1902 842 103.031 188.213 480.169
1653 0 72.1199 12.7981 923 101.782 187.62 478.949
1654 0 73.0628 12.0307 879 105.022 187.981 475.505
1655 0 77.1358 12.9771 1001 102.605 187.841 475.558
1656 0 79.2842 13.357 1059 102.212 188.189 475.843
1657 0 80.1254 12.5304 1004 105.275 187.646 473.57
1658 0 82.1264 11.4458 940 108.01 188.171 473.214
1659 0 84.1654 11.2992 951 108.248 188.029 471.625
1660 0 88.1814 12.3609 1090 105.756 188.937 469.191
1661 0 91.2272 13.8884 1267 102.871 188.54 467.736
1662 0 91.1035 12.8206 1168 107.211 189.009 469.046
1663 0 94.158 11.0028 1036 109.468 188.382 471.065
1664 0 96.2564 11.22 1080 111.215 187.958 460.558
1665 0 102.23 13.7337 1404 105.142 188.395 463.86
1666 0 104.134 11.6869 1217 109.38 188.543 464.791
1667 0 107.13 12.0601 1292 108.523 188.67 462.642
1668 0 112.312 12.1804 1368 108.493 188.517 458.248
1669 1 59.2338 9.84236 583 104.161 188.7 476.78
1670 0 61.3365 9.50494 583 106.053 188.473 474.096
1671 0 62.1775 10.7274 667 101.621 187.6 476.646
1672 0 63.2753 10.7309 679 102.686 188.99 475.012
1673 0 66.1861 10.6216 703 105.016 189.149 472.383
1674 0 68.1857 11.0727 755 102.75 188.609 473.62
1675 0 72.1378 11.7691 849 101.448 189.119 471.933
1676 0 74.1841 11.3232 840 102.873 189.631 469.371
1677 0 77.3396 10.719 829 103.808 189.654 469.683
1678 0 80.3199 10.6449 855 104.793 189.683 467.568
1679 0 82.2015 11.9949 986 102.224 190.068 468.346
1680 0 85.2227 11.4289 974 104.747 189.853 465.325
1681 0 85.0459 12.6167 1073 104.689 189.288 462.19
1682 0 88.1489 11.7301 1034 106.284 189.33 464.732
1683 0 89.1447 11.543 1029 109.294 188.667 460.691
1684 0 93.3491 10.9374 1021 109.219 190.097 461.423
1685 1 50.2444 8.7373 439 105.777 189.501 480.907
1686 0 51.193 9.35674 479 105.042 189.956 481.566
1687 0 59.1703 11.9486 707 102.252 190.54 485.975
1688 0 58.1174 11.3563 660 105.406 191.397 482.183
1689 0 55.1012 10.6168 585 101.691 190.128 478.01
1690 0 60.153 10.7891 649 100.482 190.162 477.267
1691 0 62.0759 13.1935 819 95.4347 190.01 477.829
1692 0 64.1313 11.9442 766 99.3225 189.636 476.334
1693 0 64.0464 12.0225 770 100.104 189.036 475.786
1694 0 63.0749 10.7333 677 104.124 189.563 473.334
1695 0 67.1345 11.1865 751 102.453 190.411 472.692
1696 0 73.1155 13.4582 984 95.8161 189.727 473.234
1697 0 74.0709 11.5565 856 101.013 189.556 472.551
1698 0 76.1174 12.0209 915 100.696 189.92 470.525
1699 0 79.3012 10.9582 869 103.623 188.305 470.795
1700 0 78.0594 11.9524 933 102.63 189.122 467.332
1701 0 83.0679 11.4846 954 102.742 189.578 468.799
1702 0 88.1354 12.4127 1094 100.427 189.48 466.22
1703 0 89.1596 13.2908 1185 99.9198 188.617 466.37
1704 0 87.1266 10.9266 952 104.18 189.06 461.631
1705 0 94.1526 13.1382 1237 97.9644 189.09 459.914
1706 0 98.2476 12.5194 1230 98.6041 189.615 459.153
1707 1 54.22 9.70122 526 99.943 190.065 482.084
1708 0 54.1733 12.2385 663 99.2036 189.418 483.373
1709 0 52.0536 9.49022 494 102.474 189.581 481.678
1710 0 52.1891 9.5997 501 104.293 189.279 479.567
1711 0 57.1669 11.3002 646 99.3142 190.104 480.478
1712 0 58.0907 11.1722 649 110.066 188.41 485.002
1713 0 61.1609 11.7232 717 108.317 188.841 485.074
1714 0 62.1027 12.2056 758 108.339 188.956 481.615
1715 0 65.1843 12.9632 845 105.477 188.31 481.694
1716 0 69.1885 12.8634 890 106.671 188.64 480.052
1717 0 70.1422 12.2466 859 106.846 188.973 477.832
1718 0 73.2757 12.4598 913 105.584 189.048 477.993
1719 0 77.0501 12.9137 995 103.217 188.202 474.355
1720 0 79.1194 13.625 1078 102.607 187.961 473.762
1721 0 82.0892 12.4499 1022 105.566 188.484 474.14
1722 0 83.184 12.4183 1033 107.365 188.377 473.086
1723 0 85.1403 12.9433 1102 106.337 189.638 472.041
1724 0 91.1135 13.2362 1206 106.355 188.701 470.051
1725 0 91.1299 12.367 1127 110.147 189.71 469.581
1726 0 94.1761 13.4748 1269 111.114 189.519 465.068
1727 0 97.2119 12.303 1196 114.412 189.619 464.646
1728 0 101.284 14.3359 1452 110.49 189.798 461.939
1729 0 104.221 13.0972 1365 114.692 189.774 459.818
1730 0 106.235 12.5194 1330 116.811 190.026 460.34
1731 1 57.1443 9.27476 530 116.613 190.428 484.526
1732 0 59.2201 12.614 747 109.799 190.162 483.436
1733 0 62.4524 11.2886 705 117.325 189.536 479.784
1734 0 63.1689 11.9363 754 114.252 188.763 480.899
1735 0 67.0776 12.0308 807 113.537 190.26 481.024
1736 0 68.19 11.3946 777 115.584 190.225 481.735
1737 0 69.1102 11.5178 796 118.308 189.964 478.833
1738 0 72.2534 12.041 870 118.318 190.269 478.178
1739 0 75.2826 11.9682 901 120.922 190.17 475.781
1740 0 78.336 13.4293 1052 115.871 190.291 476.78
1741 0 79.3036 12.4963 991 121.893 189.147 472.285
1742 0 83.483 12.9967 1085 120.336 189.99 473.847
1743 0 83.3953 11.7273 978 125.462 189.896 472.775
1744 0 87.2558 13.088 1142 123.187 189.429 470.075
1745 0 90.3239 12.9866 1173 122.758 189.638 471.485
1746 0 93.2596 12.3097 1148 126.457 189.087 467.774
1747 0 95.294 11.9525 1139 128.199 189.212 465.926
1748 0 99.2847 13.0836 1299 125.358 189.394 463.831
1749 0 104.324 12.375 1291 128.077 190.189 464.389
1750 1 53.1051 10.8841 578 123.619 189.4 488.765
1751 0 58.1327 11.5942 674 120.426 188.883 486.734
1752 0 57.1139 11.1532 637 123.279 188.521 484.433
1753 0 60.2277 12.3697 745 123.234 188.725 483.189
1754 0 59.1453 12.0212 711 125.48 189.437 483.481
1755 0 63.2074 12.0714 763 123.249 189.26 484.435
1756 0 64.1406 11.5839 743 126.281 189.716 481.498
1757 0 67.3308 12.951 872 122.424 189.68 480.094
1758 0 70.1132 13.5353 949 120.8 190.109 479.513
1759 0 73.456 12.8512 944 122.523 190.542 479.198
1760 0 74.1812 12.2268 907 125.026 189.879 477.654
1761 0 76.2706 12.7572 973 124.957 189.411 474.96
1762 0 78.2044 11.5978 907 127.589 190.05 476.087
1763 0 80.0989 12.9215 1035 126.225 190.607 472.541
1764 0 84.1636 13.6639 1150 123.717 189.843 470.689
1765 0 84.2498 11.2997 952 131.099 189.897 469.517
1766 0 88.4598 12.4802 1104 127.99 189.424 468.041
1767 0 92.4012 12.3159 1138 127.27 189.715 467.292
1768 0 97.489 12.9245 1260 125.214 189.583 465.445
1769 1 51.2112 10.6813 547 127.806 189.435 486.658
1770 0 54.557 11.4742 626 125.736 189.396 484.652
1771 0 55.1013 12.232 674 122.181 189.004 482.515
1772 0 56.1085 12.3154 691 117.938 188.794 479.931
1773 0 57.0526 12.0766 689 119.874 189.755 479.424
1774 0 60.1329 12.356 743 120.542 188.886 480.314
1775 0 60.0535 11.8394 711 121.646 189.311 477.855
1776 0 62.0455 11.7494 729 122.322 188.761 476.861
1777 0 65.1339 13.1422 856 119.018 188.563 474.692
1778 0 65.0847 12.8602 837 121.657 188.508 473.854
1779 0 67.0114 13.2365 887 121.31 188.756 472.64
1780 0 70.2499 13.5658 953 121.537 188.485 473.305
1781 0 72.2244 13.0288 941 124.371 188.828 470.939
1782 0 74.0918 14.2256 1054 122.009 189.293 470.461
1783 0 74.1786 12.7665 947 129.889 189.185 469.086
1784 0 78.1405 12.7847 999 128.913 189.288 466.78
1785 0 80.1482 14.024 1124 125.343 188.947 467.916
1786 0 85.1658 14.4072 1227 124.03 188.973 465.431
1787 0 89.1762 14.3536 1280 123.809 188.862 463.398
1788 0 90.1995 13.8249 1247 125.833 188.871 462.785
1789 0 96.2389 14.6199 1407 121.133 188.259 460.859
1790 1 50.1369 11.5683 580 122.747 189.072 483.884
1791 0 53.3021 12.326 657 125.7 189.146 481.455
1792 0 53.0959 12.581 668 122.222 188.482 481.952
1793 0 56.1988 13.0074 731 117.631 188.718 483.673
1794 0 57.1317 13.1451 751 118.146 188.819 482.14
1795 0 60.0789 13.6986 823 117.451 188.793 480.821
1796 0 60.0883 13.5967 817 152.753 187.82 480.718
1797 0 61.3752 13.8167 848 117.373 189.873 474.672
1798 0 63.1793 12.425 785 121.316 189.434 475.85
1799 0 66.1998 13.0816 866 119.538 189.801 475.247
1800 0 68.3026 13.8648 947 119.702 190.114 472.586
1801 0 70.2149 13.6011 955 122.605 190.138 470.401
1802 0 70.1842 13.4361 943 126.176 189.964 469.2
1803 0 73.1347 12.8257 938 127.909 189.893 469.477
1804 0 78.1703 14.0207 1096 122.703 189.401 469.849
1805 0 80.2678 13.3802 1074 125.719 189.98 467.093
1806 0 80.4035 12.7979 1029 129.251 189.578 467.333
1807 0 84.2365 14.2456 1200 125.023 190.132 465.917
1808 0 88.2645 13.097 1156 128.452 189.841 463.364
1809 0 91.178 13.183 1202 127.002 190.237 463.563
1810 0 94.2425 13.391 1262 128.174 190.1 458.448
1811 1 51.3029 11.5393 592 125.284 189.735 481.931
1812 0 54.4117 11.7438 639 126.031 189.512 479.469
1813 0 56.0488 12.614 707 117.17 189.3 479.055
1814 0 57.1683 11.6673 667 118.132 189.588 481.075
1815 0 62.0707 12.8885 800 118.239 188.91 479.625
1816 0 61.0839 12.1963 745 117.988 189.326 476.604
1817 0 65.0988 12.7959 833 116.405 189.484 476.417
1818 0 65.114 13.3151 867 117.33 189.621 474.506
1819 0 69.1368 13.8132 955 116.984 188.992 473.348
1820 0 70.0964 13.5956 953 119.53 189.322 472.176
1821 0 72.1754 13.1208 947 122.216 188.976 472.76
1822 0 74.1382 14.1897 1052 120.742 189.331 470.586
1823 0 74.1935 12.5213 929 127.219 189.804 470.643
1824 0 76.1882 12.6135 961 129.203 189.77 468.225
1825 0 78.335 12.2423 959 130.497 189.828 467.585
1826 0 81.2859 13.4095 1090 127.794 189.506 465.839
1827 0 84.2586 12.3192 1038 131.777 189.046 464.212
1828 0 89.2365 14.0525 1254 125.348 189.301 464.339
1829 0 89.1626 11.3052 1008 135.576 189.538 462.163
1830 0 91.1329 11.9715 1091 134.768 189.284 458.982
1831 1 49.1398 10.8059 531 132.8 188.631 479.045
1832 0 54.1194 10.9203 591 130.841 189.354 478.751
1833 0 56.0502 11.9357 669 126.58 189.428 479.677
1834 0 57.0552 11.7956 673 127.135 188.988 480.886
1835 0 58.0723 10.9691 637 129.887 188.085 481.276
1836 0 60.1988 11.678 703 128.669 189.831 476.61
1837 0 61.2618 12.5037 766 125.935 190.232 477.766
1838 0 60.1993 11.9935 722 130.76 189.648 473.386
1839 0 61.1105 13.1238 802 127.291 189.829 472.662
1840 0 64.2516 13.3538 858 125.8 190.629 474.834
1841 0 66.1228 12.6431 836 129.786 190.221 470.578
1842 0 69.1668 11.3783 787 131.532 189.604 471.734
1843 0 73.1484 12.167 890 129.549 189.602 471.48
1844 0 74.1887 12.5356 930 129.919 189.948 468.383
1845 0 77.0953 12.5948 971 128.855 189.35 469.151
1846 0 80.1599 12.999 1042 127.188 190.032 467.037
1847 0 83.1106 12.3931 1030 129.985 189.916 464.544
1848 0 87.1272 13.5319 1179 126.625 189.959 463.291
1849 0 89.1012 12.7832 1139 128.485 189.393 462.366
1850 0 91.2448 12.6911 1158 129.085 189.731 458.29
1851 0 92.142 12.3831 1141 130.695 189.725 458.72
1852 0 99.1202 13.5795 1346 125.534 189.96 456.99
1853 1 50.0746 9.26617 464 127.405 190.5 479.157
1854 0 52.0743 11.9253 621 121.599 189.433 477.834
1855 0 57.1152 11.9408 682 122.205 189.179 482.097
1856 0 59.0615 12.3261 728 118.521 189.614 482.321
1857 0 62.0326 11.9453 741 118.412 190.359 481.323
1858 0 65.156 12.2168 796 115.894 190.226 481.709
1859 0 67.0649 13.4049 899 113.631 190.445 479.513
1860 0 67.1495 12.4647 837 117.406 190.004 478.298
1861 0 71.162 12.7456 907 116.222 190.325 478.535
1862 0 74.0924 12.9028 956 116.662 190.406 477.611
1863 0 76.0975 13.3513 1016 117.94 190.107 474.445
1864 0 77.1543 12.7925 987 121.972 190.521 472.243
1865 0 78.1676 12.5755 983 121.991 190.222 474.356
1866 0 83.114 11.7188 974 124.448 190.964 471.53
1867 0 84.2974 12.444 1049 124.424 190.667 467.929
1868 0 86.1614 11.2579 970 128.367 189.971 469.846
1869 0 90.1879 13.3166 1201 124.415 190.45 466.366
1870 0 91.2552 13.139 1199 126.028 190.395 466.754
1871 0 95.3075 14.2171 1355 123.59 190.681 465.807
1872 0 97.1273 13.6934 1330 124.829 190.017 464.415
1873 0 100.171 13.2972 1332 127.347 189.081 461.868
1874 0 104.156 13.7487 1432 125.964 189.83 459.957
1875 0 107.249 14.1261 1515 126.159 189.603 459.192
1876 0 109.332 12.9697 1418 130.101 189.931 458.744
1877 0 113.347 12.9779 1471 130.418 189.704 452.646
1878 1 65.1836 10.5701 689 121.454 191.524 479.583
1879 0 65.0456 10.0699 655 123.695 189.061 476.176
1880 0 69.0871 12.0283 831 120.622 188.803 479.206
1881 0 71.1264 11.4866 817 121.781 189.389 478.184
1882 0 73.1159 11.1057 812 124.648 189.403 475.695
1883 0 75.0933 11.7454 882 124.194 189.084 473.923
1884 0 76.0839 11.645 886 124.747 189.244 473.324
1885 0 80.1317 10.8322 868 127.21 189.245 469.719
1886 0 83.0814 12.5419 1042 122.792 189.24 470.538
1887 0 85.392 12.4719 1065 123.083 188.922 471.828
1888 0 88.0991 12.1681 1072 125.217 189.516 467.796
1889 0 89.1212 12.455 1110 126.22 189.232 465.359
1890 0 93.237 11.755 1096 127.495 189.587 466.331
1891 0 95.1326 12.9503 1232 125.92 189.469 464.259
1892 0 97.2312 11.6321 1131 129.033 189.947 462.149
1893 0 102.195 12.9459 1323 125.923 190.1 459.009
1894 0 104.268 11.4033 1189 129.311 190.151 459.743
1895 0 107.351 12.38 1329 126.986 189.919 458.853
1896 0 110.172 12.1809 1342 127.905 189.504 456.166
1897 0 113.156 11.0202 1247 131.259 189.687 455.123
1898 0 116.279 11.1972 1302 131.336 189.459 450.517
1899 0 122.349 12.9384 1583 126.79 188.967 447.929
1900 0 127.354 12.3043 1567 127.562 189.191 447.293
1901 0 130.21 11.7656 1532 129.262 189.18 446.813
1902 0 137.361 13.0678 1795 126.282 189.184 443.017
1903 0 140.282 13.3945 1879 125.931 188.466 440.528
1904 0 146.294 13.1243 1920 127.401 189.136 438.164
1905 0 151.294 12.3072 1862 128.726 188.89 439.298
1906 1 89.33 10.6683 953 126.226 188.442 466.437
1907 0 89.3554 10.1057 903 123.349 188.496 459.906
1908 0 93.1825 10.8497 1011 119.326 188.6 455.519
1909 0 99.1062 12.3201 1221 121.913 188.025 463.064
1910 0 100.152 12.9004 1292 122.399 187.626 458.222
1911 0 104.098 11.0953 1155 125.732 187.725 461.583
1912 0 105.157 11.0882 1166 116.68 188.533 462.987
1913 0 105.246 10.6417 1120 123.012 189.934 458.867
1914 0 111.189 12.2405 1361 120.081 189.799 457.45
1915 0 116.207 12.0647 1402 119.447 189.258 457.656
1916 0 117.125 11.2615 1319 123.585 189.449 452.543
1917 0 121.175 12.0322 1458 122.422 189.611 450.163
1918 0 125.171 11.0489 1383 124.988 189.268 449.477
1919 0 129.149 11.1886 1445 125.963 189.664 443.605
1920 0 133.189 9.71554 1294 129.366 188.889 444.774
1921 1 77.0677 9.93931 766 122.342 190.222 473.048
1922 0 81.0664 10.769 873 120.294 190.097 471.498
1923 0 82.0752 11.063 908 118.168 190.168 470.401
1924 0 84.1086 11.4495 963 117.592 190.263 470.099
1925 0 88.1325 11.9366 1052 116.914 189.226 470.182
1926 0 88.0375 10.575 931 120.544 190.045 469.269
1927 0 94.0907 11.9034 1120 117.938 190.321 465.803
1928 0 97.0609 11.7143 1137 118.744 189.905 466.272
1929 0 99.0582 12.74 1262 116.487 190.062 464.523
1930 0 102.109 11.9088 1216 120.656 190.336 463.145
1931 0 105.147 13.0484 1372 120.235 190.258 461.965
1932 0 108.036 12.5329 1354 125.382 189.617 458.287
1933 0 109.161 13.1457 1435 125.482 189.61 454.939
1934 0 115.279 12.5174 1443 129.788 189.791 454.859
1935 0 118.203 12.0132 1420 131.594 189.966 453.92
1936 0 123.27 12.1927 1503 132.287 189.948 453.455
1937 1 72.1163 11.5369 832 127.891 189.499 478.716
1938 0 73.0988 11.7239 857 128.179 189.424 476.948
1939 0 75.0895 11.6927 878 125.519 189.464 475.351
1940 0 74.0827 10.6638 790 128.724 189.982 474.809
1941 0 77.1026 11.154 860 127.501 189.745 475.722
1942 0 80.1633 11.9631 959 126.607 189.394 473.99
1943 0 80.0546 10.9675 878 131.518 190.068 473.803
1944 0 84.105 11.8423 996 129.271 189.807 473.144
1945 0 90.0682 10.592 954 132.941 190.332 470.833
1946 0 89.0585 10.8693 968 133.605 189.87 470.557
1947 0 91.1811 11.1536 1017 133.894 189.976 466.728
1948 0 93.0619 11.9813 1115 134.218 189.407 465.309
1949 0 97.1359 12.4774 1212 132.84 188.262 465.23
1950 0 101.196 13.1428 1330 131.071 187.644 462.658
1951 0 102.168 12.548 1282 133.397 187.578 462.016
1952 0 106.144 12.662 1344 134.751 187.622 458.545
1953 0 108.208 12.3559 1337 137.094 187.722 459.399
1954 0 113.176 13.7308 1554 135.03 188.458 456.049
1955 0 117.148 13.1116 1536 135.945 188.13 454.43
1956 0 120.168 13.5809 1632 134.048 188.16 450.688
1957 0 120.133 11.7786 1415 141.633 188.852 448.822
1958 0 126.163 13.4509 1697 134.307 189.265 449.274
1959 0 130.519 13.2547 1730 136.843 189.595 445.809
1960 0 132.107 12.4596 1646 140.258 188.781 443.653
1961 0 137.363 12.4706 1713 139.475 189.595 440.268
1962 0 142.283 13.1498 1871 137.604 189.032 438.005
1963 0 146.283 12.2434 1791 141.509 188.482 435.453
1964 0 152.406 12.3945 1889 139.542 189.25 433.666
1965 1 87.12 11.8687 1034 125.897 190.518 466.085
1966 0 88.3283 11.2195 991 130.313 190.193 463.569
1967 0 91.1514 11.5632 1054 130.828 187.807 463.408
1968 0 94.1581 11.5126 1084 130.016 188.499 464.874
1969 0 97.2732 10.8869 1059 132.613 188.685 461.595
1970 0 101.283 12.4601 1262 127.378 189.193 460.433
1971 0 102.2 11.6341 1189 130.509 188.595 458.352
1973 0 106.281 12.7493 1355 128.241 188.885 456.655
1974 0 108.088 11.4351 1236 126.994 188.877 458.061
1975 0 110.163 12.663 1395 122.932 188.309 456.875
1976 0 114.151 11.7651 1343 125.198 187.689 455.908
1977 0 116.278 11.8423 1377 123.898 188.788 456.626
1978 0 120.087 10.7922 1296 124.894 189.173 451.991
1979 0 128.27 13.0194 1670 119.996 188.713 445.648
1980 0 131.245 12.6177 1656 122.461 188.101 441.953
1981 0 134.384 11.7202 1575 127.641 189.743 441.507
1982 1 77.2891 9.23804 714 123.162 189.459 469.846
1983 0 77.1201 9.82882 758 114.087 190.116 466.723
1984 0 79.129 9.07379 718 119.287 190.038 464.983
1985 0 81.142 9.48954 770 119.164 188.891 463.566
1986 0 83.1664 10.509 874 117.403 189.968 461.759
1987 0 88.193 10.2049 900 117.631 190.209 461.579
1988 0 90.1959 10.7211 967 117.61 189.606 459.722
1989 0 94.2462 10.6848 1007 116.658 189.359 460.348
1990 0 96.0849 11.0527 1062 116.714 189.778 457.722
1991 0 97.1562 11.1985 1088 116.099 190.448 458.872
1992 0 97.1923 7.73724 752 117.967 190.011 455.65
1993 0 105.129 10.4253 1096 115.016 188.326 461.119
1994 0 104.263 9.09238 948 119.348 188.53 458.22
1995 0 105.169 8.14878 857 116.518 189.526 453.771
1996 0 112.211 10.9883 1233 110.712 190.238 452.997
1997 0 114.356 9.67158 1106 114.391 189.771 448.714
1998 0 118.189 10.1363 1198 118.413 188.534 449.455
1999 0 120.24 9.64736 1160 116.09 189.509 444.907
2000 0 125.368 9.85896 1236 116.608 189.011 442.473
2001 0 128.262 10.8294 1389 114.333 189.797 437.195
2002 0 133.268 11.4881 1531 113.499 189.524 438.611
2003 0 136.269 10.5086 1432 119.365 189.218 433.12
2004 0 141.283 10.6594 1506 117.958 189.232 436.946
2005 0 146.306 11.2094 1640 118.663 189.377 437.351
2006 1 87.205 9.85035 859 105.286 190.764 471.439
2007 0 90.1322 9.77454 881 105.936 191.05 469.154
2008 0 93.2019 9.13071 851 108.214 189.628 466.841
2009 0 95.2064 9.44264 899 108.508 190.189 467.562
2010 0 98.2586 9.2511 909 109.937 190.041 463.311
2011 0 101.376 8.57204 869 113.334 190.108 459.102
2012 0 105.294 10.276 1082 112.35 189.776 457.877
2013 0 108.267 10.1693 1101 112.998 190.114 459.32
2014 0 109.308 8.34337 912 117.461 189.492 456.573
2015 0 115.407 10.7273 1238 111.435 189.297 458.356
2016 0 117.401 10.4769 1230 115.303 188.994 448.966
2017 0 120.522 10.272 1238 115.637 188.351 446.489
2018 0 126.474 11.3857 1440 112.601 188.945 448.419
2019 0 129.503 11.3589 1471 113.899 188.855 444.521
2020 0 131.672 10.6249 1399 117.094 188.831 443.781
2021 0 135.565 10.7919 1463 118.195 188.304 442.585
2022 1 76.4542 10.5553 807 113.064 189.409 470.608
2023 0 79.4157 10.401 826 113.274 189.63 469.408
2024 0 80.3456 11.4381 919 111.692 189.701 468.009
2025 0 81.2307 10.8703 883 117.055 189.609 465.058
2026 0 84.0968 11.4987 967 113.056 188.714 470.997
2027 0 86.0495 11.5864 997 113.435 188.682 469.942
2028 0 88.174 11.7041 1032 114.76 188.379 466.578
2029 0 91.0971 13.2716 1209 110.897 187.924 466.144
2030 0 95.0802 12.7682 1214 112.951 188.057 465.009
2031 0 97.0732 13.2889 1290 112.119 188.923 464.612
2032 0 99.2231 13.0917 1299 114.151 188.162 462.299
2033 0 99.1206 11.4507 1135 121.034 188.178 460.825
2034 0 104.27 13.0238 1358 116.772 188.418 462.175
2035 0 106.256 12.7711 1357 119.611 188.321 458.612
2036 0 109.164 13.5209 1476 118.337 187.495 457.417
2037 0 108.17 13.1182 1419 149.076 186.484 456.591
2038 0 116.177 14.7533 1714 116.198 188.737 452.093
2039 0 118.433 14.9536 1771 117.413 188.957 450.811
2040 0 121.361 13.464 1634 122.935 189.235 450.93
2041 0 124.341 14.042 1746 121.979 188.87 448.478
2042 0 127.43 13.7958 1758 123.456 189.464 447.303
2043 0 131.34 13.4993 1773 123.985 189.487 446.145
2044 0 136.325 14.5901 1989 120.537 189.731 442.209
2045 0 138.359 13.8046 1910 122.394 189.014 439.727
2046 0 140.343 13.4456 1887 119.231 188.532 436.121
2047 0 143.248 12.6703 1815 120.466 189.502 430.497
2048 0 148.304 13.6679 2027 119.806 188.759 429.299
2049 0 150.227 12.7074 1909 123.194 188.982 428.889
2050 0 155.26 13.1457 2041 120.748 188.843 421.573
2051 0 159.244 12.1575 1936 123.716 188.379 420.451
2052 0 163.179 13.188 2152 122.918 189.076 416.301
2053 0 170.28 13.4367 2288 121.857 189.216 416.128
2054 0 174.191 14.3406 2498 119.791 189.185 412.342
2055 0 178.251 13.2117 2355 123.158 189.173 412.385
2056 0 186.348 12.7557 2377 123.717 188.928 408.191
2057 0 190.239 11.7641 2238 126.675 189.585 406.718
2058 0 197.27 13.4334 2650 121.874 189.23 406.014
2059 0 202.342 12.4394 2517 125.004 189.413 398.418
2060 0 207.326 12.2802 2546 124.949 189.332 396.304
2061 0 214.171 12.4713 2671 124.547 189.604 394.94
2062 0 218.371 12.4238 2713 125.492 189.355 387.879
2063 0 226.297 13.88 3141 120.749 189.274 384.789
2064 0 233.22 11.3884 2656 128.064 188.623 386.364
2065 1 51.0741 9.14358 467 109.355 188.323 486.137
2066 0 52.1896 9.81039 512 107.822 188.559 485.26
2067 0 56.0771 9.89708 555 112.036 188.35 486.296
2068 0 57.1107 9.63042 550 112.475 188.996 485.525
2069 0 59.1116 10.4548 618 110.375 188.424 485.209
2070 0 57.0966 9.44014 539 116.108 187.985 482.427
2071 0 60.1814 10.8173 651 112.593 189.355 482.81
2072 0 64.1696 11.1891 718 110.578 189.362 480.721
2073 0 66.2664 11.001 729 110.974 188.08 478.952
2074 0 67.2066 12.2309 822 109.846 188.185 475.945
2075 0 69.2596 11.2042 776 113.202 187.564 476.97
2076 0 71.3043 10.6305 758 115.038 188.396 475.049
2077 0 73.1925 11.5859 848 112.442 187.942 476.044
2078 0 76.2623 10.5688 806 114.109 188.04 474.865
2079 0 80.1193 12.3066 986 109.296 187.912 473.934
2080 0 80.0741 10.3154 826 114.689 187.172 471.524
2081 0 84.0734 10.4908 882 113.489 188.147 472.494
2082 0 87.2656 10.978 958 114.11 188.796 466.837
2083 0 90.0783 11.6565 1050 111.759 186.924 468.178
2084 1 50.0495 10.6095 531 103.456 188.367 488.518
2085 0 51.0413 10.5405 538 102.165 188.476 485.19
2086 0 53.1878 10.5287 560 103.488 188.384 469.789
2087 0 54.0501 11.1008 600 102.457 187.728 469.063
2088 0 59.0845 13.4384 794 94.233 188.025 466.963
2089 0 56.0858 11.108 623 103.896 187.533 467.724
2090 0 58.0815 10.6574 619 105.46 188.089 467.221
2091 0 60.0523 10.9405 657 104.711 187.571 468.382
2092 0 63.0508 11.3718 717 103.835 187.457 465.435
2093 0 63.1206 11.5335 728 104.548 187.343 465.346
2094 0 66.0327 11.6003 766 105.789 187.988 469.555
2095 0 68.0669 11.1949 762 107.215 188.421 476.93
2096 0 68.0715 10.9297 744 108.987 188.468 479.371
2097 0 68.1137 10.9963 749 110.931 188.792 480.473
2098 0 69.0441 10.515 726 112.275 189.432 481.97
2099 0 71.0697 10.9611 779 113.036 189.189 477.969
2100 0 73.0852 10.5493 771 112.646 190.223 479.293
2101 0 75.1011 9.6137 722 115.281 189.384 477.183
2102 0 80.1759 11.587 929 111.001 191.053 475.13
2103 0 82.1038 11.7778 967 111.607 190.381 474.296
2104 0 82.1104 11.4967 944 112.233 190.769 474.746
2105 0 86.098 12.5555 1081 109.997 190.646 473.691
2106 0 88.1107 13.0177 1147 109.025 189.561 472.211
2107 0 92.1463 13.0662 1204 108.915 190.171 469.636
2108 0 95.1318 11.7311 1116 113.048 190.711 468.435
2109 0 96.1432 12.5646 1208 111.879 189.604 468.641
2110 0 102.066 13.0994 1337 109.645 190.31 464.64
2111 0 104.152 13.2787 1383 109.803 189.493 464.533
2112 0 108.09 13.4148 1450 108.947 189.158 462.87
2113 0 113.139 13.7972 1561 108.801 189.486 459.34
2114 0 115.126 14.7751 1701 107.263 189.21 458.884
2115 1 62.0852 11.452 711 111.196 190.278 485.422
2116 0 63.0888 11.8246 746 109.611 191.156 484.576
2117 0 63.1321 11.7056 739 111.444 190.798 482.172
2118 0 67.0671 13.1957 885 108.089 190.299 480.668
2119 0 66.1126 11.7678 778 112.344 190.697 480.505
2120 0 70.0583 12.9321 906 108.031 190.427 479.472
2121 0 72.0386 12.9097 930 107.894 190.358 480.368
2122 0 76.0622 14.028 1067 104.314 190.05 479.355
2123 0 76.0905 13.4839 1026 106.91 190.184 478.823
2124 0 79.1494 13.3798 1059 107.246 190.537 474.431
2125 0 81.071 13.0009 1054 108.265 190.747 475.304
2126 0 83.1393 13.1226 1091 108.356 190.337 473.494
2127 0 86.0556 12.6197 1086 108.983 190.115 473.706
2128 0 88.1634 13.2481 1168 107.946 189.658 471.266
2129 0 91.0782 13.2853 1210 107.91 189.581 468.817
2130 0 93.2991 12.8297 1197 104.529 190.15 467.48
2131 0 97.1339 12.6732 1231 105.933 189.668 465.251
2132 0 100.261 11.7693 1180 108.56 190.003 466.33
2133 0 104.252 12.3067 1283 106.994 189.816 463.903
2134 1 59.1152 11.9089 704 109.92 189.915 484.43
2135 0 59.1699 11.9486 707 111.14 189.136 483.796
2136 0 62.052 12.4412 772 113.117 187.569 484.478
2137 0 65.0826 13.214 860 110.028 188.52 484.386
2138 0 65.0598 12.3117 801 114.617 188.18 483.352
2139 0 66.0551 13.8066 912 111.738 187.829 481.568
2140 0 69.0496 12.9038 891 115.108 188.835 481.287
2141 0 69.0616 12.0907 835 117.552 188.223 481.099
2142 0 74.0922 13.7261 1017 113.382 188.769 479.909
2143 0 75.0702 13.3342 1001 116.508 188.398 477.746
2144 0 78.1274 13.3756 1045 117.465 187.366 476.853
2145 0 79.1674 12.2778 972 121.582 187.605 475.292
2146 0 82.0556 14.088 1156 117.11 187.944 474.054
2147 0 86.0589 13.3978 1153 117.94 187.543 474.287
2148 0 88.0827 12.9992 1145 120.4 187.414 471.293
2149 0 92.1975 12.6576 1167 120.78 188.302 470.053
2150 0 94.1336 13.1303 1236 119.042 188.544 468.506
2151 1 52.2585 12.1129 633 118.234 188.997 487.978
2152 0 55.146 12.476 688 119.933 188.315 487.11
2153 0 55.028 12.5209 689 119.315 187.83 486.001
2154 0 58.1017 13.8722 806 116.674 187.164 485.856
2155 0 61.043 13.7936 842 116.239 188.481 484.894
2156 0 59.083 13.0156 769 115.475 189.674 484.726
2157 0 63.0812 13.2211 834 113.025 190.209 484.56
2158 0 62.0979 12.6413 785 117.932 188.94 484.011
2159 0 64.0966 12.9336 829 118.227 188.656 482.439
2160 0 67.1303 12.8705 864 115.615 189.677 484.355
2161 0 70.1017 13.352 936 114.735 189.757 482.542
2162 0 71.058 12.4828 887 118.292 190.172 481.733
2163 0 73.0804 13.2731 970 116.791 189.303 480.877
2164 0 75.0505 13.4443 1009 117.237 189.102 478.725
2165 0 77.0902 12.7513 983 119.172 188.481 477.834
2166 0 80.1008 12.9712 1039 119.677 188.636 476.386
2167 0 82.1225 13.7478 1129 117.825 188.451 474.415
2168 0 85.1125 13.5703 1155 118.33 188.984 473.686
2169 0 89.2224 14.4807 1292 115.208 188.852 472.016
2170 0 91.1617 13.7777 1256 116.807 188.639 470.537
2171 0 95.1463 13.8629 1319 116.541 189.214 471.607
2172 0 95.0714 12.4117 1180 115.657 188.947 465.514
2173 0 100.08 12.9597 1297 115.238 188.884 462.787
2174 0 102.087 13.7726 1406 114.525 188.684 459.819
2175 0 106.106 13.364 1418 116.028 188.598 458.883
2176 1 58.0307 8.85738 514 121.358 188.556 482.302
2177 0 63.0682 12.3676 780 113.319 188.891 480.773
2178 0 65.0895 13.7042 892 120.484 189.362 482.136
2179 0 65.0325 13.7008 891 122.367 190.192 480.118
2180 0 69.08 13.535 935 111.887 189.304 477.005
2181 0 69.1197 12.8473 888 114.632 188.864 475.056
2182 0 71.1198 12.0501 857 117.125 189.141 474.222
2183 0 77.078 12.5198 965 114.212 189.236 474.697
2184 0 78.1314 11.7494 918 117.191 189.707 473.73
2185 0 81.2267 13.2715 1078 114.591 189.453 470.313
2186 0 83.162 12.7703 1062 116.264 189.11 470.05
2187 0 84.1106 12.0556 1014 120.724 188.127 467.621
2188 0 89.1696 13.3117 1187 118.02 188.93 466.884
2189 0 92.1314 13.1226 1209 119.433 188.638 465.592
2190 0 95.1184 12.7841 1216 122.18 188.296 463.693
2191 0 96.1916 12.1736 1171 124.568 189.219 460.268
2192 0 99.2733 10.8891 1081 127.574 188.864 461.019
2193 0 102.198 11.9082 1217 125.252 188.634 460.251
2194 0 107.188 12.5853 1349 122.719 188.269 458.544
2195 1 62.1981 12.3477 768 129.398 188.59 482.268
2196 0 63.1462 12.2256 772 131.668 188.417 479.192
2197 0 67.1711 12.2821 825 130.67 189.394 478.954
2198 0 69.0681 13.3926 925 123.765 189.438 480.302
2199 0 71.0722 12.3818 880 124.685 189.852 482.415
2200 0 69.0704 10.8585 750 129.516 190.364 482.059
2201 0 76.1329 13.2269 1007 124.51 189.413 477.661
2202 0 80.1247 12.9174 1035 123.963 188.868 476.57
2203 0 81.0379 13.2037 1070 124.615 188.593 475.02
2204 0 85.1144 12.8298 1092 125.585 188.362 472.63
2205 0 88.1604 13.6342 1202 122.893 188.496 471.256
2206 0 89.1269 13.4191 1196 124.531 188.181 471.666
2207 0 93.1135 14.6058 1360 122.522 188.59 468.956
2208 0 95.1244 12.9199 1229 126.826 187.886 468.965
2209 0 100.125 14.2821 1430 122.526 188.514 467.169
2210 0 102.123 13.0235 1330 127.173 188.662 466.116
2211 0 107.144 14.2705 1529 123.141 188.795 465.859
2212 0 110.24 14.0694 1551 125.757 188.606 462.781
2213 0 112.18 14.5303 1630 125.807 188.689 461.226
2214 0 115.154 14.3286 1650 127.752 188.888 457.19
2215 0 119.121 13.7759 1641 128.046 188.562 452.643
2216 0 123.332 13.2326 1632 129.145 188.289 452.759
2217 0 126.226 13.5076 1705 130.588 188.371 448.267
2218 1 71.0792 11.4098 811 121.959 189.25 474.559
2219 0 72.1213 11.1895 807 123.926 189.717 471.897
2220 0 74.0528 10.8841 806 126.463 189.138 469.264
2221 0 79.1482 12.167 963 121.984 189.906 469.538
2222 0 82.3485 12.4714 1027 121.069 189.363 467.952
2223 0 84.213 12.4565 1049 123.031 188.933 463.908
2224 0 86.2348 12.1877 1051 125.658 189.269 461.321
2225 0 91.4621 13.9511 1276 120.793 189.466 461.781
2226 0 94.3769 12.9269 1220 125.42 189.753 461.485
2227 0 94.2929 12.6521 1193 126.883 189.319 456.001
2228 0 99.3473 13.79 1370 124.727 189.373 458.288
2229 0 100.21 13.5615 1359 129.712 188.648 455.174
2230 0 106.395 14.3898 1531 125.752 188.02 456.289
2231 0 109.422 13.8363 1514 128.376 188.569 452.47
2232 0 113.356 13.7531 1559 127.094 188.787 451.199
2233 0 116.277 13.8979 1616 131.934 189.108 450.746
2234 0 118.179 13.7757 1628 134.783 188.262 447.128
2235 1 66.2298 10.1314 671 136.975 189.313 475.75
2236 0 70.184 11.7406 824 134.34 189.107 475.138
2237 0 71.082 13.0835 930 132.689 188.701 471.526
2238 0 73.0524 12.4705 911 133.674 188.216 473.963
2239 0 77.0824 13.2845 1024 128.311 187.911 470.497
2240 0 77.071 13.3124 1026 130.257 187.817 470.587
2241 0 80.0551 13.3658 1070 129.81 187.921 468.468
2242 0 83.0663 13.724 1140 128.75 187.375 467.657
2243 0 87.0718 13.4602 1172 128.695 187.831 466.565
2244 0 90.1046 13.2402 1193 129.573 187.753 465.826
2245 0 89.0539 13.5199 1204 128.249 188.549 461.134
2246 0 94.0959 14.7509 1388 129.23 187.802 459.197
2247 0 97.067 14.2994 1388 128.006 187.81 460.264
2248 0 97.1006 13.553 1316 131.147 187.777 458.35
2249 0 101.114 13.8952 1405 130.602 187.944 455.449
2250 0 104.087 13.2678 1381 131.686 189.038 456.398
2251 0 107.207 13.6185 1460 131.19 188.503 455
2252 0 111.163 14.1954 1578 129.703 188.046 453.565
2253 0 115.162 14.1801 1633 129.597 187.87 451.561
2254 0 117.11 13.4147 1571 131.939 187.71 450.39
2255 0 124.094 15.0612 1869 126.269 187.931 447.46
2256 0 127.183 14.3494 1825 128.187 188.776 445.069
2257 0 133.21 13.9855 1863 127.89 188.133 445.939
2258 0 136.178 13.5705 1848 129.203 187.858 443.108
2259 1 78.2116 11.8013 923 128.794 188.573 473.702
2260 0 81.1268 12.3757 1004 121.765 188.653 473.565
2261 0 83.0552 12.1004 1005 119.52 188.51 473.654
2262 0 86.1111 11.6129 1000 120.55 188.53 474.73
2263 0 90.0789 12.7888 1152 119.107 187.91 472.668
2264 0 91.2353 12.3308 1125 122.858 188.03 473.589
2265 0 95.0969 13.1445 1250 121.966 187.318 473.077
2266 0 95.2253 13.0848 1246 122.897 187.245 473.112
2267 0 100.102 13.9457 1396 122.657 186.834 469.1
2268 0 102.125 12.9548 1323 125.28 186.823 469.712
2269 0 106.078 13.3769 1419 124.825 186.516 469.961
2270 0 108.149 13.5924 1470 126.816 185.886 469.841
2271 0 113.073 13.9821 1581 124.767 185.297 468.1
2272 0 116.139 13.8283 1606 126.143 185.514 462.791
2273 0 119.45 13.6376 1629 125.87 185.126 464.079
2274 0 124.258 14.985 1862 121.37 185.417 460.901
2275 0 128.251 13.9882 1794 124.504 185.156 457.789
2276 0 132.278 13.9328 1843 124.027 184.077 456.47
2277 0 138.323 14.0685 1946 122.563 184.246 453.413
2278 1 80.1592 11.2401 901 120.275 184.039 481.39
2279 0 85.1606 12.9637 1104 116.193 184.172 481.603
2280 0 87.1812 12.4224 1083 117.116 183.023 481.01
2281 0 89.2119 11.3326 1011 121.208 183.258 477.477
2282 0 93.2273 12.5071 1166 117.229 183.388 477.997
2283 0 95.1262 12.4676 1186 118.436 183.224 474.468
2284 0 98.158 12.2456 1202 118.549 183.167 473.663
2285 0 101.285 13.2202 1339 117.738 182.711 468.499
2286 0 103.156 11.8753 1225 122.015 182.704 468.35
2287 0 110.22 13.1011 1444 117.836 182.635 469.262
2288 0 112.312 12.8838 1447 119.529 182.097 468.292
2289 0 115.206 11.883 1369 122.738 182.337 465.268
2290 0 120.321 13.1232 1579 119.727 181.735 467.505
2291 0 123.312 11.7101 1444 124.693 182.046 461.181
2292 0 130.166 13.5289 1761 119.756 182.019 462.744
2293 0 134.22 12.9861 1743 121.97 181.634 459.715
2294 1 72.1367 11.2564 812 113.938 184.089 493.32
2295 0 74.133 12.2348 907 113.399 184.098 489.128
2296 0 76.0716 11.6338 885 113.156 183.217 493.093
2297 0 80.134 12.7786 1024 110.193 183.425 490.7
2298 0 81.1592 11.9888 973 112.367 183.193 489.677
2299 0 84.1389 13.8937 1169 108.849 183.195 486.213
2300 0 89.0808 13.6618 1217 109.22 182.933 483.542
2301 0 90.1955 11.1979 1010 114.632 182.84 484.707
2302 0 93.1634 11.7213 1092 114.204 182.674 483.348
2303 0 96.2246 12.502 1203 113.739 181.934 480.097
2304 0 98.2637 11.7948 1159 113.424 182.984 479.53
2305 0 100.134 11.195 1121 115.501 182.744 479.381
2306 0 105.292 12.4891 1315 114.095 182.807 474.881
2307 0 109.213 12.4344 1358 114.644 182.202 472.62
2308 0 112.196 12.9327 1451 113.303 182.201 473.063
2309 0 115.218 13.2097 1522 115.875 182.03 468.644
2310 0 118.34 12.6077 1492 118.771 182.109 463.277
2311 0 124.19 13.3183 1654 113.589 181.635 467.23
2312 1 68.435 11.953 818 112.938 182.075 490.386
2313 0 71.2123 13.537 964 110.16 182.072 486.469
2314 0 75.2831 12.2073 919 109.58 182.434 490.465
2315 0 77.0607 12.1073 933 109.407 182.056 490.211
2316 0 79.0729 11.951 945 111.153 183.419 487.719
2317 0 82.1423 13.0871 1075 108.616 183.429 486.558
2318 0 83.0857 12.8301 1066 110.818 183.153 484.034
2319 0 85.0963 12.2332 1041 112.739 182.602 482.932
2320 0 89.0845 11.2814 1005 114.996 183.491 483.152
2321 0 91.076 10.6175 967 117.732 183.19 482.134
2322 0 97.1604 12.2992 1195 113.067 183.187 480.368
2323 0 96.0954 10.8746 1045 118.955 183.761 474.939
2324 0 101.431 12.7772 1296 114.265 183.939 475.175
2325 0 104.272 13.1195 1368 114.026 183.624 473.01
2326 0 107.306 12.646 1357 115.174 183.029 472.365
2327 0 111.417 12.8975 1437 115.141 183.314 468.113
2328 0 112.394 12.7764 1436 115.976 183.119 467.1
2329 0 116.268 13.1679 1531 115.576 183.21 466.172
2330 0 121.406 12.8329 1558 116.777 183.522 464.669
2331 0 127.241 13.8634 1764 114.673 183.447 459.609
2332 1 68.1448 10.7272 731 111.279 183.752 491.907
2333 0 71.3607 12.1355 866 107.99 184.189 488.099
2334 0 74.3207 12.7555 948 106.927 183.852 483.822
2335 0 78.4901 12.4602 978 105.49 184.111 484.739
2336 0 80.3519 13.2666 1066 107.334 184.053 481.292
2337 0 83.3109 13.6237 1135 108.969 183.534 478.796
2338 0 87.2531 13.776 1202 112.981 184.46 476.323
2339 0 89.3116 14.2423 1272 112.306 184.664 475.279
2340 0 88.4276 13.4121 1186 117.989 184.13 471.739
2341 0 91.3726 13.2534 1211 118.944 184.287 472.669
2342 0 96.3544 14.0315 1352 117.311 184.266 470.736
2343 0 98.4911 13.2093 1301 120.663 184.351 468.772
2344 0 103.441 14.211 1470 118.225 184.342 467.432
2345 0 106.178 14.4474 1534 118.411 184.955 466.867
2346 0 110.515 14.8124 1637 118.415 184.897 461.821
2347 0 109.294 13.8068 1509 123.74 185.097 460.056
2348 0 112.482 13.7178 1543 124.207 184.605 459.094
2349 0 119.398 13.7774 1645 122.56 185.211 457.442
2350 0 122.429 14.9311 1828 120.66 185.346 452.861
2351 0 125.311 15.8725 1989 118.677 184.973 450.814
2352 0 132.576 14.5954 1935 121.255 185.44 449.275
2353 1 73.3078 12.1406 890 125.011 185.704 475.96
2354 0 75.233 12.428 935 124.998 185.661 476.49
2355 0 79.3559 11.795 936 124.969 185.934 476.329
2356 0 82.3097 12.9754 1068 124.201 185.934 474.748
2357 0 83.3557 12.7646 1064 126.539 186.177 471.228
2358 0 88.3081 13.3397 1178 124.394 186.462 472.751
2359 0 91.2661 13.7948 1259 124.33 186.278 470.276
2360 0 94.243 14.3989 1357 123.398 186.816 466.847
2361 0 96.4111 13.6706 1318 126.195 187.231 465.574
2362 0 100.19 14.6223 1465 124.624 186.791 463.355
2363 0 103.219 13.7281 1417 127.886 187.051 462.571
2364 0 105.228 14.0077 1474 128.072 186.953 458.664
2365 0 111.294 14.9963 1669 124.41 187.317 457.483
2366 0 114.41 13.9586 1597 127.517 186.659 455.848
2367 0 116.322 14.3051 1664 127.353 185.916 453.55
2368 0 121.247 14.0374 1702 126.223 186.277 454.009
2369 1 70.1634 10.8033 758 128.385 186.889 480.142
2370 0 74.1303 12.6399 937 125.299 187.289 476.656
2371 0 78.2363 12.1938 954 128.449 186.177 469.104
2372 0 80.1354 12.5662 1007 128.26 186.013 468.682
2373 0 84.2007 13.931 1173 125.157 186.207 467.461
2374 0 85.1013 12.2795 1045 130.3 186.68 470.274
2375 0 91.1171 12.7199 1159 127.12 186.794 469.246
2376 0 91.0958 13.0851 1192 127.121 186.768 466.605
2377 0 95.1667 14.0911 1341 124.823 186.459 462.864
2378 0 98.1334 12.9619 1272 128.7 186.332 462.539
2379 0 102.108 13.231 1351 127.395 187.889 463.296
2380 0 105.072 13.2766 1395 127.07 188.338 461.53
2381 0 107.149 12.45 1334 131.057 188.075 458.539
2382 0 112.191 15.1081 1695 122.386 188.037 459.415
2383 0 115.221 14.6935 1693 124.46 187.709 456.165
2384 0 119.21 14.487 1727 125.519 188.705 455.224
2385 0 120.295 13.0595 1571 131.047 188.53 451.628
2386 0 124.183 13.5204 1679 130.224 188.463 450.822
2387 0 126.208 13.763 1737 130.736 187.874 449.119
2388 0 131.341 13.8342 1817 131.038 187.73 444.959
2389 0 135.269 13.9869 1892 130.775 187.621 441.363
2390 0 140.252 13.9748 1960 131.052 187.814 439.532
2391 0 146.148 13.8626 2026 130.827 187.43 437.806
2392 0 151.172 14.5265 2196 128.458 187.647 437.441
2393 0 157.193 15.2234 2393 125.187 187.301 434.705
2394 1 88.1919 11.4523 1010 123.434 187.246 467.15
2395 0 92.1476 12.1653 1121 120.482 187.56 466.582
2396 0 94.1398 11.6954 1101 122.085 187.793 467.415
2397 0 96.255 11.2825 1086 123.372 187.041 463.247
2398 0 100.162 12.0504 1207 122.691 187.317 461.45
2399 0 103.227 11.9446 1233 123.133 187.227 458.976
2400 0 104.202 12.2646 1278 123.146 186.685 458.827
2401 0 109.126 12.9575 1414 121.726 186.974 456.933
2402 0 111.202 11.7084 1302 121.852 187.002 451.858
2403 0 116.194 10.8869 1265 123.612 187.234 450.244
2404 0 117.153 11.0796 1298 124.787 186.685 448.344
2405 0 123.25 12.852 1584 119.951 187.544 447.994
2406 0 126.244 11.6996 1477 124.175 187.012 445.638
2407 0 132.196 12.6479 1672 120.724 187.242 446.861
2408 0 135.14 12.5055 1690 121.533 187.447 443.678
2409 0 137.155 11.6729 1601 124.738 187.382 438.999
2410 0 145.2 11.8733 1724 122.869 187.647 436.518
2411 0 149.361 12.7878 1910 120.525 187.645 435.168
2412 0 154.194 12.7956 1973 121.742 187.52 429.39
2413 0 160.197 12.3411 1977 124.03 186.119 424.135
2414 0 163.218 11.647 1901 126.38 186.575 419.004
2415 1 102.2 9.20743 941 113.016 185.99 459.616
2416 0 105.097 10.5046 1104 113.206 186.229 452.846
2417 0 107.202 8.95509 960 115.75 188.321 459.441
2418 0 111.329 9.92554 1105 114.818 187.919 454.291
2419 0 115.263 10.4283 1202 114.149 188.181 452.83
2420 0 119.229 11.6331 1387 111.584 187.693 452.583
2421 0 121.21 9.69395 1175 116.799 187.772 447.786
2422 0 127.248 10.9471 1393 113.497 187.593 448.529
2423 0 131.171 11.6108 1523 111.456 187.713 447.441
2424 0 135.164 10.5723 1429 114.749 187.316 441.073
2425 0 138.26 10.596 1465 114.147 187.558 441.156
2426 0 144.128 10.4143 1501 114.3 187.888 439.959
2427 0 148.223 10.8957 1615 113.796 187.822 433.901
2428 1 71.1104 9.49228 675 105.444 189.376 479.151
2429 0 73.1099 11.2707 824 103.653 189.297 474.871
2430 0 73.1062 8.85013 647 105.348 188.804 476.365
2431 0 75.2205 11.4729 863 101.308 188.891 475.076
2432 0 75.2203 9.5453 718 105.987 189.487 473.813
2433 0 78.1636 9.54409 746 105.263 188.72 472.78
2434 0 81.2116 8.68103 705 106.319 188.689 473.462
2435 0 84.2316 9.8894 833 104.49 188.702 472.194
2436 0 85.2362 9.1393 779 108.004 187.626 468.335
2437 0 86.2549 9.55308 824 108.348 188.137 469.249
2438 0 88.1612 9.43726 832 109.669 188.194 466.043
2439 0 92.3628 9.74419 900 110.376 187.624 466.226
2440 0 94.2147 9.79677 923 111.912 188.337 464.821
2441 0 97.2824 10.0635 979 112.334 188.567 465.611
2442 0 98.3306 9.63078 947 116.044 188.038 461.132
2443 0 101.256 10.5377 1067 115.384 188.024 463.771
2444 0 104.286 11.2671 1175 116.754 187.946 462.299
2445 0 106.194 11.413 1212 118.769 187.579 460.159
2446 0 111.251 12.3325 1372 117.582 187.243 458.445
2447 0 112.387 12.0477 1354 121.005 187.47 456.924
2448 0 114.147 11.6078 1325 126.106 187.442 453.835
2449 0 118.259 12.4388 1471 124.681 187.743 453.072
2450 0 123.259 12.8835 1588 124.189 186.986 450.263
2451 0 125.266 12.4775 1563 127.058 186.69 446.489
2452 0 127.165 12.0552 1533 129.841 187.048 444.232
2453 0 133.3 13.0908 1745 126.633 187.705 445.268
2454 0 137.341 13.6959 1881 125.489 187.762 442.654
2455 0 138.297 12.4226 1718 131.464 188.485 438.137
2456 0 143.269 13.157 1885 131.119 188.12 437.497
2457 0 141.379 12.5761 1778 137.087 188.097 436.689
2458 0 145.426 14.1378 2056 133.973 187.815 436.309
2459 0 148.346 13.3202 1976 138.142 187.901 435.189
2460 0 151.366 13.1337 1988 140.331 187.762 431.321
2461 0 153.374 13.353 2048 140.346 188.409 431.404
2462 0 159.295 12.7248 2027 139.666 188.221 430.031
2463 0 165.382 13.0184 2153 138.189 187.921 425.498
2464 0 172.317 13.6841 2358 134.888 187.974 423.404
2465 0 178.33 13.1498 2345 134.113 189.023 423.197
2466 0 182.536 12.7811 2333 136.174 188.611 419.886
2467 0 189.366 13.0436 2470 135.364 187.967 415.136
2468 1 133.262 11.1435 1485 130.843 188.89 443.747
2469 0 137.252 10.9652 1505 130.308 188.646 444.641
2470 0 140.29 11.3551 1593 131.947 188.1 436.448
2471 0 146.408 11.5363 1689 128.562 188.533 436.158
2472 0 150.258 11.7598 1767 127.177 188.929 433.504
2473 0 153.287 11.4622 1757 129.129 188.16 426.148
2474 0 160.405 11.8201 1896 125.818 188.86 425.909
2475 0 166.366 12.2741 2042 125.557 188.826 423.236
2476 0 170.326 12.3704 2107 124.328 188.601 417.033
2477 0 174.418 12.0515 2102 125.264 188.722 415.767
2478 0 179.351 11.8316 2122 126.848 188.556 408.178
2479 0 183.308 11.8871 2179 126.567 189.005 408.171
2480 0 187.302 11.6443 2181 127.953 187.561 407.377
2481 0 197.315 12.8475 2535 122.989 187.729 406.18
2482 0 200.308 11.8518 2374 125.636 187.629 405.179
2483 0 206.301 12.5836 2596 125.235 187.035 402.636
2484 0 210.35 12.6884 2669 126.788 187.35 392.363
2485 0 215.39 12.3033 2650 127.377 188.131 389.588
2486 0 222.245 13.7146 3048 123.64 187.423 390.623
2487 0 228.42 12.7572 2914 126.29 187.8 387.772
2488 0 234.479 13.4213 3147 125.656 187.09 384.384
2489 0 240.338 12.4949 3003 128.29 186.986 383.545
2490 0 247.385 13.2668 3282 126.458 187.074 380.376
2491 1 22.1235 6.23771 138 96.0652 188.478 499.63
2492 0 20.0539 7.47983 150 94.8933 189.24 497.173
2493 0 17.0487 5.22035 89 99.1461 189.067 498.573
2494 0 24.1847 7.56677 183 92.5191 188.863 497.497
2495 0 20.1433 6.90054 139 93.5036 187.367 498.942
2496 0 19.0425 6.19667 118 96.4492 187.475 498.102
2497 0 21.1084 8.48005 179 94.9665 188.397 498.441
2498 0 23.0443 8.2016 189 95.1058 187.91 499.185
2499 0 23.0693 6.41546 148 106.649 188.946 500.297
2500 0 22.0252 5.17589 114 91.9649 187.579 499.053
2501 0 21.0113 7.51976 158 88.7975 188.215 498.468
2502 0 23.0052 8.69368 200 86.235 187.955 498.425
2503 0 23.0184 6.51653 150 89.06 188.167 497.353
2504 1 280.356 10.8969 3055 125.515 187.855 354.592
2505 0 290.418 12.7609 3706 121.099 187.322 350.682
2506 0 299.329 11.2786 3376 125.438 188.051 348.527
2507 0 306.669 13.2456 4062 122.73 188.239 349.483
2508 1 77.1216 9.67304 746 104.623 187.863 475.268
2509 0 75.0617 9.81859 737 106.062 187.144 472.981
2510 0 80.1308 9.79649 785 104.67 187.366 475.592
2511 0 82.084 10.3065 846 105.829 187.282 471.916
2512 0 82.0782 9.58842 787 109.125 187.755 470.044
2513 0 86.0257 11.4036 981 104.776 187.228 468.309
2514 0 88.0723 10.3097 908 107.357 188.268 468.286
2515 0 96.0433 13.5043 1297 98.6515 187.209 457.937
2516 0 103.068 15.2326 1570 92.1688 187.679 451.944
2517 0 112.201 14.2779 1602 92.9806 187.202 453.468
2518 0 113.218 15.2714 1729 89.7883 187.24 447.829
2519 0 109.124 16.944 1849 89.4137 187.811 448.383
2520 0 109.068 14.0004 1527 99.5612 188.048 451.652
2521 0 105.08 10.8679 1142 106.542 188.366 454.103
2522 0 106.346 9.24345 983 106.152 189.98 461.107
2523 0 110.123 10.0887 1111 103.923 189.666 457.569
2524 0 114.173 11.3337 1294 101.809 188.469 455.056
2525 0 117.151 12.1638 1425 100.839 187.574 454.559
2526 0 122.403 12.1974 1493 101.608 188.924 444.616
2527 0 121.173 12.1149 1468 106.001 188.702 435.629
2528 0 126.307 11.7412 1483 107.306 188.513 435.294
2529 0 127.215 11.5946 1475 108.919 188.567 438.628
2530 0 133.355 13.8427 1846 103.428 188.19 440.489
2531 0 136.381 13.7336 1873 104.179 188.607 441.143
2532 0 138.302 13.6513 1888 105.629 187.996 439.769
2533 0 141.401 12.461 1762 109.329 189.535 436.835
2534 0 146.49 13.2501 1941 106.99 189.655 437.498
2535 0 149.363 12.3324 1842 109.876 189.192 435.263
2536 0 154.225 12.1964 1881 110.298 188.477 435.297
2537 0 158.206 13.5709 2147 105.568 189.398 435.24
2538 0 160.341 13.5523 2173 114.82 189.493 426.671
2539 0 164.348 12.5587 2064 112.782 188.985 423.822
2540 1 97.122 10.8009 1049 107.707 190.114 460.177
2541 0 99.0538 11.9531 1184 101.728 190.111 464.77
2542 0 100.117 10.8873 1090 105.358 190.001 460.747
2543 0 102.153 12.4519 1272 102.78 189.98 459.954
2544 0 105.1 13.2065 1388 101.175 190.709 461.417
2545 0 107.156 11.7305 1257 105.192 190.495 458.692
2546 0 109.154 11.9555 1305 106.13 189.845 457.51
2547 0 114.148 12.5627 1434 104.919 190.093 456.478
2548 0 115.185 12.6666 1459 105.503 190.934 453.502
2549 0 119.315 13.6362 1627 103.763 190.623 452.326
2550 0 118.42 12.785 1514 107.289 189.966 449.62
2551 0 122.226 13.6141 1664 106.46 190.225 447.921
2552 0 125.265 11.9986 1503 109.939 190.189 448.906
2553 0 131.221 13.5725 1781 108.76 190.007 444.294
2554 1 74.1904 12.2523 909 106.096 190.639 470.916
2555 0 76.1103 12.4031 944 107.264 190.681 475.525
2556 0 79.1127 13.3354 1055 106.129 190.931 473.003
2557 0 80.1194 11.383 912 110.424 190.56 472.843
2558 0 83.0765 13.638 1133 106.989 190.897 468.995
2559 0 86.356 14.0118 1210 106.371 190.048 468.498
2560 0 87.2395 12.2192 1066 110.962 190.217 467.439
2561 0 89.3392 12.3014 1099 111.933 189.837 465.385
2562 0 93.2176 14.0102 1306 108.873 188.829 463.27
2563 0 97.2717 13.3132 1295 111.035 189.082 462.664
2564 0 98.2897 13.3585 1313 113.332 189.321 458.81
2565 0 102.226 14.4288 1475 111.037 189.713 458.479
2566 0 104.535 13.7083 1433 113.913 188.779 456.368
2567 0 109.329 13.6469 1492 113.825 189.453 454.203
2568 0 111.292 13.6668 1521 114.073 189.252 454.852
2569 0 113.409 13.6057 1543 114.578 189.02 453.708
2570 0 118.391 13.7257 1625 114.545 188.833 449.874
2571 0 122.172 13.2845 1623 115.384 189.487 449.535
2572 0 128.413 14.5546 1869 112.347 189.637 444.946
2573 0 132.287 13.4102 1774 115.53 189.455 442.271
2574 0 136.316 13.1313 1790 116.259 189.779 440.623
2575 0 140.465 13.2061 1855 116.794 189.766 441.421
2576 1 78.1975 12.6603 990 112.654 189.928 468.926
2577 0 81.2487 13.1694 1070 111.668 189.147 469.534
2578 0 84.153 13.2972 1119 112.575 189.757 468.466
2579 0 85.1984 13.5918 1158 114.06 189.319 466.812
2580 0 89.2015 13.9347 1243 113.372 189.479 466.379
2581 0 92.3223 13.4962 1246 115.275 189.475 464.37
2582 0 95.2567 12.3876 1180 117.986 189.387 465.225
2583 0 99.2816 13.8092 1371 116.217 189.055 461.462
2584 0 101.275 13.7941 1397 117.749 189.366 461.189
2585 0 105.158 14.8728 1564 115.605 188.797 457.047
2586 0 108.17 13.22 1430 120.375 189 457.061
2587 0 111.209 13.9917 1556 119.242 189.368 454.902
2588 0 114.291 14.428 1649 119.855 189.542 451.754
2589 0 118.338 14.3318 1696 121.412 189.692 451.137
2590 0 123.202 14.1231 1740 122.38 188.764 449.001
2591 0 126.201 14.6274 1846 122.589 189.141 447.176
2592 1 66.129 13.1561 870 122.656 189.237 477.792
2593 0 68.1155 13.2128 900 128.756 189.034 474.914
2594 0 71.208 13.0744 931 131.679 189.766 474.962
2595 0 76.2724 13.6878 1044 130.068 189.382 472.755
2596 0 77.2275 14.0882 1088 128.606 189.508 473.643
2597 0 79.1555 14.4399 1143 129.52 189.926 471.195
2598 0 81.3442 14.58 1186 130.669 190.196 470.21
2599 0 84.1898 14.7524 1242 131.336 190.089 466.943
2600 0 88.4215 14.4535 1278 132.504 190.526 467.377
2601 0 89.2689 14.2379 1271 134.315 190.538 467.199
2602 0 92.2615 14.7082 1357 135.411 189.766 463.721
2603 0 96.1459 16.3918 1576 130.921 189.82 463.37
2604 0 97.0971 15.1086 1467 136.408 189.545 461.013
2605 0 98.1893 15.022 1475 138.765 189.822 460.455
2606 0 102.217 16.4356 1680 134.179 189.16 458.559
2607 0 105.149 15.9583 1678 136.199 189.807 458.242
2608 0 110.21 16.2145 1787 134.481 190.382 457.894
2609 0 111.215 15.5014 1724 138.74 189.247 455.578
2610 0 114.24 15.8351 1809 136.99 189.035 453.582
2611 0 119.162 16.1376 1923 134.132 189.581 452.787
2612 1 65.1198 13.8514 902 139.252 189.254 478.86
2613 0 67.1566 14.1609 951 139.456 189.796 475.795
2614 0 69.1465 14.115 976 140.978 189.866 475.782
2615 0 72.159 15.3411 1107 136.18 190.17 473.77
2616 0 74.0884 14.2532 1056 140.313 190.593 473.598
2617 0 77.1896 14.7559 1139 138.266 189.802 472.327
2618 0 80.1344 14.9873 1201 137.922 189.226 470.213
2619 0 83.2531 14.9424 1244 137.323 189.634 470.627
2620 0 85.1797 14.1818 1208 140.292 189.825 468.384
2621 0 87.216 14.8023 1291 139.28 189.263 466.446
2622 0 92.1456 14.8352 1367 138.247 188.762 465.396
2623 0 94.2093 15.2533 1437 137.977 188.925 463.02
2624 0 98.1806 15.5428 1526 136.666 188.849 461.955
2625 0 101.253 15.3477 1554 136.649 188.82 462.994
2626 0 104.109 16.2234 1689 134.232 188.663 460.116
2627 0 109.197 14.8538 1622 137.535 188.778 458.895
2628 0 111.117 14.9482 1661 137.312 188.35 456.586
2629 0 117.175 15.6347 1832 134.793 188.816 454.507
2630 0 121.179 15.1676 1838 134.97 188.875 453.863
2631 0 127.317 15.1276 1926 134.727 189.184 450.534
2632 1 71.1359 13.2985 946 134.796 189.064 478.384
2633 0 74.15 13.9177 1032 134.683 188.344 474.658
2634 0 75.1567 13.6116 1023 137.291 188.233 473.107
2635 0 79.1614 14.7926 1171 133.368 188.192 472.506
2636 0 81.221 13.6295 1107 137.105 188.833 470.766
2637 0 85.2282 14.338 1222 134.622 188.545 470.525
2638 0 88.1535 15.0306 1325 133.428 188.424 467.389
2639 0 90.141 14.7547 1330 134.571 188.071 468.117
2640 0 93.0758 14.2679 1328 136.507 188.026 466.596
2641 0 97.1143 15.1677 1473 133.414 188.209 463.793
2642 0 99.2417 14.238 1413 135.565 188.504 464.467
2643 0 101.156 14.2948 1446 136.52 187.531 460.045
2644 0 105.201 16.0454 1688 131.428 187.765 458.962
2645 0 108.209 15.5901 1687 134.03 187.514 454.829
2646 0 114.273 15.5068 1772 131.546 187.151 455.889
2647 0 116.295 14.9791 1742 133.886 187.11 453.489
2648 0 120.15 13.4998 1622 137.462 187.174 451.151
2649 0 125.226 14.7972 1853 133.987 187.594 445.862
2650 0 128.271 13.2688 1702 138.303 187.101 446.555
2651 1 73.1689 12.1226 887 131.663 187.676 474.825
2652 0 75.0961 12.3176 925 132.261 187.852 472.966
2653 0 77.2347 14.0222 1083 129.568 186.739 470.569
2654 0 80.1054 12.9205 1035 127.404 187.454 472.027
2655 0 83.0637 13.917 1156 124.703 187.782 469.317
2656 0 87.1243 14.0259 1222 125.383 186.911 467.732
2657 0 89.059 13.4068 1194 127.112 187.908 466.952
2658 0 91.1267 13.6952 1248 127.882 187.459 463.523
2659 0 94.1436 14.0636 1324 128.242 188.009 460.829
2660 0 97.106 13.8611 1346 127.129 188.086 459.279
2661 0 100.099 13.6864 1370 127.756 186.952 456.321
2662 0 102.115 12.7895 1306 130.714 187.652 454.806
2663 0 109.085 14.1083 1539 126.779 187.738 453.561
2664 0 113.274 14.0191 1588 126.374 186.812 452.276
2665 0 116.121 14.1146 1639 124.976 187.073 452.11
2666 0 120.139 13.3929 1609 127.538 187.172 448.893
2667 0 124.146 13.8466 1719 127.002 187.085 446.99
2668 0 130.254 14.8864 1939 124.11 187.295 445.581
2669 0 133.191 13.1465 1751 128.971 187.039 441.235
2670 0 137.324 12.9912 1784 130.101 187.48 438.7
2671 0 145.32 14.272 2074 123.709 186.92 439.32
2672 1 80.1084 11.5968 929 124.605 188.258 468.86
2673 0 82.1062 12.3499 1014 124.093 187.727 466.213
2674 0 86.1255 12.6908 1093 124.259 187.171 461.65
2675 0 89.1533 13.8077 1231 121.947 187.324 462.206
2676 0 90.1749 12.7197 1147 125.378 187.473 462.748
2677 0 96.1326 13.4814 1296 122.844 188.163 459.666
2678 0 99.1871 12.9956 1289 123.411 188.154 457.902
2679 0 101.169 12.3358 1248 125.723 187.7 457.046
2680 0 105.155 13.4373 1413 121.797 187.968 458.19
2681 0 109.192 13.1145 1432 124.446 187.14 452.56
2682 0 113.183 12.9172 1462 123.065 187.979 450.189
2683 0 117.092 12.614 1477 123.077 188.133 448.432
2684 0 125.147 13.4162 1679 119.631 187.929 444.866
2685 1 68.0928 12.6886 864 120.688 188.023 473.281
2686 0 72.1152 12.5771 907 121.969 187.846 470.462
2687 0 73.0851 12.4102 907 123.445 187.645 469.525
2688 0 77.1854 13.1372 1014 121.287 187.434 467.899
2689 0 81.2666 13.4003 1089 118.844 187.55 467.05
2690 0 81.1026 13.3041 1079 120.802 187.796 465.274
2691 0 88.1719 14.347 1265 117.326 188.174 463.211
2692 0 87.1704 12.2748 1070 125.753 187.787 461.495
2693 0 91.2485 14.2249 1298 120.547 187.592 459.605
2694 0 93.2415 12.902 1203 125.394 187.768 460.065
2695 0 98.2238 14.8436 1458 119.947 187.597 458.179
2696 0 100.338 13.5342 1358 125.8 187.272 456.679
2697 0 105.305 14.3013 1506 122.825 187.686 455.837
2698 0 108.379 13.2406 1435 127.928 187.997 453.447
2699 0 110.294 14.5521 1605 125.566 187.829 451.12
2700 0 112.266 14.7151 1652 127.553 187.831 450.684
2701 0 117.259 14.3017 1677 129.187 187.847 448.949
2702 0 119.237 14.4586 1724 130.484 187.97 446.118
2703 0 122.228 13.7775 1684 132.314 188.166 448.903
2704 0 126.121 13.1857 1663 135.95 188.873 442.405
2705 0 130.209 13.079 1703 134.379 188.122 444.433
2706 0 133.154 13.2779 1768 136.557 187.596 440.283
2707 0 140.269 13.5026 1894 134.518 187.933 437.897
2708 0 146.3 12.905 1888 135.895 187.622 436.263
2709 0 150.338 12.9109 1941 134.744 188.315 433.484
2710 1 86.2297 11.6897 1008 134.739 188.581 463.331
2711 0 90.2204 12.9239 1166 130.767 188.618 460.85
2712 0 95.2446 13.5756 1293 127.601 188.446 460.658
2713 0 97.4629 12.5689 1225 130.781 188.621 458.67
2714 0 100.249 13.7159 1375 127.74 188.709 456.898
2715 0 104.287 13.9136 1451 126.967 188.185 453.981
2716 0 108.307 13.7756 1492 126.489 188.43 453.406
2717 0 111.19 13.8321 1538 126.405 188.283 451.849
2718 0 115.327 13.4661 1553 127.391 188.46 448.995
2719 0 118.289 13.0782 1547 128.348 188.948 446.948
2720 0 122.303 14.1616 1732 123.836 188.212 445.652
2721 0 125.214 13.5848 1701 125.783 188.837 445.647
2722 0 129.279 14.403 1862 123.803 188.433 444.164
2723 0 132.182 14.601 1930 123.71 189.262 440.037
2724 0 137.237 12.5477 1722 129.093 188.189 439.026
2725 0 140.206 13.0237 1826 127.254 188.162 437.381
2726 0 147.336 13.5337 1994 125.793 188.705 432.264
2727 0 152.379 13.3417 2033 126.926 188.543 428.92
2728 0 156.524 13.2184 2069 128.145 187.493 430
2729 0 161.322 13.2096 2131 129.089 187.716 426.928
2730 0 165.576 13.136 2175 129.704 188.418 422.886
2731 0 170.377 13.118 2235 130.576 188.752 417.008
2732 0 179.462 13.741 2466 126.787 188.998 415.814
2733 0 183.526 13.1916 2421 129.324 188.008 412.978
2734 0 190.424 14.3155 2726 125.864 188.27 410.074
2735 0 197.947 14.3675 2844 126.26 188.285 404.152
2736 0 201.57 13.9555 2813 128.924 187.662 398.333
2737 0 210.566 13.4067 2823 129.695 187.772 397.261
2738 0 218.431 14.2425 3111 127.77 188.039 393.742
2739 0 222.389 13.9575 3104 129.348 188.141 390.288
2740 0 230.326 14.3058 3295 127.856 189.312 390.764
2741 0 235.635 15.9102 3749 123.953 188.336 391.485
2742 0 241.419 13.7313 3315 129.807 188.75 391.724
2743 0 249.313 14.8167 3694 127.005 188.685 383.412
2744 1 39.1368 11.6514 456 103.719 189.849 491.98
2745 0 39.1367 10.5783 414 107.604 189.708 493.358
2746 0 39.1858 9.67188 379 111.934 189.259 492.644
2747 0 40.1217 10.5928 425 106.616 187.911 493.049
2748 0 39.0602 11.6487 455 108.259 188.36 494.057
2749 0 38.1747 10.1376 387 112.432 188.375 493.899
2750 0 39.0236 10.3783 405 111.222 188.343 494.583
2751 0 40.0285 11.7167 469 108.727 189.043 493.333
2752 0 40.1957 10.9713 441 111.05 189.168 493.29
2753 0 40.0607 11.7322 470 108.709 188.394 495.853
2754 0 40.1154 11.3672 456 110.895 188.618 494.934
2755 0 39.1103 10.6877 418 114.258 188.684 493.323
2756 0 41.1034 9.68289 398 115.761 188.56 494.367
2757 0 41.0624 12.3227 506 108.834 188.672 493.34
2758 0 40.0187 12.2942 492 108.618 188.238 495.096
2759 0 41.1423 10.9862 452 110.956 188.584 493.111
2760 0 42.0536 10.986 462 110.344 189.074 494.762
2761 0 43.0969 11.3697 490 108.859 189.627 494.49
2762 0 42.0684 12.0756 508 107.201 189.325 493.583
2763 0 41.0804 11.6357 478 110.008 189.176 493.182
2764 0 43.1378 10.5244 454 110.529 188.617 493.989
2765 0 41.0589 10.8868 447 111.291 188.555 493.799
2766 0 42.0416 10.3707 436 112.876 188.915 492.901
2767 0 42.0311 10.1829 428 112.813 188.547 493.096
2768 0 43.0361 11.4555 493 108.961 188.495 493.846
2769 0 43.0939 12.0435 519 107.266 188.888 493.557
2770 0 44.2045 11.1075 491 108.387 189.171 491.169
2771 0 43.0367 12.013 517 107.824 188.658 493.277
