time division length width area intensity CMx CMy
0 0 45.0207 14.3268 645 130.946 205.353 474.402
1 0 48.0453 15.5062 745 121.961 206.616 474.223
2 0 48.0583 15.398 740 123.569 206.576 473.435
3 0 49.1257 14.6766 721 125.745 206.501 470.986
4 0 51.2084 14.4312 739 125.402 206.152 467.968
5 0 53.1056 15.8175 840 118.108 205.888 469.451
6 0 53.1402 14.3959 765 127.192 205.542 472.859
7 0 53.1465 14.3189 761 161.089 205.514 472.857
8 0 56.1534 14.3714 807 127.73 205.507 472.346
9 0 57.0982 15.4821 884 124.756 205.604 470.425
10 0 59.1329 16.0655 950 121.036 205.648 469.309
11 0 61.0978 15.5816 952 124.143 205.652 469.686
12 0 63.1377 16.2027 1023 119.977 205.158 469.243
13 0 64.1617 14.7596 947 126.108 204.924 468.657
14 0 65.1619 14.5637 949 126.301 204.945 468.885
15 0 67.1653 15.2906 1027 124.322 204.614 467.2
16 0 70.2202 16.4625 1156 119.069 204.768 467.837
17 0 74.1794 17.3768 1289 114.089 204.626 464.791
18 1 37.0683 11.6272 431 136.863 203.469 482.227
19 0 39.0711 12.874 503 132.376 204.519 482.604
20 0 40.0881 12.3229 494 134.791 204.381 481.63
21 0 41.0839 11.8294 486 98.0123 204.15 481.06
22 0 42.0943 13.2084 556 125.986 203.007 484.058
23 0 42.0312 13.1093 551 127.733 203.328 484.067
24 0 43.0071 12.8118 551 128.991 203.12 483.232
25 0 44.0194 12.6308 556 131.399 203.241 481.36
26 0 44.0141 13.064 575 129.991 202.943 482.031
27 0 47.0746 13.7654 648 124.861 201.713 480.579
28 0 49.0675 13.8381 679 127.993 203.457 479.982
29 0 48.0603 12.7132 611 133.525 202.502 480.368
30 0 51.0332 12.5213 639 131.476 201.657 480.412
31 0 53.0715 13.3593 709 129.251 202.934 479.736
32 0 54.0324 13.9176 752 127.766 202.745 478.794
33 0 56.0858 12.5165 702 132.635 202.04 478.137
34 0 56.0667 13.6088 763 130.872 201.969 477.356
35 0 59.076 14.2359 841 127.762 202.024 476.605
36 0 62.0296 14.8639 922 123.324 201.206 475.249
37 0 63.096 14.0896 889 126.703 201.63 475.481
38 0 65.1205 14.3734 936 125.807 201.371 474.452
39 0 66.0657 14.0012 925 128.223 201.498 472.335
40 0 68.0419 13.5211 920 129.535 202.525 473.265
41 0 70.0568 13.4177 940 129.734 201.655 471.902
42 0 72.036 13.8403 997 128.547 201.058 470.71
43 0 77.0828 15.3342 1182 122.415 201.887 469.39
44 0 78.0635 13.9246 1087 127.35 201.435 469.275
45 0 81.0597 14.4708 1173 127.267 200.368 467.411
46 0 83.0602 13.7491 1142 129.907 199.992 466.474
47 0 84.0902 14.4963 1219 129.465 200.489 464.38
48 0 87.067 14.1385 1231 131.787 200.848 461.93
49 0 90.1245 14.8905 1342 130.696 200.884 461.137
50 0 93.119 14.7016 1369 130.574 200.023 461.296
51 0 96.0569 14.6788 1410 130.793 200.116 458.596
52 0 98.0911 13.8137 1355 132.632 200.454 457.415
53 1 51.2003 10.8788 557 123.522 201.169 475.257
54 0 56.0568 13.3258 747 116.277 201.09 476.586
55 0 59.1616 13.8265 818 123.233 200.204 477.15
56 0 60.0229 13.8447 831 124.502 200.004 476.69
57 0 61.0289 14.0917 860 124.433 200.45 475.67
58 0 66.1242 14.745 975 122.549 200.873 476.331
59 0 67.0966 14.889 999 124.064 200.142 474.495
60 0 67.1053 12.4729 837 132.465 199.889 474.486
61 0 71.1629 14.2068 1011 127.861 200.214 471.978
62 0 74.1534 14.5105 1076 125.497 200.728 471.889
63 0 76.1407 14.6965 1119 126.424 200.509 469.061
64 0 80.0556 13.6655 1094 129.08 199.777 468.431
65 0 82.1024 14.1774 1164 133.672 199.607 467.53
66 0 82.105 13.3731 1098 137.122 200.442 465.492
67 0 88.0497 14.8098 1304 131.946 199.769 465.081
68 0 90.0991 13.7515 1239 133.49 198.863 461.225
69 0 92.0644 12.904 1188 136.114 199.227 460.693
70 0 96.1041 13.8288 1329 133.262 199.239 458.898
71 1 51.0781 11.688 597 127.296 200.497 482.457
72 0 52.0655 11.62 605 126.498 199.972 481.876
73 0 54.116 12.3438 668 123.519 200.123 480.793
74 0 56.0991 11.3549 637 126.677 200.488 482.449
75 0 59.0533 13.1068 774 121.026 200.149 480.101
76 0 62.0221 13.0276 808 121.287 200.105 478.594
77 0 63.0327 13.0567 823 121.293 200.024 477.335
78 0 66.0644 12.7451 842 122.631 200.026 476.354
79 0 69.1433 12.2499 847 123.058 199.981 475.157
80 0 71.1347 13.622 969 119.201 200.295 473.159
81 0 72.1131 12.3833 893 122.611 200.317 474.952
82 0 75.1034 13.1951 991 120.455 200.04 472.531
83 0 78.0935 13.6631 1067 119.315 200.366 470.775
84 0 79.0985 11.6311 920 124.941 200.622 470.164
85 0 82.1862 12.9341 1063 121.921 200.304 466.173
86 0 86.1741 11.9409 1029 123.909 199.538 465.38
87 0 89.2166 13.0581 1165 120.117 199.379 465.829
88 0 91.1882 13.6312 1243 118.977 199.426 462.523
89 0 95.0948 13.0396 1240 120.867 199.518 460.639
90 0 95.1051 13.3431 1269 120.083 199.215 461.782
91 0 101.085 13.5332 1368 118.196 198.654 457.895
92 0 104.159 12.817 1335 119.794 198.897 456.593
93 0 106.082 13.0465 1384 118.949 199.114 455.869
94 0 112.099 13.7111 1537 116.975 198.468 451.71
95 0 114.104 12.9443 1477 124.481 198.251 449.69
96 0 118.22 13.9148 1645 121.834 198.727 447.363
97 0 125.125 14.034 1756 119.772 197.739 446.442
98 0 129.115 13.7861 1780 120.73 197.326 442.746
99 0 132.244 12.7038 1680 124.327 197.646 441.859
100 0 139.16 13.6031 1893 123.271 197.76 438.489
101 0 145.253 13.8724 2015 122.647 197.568 438.384
102 0 149.31 13.6294 2035 125.337 197.818 432.908
103 0 153.225 13.6271 2088 124.406 197.795 430.563
104 0 158.117 12.3769 1957 126.822 197.795 430.352
105 0 163.162 12.9319 2110 125.696 198.161 427.294
106 0 169.082 13.1711 2227 125.071 197.818 423.193
107 0 176.329 13.1062 2311 125.637 197.28 419.62
108 0 182.203 13.1118 2389 126.247 197.525 414.718
109 0 190.222 13.9363 2651 123.203 196.986 411.503
110 0 188.333 11.5699 2179 127.627 197.609 416.429
111 1 110.249 11.1838 1233 123.225 197.002 453.009
112 0 116.288 12.6582 1472 121.26 196.781 447.385
113 0 117.095 12.6393 1480 120.468 197.17 449.543
114 0 122.15 13.1887 1611 118.202 197.627 447.487
115 0 125.139 11.9946 1501 122.056 196.998 446.484
116 0 130.108 13.8039 1796 117.767 196.845 440.818
117 0 134.084 12.2088 1637 120.388 196.813 440.363
118 0 139.252 12.6605 1763 120.718 197.243 434.87
119 0 148.265 14.2448 2112 115.809 197.631 436.071
120 0 151.357 13.9339 2109 117.758 197.331 433.018
121 0 154.218 13.3901 2065 120.271 197.047 432.536
122 0 161.219 12.9575 2089 121.495 196.982 427.258
123 0 168.304 13.232 2227 120.682 197.271 424.42
124 0 175.411 13.5795 2382 120.059 197.733 421.887
125 0 180.349 13.302 2399 121.997 197.482 418.418
126 0 188.34 14.5694 2744 118.489 197.558 415.126
127 0 196.315 15.1797 2980 116.419 197.156 409.247
128 0 202.428 15.5808 3154 117.077 197.795 410.652
129 0 206.563 14.1264 2918 121.559 197.585 407.455
130 1 170.202 9.04219 1539 124.807 197.21 430.405
131 0 167.408 10.6148 1777 124.198 198.223 423.935
132 0 168.212 12.187 2050 119.754 197.837 418.538
133 0 174.213 13.518 2355 116.772 197.132 413.321
134 0 181.262 13.4998 2447 115.79 196.986 411.403
135 0 184.198 12.8449 2366 117.611 197.39 410.896
136 0 191.23 12.5242 2395 117.408 197.225 411.624
137 0 198.286 13.0872 2595 116.337 197.207 402.693
138 0 205.173 12.6381 2593 116.689 197.639 398.678
139 0 213.201 12.9643 2764 114.988 198.131 395.83
140 0 220.34 13.1615 2900 115.117 196.969 391.532
141 0 229.462 13.9326 3197 112.9 197.317 389.317
142 0 237.265 13.5461 3214 116.09 197.086 382.988
143 1 51.1408 8.46683 433 97.0323 199.478 481.083
144 0 55.0538 11.1709 615 96.2683 199.372 482.415
145 0 54.0355 10.9002 589 97.3582 199.299 479.457
146 0 55.0598 11.0062 606 98.9439 200.46 478.927
147 0 57.0569 11.4272 652 97.8773 200.232 478.991
148 0 58.0536 11.0587 642 99.4377 198.95 478.46
149 0 60.125 9.96257 599 100.476 198.324 478.618
150 0 61.1333 11.2541 688 98.1192 197.688 477.547
151 0 64.0827 11.2355 720 97.7083 197.567 475.34
152 0 67.1467 11.6461 782 96.2289 199.645 477.081
153 0 65.0552 10.8984 709 99.1241 198.862 473.385
154 0 71.1023 10.4357 742 98.1253 198.415 475.547
155 0 72.1536 11.6141 838 96.7148 199.08 471.981
156 0 73.1221 10.4483 764 100.305 200.281 471.643
157 0 74.1377 9.75212 723 101.173 198.885 470.52
158 1 40.0657 10.2332 410 98.7073 199.283 485.639
159 0 40.0258 9.7437 390 97.8897 200.49 486.536
160 0 42.1026 9.4056 396 97.6793 199.404 485.018
161 0 46.0341 10.3402 476 92.2248 196.38 484.162
162 0 46.0568 11.3773 524 90.8836 196.429 481.563
163 0 47.0517 11.8805 559 88.746 196.369 484.032
164 0 49.0833 11.7555 577 89.9411 197.028 480.237
165 0 52.0201 10.669 555 91.8847 197.083 480.937
166 0 52.0452 11.9704 623 90.6565 197.249 479.441
167 0 53.1217 10.9183 580 92.7397 196.981 480.122
168 0 54.0409 10.418 563 93.6519 196.712 479.933
169 0 57.0245 10.5919 604 93.3013 196.684 478.263
170 0 58.0269 11.2189 651 93.381 196.77 476.951
171 0 60.0484 11.8571 712 92.2809 197.507 475.053
172 0 62.0189 12.1576 754 91.2241 197.391 476.552
173 0 64.0206 11.2308 719 93.3992 197.103 474.876
174 0 65.0901 11.5839 754 93.6167 197.337 473.736
175 0 68.0532 12.4021 844 91.7832 197.508 472.038
176 0 71.0771 13.014 925 91.2443 197.328 470.848
177 0 69.1118 11.7491 812 98.6466 199.683 472.732
178 0 71.0622 10.8074 768 100.852 199.48 469.548
179 0 75.1689 13.0373 980 96.1449 199.259 470.264
180 0 77.1459 12.2106 942 99.1518 198.561 470.54
181 0 79.091 11.531 912 99.2127 198.802 465.082
182 0 83.1464 11.6421 968 98.7169 198.363 464.478
183 0 88.143 11.8217 1042 99.1804 198.612 465.747
184 0 89.1417 11.4312 1019 102.32 198.612 461.752
185 0 91.11 12.205 1112 100.3 198.746 464.748
186 0 97.1375 12.4669 1211 99.7713 199.169 459.92
187 0 98.3974 11.9414 1175 101.669 198.82 456.565
188 1 54.1358 13.1706 713 100.59 197.95 480.424
189 0 55.0406 13.1357 723 100.573 198.4 480.927
190 0 56.143 11.8448 665 105.048 198.58 477.722
191 0 56.0904 12.5512 704 105.562 197.939 475.734
192 0 60.1112 11.9944 721 105.143 197.835 476.75
193 0 59.0792 11.51 680 108.249 197.907 476.285
194 0 62.1226 12.9261 803 104.795 197.555 475.8
195 0 64.0588 12.5978 807 106.172 197.836 474.984
196 0 64.1824 12.3242 791 107.649 198.78 475.262
197 0 69.3185 12.493 866 106.686 200.264 472.716
198 0 71.1448 12.9595 922 105.741 199.184 471.282
199 0 71.2356 12.2832 875 108.297 198.289 470.814
200 0 75.1906 12.076 908 108.126 197.933 470.562
201 0 75.229 12.3224 927 108.93 198.204 467.895
202 0 80.1136 13.8678 1111 105.326 198.651 466.759
203 0 82.0432 12.3228 1011 109.37 199.216 466.684
204 0 86.0553 14.1537 1218 104.878 199.019 466.942
205 0 89.118 13.2633 1182 106.99 198.756 465.073
206 0 91.1405 12.8044 1167 108.781 197.685 463.823
207 0 94.1851 13.0488 1229 106.445 198.007 462.561
208 0 96.1301 14.2827 1373 104.956 198.185 457.859
209 1 49.1592 12.8155 630 102.302 196.89 482.556
210 0 50.0834 11.98 600 107.177 197.305 480.9
211 0 51.1015 13.1503 672 97.9033 198.65 482.095
212 0 53.0826 11.6234 617 101.251 198.921 481.473
213 0 55.1625 12.1278 669 100.402 198.293 479.779
214 0 56.0902 13.0326 731 99.2353 198.754 479.014
215 0 57.1623 12.9281 739 101.77 199.235 479.287
216 0 60.1242 13.6717 822 99.8151 198.251 477.978
217 0 61.092 13.9298 851 99.4947 198.395 476.458
218 0 64.1004 14.0093 898 99.5167 198.081 474.322
219 0 65.0681 12.7712 831 103.785 198.863 475.195
220 0 68.0627 14.9862 1020 99.6098 198.669 472.991
221 0 70.1181 14.7893 1037 74.2536 198.896 473.114
222 0 70.0834 13.6409 956 105.205 198.997 473.437
223 0 73.1613 12.7526 933 107.667 198.841 471.807
224 0 75.1811 14.6979 1105 105.331 199.17 468.764
225 0 80.1229 14.0534 1126 107.315 198.073 467.169
226 0 81.1522 12.8894 1046 110.726 197.664 466.215
227 0 85.0667 13.46 1145 109.807 197.574 464.146
228 1 45.0643 11.295 509 114.004 198.09 483.548
229 0 47.1922 13.6675 645 109.265 197.274 483.118
230 0 48.076 11.6482 560 115.934 197.111 482.009
231 0 50.1107 12.2728 615 114.541 197.343 481.385
232 0 54.0709 12.2987 665 112.002 197.481 482.881
233 0 54.0392 12.1023 654 115.122 197.336 480.228
234 0 55.0661 13.2205 728 113.144 197.946 480.622
235 0 56.1194 12.2418 687 116.719 198.067 478.862
236 0 60.0398 11.8588 712 116.087 197.466 477.92
237 0 61.0522 12.2518 748 113.838 196.941 478.114
238 0 62.0584 11.7953 732 114.538 196.728 476.754
239 0 67.0554 13.1831 884 111.442 197.563 474.967
240 0 68.0437 12.2421 833 113.409 197.826 472.914
241 0 70.1116 12.7083 891 113.897 197.836 473.49
242 0 71.0566 11.7934 838 115.021 197.556 472.272
243 0 75.1518 13.16 989 110.853 197.519 472.085
244 0 77.1101 11.9829 924 112.748 197.481 470.608
245 0 81.0964 12.0474 977 113.414 197.966 468.323
246 1 44.0522 10.5784 466 111.099 197.315 485.985
247 0 46.0196 12.5164 576 105.457 197.22 484.455
248 0 47.0397 11.6285 547 111.128 199.51 484.126
249 0 47.0509 11.817 556 104.957 199.315 484.502
250 0 48.132 12.0502 580 105.259 199.44 483.459
251 0 51.0986 12.0747 617 105.833 198.384 481.877
252 0 50.1652 12.399 622 106.876 199.119 481.633
253 0 54.0716 12.28 664 106.625 198.979 480.905
254 0 52.0671 12.5991 656 107.146 198.927 480.242
255 0 55.1388 12.7496 703 106.017 198.545 479.993
256 0 58.08 13.2059 767 105.625 199.081 479.275
257 0 58.0628 12.2798 713 109.331 198.93 479.205
258 0 60.0662 12.1033 727 117.198 197.722 476.256
259 0 61.135 13.233 809 114.67 198.069 474.811
260 0 64.0867 13.7002 878 112.723 198.532 477.008
261 0 67.1533 13.2681 891 113.514 198.336 476.189
262 0 69.1261 13.6707 945 112.061 198.349 475.033
263 0 70.0825 13.9978 981 114.27 198.641 471.314
264 0 72.169 12.7063 917 116.918 197.433 471.109
265 0 74.0949 12.1196 898 118.144 198.499 472.627
266 0 76.1038 12.3253 938 117.9 199.187 470.374
267 0 78.1377 12.9899 1015 116.361 199.473 469.039
268 0 80.1951 12.719 1020 117.551 198.614 465.465
269 0 83.181 13.681 1138 113.664 199.351 467.011
270 0 86.1956 13.887 1197 113.332 199.024 464.637
271 0 86.2025 12.8071 1104 116.292 198.328 464.428
272 0 89.0411 12.8255 1142 117.139 199.135 461.603
273 0 93.0766 13.8273 1287 115.092 199.022 460.426
274 0 97.0511 12.8695 1249 117.779 197.641 460.015
275 0 98.1266 12.5043 1227 119.92 197.83 457.513
276 0 102.132 13.0028 1328 116.904 197.742 458.061
277 0 105.138 13.1256 1380 118.386 198.475 452.44
278 1 55.0543 12.3696 681 111.238 198.104 480.546
279 0 56.0671 11.5397 647 111.768 197.764 481.25
280 0 59.0529 12.9376 764 110.099 197.491 477.033
281 0 61.0623 13.216 807 108.755 198.115 476.67
282 0 62.045 12.3942 769 111.853 198.356 476.382
283 0 64.0511 13.5829 870 109.967 197.747 476.094
284 0 66.0163 12.194 805 113.886 198.065 476.088
285 0 67.0624 12.5256 840 114.065 197.746 475.423
286 0 71.073 13.0992 931 113.679 198.324 472.756
287 0 72.0864 13.2896 958 114.028 198.11 472.168
288 0 74.0251 12.9416 958 115.442 197.841 471.126
289 0 77.0363 12.6174 972 115.729 198.29 470.463
290 0 80.0456 13.3299 1067 113.067 197.612 469.391
291 0 81.0546 11.4614 929 118.083 197.577 469.397
292 0 85.1692 13.6317 1161 113.724 197.239 466.135
293 0 87.1705 13.8005 1203 114.325 197.459 465.045
294 0 89.1484 12.4063 1106 118.099 197.231 464.392
295 0 90.1709 12.1769 1098 119.942 198.031 461.416
296 0 95.0541 13.3187 1266 116.999 197.699 460.677
297 0 97.1389 14.0006 1360 116.179 197.833 458.201
298 0 102.105 13.6918 1398 115.11 198.345 457.55
299 0 103.128 13.0033 1341 116.17 197.701 456.896
300 0 107.113 12.5755 1347 115.771 198.007 454.991
301 0 111.082 13.0354 1448 115.073 198.443 453.28
302 0 115.154 12.2097 1406 117.332 197.715 450.941
303 0 119.203 12.357 1473 117.357 197.466 447.536
304 1 68.0729 11.5318 785 116.922 197.958 472.592
305 0 69.0931 12.0852 835 114.437 198.184 471.734
306 0 73.0465 14.0322 1025 109.667 198.343 473.547
307 0 75.0561 13.4566 1010 117.294 197.955 468.638
308 0 76.0385 12.0202 914 115.256 198.909 470.795
309 0 78.0427 12.6469 987 114.947 199.465 467.801
310 0 79.0761 11.8114 934 117.753 199.117 468.323
311 0 82.1011 12.9475 1063 115.268 199.122 464.914
312 0 87.0829 11.9771 1043 117.168 199.198 463.627
313 0 88.0284 12.4392 1095 116.534 198.707 464.794
314 0 92.0616 13.2411 1219 116.197 198.16 460.82
315 0 95.0628 12.6969 1207 118.548 197.983 460.557
316 0 97.1026 12.5537 1219 120.073 197.188 458.55
317 0 100.163 11.7408 1176 121.021 197.909 460.488
318 0 104.078 13.4706 1402 119.683 198.9 455.12
319 0 107.114 12.2206 1309 124.016 198.753 453.273
320 0 111.154 13.5938 1511 121.36 197.807 452.016
321 0 115.063 13.3492 1536 123.023 197.988 449.801
322 0 120.178 13.7546 1653 121.978 197.966 448.211
323 0 126.241 13.5534 1711 121.814 197.91 447.852
324 0 132.172 14.3752 1900 120.179 198.016 440.98
325 1 71.1181 12.0363 856 125.485 198.381 470.73
326 0 75.0746 12.9871 975 125.744 198.547 469.589
327 0 77.1044 12.6322 974 126.169 198.177 470.297
328 0 80.0781 12.5877 1008 126.284 198.762 467.463
329 0 84.0244 12.8772 1082 125.567 198.992 465.762
330 0 85.1197 13.3577 1137 125.51 197.723 466.104
331 0 89.189 12.7819 1140 128.516 197.2 460.602
332 0 91.1352 12.6515 1153 128.394 198.029 460.356
333 0 95.2011 12.857 1224 127.307 197.478 459.666
334 0 99.116 13.1664 1305 125.968 197.544 457.85
335 0 103.066 14.5731 1502 121.756 198.418 457.083
336 0 105.096 13.5209 1421 126.123 197.624 453.892
337 0 110.154 13.2088 1455 124.456 198.436 454.687
338 0 112.151 13.1965 1480 124.539 197.933 453.514
339 1 64.0975 11.1549 715 121.168 197.994 477.117
340 0 63.0284 12.0581 760 118.47 198.193 475.553
341 0 65.2335 12.6162 823 120.44 198.696 474.043
342 0 68.0929 12.2333 833 118.634 199.25 473.809
343 0 71.0566 12.286 873 117.615 199.071 473.148
344 0 72.0404 13.0343 939 116.609 199.494 472.799
345 0 76.0629 13.8044 1050 115.09 199.204 470.395
346 0 77.0591 13.6389 1051 119.185 199.608 468.431
347 0 79.0308 12.1092 957 124.026 199.021 466.308
348 0 83.1128 12.6455 1051 121.727 198.326 467.549
349 0 86.0851 13.6144 1172 117.006 199.619 463.63
350 0 87.0752 12.3801 1078 124.619 197.752 460.558
351 0 91.1728 12.4599 1136 124.415 197.607 460.931
352 0 94.1303 11.9196 1122 125.708 197.892 460.947
353 0 96.1245 12.3382 1186 126.14 197.444 459.267
354 0 101.234 13.3749 1354 122.801 197.724 455.871
355 0 102.164 11.1096 1135 127.475 197.845 454.622
356 1 53.0585 10.3282 548 118.591 197.181 479.412
357 0 58.053 10.7143 622 112.768 197.51 481.805
358 0 58.0466 11.5252 669 113.65 200.072 478.48
359 0 60.102 11.6302 699 107.996 199.082 479.318
360 0 62.0402 10.88 675 109.578 196.819 477.689
361 0 63.0362 11.4537 722 118.194 196.97 474.327
362 0 68.0295 11.7155 797 116.861 196.858 474.144
363 0 69.2015 12.2252 846 115.316 196.372 475.158
364 0 68.1091 11.232 765 118.795 196.26 474.599
365 0 69.1055 11.9238 824 117.9 196.615 471.041
366 0 73.1591 12.8624 941 113.885 197.173 472.594
367 0 76.205 13.818 1053 111.506 196.925 471.508
368 0 77.0792 12.8958 994 115.162 197.296 467.834
369 0 80.1529 12.3015 986 116.175 197.339 468.47
370 0 82.0711 12.7451 1046 115.014 197.27 468.292
371 0 83.0249 11.7073 972 115.506 197.38 467.468
372 0 84.1712 11.6905 984 111.533 198.342 468.04
373 0 86.1935 11.0217 950 111.522 198.676 467.937
374 0 88.0785 10.3771 914 112.968 198.186 466.679
375 0 92.0774 10.6649 982 113.128 197.345 463.411
376 0 95.1879 11.7767 1121 112.091 197.399 461.365
377 0 102.149 11.1113 1135 112.951 197.738 459.381
378 1 54.083 10.4099 563 106.922 197.282 480.361
379 0 58.1671 10.8824 633 102.656 198.896 481.82
380 0 56.0591 10.6495 597 110.405 199.3 481.201
381 0 58.0992 11.4976 668 106.257 198.778 479.942
382 0 59.0782 10.1899 602 104.696 200.03 480.905
383 0 60.0774 9.7208 584 105.836 200.086 479.495
384 0 63.1298 9.91608 626 105.885 200.361 476.837
385 0 66.0738 11.3509 750 102.876 200.339 474.527
386 0 67.1551 11.5256 774 102.22 199.62 477.65
387 0 68.074 9.71003 661 105.204 200.008 477.546
388 0 72.1042 9.84686 710 105.241 199.487 474.959
389 0 75.0996 11.4381 859 103.63 198.52 471.461
390 0 77.1167 10.8148 834 104.983 199.004 469.439
391 0 81.1361 11.0185 894 104.356 199.01 469.926
392 0 84.2123 11.7323 988 103.624 199.064 467.424
393 0 86.077 11.0947 955 105.187 199.643 465.309
394 0 89.1626 10.9912 980 105.689 199.014 464.942
395 0 92.1282 10.9956 1013 105.581 198.458 462.236
396 1 46.0437 11.2502 518 103.585 199.201 484.243
397 0 49.0382 11.4604 562 102.79 199.523 483.74
398 0 48.1325 10.7204 516 107.628 199.419 484.366
399 0 50.0557 11.647 583 104.413 199.293 482.206
400 0 52.1183 12.4524 649 103.168 198.997 483.798
401 0 55.1288 12.7882 705 101.176 199.363 483.705
402 0 56.0555 11.9703 671 104.694 199.325 482.216
403 0 58.0968 12.462 724 102.722 199.836 481.058
404 0 59.0672 12.2572 724 104.419 199.573 480.163
405 0 61.1029 11.7834 720 105.738 199.932 478.26
406 0 63.2161 13.2561 838 102.172 199.58 476.674
407 0 66.1821 11.967 792 105.117 199.999 475.304
408 0 66.2719 11.3472 752 105.952 199.979 475.871
409 0 70.1428 12.7169 892 102.367 199.33 473.555
410 0 73.1797 13.1867 965 101.342 199.292 473.341
411 0 74.1837 12.2668 910 103.545 199.729 472.638
412 0 75.1395 11.7781 885 107.306 199.669 470.434
413 0 79.064 11.6741 923 105.974 199.795 471.905
414 0 81.1437 10.6354 863 109.396 199.508 471.05
415 0 84.1558 10.3617 872 109.632 199.631 470.39
416 1 45.0373 11.9901 540 105.256 199.811 486.452
417 0 44.0702 12.117 534 106.708 199.942 485.382
418 0 46.0224 11.8855 547 107.388 200.035 485.654
419 0 47.0838 13.1468 619 107.472 200.738 483.855
420 0 48.0731 11.4825 552 109.808 200.168 484.761
421 0 50.1019 12.6343 633 106.979 200.502 483.787
422 0 53.0639 13.6062 722 104.521 199.809 483.098
423 0 52.0987 11.8813 619 109.666 200.502 481.919
424 0 53.0201 11.2976 599 113.053 200.322 482.621
425 0 56.0828 12.6599 710 108.587 200.966 481.158
426 0 56.1433 11.9337 670 110.96 200.321 482.533
427 0 57.1708 11.5793 662 111.97 200.147 480.551
428 0 61.0739 11.8054 721 110.778 199.979 480.269
429 0 62.1108 13.3632 830 108.499 200.411 478.383
430 0 63.09 12.5535 792 111.385 199.409 476.833
431 0 65.1563 11.8024 769 112.017 199.518 477.414
432 0 67.0848 11.7911 791 112.616 199.517 475.662
433 0 70.1729 11.9989 842 111.987 199.51 474.013
434 0 73.0641 12.0853 883 110.325 198.943 475.383
435 0 78.1059 11.6765 912 110.01 199.414 470.234
436 0 79.0831 12.3415 976 107.164 199.097 469.666
437 0 80.1299 11.993 961 108.787 199.304 469.779
438 0 86.0927 11.9987 1033 109.667 198.93 468.528
439 0 86.1367 12.1551 1047 112.637 199.03 462.351
440 1 47.0759 12.5542 591 107.076 199.563 485.135
441 0 48.19 12.596 607 109.016 199.496 481.97
442 0 47.2639 10.9597 518 102.494 199.116 478.517
443 0 50.2266 10.7911 542 97.2583 198.932 479.817
444 0 51.1497 10.3226 528 98.9205 199.214 480.801
445 0 53.22 11.8752 632 104.345 198.916 477.473
446 0 54.1866 11.6265 630 105.341 199.395 476.944
447 0 55.1358 11.0817 611 106.029 199.124 477.872
448 0 58.2533 10.8492 632 107.666 199.511 475.025
449 0 59.1756 12.5896 745 104.472 199.259 474.184
450 0 61.2075 10.5543 646 107.988 198.896 473.522
451 0 63.0947 11.8869 750 105.368 199.232 472.345
452 0 65.1127 10.7045 697 106.977 199.123 470.753
453 0 66.14 11.2489 744 105.362 198.79 470.864
454 0 67.1692 10.8532 729 107.08 199.269 469.283
455 0 69.1401 11.3827 787 104.672 199.729 467.882
456 0 73.2352 12.2346 896 102.628 199.411 465.938
457 0 77.0986 12.0884 932 101.597 199.466 467.135
458 0 78.1031 10.7678 841 103.671 199.704 465.249
459 0 79.1473 11.1438 882 103.244 199.355 464.769
460 0 84.1657 9.57635 806 105.134 199.557 463.109
461 0 89.1359 10.5457 940 103.652 199.773 460.659
462 1 47.1028 10.3179 486 106.765 200.504 483.724
463 0 47.0383 10.3533 487 108.747 199.903 483.593
464 0 50.0321 11.6525 583 101.852 199.714 483.033
465 0 49.0854 12.2032 599 102.811 199.571 482.309
466 0 51.1421 12.827 656 101.192 199.393 481.692
467 0 51.0745 12.7069 649 103.003 199.322 481.961
468 0 53.1136 13.9889 743 101.052 198.995 479.91
469 0 56.0492 12.2214 685 105.047 198.958 481.14
470 0 57.1012 13.8876 793 102.45 198.968 479.014
471 0 59.0656 13.3072 786 103.618 198.662 479.954
472 0 63.0433 14.4028 908 101.357 199.349 478.291
473 0 64.2418 14.3365 921 103.404 199.389 476.898
474 0 68.1732 14.4925 988 103.18 198.807 477.901
475 0 69.1245 13.7578 951 107.044 199.209 475.707
476 0 69.1082 13.4427 929 110.829 199.35 474.183
477 0 73.2228 14.8997 1091 107.39 198.748 473.618
478 0 72.1242 13.3658 964 114.434 198.396 473.693
479 0 76.0803 14.4847 1102 112.34 198.879 471.49
480 0 78.1072 13.5967 1062 116.268 198.874 470.288
481 0 83.1123 14.5225 1207 117.36 198.062 468.184
482 0 86.2419 14.5637 1256 118.392 198.734 467.903
483 0 87.1351 15.4587 1347 116.243 197.471 465.774
484 0 88.0437 14.1521 1246 120.075 197.779 465.676
485 0 93.0683 15.4188 1435 115.821 198.075 464.524
486 0 94.1173 13.8763 1306 122.309 198.197 461.802
487 1 49.0299 12.2578 601 119.499 197.837 485.631
488 0 54.0728 12.6681 685 117.933 198.293 484.067
489 0 55.1878 12.684 700 121.429 198.851 484.086
490 0 54.0899 12.9599 701 124.091 198.662 482.183
491 0 58.1431 12.796 744 122.087 198.694 481.82
492 0 58.1641 13.4275 781 121.953 198.846 481.044
493 0 58.1108 12.6138 733 125.405 198.632 479.824
494 0 61.1447 13.6234 833 121.816 198.917 479.57
495 0 63.1288 13.4804 851 120.389 199.106 478.612
496 0 64.0911 14.2141 911 117.72 199.786 477.424
497 0 66.0832 12.6658 837 122.087 199.581 476.643
498 0 71.1149 13.429 955 119.291 200.036 475.147
499 0 72.1306 13.6419 984 115.565 199.527 473.636
500 0 74.0787 13.0402 966 120.508 199.449 473.441
501 0 76.1475 12.9223 984 124.833 199.633 471.742
502 0 80.0884 14.896 1193 123.164 198.562 471.977
503 0 83.0956 13.1054 1089 127.57 198.407 469.321
504 0 83.149 13.1691 1095 129.85 198.047 467.957
505 0 86.0666 12.6414 1088 130.626 198.688 468.884
506 0 89.136 13.4626 1200 129.72 198.957 464.72
507 0 94.0972 14.0174 1319 126.215 198.735 464.331
508 0 95.1711 14.0063 1333 129.096 198.725 460.37
509 0 100.163 13.5879 1361 129.541 198.037 459.701
510 0 104.169 13.8813 1446 128.624 197.665 457.225
511 1 55.0898 11.6355 641 121.883 197.161 482.697
512 0 55.1131 11.1952 617 126.496 198.297 480.039
513 0 59.0614 12.3769 731 123.03 198.585 480.406
514 0 59.0663 10.9707 648 126.901 197.289 480.894
515 0 62.0502 12.2481 760 125.072 198.068 478.691
516 0 63.0367 12.1834 768 124.618 198.319 479.31
517 0 67.0645 12.7191 853 122.592 198.066 477.762
518 0 70.0976 12.5682 881 123.661 198.289 475.543
519 0 70.0953 13.0394 914 122.236 198.344 476.455
520 0 73.0826 13.0264 952 124.355 198.68 471.35
521 0 77.0383 12.7469 982 124.044 198.544 472.23
522 0 79.1326 12.6117 998 124.556 198.165 471.27
523 0 83.0497 12.2938 1021 124.934 197.23 469.229
524 0 85.0341 12.8066 1089 124.626 197.64 466.353
525 0 87.0352 12.2594 1067 126.525 198.43 467.455
526 0 90.0842 12.455 1122 125.749 197.816 466.258
527 1 49.0797 12.0213 590 125.569 197.361 485.166
528 0 52.0907 12.747 664 121.914 198.236 483.813
529 0 52.0829 11.5585 602 121.06 199.169 484.924
530 0 54.0582 11.9871 648 121.13 198.62 482.066
531 0 57.0496 11.7617 671 118.432 198.416 481.999
532 0 57.1012 12.2239 698 118.802 198.335 481.509
533 0 58.0246 12.15 705 120.967 198.179 480.671
534 0 59.0307 11.4855 678 123.493 198.603 481.004
535 0 61.0888 11.5569 706 123.088 198.508 480.518
536 0 64.1038 13.3533 856 119.006 197.874 477.847
537 0 67.1093 13.3067 893 118.465 197.641 476.558
538 0 67.0566 12.0495 808 123.517 197.91 475.082
539 0 70.0444 12.4207 870 119.462 198.063 476.391
540 0 73.108 11.8045 863 119.796 197.871 474.623
541 0 74.0745 12.9734 961 118.068 198.71 473.815
542 0 76.0801 11.9348 908 122.131 198.814 470.963
543 0 79.0977 11.9346 944 121.934 199.001 469.847
544 0 82.1299 12.5533 1031 121.153 198.562 467.663
545 0 85.0904 12.6454 1076 119.555 198.675 468.941
546 0 90.2022 13.0152 1174 117.833 198.538 465.515
547 0 91.2873 11.2173 1024 121.396 199.197 466.12
548 0 92.1316 11.0711 1020 123.759 198.651 467.92
549 0 95.1456 12.0342 1145 123.834 197.772 463.605
550 1 52.0316 11.2432 585 119.405 197.631 483.72
551 0 51.0289 10.6214 542 120.415 198.79 483.64
552 0 53.0726 11.2111 595 116.914 198.914 484.148
553 0 56.1346 12.5413 704 113.828 197.551 481.733
554 0 58.1164 11.5114 669 117.339 197.849 480.691
555 0 58.0394 11.2165 651 118.378 198.091 478.9
556 0 61.0464 11.2537 687 117.523 198.06 479.658
557 0 64.056 12.0676 773 113.825 198.274 478.186
558 0 64.0483 11.9753 767 116.184 198.627 476.356
559 0 67.0708 11.9575 802 115.385 198.914 475.418
560 0 70.0516 12.3195 863 114.352 197.834 474.09
561 0 74.1599 12.8776 955 112.111 199.281 474.559
562 0 74.0842 11.8784 880 114.984 198.69 473.123
563 0 76.1345 11.9131 907 116.075 198.55 471.879
564 0 81.1728 12.4796 1013 113.946 198.472 469.151
565 0 82.1474 12.4045 1019 115.672 198.739 469.657
566 0 87.1803 12.4914 1089 114.972 198.64 468.133
567 0 90.1902 12.4958 1127 117.327 197.527 463.784
568 0 93.2269 12.4642 1162 116.857 198.118 465.102
569 0 95.2928 12.7922 1219 116.82 199.013 464.556
570 1 50.2257 12.1054 608 123.25 198.91 484.179
571 0 52.0711 12.1949 635 115.206 198.991 483.512
572 0 54.1559 13.3503 723 113.567 199.289 480.671
573 0 55.0995 12.2143 673 123.397 200.051 482.383
574 0 59.1423 12.3093 728 121.863 199.904 480.647
575 0 60.0653 13.3355 801 118.481 200.026 481.144
576 0 59.0547 12.734 752 122.722 199.989 478.739
577 0 64.0485 13.3336 854 119.052 200.626 479.386
578 0 63.0809 13.7601 868 120.063 200.281 477.386
579 0 66.0694 14.0912 931 118.698 199.922 477.295
580 0 69.0186 15.3582 1060 114.465 199.914 476.399
581 0 67.0356 13.4555 902 118.424 199.578 477.178
582 0 70.0679 13.8294 969 117.263 199.818 474.312
583 0 72.0869 13.4144 967 119.64 199.964 473.612
584 0 75.0786 13.8255 1038 117.842 199.188 473.021
585 0 75.0853 12.9586 973 122.263 199.03 473.079
586 0 78.202 13.1071 1025 122.26 198.851 471.415
587 0 80.1098 13.7187 1099 122.466 199.135 468.66
588 0 82.0968 13.1187 1077 122.89 199.086 467.28
589 0 86.1503 13.8247 1191 120.195 198.98 467.908
590 0 88.1233 12.4144 1094 124.033 199.199 467.091
591 0 91.0889 13.6131 1240 121.435 198.797 462.773
592 0 97.0712 13.9794 1357 119.987 197.829 463.325
593 0 96.1244 12.7335 1224 122.393 197.81 462.776
594 0 99.1408 12.4974 1239 124.693 196.893 459.699
595 1 56.0113 13.1402 736 116.151 196.81 482.56
596 0 57.2058 13.198 755 119.395 198.192 480.2
597 0 57.097 12.2073 697 107.178 198.788 476.901
598 0 58.2319 11.6774 680 109.422 198.606 476.241
599 0 62.073 11.9537 742 106.45 198.539 478.208
600 0 63.0977 12.8214 809 106.436 198.862 475.482
601 0 67.0368 12.5006 838 107.395 199.173 475.019
602 0 69.1135 13.1233 907 112.752 198.383 477.103
603 0 69.0663 13.8418 956 112.73 198.711 475.11
604 0 72.1202 13.5052 974 114.137 198.772 474.672
605 0 75.0572 13.7495 1032 114.506 197.088 471.583
606 0 77.0709 13.0659 1007 116.883 197.64 473.677
607 0 80.175 13.8572 1111 113.691 198.527 469.101
608 0 83.0598 14.1826 1178 112.258 199.067 471.445
609 0 84.108 14.1009 1186 115.939 198.557 469.181
610 0 86.053 14.1425 1217 117.638 198.233 465.335
611 0 92.0419 13.885 1278 116.475 197.796 465.309
612 0 95.2042 14.2746 1359 115.453 198.171 463.717
613 0 98.1824 14.3305 1407 113.92 198.344 462.423
614 0 101.11 12.5903 1273 122.813 198.683 460.471
615 1 51.0103 10.939 558 116.084 199.256 486.265
616 0 53.1161 12.3691 657 109.709 198.528 483.858
617 0 55.0474 13.4066 738 107.192 198.893 482.977
618 0 57.1615 12.1935 697 107.911 198.502 481.1
619 0 60.0728 13.2839 798 104.311 199.029 482.31
620 0 61.0205 12.1435 741 107.197 199.641 480.393
621 0 63.0304 11.7562 741 107.767 198.955 480.499
622 0 65.0916 13.5348 881 105.293 198.729 476.916
623 0 67.1149 12.5755 844 107.553 198.357 478.244
624 0 69.0685 12.075 834 108.588 198.422 477.501
625 0 71.1959 12.8659 916 107.964 198.044 476.124
626 0 76.0786 13.3152 1013 106.121 197.292 473.407
627 0 77.0472 12.7844 985 107.919 197.208 473.279
628 0 80.0964 12.9219 1035 107.764 198.221 472.051
629 0 83.1111 12.9225 1074 108.513 198.425 469.501
630 0 87.0834 13.0909 1140 108.459 198.223 467.202
631 0 89.1315 14.0018 1248 106.555 198.12 466.025
632 0 92.1817 12.7683 1177 109.402 199.025 464.505
633 1 45.0175 11.4844 517 110.346 198.934 487.787
634 0 47.017 12.0807 568 108.949 198.526 486.884
635 0 48.0321 11.6172 558 110.437 198.462 485.084
636 0 49.071 12.3087 604 109.144 198.26 484.682
637 0 52.1144 12.6261 658 110.834 199.236 482.953
638 0 53.0519 11.649 618 114.477 199.398 482.118
639 0 56.0343 13.6167 763 109.372 198.594 481.575
640 0 58.0702 11.9855 696 113.978 198.904 480.582
641 0 62.1215 14.5038 901 107.905 198.8 479.548
642 0 61.111 14.1055 862 111.804 199.271 477.722
643 0 63.0975 12.5995 795 116.109 198.806 477.647
644 0 68.0439 14.0057 953 111.868 198.277 476.912
645 0 69.0718 14.1013 974 112.986 198.615 475.09
646 0 68.1178 11.9058 811 120.359 198.662 476.102
647 0 74.1283 12.5458 930 116.648 199.141 475.088
648 0 79.1914 14.3955 1140 116.615 198.918 472.858
649 0 79.2044 14.1911 1124 119.591 199.236 470.668
650 0 84.1956 13.7181 1155 119.403 198.476 470.039
651 0 83.2346 12.8192 1067 121.48 198.77 469.02
652 0 89.2033 13.3179 1188 121.902 198.421 465.487
653 0 92.1896 13.2878 1225 120.278 197.952 465.743
654 0 93.2471 13.3409 1244 121.493 198.772 463.111
655 0 95.1709 12.8821 1226 122.175 198.715 461.666
656 0 101.347 14.2184 1441 116.144 198.314 460.947
657 1 51.0883 12.5469 641 116.412 198.599 484.883
658 0 53.0979 12.2604 651 112.433 198.771 484.688
659 0 55.1551 12.8184 707 110.707 198.769 484.188
660 0 55.1207 11.9737 660 112.426 198.688 484.156
661 0 59.2503 14.1603 839 107.621 199.265 481.041
662 0 59.2058 13.2251 783 111.98 199.115 478.967
663 0 63.1567 13.7753 870 109.598 198.997 479.047
664 0 65.2685 12.9312 844 114.399 198.496 479.23
665 0 68.1652 13.3646 911 111.822 198.643 477.075
666 0 70.2431 12.7272 894 113.323 198.38 477.317
667 0 72.1315 13.1288 947 113.995 198.665 474.307
668 0 74.2268 12.8929 957 114.461 198.381 472.827
669 0 73.1056 12.2289 894 116.569 197.647 472.66
670 0 80.202 11.4835 921 118.28 198.354 471.257
671 0 81.1293 12.6588 1027 115.373 198.093 470.704
672 0 82.184 12.8005 1052 116.716 197.03 468.502
673 0 86.1568 13.3826 1153 114.069 197.633 468.645
674 0 88.1554 13.4989 1190 114.787 197.664 466.916
675 0 90.1284 12.4267 1120 119.142 197.868 465.87
676 0 94.2484 13.1249 1237 116.062 198.025 463.017
677 0 94.1213 12.2076 1149 119.554 198.016 461.786
678 0 98.1666 12.1936 1197 120.449 198.338 461.921
679 1 53.0785 10.3432 549 114.448 198.375 485.716
680 0 54.0381 10.6961 578 113.694 198.22 483.758
681 0 55.1335 13.0229 718 109.209 198.805 483.249
682 0 56.2533 11.5015 647 114.934 198.788 482.683
683 0 58.035 11.8032 685 113.879 197.536 482.289
684 0 60.0787 11.5182 692 114.371 197.673 480.655
685 0 62.0533 12.8438 797 112.143 197.314 480.532
686 0 66.1235 12.4766 825 112.93 197.143 478.119
687 0 67.0599 13.0033 872 113.404 197.083 476.545
688 0 70.0919 13.9246 976 110.412 198.087 475.584
689 0 73.0313 13.7749 1006 111.003 197.475 473.818
690 0 74.0989 13.428 995 112.519 197.261 473.691
691 0 77.0739 13.5973 1048 112.83 197.5 472.884
692 0 79.1492 12.5333 992 124.353 197.034 470.6
693 0 83.1398 13.1586 1094 121.89 196.818 469.452
694 0 87.0705 13.4144 1168 120.711 197.184 467.994
695 0 88.0681 12.4903 1100 122.435 198.496 466.332
696 0 92.066 12.5779 1158 122.801 198.28 465.323
697 1 51.0612 11.2023 572 118.865 198.295 486.878
698 0 51.0273 10.5826 540 121.078 198.837 486.476
699 0 53.1921 12.4079 660 117.061 199.561 482.564
700 0 55.0697 13.0199 717 113.379 198.282 484
701 0 56.0938 11.5521 648 121.832 197.867 483.537
702 0 57.0859 13.8213 789 116.077 197.133 481.042
703 0 59.0315 13.1116 774 117.363 197.07 481.703
704 0 61.0915 13.0624 798 117.338 196.392 480.645
705 0 60.1121 12.1606 731 121.257 196.449 479.276
706 0 64.0763 13.2967 852 116.676 197.183 478.025
707 0 66.0939 12.7394 842 118.192 196.504 477.309
708 0 66.0369 12.8564 849 118.335 197.205 477.062
709 0 69.0477 12.9041 891 116.787 197.278 476.747
710 0 72.0533 12.7683 920 116.711 197.798 475.852
711 0 77.0975 12.6074 972 116.223 197.048 474.107
712 0 76.0841 13.0513 993 115.453 197.244 473.506
713 0 76.1946 12.0743 920 119.265 197.83 470.929
714 0 80.1322 12.8787 1032 113.694 197.252 471.674
715 0 84.2366 13.1653 1109 115.018 198.238 468.269
716 0 85.052 13.7445 1169 107.601 198.127 468.518
717 0 87.0646 13.4268 1169 110.752 197.583 467.421
718 1 48.0921 11.6443 560 110.516 198.17 486.396
719 0 48.1967 11.9925 578 108.128 198.189 485.829
720 0 49.131 11.7238 576 109.535 197.745 484.837
721 0 51.0524 12.3794 632 107.252 197.801 483.348
722 0 53.0837 12.6027 669 105.9 197.365 484.166
723 0 53.0614 10.9496 581 110.518 196.929 482.771
724 0 58.0426 13.4212 779 103.3 197.099 481.042
725 0 59.0884 12.6252 746 105.082 197.807 480.042
726 0 62.059 13.1004 813 102.279 197.412 480.733
727 0 64.0523 12.3337 790 104.576 197.587 478.158
728 0 64.1031 11.8091 757 106.74 197.798 478.185
729 0 68.0839 12.5433 854 104.419 198.151 474.934
730 0 69.1074 12.6325 873 104.137 197.99 473.394
731 0 70.0912 12.3696 867 105.045 197.617 475.376
732 0 74.1364 12.6389 937 113.238 197.819 473.546
733 0 76.1096 11.9696 911 114.322 197.526 472.315
734 0 79.0818 12.8728 1018 112.348 197.604 470.648
735 0 81.0974 11.6527 945 114.062 196.748 470.326
736 0 84.0542 12.0755 1015 112.211 197.806 470.909
737 0 89.0928 11.6732 1040 112.66 197.648 468.419
738 1 47.0576 12.0916 569 104.866 198.554 486.557
739 0 46.04 10.8818 501 109.541 199.585 486.723
740 0 49.0327 11.2578 552 104.466 199.118 486.962
741 0 50.1116 12.0731 605 99.7041 200.172 486.656
742 0 50.1233 12.0104 602 100.914 199.949 484.839
743 0 51.09 12.018 614 101.44 199.363 484.083
744 0 53.0455 11.1414 591 103.914 199.242 483.692
745 0 55.0299 11.0122 606 104.363 198.619 483.21
746 0 59.0776 13.5923 803 97.8767 199.447 481.144
747 0 59.1021 12.3515 730 103.399 199.252 480.705
748 0 61.0923 12.2601 749 104.68 199.383 477.577
749 0 64.1572 11.9706 768 105.978 199.148 477.852
750 0 67.1909 12.7101 854 103.605 199.082 477.701
751 0 68.1237 11.4791 782 107.973 199.776 476.357
752 0 68.1851 11.2195 765 109.613 199.803 475.463
753 0 73.1024 12.9544 947 105.314 199.711 475.001
754 0 76.0546 11.8336 900 108.153 199.2 474.138
755 0 80.1651 12.9108 1035 106.769 199.566 470.649
756 0 81.1267 11.6484 945 109.576 199.529 470.894
757 0 82.0517 11.9803 983 109.667 198.734 468.829
758 1 46.0839 10.2856 474 109.591 198.992 488.603
759 0 47.0341 11.5236 542 106.817 199.526 487.821
760 0 49.1203 11.5634 568 106.801 199.299 485.342
761 0 51.1819 13.1297 672 101.832 199.754 484.926
762 0 53.1123 11.6169 617 105.964 198.567 486.559
763 0 54.1152 12.2147 661 105.245 198.121 485.359
764 0 56.0933 11.9444 670 107.999 198.772 480.755
765 0 57.1098 11.5567 660 108.82 199.126 483.592
766 0 60.0337 12.0765 725 104.015 199.073 480.876
767 0 59.0582 11.5987 685 106.715 199.653 480.774
768 0 63.0797 11.9056 751 105.079 199.979 479.386
769 0 65.0997 12.1813 793 105.715 199.086 479.201
770 0 65.037 11.3013 735 107.502 199.838 476.007
771 0 69.098 12.8368 887 103.971 199.946 476.256
772 0 71.1431 11.2168 798 107.103 199.021 476.059
773 0 73.0855 12.6017 921 104.127 198.888 474.651
774 0 77.2403 12.2475 946 107.714 199.842 473.597
775 0 80.1577 13.2863 1065 104.899 199.002 470.483
776 0 82.1191 12.1409 997 105.454 198.557 468.942
777 0 85.3876 13.0815 1117 105.737 198.384 467.324
778 0 88.25 12.6799 1119 106.112 198.819 466.907
779 1 47.1991 12.246 578 107.891 199.194 485.431
780 0 50.0438 12.4491 623 99.2841 199.411 487.258
781 0 48.0863 11.7913 567 106.265 199.704 487.6
782 0 48.065 11.5677 556 107.989 199.894 486.406
783 0 50.3273 11.7233 590 107.49 199.715 484.676
784 0 52.0794 10.8872 567 107.58 199.346 487.048
785 0 54.1633 10.8191 586 107.829 199.191 485.906
786 0 55.1298 11.3732 627 109.4 199.426 483.301
787 0 57.143 10.745 614 111.09 199.176 480.345
788 0 59.2276 11.65 690 108.014 199.12 482.343
789 0 62.112 11.8174 734 108.129 199.17 480.644
790 0 61.1051 11.2266 686 109.165 198.806 480.685
791 0 63.0282 11.6932 737 108.938 198.821 478.917
792 0 66.3172 12.8775 854 107.171 198.504 475.555
793 0 68.3172 13.2617 906 105.507 198.787 476.734
794 0 69.1338 11.3837 787 110.877 198.516 476.917
795 0 70.1046 12.1961 855 109.72 198.46 473.614
796 0 75.1295 11.4602 861 109.83 199.361 473.189
797 0 75.076 12.3342 926 108.009 199.348 472.158
798 0 78.0744 12.6674 989 108.84 198.754 469.599
799 0 80.1357 11.9173 955 109.763 198.987 468.354
800 0 84.0912 11.5113 968 109.835 199.004 467.345
801 0 87.117 12.7989 1115 108.168 198.945 465.188
802 0 89.0986 11.5602 1030 110.935 199.108 464.541
803 0 93.1165 13.5314 1260 107.186 198.547 458.133
804 0 97.1253 12.7258 1236 107.535 198.702 458.843
805 0 98.2124 12.4628 1224 109.04 198.16 457.166
806 0 103.239 12.2047 1260 109.597 197.435 457.698
807 0 107.283 11.7913 1265 109.698 198.383 456.775
808 1 58.0861 12.1027 703 108.915 198.878 475.437
809 0 62.1916 12.4133 772 109.689 198.817 479.272
810 0 63.1666 12.1425 767 111.219 199.574 477.301
811 0 66.0682 12.472 824 110.318 199.34 476.115
812 0 69.1211 12.2104 844 111.009 198.91 473.932
813 0 69.0841 11.8262 817 113.064 199.689 471.797
814 0 72.1138 12.1891 879 111.893 199.033 472.303
815 0 74.0766 12.6086 934 112.895 199.416 469.89
816 0 77.1568 12.7662 985 112.546 199.026 468.573
817 0 79.0694 12.508 989 113.794 198.47 468.416
818 0 83.0664 13.3146 1106 112.486 198.992 466.926
819 0 83.1521 11.6894 972 117.878 199.041 464.733
820 0 88.0925 11.6695 1028 116.091 199.084 463.173
821 0 90.1953 12.9164 1165 113.803 199.121 461.933
822 0 94.1701 12.488 1176 114.656 199.296 458.917
823 0 94.1647 11.4162 1075 117.384 198.587 458.14
824 0 96.1641 11.9691 1151 117.573 198.19 449.235
825 1 52.1262 9.76475 509 107.515 198.845 476.399
826 0 54.0734 9.57957 518 100.932 198.243 479.334
827 0 56.093 11.1066 623 99.8299 198.788 478.252
828 0 57.0251 11.9947 684 108.705 198.52 480.917
829 0 59.1204 12.8382 759 107.103 198.298 481.009
830 0 59.0864 11.8809 702 110.923 197.803 480.168
831 0 62.0622 11.9235 740 111.303 197.101 476.47
832 0 64.1615 11.1282 714 113.256 196.62 476.678
833 0 68.0435 13.1974 898 106.693 196.768 477.684
834 0 71.0975 11.9273 848 110.041 196.654 476.325
835 0 72.0909 12.2068 880 111.273 196.44 473.292
836 0 75.1728 13.8215 1039 105.73 197.28 471.919
837 0 76.0415 13.2559 1008 107.194 197.131 473.077
838 0 80.0919 13.3347 1068 107.654 196.996 470.544
839 0 84.0929 12.7002 1068 109.583 196.189 468.861
840 0 86.1884 12.7627 1100 109.724 196.688 467.947
841 0 88.076 14.2945 1259 107.152 196.729 464.934
842 0 90.1212 12.9048 1163 111.672 196.621 463.48
843 0 94.0883 12.1907 1147 114.393 197.034 463.434
844 0 100.118 13.524 1354 112.663 197.834 458.857
845 1 55.0336 12.8649 708 111.258 198.736 485.145
846 0 57.2463 13.2236 757 111.581 198.527 481.678
847 0 55.0611 10.8062 595 120.575 196.318 481.168
848 0 59.0282 11.9943 708 116.705 196.075 480.945
849 0 61.0333 11.8951 726 116.803 196.543 479.738
850 0 64.0344 11.6188 744 116.949 195.952 479.089
851 0 64.0281 11.6668 747 118.268 196.336 478.407
852 0 68.0563 13.4007 912 113.098 196.037 476.516
853 0 72.0374 13.84 997 110.534 196.161 476.873
854 0 73.0304 12.2826 897 115.847 195.99 474.795
855 0 76.0288 13.0872 995 113.666 196.076 473.183
856 0 77.115 12.7991 987 115.689 196.872 471.456
857 0 81.1179 12.1428 985 116.264 196.419 469.817
858 0 84.0847 12.8799 1083 115.153 196.17 468.768
859 0 85.1892 12.9711 1105 115.78 196.421 467.427
860 0 89.1235 12.8586 1146 116.205 196.466 466.089
861 0 92.1185 12.4079 1143 117.429 196.475 465.514
862 0 95.1231 12.3419 1174 117.15 197.104 465.462
863 0 98.0978 12.9157 1267 117.1 197.414 460.89
864 0 102.226 13.7049 1401 115.618 196.934 460.04
865 0 104.194 12.7359 1327 118.761 197.11 460.332
866 1 59.0846 11.6612 689 117.437 198.772 480.197
867 0 61.1047 11.8812 726 115.419 197.413 481.815
868 0 61.1281 12.0894 739 107.168 197.421 481.877
869 0 62.0895 12.4981 776 107.929 195.988 478.05
870 0 62.0603 12.1978 757 109.822 196.76 478.303
871 0 67.063 12.6001 845 107.011 196.74 476.639
872 0 69.0948 13.2716 917 105.835 196.341 474.915
873 0 71.0594 12.2574 871 108.421 196.614 477.132
874 0 74.1278 13.6251 1010 106.364 196.146 471.85
875 0 76.0533 12.8331 976 108.106 195.755 472.902
876 0 77.0925 12.0505 929 110.836 196.531 471.736
877 0 81.1227 13.5351 1098 107.132 196.566 471.874
878 0 82.0973 13.0333 1070 110.731 196.05 467.929
879 0 85.1161 12.6063 1073 111.719 195.417 468.435
880 0 87.1772 13.398 1168 111.688 195.884 464.628
881 0 89.0886 12.6167 1124 113.354 195.586 465.816
882 0 91.1385 12.6511 1153 116.312 196.302 463.618
883 0 94.2175 13.0655 1231 115.211 196.653 462.031
884 0 98.2259 13.642 1340 114.904 196.692 458.613
885 0 102.212 14.3819 1470 112.488 196.484 459.465
886 0 104.264 12.9383 1349 117.93 196.864 459.158
887 0 107.193 13.7789 1477 116.045 196.979 456.598
888 0 109.318 13.7672 1505 118.067 197.211 454.862
889 0 113.283 14.274 1617 116.635 197.165 452.888
890 0 116.224 13.7923 1603 118.472 197.23 454.312
891 0 118.404 13.7073 1623 119.417 196.498 453.451
892 1 64.1395 11.132 714 124.132 197 474.49
893 0 63.0445 10.6591 672 124.067 195.79 475.72
894 0 65.2333 12.0337 785 116.671 195.897 471.196
895 0 69.1751 13.1117 907 118.639 195.882 475.154
896 0 73.0588 14.2077 1038 116.464 196.352 472.271
897 0 75.1806 13.6604 1027 118.507 196.376 471.322
898 0 77.2032 13.1989 1019 120.777 196.781 469.84
899 0 79.2068 13.5216 1071 119.184 196.602 469.57
900 0 80.1651 13.8339 1109 120.03 197.112 468.616
901 0 84.1571 13.8669 1167 119.396 197.031 466.644
902 0 86.0898 14.8682 1280 117.063 197.327 465.609
903 0 89.1459 13.6293 1215 120.041 197.806 464.217
904 0 93.1454 13.2159 1231 120.185 197.99 463.696
905 0 94.2577 12.6144 1189 122.32 196.556 461.301
906 0 99.1802 12.3613 1226 120.545 197.111 460.957
907 0 103.202 13.5074 1394 116.638 197.161 459.138
908 0 103.265 11.9111 1230 123.067 197.033 456.067
909 0 110.184 12.9057 1422 116.921 197.937 453.635
910 1 58.0225 11.4611 665 108.176 198.4 480.597
911 0 60.1479 12.2365 736 105.118 198.694 479.512
912 0 63.0895 11.9671 755 106.853 196.877 474.192
913 0 65.0942 11.491 748 98.512 197.602 477.322
914 0 66.0613 10.8384 716 100.571 197.387 475.946
915 0 69.0444 12.7599 881 97.3201 197.415 472.901
916 0 71.1187 11.7269 834 99.06 197.113 471.337
917 0 73.0923 11.7386 858 99.2797 196.878 471.183
918 0 75.1448 11.7107 880 103.142 197.101 472.07
919 0 77.2407 11.7425 907 103.946 197.384 473.176
920 0 81.0929 11.8136 958 103.218 196.768 471.193
921 0 82.0357 10.7392 881 105.144 196.816 472.533
922 0 85.2062 9.87018 841 104.97 197.181 470.118
923 0 87.1836 10.3001 898 107.473 196.886 464.411
924 0 90.2551 11.4232 1031 105.429 197.091 464.944
925 0 96.1623 12.1045 1164 105.276 196.544 463.262
926 1 45.0116 10.975 494 103.294 197.237 484.968
927 0 47.0345 10.6943 503 102.513 197.763 486.936
928 0 46.0724 9.78895 451 106.871 197.774 484.865
929 0 51.1495 12.7274 651 98.0445 198.123 482.266
930 0 52.1475 11.4675 598 101.328 198.898 481.51
931 0 53.074 11.5122 611 102.033 198.29 483.047
932 0 54.1637 10.6714 578 103.86 198.175 480.988
933 0 58.0686 12.4852 725 99.6979 197.724 480.088
934 0 60.1552 10.822 651 102.604 197.793 479.224
935 0 61.1177 11.7969 721 101.368 197.531 478.333
936 0 61.0587 11.2187 685 103.539 197.902 478.634
937 0 65.1253 11.547 752 102.62 197.628 476.576
938 0 69.0719 11.7414 811 101.469 197.429 476.554
939 0 71.1602 14.0247 998 98.2886 197.301 473.486
940 0 73.1312 11.6503 852 103.709 197.778 472.969
941 0 75.2001 11.5957 872 104.94 198.134 469.448
942 0 80.1545 11.8272 948 105.336 198.018 469.673
943 0 82.1426 11.6383 956 105.463 198.703 467.245
944 1 41.0432 10.7204 440 102.689 199.2 487.782
945 0 42.103 10.7831 454 100.899 198.927 488.789
946 0 43.018 11.1814 481 101.119 198.823 485.992
947 0 45.0658 11.3168 510 99.6431 196.686 486.508
948 0 47.0487 12.1364 571 98.4273 197.1 484.417
949 0 46.0238 10.3859 478 102.471 197.287 485.46
950 0 49.0882 11.5914 569 99.3866 196.775 486.381
951 0 49.0485 11.2338 551 101.479 197.287 482.886
952 0 51.0266 12.856 656 98.2043 196.2 483.354
953 0 53.0791 11.3981 605 101.261 196.623 482.783
954 0 54.0174 11.848 640 102.036 196.395 482.016
955 0 57.0858 12.998 742 100.075 196.216 480.54
956 0 57.0443 12.5692 717 101.524 196.784 479.683
957 0 62.0259 12.5754 780 101.156 197.274 479.527
958 0 63.1115 13.2781 838 101.174 196.791 477.222
959 0 65.0441 14.298 930 99.5441 197.798 476.073
960 0 67.1308 12.6618 850 103.439 198.012 475.676
961 0 68.0356 12.3318 839 105.436 197.893 473.931
962 0 72.0637 14.2374 1026 100.327 197.374 474.832
963 0 73.0751 12.2066 892 105.61 197.563 472.754
964 0 76.1177 13.7419 1046 102.522 197.224 469.955
965 0 78.0641 12.9637 1012 104.429 197.619 470.218
966 0 81.0789 13.419 1088 103.22 197.35 468.028
967 0 85.1257 13.0278 1109 102.974 196.775 468.313
968 1 46.0227 11.5378 531 105.879 196.467 487.186
969 0 48.0762 12.8338 617 102.823 196.838 485.131
970 0 51.0171 13.074 667 102.954 196.453 484.03
971 0 50.0385 10.9716 549 110.322 196.872 485.104
972 0 50.0343 11.4921 575 109.965 197.129 483.442
973 0 53.0923 11.8284 628 108.973 197.293 482.997
974 0 53.1145 12.0871 642 109.575 197.109 482.358
975 0 56.0927 11.7662 660 110.233 196.795 481.803
976 0 58.1513 14.4451 840 104.398 197.635 479.75
977 0 59.1443 12.8837 762 108.08 197.879 478.921
978 0 61.0953 13.6017 831 105.826 197.355 479.712
979 0 61.0524 12.8087 782 109.422 197.082 478.092
980 0 65.0814 13.3525 869 107.677 197.153 476.858
981 0 67.1132 12.9781 871 107.99 197.041 477.046
982 0 69.0994 13.6615 944 107.86 197.115 474.181
983 0 69.0596 13.2205 913 110.441 197.384 474.499
984 0 73.0588 14.7552 1078 105.692 197.322 473.377
985 0 73.0959 12.2716 897 113.049 197.564 472.846
986 0 74.0501 13.0317 965 112.396 198.162 470.519
987 0 78.1198 12.34 964 113.238 198.555 468.729
988 0 83.0831 12.9268 1074 111.117 198.494 467.94
989 0 84.1583 12.9637 1091 111.133 198.214 468.04
990 1 45.0793 9.64967 435 115.023 197.947 486.354
991 0 48.0816 12.25 589 109.795 198.156 483.835
992 0 50.1888 13.1503 660 106.242 198.644 481.114
993 0 54.1997 13.4503 729 108.388 199.278 481.715
994 0 54.1966 12.9528 702 110.855 199.299 481.617
995 0 52.21 12.9094 674 113.377 199.231 480.289
996 0 58.2124 13.2446 771 112.296 199.301 479.927
997 0 60.3072 13.6634 824 111.665 199.592 480.324
998 0 63.1803 12.7255 804 115.254 199.639 478.73
999 0 62.1226 13.747 854 115.084 199.205 477.258
1000 0 65.1345 12.9424 843 116.63 199.349 477.428
1001 0 67.1224 12.5591 843 117.495 199.383 476.932
1002 0 69.2187 15.0682 1043 112.613 199.546 474.956
1003 0 70.1227 12.2785 861 120.343 199.1 475.059
1004 0 74.1216 14.058 1042 115.308 198.812 473.972
1005 0 76.1821 14.3866 1096 115.435 199.121 472.477
1006 0 78.1604 13.9841 1093 117.187 199.064 471.985
1007 0 81.2316 15.1542 1231 115.747 198.69 469.11
1008 0 82.1519 14.5341 1194 119.191 198.095 467.252
1009 0 85.1649 14.8653 1266 117.588 198.061 466.998
1010 0 90.2113 15.0425 1357 116.289 198.379 463.783
1011 0 92.1864 14.6334 1349 117.633 198.753 464.117
1012 0 93.139 13.6785 1274 121.296 197.818 462.612
1013 0 98.1439 13.4089 1316 116.118 198.47 463.086
1014 0 101.134 13.4969 1365 115.076 198.774 461.484
1015 0 105.089 14.4354 1517 113.902 198.39 458.175
1016 1 56.0229 12.0843 677 116.267 198.846 481.66
1017 0 57.0628 13.5465 773 114.397 198.726 478.902
1018 0 61.0546 12.0384 735 118.947 197.171 480.759
1019 0 64.0333 13.5554 868 115.448 197.192 478.382
1020 0 64.0695 12.9859 832 119.131 196.637 476.868
1021 0 67.052 13.3329 894 117.506 196.716 477.249
1022 0 70.0226 12.8101 897 118.14 196.506 474.918
1023 0 71.0893 13.0962 931 118.899 196.654 473.571
1024 0 76.0574 13.6739 1040 117.175 196.945 473.221
1025 0 77.0345 13.137 1012 117.871 197.087 473.362
1026 0 79.1052 13.362 1057 120.703 197.032 466.741
1027 0 84.089 13.6641 1149 116.817 196.863 470.798
1028 0 87.0479 13.9348 1213 117.739 197.24 466.48
1029 0 90.1131 13.6384 1229 117.655 196.327 464.875
1030 0 92.1086 13.5709 1250 119.422 196.036 463.486
1031 0 95.0662 13.4327 1277 118.727 196.63 463.121
1032 1 49.0973 10.7949 530 119.889 196.955 484.566
1033 0 52.0337 11.2427 585 117.697 197.773 482.275
1034 0 52.0299 11.9547 622 110.082 198.756 481.997
1035 0 54.1884 11.5523 626 108.578 199.923 481.711
1036 0 58.0534 12.7813 742 105.204 198.237 481.509
1037 0 59.0749 13.0343 770 106 197.884 480.929
1038 0 61.0765 12.0668 737 107.44 196.563 479.039
1039 0 63.0335 11.5653 729 109.137 196.676 477.066
1040 0 64.057 13.5348 867 104.91 197.103 479.168
1041 0 65.0383 12.4081 807 108.916 197.481 475.626
1042 0 69.0386 12.3409 852 108.423 197.849 476.577
1043 0 70.0658 11.9745 839 113.924 197.552 475.305
1044 0 72.09 12.4289 896 111.604 197.021 472.587
1045 0 75.0439 13.5254 1015 108.199 196.541 470.874
1046 0 75.1642 12.5193 941 112.465 198.245 472.732
1047 0 77.0572 11.2254 865 114.437 198.54 474.768
1048 0 81.0512 11.647 944 114.974 197.93 470.633
1049 0 84.1401 11.5522 972 115.188 196.676 469.878
1050 0 87.14 12.807 1116 112.6 197.354 467.928
1051 0 88.1478 10.8341 955 117.581 197.668 467.387
1052 0 93.1992 11.9314 1112 115.323 197.949 467.148
1053 0 96.1285 12.9722 1247 112.896 197.726 464.959
1054 0 100.152 12.0118 1203 115.418 197.524 461.482
1055 1 58.0644 12.5722 730 115.656 198.425 479.636
1056 0 59.1135 12.2476 724 112.289 199.544 478.584
1057 0 62.0336 12.5577 779 110.768 197.683 479.297
1058 0 64.1981 12.1187 778 117.06 197.067 478.303
1059 0 66.0954 11.4985 760 120.721 196.136 476.595
1060 0 67.0241 12.488 837 119.554 196.92 476.999
1061 0 71.1609 12.802 911 118.432 196.675 472.116
1062 0 74.0316 12.8729 953 117.45 196.776 472.066
1063 0 75.0452 11.5131 864 122.027 196.714 470.709
1064 0 78.0843 11.6285 908 121.27 197.536 471.272
1065 0 80.0604 13.19 1056 118.838 197.365 468.374
1066 0 84.1868 12.9593 1091 118.068 197.398 468.451
1067 0 87.1854 13.7523 1199 117.225 198.188 466.409
1068 0 89.2508 12.0111 1072 121.996 197.803 464.483
1069 0 90.1259 12.1164 1092 122.152 198.413 463.675
1070 0 92.2712 11.0435 1019 125.031 197.629 463.422
1071 1 53.18 12.6551 673 117.465 196.511 482.333
1072 0 56.0905 12.9969 729 114.481 196.443 483.18
1073 0 55.0729 12.1112 667 119.682 197.039 480.045
1074 0 59.1339 12.3618 731 121.145 197.144 480.219
1075 0 58.144 11.3855 662 125.606 197.234 481.199
1076 0 62.2866 12.9562 807 120.822 196.781 479.77
1077 0 63.1316 14.0659 888 118.079 197.337 479.914
1078 0 65.1304 13.972 910 118.969 197.235 478.541
1079 0 67.0606 13.868 930 120.81 196.719 476.715
1080 0 69.1765 12.9235 894 122.379 197.124 476.834
1081 0 69.1061 12.2855 849 124.441 196.848 476.061
1082 0 73.1069 13.1725 963 121.92 197.065 475.76
1083 0 74.1142 13.6951 1015 121.389 197.041 474.8
1084 0 78.2234 14.4458 1130 118.814 197.638 472.772
1085 0 81.1906 13.8317 1123 119.199 196.772 473.008
1086 0 83.1792 13.4288 1117 121.748 197.086 470.397
1087 0 84.1264 13.2301 1113 123.267 197.195 469.745
1088 0 86.1783 13.7738 1187 122.442 196.913 467.865
1089 0 89.1295 12.8128 1142 124.235 197.021 467.347
1090 0 94.1792 14.3344 1350 119.586 197.001 465.899
1091 1 50.0233 11.7945 590 119.668 196.527 487.768
1092 0 52.2139 13.0234 680 114.579 198.441 483.41
1093 0 52.1334 11.835 617 113.05 198.267 484.384
1094 0 54.1012 12.2178 661 110.531 197.882 482.325
1095 0 57.1492 12.8086 732 107.736 197.474 482.555
1096 0 57.1141 12.1511 694 110.059 197.519 482.341
1097 0 58.173 11.5174 670 111.675 197.797 480.367
1098 0 62.0959 11.2729 700 110.854 197.566 480.19
1099 0 63.1605 12.0962 764 110.348 197.137 477.508
1100 0 64.0867 11.9213 764 110.064 197.694 476.611
1101 0 67.0368 11.0835 743 108.005 198.178 473.993
1102 0 70.0712 12.2875 861 105.309 199.045 472.222
1103 0 73.2057 11.7204 858 106.941 198.578 469.164
1104 0 77.1363 12.3159 950 105.228 198.892 469.997
1105 0 77.1089 11.8923 917 107.108 198.868 468.603
1106 0 81.117 12.5128 1015 106.411 199.176 466.177
1107 0 84.2068 12.9325 1089 104.415 198.53 464.621
1108 0 86.1587 12.2681 1057 106.067 198.122 463.36
1109 0 89.2744 11.9855 1070 110.764 198.522 463.054
1110 0 92.25 13.3008 1227 108.012 197.855 461.459
1111 0 94.2833 11.7624 1109 110.762 197.951 462.546
1112 0 99.403 11.891 1182 111.41 197.608 459.139
1113 0 100.353 10.8916 1093 114.263 197.608 456.887
1114 0 105.23 12.0783 1271 112.919 198.15 451.156
1115 0 110.191 13.3223 1468 110.437 197.943 454.062
1116 0 116.184 13.8832 1613 112.193 198.278 454.771
1117 0 118.176 12.7183 1503 114.488 196.327 454.845
1118 0 118.279 14.2967 1691 112.776 197.108 452.048
1119 0 121.187 11.3956 1381 119.609 196.835 452.107
1120 0 125.331 12.6225 1582 117.587 196.793 451.393
1121 0 130.354 14.1998 1851 94.7412 197.028 448.829
1122 1 74.0595 12.0039 889 117.166 195.61 474.908
1123 0 77.0505 13.1602 1014 114.725 195.97 472.413
1124 0 80.0712 14.2498 1141 111.682 195.819 472.678
1125 0 81.0406 12.5863 1020 117.887 196.098 470.902
1126 0 83.1293 11.7889 980 120.789 196.397 469.839
1127 0 86.1509 12.6406 1089 117.354 197.228 469.547
1128 0 88.2025 11.8024 1041 121.956 197.804 467.377
1129 0 93.1414 12.8192 1194 118.08 197.83 464.838
1130 0 97.1657 12.3089 1196 117.794 197.029 462.889
1131 0 101.24 13.2457 1341 116.064 197.23 460.321
1132 0 105.29 12.8692 1355 116.385 197.362 457.63
1133 1 59.1222 12.7532 754 115.142 197.597 480.635
1134 0 60.1447 12.42 747 115.115 197.368 480.731
1135 0 61.2259 12.1517 744 114.858 196.95 479.684
1136 0 62.053 11.603 720 116.115 197.09 480.878
1137 0 64.0928 12.5599 805 114.147 197.175 477.366
1138 0 66.0635 13.2751 877 113.041 196.548 475.69
1139 0 69.0947 13.1703 910 112.524 196.521 474.375
1140 0 70.0725 13.1293 920 113.298 196.228 474.867
1141 0 74.0925 12.3494 915 115.005 196.336 474.909
1142 0 75.0451 12.5924 945 115.315 196.717 472.162
1143 0 77.1247 13.4458 1037 113.711 197.262 470.9
1144 0 81.1037 12.7861 1037 115.042 197.735 470.017
1145 0 85.0969 13.044 1110 114.217 196.978 470.018
1146 0 85.1493 11.7558 1001 119.863 197.159 467.065
1147 0 88.2231 13.6359 1203 115.21 196.43 464.337
1148 0 92.123 12.7004 1170 117.569 196.968 464.653
1149 0 94.1627 13.4342 1265 116.451 196.409 464.04
1150 0 98.1036 13.6488 1339 117.147 195.949 460.397
1151 0 100.305 13.0502 1309 120.208 195.8 460.06
1152 0 102.204 13.7275 1403 119.328 195.665 457.396
1153 0 107.153 12.9348 1386 120.755 195.443 456.627
1154 0 107.166 11.9721 1283 123.996 195.412 456.238
1155 0 113.313 13.6436 1546 123.95 195.821 454.871
1156 0 115.344 13.308 1535 123.195 195.793 454.432
1157 0 117.211 13.4117 1572 123.578 196.099 450.259
1158 0 119.397 12.6971 1516 125.135 196.294 449.808
1159 0 120.617 12.9253 1559 125.353 196.276 449.282
1160 0 130.347 13.1035 1708 124.735 195.677 445.281
1161 0 134.194 12.7427 1710 126.673 195.84 441.823
1162 0 137.449 12.9357 1778 127.345 195.794 440.412
1163 0 145.593 13.3591 1945 125.853 195.744 436.642
1164 1 79.3712 13.8211 1097 124.988 196.2 466.454
1165 0 83.3456 13.57 1131 124.502 195.996 464.493
1166 0 84.1531 13.2972 1119 129.43 195.767 465.1
1167 0 87.1382 13.4614 1173 130.033 195.301 461.493
1168 0 90.0662 14.1007 1270 127.636 196.189 460.456
1169 0 91.0768 13.7686 1254 130.263 195.947 458.974
1170 0 94.1019 13.9742 1315 129.717 196.306 457.824
1171 0 99.1857 14.367 1425 127.653 195.26 456.909
1172 0 102.123 14.2965 1460 128.045 195.953 453.832
1173 0 103.111 12.6951 1309 134.394 196.179 452.503
1174 0 108.118 14.6785 1587 127.992 196.534 450.549
1175 0 108.104 13.2557 1433 132.761 196.214 448.25
1176 0 114.072 13.9298 1589 130.449 196.266 447.692
1177 0 116.089 13.1451 1526 132.558 196.104 446.168
1178 0 120.198 12.6458 1520 124.009 196.314 448.444
1179 0 124.328 12.5474 1560 127.885 195.939 443.062
1180 1 65.1427 11.2829 735 130.418 195.608 470.102
1181 0 69.2158 12.8872 892 125.118 197.509 466.064
1182 0 71.1602 13.0129 926 124.535 197.404 465.008
1183 0 71.1791 12.4053 883 127.881 197.853 463.299
1184 0 74.1053 12.4418 922 123.012 197.778 464.714
1185 0 79.1137 13.0319 1031 119.865 196.648 465.598
1186 0 83.0795 13.4089 1114 118.543 197.75 464.246
1187 0 83.1845 12.9591 1078 121.14 197.539 462.99
1188 0 87.2294 13.9976 1221 119.237 196.902 459.704
1189 0 89.1642 13.1892 1176 121.207 197.118 459.253
1190 0 91.3384 13.1051 1197 122.148 197.072 457.244
1191 0 93.2503 13.7587 1283 121.504 196.971 455.845
1192 0 97.1828 12.8829 1252 123.593 196.466 455.932
1193 0 96.3698 11.4351 1102 129.192 197.152 452.503
1194 0 103.497 14.126 1462 120.851 196.633 448.04
1195 0 103.436 11.4757 1187 129.459 196.91 448.009
1196 0 109.589 13.0852 1434 124.566 197.056 444.904
1197 0 110.421 11.8637 1310 130.933 196.592 442.228
1198 1 60.4427 12.0941 731 124.561 196.618 468.802
1199 0 65.0789 13.4145 873 118.853 196.864 468.893
1200 0 64.1401 12.2856 788 123.181 197.647 469.478
1201 0 65.1221 12.1771 793 124.777 197.32 466.344
1202 0 69.1595 14.7774 1022 117.391 197.328 466.312
1203 0 69.2458 11.6975 810 126.799 196.869 460.984
1204 0 72.1722 11.9298 861 126.146 197.059 462.76
1205 0 74.2087 13.0712 970 123.851 197.582 461.723
1206 0 77.2025 12.953 1000 124.289 197.772 460.08
1207 0 79.1441 12.7994 1013 125.123 197.563 460.21
1208 0 82.2668 12.7026 1045 126.108 197.064 456.509
1209 0 87.1616 13.0447 1137 123.825 197.421 457.293
1210 0 87.1393 13.6563 1190 124.332 196.894 454.949
1211 0 91.2705 13.7175 1252 124.462 196.922 454.219
1212 0 93.0893 13.4172 1249 124.474 196.082 455.906
1213 0 95.1114 12.9217 1229 128.93 196.57 450.045
1214 0 100.153 12.2912 1231 128.665 197.035 451.233
1215 0 102.122 13.1804 1346 127.278 196.705 449.473
1216 0 107.171 13.7537 1474 124.754 197.024 449.392
1217 0 105.144 12.6588 1331 122.669 197.026 448.127
1218 0 112.243 13.4262 1507 122.34 196.685 444.004
1219 1 58.2764 10.9993 641 120.441 196.702 470.493
1220 0 62.2239 11.6354 724 117.872 196.38 470.7
1221 0 65.1598 12.5691 819 112.332 196.912 470.261
1222 0 66.151 11.5645 765 116.814 196.784 466.707
1223 0 70.1173 11.5949 813 115.588 197.507 467.09
1224 0 72.1038 12.3017 887 113.715 197.196 465.291
1225 0 74.0992 12.2269 906 114.67 197.46 462.599
1226 0 77.1221 13.2647 1023 113.494 196.496 469.053
1227 0 78.1239 11.8018 922 117.054 196.883 468.783
1228 0 83.1308 11.7646 978 114.412 198.094 466.7
1229 0 86.1142 11.6357 1002 115.527 197.893 464.246
1230 0 88.1181 11.5981 1022 116.233 197.743 463.628
1231 0 90.1542 12.9556 1168 112.341 197.584 462.846
1232 0 91.2334 10.8732 992 116.111 198.372 461.34
1233 0 96.0633 12.3773 1189 114.6 197.277 459.537
1234 0 100.059 13.2422 1325 113.565 197.614 458.608
1235 0 101.116 12.4511 1259 118.47 197.654 454.926
1236 0 105.086 12.8942 1355 116.551 197.82 454.88
1237 0 108.055 12.0772 1305 119.801 197.231 450.581
1238 1 62.021 10.303 639 113.607 197.446 476.657
1239 0 62.1753 11.8536 737 108.669 197.073 475.387
1240 0 65.1715 11.6308 758 108.793 197.541 474.174
1241 0 67.1454 11.8996 799 107.444 197.875 474.944
1242 0 71.1571 12.0438 857 108.226 197.592 471.974
1243 0 72.1401 11.949 862 109.18 197.549 471.468
1244 0 75.0834 12.3729 929 108.552 197.999 469.466
1245 0 77.0742 12.222 942 108.504 198.202 468.776
1246 0 79.0779 12.2917 972 110.468 197.41 464.496
1247 0 83.123 12.9326 1075 110.858 197.499 464.628
1248 0 84.2095 13.5258 1139 111.061 197.076 462.098
1249 0 89.1574 12.5845 1122 112.389 197.567 461.935
1250 0 92.1951 12.5061 1153 113.74 197.488 461.093
1251 0 94.1639 12.3614 1164 115.374 196.87 458.733
1252 0 95.1349 12.025 1144 117.184 197.269 459.303
1253 0 102.181 14.1415 1445 110.741 196.728 455.608
1254 1 58.1438 10.1644 591 118.585 197.775 475.596
1255 0 55.1235 10.0683 555 108.081 197.921 471.231
1256 0 55.1775 10.3303 570 103.312 197.954 471.111
1257 0 60.127 10.3947 625 114.725 197.725 476.293
1258 0 63.1839 11.332 716 111.737 197.708 477.68
1259 0 65.1625 11.5404 752 112.14 197.811 474.207
1260 0 66.0998 10.7565 711 114.045 197.34 473.795
1261 0 69.182 11.3758 787 113.281 197.521 473.403
1262 0 69.2802 10.1183 701 118.057 197.264 469.87
1263 0 72.2578 11.7496 849 115.713 197.453 470.3
1264 0 76.1485 12.0423 917 114.315 197.984 469.54
1265 0 79.1416 12.3829 980 114.828 198.006 467.41
1266 0 80.1216 11.4451 917 118.061 197.349 463.177
1267 0 84.235 12.5601 1058 115.733 197.037 462.528
1268 0 87.2789 10.9763 958 119.065 197.38 461.413
1269 0 89.1474 11.1389 993 119.14 198.029 462.962
1270 0 93.126 11.6509 1085 119.111 197.501 456.069
1271 0 97.2028 12.1293 1179 118.279 197.323 456.512
1272 0 98.1527 11.8081 1159 118.421 197.558 458.072
1273 1 51.042 10.6383 543 114.836 197.541 477.908
1274 0 56.1773 12.5139 703 107.25 197.63 476.282
1275 0 57.0559 11.0769 632 111.459 198.036 473.88
1276 0 59.0529 11.6336 687 113.546 197.789 474.304
1277 0 59.1531 11.2589 666 114.497 198.527 474.535
1278 0 61.1208 11.5673 707 113.307 198.88 475.925
1279 0 62.0713 11.8251 734 113.559 198.541 475.065
1280 0 63.1862 11.6006 733 114.535 198.295 472.824
1281 0 66.1386 12.3226 815 112.701 198.328 472.467
1282 0 69.1342 10.7617 744 113.749 198.375 475.198
1283 0 69.1226 11.9353 825 114.438 196.202 470.818
1284 0 72.1476 11.2547 812 114.227 196.458 471.951
1285 0 74.1138 11.199 830 116.111 196.107 468.767
1286 0 77.1384 11.5507 891 115.738 196.046 468.001
1287 0 79.1202 12.1334 960 114.839 195.861 467.98
1288 0 81.1262 11.1555 905 116.122 196.227 469.105
1289 0 85.1403 11.4987 979 115.625 196.156 466.239
1290 0 86.134 11.2151 966 116.555 195.501 463.832
1291 0 91.1942 11.2836 1029 117.427 196.006 462.076
1292 0 97.0996 13.2132 1283 111.154 197.09 460.898
1293 0 99.1172 13.5496 1343 110.748 196.932 459.31
1294 0 101.132 13.962 1412 110.409 195.839 455.703
1295 0 103.069 12.021 1239 114.357 195.76 455.664
1296 0 106.15 13.4244 1425 111.608 196.328 452.824
1297 0 109.184 12.8133 1399 113.382 196.31 454.079
1298 0 111.143 13.0013 1445 113.337 196.046 447.861
1299 0 117.084 13.0078 1523 112.89 195.432 446.763
1300 1 66.0849 10.2747 679 112.381 196.588 475.997
1301 0 71.0861 10.9445 778 111.557 196.878 471.605
1302 0 71.0413 11.5567 821 110.884 195.921 469.699
1303 0 69.0793 9.51081 657 106.766 197.493 473.149
1304 0 74.1504 10.8833 807 104.068 195.747 470.383
1305 0 77.0457 10.7339 827 102.84 196.709 469.963
1306 0 79.0982 10.3163 816 105.257 196.402 470.094
1307 0 80.0753 11.0021 881 105.891 197.368 466.477
1308 0 85.1514 11.2975 962 105.116 197.563 464.422
1309 0 87.11 12.0422 1049 104.902 196.563 462.725
1310 0 88.0704 11.0934 977 108.121 196.927 462.185
1311 0 92.1282 11.1475 1027 107.943 196.843 463.331
1312 0 95.0768 11.5275 1096 107.321 197.692 458.099
1313 0 98.0799 10.6648 1046 108.99 197.79 460.152
1314 0 102.261 11.06 1131 108.3 197.589 456.64
1315 0 104.113 10.2485 1067 111.294 197.715 452.09
1316 0 110.146 11.3576 1251 107.036 197.042 457.13
1317 0 111.187 11.2603 1252 110.95 197.076 449.834
1318 0 119.081 12.5124 1490 106.652 196.157 451.564
1319 1 68.1317 11.8007 804 111.715 196.424 474.266
1320 0 70.209 12.7192 893 111.075 195.43 471.966
1321 0 71.13 12.203 868 100.774 196.285 474.336
1322 0 74.1095 12.6839 940 99.4862 196.493 472.154
1323 0 75.1038 11.9568 898 101.214 195.687 470.206
1324 0 78.2054 11.9301 933 101.495 195.607 470.374
1325 0 81.1165 11.7362 952 102.342 196.314 468.832
1326 0 81.0747 11.5696 938 103.329 196.794 466.937
1327 0 84.0321 10.972 922 103.294 196.03 466.164
1328 0 89.0508 12.7118 1132 99.3666 196.165 465.23
1329 0 91.1269 12.949 1180 99.9347 195.701 462.042
1330 0 94.0866 12.7436 1199 99.5396 196.255 463.915
1331 0 95.2577 12.6709 1207 102.44 195.841 460.916
1332 0 99.2501 13.4408 1334 101.02 195.782 458.799
1333 0 102.084 12.6072 1287 103.893 196.319 458.43
1334 0 106.186 13.6836 1453 101.2 196.639 455.705
1335 0 108.21 12.9656 1403 104.066 196.246 455.738
1336 0 112.101 13.4254 1505 108.155 195.511 453.265
1337 0 116.261 13.031 1515 109.367 196.166 449.479
1338 1 58.1058 9.96458 579 106.477 196.439 477.345
1339 0 63.0959 12.1878 769 101.562 196.468 477.072
1340 0 64.0638 10.6144 680 103.946 196.546 478.087
1341 0 67.1053 11.1765 750 102.703 196.403 475.884
1342 0 69.1279 11.0375 763 103.191 196.44 473.121
1343 0 71.1033 11.2934 803 102.976 195.96 472.134
1344 0 75.1922 11.7964 887 101.856 195.871 471.55
1345 0 73.0875 10.5627 772 105.738 196.29 469.922
1346 0 80.1033 12.3466 989 100.654 196.023 469.107
1347 0 80.0588 12.3284 987 102.068 196.389 468.59
1348 0 83.0524 12.7751 1061 101.841 196.926 467.369
1349 0 86.1529 12.2108 1052 102.504 196.704 467.144
1350 0 89.1411 11.8576 1057 103.956 196.714 462.974
1351 0 92.0745 12.5876 1159 102.299 196.734 462.208
1352 0 93.227 12.3033 1147 103.621 197.053 461.475
1353 0 95.0922 11.9673 1138 104.603 197.091 458.315
1354 0 101.067 11.3291 1145 108.114 197.012 460.234
1355 0 103.21 11.714 1209 106.986 197.115 455.773
1356 0 105.135 13.2497 1393 102.216 196.93 453.858
1357 0 110.091 12.6532 1393 104.517 196.938 456.694
1358 0 112.17 12.1513 1363 107.443 197.337 453.036
1359 0 113.1 11.5297 1304 106.737 197.134 451.45
1360 0 118.134 11.5462 1364 105.62 197.343 448.051
1361 0 121.054 11.1355 1348 106.289 196.192 447.881
1362 0 124.208 10.5629 1312 108.315 196.215 446.425
1363 0 130.1 11.1222 1447 107.066 196.625 443.854
1364 0 135.086 11.6001 1567 106.49 197.063 441.916
1365 0 142.155 11.2834 1604 105.704 197.168 441.615
1366 0 146.131 12.0645 1763 105.96 197.187 435.462
1367 1 79.0223 11.5031 909 101.656 197.404 469.337
1368 0 82.1557 11.466 942 105.115 197.328 467.584
1369 0 85.08 12.741 1084 97.322 197.329 467.681
1370 0 91.1206 11.6439 1061 98.6993 197.393 464.954
1371 0 91.1483 13.286 1211 96.5508 197.13 463.424
1372 0 94.1546 12.0546 1135 98.6458 196.595 462.294
1373 0 94.2186 11.1549 1051 102.649 196.4 460.553
1374 0 99.1859 10.2837 1020 104.203 196.491 460.141
1375 0 99.2036 10.2416 1016 104.567 196.87 461.332
1376 0 106.28 11.6862 1242 102.702 196.91 456.319
1377 0 108.2 11.8669 1284 103.905 196.036 456.158
1378 0 113.246 11.0556 1252 104.867 196.996 455.302
1379 0 117.268 11.3671 1333 105.528 197.541 451.422
1380 1 62.0724 11.3416 704 105.845 197.537 476.088
1381 0 64.0369 11.7745 754 105.611 197.489 475.467
1382 0 68.101 11.9822 816 104.827 197.085 477.185
1383 0 70.0938 12.7829 896 104.162 196.127 475.075
1384 0 74.1714 12.9834 963 103.619 195.708 472.63
1385 0 74.0737 12.3526 915 106.254 195.848 472.817
1386 0 78.1276 13.35 1043 104.678 195.626 472.554
1387 0 80.1354 12.6037 1010 107.276 195.85 471.324
1388 0 82.1583 13.1332 1079 106.606 196.257 469.806
1389 0 88.1336 13.9788 1232 104.62 196.425 468.868
1390 0 90.0948 13.5413 1220 106.606 197.389 467.046
1391 0 92.1272 13.579 1251 108.149 195.815 464.843
1392 0 96.1211 14.8355 1426 104.675 195.679 465.532
1393 0 99.1605 13.2412 1313 109.375 195.796 462.778
1394 0 101.116 13.351 1350 110.73 196.496 461.624
1395 0 107.253 14.1627 1519 107.615 196.487 460.908
1396 0 108.205 12.883 1394 112.537 196.204 457.444
1397 0 114.126 13.7918 1574 109.998 196.265 456.264
1398 0 115.112 12.9352 1489 113.109 196.618 454.173
1399 1 65.0614 13.1414 855 114.101 196.888 477.12
1400 0 67.1121 13.8127 927 110.282 196.002 477.396
1401 0 65.0552 12.0052 781 114.072 196.099 477.631
1402 0 68.206 13.2833 906 110.485 195.682 476.044
1403 0 72.1094 13.1744 950 110.477 195.546 474.96
1404 0 73.1167 12.9245 945 112.593 195.521 472.31
1405 0 78.0933 13.804 1078 110.327 195.478 471.144
1406 0 79.081 12.9867 1027 113.037 194.523 471.263
1407 0 83.1109 14.1498 1176 109.618 194.514 469.884
1408 0 85.0269 13.1605 1119 112.085 194.268 467.315
1409 0 88.1234 13.3449 1176 111.339 194.733 466.557
1410 0 91.164 13.3386 1216 111.968 195.675 465.188
1411 0 93.1732 14.1457 1318 109.807 196.382 462.67
1412 0 95.1613 12.7888 1217 114.747 196.625 462.294
1413 0 97.1679 13.6465 1326 111.897 196.872 459.953
1414 0 101.206 14.4754 1465 121.026 196.762 458.543
1415 1 55.0323 11.357 625 121.491 195.978 482.637
1416 0 58.1013 12.4094 721 117.678 196.343 481.043
1417 0 59.0644 13.1043 774 114.089 195.91 479.211
1418 0 62.106 13.171 818 113.11 195.877 479.244
1419 0 61.1744 13.5187 827 111.541 195.434 476.94
1420 0 62.146 12.5028 777 114.921 195.427 477.981
1421 0 63.1568 12.6511 799 115.278 195.375 476.398
1422 0 67.1405 14.7601 991 108.855 195.453 473.465
1423 0 68.2163 12.8708 878 112.549 195.17 473.967
1424 0 73.1297 12.7581 933 111.211 196.283 473.12
1425 0 74.1827 13.3319 989 112.14 196.606 471.859
1426 0 77.0958 13.4378 1036 112.162 196.942 469.784
1427 0 78.1642 12.2691 959 116.084 197.373 470.024
1428 0 80.1666 13.0853 1049 113.813 196.308 467.94
1429 0 86.1574 13.3941 1154 111.335 196.42 468.627
1430 0 86.2349 12.837 1107 115.059 196.376 466.254
1431 0 88.135 13.1162 1156 113.379 196.92 465.425
1432 0 91.2301 12.9124 1178 115.266 197.046 462.813
1433 0 95.3396 13.8348 1319 113.271 196.909 458.814
1434 0 99.3294 14.0442 1395 113.749 197.101 457.515
1435 0 102.362 12.8367 1314 116.45 196.926 457.275
1436 0 104.379 13.8917 1450 114.703 196.65 452.775
1437 0 107.443 13.1883 1417 116.7 197.012 451.514
1438 1 57.2174 11.6049 664 124.012 196.63 475.723
1439 0 59.1579 12.847 760 120.688 197.443 475.164
1440 0 61.1492 14.0476 859 117.517 197.426 471.998
1441 0 61.0793 13.4088 819 117.941 196.808 473.893
1442 0 67.1256 14.2717 958 112.863 196.375 472.292
1443 0 67.0545 14.1378 948 114.468 196.273 471.348
1444 0 67.0252 13.4129 899 117.862 196.472 470.884
1445 0 72.1059 14.8532 1071 112.824 197.635 466.698
1446 0 74.0553 13.7465 1018 116.208 197.861 467.35
1447 0 77.1272 14.3399 1106 114.629 197.328 467.371
1448 0 80.043 14.2798 1143 114.889 197.465 465.563
1449 0 81.1359 14.2107 1153 115.922 196.971 463.31
1450 0 83.0922 14.2252 1182 116.808 196.799 462.086
1451 0 85.2029 15.2342 1298 114.849 196.653 462.676
1452 0 89.1761 13.8826 1238 118.662 197.596 460.33
1453 0 90.2156 13.5232 1220 120.761 196.908 458.347
1454 0 93.1415 14.5478 1355 118.131 196.559 456.583
1455 0 95.2695 14.3068 1363 119.05 196.757 454.523
1456 0 98.345 13.656 1343 121.206 196.769 453.627
1457 0 100.29 13.0023 1304 123.251 197.752 454.161
1458 0 104.257 13.7449 1433 121.689 197.328 449.361
1459 1 58.1529 12.106 704 127.089 197.49 469.077
1460 0 61.2138 14.0328 859 121.645 198.166 470.384
1461 0 61.1446 14.1468 865 123.605 197.948 467.377
1462 0 64.1066 12.9004 827 124.295 197.098 470.259
1463 0 66.149 14.165 937 121.078 197.385 468.755
1464 0 70.0754 13.8993 974 120.432 197.722 468.274
1465 0 71.1689 13.4469 957 116.622 197.188 469.989
1466 0 73.101 13.9943 1023 116.473 197.359 467.172
1467 0 77.0907 14.7878 1140 112.946 197.338 465.408
1468 0 78.133 13.9122 1087 116.163 197.024 465.725
1469 0 82.2152 13.8417 1138 115.869 197.163 465.758
1470 0 82.073 13.756 1129 118.165 197.361 460.208
1471 0 88.0863 15.3145 1349 112.916 197.19 457.676
1472 0 91.2917 14.7878 1350 114.705 196.673 456.131
1473 0 93.2835 14.7079 1372 115.085 196.968 455.286
1474 0 96.2891 14.9757 1442 115.61 196.874 453.611
1475 0 99.1722 13.5925 1348 118.167 197.05 453.496
1476 0 104.196 14.5591 1517 114.753 196.857 449.693
1477 1 55.1213 13.1165 723 120.27 197.389 473.167
1478 0 55.0622 13.2759 731 119.668 197.458 471.187
1479 0 56.0771 13.4279 753 114.946 197.584 470.958
1480 0 59.1261 13.6319 806 113.473 197.754 470.087
1481 0 63.1658 13.3617 844 113.344 197.575 468.878
1482 0 64.1696 13.9474 895 112.342 197.547 469.122
1483 0 64.1219 12.8817 826 115.556 197.39 467.843
1484 0 68.2336 13.3805 913 113.388 196.729 465.153
1485 0 68.2204 13.7935 941 114.276 196.725 464.917
1486 0 73.2718 12.3922 908 115.599 197.605 462.97
1487 0 75.3396 13.9502 1051 111.539 197.03 462.463
1488 0 75.2041 13.0711 983 114.578 196.975 461.378
1489 0 76.164 13.3396 1016 115.53 197.254 459.469
1490 0 83.193 13.5348 1126 112.576 196.88 459.094
1491 0 86.1547 13.5338 1166 113.006 196.254 458.484
1492 0 87.2674 12.0091 1048 120.177 196.039 457.469
1493 0 90.3745 12.7691 1154 119.134 196.426 453.952
1494 0 93.2686 14.2599 1330 116.574 196.939 451.924
1495 0 96.2407 13.2169 1272 118.513 196.686 451.362
1496 0 101.233 13.3752 1354 117.36 196.682 452.364
1497 0 103.153 12.1664 1255 120.888 196.265 450.963
1498 1 54.2688 9.85833 535 128.568 196.852 470.002
1499 0 58.1728 11.8612 690 121.562 196.817 470.781
1500 0 60.2488 13.1953 795 117.075 197.283 469.858
1501 0 63.0987 12.7895 807 118.281 197.43 468.913
1502 0 66.3809 12.0667 801 119.87 196.889 466.247
1503 0 64.1482 11.037 708 117.935 196.847 464.754
1504 0 64.1572 11.9394 766 116.953 196.497 466.839
1505 0 61.0884 11.4261 698 122.587 197.089 463.706
1506 0 67.1466 12.5546 843 116.592 196.47 464.72
1507 0 66.0979 11.7099 774 127.364 197.324 464.289
1508 0 68.1663 13.247 903 124.508 196.715 463.095
1509 0 70.1812 11.4561 804 130.968 196.843 464.74
1510 0 71.1231 13.1884 938 125.514 197.045 463.843
1511 0 72.1469 11.6845 843 129.667 196.55 461.394
1512 0 76.122 11.5735 881 127.446 196.932 459.805
1513 0 82.149 13.1468 1080 119.903 196.516 459.506
1514 0 83.1111 11.5989 964 123.072 196.552 458.369
1515 0 86.1307 12.1676 1048 120.674 196.283 457.139
1516 0 90.2169 12.1485 1096 120.046 196.645 456.391
1517 0 92.2297 11.9918 1106 121.392 196.137 453.45
1518 0 94.1844 12.6666 1193 119.925 196.301 452.241
1519 0 96.2414 12.7388 1226 120.79 196.661 450.703
1520 0 101.173 12.4836 1263 121.09 196.781 451.119
1521 0 104.233 12.971 1352 120.723 196.962 445.307
1522 0 109.243 13.1176 1433 119.172 197.204 447.022
1523 0 110.25 13.3061 1467 120.607 196.836 442.86
1524 0 113.222 12.4446 1409 124.287 196.686 439.686
1525 0 116.268 13.7011 1593 121.145 196.554 443.323
1526 0 121.313 13.6836 1660 121.941 196.233 439.063
1527 0 125.113 13.1082 1640 125.426 195.525 435.409
1528 0 130.397 12.8147 1671 126.224 195.886 439.931
1529 0 135.222 14.6352 1979 124.023 195.503 436.615
1530 0 137.284 12.7692 1753 133.414 195.732 432.755
1531 0 141.293 12.2653 1733 138.012 195.57 427.939
1532 0 148.249 11.8787 1761 138.886 195.354 428.84
1533 1 79.0803 11.3935 901 129.504 196.098 459.878
1534 0 80.1987 11.671 936 129.798 196.04 458.75
1535 0 82.166 11.2455 924 132.013 196.478 458.755
1536 0 86.1495 12.014 1035 130.39 195.648 460.039
1537 0 84.1741 10.3238 869 139.036 195.942 456.346
1538 0 88.3548 11.5896 1024 135.119 195.772 455.25
1539 0 91.1499 11.5524 1053 136.137 195.756 453.491
1540 0 92.096 11.9766 1103 137.202 195.238 451.525
1541 0 96.1415 11.8263 1137 136.242 195.73 452.645
1542 0 98.2167 11.9532 1174 136.811 195.905 449.664
1543 0 103.192 11.813 1219 136.421 195.805 447.417
1544 0 107.219 11.6025 1244 137.573 194.811 446.087
1545 0 112.179 11.9006 1335 138.165 194.804 444.585
1546 0 115.152 11.9407 1375 136.677 196.135 445.574
1547 0 122.216 12.617 1542 132.737 195.266 440.481
1548 0 126.207 11.4811 1449 135.732 195.142 438.202
1549 0 130.253 12.0381 1568 133.889 194.965 438.243
1550 0 130.253 12.0458 1569 149.16 195.952 438.282
1551 1 85.1166 8.59997 732 125.602 194.783 465.601
1552 0 90.113 10.731 967 120.876 195.013 463.284
1553 0 92.1728 9.78596 902 121.233 194.996 461.193
1554 0 96.282 10.8951 1049 117.961 194.239 456.317
1555 0 99.2258 10.7936 1071 118.459 194.985 456.534
1556 0 99.2159 11.1172 1103 119.94 195.192 453.92
1557 0 103.284 10.3597 1070 122.14 195 454.324
1558 0 107.442 10.9547 1177 121.517 195.091 451.98
1559 0 111.306 11.985 1334 118.594 194.636 452.57
1560 0 112.268 11.0806 1244 123.4 195.658 447.912
1561 0 114.372 12.3545 1413 120.576 195.089 447.002
1562 0 116.19 11.1714 1298 123.025 195.515 447.637
1563 0 120.347 11.658 1403 123.383 195.922 444.592
1564 0 123.237 12.0662 1487 125.794 195.305 441.136
1565 0 124.325 11.1643 1388 126.623 195.086 436.741
1566 0 125.258 10.8017 1353 127.375 194.315 435.894
1567 0 123.19 11.673 1438 125.551 193.889 429.934
1568 0 135.426 9.21538 1248 114.298 194.285 435.581
1569 0 138.195 8.53869 1180 116.787 195.122 432.672
1570 0 141.299 8.07509 1141 118.941 194.778 424.56
1571 0 147.315 9.45596 1393 113.966 194.678 422.328
1572 0 151.358 9.58656 1451 112.771 194.361 421.238
1573 0 152.312 9.00127 1371 116.481 194.675 420.039
1574 0 159.274 6.67402 1063 120.84 194.269 414.414
1575 0 165.359 9.41589 1557 113.064 195.157 406.377
1576 0 173.256 9.33303 1617 113.077 194.956 410.38
1577 0 171.27 4.87535 835 124.777 193.965 408.501
1578 0 172.356 3.16787 546 123.103 194.505 422.02
1579 0 164.137 1.91304 314 117.885 194.806 436.484
1580 1 317.296 2.7041 858 164.045 193.691 321.608
1581 0 321.203 1.3574 436 140.773 194.078 387.553
1582 0 320.19 1.2274 393 153.356 194.122 359.944
1583 0 323.286 2.56739 830 162.933 193.163 298.537
1584 1 225.315 10.2656 2313 112.051 194.235 381.332
1585 0 230.368 11.4165 2630 109.937 194.162 378.271
1586 0 238.459 11.3688 2711 111.047 194.061 370.432
1587 0 243.621 10.2577 2499 114.571 193.571 368.33
1588 0 249.707 10.244 2558 114.341 193.876 363.763
1589 1 262.741 11.7645 3091 110.913 194.301 360.689
1590 0 269.424 11.3241 3051 111.505 194.724 355.504
1591 0 278.41 10.7108 2982 112.903 195.012 349.715
1592 0 285.601 9.50628 2715 115.933 194.937 348.031
1593 0 296.465 9.68749 2872 116.913 194.474 350.54
1594 0 303.587 10.9853 3335 115.133 194.284 342.569
1595 0 316.663 15.4454 4891 105.261 193.847 336.659
1596 0 325.4 14.327 4662 108.399 193.652 331.807
1597 0 334.557 15.2171 5091 106.626 194.325 330.52
1598 0 345.429 15.1666 5239 108.433 194.825 323.14
1599 0 353.477 15.8964 5619 108.924 194.771 318.501
1600 1 289.477 13.2584 3838 121.368 194.279 351.827
1601 0 297.46 13.2455 3940 123.434 194.901 350.19
1602 0 298.453 14.3239 4275 116.032 194.222 338.66
1603 0 307.803 14.1584 4358 116.692 194.555 335.54
1604 0 318.525 15.0224 4785 114.452 194.521 334.221
1605 0 326.371 14.6796 4791 116.961 194.499 325.775
1606 0 337.454 15.4065 5199 116.734 194.316 314.497
1607 0 344.636 15.071 5194 118.769 194.744 291.571
1608 0 352.454 14.0614 4956 122.939 193.708 292.674
1609 0 360.635 14.053 5068 123.259 193.884 294.388
1610 0 372.638 14.5235 5412 122.194 193.66 295.542
1611 0 383.748 14.3844 5520 122.547 194.149 292.189
1612 0 396.636 16.6853 6618 117.262 193.672 282.922
1613 0 406.623 13.4744 5479 128.435 193.173 266.707
