time division length width area intensity CMx CMy
0 0 50.0427 12.1496 608 134.951 432.781 472.627
1 0 53.0429 12.537 665 133.331 433.388 471.311
2 0 53.1119 12.4266 660 133.55 433.265 471.585
3 0 55.0924 12.8148 706 131.411 433.789 472.246
4 0 56.0971 12.5675 705 134.667 433.691 469.824
5 0 60.1088 12.4607 749 132.383 433.311 470.987
6 0 60.0985 12.6293 759 133.918 431.117 469.323
7 0 60.0985 12.7457 766 149.773 430.141 469.302
8 0 60.0985 12.7291 765 149.332 429.131 469.271
9 0 65.0777 13.0152 847 132.458 431.56 468.655
10 0 66.0611 13.5178 893 133.212 431.685 466.597
11 1 34.0185 11.5819 394 136.005 431.759 483.421
12 0 34.0244 11.6387 396 135.712 431.336 483.561
13 0 36.0142 11.7454 423 135.286 431.27 483.236
14 0 37.0514 12.1453 450 136.213 431.14 481.698
15 0 39.0555 12.6999 496 132.498 431.032 481.502
16 0 41.0145 13.3124 546 126.051 431.374 482.172
17 0 41.0465 12.8391 527 124.71 431.247 481.7
18 0 42.0411 13.4154 564 123.957 429.929 481.473
19 0 45.0252 13.6812 616 121.599 431.269 481.403
20 0 45.018 13.3724 602 124.103 430.947 480.925
21 0 47.0559 13.5584 638 91.1317 430.796 481.183
22 0 48.0492 14.0897 677 121.814 429.638 480.267
23 0 50.0801 13.3786 670 124.249 429.718 480.63
24 0 53.0266 14.3701 762 129.621 430.083 478.24
25 0 53.0102 13.3748 709 134.508 430.137 478.151
26 0 56.0578 13.7894 773 131.752 429.885 477.017
27 0 56.0364 14.0445 787 133.963 429.535 476.291
28 0 59.1033 13.671 808 134.05 430.443 475.554
29 0 59.0396 12.6864 749 139.308 429.543 475.398
30 0 61.0557 13.1192 801 136.953 429.1 475.107
31 0 63.0251 13.9468 879 136.489 429.87 471.82
32 0 65.0936 13.4729 877 137.814 429.978 473.496
33 0 68.0536 14.18 965 136.55 429.316 471.797
34 0 72.0415 13.9919 1008 134.972 429.39 472.536
35 0 74.1138 14.0325 1040 135.935 429.463 470.609
36 0 76.0658 14.6715 1116 135.683 428.866 467.948
37 0 78.0692 13.5137 1055 139.456 429.15 467.967
38 0 81.07 14.617 1185 135.695 428.581 466.25
39 0 83.0626 14.6757 1219 131.527 428.722 461.679
40 0 87.0865 13.8253 1204 133.003 429.36 460.888
41 0 90.1198 13.9592 1258 131.237 429.27 459.841
42 0 92.1734 13.3227 1228 133.612 428.814 458.923
43 0 95.0816 13.5042 1284 132.793 429.598 457.398
44 1 47.0119 12.1671 572 124.601 429.486 481.65
45 0 48.0312 12.4086 596 134.255 428.044 483.295
46 0 50.0538 14.1648 709 132.646 427.714 480.525
47 0 51.0287 13.8745 708 126.191 428.314 481.168
48 0 53.0451 13.8561 735 126.268 428.786 480.698
49 0 55.054 13.9863 770 124.049 428.499 479.351
50 0 55.1161 12.7549 703 128.757 427.812 479.44
51 0 59.0668 13.2054 780 125.288 427.762 478.659
52 0 61.0218 13.1428 802 123.984 428.024 477.86
53 0 64.1358 13.144 843 123.731 428.336 478.12
54 0 65.0407 13.8067 898 123.29 428.107 476.622
55 0 69.0418 13.5425 935 123.435 427.588 475.625
56 0 71.0573 14.9457 1062 121.178 427.376 472.89
57 0 72.0359 13.646 983 125.833 427.771 472.358
58 0 75.0868 13.8639 1041 125.725 427.901 470.491
59 0 78.0629 14.4755 1130 123.766 427.01 469.858
60 0 80.0774 14.7982 1185 123.531 426.919 468.716
61 0 83.0419 13.7401 1141 125.623 427.331 468.364
62 0 85.11 14.1581 1205 126.557 427.934 465.943
63 0 91.1054 14.5216 1323 123.134 427.541 464.724
64 0 94.1274 13.9067 1309 125.806 427.013 462.739
65 0 98.1056 14.6373 1436 124.395 426.663 459.998
66 0 102.273 15.2043 1555 121.977 427.639 458.378
67 0 105.119 14.1173 1484 131.371 426.958 454.422
68 1 57.034 13.3955 764 122.885 426.276 480.601
69 0 59.0246 13.3842 790 124.323 426.889 479.795
70 0 64.1213 12.9286 829 124.258 426.68 478.84
71 0 62.0777 13.757 854 118.05 427.071 476.871
72 0 67.0946 13.2052 886 116.813 426.876 477.137
73 0 68.1356 13.5759 925 115.563 426.829 475.279
74 0 70.0768 14.056 985 121.423 427.513 472.58
75 0 73.0944 13.6262 996 120.986 427.192 471.407
76 0 76.0872 14.3914 1095 119.096 427.192 469.348
77 0 79.0451 12.8028 1012 121.219 426.85 469.638
78 0 80.0766 13.7368 1100 118.638 426.687 469.755
79 0 84.2033 13.1111 1104 118.748 426.734 468.988
80 0 86.242 14.0999 1216 117.649 426.908 464.028
81 0 91.3197 13.6444 1246 117.372 427.231 462.109
82 0 93.3223 13.3516 1246 117.449 426.99 460.946
83 0 94.252 13.4321 1266 118.115 427.33 456.52
84 0 98.2379 14.0679 1382 115.626 427.556 457.038
85 0 101.264 13.687 1386 116.324 427.261 455.351
86 0 103.301 13.6204 1407 117.072 426.419 451.932
87 0 106.412 12.9497 1378 119.372 426.118 448.491
88 0 109.222 13.6694 1493 117.249 426.216 448.019
89 1 56.1941 10.4637 588 114.151 427.046 477.968
90 0 61.227 11.2369 688 115.494 426.401 474.472
91 0 59.0902 11.694 691 113.491 425.143 475.618
92 0 63.1548 12.3348 779 109.983 426.6 477.576
93 0 64.2143 11.8665 762 111.542 427.094 475.636
94 0 67.1259 11.6795 784 112.596 426.617 475.02
95 0 71.165 13.9254 991 106.768 426.915 473.605
96 0 72.1052 13.4803 972 108.165 427.019 473.284
97 0 74.1157 12.3456 915 111.552 426.348 471.758
98 0 76.1086 13.6516 1039 109.717 424.448 470.324
99 0 80.0747 12.9379 1036 111.365 424.946 469.43
100 0 80.1169 13.1807 1056 111.547 425.037 466.606
101 0 85.0978 13.9957 1191 108.3 425.191 466.921
102 0 86.0851 12.2088 1051 113.085 425.46 465.335
103 0 91.1034 12.9304 1178 111.263 425.435 463.284
104 0 93.0622 12.7871 1190 112.497 425.252 461.015
105 0 97.1744 12.4107 1206 111.954 425.58 458.761
106 0 100.143 12.3025 1232 111.658 425.006 456.858
107 1 54.0192 10.2926 556 110.595 424.743 481.043
108 0 56.0869 12.4806 700 107.693 425.421 479.493
109 0 57.091 11.9984 685 104.902 424.251 481.676
110 0 60.2445 11.1712 673 102.777 425.08 479.853
111 0 58.1181 10.3926 604 106.281 424.525 478.876
112 0 63.0741 12.0969 763 102.33 424.355 478.068
113 0 64.1238 10.9944 705 104.755 425.237 477.204
114 0 69.0827 12.2751 848 101.939 425.709 476.011
115 0 69.1095 10.7511 743 106.036 425.371 474.55
116 0 70.0646 11.0184 772 106.913 425.181 473.455
117 0 72.1121 12.0923 872 106.288 425.13 472.602
118 0 77.2575 12.1024 935 104.973 425.219 471.976
119 0 78.1025 10.7679 841 110.023 425.819 468.732
120 0 82.0486 11.2251 921 106.874 426.61 467.239
121 0 84.154 11.883 1000 106.876 425.172 467.925
122 0 85.0819 9.96686 848 112.583 424.522 465.8
123 0 90.1208 11.6954 1054 109.137 425.327 464.172
124 0 93.1233 11.0606 1030 111.336 425.4 460.482
125 1 47.0297 9.16442 431 112.306 425.39 484.889
126 0 49.0462 10.5207 516 109.271 424.94 483.103
127 0 50.0618 10.7467 538 106.035 425.188 483.225
128 0 52.0362 11.2422 585 105.632 425.694 482.944
129 0 52.0531 10.4509 544 108.281 425.575 481.36
130 0 56.1975 11.1927 629 106.165 425.06 482.041
131 0 55.0814 10.1486 559 108.66 425.83 482.318
132 0 60.0639 11.1381 669 106.792 425.435 478.957
133 0 62.0501 11.6358 722 106.32 424.76 475.892
134 0 63.0796 11.0654 698 108.054 424.47 474.871
135 0 65.0858 11.1852 728 109.016 425.069 476.03
136 0 68.0616 10.99 748 110.063 425.996 475.084
137 0 70.0626 11.7752 825 109.727 426.001 473.869
138 0 73.0535 10.1022 738 112.763 426.274 473.925
139 0 76.1668 11.6718 889 110.826 425.828 471.543
140 0 80.0686 12.839 1028 109.425 424.817 470.881
141 0 83.1542 11.9176 991 110.683 425.101 469.58
142 0 86.2113 12.3418 1064 110.505 424.913 467.828
143 1 45.0656 11.9603 539 113.675 426.115 484.924
144 0 47.0343 11.1195 523 112.212 425.109 484.952
145 0 49.0237 12.5449 615 108.639 425.395 484.4
146 0 49.0439 13.1107 643 107.292 425.807 484.456
147 0 49.0439 13.1515 645 132.769 426.806 484.47
148 0 53.0853 14.3354 761 104.234 425.824 482.649
149 0 54.0376 12.1397 656 109.348 425.305 483.63
150 0 55.0645 12.0949 666 111.511 424.613 480.372
151 0 57.0169 12.7681 728 108.902 424.46 481.199
152 0 61.0497 12.4161 758 109.326 425.092 479.67
153 0 62.0508 13.1666 817 108.031 425.283 477.945
154 0 61.1253 11.959 731 112.947 425.483 478.219
155 0 65.1346 13.5873 885 108.38 425.896 476.191
156 0 69.1192 13.672 945 106.291 426.206 475.048
157 0 70.0656 12.9022 904 109.323 425.958 475.271
158 0 72.0852 13.9973 1009 107.84 426.093 471.302
159 0 74.1075 12.9272 958 110.346 425.693 470.786
160 0 78.0714 12.591 983 109.908 424.71 469.672
161 0 82.1555 13.4988 1109 107.729 424.771 469.493
162 0 84.1451 12.8944 1085 109.355 424.754 466.977
163 0 86.18 12.7988 1103 109.142 424.94 466.257
164 0 88.2127 11.869 1047 111.396 425.6 464.829
165 0 93.1606 12.6019 1174 109.353 425.804 463.925
166 1 49.0987 11.9962 589 111.114 425.737 483.516
167 0 50.1522 11.8838 596 110.079 425.765 483.131
168 0 50.0515 12.5671 629 104.785 424.833 482.919
169 0 54.0959 12.219 661 104.549 424.897 482.436
170 0 52.0978 12.2846 640 105.77 425.045 482.039
171 0 52.101 12.0535 628 108.309 425.115 481.911
172 0 55.0677 11.1862 616 110.185 425.234 481.562
173 0 56.1254 11.7772 661 107.967 424.64 481.714
174 0 58.0482 12.4035 720 108.817 425.176 478.549
175 0 60.0415 11.6086 697 108.755 425.227 480.145
176 0 63.2089 12.435 786 107.438 425.265 479.164
177 0 64.0855 13.1387 842 105.753 425.733 477.202
178 0 66.0486 12.9147 853 105.999 425.804 474.937
179 0 68.063 12.606 858 106.825 425.631 474.374
180 0 71.1196 11.6564 829 108.823 425.005 474.299
181 0 72.0516 12.8796 928 106.82 425.543 472.159
182 0 76.138 11.7287 893 108.819 425.09 471.417
183 0 78.0455 12.9924 1014 106.63 425.45 467.923
184 0 81.096 12.6887 1029 106.835 425.496 468.594
185 0 84.0639 12.2764 1032 107.59 425.477 468.535
186 0 87.146 13.2192 1152 107.153 425.984 465.74
187 1 43.0095 11.8578 510 107.224 425.459 486.429
188 0 43.0157 12.0654 519 107.16 425.029 484.655
189 0 44.0124 12.9054 568 110.333 425.342 484.644
190 0 45.0288 11.9035 536 106.539 425.709 484.416
191 0 47.0344 9.60999 452 110.65 425.062 486.024
192 0 48.0384 10.5749 508 107.461 425.246 485.776
193 0 51.0748 12.0216 614 104.691 426.055 484.075
194 0 53.0806 11.8311 628 104.828 425.844 482.788
195 0 52.035 10.6275 553 108.966 426.649 482.016
196 0 56.1155 11.8862 667 105.588 426.607 480.64
197 0 57.113 11.5035 657 106.234 427.543 479.884
198 0 59.0962 11.439 676 105.935 426.419 478.391
199 0 63.106 11.4094 720 104.772 425.621 477.636
200 0 65.1395 11.4677 747 104.297 425.154 475.858
201 0 67.0524 11.6178 779 102.919 425.499 475.666
202 0 72.0776 12.9305 932 99.5075 425.677 473.808
203 0 72.1154 11.3984 822 103.167 425.779 471.186
204 0 76.082 12.0396 916 100.879 426.238 470.109
205 0 80.09 13.31 1066 98.1229 425.856 468.129
206 0 83.052 11.7998 980 100.651 425.353 469.215
207 1 42.0728 10.8146 455 101.927 426.088 487.347
208 0 44.0321 13.3085 586 94.1416 426.05 485.352
209 0 46.0325 12.4694 574 95.3885 425.73 485.848
210 0 46.043 12.1843 561 94.3886 424.392 483.904
211 0 48.0965 12.3917 596 94.3742 424.666 481.926
212 0 48.0288 11.1391 535 96.7028 425.776 483.836
213 0 51.0635 12.1222 619 94.0048 424.344 481.267
214 0 54.016 12.2001 659 93.3035 424.914 481.317
215 0 54.0614 12.6708 685 93.6423 426.076 480.164
216 0 55.1362 10.9547 604 96.1573 425 480.515
217 0 59.0563 12.5643 742 91.1563 425 479.15
218 0 61.075 12.1981 745 92.0013 424.811 477.659
219 0 63.1831 11.2372 710 94.4761 425.558 477.066
220 0 65.1396 12.3274 803 93.5019 425.463 473.181
221 0 68.0658 14.7651 1005 68.0378 425.6 476.211
222 0 71.1068 12.432 884 94.6821 425.869 473.102
223 0 74.1144 12.6426 937 97.3287 425.311 472.427
224 0 75.1231 12.3797 930 98.986 425.256 469.031
225 0 77.0645 10.9778 846 102.069 424.462 468.848
226 0 79.1422 10.3485 819 104.339 424.247 464.956
227 0 84.1797 12.7465 1073 100.038 424.112 464.517
228 1 43.1167 11.9907 517 97.5319 424.849 484.228
229 0 45.0878 11.2004 505 95.5446 425.115 484.667
230 0 44.0395 11.081 488 100.576 426.391 484.223
231 0 48.0464 11.4056 548 99.615 426.845 483.655
232 0 50.1201 11.3527 569 100.004 426.186 483.111
233 0 53.1044 12.1835 647 99.1515 426.878 482.094
234 0 53.0674 12.795 679 99.19 427.177 480.024
235 0 56.0687 13.2694 744 98.4153 427.374 479.327
236 0 58.1019 13.9238 809 96.8319 426.922 479.45
237 0 57.0501 11.9018 679 103.629 426.389 478.975
238 0 58.0961 11.5843 673 104.279 425.982 477.184
239 0 63.0813 13.6966 864 99.4653 426.814 477.934
240 0 66.06 13.5786 897 99.3768 427.13 476.737
241 0 67.0924 13.9211 934 99.7912 426.676 472.679
242 0 69.0525 12.7874 883 103.082 426.409 470.837
243 0 74.1148 12.6695 939 102.185 426.448 473.036
244 0 74.0767 11.3531 841 106.968 425.943 472.975
245 0 79.2135 12.864 1019 103.642 425.976 469.847
246 1 41.0147 11.0692 454 107.687 427.161 486.293
247 0 41.0466 11.0119 452 106.637 427.239 487.354
248 0 42.0755 10.7664 453 106.318 427.183 486.541
249 0 45.0276 11.3042 509 103.012 426.949 485.945
250 0 46.0692 12.7634 588 100.213 427.015 485.015
251 0 47.0394 13.3718 629 99.3339 426.269 484.682
252 0 48.1003 12.3492 594 102.771 426.764 484.126
253 0 49.0573 12.5364 615 102.537 426.698 482.621
254 0 51.0574 12.9462 661 101.923 426.617 483.53
255 0 53.0944 12.6944 674 101.866 425.553 482.78
256 0 54.0844 12.7948 692 102.195 426.163 482.663
257 0 56.0978 13.53 759 100.939 426.457 481.573
258 0 56.1222 13.0608 733 101.779 426.053 480.572
259 0 59.0819 12.8635 760 102.301 426.499 479.729
260 0 62.0595 14.3572 891 99.1223 426.651 478.59
261 0 63.1004 13.3597 843 101.448 426.199 477.726
262 0 65.128 13.5272 881 101.821 426.294 478.318
263 0 67.0775 13.1639 883 103.701 426.796 474.468
264 0 68.0641 13.546 922 103.569 425.615 471.879
265 0 71.0349 13.6693 971 103.351 426.694 471.947
266 0 73.0712 13.0284 952 106.247 427.404 471.439
267 0 77.0457 13.81 1064 102.922 427.641 472.01
268 1 40.0145 11.8957 476 102.895 427.172 489.143
269 0 42.0075 12.4978 525 99.8819 427.821 489.549
270 0 40.0559 11.459 459 104.939 427.754 487.475
271 0 41.0741 11.9053 489 104.209 427.519 486.618
272 0 43.0401 11.6403 501 104.467 427.76 485.685
273 0 44.02 12.2444 539 102.315 427.853 486.085
274 0 47.0759 11.4921 541 101.937 426.564 486.259
275 0 48.0651 12.9408 622 100.201 426.608 483.481
276 0 50.0426 12.5293 627 99.8565 426.595 484.327
277 0 52.0811 12.8261 668 99.2485 427.361 482.031
278 0 53.0536 11.7805 625 101.416 426.864 483.971
279 0 53.0499 11.7437 623 102.944 426.51 482.482
280 0 56.0307 13.3677 749 99.8158 425.912 479.621
281 0 57.0702 12.7387 727 101.073 426.303 480.281
282 0 62.0993 14.1225 877 95.854 426.16 479.536
283 0 62.0652 12.9541 804 98.9677 425.471 477.771
284 0 62.0736 12.5174 777 100.878 425.709 475.153
285 0 65.0724 12.3094 801 100.767 425.499 475.529
286 0 68.0473 12.8881 877 101.445 426.036 474.47
287 0 69.0575 11.99 828 103.263 425.808 473.432
288 0 70.2586 10.8741 764 105.597 425.385 472.602
289 0 76.1453 13.8682 1056 98.0142 425.158 471.51
290 0 78.0698 11.8612 926 102.092 424.851 470.843
291 0 81.1288 12.7205 1032 100.991 425.252 468.285
292 0 84.2105 12.9794 1093 100.5 424.797 466.37
293 0 86.2156 12.6659 1092 103.505 424.934 465.723
294 1 46.1548 11.2014 517 109.044 424.389 483.412
295 0 48.0984 10.9983 529 107.333 425.147 483.862
296 0 48.1565 11.5249 555 103.029 426.085 482.712
297 0 48.0523 11.2794 542 103.402 426.544 484.511
298 0 50.0976 11.3778 570 102.414 426.954 484.151
299 0 52.1497 12.3299 643 100.173 426.149 481.799
300 0 53.1168 11.6536 619 101.998 426.617 484.347
301 0 55.1345 11.6805 644 102.012 426.725 482.854
302 0 58.143 11.3341 659 101.988 425.933 481.656
303 0 61.1061 12.5683 768 100.081 425.678 478.783
304 0 64.0861 12.6705 812 100.128 426.016 478.203
305 0 64.1997 11.9004 764 101.895 426.221 477.118
306 0 67.0796 11.941 801 103.851 426.507 475.064
307 0 68.1222 11.3913 776 104.996 426.304 474.689
308 0 72.2469 13.44 971 101.514 426.4 473.516
309 0 75.1145 12.2613 921 104.341 426.968 471.641
310 0 78.2875 12.0709 945 104.46 426.736 471.127
311 0 80.0938 13.0971 1049 103.722 426.809 469.051
312 0 84.1424 13.1325 1105 103.889 426.4 466.553
313 0 87.1722 12.8711 1122 105.504 426.185 463.755
314 1 47.0383 10.8635 511 105.526 426.597 485.824
315 0 46.0289 10.7107 493 108.347 426.375 484.024
316 0 47.0227 11.2499 529 107.457 424.658 484.006
317 0 52.076 13.3075 693 99.9307 424.771 484.312
318 0 50.0328 11.3126 566 109.23 425.345 483.369
319 0 52.0486 11.4893 598 108.572 425.769 482.883
320 0 52.0159 11.0735 576 109.38 424.882 483.007
321 0 56.0544 12.2203 685 106.073 424.815 482.22
322 0 55.0994 11.5609 637 109.29 424.873 481.469
323 0 59.0366 12.4668 736 107.34 424.978 480.052
324 0 61.1128 12.4851 763 107.514 425.267 478.527
325 0 64.061 13.6745 876 105.425 425.401 476.726
326 0 66.1589 12.4095 821 108.343 425.531 477.563
327 0 68.0855 12.9837 884 108.422 425.652 474.984
328 0 69.0717 12.2482 846 111.547 425.862 475.322
329 0 71.1633 13.0404 928 109.5 426.075 474.27
330 0 77.0968 14.0343 1082 106.415 425.254 472.228
331 0 78.1108 13.2248 1033 110.053 424.854 470.261
332 0 80.0662 12.4272 995 112.846 425.286 470.404
333 0 83.1546 12.122 1008 113.051 424.862 468.927
334 0 87.1393 13.6448 1189 110.355 424.586 465.47
335 0 90.1762 13.7176 1237 116.686 425.293 464.131
336 0 96.1314 13.2111 1270 118.855 424.739 462.039
337 0 100.264 12.7962 1283 118.02 425.408 459.369
338 1 48.1361 11.1766 538 111.059 425.643 485.563
339 0 49.0272 12.4829 612 102.618 426.059 486.158
340 0 50.0306 11.7128 586 105.712 424.515 484.957
341 0 50.0685 11.1447 558 108.453 425.387 484.45
342 0 52.0139 12.2659 638 106.897 425.381 483.107
343 0 55.0339 10.4663 576 106.823 425.408 485.854
344 0 55.0476 12.5528 691 104.411 425.842 484.381
345 0 55.1103 11.105 612 108.884 425.928 482.373
346 0 59.069 10.7671 636 108.527 427.105 482.495
347 0 60.0333 12.643 759 107.128 426.49 478.498
348 0 59.0831 12.5924 744 108.012 425.874 478.972
349 0 65.1223 13.4977 879 105.846 426.867 477.671
350 0 64.0575 10.6935 685 112.855 426.15 477.166
351 0 68.0955 12.1888 830 110.183 426.167 474.843
352 0 71.084 12.8862 916 108.517 427.029 475.287
353 0 72.1672 12.8036 924 110.564 426.15 472.829
354 0 75.2127 13.854 1042 108.282 426.448 473.575
355 0 76.0825 12.7756 972 113.816 426.69 469.971
356 0 80.0932 12.9599 1038 113.728 426.556 470.382
357 0 81.1598 12.3707 1004 118.344 425.836 467.789
358 0 87.1298 14.4497 1259 115.839 426.352 466.343
359 0 87.1979 12.8099 1117 121.067 426.939 464.711
360 0 91.1782 13.9068 1268 118.822 426.514 463.681
361 0 93.1326 14.1626 1319 118.454 426.639 460.909
362 0 96.1954 14.0027 1347 118.205 426.552 461.834
363 0 99.1791 15.4367 1531 111.46 425.841 459.806
364 0 102.184 14.1607 1447 115.111 425.817 460.464
365 0 104.082 12.8936 1342 117.11 425.579 457.247
366 1 55.2051 12.2996 679 110.124 426.409 478.183
367 0 55.0695 11.767 648 106.711 426.978 475.634
368 0 57.0381 10.6595 608 109.808 427.368 475.732
369 0 60.0382 11.6093 697 106.858 427.445 475.399
370 0 61.0792 11.6734 713 107.001 427.245 475.066
371 0 61.0857 10.87 664 109.39 427.039 472.812
372 0 64.0399 12.2267 783 105.299 427.469 473.771
373 0 65.0928 10.3545 674 109.957 427.69 472.528
374 0 66.0546 11.324 748 109.223 427.047 467.584
375 0 69.0764 11.509 795 107.576 426.252 469.244
376 0 73.042 12.13 886 106.258 426.205 468.837
377 0 74.079 12.1627 901 106.764 426.633 467.422
378 0 77.0388 10.7998 832 109.079 426.403 467.248
379 0 82.0868 13.5588 1113 103.348 426.746 465.467
380 0 82.0815 12.0246 987 107.792 426.109 464.456
381 0 87.0354 12.6385 1100 106.335 425.925 462.866
382 0 89.1572 11.2386 1002 110.676 426.682 459.702
383 0 90.1823 11.3104 1020 111.245 426.734 457.774
384 0 95.0462 10.7211 1019 112.444 427.068 457.75
385 0 100.059 14.0817 1409 113.717 427.473 459.522
386 1 52.103 11.2661 587 112.763 427.542 483.748
387 0 53.0384 11.7085 621 109.647 427.836 482.032
388 0 55.0543 12.6057 694 104.892 427.22 482.657
389 0 55.0692 11.9123 656 104.787 426.569 482.287
390 0 57.0535 12.1114 691 103.936 426.926 482.227
391 0 59.0295 12.282 725 103.472 426.77 481.206
392 0 62.0309 12.7034 788 102.179 426.863 480.562
393 0 62.0528 12.4088 770 103.799 427.384 479.218
394 0 65.0224 12.5188 814 103.09 427.131 478.923
395 0 66.1327 12.4598 824 102.809 426.704 478.285
396 0 67.075 13.7309 921 102.124 426.833 474.984
397 0 71.1254 13.0896 931 101.591 426.612 476.744
398 0 70.0776 12.9571 908 105.609 426.972 473.035
399 0 73.2147 12.5248 917 107.559 426.397 473.456
400 0 73.0966 11.6558 852 111.074 426.283 473.898
401 0 77.1404 11.667 900 109.827 426.518 472.494
402 0 81.0836 13.7266 1113 106.327 426.513 469.317
403 0 83.1161 12.0434 1001 111.34 427.158 468.929
404 0 86.1081 13.065 1125 109.052 426.944 467.11
405 0 89.0684 12.5185 1115 110.72 427.145 465.838
406 0 91.11 12.1611 1108 113.505 427.006 464.95
407 1 48.0417 11.6773 561 111.34 428.055 485.424
408 0 50.0745 11.1234 557 109.461 427.903 484.022
409 0 49.0563 12.292 603 110.073 427.318 484.643
410 0 51.0366 11.8738 606 107.398 427.262 485.282
411 0 53.0392 12.1797 646 106.474 427.683 484.598
412 0 55.2553 12.035 665 107.274 427.516 483.513
413 0 55.0669 12.2941 677 107.261 426.516 482.603
414 0 59.034 11.4341 675 108.404 425.947 484.289
415 0 58.0291 13.3037 772 107.004 426.374 480.645
416 0 60.0417 12.3581 742 108.549 426.422 481.093
417 0 62.0572 12.4724 774 109.465 426.611 479.5
418 0 64.0593 11.6767 748 109.872 426.71 481.246
419 0 67.0708 12.9565 869 108.246 427.04 478.399
420 0 69.0384 13.7025 946 107.349 426.409 476.849
421 0 72.0922 13.2885 958 107.503 426.808 476.26
422 0 73.2485 12.9832 951 109.632 426.766 474.574
423 0 77.066 14.2735 1100 105.945 427.323 473.602
424 0 78.0541 12.6835 990 111.832 427.738 471.05
425 0 82.0724 13.683 1123 108.288 427.759 471.56
426 0 83.079 13.1441 1092 110.317 427.066 469.542
427 0 85.096 13.3261 1134 109.625 426.984 468.838
428 0 89.086 13.0548 1163 110.011 426.697 466.627
429 0 91.057 14.4854 1319 108.08 427.145 463.121
430 0 94.0833 13.5731 1277 112.809 426.043 460.924
431 1 50.0603 11.7858 590 109.075 426.975 485.8
432 0 52.0836 12.6911 661 106.823 426.849 485.265
433 0 53.1038 12.9369 687 107.738 426.764 483.531
434 0 53.0274 12.0504 639 109.418 425.405 485.275
435 0 56.053 11.8281 663 107.508 425.864 485.548
436 0 58.0851 11.07 643 110.51 425.746 483.359
437 0 59.0665 12.5283 740 107.164 426.041 482.703
438 0 61.0557 12.5295 765 108.484 426.163 481.431
439 0 62.2026 12.3146 766 107.931 425.674 481.648
440 0 65.1502 12.4021 808 108.115 426.068 479.652
441 0 67.1439 11.7658 790 110.159 426.208 477.853
442 0 68.0524 11.5499 786 111.48 426.766 478.186
443 0 71.1061 12.8118 911 110.049 426.361 476.09
444 0 73.2447 12.6835 929 109.958 426.526 475.95
445 0 74.0969 11.1746 828 114.393 426.531 473.274
446 0 77.0498 12.2388 943 112.162 427.126 471.541
447 0 81.0907 12.7511 1034 109.778 426.633 471.171
448 0 85.0861 13.8801 1181 108.056 427.134 469.528
449 0 86.0614 13.4787 1160 109.947 426.704 468.032
450 0 88.2529 12.4982 1103 112.708 426.373 467.063
451 0 94.1641 12.9349 1218 110.915 426.618 464.373
452 0 94.1419 12.8104 1206 111.192 426.43 464.654
453 0 95.104 12.5547 1194 111.809 425.924 462.268
454 0 100.088 12.9685 1298 110.928 426.44 460.379
455 0 105.175 13.5583 1426 107.733 427.004 459.196
456 0 106.28 11.9307 1268 113.743 426.513 455.208
457 0 112.076 12.6164 1414 111.62 426.261 454.695
458 1 57.0686 11.1795 638 109.332 427.138 478.458
459 0 57.0838 10.7561 614 110.524 426.668 475.674
460 0 60.1413 12.0383 724 109.001 426.778 475.029
461 0 66.1403 12.0955 800 107.792 426.958 473.948
462 0 68.1494 12.3992 845 106.121 427.142 472.68
463 0 69.1555 11.2789 780 110.217 426.27 470.649
464 0 70.1515 11.6462 817 110.251 426.175 468.769
465 0 74.0418 11.8987 881 110.4 426.354 466.2
466 0 76.0565 11.4257 869 111.425 426.221 466.414
467 0 80.1493 11.6907 937 111.676 426.25 463.854
468 0 82.0798 12.4026 1018 109.722 426.357 464.623
469 0 85.2328 12.8824 1098 109.394 426.032 463.982
470 0 89.0958 12.4024 1105 110.432 425.907 464.005
471 0 92.1208 12.375 1140 113.859 425.14 462.806
472 0 96.1295 12.4208 1194 113.709 426.384 462.566
473 1 50.0533 12.5866 630 108.116 426.616 485.229
474 0 51.0765 11.3359 579 119.273 425.91 482.839
475 0 53.0624 13.2862 705 111.062 425.894 484.401
476 0 57.0608 13.9851 798 109.025 426.149 483.804
477 0 59.0689 14.0853 832 108.81 424.909 482.347
478 0 61.0999 13.1915 806 112.649 424.495 481.447
479 0 61.0873 13.4562 822 113.729 425.646 480.976
480 0 64.156 13.2957 853 113.811 425.36 480.653
481 0 65.1542 13.7059 893 114.334 425.543 478.077
482 0 67.1535 12.7767 858 119.268 425.737 476.233
483 0 71.2457 13.5587 966 117.416 425.113 475.966
484 0 72.1064 12.9947 937 120.242 425.42 475.746
485 0 74.1442 12.2464 908 122.954 425.717 474.923
486 0 75.1165 13.4857 1013 121.369 425.713 472.526
487 0 79.2803 12.6765 1005 122.575 426.184 471.591
488 0 82.2027 13.1991 1085 122.89 426.576 468.3
489 0 87.1647 13.377 1166 120.665 425.533 468.111
490 1 45.123 11.7678 531 125.637 425.363 486.271
491 0 47.0815 11.6394 548 126.036 424.911 487.035
492 0 51.0478 13.1249 670 121.994 425.279 485.725
493 0 51.1092 12.307 629 123.056 425.273 486.564
494 0 52.0324 12.5114 651 124.493 425.421 484.435
495 0 54.1142 13.0834 708 122.144 425.583 483.682
496 0 55.0726 12.4744 687 124.741 425.92 482.862
497 0 56.0461 12.9536 726 122.652 425.84 482.862
498 0 58.0682 13.0364 757 122.46 426.292 481.067
499 0 59.1018 12.2839 726 124.86 425.712 481.438
500 0 60.0878 12.5483 754 127.119 425.878 480.911
501 0 62.0386 12.734 790 129.658 426.089 478.084
502 0 65.0882 13.812 899 124.418 425.646 479.858
503 0 64.2354 12.8278 824 129.114 425.6 477.625
504 0 67.045 12.2753 823 128.705 425.068 477.723
505 0 68.08 11.5012 783 130.669 425.545 477.907
506 0 72.0622 13.0165 938 126.116 426.229 474.98
507 0 73.1176 13.9912 1023 123.962 426.303 473.621
508 0 74.1078 13.3859 992 126.038 426.234 472.254
509 0 75.1924 13.1928 992 127.242 425.736 469.825
510 0 77.229 13.0003 1004 127.717 425.973 470.16
511 0 82.1764 14.2742 1173 122.949 425.83 468.915
512 0 83.1256 13.5217 1124 125.378 426.305 468.006
513 0 87.0883 15.0767 1313 122.037 426.225 466.911
514 0 90.1638 13.7527 1240 126.02 425.644 465.968
515 0 93.1244 13.5303 1260 127.121 426.467 462.054
516 0 97.1096 14.808 1438 123.276 426.576 460.186
517 0 101.146 13.9897 1415 123.973 426.286 458.589
518 0 101.144 13.9702 1413 136.402 426.277 458.682
519 1 61.0473 12.4494 760 125.557 426.155 478.524
520 0 64.1136 12.3687 793 121.831 426.916 477.317
521 0 64.0697 12.6581 811 120.121 426.922 478.345
522 0 66.0688 13.1681 870 118.306 426.556 476.198
523 0 67.0871 12.4167 833 120.462 425.836 475.995
524 0 72.0356 14.5761 1050 113.92 426.202 475.006
525 0 72.1304 12.5744 907 120.272 426.66 473.357
526 0 75.0871 13.5842 1020 117.56 426.151 472.65
527 0 77.0349 13.3316 1027 118.183 425.991 470.884
528 0 80.0769 13.0125 1042 117.131 426.513 469.999
529 0 83.0955 13.1656 1094 117.367 427.202 469.28
530 0 84.1075 13.2212 1112 117.194 426.665 468.97
531 0 87.0739 12.0587 1050 117.045 426.462 462.045
532 0 91.1129 13.1266 1196 116.338 425.654 465.717
533 0 94.0766 13.6697 1286 116.055 425.428 461.995
534 0 98.2188 13.4801 1324 121.202 426.081 460.248
535 0 101.257 13.1152 1328 120.736 425.636 457.479
536 0 104.309 12.626 1317 122.019 425.145 453.136
537 1 55.077 11.3841 627 117.644 424.847 478.241
538 0 58.1457 11.6948 680 117.068 425.796 481.138
539 0 60.0626 12.7034 763 111.975 426.371 480.045
540 0 62.1789 12.0298 748 112.626 426.418 477.074
541 0 65.0948 12.6892 826 110.343 426.73 476.895
542 0 68.1046 12.6717 863 109.282 427.005 475.514
543 0 71.1167 12.6271 898 108.695 427.388 475.567
544 0 73.0968 12.4629 911 108.97 426.539 473.714
545 0 75.1271 12.4456 935 109.236 426.511 471.507
546 0 79.1379 11.7516 930 110.609 426.452 470.027
547 0 82.0788 12.1347 996 109.261 426.687 468.45
548 0 86.0607 11.7591 1012 109.579 426.632 468.813
549 0 88.068 13.1035 1154 109.995 425.905 464.537
550 1 50.0971 11.2182 562 107.313 425.407 485.237
551 0 49.1171 13.193 648 106.36 425.64 481.873
552 0 52.0302 11.9162 620 107.215 427.137 484.292
553 0 53.056 12.4585 661 105.865 426.443 484.929
554 0 54.0726 11.8914 643 109.003 426.753 483.162
555 0 57.0753 12.4923 713 108.069 426.784 482.121
556 0 58.0565 12.4017 720 109.994 426.603 480.106
557 0 61.1168 12.8606 786 107.606 427.127 481.137
558 0 62.0915 12.0467 748 111.376 426.957 479.095
559 0 65.1294 12.4675 812 109.916 427.102 477.709
560 0 68.1854 12.8327 875 108.819 426.456 477.416
561 0 69.1349 12.1357 839 110.695 427.235 475.434
562 0 72.1185 12.5349 904 109.373 427.197 475.744
563 0 74.0465 11.8304 876 111.6 426.68 475.573
564 0 79.0658 12.0153 950 110.413 426.782 474.053
565 0 80.057 13.0532 1045 109.694 426.969 471.296
566 0 84.15 12.038 1013 122.507 426.888 468.668
567 0 89.1443 12.7883 1140 117.766 425.657 468.51
568 0 90.1795 11.6989 1055 116.645 426.481 460.419
569 1 47.0438 10.6922 503 107.65 425.942 488.169
570 0 48.0451 12.3009 591 111.283 425.836 486.739
571 0 50.1461 12.2043 612 108.451 426.961 485.462
572 0 51.0511 12.3798 632 107.451 426.698 484.486
573 0 52.0958 12.3043 641 109.162 426.855 483.685
574 0 55.1179 12.0832 666 108.402 426.562 484.248
575 0 57.0964 13.1882 753 105.927 426.628 481.977
576 0 57.156 12.3872 708 108.794 426.777 481.013
577 0 59.1565 11.7485 695 109.87 427.357 482.283
578 0 61.1517 11.496 703 110.972 427.219 478.465
579 0 61.1385 11.2368 687 112.725 427.047 479.355
580 0 66.1501 12.2298 809 119.273 425.822 477.523
581 0 67.1428 12.4064 833 119.977 426.137 475.939
582 0 69.2008 12.4565 862 120.767 425.81 472.884
583 0 72.148 12.6684 914 118.992 426.24 474.545
584 0 74.1426 13.3257 988 117.828 425.363 472.247
585 0 77.1192 12.0982 933 121.199 425.236 470.929
586 0 81.0933 12.5658 1019 119.003 425.215 471.399
587 0 83.1673 12.8296 1067 121.861 425.903 467.921
588 1 43.187 11.9017 514 120.089 425.615 488.212
589 0 43.1192 11.7117 505 108.095 427.01 488.297
590 0 46.1571 12.0458 556 112.734 427.099 488.257
591 0 46.0704 11.2003 516 115.672 426.671 486.359
592 0 48.1099 11.4945 553 118.081 426.599 485.642
593 0 49.0934 12.1197 595 116.41 426.025 484.824
594 0 53.2162 13.7364 731 110.443 425.543 484.196
595 0 53.1388 12.7214 676 114.994 425.722 482.317
596 0 55.0791 13.6349 751 112.57 426.285 482.24
597 0 54.0391 12.9351 699 116.728 426.798 481.722
598 0 56.1094 12.4222 697 117.735 426.557 481.509
599 0 60.0516 13.4551 808 113.958 426.102 479.75
600 0 62.1586 12.7255 791 116.282 426.488 478.709
601 0 64.1683 13.1529 844 114.655 426.756 478.988
602 0 64.0832 12.671 812 116.666 426.92 476.3
603 0 67.182 11.774 791 117.99 426.914 477.142
604 0 68.0888 12.2046 831 118.136 427.007 475.158
605 0 71.1187 12.4159 883 117.658 425.482 473.967
606 0 72.0682 12.1413 875 119.081 426.022 473.835
607 0 76.164 13.8648 1056 114.492 425.97 472.197
608 0 80.1147 12.894 1033 116.306 426.813 470.933
609 0 81.1463 13.3216 1081 114.665 427.051 469.13
610 0 84.1203 12.6129 1061 117.735 426.564 464.61
611 0 89.1548 13.7065 1222 113.042 426.227 464.664
612 0 90.1378 12.8137 1155 116.61 426.685 462.8
613 1 48.0588 11.7356 564 117.764 427.699 483.775
614 0 50.026 13.0132 651 114.883 427.147 484.088
615 0 50.1464 11.965 600 121.143 427.183 486.258
616 0 53.1782 12.8436 683 117.586 426.619 484.678
617 0 54.08 13.8868 751 115.989 427.261 483.41
618 0 56.1131 13.348 749 116.645 426.757 482.721
619 0 57.1859 12.573 719 118.839 427.395 481.232
620 0 59.1048 13.7045 810 114.464 427.923 482.138
621 0 61.1428 13.722 839 114.153 427.279 481.527
622 0 62.0984 13.1404 816 116.999 427.064 478.452
623 0 65.297 12.8643 840 116.01 426.58 478.558
624 0 66.2418 13.496 894 114.213 426.737 477.289
625 0 69.3358 13.5139 937 113.467 426.206 475.987
626 0 72.288 13.0035 940 114.003 425.537 474.733
627 0 72.2926 13.1549 951 113.533 424.793 474.116
628 0 74.2687 11.8489 880 116.693 425.653 473.218
629 0 78.3099 11.4673 898 112.699 426.139 471.18
630 0 78.3556 11.7413 920 111.763 425.818 468.686
631 0 82.4115 11.479 946 111.756 425.275 467.499
632 1 44.2551 11.0722 490 105.765 426.069 488.498
633 0 42.4003 10.4716 444 107.502 425.525 487.079
634 0 46.3043 12.785 592 100.74 425.407 485.885
635 0 47.0578 11.9428 562 103.123 425.931 486.665
636 0 46.0327 10.9053 502 106.203 425.851 485.962
637 0 50.0921 13.3953 671 98.924 425.844 485.182
638 0 50.1201 11.253 564 104.222 425.654 485.489
639 0 52.1223 13.0654 681 101.222 425.391 484.001
640 0 54.0798 12.8699 696 100.589 425.622 482.487
641 0 56.1135 12.1896 684 102.094 425.564 483.765
642 0 57.0813 14.856 848 96.1887 426.107 482.572
643 0 60.1547 12.4679 750 100.617 425.588 481.513
644 0 61.0715 11.8877 726 102.634 425.369 478.854
645 0 64.1066 12.5104 802 101.097 425.771 478.986
646 0 65.1519 12.1562 792 102.711 426.045 479.194
647 0 69.1071 11.8946 822 102.273 426.292 477.515
648 0 70.0557 12.0904 847 102.713 425.909 476.894
649 0 75.124 13.0983 984 101.146 426.475 472.547
650 0 77.1379 13.1842 1017 100.599 424.969 470.532
651 0 78.0731 10.7976 843 105.122 425.142 471.38
652 0 83.2105 11.7173 975 104.241 424.915 469.257
653 0 83.0938 10.9756 912 108.019 424.498 467.384
654 0 91.1565 13.4604 1227 101.718 425.583 466.39
655 1 48.0884 11.3541 546 105.859 425.782 487.623
656 0 48.1637 11.8554 571 107.445 425.702 486.282
657 0 49.0526 11.5998 569 108.114 424.882 486.988
658 0 49.0766 11.533 566 108.717 425.383 486.026
659 0 53.0767 11.6435 618 105.553 426.168 486.112
660 0 54.0797 12.2967 665 103.872 426.128 485.096
661 0 57.0675 12.0384 687 104.163 426.565 484.614
662 0 58.1542 11.5211 670 106.928 426.454 482.518
663 0 60.121 11.2606 677 107.648 425.143 482.536
664 0 63.1727 12.1255 766 103.782 424.768 480.064
665 0 65.1138 13.1462 856 101.771 425.005 478.75
666 0 67.0796 12.761 856 102.751 424.838 480.265
667 0 67.1094 12.2338 821 106.361 425.132 477.466
668 0 72.1531 12.7645 921 104.239 424.823 477.163
669 0 73.0791 12.1512 888 106.934 424.071 476.187
670 0 77.1662 12.6869 979 106.456 425.009 475.099
671 0 78.0912 12.0756 943 109.931 424.718 473.952
672 0 81.0899 12.3197 999 111.371 423.751 469.547
673 0 85.1281 12.4518 1060 111.264 424.727 471.272
674 1 43.0223 11.4824 494 112.229 424.389 490.583
675 0 45.1371 12.5174 565 108.584 426.857 489.303
676 0 44.0667 10.3933 458 117.574 426.679 487.531
677 0 47.0755 12.4481 586 110.191 426.814 488.602
678 0 48.0879 12.4148 597 108.382 426.285 489.648
679 0 49.0208 13.3209 653 107.73 426.289 487.995
680 0 51.0112 13.252 676 107.944 425.929 486.488
681 0 51.1356 13.2002 675 108.721 426.702 486.929
682 0 53.1164 13.1409 698 109.698 426.66 484.758
683 0 55.0483 13.2248 728 109.098 426.04 485.291
684 0 55.0866 13.1793 726 108.745 425.861 485.504
685 0 56.0472 12.5608 704 113.249 425.689 483.384
686 0 59.0715 11.7485 694 114.572 425.718 483.307
687 0 61.0598 12.8235 783 112.395 425.612 480.751
688 0 61.1434 13.0349 797 112.711 426.512 480.275
689 0 65.1047 13.5321 881 109.835 425.969 480.792
690 0 66.0621 11.4286 755 116.46 425.825 478.156
691 0 70.1474 13.9848 981 109.111 425.915 477.496
692 0 72.1175 12.7154 917 112.935 425.918 476.819
693 0 74.0889 11.9046 882 113.576 425.596 476.492
694 0 76.1319 12.4389 947 113.725 425.871 474.421
695 0 80.0926 12.8351 1028 113.135 426.61 472.13
696 0 82.0651 11.3934 935 117.414 426.149 468.882
697 0 85.1406 13.4131 1142 113.163 426.554 469.969
698 0 88.1795 13.2344 1167 114.117 426.943 466.742
699 0 89.0581 11.9023 1060 118.211 426.298 466.559
700 0 92.0973 11.9547 1101 116.675 426.161 466.208
701 0 99.0809 13.4436 1332 111.288 425.877 464.562
702 1 53.0172 12.147 644 111.365 425.804 485.014
703 0 56.0549 12.5056 701 109.244 425.074 483.05
704 0 58.0316 12.1141 703 111.69 424.947 481.956
705 0 57.0733 12.3175 703 111.098 425.523 482.431
706 0 58.0908 11.8091 686 113.35 426.099 481.118
707 0 60.0677 11.9365 717 112.001 424.331 481.343
708 0 63.0783 12.2863 775 111.823 424.981 479.004
709 0 65.0903 12.5518 817 110.463 424.969 478.034
710 0 70.1686 13.6956 961 107.102 425.019 475.256
711 0 72.1272 12.7414 919 109.343 424.434 474.709
712 0 73.0967 12.4082 907 111.647 424.798 472.562
713 0 77.0552 11.8227 911 113.291 424.603 471.718
714 0 78.1307 11.8391 925 111.504 424.648 474.93
715 0 82.1207 13.4193 1102 110.505 424.796 467.905
716 0 84.1492 13.3572 1124 111.339 425.38 467.487
717 0 87.0985 13.192 1149 111.923 424.8 468.972
718 0 90.0549 13.0698 1177 112.347 424.749 465.871
719 0 95.0919 15.7321 1496 105.107 424.856 463.541
720 0 97.1104 14.1488 1374 111.229 425.782 461.293
721 0 101.131 13.5665 1372 112.798 425.772 461.427
722 0 104.149 13.6152 1418 113.574 425.624 459.097
723 1 54.042 10.8249 585 115.793 425.897 480.412
724 0 55.0404 10.8829 599 111.609 425.294 479.356
725 0 58.1237 11.8368 688 98.1294 425.638 476.555
726 0 58.052 11.2485 653 100.522 425.485 478.786
727 0 58.0205 11.8234 686 108.369 425.287 482.754
728 0 62.0599 12.0368 747 106.673 425.281 480.557
729 0 63.0541 11.3077 713 108.638 425.439 478.777
730 0 65.1195 12.3158 802 106.323 425.338 478.423
731 0 68.1182 11.9792 816 107.49 425.12 476.439
732 0 70.0573 11.9188 835 107.369 424.796 475.804
733 0 75.1036 12.4495 935 104.97 424.61 475.05
734 0 76.2206 13.0017 991 104.977 424.53 473.416
735 0 77.0494 10.8502 836 111.275 424.688 472.844
736 0 80.1255 10.5335 844 113.242 424.844 472.684
737 0 85.0746 13.8584 1179 105.313 424.131 467.498
738 0 87.1046 12.6744 1104 108.639 424.723 466.092
739 0 90.1165 12.7724 1151 107.651 424.863 467.008
740 0 95.1253 13.8239 1315 106.04 425.143 465.88
741 0 97.1005 13.5736 1318 107.245 425.613 462.058
742 0 103.161 14.5694 1503 103.137 425.609 462.069
743 0 104.205 14.174 1477 102.387 425.117 458.992
744 0 107.162 13.4283 1439 105.625 425.443 455.769
745 1 59.0175 11.9287 704 106.885 424.45 479.722
746 0 60.1284 12.2405 736 106.342 424.416 479.735
747 0 64.1492 12.6112 809 104.565 424.64 478.456
748 0 63.0162 11.9017 750 107.368 424.897 478.161
749 0 67.021 11.7873 790 107.497 424.538 475.304
750 0 68.0681 12.414 845 106.531 424.71 475.32
751 0 68.2109 12.1535 829 109.334 427.181 475.118
752 0 72.078 12.5281 903 107.546 427.235 474.171
753 0 75.1203 12.6064 947 107.424 427.075 474.889
754 0 77.103 12.1655 938 108.049 426.543 474.098
755 0 80.1205 13.0179 1043 106.899 426.952 471.748
756 0 83.0988 13.514 1123 105.98 426.853 470.155
757 0 85.0922 12.6686 1078 108.724 426.27 469.373
758 0 89.1352 12.5091 1115 108.317 426.078 468.908
759 0 90.0954 11.9429 1076 110.033 426.261 468.776
760 0 93.0769 12.0438 1121 109.659 426.146 468.396
761 0 96.0599 12.3152 1183 110.146 426.442 465.373
762 0 100.063 12.752 1276 108.914 425.824 466.106
763 0 105.174 12.912 1358 109.508 425.119 462.66
764 0 106.16 13.263 1408 110.869 425.283 459.303
765 1 58.07 11.3656 660 116.388 426.179 480.506
766 0 61.0705 13.1651 804 111.17 425.99 481.368
767 0 65.1421 13.601 886 107.597 426.45 480.497
768 0 65.1069 13.0247 848 108.803 427.252 480.242
769 0 67.0422 14.3492 962 107.321 426.47 476.986
770 0 69.1025 13.4438 929 109.391 426.999 476.212
771 0 71.0788 13.478 958 111.43 427.111 475.684
772 0 72.064 13.71 988 111.531 426.355 476.395
773 0 76.0981 14.0739 1071 111.261 426.5 474.313
774 0 77.0487 13.3941 1032 113.661 427.358 474.267
775 0 80.102 14.5315 1164 110.935 426.809 471.46
776 0 82.0984 13.8736 1139 112.795 426.434 470.409
777 0 87.0783 13.953 1215 112.533 426.358 469.241
778 0 89.1028 14.4889 1291 111.951 426.679 467.629
779 0 90.0541 13.825 1245 115.001 426.388 466.769
780 0 92.088 13.3785 1232 116.428 426.632 466.028
781 0 97.1715 14.4178 1401 113.435 426.682 464.062
782 0 98.1087 13.9641 1370 115.86 427.066 461.334
783 0 101.233 13.9677 1414 116.255 426.971 461.504
784 0 103.183 13.5487 1398 118.807 426.408 457.457
785 0 107.12 13.3775 1433 118.799 426.234 457.396
786 0 112.219 13.5449 1520 117.918 425.957 457.065
787 0 114.185 13.2942 1518 119.494 425.706 453.919
788 1 62.1293 10.8966 677 122.898 425.926 477.74
789 0 64.1112 10.3882 666 115.237 426.377 472.731
790 0 67.1904 12.3232 828 110.487 425.737 470.76
791 0 70.2175 11.4929 807 111.514 425.494 471.477
792 0 74.1612 12.5942 934 108.564 425.775 470.612
793 0 75.1691 11.1482 838 112.572 425.863 467.543
794 0 78.1447 9.95589 778 116.234 425.221 465.4
795 0 80.2909 10.6488 855 109.349 425.384 468.618
796 0 83.0606 11.5097 956 107.822 426.129 466.396
797 0 86.074 12.0013 1033 107.797 426.207 463.45
798 0 91.1592 12.2643 1118 107.354 425.318 461.406
799 0 93.1327 10.9843 1023 110.177 425.586 460.216
800 0 96.1253 11.4434 1100 108.816 425.501 459.718
801 0 99.1211 11.6625 1156 109.345 425.619 458.118
802 0 103.125 11.4715 1183 110.298 426.013 455.801
803 1 53.0684 10.7032 568 104.84 426.393 483.859
804 0 55.0664 12.4577 686 102.493 426.844 484.885
805 0 57.0901 11.7008 668 103.778 426.225 482.9
806 0 56.1087 11.5668 649 105.601 426.47 482.387
807 0 60.1331 12.622 759 102.294 426.269 480.482
808 0 62.1084 12.6553 786 100.985 425.939 477.302
809 0 64.1265 12.5221 803 100.894 426.431 478.428
810 0 66.1775 12.6176 835 100.856 427.157 475.362
811 0 67.2102 11.8583 797 103.253 426.965 474.75
812 0 69.1354 12.8299 887 101.082 426.38 475.611
813 0 72.0855 12.7071 916 100.717 426.971 474.276
814 0 75.1421 11.618 873 102.581 426.367 473.465
815 0 78.1341 11.8386 925 102.586 426.685 471.879
816 0 79.0846 12.632 999 101.98 426.142 470.016
817 0 81.1303 11.9191 967 102.623 425.638 470.236
818 0 86.1091 12.2054 1051 102.245 426.401 469.144
819 0 86.1538 10.3071 888 108.24 426.229 464.453
820 1 44.0182 11.1772 492 102.596 426.533 489.575
821 0 45.0691 9.85154 444 105.836 427.331 486.552
822 0 47.2052 10.5073 496 104.79 427.327 485.619
823 0 50.056 11.9266 597 101.573 427.546 487.258
824 0 52.0345 13.0298 678 100.518 427.025 484.736
825 0 52.0374 12.5871 655 102.108 426.128 484.484
826 0 54.0228 12.7169 687 101.825 426.645 483.936
827 0 56.0741 12.002 673 103.525 427.363 482.871
828 0 56.0441 12.1333 680 103.687 426.929 482.025
829 0 60.0684 12.3526 742 102.288 426.57 481.302
830 0 61.1265 12.3842 757 101.935 426.423 480.176
831 0 63.0959 14.0738 888 98.9617 425.989 478.744
832 0 66.1345 12.157 804 100.843 425.784 479.511
833 0 69.1085 13.3992 926 98.5605 425.697 477.864
834 0 71.0852 13.9973 995 97.7518 425.654 475.413
835 0 71.073 12.1706 865 102.632 425.383 475.355
836 0 76.0892 13.4185 1021 97.5632 425.998 475.086
837 0 76.1391 11.8993 906 102.141 425.986 473.068
838 0 78.0982 11.6776 912 104.113 425.791 472.852
839 0 81.2976 12.7925 1040 102.038 425.068 472.023
840 1 41.0744 11.1018 456 103.127 425.95 493.083
841 0 43.0933 12.6702 546 100.134 425.945 491.441
842 0 44.0234 12.6978 559 104.748 426.191 487.538
843 0 46.0709 11.6125 535 108.378 423.323 487.714
844 0 48.0745 12.3558 594 107.231 425.633 487.847
845 0 48.0284 11.6181 558 109.918 425.884 486.609
846 0 49.0422 11.8877 583 109.065 426.178 486.571
847 0 53.0649 11.7403 623 108.13 426.011 486.101
848 0 55.0433 12.7899 704 106.058 425.906 485.724
849 0 54.073 13.0009 703 107.23 426.31 483.63
850 0 57.0811 12.1757 695 108.67 425.686 484.416
851 0 59.1425 12.6305 747 106.855 425.663 484.573
852 0 59.191 12.0626 714 110.347 425.296 480.388
853 0 62.1031 13.8318 859 106.75 425.496 481.325
854 0 63.1256 12.4989 789 110.626 425.311 479.513
855 0 65.1165 12.8232 835 109.416 425.497 480.544
856 0 69.234 13.3749 926 109.279 425.704 477.284
857 0 70.185 12.866 903 111.261 425.927 475.774
858 0 72.1853 12.648 913 112.64 425.472 474.482
859 0 75.1983 13.0588 982 111.835 425.778 472.412
860 0 79.1835 13.1088 1038 112.079 425.315 472.053
861 0 80.1498 13.35 1070 113.442 425.476 470.597
862 0 83.1132 12.5371 1042 115.181 426.005 471.403
863 0 84.1257 12.2555 1031 115.832 425.864 467.78
864 1 46.0768 11.0902 511 113.517 425.474 488.74
865 0 46.0568 9.53172 439 102.522 424.957 488.232
866 0 47.0864 13.2735 625 101.858 425.762 485.957
867 0 50.1288 12.5876 631 104.564 425.929 487.956
868 0 51.0778 12.2166 624 107.138 425.95 486.611
869 0 53.1701 13.6355 725 102.712 425.276 487.036
870 0 54.1962 12.5286 679 104.657 426.287 483.377
871 0 53.1315 11.6503 619 106.956 426.199 483.903
872 0 57.093 12.1906 696 106.243 425.49 483.49
873 0 57.1433 11.9699 684 108.386 425.904 483.02
874 0 62.0807 12.226 759 107.07 425.315 482.163
875 0 63.0685 13.3347 841 105.15 424.876 479.195
876 0 64.1209 12.0709 774 107.959 425.499 478.304
877 0 67.1241 12.4694 837 107.182 425.425 477.449
878 0 70.1145 11.4955 806 109.496 424.97 477.032
879 0 70.1903 12.6941 891 107.425 424.431 476.772
880 0 75.1911 12.7409 958 107.494 424.849 474.292
881 0 78.1076 12.8925 1007 106.341 424.53 474.384
882 0 79.1289 11.753 930 109.246 424.897 467.905
883 0 80.1252 11.5444 925 110.751 425.108 469.079
884 0 84.1344 11.9808 1008 110.662 425.083 466.592
885 1 43.0393 12.3376 531 103.358 425.335 486.61
886 0 43.0477 10.0586 433 107.18 425.536 486.469
887 0 46.0411 11.7721 542 104.052 425.823 485.09
888 0 48.0505 12.799 615 106.237 425.187 485.646
889 0 50.0945 12.6162 632 106.467 424.997 484.68
890 0 49.0887 11.7135 575 109.837 425.043 485.224
891 0 54.0605 12.6895 686 105.748 424.216 484.656
892 0 54.0405 12.5276 677 108.292 424.898 483.882
893 0 56.0727 12.0023 673 109.569 423.886 483.085
894 0 58.0313 12.7173 738 107.748 424.549 480.191
895 0 59.0562 12.378 731 109.59 424.743 479.926
896 0 61.1463 13.018 796 108.965 425.364 481.805
897 0 63.0982 12.5677 793 110.837 425.29 479.005
898 0 64.139 12.6444 811 111.094 425.724 478.065
899 0 67.1063 12.9794 871 110.564 425.222 477.112
900 0 69.1276 12.1948 843 113.321 425.568 477.237
901 0 70.0692 12.7731 895 113.159 425.598 475.066
902 0 72.1052 12.3847 893 115.327 425.897 474.909
903 0 78.1068 14.2241 1111 110.406 425.797 474.218
904 0 82.1482 13.9869 1149 111.379 426.013 472.722
905 0 81.0936 13.4536 1091 114.555 424.588 470.335
906 0 84.0443 13.1954 1109 117.728 425.05 469.507
907 0 88.1087 14.641 1290 113.643 425.16 468.561
908 1 44.0345 11.9906 528 114.928 425.443 490.188
909 0 47.0218 12.7175 598 113.804 425.737 488.336
910 0 46.0735 12.2413 564 118.75 425.679 486.796
911 0 48.0478 12.9246 621 112.976 425.093 487.591
912 0 50.0562 13.0453 653 112.199 424.968 487.77
913 0 51.0331 13.4814 688 111.234 424.833 485.592
914 0 51.0253 12.4252 634 113.929 424.632 486.505
915 0 52.0138 11.4969 598 116.331 424.654 485.868
916 0 54.1004 11.6081 628 115.783 424.575 484.06
917 0 57.0849 12.1398 693 112.332 424.534 484.443
918 0 58.078 11.2952 656 116.075 424.782 483.659
919 0 62.1132 13.089 813 112.743 424.586 481.566
920 0 64.0377 13.1485 842 112.748 424.407 480.424
921 0 65.0543 12.0668 785 114.358 424.569 481.948
922 0 67.0475 12.6478 848 114.414 424.789 479.65
923 0 69.2015 12.6298 874 114.767 424.46 479.339
924 0 72.0401 14.4503 1041 112.811 424.763 475.917
925 0 72.0779 13.2079 952 116.68 424.197 476.333
926 0 75.0632 12.5761 944 119.415 424.642 474.233
927 0 78.0892 14.0352 1096 115.07 424.39 473.495
928 0 82.0737 13.8778 1139 114.531 424.48 472.96
929 0 82.1833 12.3626 1016 119.389 424.839 471.107
930 0 88.1033 14.1084 1243 114.62 425.364 467.168
931 0 89.1706 13.1546 1173 115.708 425.287 468.242
932 0 93.1248 13.498 1257 115.068 425.168 463.969
933 0 96.1022 12.6012 1211 117.19 424.866 464.482
934 1 51.1639 11.4143 584 111.827 425.454 485.914
935 0 52.1619 11.7327 612 111.905 424.93 482.951
936 0 55.0688 13.1654 725 112.159 425.51 485.137
937 0 57.0448 12.9898 741 112.265 425.363 483.355
938 0 60.1182 14.5048 872 108.636 425.194 482.672
939 0 62.1677 13.544 842 111.99 424.967 480.283
940 0 63.1208 13.593 858 111.969 425.209 478.893
941 0 67.0722 13.4035 899 110.606 425.248 480.096
942 0 68.1027 13.4209 914 112.372 425.088 476.081
943 0 70.1391 13.5873 953 112.96 425.669 475.822
944 0 75.1282 13.3771 1005 115.818 425.781 474.248
945 0 77.0835 12.6097 972 116.756 425.722 473.789
946 0 77.1568 12.9217 997 114.093 425.577 471.687
947 0 82.0838 12.4994 1026 117.941 425.1 469.845
948 0 83.1119 12.8983 1072 118.115 425.628 467.484
949 1 40.0907 11.2495 451 118.65 426.151 487.523
950 0 44.0496 12.5767 554 113.894 425.742 488.175
951 0 44.0484 13.1219 578 111.808 426.853 486.836
952 0 44.0359 12.944 570 112.572 425.847 484.912
953 0 47.0328 12.8421 604 111.608 426.142 484.666
954 0 48.0521 12.2783 590 112.649 425.942 484.173
955 0 49.0426 13.1314 644 111.278 425.89 483.525
956 0 51.0532 11.7133 598 114.201 426.39 481.401
957 0 53.0781 11.4548 608 113.304 426.696 482.65
958 0 54.2079 11.8617 643 111.226 425.6 479.981
959 0 55.1442 11.8961 656 112.605 426.451 477.988
960 0 59.1365 12.6656 749 111.037 426.274 476.288
961 0 60.2771 12.9734 782 111.564 426.217 475.91
962 0 63.1075 12.5183 790 112.073 425.687 474.297
963 0 65.1376 13.2335 862 111.261 426.035 474.532
964 0 66.2565 11.697 775 115.781 425.329 472.627
965 0 70.1891 13.891 975 109.946 425.765 470.706
966 0 72.1066 13.5633 978 111.198 425.738 469.886
967 0 75.1471 13.0943 984 113.821 424.903 468.054
968 0 76.1544 12.7767 973 114.983 425.171 467.825
969 0 81.2362 13.1468 1068 112.081 425.221 468.042
970 0 82.0848 11.6343 955 113.871 424.659 473.15
971 1 43.0044 11.3244 487 117.343 424.402 490.257
972 0 45.0439 12.3657 557 112.293 425.447 489.689
973 0 44.0996 11.7461 518 114.57 424.988 488.585
974 0 45.1401 12.3172 556 113.763 424.941 488.079
975 0 48.153 13.6025 655 108.798 424.75 486.397
976 0 49.0807 13.8751 681 108.109 425.499 487.445
977 0 52.052 12.8333 668 111.639 425.807 485.994
978 0 53.1344 12.9295 687 112.188 425.316 483.991
979 0 55.094 12.3244 679 114.482 425.972 484.702
980 0 56.1186 13.7744 773 112.191 425.917 483.137
981 0 57.1012 12.1363 693 115.104 425.847 486.345
982 0 56.1321 12.6309 709 117.014 425.894 482.764
983 0 61.0588 13.9701 853 113.02 425.73 481.362
984 0 62.0777 12.6777 787 117.311 425.464 480.416
985 0 64.0603 12.9878 832 117.298 425.564 481.321
986 0 66.0482 13.9292 920 116.133 426.046 478.282
987 0 68.0628 13.2818 904 118.389 426.477 476.542
988 0 72.0367 13.5764 978 117.342 426.278 477.208
989 0 73.1333 12.8669 941 120.365 425.803 475.133
990 0 76.0783 13.7227 1044 117.828 425.375 475.811
991 0 79.0595 13.6479 1079 119.239 425.277 472.692
992 0 79.0791 13.0123 1029 120.946 425.435 473.564
993 0 82.0409 13.6274 1118 120.605 425.995 469.708
994 0 86.1008 14.9011 1283 115.374 425.798 468.091
995 0 88.0956 13.4172 1182 119.256 426.397 466.739
996 0 91.1227 13.9812 1274 118.166 426.078 464.648
997 0 94.1104 14.0367 1321 118.694 426.238 464.187
998 0 97.1495 14.2049 1380 119.376 426.193 463.581
999 0 101.207 13.1908 1335 123.121 425.815 462.751
1000 0 105.245 14.4615 1522 120.004 425.878 460.901
1001 0 109.291 14.3104 1564 119.865 425.892 457.213
1002 0 114.305 15.0125 1716 124.336 425.805 452.131
1003 1 61.1884 12.486 764 126.704 425.694 479.458
1004 0 62.3512 11.3711 709 129.161 425.611 478.496
1005 0 64.2522 13.4003 861 125.779 425.951 476.063
1006 0 69.1276 14.2345 984 118.075 425.869 475.395
1007 0 69.2624 14.2935 990 115.1 425.888 476.324
1008 0 72.1292 13.9611 1007 115.887 425.44 475.992
1009 0 73.0834 12.821 937 119.963 425.337 473.746
1010 0 78.1039 13.3924 1046 117.108 425.652 473.928
1011 0 79.148 13.6832 1083 118.315 425.966 470.361
1012 0 83.0633 13.881 1153 118.401 425.253 468.338
1013 0 84.1246 13.2304 1113 123.272 425.682 466.173
1014 0 88.1403 13.331 1175 121.873 425.932 465.837
1015 0 89.0722 13.2477 1180 124.377 425.699 464.569
1016 0 93.2137 13.7426 1281 123.512 425.534 464.1
1017 0 95.0934 13.1976 1255 127.539 424.995 461.804
1018 0 99.1143 13.55 1343 124.401 425.689 462.27
1019 0 104.224 13.375 1394 123.85 425.912 459.858
1020 1 53.2442 12.8653 685 114.18 425.22 482.066
1021 0 56.2323 12.5728 707 115.202 425.158 481.876
1022 0 57.0745 12.7377 727 115.07 424.658 481.875
1023 0 60.0901 12.4646 749 116.111 425.228 480.264
1024 0 64.1414 13.2364 849 113.643 426.014 480.107
1025 0 65.0967 13.9178 906 112.993 426.019 478.608
1026 0 66.1571 13.4679 891 115.166 425.84 478.448
1027 0 70.1011 13.1096 919 118.602 425.005 477.007
1028 0 72.0747 11.5991 836 124.516 425.592 475.256
1029 0 74.095 12.457 923 123.063 425.35 473.582
1030 0 75.162 12.6527 951 123.748 425.359 470.489
1031 0 79.3724 13.317 1057 121.998 425.868 467.233
1032 0 81.1781 12.9468 1051 124.02 426.065 466.01
1033 0 84.2656 12.8285 1081 124.381 426.085 464.716
1034 0 87.1571 12.6897 1106 124.278 425.977 464.463
1035 0 91.1005 13.6113 1240 122.11 426.525 462.501
1036 0 93.2025 12.7357 1187 125.516 426.19 463.024
1037 1 47.0864 11.978 564 122.108 426.31 485.426
1038 0 51.1515 13.8021 706 121.53 425.926 483.31
1039 0 52.047 12.2581 638 115.577 425.056 483.185
1040 0 53.0475 12.404 658 115.524 424.617 482.114
1041 0 54.0369 11.159 603 120.562 424.799 481.544
1042 0 56.0304 12.3683 693 119.092 425.178 484.294
1043 0 59.0638 12.3934 732 118.127 425.165 483.493
1044 0 60.0468 12.9232 776 116.545 425.509 482.256
1045 0 60.0822 11.5009 691 121.496 424.85 478.384
1046 0 66.0569 13.9274 920 113.274 425.604 477.966
1047 0 69.1596 13.2592 917 115.676 425.761 476.914
1048 0 70.0462 13.0057 911 116.453 424.546 475.519
1049 0 72.0919 12.6783 914 118.092 424.612 474.204
1050 0 75.1426 12.2833 923 119.996 425.556 472.886
1051 0 78.1321 12.1077 946 120.779 425.795 473.362
1052 0 79.4026 11.511 914 123.899 425.249 470.176
1053 1 41.1044 10.7044 440 119.986 424.832 489.318
1054 0 44.0549 11.8261 521 111.274 424.845 487.132
1055 0 46.0741 11.1559 514 110.364 426.13 485.502
1056 0 46.0784 11.5455 532 111.203 426.019 483.53
1057 0 47.1784 11.3823 537 111.931 425.276 482.838
1058 0 48.1048 10.7682 518 113.614 425.521 483.097
1059 0 50.173 11.5401 579 117.235 424.853 479.705
1060 0 51.1159 11.2685 576 118.064 425.578 479.92
1061 0 53.1515 11.2697 599 117.462 425.424 479.715
1062 0 56.1597 12.1439 682 116.478 425.37 478.141
1063 0 59.1379 11.8706 702 115.858 425.372 480.148
1064 0 58.109 11.3752 661 121.33 426.132 477.431
1065 0 60.27 11.2494 678 125.108 426.027 475.332
1066 0 61.1599 12.6717 775 122.965 425.858 475.689
1067 0 66.1838 11.7854 780 124.445 426.477 474.81
1068 0 66.1063 11.8748 785 126.357 425.989 472.373
1069 0 70.1882 12.3952 870 118.984 426.5 472.028
1070 0 73.1708 12.5323 917 119.118 425.756 471.964
1071 0 77.1386 13.4563 1038 115.975 424.93 471.601
1072 0 76.1318 10.5212 801 130.895 424.843 469.213
1073 0 80.1678 12.2368 981 127.309 425.534 468.658
1074 1 43.0209 10.8087 465 119.538 426.002 488.088
1075 0 45.0379 12.5228 564 131.108 426.16 489.58
1076 0 46.2087 13.6338 630 125.983 424.303 487.897
1077 0 47.1842 13.4791 636 128.027 425.058 485.91
1078 0 46.0604 12.2014 562 130.528 424.947 487.548
1079 0 49.0616 13.5748 666 125.931 423.832 486.21
1080 0 51.0798 13.8215 706 123.776 424.354 486.449
1081 0 50.0533 12.4267 622 129.548 424.137 485.259
1082 0 54.0459 13.6736 739 124.353 424.396 484.304
1083 0 56.0274 13.6184 763 125.182 424.341 483.409
1084 0 57.031 13.028 743 126.271 424.833 483.424
1085 0 58.104 13.407 779 125.868 424.261 482.064
1086 0 60.0795 13.9482 838 124.074 424.527 480.684
1087 0 62.0544 13.2142 820 126.302 424.648 480.729
1088 0 63.1147 13.721 866 124.099 424.423 481.01
1089 0 66.1753 13.4189 888 124.613 424.526 479.368
1090 0 67.0715 13.5229 907 125.512 424.547 477.465
1091 0 69.1424 13.7976 954 124.515 424.66 475.717
1092 0 72.0606 14.0576 1013 125.845 424.841 474.575
1093 0 74.0938 14.0767 1043 126.382 424.645 472.431
1094 0 78.0457 14.3121 1117 125.062 424.421 471.523
1095 0 82.1408 13.8664 1139 132.49 423.895 469.654
1096 0 83.1537 14.3108 1190 130.526 423.877 468.82
1097 0 84.2429 14.4938 1221 133.898 424.523 466.4
1098 0 89.1472 14.4031 1284 128.192 424.473 466.798
1099 1 44.1279 11.9652 528 131.867 424.294 488.693
1100 0 45.1178 12.1903 550 123.329 424.098 478.849
1101 0 45.1178 12.2125 551 139.024 425.093 478.813
1102 0 48.0743 12.7927 615 123.873 425.616 488.099
1103 0 48.0619 10.965 527 130.417 425.266 486.161
1104 0 50.1274 12.6079 632 124.748 425.559 486.008
1105 0 52.0925 13.4184 699 122.642 425.625 486.054
1106 0 54.0449 13.4518 727 122.547 425.949 484.923
1107 0 55.1353 13.7661 759 122.207 425.484 482.167
1108 0 59.0475 13.142 776 122.513 424.941 481.588
1109 0 60.0457 12.8402 771 123.327 425.376 481.189
1110 0 63.0306 13.6283 859 119.427 425.08 481.275
1111 0 65.0486 13.4207 873 120.455 425.007 478.647
1112 0 66.0382 12.8411 848 122.15 424.737 477.871
1113 0 68.1431 13.3249 908 120.396 424.789 477.325
1114 0 70.0667 12.6736 888 121.541 425.385 476.015
1115 0 73.0741 12.4668 911 122.654 424.74 471.648
1116 0 77.1584 13.1159 1012 119.424 424.801 471.254
1117 0 80.226 12.7515 1023 119.643 424.478 470.616
1118 1 40.0289 12.3411 494 116.656 424.962 490.735
1119 0 39.0962 11.2287 439 115.109 424.679 489.841
1120 0 42.0385 12.5123 526 113.53 424.823 488.684
1121 0 45.1012 13.3256 601 91.2246 424.8 488.516
1122 0 45.0494 12.3198 555 121.413 424.169 487.463
1123 0 46.091 13.8639 639 116.806 424.477 488.462
1124 0 46.0615 14.1767 653 115.781 424.384 488.591
1125 0 50.052 13.3661 669 117.007 424.475 486.075
1126 0 50.1776 12.8942 647 118.556 424.295 485.359
1127 0 53.1048 14.3678 763 113.358 425.1 484.814
1128 0 53.1283 12.7616 678 119.128 425.435 482.937
1129 0 56.1003 13.2085 741 116.677 425.48 482.57
1130 0 58.0693 14.3277 832 113.203 424.776 481.834
1131 0 60.0793 13.9482 838 113.95 424.948 480.138
1132 0 61.1786 13.9264 852 114.144 425.072 479.474
1133 0 64.272 14.143 909 112.854 425.765 478.309
1134 0 68.1734 14.1404 964 112.589 425.304 477.143
1135 0 68.3635 13.6037 930 114.866 424.998 475.533
1136 0 71.2211 14.0408 1000 114.086 425.843 473.266
1137 0 73.2259 14.4894 1061 113.659 425.95 470.042
1138 0 72.1743 11.8186 853 120.868 425.021 469.422
1139 0 77.0646 13.7158 1057 113.98 424.711 469.687
1140 0 77.0777 12.935 997 112.67 424.53 468.069
1141 0 79.0319 13.6274 1077 112.511 424.625 464.009
1142 0 85.1882 13.57 1156 111.652 424.818 464.452
1143 0 86.1037 13.7392 1183 113.247 425.191 461.891
1144 0 90.1212 14.3252 1291 114.472 425.273 461.464
1145 0 90.1424 12.0032 1082 122.185 424.601 459.527
1146 0 95.102 13.0491 1241 118.952 424.529 459.113
1147 1 49.0736 11.656 572 117.934 423.865 480.079
1148 0 53.0927 13.0903 695 112.66 424.463 479.686
1149 0 54.1203 12.3613 669 115.327 423.976 480.245
1150 0 55.13 11.6271 641 118.324 423.271 477.711
1151 0 57.141 12.6529 723 118.306 423.317 479.539
1152 0 61.188 12.5678 769 116.151 423.671 478.884
1153 0 62.205 11.1567 694 117.16 422.859 478.074
1154 0 64.1411 11.4279 733 116.802 422.767 475.722
1155 0 66.0863 12.4837 825 114.442 423.195 474.642
1156 0 69.1055 12.7197 879 114.072 423.143 472.643
1157 0 70.2264 12.5024 878 115.679 423.407 472.487
1158 0 73.2229 12.7692 935 116.132 423.795 469.27
1159 0 76.1198 13.019 991 117.065 423.684 466.218
1160 0 78.1553 13.0254 1018 118.846 423.16 465.884
1161 0 83.2644 13.0428 1086 118.532 423.38 463.977
1162 0 85.1596 12.2711 1045 121.481 423.498 460.654
1163 0 86.2151 12.4688 1075 122.989 423.782 461.372
1164 0 88.2498 11.8754 1048 124.026 424.011 461.887
1165 1 47.086 10.8313 510 115.861 423.606 480.039
1166 0 48.0635 9.48746 456 116.844 423.728 480.708
1167 0 51.1161 9.95772 509 107.185 424.316 478.175
1168 0 51.0816 12.02 614 115.971 424.308 480.941
1169 0 56.118 10.5314 591 115.68 423.579 483.355
1170 0 56.0893 10.9825 616 115.128 423.942 483.265
1171 0 57.1516 11.7757 673 114.314 422.978 482.086
1172 0 59.0526 11.803 697 116.174 423.882 480.346
1173 0 61.1385 12.2018 746 116.507 424.129 478.37
1174 0 64.0553 12.9419 829 114.175 424.454 477.859
1175 0 65.075 10.8183 704 118.76 423.994 479.101
1176 0 70.1139 12.4084 870 115.146 423.844 476.766
1177 0 72.1025 12.4267 896 117.056 423.913 474.174
1178 1 36.0149 10.579 381 122.218 423.365 491.761
1179 0 41.0614 11.8847 488 117.342 423.094 491.154
1180 0 41.0734 11.029 453 116.298 422.616 488.501
1181 0 40.0366 11.4645 459 114.146 423.34 487.965
1182 0 42.1117 10.9708 462 104.273 424.829 484.418
1183 0 43.1191 11.016 475 104.225 425.623 484.453
1184 0 42.1272 9.47132 399 110.333 425.509 484.163
1185 0 44.026 9.5171 419 110.47 425.52 486.045
1186 0 44.0661 10.87 479 110.486 426.173 482.029
1187 0 47.0677 9.70942 457 111.333 425.842 483.269
1188 0 48.1804 9.9418 479 111.85 425.225 481.455
1189 0 51.1557 11.1815 572 108.381 425.283 481.313
1190 0 51.0739 12.061 616 108.719 425.196 479.886
1191 0 51.1221 11.2671 576 112.516 425.163 479.747
1192 0 54.0835 10.3913 562 113.824 424.747 479.025
1193 0 56.1287 11.4202 641 111.997 425.245 476.967
1194 0 57.0618 11.3211 646 113.272 424.624 475.932
1195 0 61.1513 12.2156 747 110.997 425.162 476.596
1196 0 61.0739 11.1668 682 115.035 425.353 476.167
1197 0 63.0726 11.9386 753 114.349 424.875 474.681
1198 0 66.052 12.0814 798 114.424 425.148 474.289
1199 0 67.0948 12.1917 818 116.515 424.809 471.9
1200 0 69.0951 11.9545 826 117.8 424.964 471.594
1201 0 73.1042 12.8994 943 115.539 424.751 470.524
1202 0 74.1329 12.1808 903 118.994 424.97 469.594
1203 0 78.1414 12.6054 985 117.499 424.471 467.76
1204 0 79.074 12.6464 1000 118.58 424.628 466.894
1205 0 80.0886 11.6371 932 122.636 425.132 464.893
1206 0 85.1291 13.18 1122 119.165 425.355 464.161
1207 0 89.0629 12.6652 1128 120.42 424.969 463.316
1208 0 92.0841 12.6189 1162 121.424 424.627 458.336
1209 0 93.1145 12.7477 1187 121.986 424.923 460.822
1210 0 97.0664 12.9396 1256 121.751 424.51 457.808
1211 1 50.0554 11.687 585 121.626 424.836 479.829
1212 0 50.1679 11.8004 592 135.394 424.431 483.098
1213 0 54.0649 12.7254 688 131.078 425.302 481.903
1214 0 55.1085 13.1922 727 128.905 425.75 482.458
1215 0 58.0441 13.3519 775 127.716 425.289 482.56
1216 0 59.1129 13.0767 773 128.203 425.894 480.316
1217 0 60.049 12.8728 773 128.82 425.834 480.418
1218 0 64.1021 14.6017 936 124.144 425.358 479.061
1219 0 67.1329 14.866 998 122.862 425.536 476.981
1220 0 67.0561 14.1822 951 126.932 425.241 476.652
1221 0 70.0757 13.8564 971 127.699 425.152 475.575
1222 0 72.0912 14.9256 1076 125.724 424.809 474.235
1223 0 76.0702 15.7355 1197 122.363 424.622 472.841
1224 0 78.1168 14.7728 1154 125.602 424.454 471.93
1225 0 81.1713 14.3031 1161 128.037 424.621 471.359
1226 0 83.0945 13.8397 1150 129.275 424.635 471.326
1227 0 87.1631 14.6507 1277 127.258 424.899 468.517
1228 0 91.1625 14.2054 1295 131.537 424.656 465.387
1229 0 92.3592 12.9603 1197 140.999 424.434 464.916
1230 1 46.1811 12.4726 576 138.269 425.54 486.085
1231 0 48.1802 13.0344 628 124.693 424.675 486.718
1232 0 50.1156 12.551 629 126.221 424.982 486.269
1233 0 53.0557 14.0795 747 121.009 424.328 485.716
1234 0 52.1695 12.4019 647 127.742 424.054 483.542
1235 0 56.1079 13.4384 754 124.773 424.122 483.347
1236 0 55.0714 13.1829 726 127.004 425.088 484.342
1237 0 59.038 13.2457 782 124.263 423.971 482.136
1238 0 59.1247 13.2601 784 125.071 423.876 482.703
1239 0 61.0376 13.1722 804 127.376 423.784 479.658
1240 0 66.1249 13.6711 904 123.581 423.624 478.31
1241 0 65.1371 12.7731 832 126.919 423.782 477.597
1242 0 68.1031 13.5089 920 124.876 423.755 476.904
1243 0 71.127 12.9627 922 126.504 423.553 475.626
1244 0 72.097 12.8161 924 127.063 423.911 475.832
1245 0 76.0602 12.8714 979 127.068 424.095 473.518
1246 0 78.1049 13.4819 1053 124.848 423.513 472.134
1247 0 80.0631 12.8524 1029 127.493 423.748 472.134
1248 0 82.1166 13.079 1074 127.802 423.271 470.152
1249 0 85.1481 13.8934 1183 125.298 423.806 469.238
1250 0 86.0753 12.4077 1068 131.82 424.225 467.474
1251 0 87.1182 13.2234 1152 131.608 423.896 466.461
1252 0 92.0612 13.0131 1198 129.826 423.85 467.077
1253 0 96.1698 12.4155 1194 131.794 423.717 464.568
1254 1 52.0924 12.5738 655 133.583 423.647 484.643
1255 0 54.0213 14.3462 775 131.031 424.218 484.061
1256 0 54.0461 13.248 716 135.779 423.973 483.649
1257 0 58.0259 15.045 873 128.286 423.417 481.737
1258 0 59.0557 13.9191 822 133.22 423.298 480.893
1259 0 62.0185 15.0923 936 128.747 423.646 479.486
1260 0 63.0509 13.8777 875 131.823 423.114 478.693
1261 0 67.0524 13.5864 911 132.391 423.372 477.89
1262 0 68.1255 14.1357 963 130.792 423.272 475.998
1263 0 72.039 14.3256 1032 128.589 423.499 475.043
1264 0 72.1239 14.4612 1043 121.218 424.246 474.297
1265 0 72.1187 12.7013 916 127.412 424.473 475.167
1266 0 78.1878 15.5907 1219 118.629 423.916 470.698
1267 0 80.037 14.2434 1140 122.548 423.975 470.304
1268 0 82.1128 13.7981 1133 123.748 424.343 469.274
1269 0 84.0973 13.2466 1114 125.939 424.485 468.171
1270 0 88.0574 13.2868 1170 125.231 423.737 468.12
1271 0 90.069 14.0448 1265 122.768 423.937 466.386
1272 1 52.0326 12.2423 637 123.972 423.923 486.308
1273 0 51.0458 13.5956 694 123.024 424.143 483.097
1274 0 52.2926 11.4548 599 131.189 425.05 483.689
1275 0 54.3119 13.2015 717 125.791 424.42 482.703
1276 0 55.2003 12.6449 698 127.809 424.522 481.037
1277 0 58.1354 14.277 830 121.673 424.775 480.623
1278 0 61.1484 14.2768 873 120.666 425.088 479.935
1279 0 60.3101 13.3643 806 124.092 425.037 479.479
1280 0 67.2317 14.0856 947 119.654 424.57 477.153
1281 0 70.1319 13.5174 948 121.643 424.718 475.348
1282 0 70.0926 14.0956 988 121.326 424.422 472.645
1283 0 73.1414 13.4261 982 121.395 424.557 475.402
1284 0 75.158 13.3319 1002 122.124 424.765 473.894
1285 0 79.1097 13.8289 1094 120.316 424.41 471.417
1286 0 79.1726 12.719 1007 124.575 424.485 469.437
1287 0 85.1661 14.4541 1231 118.747 424.334 468.307
1288 1 40.1452 11.4584 460 124.354 425.18 487.283
1289 0 42.1272 12.2011 514 119.393 425.183 488.586
1290 0 44.1374 12.3025 543 110.536 424.936 487.783
1291 0 46.0693 11.3308 522 105.59 424.835 486.328
1292 0 47.1568 11.9389 563 105.906 425.757 484.403
1293 0 48.047 11.6136 558 106.371 425.79 485.986
1294 0 50.072 12.4221 622 106.125 424.625 482.768
1295 0 53.1085 12.8228 681 104.342 425.037 483.524
1296 0 53.0366 12.1991 647 107.362 425.226 481.822
1297 0 55.1086 12.7022 700 106.76 424.946 483.487
1298 0 58.0363 12.9057 749 105.72 424.622 482.415
1299 0 60.0681 14.0507 844 106.371 423.759 480.384
1300 0 62.0597 13.1486 816 104.702 424.614 479.002
1301 0 64.1302 12.3499 792 107.835 424.198 478.172
1302 0 66.0347 12.978 857 107.015 424.316 477.999
1303 0 68.0604 12.7681 869 108.04 424.888 475.815
1304 0 71.0587 13.2285 940 106.903 424.139 475.421
1305 0 74.0936 12.5382 929 108.251 424.754 473.398
1306 0 77.0865 13.3357 1028 108.276 424.585 471.395
1307 0 78.0777 13.3073 1039 109.825 424.985 470.389
1308 0 81.2938 12.7685 1038 111.908 424.974 468.576
1309 1 40.0193 11.2196 449 110.53 425.232 490.024
1310 0 43.0105 13.1596 566 107.355 425.157 485.954
1311 0 44.1022 11.9269 526 112.882 424.485 481.148
1312 0 45.0519 12.4523 561 110.843 425.364 487.667
1313 0 45.0443 12.854 579 110.413 425.615 486.888
1314 0 49.0508 12.6604 621 109.322 425.725 487.064
1315 0 51.0857 12.7041 649 109.333 425.727 486.854
1316 0 51.1129 13.7734 704 108.653 424.984 485.223
1317 0 53.1013 12.4291 660 112.518 424.442 484.708
1318 0 55.06 13.567 747 110.826 424.459 483.594
1319 0 55.2047 13.9843 772 111.773 424.804 480.737
1320 0 57.0563 13.0398 744 115.339 423.591 477.828
1321 0 59.2482 12.8443 761 118.051 424.472 475.844
1322 0 63.0823 13.4745 850 115.996 424.335 476.536
1323 0 63.2071 13.9225 880 117.614 423.433 473.331
1324 0 65.1348 13.7561 896 118.231 423.294 473.91
1325 0 69.1025 15.0646 1041 114.851 423.979 473.433
1326 0 71.0943 14.4737 1029 117.355 424.333 472.238
1327 0 76.2781 14.2243 1085 116.421 423.473 471.147
1328 1 36.2238 11.4013 413 118.714 423.659 491.569
1329 0 36.0165 11.6058 418 121.194 423.045 490.378
1330 0 41.0789 12.5368 515 119.153 423.163 488.703
1331 0 41.2198 12.4697 514 125.228 422.856 488.13
1332 0 44.1825 14.5759 644 121.297 422.7 486.166
1333 0 49.1412 13.1254 645 123.078 423.27 485.891
1334 0 48.1943 14.0681 678 121.512 423.547 485.416
1335 0 49.1524 14.9128 733 120.682 423.168 482.333
1336 0 50.2248 13.798 693 124.17 423.012 482.482
1337 0 53.1628 14.8976 792 120.721 423.361 482.343
1338 0 53.4347 13.8487 740 125.197 423.232 480.946
1339 0 57.1972 14.756 844 120.142 422.949 481.399
1340 0 60.1588 14.7942 890 120.897 423.344 478.454
1341 0 62.289 15.3318 955 119.828 423.288 477.839
1342 0 62.2808 14.9805 933 123.612 423.428 476.198
1343 0 64.1919 15.1577 973 124.613 422.967 474.406
1344 0 66.2511 15.6224 1035 124.732 422.932 473.03
1345 0 66.2948 14.2244 943 129.314 423.259 473.674
1346 0 70.1546 14.5251 1019 128.037 423.164 471.903
1347 0 73.144 14.8338 1085 127.361 423.425 470.901
1348 0 75.3091 15.3899 1159 127.292 424.028 470.53
1349 0 79.2379 16.0403 1271 124.536 423.848 468.53
1350 0 81.1151 15.3239 1243 127.456 423.74 467.937
1351 0 84.2725 15.438 1301 127.696 423.838 465.66
1352 0 86.2468 15.8962 1371 127.261 424.02 464.859
1353 0 89.2286 16.2728 1452 126.719 424.268 462.508
1354 1 45.1525 12.0259 543 138.368 424.468 484.543
1355 0 46.0535 13.4843 621 135.907 424.826 482.986
1356 0 50.0198 14.3943 720 130.082 424.615 483.078
1357 0 52.0497 14.8896 775 129.453 424.951 481.408
1358 0 53.0822 13.8465 735 132.786 425.487 481.18
1359 0 55.0375 13.7361 756 133.618 425.373 478.447
1360 0 58.0854 14.0483 816 132.808 425.415 478.673
1361 0 59.0903 14.6725 867 131.22 424.32 477.516
1362 0 62.0788 14.2078 882 131.704 424.185 476.54
1363 0 64.0878 14.4489 926 130.288 424.392 476.877
1364 0 64.0567 14.6745 940 131.645 424.672 474.79
1365 0 68.1158 14.6515 998 131.804 424.732 471.718
1366 0 72.0799 14.0677 1014 133.267 424.741 472.498
1367 0 71.1649 14.642 1042 134.978 424.736 470.837
1368 0 74.0443 14.5453 1077 134.822 424.751 468.854
1369 0 77.2218 14.7109 1136 135.383 425.005 466.866
1370 0 78.2146 14.4091 1127 136.472 424.986 466.663
1371 0 84.2058 13.9895 1178 136.794 425.183 464.615
1372 0 83.2596 14.3647 1196 137.462 424.486 463.597
1373 0 88.1406 15.4185 1359 133.141 424.312 463.765
1374 0 88.1394 14.8742 1311 137.709 424.465 460.299
1375 0 93.0633 14.2054 1322 139.195 424.814 457.262
1376 0 97.1471 14.9464 1452 135.904 424.882 456.733
1377 0 101.16 15.5596 1574 133.679 423.811 453.066
1378 0 103.218 13.8639 1431 137.472 424.667 451.502
1379 1 54.0919 10.4267 564 130.335 425.465 476.805
1380 0 53.1704 11.529 613 129.935 426.369 477.524
1381 0 55.0269 9.17733 505 135.78 425.638 479.25
1382 0 60.0669 10.738 645 129.408 425.547 480.279
1383 0 61.1765 10.7394 657 130.452 425.253 477.42
1384 0 63.1031 11.0613 698 129.645 424.752 474.666
1385 0 66.137 10.947 724 129.13 424.946 474.459
1386 0 67.1235 10.4881 704 131.178 424.634 471.683
1387 0 72.064 12.4611 898 124.386 424.872 471.079
1388 0 73.0821 12.1507 888 124.776 425.042 469.806
1389 0 75.0667 11.0169 827 128.832 425.04 468.701
1390 0 78.0808 11.2832 881 126.928 426.064 468.431
1391 0 79.0808 10.3186 816 129.691 424.055 467.235
1392 0 84.1081 11.2831 949 126.492 423.822 465.495
1393 0 85.1152 8.34163 710 127.842 423.506 466.866
1394 0 83.0934 6.3904 531 127.115 424.501 470.395
1395 0 90.1037 8.6012 775 124.245 424 465.908
1396 0 92.0692 7.11421 655 127.217 423.863 465.403
1397 1 50.0148 9.07732 454 112.322 424.278 481.584
1398 0 52.0226 9.49588 494 110.694 425.138 480.111
1399 0 53.0823 10.5685 561 109.25 426.018 480.911
1400 0 51.1316 6.47349 331 117.707 425.39 481.68
1401 0 54.0608 9.6373 521 112.464 424.99 477.904
1402 0 57.095 9.38787 536 113.009 425.058 478.086
1403 0 58.0345 8.97742 521 114.19 425.171 476.079
1404 0 60.1339 8.99658 541 113.839 425.181 476.806
1405 0 64.1734 10.3625 665 111.158 425.066 473.77
1406 0 66.1215 10.1329 670 112.604 424.012 469.36
1407 0 68.1722 8.81591 601 115.125 423.97 472.805
1408 0 72.1419 10.0358 724 113.314 423.514 470.5
1409 0 72.1188 8.51373 614 117.86 423.914 468.135
1410 0 75.2161 9.47935 713 117.673 424.473 466.166
1411 0 78.1572 10.7092 837 115.027 424.37 466.441
1412 1 43.0436 9.96664 429 114.261 425.319 482.322
1413 0 45.0874 9.93625 448 114.766 425.77 481.578
1414 0 47.0199 9.37901 441 119.435 425.807 482.27
1415 0 48.045 10.3861 499 117.459 424.731 481.321
1416 0 50.0797 10.2237 512 117.275 425.195 480.836
1417 0 50.0751 9.58561 480 120.069 424.352 480.015
1418 0 48.0439 9.22073 443 123.634 424.264 477.646
1419 0 53.096 9.73708 517 119.845 424.619 478.534
1420 0 52.1057 9.69184 505 122.23 424.529 475.267
1421 0 56.1095 10.8181 607 119.186 424.03 475.03
1422 0 56.1169 11.3513 637 118.722 424.063 474.545
1423 0 57.0542 9.83275 561 121.52 423.635 471.718
1424 0 57.1442 10.0798 576 120.599 424.75 474.33
1425 0 60.0604 9.62364 578 122.633 425.505 471.958
1426 0 62.0347 9.91381 615 122.514 425.902 468.82
1427 0 64.1254 9.84009 631 122.399 424.868 470.06
1428 0 66.1115 9.48398 627 123.951 423.82 468.343
1429 0 70.0612 11.0332 773 120.662 423.59 466.182
1430 0 70.0986 11.0701 776 122.375 423.744 464.282
1431 0 72.0616 10.9767 791 122.402 424.272 465.862
1432 0 74.0794 11.6227 861 122.03 424.783 464.518
1433 0 79.1622 13.2513 1049 117.091 425.629 464.329
1434 0 80.2186 12.4659 1000 121.402 425.749 462.927
1435 0 82.0968 12.0711 991 123.074 425.429 460.651
1436 0 84.1766 12.0105 1011 124.657 425.204 460.827
1437 0 87.2584 11.9874 1046 125.4 425.445 459.827
1438 0 87.2842 11.3308 989 128.699 425.477 458.172
1439 0 91.1936 12.0732 1101 127.06 426.058 455.578
1440 0 93.1651 12.4403 1159 126.713 425.746 454.442
1441 0 99.2039 14.6365 1452 119.896 425.732 456.007
1442 0 100.254 13.3062 1334 125.345 425.157 454.543
1443 0 101.271 12.7875 1295 127.833 424.99 453.886
1444 0 105.206 13.1266 1381 127.014 425.115 451.506
1445 0 110.247 14.3858 1586 122.32 425.939 451.366
1446 0 110.261 12.6428 1394 129.755 425.915 447.821
1447 0 113.171 13.1306 1486 128.892 425.225 448.193
1448 0 118.24 13.5741 1605 128.787 425.191 444.505
1449 0 119.265 12.8872 1537 131.467 424.622 444.722
1450 0 124.218 13.6937 1701 128.891 424.075 441.507
1451 0 127.276 12.6418 1609 132.766 423.915 439.535
1452 0 134.281 14.0898 1892 128.387 424.498 437.014
1453 0 135.14 13.8893 1877 121.616 424.234 430.58
1454 1 72.1713 10.0178 723 118.907 424.077 464.354
1455 0 77.0504 11.6807 900 115.548 424.723 460.583
1456 0 79.1207 12.6389 1000 112.988 424.93 461.018
1457 0 82.2042 12.3108 1012 113.426 425.794 459.445
1458 0 83.0647 12.0268 999 117.202 425.464 454.876
1459 0 86.1917 11.0916 956 117.964 425.428 457.38
1460 0 90.1492 11.6252 1048 117.577 426.03 453.282
1461 0 92.1334 12.4819 1150 115.669 425.683 453.412
1462 0 95.1071 12.6279 1201 116.693 424.923 450.741
1463 0 98.2387 12.3882 1217 117.405 424.065 450.582
1464 0 101.228 12.1508 1230 118.82 424.414 447.576
1465 0 104.293 13.3375 1391 117.274 424.607 447.138
1466 0 106.23 12.3412 1311 122.349 424.789 442.651
1467 0 112.233 12.2424 1374 121.635 424.81 444.624
1468 0 113.188 13.4644 1524 122.587 424.6 440.605
1469 0 119.135 13.2119 1574 123.191 425.204 446.151
1470 0 123.103 13.3709 1646 122.416 425.343 445.172
1471 0 125.124 12.4117 1553 125.06 425.166 444.314
1472 0 130.16 12.9072 1680 123.408 424.536 442.114
1473 0 135.145 13.5484 1831 121.36 424.855 438.435
1474 0 138.13 12.3507 1706 122.622 424.62 440.482
1475 0 144.204 12.4338 1793 121.476 424.736 432.59
1476 0 150.437 13.3013 2001 118.623 424.792 428.457
1477 0 156.359 13.9167 2176 116.268 424.542 429.469
1478 0 161.407 12.1928 1968 119.433 424.481 423.31
1479 1 67.2806 10.2407 689 116.428 424.657 463.518
1480 0 73.1071 10.7103 783 116.646 426.314 472.847
1481 0 75.1042 12.0233 903 114.235 426.086 470.633
1482 0 78.1486 11.9132 931 115.633 425.887 466.532
1483 0 80.108 12.7453 1021 113.338 424.779 466.883
1484 0 83.0896 12.1796 1012 114.468 424.023 466.776
1485 0 86.101 12.7525 1098 112.935 423.593 464.354
1486 0 87.2001 11.4335 997 115.782 425.536 463.267
1487 0 90.0873 10.2456 923 115.088 424.092 465.014
1488 0 94.111 12.5384 1180 108.281 423.291 462.404
1489 0 97.1483 11.7861 1145 111.066 423.591 459.785
1490 0 104.202 12.0919 1260 109.421 423.14 457.454
1491 0 106.283 11.9022 1265 110.563 422.488 456.757
1492 0 108.184 11.4805 1242 114.451 422.33 454.874
1493 1 57.1723 11.3866 651 113.123 423.427 480.126
1494 0 55.2775 11.0171 609 111.059 424.673 476.984
1495 0 59.325 11.5466 685 106.355 425.042 477.755
1496 0 58.3488 10.9171 637 105.206 423.793 470.143
1497 0 59.309 9.35776 555 108.87 423.515 469.868
1498 0 63.2054 10.0624 636 104.502 424.255 472.884
1499 0 65.2612 10.3737 677 105.962 423.966 469.4
1500 0 68.2027 11.803 805 102.425 424.645 469.899
1501 0 68.1486 10.6532 726 111.463 425.22 475.332
1502 0 71.0901 10.8876 774 112.556 424.238 473.089
1503 0 72.2244 11.312 817 104.233 423.941 472.263
1504 0 77.1103 12.748 983 100.081 422.546 471.613
1505 0 77.0877 13.7895 1063 100.458 423.557 469.448
1506 0 75.1185 11.9678 899 104.319 422.676 470.25
1507 0 74.1807 10.6632 791 114.378 423.652 467.946
1508 0 77.0646 12.3014 948 110.544 423.058 467.828
1509 0 81.1408 13.5937 1103 107.898 423.146 464.626
1510 0 84.0883 14.794 1244 103.72 423.245 466.163
1511 0 85.0949 12.8797 1096 108.489 423.129 465.425
1512 0 88.0768 12.7275 1121 107.481 423.752 462.516
1513 0 87.2524 10.8077 943 112.696 422.72 462.577
1514 0 91.2053 11.6221 1060 111.609 423.763 466.473
1515 0 95.219 12.592 1199 108.037 423.484 464.217
1516 0 99.1115 14.2264 1410 103.086 424.047 456.497
1517 0 99.1956 10.8674 1078 114.056 423.957 453.975
1518 0 101.163 10.5869 1071 115.056 424.187 453.073
1519 1 53.1106 10.5252 559 111.385 425.68 478.712
1520 0 56.0485 11.6685 654 111.359 423.893 481.239
1521 0 57.035 9.74839 556 123.21 423.388 480.835
1522 0 60.0606 12.5207 752 115.06 422.811 480.039
1523 0 62.0521 11.4903 713 119.143 422.588 477.153
1524 0 64.022 12.402 794 116.96 422.559 477.613
1525 0 65.0363 12.0548 784 118.851 422.353 476.594
1526 0 66.0457 12.8547 849 118.551 422.032 476.21
1527 0 66.0689 12.3356 815 122.21 421.415 475.211
1528 0 71.0198 13.8975 987 117.391 421.746 474.759
1529 0 73.0377 13.8969 1015 118.315 421.437 473.793
1530 0 73.031 12.8165 936 123.987 421.928 472.576
1531 0 76.0477 13.9255 1059 120.196 421.965 472.626
1532 0 76.06 13.4236 1021 124.5 421.657 471.284
1533 0 78.0387 13.0961 1022 126.488 421.786 471.842
1534 0 81.0368 14.5736 1181 123.503 421.798 469.517
1535 0 84.103 13.5072 1136 126.458 422.46 467.665
1536 0 85.0796 14.4571 1230 124.389 421.613 468.772
1537 0 86.0322 13.4136 1154 128.397 422.018 467.427
1538 0 88.1468 13.7725 1214 127.797 421.636 464.951
1539 0 91.0949 13.7878 1256 127.412 421.839 463.885
1540 0 93.1523 14.063 1310 128.178 421.388 462.763
1541 0 97.1606 13.9357 1354 127.849 421.857 462.394
1542 0 98.121 13.2388 1299 130.675 422.002 461.517
1543 0 101.12 13.0933 1324 130.24 422.381 459.006
1544 0 104.324 13.0843 1365 128.736 421.719 458.085
1545 0 109.302 13.0739 1429 126.678 422.139 454.752
1546 1 59.1059 11.7416 694 122.793 424.058 478.798
1547 0 62.1886 12.3174 766 120.753 423.786 476.423
1548 0 64.0701 11.862 760 118.866 424.27 474.237
1549 0 64.3594 11.3892 733 122.844 422.46 478.563
1550 0 66.2491 11.3964 755 121.968 422.034 478.003
1551 0 70.1848 11.9827 841 119.579 421.672 475.186
1552 0 72.1757 12.5666 907 117.924 421.827 475.043
1553 0 72.1853 11.6506 841 121.168 421.455 470.346
1554 0 78.2718 12.4055 971 117.432 421.004 471.765
1555 0 77.2082 11.7604 908 120.133 421.736 469.372
1556 0 80.1332 13.3153 1067 115.726 422.062 467.707
1557 0 84.1781 12.1053 1019 117.044 421.923 469.227
1558 0 86.1979 12.5409 1081 116.748 422.044 465.991
1559 0 89.2276 12.8996 1151 115.699 421.796 465.116
1560 0 91.1564 12.5279 1142 117.714 422.751 461.954
1561 0 95.1079 12.817 1219 115.536 422.258 462.494
1562 0 99.1948 13.0551 1295 114.883 422.616 460.812
1563 0 100.276 13.5127 1355 114.181 423.573 459.79
1564 0 103.202 13.6529 1409 114.267 423.004 456.539
1565 0 108.316 14.827 1606 111.189 422.78 456.479
1566 0 110.265 13.8848 1531 114.346 421.865 454.527
1567 1 58.179 12.2037 710 112.37 423.127 479.806
1568 0 61.1868 12.2902 752 109.388 422.89 478.685
1569 0 63.2765 13.117 830 105.174 423.252 476.994
1570 0 65.2113 12.8199 836 107.081 422.986 476.151
1571 0 67.1999 12.7828 859 107.87 422.705 473.638
1572 0 68.1768 13.817 942 107.084 422.607 472.098
1573 0 72.2569 12.7323 920 108.879 422.874 470.974
1574 0 74.3416 13.5456 1007 108.426 422.38 467.592
1575 0 76.4141 13.3745 1022 117.212 422.942 466.994
1576 0 81.5475 13.2683 1082 115.313 422.692 466.708
1577 0 82.5432 13.399 1106 114.996 421.584 466.895
1578 0 84.549 12.3597 1045 118.38 422.167 461.909
1579 0 87.4472 13.5282 1183 114.474 422.407 462.757
1580 0 89.1874 14.0379 1252 109.216 422.391 462.359
1581 0 90.114 10.9972 991 116.843 422.218 461.395
1582 0 95.1776 13.0808 1245 112.035 422.564 460.098
1583 0 97.053 11.6431 1130 115.873 422.058 460.633
1584 0 100.218 13.1214 1315 113.134 423.144 457.188
1585 0 104.142 13.2703 1382 113.633 423.13 454.889
1586 0 105.066 12.2209 1284 117.523 423.051 455.8
1587 0 110.205 11.8779 1309 118.976 422.549 452.124
1588 0 113.056 12.1179 1370 118.98 422.713 449.529
1589 0 118.185 13.1912 1559 116.237 422.933 450.365
1590 1 63.0826 10.7478 678 111.177 423.236 478.457
1591 0 66.0997 11.9516 790 109.632 423.14 475.518
1592 0 67.2159 11.3812 765 108.759 423.209 474.973
1593 0 72.1773 11.9428 862 106.019 423.188 476.161
1594 0 72.1454 11.7125 845 109.11 423.228 471.705
1595 0 74.1705 11.3657 843 109.846 422.94 472.802
1596 0 78.1863 13.0202 1018 106.128 422.737 472.201
1597 0 77.0947 11.2589 868 111.844 423.46 470.309
1598 0 81.1645 12.3207 1000 109.846 423.784 468.354
1599 0 82.1143 12.373 1016 111.381 423.489 466.338
1600 0 84.1184 10.4852 882 113.949 422.991 467.666
1601 0 89.1846 12.5919 1123 110.232 423.487 464.436
1602 0 88.1181 11.6889 1030 115.131 422.722 458.796
1603 0 92.1343 11.7871 1086 115.193 423.317 458.685
1604 0 96.1275 12.369 1189 113.545 423.484 461.2
1605 0 100.178 12.4779 1250 114.389 423.468 457.74
1606 0 101.172 12.3058 1245 115.33 423.263 455.419
1607 0 103.163 12.107 1249 114.898 423.275 455.343
1608 0 108.129 13.4561 1455 111.147 422.53 453.071
1609 0 110.308 13.6074 1501 110.294 422.626 451.152
1610 0 113.121 12.5883 1424 111.057 422.294 448.147
1611 0 115.142 11.9678 1378 111.749 422.327 440.771
1612 0 119.127 10.8875 1297 113.476 421.876 442.466
1613 0 122.176 11.156 1363 113.305 421.733 438.668
1614 0 131.143 12.2767 1610 111.314 422.044 439.089
1615 1 73.1598 12.2472 896 112.145 420.827 469.798
1616 0 75.1523 13.7321 1032 113.707 421.131 467.311
1617 0 77.158 12.8697 993 115.971 421.374 465.824
1618 0 80.1375 13.1025 1050 114.542 421.365 465.158
1619 0 82.0839 12.7309 1045 116.022 421.101 463.788
1620 0 83.1137 12.3445 1026 117.302 421.866 462.732
1621 0 86.1147 11.8563 1021 118.673 421.662 461.276
1622 0 90.096 13.3413 1202 115.467 420.27 459.972
1623 0 94.0697 12.7671 1201 114.895 421.369 462.182
1624 0 96.0626 12.9291 1242 115.908 421.344 457.827
1625 0 100.087 13.6081 1362 113.873 421.195 455.151
1626 0 103.175 12.9682 1338 114.767 421.225 454.714
1627 0 108.223 14.313 1549 110.744 421.421 452.409
1628 0 110.259 12.3527 1362 107.464 422.012 451.674
1629 0 113.245 12.4508 1410 107.421 422.622 449.976
1630 1 63.1532 10.4033 657 107.271 422.721 474.123
1631 0 65.159 11.4029 743 108.324 422.851 473.036
1632 0 62.1561 9.37961 583 106.873 420.943 463.887
1633 0 66.1584 10.1121 669 106.214 420.737 464.864
1634 0 66.1069 11.3453 750 103.975 420.927 462.659
1635 0 68.0813 10.3553 705 105.403 421.13 463.43
1636 0 71.1145 10.8979 775 104.653 421.054 459.575
1637 0 74.2505 10.3838 771 106.213 421.996 458.767
1638 0 74.1035 10.3639 768 107.197 421.494 456.198
1639 0 77.2076 11.7734 909 102.669 421.333 460.064
1640 0 83.1358 11.1264 925 104.155 421.715 457.051
1641 0 86.2442 11.5022 992 104.095 421.85 455.933
1642 0 87.1248 10.8236 943 100.91 422.235 454.129
1643 0 90.1392 11.5599 1042 99.8301 422.04 451.622
1644 0 94.1257 11.2509 1059 98.4382 422.508 455.835
1645 0 92.2852 10.5867 977 103.813 422.076 443.03
1646 0 101.159 10.7257 1085 103.211 422.623 445.435
1647 0 100.193 10.4099 1043 103.699 422.552 442.137
1648 0 109.272 11.2837 1233 102.639 422.608 444.74
1649 0 110.175 11.6451 1283 102.761 423.163 438.715
1650 0 114.141 11.2492 1284 102.816 423.071 438.759
1651 1 60.0424 9.54325 573 94.7103 423.143 467.257
1652 0 61.0719 10.7742 658 92.4073 422.824 468.143
1653 0 65.1026 10.7523 700 91.5943 422.636 468.393
1654 0 67.1178 11.0999 745 91.1289 422.57 464.522
1655 0 67.1227 10.3393 694 93.7161 422.811 464.671
1656 0 71.1092 11.5034 818 90.7482 423.081 464.831
1657 0 73.1053 10.3823 759 93.0751 422.237 462.104
1658 0 74.1304 10.6569 790 93.938 422.195 462.304
1659 0 77.123 10.2304 789 95.076 422.93 459.692
1660 0 80.1622 11.6763 936 93.0331 422.228 457.087
1661 0 82.1401 11.0299 906 94.8863 422.247 457.1
1662 0 84.0852 10.4061 875 97.0011 422.587 452.297
1663 0 88.1087 12.2349 1078 93.8256 423.162 455.931
1664 0 89.083 10.8887 970 98.2433 422.802 451.148
1665 0 91.1355 11.7298 1069 98.1113 422.037 452.411
1666 0 95.0852 11.5791 1101 98.9092 421.621 447.787
1667 0 97.0914 12.3389 1198 100.212 422.101 447.316
1668 0 102.108 11.1255 1136 104.43 422.226 446.894
1669 0 104.122 10.9871 1144 105.191 422.103 440.842
1670 0 113.126 13.3568 1511 110.288 421.993 450.78
1671 0 115.18 12.1028 1394 112.896 422.999 447.532
1672 1 65.0628 10.0979 657 113.251 423.023 471.062
1673 0 67.0972 10.6115 712 111.551 420.173 472.428
1674 0 69.0976 10.8397 749 111.159 420.239 467.017
1675 0 71.0613 11.286 802 111.002 420.636 469.264
1676 0 74.1047 12.5903 933 109.021 420.872 467.353
1677 0 77.0711 12.2874 947 109.411 420.939 467.087
1678 0 78.0743 11.6812 912 111.795 421.043 466.243
1679 0 80.1758 11.163 895 112.934 421.121 465.103
1680 0 84.0568 11.3852 957 112.92 421.48 462.334
1681 0 89.231 13.1457 1173 107.598 421.22 463.557
1682 0 92.1178 13.0485 1202 108.671 420.968 460.829
1683 0 95.0608 12.9286 1229 108.629 421.377 460.232
1684 0 97.3156 12.927 1258 108.444 421.004 462.495
1685 0 99.148 12.3048 1220 111.403 421.005 457.316
1686 0 102.161 12.0496 1231 111.678 420.581 456.98
1687 0 106.184 13.2788 1410 109.379 419.97 456.148
1688 0 112.249 13.2207 1484 109.881 420.629 452.725
1689 1 63.1136 11.3921 719 108.063 419.668 476.434
1690 0 66.1317 12.5658 831 106.4 420.378 473.507
1691 0 65.1837 12.5952 821 108.808 421.144 470.373
1692 0 68.0218 12.4225 845 107.994 422.917 473.587
1693 0 71.0867 12.5903 895 107.048 423.733 473.41
1694 0 74.1039 12.9143 957 106.632 423.252 469.037
1695 0 76.0975 12.6942 966 108.005 423.594 468.974
1696 0 79.0756 12.8358 1015 107.385 423.599 469.082
1697 0 81.1274 13.1398 1066 109.018 423.201 467.264
1698 0 85.189 12.8538 1095 109.12 423.514 466.89
1699 0 86.1562 12.9068 1112 111.236 423.481 463.357
1700 0 88.2453 12.3859 1093 112.003 422.977 462.989
1701 0 91.1636 12.6147 1150 110.897 423.424 462.208
1702 0 96.2087 12.317 1185 111.6 422.822 460.062
1703 0 97.211 11.8814 1155 113.119 422.401 458.53
1704 0 101.159 12.3963 1254 109.381 423.111 456.215
1705 0 102.255 10.552 1079 108.211 422.684 457.095
1706 1 56.0371 11.4389 641 107.385 423.117 479.101
1707 0 60.0437 9.92611 596 110.372 423.206 476.898
1708 0 62.1472 11.698 727 107.711 423.495 475.067
1709 0 62.0535 11.3934 707 109.479 423.859 477.62
1710 0 64.0656 12.534 803 107.125 423.983 475.045
1711 0 66.0889 11.5451 763 110.701 423.419 474.393
1712 0 68.0702 12.1052 824 109.001 423.876 473.455
1713 0 70.0928 12.8116 898 108.523 423.738 472.745
1714 0 72.0682 11.392 821 112.24 423.415 470.504
1715 0 72.0637 10.8931 785 114.13 422.876 470.512
1716 0 77.0425 11.8766 915 112.663 422.487 467.792
1717 0 81.1219 13.0174 1056 108.603 423.344 469.676
1718 0 83.1183 13.5831 1129 109.045 422.938 467.357
1719 0 86.066 13.1876 1135 110.002 422.912 466.94
1720 0 85.1128 13.3 1132 112.797 422.69 462.767
1721 0 88.1246 12.6412 1114 114.517 423.556 463.274
1722 0 92.049 12.7867 1177 113.301 424.114 465.039
1723 0 94.2111 13.7563 1296 111.688 423.61 462.082
1724 0 100.096 13.8368 1385 109.373 423.562 462.087
1725 0 101.089 13.2161 1336 112.453 423.829 458.767
1726 0 104.2 14.2514 1485 109.839 423.582 458.213
1727 1 60.0523 11.0737 665 112.746 423.537 481.355
1728 0 60.0654 11.654 700 109.271 423.47 477.324
1729 0 57.0358 10.397 593 111.233 423.47 470.938
1730 0 58.0798 9.93461 577 111.601 422.903 472.094
1731 0 62.1156 11.4464 711 107.281 422.685 471.872
1732 0 65.0266 10.9801 714 108.668 423.444 470.102
1733 0 67.0417 10.8738 729 108.528 423.311 471.79
1734 0 67.064 10.6316 713 111.606 423.196 468.544
1735 0 67.0358 11.203 751 110.483 422.996 470.635
1736 0 69.0657 10.9895 759 112.121 422.709 468.225
1737 0 72.0476 10.8539 782 111.982 423.155 468.694
1738 0 73.0696 10.7432 785 113.422 422.829 465.005
1739 0 78.0567 11.9144 930 109.904 422.775 464.494
1740 0 80.1117 12.0831 968 110.552 422.566 463.516
1741 0 82.0835 12.402 1018 110.41 423.038 462.48
1742 0 85.2347 12.272 1046 109.22 422.687 462.943
1743 0 87.0617 12.3131 1072 110.913 421.997 460.979
1744 0 88.1035 10.9871 968 106.602 421.866 461.147
1745 0 92.1641 11.5772 1067 104.559 422.554 460.254
1746 0 95.1676 12.2311 1164 103.687 421.957 457.691
1747 0 98.1346 11.902 1168 104.288 421.884 455.33
1748 0 101.168 12.0888 1223 103.966 421.522 451.796
1749 0 107.238 13.1204 1407 101.413 421.375 451.475
1750 1 59.1715 9.07532 537 101.838 422.507 478.831
1751 0 59.1425 11.1426 659 108.193 421.756 472.807
1752 0 64.0578 11.2867 723 98.8935 422.967 475.082
1753 0 63.0612 11.0845 699 101.923 423.376 471.282
1754 0 66.2869 11.405 756 99.8148 422.98 471.894
1755 0 65.125 10.7793 702 101.791 422.474 470.48
1756 0 71.1046 11.2088 797 100.103 422.632 469.253
1757 0 70.0426 11.593 812 99.9606 421.942 470.477
1758 0 73.0971 12.0798 883 99.2786 422.42 466.097
1759 0 76.1178 11.8106 899 99.8954 422.604 463.794
1760 0 76.104 11.3529 864 101.516 422.984 466.344
1761 0 78.096 12.2157 954 100.964 422.699 460.975
1762 0 82.0813 11.8054 969 101.843 422.274 461.906
1763 0 85.0905 12.0342 1024 101.508 422.386 460.115
1764 0 84.0876 11.3572 955 104.129 422.525 460.251
1765 0 88.0929 12.1009 1066 102.301 422.98 457.009
1766 0 89.1067 11.8622 1057 103.653 422.806 455.938
1767 0 93.1009 11.1492 1038 104.915 422.321 457.252
1768 0 97.0933 11.5971 1126 104.162 422.08 454.644
1769 0 101.126 11.5202 1165 103.948 421.932 453.884
1770 0 104.193 11.5363 1202 104.388 421.781 452.239
1771 0 107.144 11.8159 1266 104.186 422.199 449.335
1772 1 57.0965 10.2108 583 99.331 422.738 477.581
1773 0 58.1436 10.7148 623 109.541 421.835 472.295
1774 0 59.0387 9.72244 574 110.49 423.042 473.038
1775 0 60.06 9.52381 572 111.633 423.047 468.691
1776 0 63.144 10.2781 649 108.442 422.584 469.458
1777 0 65.0602 10.913 710 106.525 422.776 466.91
1778 0 68.0432 10.2435 697 107.591 422.933 467.471
1779 0 69.0472 10.9635 757 106.193 422.741 466.939
1780 0 71.0638 10.2725 730 108.285 422.788 464.13
1781 0 76.1104 11.4176 869 105.109 422.002 462.371
1782 0 80.1924 11.1856 897 103.953 422.766 461.427
1783 0 83.1942 11.6835 972 103.44 422.401 458.745
1784 0 84.1946 10.9508 922 104.421 423.034 461.352
1785 0 89.0925 11.2916 1006 105.254 422.949 456.522
1786 0 91.1361 11.4664 1045 103.1 422.622 459.204
1787 0 96.2032 11.7772 1133 102.432 422.035 456.899
1788 0 98.3258 11.0958 1091 104.57 422.297 453.754
1789 1 53.1188 9.50699 505 95.6317 423.032 477.277
1790 0 56.2992 10.2133 575 94.3844 422.657 477.097
1791 0 59.1141 11.5878 685 96.0146 423.455 478.727
1792 0 59.0608 11.2088 662 97.9758 423.634 477.026
1793 0 62.056 11.9569 742 96.2507 423.084 476.326
1794 0 61.0306 11.9121 727 98.4016 423.132 476.411
1795 0 66.222 11.4916 761 97.7806 422.623 477.262
1796 0 67.1347 11.5142 773 99.0091 422.842 473.995
1797 0 69.0939 11.5205 796 99.2035 423.318 474.187
1798 0 72.1427 11.3941 822 99.68 422.897 474.251
1799 0 74.1617 12.2975 912 98.2993 423.866 472.606
1800 0 77.3282 11.4318 884 100.631 423.228 470.994
1801 0 79.051 11.7646 930 100.288 423.195 472.42
1802 0 83.1228 12.9086 1073 99.0857 422.963 469.626
1803 0 85.0767 12.4241 1057 101.857 423.321 466.01
1804 0 89.1989 12.3544 1102 101.879 424.071 466.474
1805 0 92.1946 11.5083 1061 103.822 423.668 465.197
1806 0 95.1017 12.4814 1187 104.272 424.091 461.797
1807 0 99.1279 12.5696 1246 104.377 424.315 460.79
1808 1 51.0496 10.8718 555 107.441 424.753 483.232
1809 0 52.0307 10.8974 567 107.362 424.115 483.138
1810 0 56.0478 13.4349 753 99.7132 423.829 482.158
1811 0 58.0785 13.0341 757 99.9168 424.848 479.884
1812 0 60.1011 12.1795 732 101.891 424.496 482.462
1813 0 59.1267 11.1625 660 105.991 424.198 484.112
1814 0 61.0917 12.1948 745 107.621 423.379 478.82
1815 0 62.0851 12.8855 800 107.436 423.604 477.405
1816 0 64.039 12.1957 781 108.2 424.013 479.347
1817 0 65.0904 11.0769 721 112.842 423.456 477.87
1818 0 69.0941 13.6481 943 106.38 423.774 475.67
1819 0 70.1136 11.8379 830 112.164 424.348 474.441
1820 0 74.1126 12.7509 945 109.408 423.625 472.47
1821 0 76.1936 11.5495 880 114.002 423.925 471.855
1822 0 79.1391 13.2299 1047 110.374 424.031 470.157
1823 0 80.067 12.1773 975 113.613 423.593 470.425
1824 0 81.1514 11.5217 935 117.082 423.43 468.434
1825 0 84.1724 11.6903 984 117.482 424.106 465.725
1826 0 90.0769 13.3775 1205 112.886 424.399 466.012
1827 0 94.0905 13.8165 1300 111.438 424.333 464.095
1828 0 94.2507 11.6816 1101 117.808 423.226 465.458
1829 0 98.1374 12.4621 1223 116.678 423.409 462.998
1830 0 100.233 12.6305 1266 118.037 423.521 461.108
1831 0 104.15 12.386 1290 123.25 423.308 460.13
1832 1 56.0836 11.1084 623 123.294 423.695 477.194
1833 0 58.0437 11.4397 664 118.158 423.56 473.5
1834 0 58.0831 10.2956 598 112.1 421.781 478.657
1835 0 63.0963 12.9326 816 113.852 421.487 480.245
1836 0 63.064 12.638 797 117.267 420.609 476.624
1837 0 64.1113 11.3708 729 119.187 421.337 477.922
1838 0 70.089 12.5127 877 115.865 421.136 475.757
1839 0 71.0981 12.096 860 116.788 420.708 476.302
1840 0 73.1471 12.386 906 116.445 420.642 474.462
1841 0 75.141 12.9357 972 115.786 420.828 472.24
1842 0 77.1528 13.1039 1011 116.125 421.246 470.322
1843 0 81.1452 13.3095 1080 113.803 421.152 471.628
1844 0 82.1045 12.9713 1065 115.827 420.844 469.226
1845 0 86.2205 13.4191 1157 114.337 421.269 467.847
1846 0 89.0967 12.5482 1118 115.936 421.39 466.7
1847 0 91.187 13.8178 1260 113.001 421.383 465.702
1848 0 94.1697 13.2527 1248 114.436 422.188 464.128
1849 0 92.1175 12.6686 1167 116.8 422.017 462.928
1850 0 100.106 12.9863 1300 114.871 421.722 459.91
1851 0 101.178 12.4039 1255 117.813 421.09 458.386
1852 0 105.311 11.7652 1239 120.201 422.305 454.599
1853 0 108.299 11.6898 1266 117.806 421.669 452.836
1854 1 62.1535 10.5545 656 116.16 421.912 474.518
1855 0 62.158 10.0872 627 118.652 422.391 473.108
1856 0 64.1386 11.3504 728 115.357 421.702 470.522
1857 0 68.1448 11.6076 791 100.214 421.818 469.15
1858 0 69.0587 11.0341 762 102.415 422.636 468.559
1859 0 73.0388 8.84462 646 105.639 422.724 464.322
1860 0 76.1637 11.3046 861 100.35 422.316 465.408
1861 0 79.2216 12.1305 961 99.1623 422.012 465.197
1862 0 81.162 13.1835 1070 97.6589 422.047 462.107
1863 0 82.1728 11.2203 922 102.43 422.065 461.272
1864 0 87.201 12.282 1071 100.221 422.325 460.657
1865 0 91.2696 11.7345 1071 101.244 423.042 458.991
1866 0 93.2918 12.1447 1133 101.487 422.367 455.895
1867 0 95.2685 12.7954 1219 100.947 422.6 454.053
1868 0 99.1999 12.1673 1207 102.228 423.164 455.03
1869 0 102.197 11.3604 1161 105.283 422.264 450.286
1870 0 106.252 12.0091 1276 104.293 421.789 449.987
1871 0 110.29 13.5461 1494 100.995 422.333 447.846
1872 0 112.229 11.6547 1308 104.38 422.68 443.973
1873 0 113.199 11.5461 1307 106.816 422.103 443.307
1874 0 119.262 13.2566 1581 102.877 422.123 444.362
1875 0 125.256 13.2289 1657 102.494 422.019 441.987
1876 1 66.38 9.00873 598 103.214 422.104 471.445
1877 0 68.1757 10.6196 724 110.177 420.982 464.742
1878 0 71.0779 9.82021 698 102.213 423.211 470.365
1879 0 76.1506 11.8581 903 97.7121 422.738 468.128
1880 0 80.0934 11.2868 904 98.9159 422.726 468.246
1881 0 80.1947 10.6366 853 101.755 422.423 467.584
1882 0 83.1718 12.0474 1002 99.504 422.462 463.891
1883 0 88.18 13.2797 1171 96.8446 422.256 463.197
1884 0 92.1787 13.4955 1244 96.5169 422.924 462.234
1885 0 93.1342 12.5518 1169 100.618 422.615 458.553
1886 0 98.2152 13.2973 1306 98.7266 422.387 459.245
1887 0 99.1426 12.7695 1266 101.385 422.823 457.324
1888 0 102.252 12.7234 1301 101.531 422.071 457.802
1889 0 106.096 12.3002 1305 104.009 422.022 454.295
1890 0 108.191 12.7275 1377 103.894 421.908 453.637
1891 0 113.24 12.0099 1360 105.235 422.917 453.297
1892 0 116.392 12.9992 1513 105.282 422.208 449.379
1893 0 120.196 13.2866 1597 105.345 421.915 447.431
1894 0 123.164 11.6917 1440 109.766 421.862 441.969
1895 1 66.2582 10.2478 679 104.652 422.918 471.517
1896 0 69.2165 11.529 798 104.516 423.064 474.169
1897 0 73.1022 12.1474 888 102.873 422.638 473.135
1898 0 77.0424 12.3049 948 101.3 423.487 472.208
1899 0 79.2803 13.0171 1032 99.7984 423.171 471.919
1900 0 79.2981 11.7405 931 103.643 422.823 469.986
1901 0 84.2791 11.6043 978 100.499 422.336 467.217
1902 0 85.198 11.3735 969 101.707 422.334 465.731
1903 0 89.2368 12.4276 1109 99.6582 422.083 464.372
1904 0 90.2644 12.1864 1100 101.691 422.764 460.505
1905 0 94.3218 12.0969 1141 101.918 422.81 461.097
1906 0 95.1998 11.7542 1119 103.047 422.45 460.057
1907 0 98.1708 11.7958 1158 102.638 422.346 460.211
1908 0 100.585 11.4332 1150 103.794 422.753 457.605
1909 0 102.305 10.801 1105 105.706 422.951 454.107
1910 0 106.294 11.1766 1188 105.779 422.803 449.194
1911 0 108.291 10.518 1139 108.408 422.068 452.108
1912 0 112.339 10.5484 1185 110.989 422.245 450.52
1913 0 117.44 12.2275 1436 113.203 421.757 450.438
1914 0 121.472 12.5214 1521 111.915 422.446 449.322
1915 1 66.2807 11.572 767 104.081 422.25 474.142
1916 0 70.3119 13.8099 971 98.8136 422.444 469.527
1917 0 71.278 11.5744 825 102.458 422.514 469.952
1918 0 73.2983 13.5474 993 97.7382 422.995 472.247
1919 0 74.3262 12.5662 934 100.982 422.414 470.466
1920 0 74.2065 13.0986 972 101.1 422.846 469.568
1921 0 79.301 12.1562 964 102.618 422.345 467.058
1922 0 82.225 11.9428 982 103.153 422.167 467.867
1923 0 84.1116 12.3526 1039 102.154 422.497 465.351
1924 0 88.2149 12.3108 1086 101.625 422.501 466.368
1925 0 89.1746 12.2456 1092 102.44 422.694 462.067
1926 0 91.1556 12.0453 1098 103.959 422.945 460.593
1927 0 93.2014 12.0384 1122 104.079 422.906 461.652
1928 0 99.0917 13.5026 1338 101.103 423.273 459.454
1929 0 100.19 13.5742 1360 102.522 423.129 456.347
1930 0 104.14 13.1361 1368 104.465 422.858 455.76
1931 0 107.217 12.1622 1304 106.847 423.133 450.797
1932 0 110.115 12.8411 1414 109.526 423.436 450.023
1933 1 60.0406 10.2597 616 114.734 423.617 473.992
1934 0 64.0426 11.5392 739 110.543 423.839 473.689
1935 0 63.1601 11.1938 707 116.124 423.67 469.096
1936 0 68.0434 10.846 738 115.512 423.659 467.692
1937 0 69.0288 12.6034 870 112.748 423.648 466.223
1938 0 71.0419 12.1478 863 113.706 423.454 469.703
1939 0 74.0712 12.38 917 114.224 422.902 466.599
1940 0 76.092 12.5374 954 113.889 423.157 466.784
1941 0 78.0347 12.0075 937 115.988 422.747 464.39
1942 0 80.1076 12.0588 966 117.684 422.751 460.709
1943 0 82.039 11.397 935 119.237 422.604 461.493
1944 0 82.0412 12.2621 1006 119.397 423.024 457.515
1945 0 86.042 13.877 1194 113.456 423.016 457.728
1946 0 89.1538 12.5513 1119 117.076 422.676 458.399
1947 0 90.2363 13.0768 1180 116.926 422.717 453.992
1948 0 93.0866 13.0201 1212 118.169 422.643 453.2
1949 0 98.2183 12.7777 1255 119.756 421.432 449.24
1950 0 98.1099 13.4951 1324 119.315 420.982 447.678
1951 0 102.184 12.8005 1308 114.85 422.465 447.542
1952 1 53.1319 9.82461 522 122.232 422.485 470.762
1953 0 55.1924 12.3024 679 118.714 421.919 469.186
1954 0 60.1171 11.594 697 118.298 422.02 469.679
1955 0 62.0904 11.3061 702 121.098 422.866 475.446
1956 0 66.1358 12.187 806 120.088 423.604 474.524
1957 0 66.1093 11.4961 760 123.258 424.036 472.367
1958 0 71.2373 13.5744 967 116.854 424.124 471.941
1959 0 74.1093 13.6555 1012 117.046 423.238 472.934
1960 0 76.1135 12.9412 985 120.207 423.142 470.159
1961 0 78.1019 14.5323 1135 117.645 423.073 467.609
1962 0 80.1969 12.7561 1023 122.32 422.694 468.424
1963 0 85.1886 13.8634 1181 118.992 422.752 465.671
1964 0 87.2464 13.8229 1206 118.368 422.474 464.192
1965 0 89.2101 13.3393 1190 120.879 423.08 460.895
1966 0 92.2571 12.9313 1193 120.864 423.556 461.887
1967 0 97.2096 13.476 1310 118.776 423.252 461.878
1968 0 97.0735 13.8761 1347 120.405 423.151 456.72
1969 1 54.0334 10.3084 557 117.338 424.127 481.02
1970 0 57.1625 11.651 666 113.302 424.138 479.498
1971 0 59.1969 11.183 662 104.784 423.166 475.974
1972 0 60.1815 11.8309 712 106.795 422.621 473.758
1973 0 61.2899 10.7685 660 108.452 422.705 475.297
1974 0 64.1905 10.8895 699 109.322 422.383 474.592
1975 0 67.1779 11.998 806 107.366 421.788 473.623
1976 0 68.1406 12.4742 850 106.284 421.495 472.672
1977 0 71.1062 12.0665 858 107.754 421.772 470.902
1978 0 72.1505 13.2362 955 105.752 421.962 470.798
1979 0 75.2174 11.9254 897 108.729 422.252 468.466
1980 0 77.174 13.191 1018 106.025 422.715 468.511
1981 0 80.2004 12.6309 1013 108.409 422.019 466.326
1982 0 83.1927 11.8159 983 109.573 422.067 465.609
1983 0 82.0905 11.268 925 111.692 421.676 464.979
1984 0 88.1392 12.1172 1068 108.115 421.31 463.105
1985 0 91.0871 12.8558 1171 106.978 421.544 461.871
1986 0 92.2641 11.608 1071 109.15 422.983 462.29
1987 0 96.217 13.1058 1261 106.138 422.856 458.009
1988 0 100.117 12.2456 1226 110.081 421.906 456.667
1989 1 56.0588 11.7912 661 104.306 423.415 480.716
1990 0 58.1989 9.70809 565 110.391 424.244 478.278
1991 0 61.1278 10.9279 668 107.585 423.633 477.449
1992 0 64.0312 12.0098 769 104.826 422.902 476.919
1993 0 66.1564 11.6844 773 104.481 423.288 475.62
1994 0 68.0983 10.9548 746 107.192 423.273 477.292
1995 0 66.1017 10.499 694 110.032 423.745 474.22
1996 0 69.1723 11.2184 776 109.186 423.207 472.635
1997 0 71.1691 10.0184 713 112.192 423.112 472.752
1998 0 75.1835 11.9707 900 107.38 423.617 472.561
1999 0 79.1345 10.9687 868 110.502 423.948 469.806
2000 0 81.1158 12.3157 999 108.958 423.767 468.34
2001 0 83.1231 12.3191 1024 109.645 423.566 466.978
2002 0 88.101 12.8035 1128 108.85 423.774 466.105
2003 0 88.1778 11.2613 993 112.92 423.709 466.683
2004 0 91.2091 11.808 1077 113.561 422.756 461.092
2005 0 95.3174 11.9915 1143 113.5 423.145 462.496
2006 0 98.2199 12.1462 1193 113.481 422.128 460.962
2007 0 102.425 12.8387 1315 112.424 422.805 458.041
2008 0 102.143 10.9259 1116 117.922 422.944 457.553
2009 0 107.181 12.2597 1314 115.174 423.718 453.83
2010 0 111.33 12.3687 1377 113.859 423.03 453.211
2011 0 114.213 11.4172 1304 114.896 422.567 447.146
2012 0 119.152 12.1609 1449 115.682 423.395 449.679
2013 0 121.298 12.1437 1473 115.957 422.555 446.629
2014 0 125.227 11.6348 1457 117.012 422.2 443.747
2015 0 131.202 12.3245 1617 115.417 422.863 443.413
2016 1 65.0566 11.8512 771 113.061 423.732 472.912
2017 0 69.375 10.9982 763 110.212 422.785 470.195
2018 0 71.2006 10.9971 783 108.789 423.404 471.798
2019 0 73.1379 11.2254 821 111.776 423.356 470.778
2020 0 75.1174 12.0212 903 110.198 422.863 469.099
2021 0 79.068 11.5091 910 110.733 422.877 468.698
2022 0 80.1426 10.7434 861 114.072 422.265 465.972
2023 0 83.3083 11.0433 920 112.298 422.377 466.397
2024 0 86.3748 12.8047 1106 107.93 423.145 466.178
2025 0 87.2641 11.8835 1037 113.359 422.96 462.623
2026 0 91.0767 12.1875 1110 110.755 422.794 462.89
2027 0 95.168 11.6951 1113 111.991 422.652 461.246
2028 0 96.1632 11.6573 1121 113.329 422.989 460.511
2029 0 101.269 11.8891 1204 112.623 423.166 459.993
2030 0 104.253 12.5177 1305 110.941 423.083 456.31
2031 0 105.353 11.3523 1196 111.713 422.748 454.396
2032 0 111.224 12.7851 1422 108.262 422.506 454.339
2033 0 113.279 11.0171 1248 112.938 422.249 452.149
2034 0 116.151 11.8639 1378 112.386 422.339 450.337
2035 0 122.24 11.9192 1457 114.873 422.439 448.238
2036 1 69.2078 11.3282 784 106.676 422.522 476.152
2037 0 70.3942 11.1373 784 107.092 422.106 474.756
2038 0 75.1792 12.5567 944 103.012 422.92 471.835
2039 0 76.1834 11.3804 867 108.418 423.076 469.369
2040 0 79.2196 11.8657 940 108.159 423.286 469.343
2041 0 81.2549 12.7992 1040 107.462 423.156 465.795
2042 0 82.2435 11.9037 979 111.266 422.88 467.043
2043 0 85.2073 12.3698 1054 111.662 422.509 463.096
2044 0 89.165 12.2694 1094 112.68 422.037 462.65
2045 0 93.2154 12.4336 1159 113.481 421.618 460.207
2046 0 95.2548 12.0834 1151 117.826 421.571 460.394
2047 0 98.1992 12.5561 1233 117.994 422.081 458.636
2048 0 98.2186 12.6554 1243 119.998 421.716 453.541
2049 0 104.261 13.0634 1362 116.971 422.957 456.082
2050 0 107.256 13.519 1450 117.426 422.543 453.939
2051 0 110.182 11.5536 1273 123.231 423.054 450.666
2052 0 114.254 14.284 1632 116.21 422.672 450.014
2053 0 117.306 12.2159 1433 120.853 423.416 450.721
2054 0 122.247 13.1619 1609 119.726 423.57 447.984
2055 0 125.231 11.9299 1494 123.649 423.337 446.635
2056 0 130.268 13.3263 1736 121.131 422.995 444.327
2057 1 70.2212 9.92577 697 116.996 423.075 473.148
2058 0 72.1024 12.1078 873 112.22 422.33 469.151
2059 0 76.1072 12.8897 981 110.401 422.463 468.381
2060 0 79.2061 12.1203 960 111.344 422.447 468.238
2061 0 79.1321 10.8679 860 115.951 422.742 466.151
2062 0 83.1975 11.3104 941 115.825 423.066 464.582
2063 0 87.2026 11.4561 999 115.346 423.009 464.167
2064 0 86.1359 10.8201 932 118.391 422.842 460.869
2065 0 92.2676 11.6834 1078 115.582 423.076 460.869
2066 0 94.3344 11.7772 1111 116.193 422.389 457.237
2067 0 98.2223 12.3394 1212 114.088 422.844 458.523
2068 0 99.324 11.7696 1169 116.484 422.68 455.925
2069 0 104.235 13.3257 1389 113.256 422.12 453.874
2070 1 56.2307 9.72777 547 112.066 422.742 477.726
2071 0 58.2159 10.7702 627 109.974 422.64 476.818
2072 0 61.0901 10.951 669 109.214 423.345 476.419
2073 0 62.1514 11.6651 725 115.201 423.717 475.701
2074 0 64.0364 13.2268 847 108.8 423.88 475.009
2075 0 66.0892 13.0127 860 110.466 424.381 474.178
2076 0 67.0795 13.0889 878 109.941 424.178 473.336
2077 0 67.1729 12.1924 819 113.929 423.184 471.267
2078 0 74.0459 12.7353 943 109.569 422.549 471.65
2079 0 73.1178 12.6918 928 110.752 422.752 469.266
2080 0 77.1416 11.5632 892 112.235 422.845 468.544
2081 0 80.112 12.9943 1041 109.458 422.701 466.065
2082 0 80.1233 12.1063 970 112.539 422.582 467.581
2083 0 84.1272 12.8139 1078 110.307 422.719 464.363
2084 0 88.2003 12.9138 1139 110.825 422.313 463.271
2085 0 88.1421 13.2173 1165 110.765 422.409 464.296
2086 0 91.1519 13.483 1229 111.247 421.494 460.674
2087 0 94.1372 12.0675 1136 118.547 421.998 459.659
2088 0 96.1998 12.1934 1173 119.041 421.697 456.538
2089 0 101.202 12.312 1246 114.89 421.992 457.485
2090 0 103.159 11.9524 1233 115.465 422.178 454.422
2091 0 108.223 12.4373 1346 112.144 422.04 454.27
2092 0 108.372 9.56892 1037 116.571 421.96 455.129
2093 0 114.216 11.6971 1336 114.127 421.721 448.222
2094 0 114.263 10.4671 1196 111.467 423.004 445.765
2095 0 119.14 11.0375 1315 111.301 422.989 445.106
2096 1 67.1476 11.0503 742 105.008 423.863 470.683
2097 0 70.1659 10.5322 739 106.767 423.61 470.691
2098 0 73.2749 11.8185 866 103.605 422.872 470.758
2099 0 75.143 11.9905 901 104.45 422.829 465.625
2100 0 77.0855 12.1424 936 106.735 420.764 467.996
2101 0 79.0825 12.3542 977 104.951 420.868 466.241
2102 0 81.079 12.5926 1021 104.991 420.378 465.654
2103 0 84.257 11.7854 993 107.196 420.569 465.168
2104 0 86.1499 12.2809 1058 106.485 420.81 462.306
2105 0 88.1107 11.6217 1024 108.314 420.528 464.798
2106 0 92.1436 12.589 1160 106.535 420.88 462.716
2107 0 96.1827 11.8421 1139 108.602 420.512 461.601
2108 0 97.1589 12.8552 1249 107.629 420.785 458.556
2109 0 99.1231 12.1768 1207 110.321 421.115 456.174
2110 0 104.089 12.9216 1345 108.744 420.919 454.571
2111 0 107.225 12.292 1318 110.633 420.439 454.262
2112 0 110.238 12.1011 1334 119.717 420.765 451.486
2113 0 113.121 12.995 1470 117.18 420.8 448
2114 0 119.289 12.2811 1465 117.642 421.025 448.097
2115 0 121.212 12.5483 1521 116.552 421.297 444.842
2116 0 124.241 10.8901 1353 111.829 420.458 445.538
2117 0 130.302 12.1334 1581 110.569 420.689 442.653
2118 1 74.1758 10.8526 805 109.873 420.986 470.532
2119 0 74.17 11.3119 839 110.193 420.337 468.459
2120 0 78.2064 13.5411 1059 104.349 420.607 468.555
2121 0 80.2801 12.1948 979 107.192 421.343 466.74
2122 0 82.264 11.6576 959 109.108 421.337 466.796
2123 0 85.2323 11.627 991 109.013 421.236 463.781
2124 0 86.3299 11.2128 968 110.067 421.644 464.87
2125 0 89.2557 12.3353 1101 108.024 421.391 461.375
2126 0 91.2777 11.0651 1010 111.939 420.563 460.235
2127 0 95.2738 12.8682 1226 107.865 421.33 458
2128 0 97.2826 11.297 1099 111.242 421.214 458.953
2129 0 100.355 12.3362 1238 110.369 420.825 454.893
2130 0 103.177 12.0472 1243 109.516 420.457 454.375
2131 0 106.237 10.7778 1145 111.756 420.168 455.975
2132 0 109.354 11.0284 1206 113.523 420.228 451.418
2133 0 110.41 9.84515 1087 116.867 420.678 446.171
2134 1 68.4646 11.6411 797 106.763 421.158 469.413
2135 0 67.1984 10.5509 709 99.9549 422.86 473.436
2136 0 69.2805 11.4895 796 99.4698 422.293 469.415
2137 0 70.2066 11.8507 832 104.543 420.45 472.498
2138 0 72.0874 11.3057 815 105.856 421.106 468.924
2139 0 74.1639 11.7982 875 104.195 420.874 466.865
2140 0 75.2329 12.0692 908 104.744 421.302 468.76
2141 0 77.1626 12.0654 931 106.535 420.728 465.06
2142 0 82.1667 13.3752 1099 102.008 420.698 466.888
2143 0 83.2955 13.146 1095 103.361 420.728 465.642
2144 0 86.2823 12.9459 1117 104.808 420.828 463.817
2145 0 89.5128 13.6517 1222 103.953 420.71 461.004
2146 0 90.5015 13.6904 1239 105.843 421.173 456.251
2147 0 94.3411 12.6138 1190 107.124 420.16 457.436
2148 0 94.5958 12.971 1227 108.259 420.76 453.376
2149 0 98.5335 13.2138 1302 108.004 420.52 453.888
2150 0 102.254 12.9775 1327 108.972 420.418 452.273
2151 0 101.136 12.2212 1236 112.956 420.007 448.366
2152 0 103.093 12.8718 1327 110.842 420.576 442.64
2153 0 107.22 13.2904 1425 110.61 420.828 440.364
2154 0 113.242 13.8377 1567 109.234 420.683 439.093
2155 1 60.169 8.90825 536 114.619 420.229 467.772
2156 0 63.1149 9.55401 603 113.002 421.622 469.013
2157 0 66.162 12.0008 794 109.5 421.254 467.722
2158 0 68.2269 10.8462 740 102.977 421.605 466.462
2159 0 68.1602 10.8568 740 104.511 421.447 466.832
2160 0 73.4197 10.978 806 104.625 421.151 464.419
2161 0 73.2805 9.94808 729 108.691 420.635 462.85
2162 0 81.2139 11.8822 965 103.31 420.927 464.104
2163 0 79.2218 12.1431 962 105.926 421.032 461.613
2164 0 84.1758 10.3593 872 109.279 420.993 460.194
2165 0 85.2759 10.7533 917 110.232 420.854 459.663
2166 0 90.2299 11.3045 1020 109.509 420.434 458.553
2167 0 93.1179 11.7163 1091 109.41 420.584 455.974
2168 0 95.2459 11.8955 1133 110.261 420.574 456.383
2169 0 97.1723 12.4727 1212 110.35 421.147 453.834
2170 0 103.239 12.3113 1271 110.333 421.009 454.63
2171 0 101.164 11.4171 1155 115.051 421.101 448.837
2172 0 109.14 12.2503 1337 113.461 420.729 451.335
2173 0 111.287 12.4543 1386 118.058 420.773 450.579
2174 0 118.236 13.0079 1538 115.586 421.789 449.275
2175 1 66.0836 11.7881 779 115.277 421.822 475.381
2176 0 68.2429 12.4555 850 115.848 420.585 474.4
2177 0 70.0645 13.616 954 110.843 420.075 472.748
2178 0 71.0786 13.3092 946 112.022 420.184 470.911
2179 0 73.0974 12.5312 916 114.539 420.168 470.359
2180 0 77.1248 14.2237 1097 109.69 420.129 469.924
2181 0 79.1079 13.766 1089 111.456 420.389 467.007
2182 0 81.0389 14.6349 1186 109.118 420.411 467.233
2183 0 83.0576 13.6291 1132 112.146 419.999 466.876
2184 0 87.0746 14.3211 1247 109.719 419.441 464.078
2185 0 90.0646 13.3238 1200 111.767 420.452 462.316
2186 0 91.0846 13.7894 1256 110.475 420.596 461.442
2187 0 95.1513 14.1039 1342 109.843 420.697 460.715
2188 0 98.1059 13.7301 1347 112.497 419.906 457.955
2189 0 102.185 13.3484 1364 114.362 419.847 457.57
2190 0 102.134 12.6011 1287 118.713 420.601 454.791
2191 1 59.0655 10.7508 635 119.079 419.822 477.408
2192 0 55.0446 10.8821 599 114.97 420.469 472.586
2193 0 59.1294 10.8745 643 115.109 421.465 471.617
2194 0 59.1377 9.63852 570 107.886 422.311 472.198
2195 0 60.1495 9.50964 572 106.135 422.344 474.096
2196 0 62.0527 8.70228 540 109.498 421.398 471.467
2197 0 63.1376 9.24963 584 110.548 421.539 466.877
2198 0 69.07 9.26596 640 109.938 421.398 466.608
2199 0 69.0368 10.8927 752 107.878 420.975 465.513
2200 0 69.0822 9.88677 683 110.524 421.463 463.066
2201 0 74.1008 11.2414 833 106.026 421.652 465.028
2202 0 76.136 10.9278 832 108.416 421.959 461.524
2203 0 79.104 9.48118 750 111.261 421.52 461.547
2204 0 82.1414 11.6506 957 106.731 421.731 461.425
2205 0 82.0799 10.9893 902 110.471 421.958 457.137
2206 0 89.1217 11.9836 1068 106.03 421.911 458.071
2207 0 87.1495 10.809 942 110.896 421.432 453.515
2208 0 92.1333 10.322 951 110.399 421.841 454.925
2209 0 94.1433 11.0257 1038 110.27 421.677 450.897
2210 0 99.2158 11.4699 1138 108.379 421.437 450.238
2211 0 99.1264 11.8031 1170 109.445 421.42 448.726
2212 0 105.127 11.5575 1215 109.789 420.574 446.567
2213 1 56.1409 9.28022 521 108.516 420.812 470.587
2214 0 56.1065 10.7118 601 114.512 419.904 471.251
2215 0 60.1874 11.0156 663 116.754 420.293 468.67
2216 0 63.062 10.5769 667 104.765 421.289 471.76
2217 0 62.2448 10.1374 631 108.257 421.867 467.385
2218 0 67.1002 10.5812 710 105.865 421.718 469.532
2219 0 66.1651 11.1841 740 106.434 421.831 467.909
2220 0 68.136 11.2129 764 107.801 421.899 463.639
2221 0 72.0969 11.3458 818 107.169 421.248 462.829
2222 0 73.25 10.471 767 109.395 421.478 460.306
2223 0 71.0986 9.46573 673 113.062 421.432 459.042
2224 0 78.1429 11.0183 861 109.657 421 458.374
2225 0 82.234 11.1146 914 110.481 421.081 458.015
2226 0 84.1533 11.586 975 109.667 421.663 458.028
2227 0 85.2452 10.8862 928 112.052 420.911 455.217
2228 0 90.2101 11.7282 1058 109.898 421.102 457.7
2229 0 89.243 13.0654 1166 109.786 420.835 453.298
2230 0 95.2223 12.119 1154 110.653 420.951 453.323
2231 0 95.1829 11.4306 1088 114.219 421.386 449.849
2232 0 99.0925 11.4136 1131 113.336 421.427 452.647
2233 1 57.057 9.16628 523 107.052 422.545 474.359
2234 0 55.0662 9.96982 549 105.787 420.925 469.35
2235 0 58.1223 10.822 629 103.941 422.262 470.56
2236 0 59.1258 8.93011 528 105.682 422.044 472.523
2237 0 62.1362 11.1207 691 100.237 421.803 473.414
2238 0 62.0533 10.3621 643 103.114 422.314 468.88
2239 0 61.1108 7.52731 460 105.802 421.454 470.167
2240 0 66.0735 10.0646 665 100.684 420.832 469.377
2241 0 69.3087 9.82561 681 100.921 419.361 467.821
2242 0 70.1274 10.4239 731 100.272 420.897 464.969
2243 0 73.0977 8.91958 652 102.27 421.179 461.081
2244 0 78.3232 9.5374 747 100.42 420.55 464.004
2245 0 78.1493 8.9956 703 101.871 420.033 460.905
2246 0 81.1032 9.27214 752 100.779 420.253 463.125
2247 0 83.2325 8.69853 724 101.898 420.872 458.449
2248 0 88.1874 10.6705 941 99.0106 420.899 453.273
2249 0 88.249 9.81314 866 99.3557 421.229 457.677
2250 0 89.3294 8.65336 773 102.291 420.871 452.734
2251 0 97.4225 10.6444 1037 97.702 421.093 449.039
2252 0 103.193 10.5337 1087 99.3671 420.267 453.856
2253 0 103.334 8.17735 845 103.586 420.666 454.138
2254 0 108.214 10.507 1137 104.284 419.813 448.446
2255 1 61.0175 10.161 620 98.5177 421.166 474.218
2256 0 64.1125 10.9807 704 97.6108 420.467 472.361
2257 0 67.1292 10.7852 724 97.3784 420.314 473.533
2258 0 68.2293 10.8018 737 98.3134 420.041 474.571
2259 0 74.1988 11.5096 854 96.9227 420.427 471.301
2260 0 77.0716 10.9638 845 97.374 420.355 473.518
2261 0 77.1907 12.5533 969 95.9587 419.901 469.698
2262 0 81.134 11.4748 931 97.0022 419.825 472.12
2263 0 82.1126 11.6182 954 97.7495 419.865 470.929
2264 0 87.1254 11.7532 1024 98.5283 419.661 471.137
2265 0 87.2865 11.2618 983 101.243 419.504 469.688
2266 0 90.2623 11.2228 1013 102.304 418.81 467.331
2267 0 94.1994 11.2315 1058 102.572 418.335 465.314
2268 0 97.1274 11.7886 1145 102.163 417.927 468.981
2269 0 102.18 9.35605 956 107.498 418.269 470.75
2270 0 102.21 10.3415 1057 107.244 419.021 466.249
2271 1 55.13 10.4117 574 101.469 419.364 490.167
2272 0 58.096 10.4482 607 100.4 419.868 489.595
2273 0 59.1962 10.9635 649 99.9183 419.109 487.556
2274 0 60.1536 10.4233 627 100.021 417.919 481.419
2275 0 58.0185 9.87616 573 100.489 416.726 482.49
2276 0 66.1149 10.996 727 100.739 416.048 485.901
2277 0 69.1136 12.2263 845 97.9266 415.721 484.198
2278 0 71.1065 10.9413 778 101.396 415.314 482.226
2279 0 71.2401 11.5244 821 101.549 415.465 480.368
2280 0 75.1116 12.1419 912 99.386 415.478 476.985
2281 0 78.1951 13.3896 1047 96.5138 414.907 477.11
2282 0 78.0668 12.1819 951 99.4995 414.976 478.073
2283 0 82.1349 11.7733 967 98.7497 414.66 476.661
2284 0 83.1063 12.1411 1009 99.6472 414.764 473.691
2285 0 88.1271 13.3784 1179 97.1128 414.941 471.146
2286 0 88.2274 11.4137 1007 102.222 414.969 470.294
2287 0 93.2336 12.3024 1147 100.694 414.664 467.16
2288 0 95.1507 12.2648 1167 101.248 413.486 467.825
2289 0 97.1105 10.9257 1061 104.023 413.719 468.814
2290 0 98.1792 11.8661 1165 103.594 414.603 465.991
2291 0 102.106 12.0463 1230 103.536 414.336 467.846
2292 0 105.289 11.7866 1241 104.855 414.214 468.925
2293 0 111.248 13.5823 1511 103.474 415.111 464.979
2294 0 115.21 11.9868 1381 106.958 414.399 464.243
2295 0 119.24 10.8353 1292 110.764 414.773 454.129
2296 1 64.1168 10.746 689 100.295 415.868 489.665
2297 0 66.0436 12.2798 811 96.9667 416.104 488.425
2298 0 67.1148 10.5938 711 100.156 415.364 485.062
2299 0 68.1085 10.4392 711 100.34 415.294 484.498
2300 0 71.1672 11.2552 801 98.4008 415.211 481.517
2301 0 76.1241 10.5617 804 98.291 415.175 479.637
2302 0 78.127 11.2509 879 97.025 414.894 479.813
2303 0 81.1037 11.7134 950 95.761 414.737 478.304
2304 0 81.1101 9.90013 803 99.2951 414.453 473.986
2305 0 86.1074 10.394 895 97.7386 415.039 474.505
2306 0 89.1027 12.5698 1120 93.6688 414.962 474.504
2307 0 92.1787 11.4343 1054 96.3624 414.965 471.35
2308 0 95.1221 11.1436 1060 96.7943 414.263 470.919
2309 0 97.1473 11.148 1083 97.2862 413.838 468.228
2310 0 101.107 11.3444 1147 96.884 413.417 465.79
2311 0 102.159 11.6582 1191 96.4005 413.893 463.666
2312 0 104.045 10.2936 1071 99.366 414.92 463.873
2313 0 109.12 9.71409 1060 99.3368 415.534 462.767
2314 0 112.208 11.4253 1282 97.1872 414.824 460.995
2315 0 113.258 9.86241 1117 100.531 415.146 459.857
2316 0 120.138 10.6128 1275 99.382 414.467 457.852
2317 1 64.1136 9.52997 611 99.0753 415.046 487.344
2318 0 67.0921 12.4605 836 98.6208 415.282 484.673
2319 0 69.2794 12.2114 846 100.806 415.145 482.526
2320 0 71.111 11.5172 819 102.205 416.399 481.309
2321 0 74.0989 12.4023 919 102.551 416.196 479.818
2322 0 77.0461 13.2388 1020 100.982 416.627 477.963
2323 0 77.1381 12.3674 954 104.764 416.775 478.883
2324 0 81.0702 11.2372 911 106.978 416.948 479.094
2325 0 82.1345 12.8813 1058 105.121 417.061 476.606
2326 0 85.119 13.2285 1126 105.3 417.495 473.918
2327 0 89.095 14.03 1250 103.371 416.689 475.04
2328 0 92.12 13.3739 1232 106.237 416.623 473.854
2329 0 94.0769 14.35 1350 104.55 416.816 471.95
2330 0 96.1658 14.3086 1376 104.927 416.565 467.306
2331 0 98.3212 12.9982 1278 109.145 417.307 466.962
2332 0 100.189 13.0254 1305 108.175 417.226 466.018
2333 0 104.207 13.4732 1404 106.902 414.821 468.144
2334 0 106.145 13.3968 1422 110.114 415.595 465.079
2335 0 109.101 13.5104 1474 110.715 414.717 463.613
2336 0 114.229 14.9174 1704 107.655 414.845 461.347
2337 0 119.14 15.6539 1865 105.973 414.692 458.807
2338 0 120.241 15.0947 1815 109.669 414.481 455.477
2339 0 122.193 14.8945 1820 111.724 414.551 454.821
2340 0 122.136 12.0194 1468 120.426 414.854 451.171
2341 0 128.227 13.671 1753 116.188 416.136 451.466
2342 0 131.16 11.871 1557 120.98 416.484 448.483
2343 0 138.181 13.0771 1807 118.384 416.923 446.504
2344 0 140.187 13.3108 1866 119.64 417.298 443.719
2345 0 145.271 12.7692 1855 120.653 416.03 442.1
2346 1 79.1101 11.9833 948 117.539 415.595 472.216
2347 0 78.1361 12.5038 977 105.15 417.197 467.496
2348 0 79.0975 10.544 834 108.261 417.347 465.348
2349 0 82.0832 11.1107 912 108.423 416.719 463.772
2350 0 87.1485 11.119 969 108.255 417.461 463.088
2351 0 87.1106 11.3075 985 109.298 417.613 461.194
2352 0 90.1596 11.4796 1035 110.029 417.406 457.743
2353 0 94.1604 11.2892 1063 110.158 418.133 456.002
2354 0 94.2002 11.9851 1129 109.961 418.548 453.238
2355 0 100.16 12.0707 1209 108.771 418.363 455.072
2356 0 103.143 12.6717 1307 107.653 418.396 452.747
2357 0 103.157 11.3128 1167 112.819 417.731 448.111
2358 0 107.144 12.0586 1292 110.269 418.101 450.928
2359 0 108.226 11.0694 1198 113.307 418.825 449.523
2360 0 112.287 12.1207 1361 112.074 418.536 444.441
2361 0 115.203 10.8938 1255 113.498 418.532 445.388
2362 0 119.184 12.0319 1434 111.801 417.833 442.317
2363 0 122.331 12.0492 1474 111.892 418.326 441.72
2364 0 126.191 12.1324 1531 112.7 418.248 439.553
2365 0 128.227 11.4875 1473 115.862 417.993 437.415
2366 0 134.33 12.4619 1674 113.09 418.174 434.428
2367 0 137.235 11.9503 1640 115.138 418.511 433.096
2368 0 143.232 12.567 1800 113.416 418.483 431.094
2369 0 148.346 12.3225 1828 115.883 418.22 428.674
2370 0 154.224 12.5013 1928 114.6 417.993 427.123
2371 0 161.318 14.1584 2284 114.757 417.397 423.876
2372 1 96.1895 13.0784 1258 110.716 417.518 456.799
2373 0 98.3514 12.6892 1248 112.224 418.12 456.405
2374 0 98.1149 12.6892 1245 114.086 417.764 457.896
2375 0 104.18 13.2655 1382 111.614 418.13 455.674
2376 0 106.069 13.3875 1420 111.908 417.816 454.969
2377 0 110.232 12.3648 1363 115.287 417.701 452.147
2378 0 115.283 13.3498 1539 111.916 417.886 451.383
2379 0 117.204 13.3528 1565 112.288 417.939 450.958
2380 0 120.128 12.5533 1508 113.918 417.861 450.952
2381 0 120.307 12.9502 1558 115.431 417.887 444.288
2382 0 123.241 11.2057 1381 118.087 418.572 446.467
2383 0 128.342 12.155 1560 115.003 418.644 440.308
2384 0 131.217 11.5076 1510 116.375 418.973 440.356
2385 0 138.467 12.9562 1794 113.292 418.665 434.63
2386 0 141.288 11.7419 1659 116.285 418.971 432.043
2387 0 146.567 12.3083 1804 114.706 419.613 428.868
2388 0 148.286 10.4123 1544 117.118 419.587 427.875
2389 0 154.337 12.9004 1991 113.391 419.505 420.197
2390 1 91.2159 9.73514 888 114.307 419.066 453.618
2391 0 94.1768 11.6164 1094 110.212 418.654 449.316
2392 0 101.144 11.8346 1197 109.39 418.042 448.299
2393 0 105.366 12.765 1345 107.053 417.865 447.411
2394 0 106.158 11.709 1243 110.611 418.537 442.82
2395 0 109.513 11.3411 1242 111.724 418.878 441.167
2396 0 110.542 11.3984 1260 112.008 419.133 438.892
2397 0 118.418 13.4776 1596 104.713 419.006 440.326
2398 0 122.469 12.542 1536 107.268 418.849 436.99
2399 0 122.407 10.9716 1343 109.662 417.939 434.044
2400 0 126.242 12.6186 1593 106.265 418.742 435.244
2401 0 130.456 12.0041 1566 109.067 418.718 429.243
2402 0 133.487 13.0799 1746 105.683 418.353 432.903
2403 0 137.363 11.7062 1608 108.751 418.571 430.642
2404 0 142.38 11.5676 1647 108.801 419.08 423.554
2405 1 80.1929 6.5966 529 105.011 419.198 463.59
2406 0 82.1072 9.58503 787 103.229 420.46 461.936
2407 0 87.1735 10.003 872 98.1846 420.821 462.837
2408 0 90.1335 12.2041 1100 94.3464 420.344 463.202
2409 0 91.1648 10.9253 996 97.2139 420.869 461.015
2410 0 95.1682 11.0646 1053 98.3694 420.644 460.585
2411 0 98.1741 11.4287 1122 98.9581 419.983 455.912
2412 0 101.118 10.9476 1107 99.9648 420.296 457.988
2413 0 105.176 12.3507 1299 99.4049 420.883 455.794
2414 0 107.172 12.9977 1393 99.1816 420.67 451.905
2415 0 111.248 11.9912 1334 103.238 420.365 450.454
2416 0 115.178 11.6863 1346 107.889 420.042 448.777
2417 0 117.129 11.6368 1363 109.175 420.015 449.882
2418 0 120.19 11.3404 1363 109.961 420.07 447.84
2419 0 125.399 10.7497 1348 110.873 419.358 443.212
2420 0 129.156 12.4191 1604 107.978 418.646 442.874
2421 0 133.458 11.4418 1527 111.076 418.495 437.69
2422 0 137.489 11.9573 1644 109.577 418.705 438.675
2423 0 142.374 12.9448 1843 108.633 418.793 430.716
2424 0 148.4 12.1294 1800 109.875 418.782 431.771
2425 1 81.3439 11.1625 908 101.221 419.239 464.184
2426 0 85.2433 12.0244 1025 100.394 419.631 463.666
2427 0 86.1277 11.6803 1006 103.847 421.171 459.834
2428 0 88.1232 12.0513 1062 104.258 420.912 461.859
2429 0 93.1172 11.5553 1076 107.175 420.719 462.054
2430 0 92.1128 11.5402 1063 107.462 421.027 464.148
2431 0 98.1906 11.3453 1114 108.582 420.967 459.689
2432 0 98.2613 10.9708 1078 110.392 420.38 459.542
2433 0 101.147 10.5787 1070 112.937 420.012 456.993
2434 0 103.281 10.1761 1051 112.393 420.19 460.263
2435 0 103.213 10.5801 1092 113.125 419.914 459.194
2436 0 112.29 12.4142 1394 110.657 421.044 453.195
2437 0 116.197 12.0658 1402 113.119 420.346 450.379
2438 0 119.323 12.4619 1487 112.508 419.837 451.303
2439 0 122.267 11.4013 1394 116.135 420.306 447.839
2440 0 124.199 12.1981 1515 115.659 420.165 446.845
2441 0 130.335 11.9231 1554 116.56 420.051 443.551
2442 0 133.314 13.607 1814 114.233 420.414 445.249
2443 1 78.2053 11.1757 874 115.682 420.079 469.95
2444 0 79.208 12.3346 977 108.774 420.124 466.852
2445 0 81.163 11.1627 906 112.481 419.853 466.981
2446 0 82.1974 11.0466 908 115.602 420.021 465.684
2447 0 85.1526 11.8141 1006 113.468 419.956 466.967
2448 0 88.1943 11.9395 1053 113.822 419.975 464.678
2449 0 91.2253 12.6281 1152 112.905 419.859 463.015
2450 0 94.2157 12.5988 1187 113.857 420.168 458.88
2451 0 98.222 12.3699 1215 114.608 419.935 460.045
2452 0 101.313 12.95 1312 114.302 420.201 456.485
2453 0 103.266 12.5889 1300 116.976 420.032 454.192
2454 0 105.219 12.8304 1350 117.019 419.367 451.028
2455 0 109.355 12.8572 1406 116.613 420.392 448.088
2456 0 113.309 12.9469 1467 116.85 420.057 447.227
2457 0 115.325 12.5471 1447 118.573 420.133 443.034
2458 0 121.406 13.8955 1687 114.685 420.365 443.106
2459 1 67.1471 10.41 699 116.361 419.943 470.2
2460 0 70.1628 11.3735 798 116.494 419.376 469.471
2461 0 72.1242 11.8268 853 116.264 421.442 468.748
2462 0 72.1519 10.464 755 122.35 421.134 463.026
2463 0 77.1237 11.7863 909 117.47 421.881 463.913
2464 0 80.2844 11.9575 960 117.226 420.272 468.097
2465 0 82.1748 12.2665 1008 117.634 420.568 464.497
2466 0 85.3089 12.6833 1082 116.11 420.899 465.514
2467 0 87.2848 12.9232 1128 116.438 421.199 463.322
2468 0 90.188 13.3388 1203 115.586 421.275 461.664
2469 0 92.2068 14.1963 1309 114.953 421.054 458.287
2470 0 96.1828 13.5471 1303 115.226 421.474 459.618
2471 0 97.1688 12.4937 1214 118.101 421.177 457.279
2472 0 102.157 13.8806 1418 112.825 421.142 456.119
2473 0 103.168 12.3682 1276 117.184 421.406 454.037
2474 0 106.173 12.3572 1312 116.819 421.234 452.793
2475 0 109.17 13.3187 1454 113.064 420.823 453.519
2476 0 113.182 11.7951 1335 107.502 421.465 452.833
2477 0 115.177 11.6777 1345 109.538 420.805 450.77
2478 0 119.243 12.0846 1441 109.4 420.632 447.23
2479 0 123.201 12.9463 1595 108.442 420.633 444.791
2480 0 126.306 12.3747 1563 109.922 420.85 443.316
2481 0 132.315 12.0243 1591 110.487 420.453 442.71
2482 0 134.228 12.0988 1624 112.009 419.877 435.86
2483 0 139.358 13.0742 1822 109.465 420.133 437.58
2484 0 143.167 12.5867 1802 110.947 420.106 435.802
2485 0 148.216 12.4075 1839 114.439 419.852 431.996
2486 1 86.1886 11.7069 1009 110.32 419.867 463.264
2487 0 87.0322 13.1101 1141 108.204 421.116 459.89
2488 0 89.1903 11.4138 1018 114.273 420.191 460.921
2489 0 91.3116 12.1343 1108 106.663 420.473 460.378
2490 0 92.1336 9.44281 870 112.928 421.64 459.088
2491 0 96.1273 11.6304 1118 109.394 419.446 459.089
2492 0 101.146 12.22 1236 108.074 418.781 459.076
2493 0 101.2 12.3024 1245 109.902 418.988 456.056
2494 0 104.186 13.0632 1361 108.81 419.257 451.261
2495 0 107.201 11.8656 1272 111.123 419.612 451.995
2496 0 109.242 11.5249 1259 112.376 418.96 451.732
2497 0 114.155 12.8335 1465 107.582 419.109 450.058
2498 0 118.15 13.212 1561 108.589 419.325 449.69
2499 0 119.259 10.3388 1233 110.078 419.757 450.337
2500 0 124.23 10.3035 1280 108.589 420.301 444.65
2501 0 130.218 11.7956 1536 107.629 420.212 441.374
2502 0 135.202 11.8046 1596 108.831 420.481 440.413
2503 1 79.1433 11.2581 891 102.486 420.24 468.323
2504 0 79.222 11.0449 875 107.639 419.687 465.377
2505 0 83.3039 12.1843 1015 113.849 419.051 463.769
2506 0 84.1212 11.8044 993 116.82 419.07 461.686
2507 0 88.2728 12.1555 1073 116.118 419.337 461.997
2508 0 91.1916 12.3147 1123 115.958 420.186 460.304
2509 0 93.2922 12.3483 1152 117.258 419.983 457.997
2510 0 97.2193 12.909 1255 116.527 419.918 456.839
2511 0 100.29 12.4938 1253 118.117 420.137 454.159
2512 0 103.185 13.4225 1385 115.961 419.847 454.297
2513 0 106.213 13.407 1424 116.067 419.888 452.83
2514 0 109.25 13.6933 1496 116.756 420.124 450.379
2515 0 112.143 13.6968 1536 117.605 419.878 449.407
2516 0 114.155 12.2641 1400 122.469 420.269 447.311
2517 0 119.11 14.0627 1675 118.05 419.91 447.59
2518 0 121.178 12.9066 1564 122.558 419.934 445.259
2519 0 122.284 13.256 1621 123.362 419.956 441.999
2520 0 128.37 13.8584 1779 121.372 419.929 443.108
2521 0 132.315 12.629 1671 124.868 420.99 440.879
2522 0 136.341 12.2047 1664 127.122 420.529 436.177
2523 0 141.397 11.3864 1610 130.56 420.901 433.104
2524 0 146.268 13.2497 1938 125.792 419.895 434.18
2525 0 145.385 10.9846 1597 127.807 420.172 435.15
2526 0 154.4 11.6386 1797 126.494 420.715 430.241
2527 1 85.2669 12.2439 1044 122.395 420.565 460.354
2528 0 86.1335 11.8769 1023 124.691 419.674 460.892
2529 0 89.2528 11.9884 1070 124.284 420.906 459.283
2530 0 94.3216 13.0087 1227 121.48 421.092 458.756
2531 0 96.1621 12.9053 1241 123.037 419.747 456.871
2532 0 99.2065 12.8721 1277 123.178 420.933 453.809
2533 0 102.206 13.1499 1344 122.694 420.801 449.879
2534 0 105.208 12.7082 1337 123.358 420.781 449.28
2535 0 109.175 11.9807 1308 126.086 421.07 447.505
2536 0 112.174 12.3023 1380 123.421 422.226 448.333
2537 1 66.0405 10.6601 704 122.602 423.003 469.818
2538 0 68.1455 11.226 765 118.46 422.276 472.374
2539 0 67.0578 11.423 766 111.77 422.773 470.401
2540 0 71.0393 12.5423 891 109.814 422.632 469.533
2541 0 74.0457 11.8981 881 111.404 422.28 468.577
2542 0 73.0587 11.6482 851 113.007 422.722 465.689
2543 0 75.0796 13.1727 989 108.656 423.287 465.944
2544 0 76.0556 11.3996 867 114.39 423.12 464.503
2545 0 78.1315 11.1991 875 114.989 422.664 464.28
2546 0 82.0805 13.0725 1073 110.188 423.193 461.584
2547 0 84.2133 12.599 1061 112.142 422.653 461.743
2548 0 86.1121 12.8902 1110 111.597 422.497 459.231
2549 0 91.0885 13.0752 1191 111.093 423.202 458.141
2550 0 91.2037 12.5543 1145 113.548 422.783 457.502
2551 0 94.0766 11.5757 1089 116.776 422.74 456.472
2552 0 99.1499 13.2527 1314 112.107 422.999 454.602
2553 0 102.063 13.9718 1426 109.967 423.533 453.628
2554 0 104.083 12.9608 1349 112.384 423.145 453.084
2555 0 107.172 12.4939 1339 113.077 423.388 450.27
2556 0 110.108 12.0609 1328 113.037 422.891 449.298
2557 0 116.119 12.6249 1466 111.057 423.214 446.896
2558 1 62.0972 11.4176 709 113.312 423.433 471.027
2559 0 65.1798 12.0129 783 110.905 421.84 467.771
2560 0 69.0641 12.7563 881 107.163 420.389 470.569
2561 0 68.0584 11.6665 794 110.977 420.688 467.855
2562 0 70.0994 12.7533 894 108.445 420.635 470.129
2563 0 74.1442 13.3389 989 106.329 420.88 469.823
2564 0 76.161 12.618 961 109.245 420.882 467.426
2565 0 78.1303 13.2087 1032 108.707 420.505 465.098
2566 0 79.1501 11.8256 936 112.443 420.64 465.114
2567 0 81.1547 12.9752 1053 110.208 420.697 463.666
2568 0 84.1563 11.7995 993 113.654 420.381 459.753
2569 0 85.1678 12.2464 1043 113.57 420.365 459.365
2570 0 88.2702 13.7759 1216 110.232 421.039 457.155
2571 0 90.1645 13.4199 1210 111.643 421.341 457.622
2572 0 94.2596 13.7387 1295 110.775 421.422 455.714
2573 0 98.4584 13.9754 1376 110.86 421.804 452.922
2574 0 98.1886 13.1278 1289 114.842 420.956 448.206
2575 0 102.176 13.1734 1346 114.704 420.313 446.151
2576 0 104.094 13.0171 1355 114.266 420.227 446.692
2577 0 107.049 13.265 1420 113.677 420.369 448.519
2578 0 112.09 14.1136 1582 112.345 420.538 445.278
2579 0 117.124 14.0279 1643 112.178 420.192 443.491
2580 0 120.262 14.7844 1778 110.761 420.156 443.379
2581 0 120.125 14.7181 1768 112.482 420.71 438.492
2582 0 124.201 14.2591 1771 114.046 421.274 433.907
2583 1 69.0922 10.638 735 118.502 420.808 459.367
2584 0 72.1322 11.063 798 115.442 421.214 461.002
2585 0 76.1163 11.9685 911 113.773 420.787 458.899
2586 0 75.1747 11.4001 857 116.694 420.652 454.489
2587 0 79.1375 12.8384 1016 112.101 421.253 457.589
2588 0 82.3312 12.2918 1012 115.828 421.304 455.04
2589 0 84.1814 11.986 1009 117.679 420.884 451.715
2590 0 88.3288 13.7781 1217 112.633 421.162 453.441
2591 0 90.1481 12.7013 1145 116.639 421.4 449.953
2592 0 94.2314 12.7346 1200 116.75 421.076 448.756
2593 0 95.1425 13.1487 1251 116.703 421.414 445.972
2594 0 98.2034 11.6798 1147 121.079 421.142 448.044
2595 0 104.158 13.3355 1389 114.762 421.216 449.788
2596 0 106.068 13.6422 1447 115.122 421.129 446.356
2597 0 109.148 13.5046 1474 113.921 421.883 441.24
2598 0 113.198 13.7194 1553 112.871 421.71 440.37
2599 0 117.168 13.1264 1538 113.615 421.079 438.209
2600 0 122.335 14.0189 1715 111.252 421.384 437.314
2601 0 126.256 13.5518 1711 112.25 421.546 438.099
2602 0 130.155 12.923 1682 113.982 421.323 434.334
2603 0 133.168 14.3202 1907 110.469 420.928 434.341
2604 1 76.0947 12.2216 930 107.906 420.867 461.596
2605 0 78.1074 11.2665 880 110.641 421.307 459.085
2606 0 81.2155 12.867 1045 106.167 421.54 458.966
2607 0 82.1233 11.4827 943 109.397 421.565 458.44
2608 0 88.1526 12.1834 1074 107.398 421.843 455.161
2609 0 90.1862 14.2483 1285 103.787 422.021 452.353
2610 0 91.1269 13.2892 1211 106.128 422.302 449.287
2611 0 95.1311 12.6037 1199 106.465 421.604 450.967
2612 0 97.1699 12.6685 1231 107.36 421.754 448.509
2613 0 101.144 13.0112 1316 106.517 422.05 451.277
2614 0 104.258 12.4691 1300 108.187 421.822 448.142
2615 0 107.104 12.5859 1348 107.24 422.237 449.004
2616 0 108.155 11.5112 1245 110.854 421.851 447.973
2617 0 112.314 12.4206 1395 108.978 421.886 446.735
2618 0 114.398 12.2905 1406 105.702 421.922 442.029
2619 0 118.233 12.4415 1471 105.694 420.449 444.944
2620 0 120.249 12.2912 1478 106.383 420.336 443.111
2621 0 128.23 13.4368 1723 103.851 420.551 440.486
2622 0 131.339 13.2253 1737 105.29 420.917 437.656
2623 0 135.197 13.9648 1888 104.772 421.399 435.888
2624 1 77.0762 10.7296 827 105.508 421.405 469.47
2625 0 80.1648 10.7529 862 106.338 421.763 467.218
2626 0 84.1935 12.8632 1083 101.425 421.098 464.49
2627 0 87.2754 12.9131 1127 103.546 421.385 463.549
2628 0 88.3174 12.0022 1060 106.259 421.089 464.109
2629 0 92.1614 11.469 1057 109.139 420.173 461.56
2630 0 97.2058 13.0548 1269 105.724 420.63 461.313
2631 0 98.3482 12.8828 1267 109.487 420.496 459.541
2632 0 99.2583 11.0822 1100 113.378 420.925 459.324
2633 0 101.186 10.7426 1087 117.334 420.495 455.768
2634 0 107.284 13.1147 1407 112.246 420.811 454.107
2635 0 110.351 12.7865 1411 113.737 420.666 454.636
2636 0 114.272 11.6127 1327 116.601 420.416 450.837
2637 0 117.272 13.1234 1539 113.821 420.433 450.574
2638 0 121.206 13.308 1613 113.676 420.457 446.443
2639 0 129.383 13.0697 1691 112.977 420.106 447.671
2640 0 132.25 13.2023 1746 113.768 419.332 444.47
2641 0 137.394 13.2757 1824 113.811 419.282 438.989
2642 1 75.1582 11.1897 841 106.63 420.186 474.215
2643 0 76.2351 11.7793 898 106.38 420.138 469.923
2644 0 79.2193 12.0173 952 106.756 419.938 468.978
2645 0 82.2488 11.7205 964 107.829 419.798 469.242
2646 0 85.2153 13.5656 1156 103.605 419.83 467.229
2647 0 87.1638 12.6429 1102 106.706 420 467.07
2648 0 89.1692 12.4707 1112 108.867 419.711 464.75
2649 0 92.2276 13.4125 1237 107.257 419.346 463.252
2650 0 96.2114 12.1087 1165 110.047 419.7 463.819
2651 0 99.5042 13.6577 1359 106.578 418.799 460.938
2652 0 100.206 12.135 1216 111.004 419.238 462.804
2653 0 104.275 12.3616 1289 113.114 418.855 458.362
2654 0 106.369 12.231 1301 113.384 418.397 457.184
2655 0 112.271 12.7014 1426 111.797 418.403 454.825
2656 0 113.555 12.549 1425 112.643 418.396 454.185
2657 0 116.519 11.6719 1360 114.206 418.471 447.771
2658 0 122.417 12.3676 1514 112.948 419.398 446.166
2659 0 125.532 13.2237 1660 111.66 418.662 443.901
2660 0 128.413 11.9692 1537 114.34 418.187 440.514
2661 1 75.1353 8.8507 665 108.2 418.561 471.982
2662 0 77.0729 10.4576 806 105.835 418.878 470.346
2663 0 77.1382 10.2932 794 106.476 418.714 470.219
2664 0 80.1061 10.2239 819 106.923 418.38 468.425
2665 0 84.1612 10.9076 918 106.669 417.912 466.72
2666 0 87.1974 9.85121 859 108.839 418.588 464.502
2667 0 91.0589 12.6072 1148 103.647 418.49 463.511
2668 0 93.1369 10.8657 1012 107.265 418.318 462.173
2669 0 95.062 11.0033 1046 107.698 418.205 459.619
2670 0 100.146 12.0125 1203 107.03 418.273 458.018
2671 0 105.145 12.8108 1347 104.624 417.967 455.878
2672 0 106.17 11.1519 1184 107.978 417.996 454.01
2673 0 111.177 11.9719 1331 107.161 417.91 450.542
2674 0 113.232 12.1521 1376 106.58 418.528 449.876
2675 0 115.089 11.2609 1296 109.277 419.287 447.888
2676 0 120.157 10.3448 1243 109.446 419.539 453.953
2677 1 66.2531 10.2939 682 110.43 419.504 474.658
2678 0 70.0816 11.5294 808 104.803 419.087 473.767
2679 0 73.196 10.588 775 107.186 419.152 473.747
2680 0 74.0662 10.9767 813 107.13 419.567 471.186
2681 0 80.2029 12.4559 999 102.465 419.581 471.073
2682 0 82.1331 11.737 964 105.217 419.026 467.856
2683 0 87.2044 12.465 1087 103.045 418.231 469.063
2684 0 87.0986 12.3079 1072 105.015 418.923 464.571
2685 0 90.1812 12.5747 1134 104.634 418.918 466.19
2686 0 91.1247 11.5885 1056 107.735 419.765 463.622
2687 0 96.1412 12.6585 1217 105.488 419.514 462.899
2688 0 99.208 11.9043 1181 107.854 419.606 461.124
2689 0 104.071 13.4427 1399 103.813 420.08 461.037
2690 1 58.1557 11.538 671 108.563 420.14 480.31
2691 0 60.1542 11.7199 705 109.477 420.288 480.898
2692 0 63.0425 12.5312 790 108.119 419.491 480.819
2693 0 65.1422 13.5396 882 104.382 420.128 476.08
2694 0 68.097 11.4689 781 109.81 420.069 474.017
2695 0 67.0504 12.677 850 108.594 418.615 475.879
2696 0 70.0889 13.3402 935 107.327 419.113 474.896
2697 0 73.1104 12.5837 920 108.362 418.772 476.632
2698 0 74.1318 13.6514 1012 107.58 418.544 472.877
2699 0 77.0801 12.7919 986 110.225 419.73 470.087
2700 0 80.1194 13.7545 1102 108.456 419.799 471.043
2701 0 82.1322 13.1374 1079 110.761 419.381 469.268
2702 0 85.2197 14.0109 1194 108.376 419.14 469.061
2703 0 87.0922 12.5269 1091 113.253 418.427 466.614
2704 0 90.1605 13.1876 1189 112.179 418.505 464.528
2705 0 93.1576 13.4288 1251 110.65 419.265 463.331
2706 0 97.1227 13.3748 1299 111.154 419.025 461.941
2707 0 96.2075 12.3587 1189 114.917 418.629 460.16
2708 0 102.182 14.4938 1481 108.92 418.589 458.388
2709 0 104.188 13.5429 1411 112.311 418.444 455.801
2710 0 106.229 11.9176 1266 116.733 418.884 453.908
2711 0 111.154 12.4332 1382 115.007 419.195 454.601
2712 0 113.361 12.6852 1438 115.444 418.969 453.802
2713 0 116.137 12.5886 1462 116.094 419.021 450.982
2714 0 120.318 11.8269 1423 118.597 419.35 449.776
2715 0 123.21 12.572 1549 118.709 418.961 447.425
2716 0 127.259 12.4549 1585 118.28 418.61 444.82
2717 1 70.083 11.7147 821 117.403 420.7 473.274
2718 0 73.1097 13.0762 956 114.63 421.007 471.015
2719 0 77.2794 12.6036 974 114.199 420.429 472.969
2720 0 77.0735 13.2082 1018 108.947 420.906 470.982
2721 0 80.0825 12.3622 990 111.605 421.316 468.6
2722 0 84.125 13.3135 1120 108.061 420.508 468.767
2723 0 85.0395 12.8646 1094 109.083 420.669 468.149
2724 0 89.1343 13.0477 1163 109.244 419.979 465.463
2725 0 90.159 12.2339 1103 113.444 419.714 464.814
2726 0 95.1216 12.237 1164 110.22 419.906 461.683
2727 0 99.168 13.4923 1338 107.17 420.312 458.52
2728 0 100.107 12.167 1218 110.554 420.454 456.244
2729 0 105.256 12.9873 1367 108.377 420.159 455.455
2730 0 106.121 13.7391 1458 108.13 420.128 452.559
2731 0 110.176 13.787 1519 107.601 420.345 452.978
2732 0 114.109 13.9428 1591 107.94 419.95 449.459
2733 0 116.408 12.5507 1461 112.747 420.179 449.946
2734 0 118.255 12.1009 1431 114.674 420.6 449.725
2735 0 123.157 12.9915 1600 114.191 420.026 445.558
2736 0 127.209 12.4047 1578 115.495 419.816 445.391
2737 0 131.212 12.8114 1681 115.006 419.821 444.72
2738 0 135.294 13.0974 1772 114.887 419.515 440.647
2739 0 140.373 12.1462 1705 116.324 420.315 438.876
2740 0 146.145 12.5218 1830 116.966 420.282 437.957
2741 0 152.46 13.6363 2079 117.685 420.374 433.236
2742 0 157.344 14.6812 2310 113.944 420.132 428.615
2743 1 86.1305 12.6088 1086 113.936 420.668 464.138
2744 0 91.1505 12.9676 1182 110.526 420.487 460.295
2745 0 93.2023 12.3924 1155 111.679 421.066 457.565
2746 0 97.0853 13.0401 1266 109.045 421.923 455.566
2747 0 100.112 12.2163 1223 111.064 421.252 454.16
2748 0 104.112 14.2922 1488 106.745 420.986 453.381
2749 0 106.188 13.0241 1383 110.85 420.837 451.02
2750 0 111.118 12.8962 1433 109.858 421.188 449.789
2751 0 113.111 12.8723 1456 110.822 420.806 445.46
2752 0 116.189 14.244 1655 108.655 420.815 443.945
2753 0 119.186 13.6594 1628 110.268 420.63 444
2754 0 123.23 13.7386 1693 111.759 420.181 442.644
2755 0 125.209 13.2179 1655 115.018 420.288 441.411
2756 0 130.221 12.8705 1676 115.932 420.771 440.801
2757 0 135.268 12.9372 1750 115.659 420.249 436.178
2758 0 139.286 13.5333 1885 113.323 420.539 435.986
2759 0 143.293 14.111 2022 111.249 420.814 436.715
2760 0 148.196 13.752 2038 113.695 420.504 430.358
2761 0 150.205 12.8291 1927 116.275 420.582 428.803
2762 0 155.266 13.8279 2147 114.073 420.583 426.846
2763 0 161.318 11.9082 1921 118.209 421.01 426.893
2764 0 166.359 12.3528 2055 116.748 420.978 426.162
2765 0 172.216 14.3773 2476 114.483 420.348 419.372
2766 0 178.271 14.9548 2666 113.99 420.203 415.033
2767 0 181.258 14.278 2588 116.617 420.101 412.029
2768 0 187.289 14.2667 2672 116.454 420.716 413.033
2769 0 190.157 13.7728 2619 119.268 420.612 410.563
2770 0 198.3 15.0429 2983 115.281 421.109 410.335
2771 0 205.251 14.855 3049 115.396 420.855 408.597
2772 0 209.144 15.3052 3201 114.815 420.932 399.787
2773 0 217.28 14.6999 3194 115.21 420.137 398.879
2774 0 224.325 13.7346 3081 117.614 419.552 395.131
2775 0 231.226 13.5495 3133 118.764 419.329 397.069
2776 0 239.339 14.1223 3380 118.599 419.791 389.042
2777 1 250.34 14.3285 3587 118.298 419.33 383.293
2778 0 255.35 14.0121 3578 118.949 418.843 380.892
2779 0 265.302 13.5619 3598 120.982 419.119 376.525
2780 0 275.392 15.7013 4324 116.642 419.426 363.937
2781 1 219.319 13.6422 2992 120.084 418.593 395.535
2782 0 226.32 13.4411 3042 120.853 419.204 393.434
2783 0 232.486 13.6869 3182 120.19 419.151 388.447
2784 0 242.399 14.7732 3581 117.871 419.161 384.123
2785 0 250.46 14.142 3542 119.672 418.784 382.214
2786 0 258.289 13.8605 3580 120.392 418.42 375.494
2787 0 263.419 13.4501 3543 121.601 419.331 368.564
2788 0 273.555 13.4452 3678 119.462 419.412 361.28
2789 0 283.509 13.735 3894 118.298 419.563 354.455
2790 1 70.2543 8.76814 616 98.1883 419.744 461.506
2791 0 75.3351 11.1767 842 92.1318 420.888 468.704
2792 0 77.1651 11.9484 922 91.7516 420.82 471.779
2793 0 80.1594 11.5146 923 91.8797 420.466 472.931
2794 0 82.2215 12.2839 1010 92.1921 419.892 469.304
2795 0 83.1319 10.4292 867 95.6505 420.276 468.7
2796 0 85.1585 10.9678 934 96.8233 420.225 466.972
2797 0 89.2126 12.0387 1074 95.77 420.438 464.632
2798 0 92.1009 10.8902 1003 97.8634 420.838 464.73
2799 0 95.1468 12.2863 1169 97.0719 420.416 463.66
2800 0 99.2311 11.8814 1179 99.1544 420.165 460.503
2801 0 102.251 12.4498 1273 98.2372 419.571 459.454
2802 0 104.375 11.7557 1227 100.048 420.416 458.566
2803 0 111.418 14.1181 1573 95.7756 419.685 444.072
2804 1 61.1689 10.5119 643 92.5505 421.098 480.443
2805 0 62.09 10.6136 659 98.5432 421.348 477.592
2806 0 65.2098 12.8815 840 98.5417 419.88 454.655
2807 0 66.1682 12.4985 827 104.212 420.572 432.504
2808 0 65.2612 11.385 743 99.1709 420.166 437.206
2809 0 67.2459 10.4988 706 101.306 419.97 438.193
2810 0 70.194 13.0923 919 98.0479 419.756 437.002
2811 0 73.2517 12.5867 922 99.8482 419.705 435.329
2812 0 75.0761 13.0801 982 100.324 420.257 436.949
2813 0 75.253 13.3815 1007 102.183 419.847 433.665
2814 0 79.3182 13.3765 1061 103.378 419.658 434.451
2815 0 82.3327 13.1297 1081 105.944 419.758 432.413
2816 0 85.2728 14.0256 1196 104.829 419.805 432.996
2817 0 86.1783 14.4236 1243 105.66 419.508 431.396
2818 0 90.3635 14.2535 1288 105.003 419.247 434.157
2819 0 90.3359 13.6712 1235 107.96 419.419 431.93
2820 0 91.4264 13.4097 1226 109.85 419.384 433.263
2821 0 96.5524 14.417 1392 107.256 419.716 432.027
2822 0 97.3139 14.6022 1421 108.369 419.246 430.826
2823 0 99.268 13.7003 1360 111.169 418.675 431.818
2824 0 103.593 14.6921 1522 109.745 418.986 428.956
2825 0 108.432 14.6359 1587 109.402 419.005 427.641
2826 0 109.342 14.2763 1561 110.983 418.764 426.473
2827 0 111.42 13.7229 1529 112.78 418.915 424.627
2828 0 116.466 13.8238 1610 112.091 419.598 425.896
2829 0 118.329 15.0597 1782 110.703 419.074 423.286
2830 0 122.694 14.5157 1781 111.336 419.083 426.348
2831 0 125.734 15.7237 1977 109.23 418.914 424.767
2832 0 129.515 15.5117 2009 109.755 419.337 426.09
2833 0 134.442 14.5342 1954 112.148 418.95 422.821
2834 0 137.367 15.3894 2114 110.204 418.976 420.846
2835 0 140.47 16.0532 2255 109.27 418.609 421.07
2836 0 145.356 15.5068 2254 110.669 418.546 418.018
2837 0 150.366 14.9901 2254 112.811 418.147 414.483
2838 0 155.452 14.2359 2213 113.676 418.497 412.398
2839 1 90.4143 12.9072 1167 107.114 419.362 446.61
2840 0 92.3897 12.1983 1127 109.563 419.018 443.395
2841 0 96.3042 13.3639 1287 109.263 418.937 441.012
2842 0 98.3584 13.4305 1321 109.475 418.914 440.271
2843 0 102.395 12.7643 1307 110.406 419.271 440.321
2844 0 107.273 13.7966 1480 107.922 419.264 437.359
2845 0 107.273 13.8525 1486 157.595 420.236 437.352
2846 0 114.443 14.7671 1690 105.621 419.19 434.276
2847 0 117.336 13.9855 1641 107.807 418.595 433.801
2848 0 122.464 14.3063 1752 107.443 418.817 429.545
2849 0 125.364 14.1827 1778 108.024 418.882 428.533
2850 0 129.341 13.0431 1687 111.727 419.563 425.778
2851 0 135.438 13.3714 1811 111.035 419.47 424.299
2852 0 140.44 13.2227 1857 111.044 419.052 421.498
2853 1 61.2366 11.1208 681 103.974 419.671 462.056
2854 0 63.5135 10.5017 667 105.807 419.255 461.313
2855 0 67.1994 12.768 858 102.169 419.486 461.914
2856 0 67.2296 12.0334 809 106.408 419.109 460.368
2857 0 69.1998 12.1243 839 106.501 419.354 462.998
2858 0 72.4949 11.2698 817 109.268 419.351 460.563
2859 0 75.1454 12.4958 939 107.985 418.92 458.61
2860 0 75.2065 12.2064 918 110.255 419.224 460.156
2861 0 78.1568 13.0379 1019 109.509 419.416 459.166
2862 0 83.4241 12.898 1076 109.473 418.904 461.271
2863 0 83.1933 12.8616 1070 111.277 418.835 462.936
2864 0 87.1647 12.8263 1118 111.294 419.143 463.103
2865 0 90.2266 13.5548 1223 109.427 419.519 464.159
2866 0 93.2242 13.9771 1303 109.988 419.441 460.798
2867 0 94.1938 12.6123 1188 114.752 419.024 460.316
2868 0 98.2716 12.2823 1207 115.213 419.132 460.271
2869 0 101.246 13.5117 1368 113.698 419.02 458.322
2870 0 103.247 14.1602 1462 113.079 419.023 457.289
2871 0 106.169 13.1299 1394 117.014 418.495 453.87
2872 0 111.175 13.807 1535 115.498 418.892 452.371
2873 0 115.291 13.1581 1517 116.548 418.974 452.534
2874 0 116.196 13.2879 1544 118.776 419.089 447.248
2875 0 121.321 14.6141 1773 114.774 419.205 447.96
2876 0 126.179 13.4016 1691 120.186 419.481 445.033
2877 0 129.241 13.6954 1770 120.78 418.859 442.249
2878 0 132.272 13.0035 1720 124.071 418.49 438.377
2879 1 79.1994 9.94957 788 120.701 419.454 468.563
2880 0 84.1444 12.122 1020 117.027 418.733 467.223
2881 0 85.1944 12.4069 1057 117.891 417.713 462.482
2882 0 88.192 12.1666 1073 118.407 417.77 460.398
2883 0 91.1165 11.5237 1050 120.782 418.138 457.9
2884 0 93.234 12.2702 1144 122.869 418.201 452.472
2885 0 96.3382 12.3419 1189 120.729 417.368 454.431
2886 0 101.246 11.9609 1211 122.124 418.357 451.281
2887 0 106.273 13.4371 1428 116.978 418.064 450.837
2888 0 106.154 12.6514 1343 121.264 417.456 446.531
2889 0 110.218 13.6729 1507 118.093 417.482 446.957
2890 0 114.297 13.8849 1587 118.693 417.36 444.227
2891 0 115.224 12.3498 1423 123.211 417.363 443.754
2892 0 119.312 13.3012 1587 120.28 418.092 440.854
2893 0 124.303 13.7003 1703 120.014 417.9 438.009
2894 0 126.353 13.8422 1749 119.613 418.271 435.037
2895 0 132.369 13.9383 1845 117.656 417.492 437.031
2896 0 132.365 13.3721 1770 116.45 417.502 430.981
2897 0 135.204 15.3176 2071 118.969 417.651 429.869
2898 0 136.335 13.3202 1816 124.97 417.632 429.845
2899 0 141.347 13.1096 1853 126.317 417.361 429.64
2900 0 142.274 12.5321 1783 127.864 418.278 424.685
2901 0 149.327 12.8911 1925 126.444 418.304 424.675
2902 0 155.199 13.6985 2126 122.586 417.516 421.957
2903 0 162.211 14.623 2372 118.091 417.709 422.764
2904 0 165.183 13.2338 2186 122.582 417.414 418.239
2905 0 170.307 13.3113 2267 123.509 417.686 413.718
2906 0 176.297 14.0672 2480 121.892 417.917 415.403
2907 0 180.161 14.093 2539 122.237 419.006 413.275
2908 0 187.381 14.5639 2729 121.681 418.815 408.693
2909 0 192.201 14.8282 2850 120.726 418.52 407.859
2910 0 196.368 14.208 2790 124.303 418.733 401.151
2911 0 203.265 13.9374 2833 125.405 419.118 399.401
2912 1 33.0359 6.9924 231 96.1948 421.974 486.247
2913 0 37.0505 7.71919 286 96.2203 420.458 490.346
2914 0 36.018 7.80166 281 96.6762 420.73 487.858
2915 0 36.0112 7.1089 256 97.4922 419.836 488.34
2916 0 36.0172 8.24606 297 97.7912 420.357 488.212
2917 0 35.0297 8.27869 290 97.1172 419.5 487.9
2918 0 38.0117 8.44477 321 96.7383 419.882 484.374
2919 0 39.0448 10.091 394 93.3071 418.094 486.137
2920 0 37.046 8.26001 306 95.6471 417.487 486.859
2921 0 39.0803 8.29061 324 96.2315 417.275 484.747
2922 0 40.0399 7.96705 319 90.3981 417.241 487.746
2923 0 39.1456 7.40824 290 91.2552 418.155 485.859
2924 0 40.7166 6.85224 279 89.4122 420.308 489.172
2925 0 38.3785 6.56618 252 91.869 419.087 485.242
2926 0 38.1649 7.6248 291 93.3574 419.509 485.055
2927 0 37.2592 6.17297 230 96.6478 421.013 487.087
2928 0 38.1283 7.63213 291 94.3265 420.856 488.485
2929 0 39.1724 7.32659 287 97.0976 421.105 487.171
2930 0 39.2584 7.48884 294 97.5578 420.602 486.364
2931 0 41.0559 8.42753 346 96.0896 420.038 487.092
2932 0 38.1192 6.55838 250 101.184 420.548 489.656
2933 0 39.1447 8.30252 325 96.6185 420.514 488.409
2934 0 40.0453 8.69015 348 95.9828 420.704 487.635
