time division length width area intensity CMx CMy
0 0 62.1217 8.70871 541 142.941 508.02 469.379
1 1 30.0762 11.2049 337 137.703 509.579 479.457
2 0 30.0128 11.6617 350 137.177 509.569 478.946
3 0 30.0654 11.5082 346 135.89 510.321 480.604
4 0 32.0288 11.8643 380 133.595 509.971 479.053
5 0 30.0649 10.4773 315 140.94 509.721 479.984
6 0 33.0605 11.7058 387 133.84 508.778 478.243
7 0 33.0424 11.682 386 140.642 507.759 478.249
8 0 33.0424 11.8333 391 139.458 505.744 478.379
9 0 34.0314 11.1661 380 135.416 509.032 478.995
10 0 38.0978 12.1267 462 131.457 509.182 478.372
11 0 36.0186 11.2442 405 136.585 508.928 479.198
12 0 39.0269 11.4536 447 132.924 508.329 478.718
13 0 40.052 10.9857 440 134.077 508.189 477.857
14 0 41.0971 12.3123 506 129.385 508.01 478.433
15 0 41.0154 11.8492 486 130.479 508.086 477.389
16 0 42.0548 13.1495 553 125.41 508.26 476.693
17 0 44.0563 11.6669 514 130.798 507.984 476.613
18 0 44.0268 12.3561 544 129.081 506.544 476.154
19 0 45.0422 11.5447 520 131.706 507.594 477.088
20 0 46.0475 13.5512 624 124.087 507.476 475.197
21 0 48.0408 11.9898 576 95.1632 507.259 476.137
22 0 49.0509 12.0487 591 128.8 506.118 474.775
23 0 51.0452 12.9297 660 125.627 506.198 476.18
24 0 53.1343 13.4 712 122.642 506.176 474.485
25 0 52.041 12.8168 667 128.468 506.222 474.691
26 0 57.0565 11.9531 682 127.415 505.9 473.796
27 0 57.0365 11.2209 640 131.044 505.441 473.381
28 0 60.041 12.2916 738 128.472 506.42 472.041
29 0 61.0984 13.2573 810 125.243 505.543 472.6
30 0 64.0521 12.7396 816 127.192 505.072 470.172
31 0 67.0801 12.3882 831 128.223 505.798 468.212
32 0 69.0619 11.801 815 133.118 505.921 469.166
33 0 71.0768 11.9308 848 130.034 505.407 467.564
34 0 71.0527 12.1881 866 132.005 505.419 466.306
35 0 75.0604 12.883 967 131.69 505.41 466.243
36 0 79.0354 13.9811 1105 133.508 504.582 464.863
37 0 82.0656 13.3064 1092 134.081 505.07 464.522
38 1 40.0368 11.7642 471 136.14 504.219 484.461
39 0 44.0294 13.2412 583 127.937 505.228 483.94
40 0 44.0464 12.7593 562 131.133 505.883 482.302
41 0 45.0506 12.6524 570 130.028 504.858 481.998
42 0 49.0394 13.4993 662 124.341 504.409 482.42
43 0 49.0215 13.7083 672 125.193 505.326 480.034
44 0 51.0194 12.897 658 127.901 505.15 479.894
45 0 53.0464 13.3845 710 125.57 504.114 480.559
46 0 53.0552 12.9111 685 127.092 503.699 479.765
47 0 53.0189 12.222 648 129.488 504.225 479.957
48 0 57.0722 13.8421 790 124.643 504.695 477.443
49 0 59.0368 13.4831 796 123.173 504.2 477.916
50 0 60.0153 12.4801 749 128.234 503.753 474.841
51 0 62.0736 12.453 773 128.022 503.7 475.141
52 0 67.0876 14.101 946 121.318 503.803 473.695
53 0 70.0619 13.5023 946 123.245 504.03 472.289
54 0 70.087 13.8542 971 122.591 504.002 471.519
55 0 73.051 13.7849 1007 121.352 503.236 470.805
56 0 77.0616 13.5995 1048 122.522 503.218 468.781
57 0 80.1246 15.4759 1240 120.864 503.74 467.203
58 0 83.0545 14.4604 1201 123.182 503.858 466.431
59 0 86.1463 14.1968 1223 123.831 503.013 464.021
60 1 45.1335 12.5184 565 123.221 503.05 483.894
61 0 45.0953 12.9282 583 119.715 503.42 484.376
62 0 47.0518 12.6031 593 120.054 504.206 483.695
63 0 47.0663 13.8953 654 117.508 504.194 482.294
64 0 50.0289 13.0724 654 117.485 503.479 483.503
65 0 49.024 12.9732 636 120.676 502.997 481.588
66 0 53.0341 13.8024 732 116.365 503.664 481.56
67 0 55.0217 13.2857 731 118.35 502.912 478.253
68 0 58.029 13.9413 809 115.795 502.101 478.493
69 0 59.1421 13.3577 790 117.03 502.748 477.851
70 0 62.0466 14.4247 895 114.238 502.463 476.516
71 0 63.0348 14.3889 907 115.794 502.824 474.173
72 0 65.0894 13.8118 899 117.024 502.42 473.288
73 0 68.0655 13.8984 946 116.075 502.385 472.545
74 0 69.0383 13.239 914 120.323 503.023 472.049
75 0 71.0478 14.4973 1030 117.998 502.686 470.261
76 0 75.182 14.0459 1056 118.938 502.818 469.317
77 0 76.1671 13.7198 1045 120.512 502.533 468.228
78 0 81.0726 13.9258 1129 119.309 502.437 467.089
79 0 80.0565 12.9534 1037 119.611 502.435 461.987
80 0 84.1047 13.8874 1168 116.232 502.472 460.136
81 0 86.1706 13.2876 1145 117.224 502.934 460.055
82 0 91.0933 13.81 1258 116.179 502.524 457.23
83 0 94.1848 13.2824 1251 116.774 502.999 454.424
84 0 97.2389 14.2124 1382 113.322 503.194 454.918
85 1 46.0657 10.637 490 104.545 503.716 480.288
86 0 49.0557 9.86634 484 107.134 502.345 475.878
87 0 54.0601 12.6156 682 109.61 501.831 482.029
88 0 54.0443 13.1559 711 110.802 501.857 479.353
89 0 57.0725 11.3014 645 114.569 501.901 479.507
90 0 57.0859 12.5425 716 112.884 501.677 479.081
91 0 59.0527 13.6996 809 111.65 501.24 477.066
92 0 62.0824 13.8204 858 110.372 501.528 475.797
93 0 63.1117 12.9611 818 113.221 501.971 475.89
94 0 64.087 11.9993 769 116.094 501.427 474.398
95 0 68.1427 13.1929 899 113.355 501.928 473.614
96 0 69.0904 13.8659 958 112.809 502.138 472.795
97 0 73.1306 13.2913 972 114.535 501.39 470.313
98 0 74.0972 14.5619 1079 112.31 500.987 468.937
99 0 76.1245 12.4927 951 118.547 501.202 467.766
100 0 79.1345 13.9509 1104 114.316 501.591 469.637
101 0 83.0846 14.9366 1241 112.97 501.846 465.943
102 0 85.145 13.3772 1139 118.182 501.971 465.525
103 0 87.0441 14.349 1249 116.361 501.882 464.788
104 0 90.1188 13.9815 1260 117.385 501.853 464.687
105 0 92.148 14.1403 1303 116.911 502.068 462.24
106 0 96.088 13.4356 1291 116.803 501.757 458.756
107 0 99.1865 14.0342 1392 114.496 501.287 457.763
108 1 53.0661 12.1546 645 111.378 502 479.94
109 0 53.0873 11.0007 584 112.281 500.926 478.783
110 0 56.0461 10.5806 593 112.944 501.7 476.526
111 0 58.0668 13.5706 788 118.43 501.223 479.688
112 0 60.1784 12.9781 781 121.211 501.117 477.86
113 0 62.0501 13.1829 818 121.692 501.244 476.495
114 0 64.1275 12.6935 814 122.76 502.425 476.37
115 0 66.1009 13.2222 874 122.705 502.022 475.831
116 0 69.121 11.979 828 126.229 501.605 473.338
117 0 71.104 13.417 954 123.607 501.636 472.567
118 0 73.1175 14.0869 1030 122.198 501.683 471.304
119 0 78.1049 13.6483 1066 122.689 502.221 471.162
120 0 79.1078 12.8306 1015 126.295 501.88 469.541
121 0 82.1325 14.0139 1151 122.835 501.59 467.831
122 0 84.0896 14.211 1195 122.71 500.829 465.917
123 0 88.1271 14.1273 1245 122.205 501.373 465.265
124 0 91.1973 14.4522 1318 121.714 501.495 463.479
125 0 94.1579 12.8295 1208 125.623 501.39 463.467
126 1 49.0191 11.0569 542 124.339 502.013 484.797
127 0 51.0729 12.3549 631 121.612 501.734 482.436
128 0 52.0201 11.8224 615 119.584 501.244 483.343
129 0 52.0842 12.3838 645 115.099 502.857 483.155
130 0 52.0669 11.8693 618 118.741 502.17 482.367
131 0 56.0897 12.1948 684 116.816 502.892 480.958
132 0 56.0794 12.09 678 117.956 501.413 481.208
133 0 59.0835 11.5768 684 119.278 500.621 479.949
134 0 61.0796 12.41 758 116.839 500.562 477.393
135 0 63.0632 13.4944 851 114.678 500.656 477.555
136 0 64.0329 13.4931 864 116.424 500.844 476.003
137 0 68.1498 12.7953 872 117.831 500.639 475.431
138 0 70.164 13.5825 953 116.27 501.038 474.964
139 0 72.0635 13.6824 986 117.023 501.433 472.511
140 0 76.1473 13.29 1012 118.046 500.402 472.056
141 0 75.142 12.5762 945 121.642 500.711 468.715
142 0 80.185 12.6083 1011 121.297 500.595 469.188
143 0 83.2873 13.1593 1096 120.8 501.569 466.602
144 0 87.2654 13.5564 1183 117.316 501.462 468.217
145 0 89.131 13.6092 1213 116.176 502.051 463.063
146 0 92.1377 13.3496 1230 116.202 502.367 461.85
147 1 47.0922 11.2333 529 118.121 503.202 484.138
148 0 48.0586 11.7357 564 117.488 503.113 481.798
149 0 51.0807 12.8424 656 114.021 502.473 481.645
150 0 52.2425 12.8822 673 114.848 501.728 482.19
151 0 53.1036 11.3928 605 119.031 501.651 481.696
152 0 55.0704 12.4931 688 117.475 502.017 480.916
153 0 58.0536 13.143 763 114.616 501.893 480.288
154 0 58.0738 11.537 670 120.597 501.909 479.267
155 0 61.0572 13.3154 813 119.285 501.483 477.764
156 0 63.0914 12.3789 781 120.809 501.854 477.915
157 0 64.0534 12.0681 773 122.411 501.436 475.93
158 0 66.042 12.1438 802 122.19 501.596 474.833
159 0 70.0303 13.3656 936 118.754 501.256 472.759
160 0 74.0822 13.0126 964 118.865 500.332 472.855
161 0 74.1356 12.8818 955 120.341 500.579 472.369
162 0 76.0718 12.3173 937 123.218 500.555 469.225
163 0 81.0365 13.2656 1075 119.869 500.611 469.989
164 0 83.091 13.1422 1092 120.309 501.24 466.973
165 0 86.0661 13.9544 1201 119.467 501.373 465.599
166 0 89.0867 13.2231 1178 122.061 501.425 464.797
167 0 91.078 12.9449 1179 123.295 501.603 460.944
168 0 96.0884 13.498 1297 121.698 500.628 459.966
169 0 100.143 12.9316 1295 121.608 500.822 459.825
170 0 102.077 13.2156 1349 122.416 500.541 457.01
171 1 54.0156 11.3486 613 119.757 500.344 480.07
172 0 57.1192 11.4847 656 118.695 501.212 479.523
173 0 58.053 11.2311 652 111.543 501.377 476.158
174 0 59.062 11.1408 658 114.533 501.857 474.45
175 0 62.1172 11.8969 739 112.748 501.786 472.678
176 0 64.1247 11.2749 723 115.122 501.779 472.375
177 0 65.0736 11.6637 759 114.785 502.124 470.928
178 0 68.1362 10.9927 749 123.828 501.87 471.967
179 0 72.2109 13.4052 968 117.476 501.573 470.593
180 0 73.1263 13.8391 1012 117.023 501.017 470.939
181 0 76.0738 13.1846 1003 118.984 501.623 468.805
182 0 78.1141 12.0977 945 122.863 501.052 467.055
183 0 82.15 13.1345 1079 119.909 501.351 465.829
184 0 85.1346 12.5918 1072 120.433 501.375 465.971
185 0 87.106 11.8936 1036 122.347 501.302 465.157
186 0 88.1571 11.3888 1004 124.78 501.309 461.851
187 0 92.102 12.0519 1110 124.416 501.234 461.266
188 0 95.1698 12.0521 1147 124.709 500.944 458.909
189 0 98.2086 12.3105 1209 125.176 501.459 456.208
190 1 46.1646 9.24951 427 120.157 501.834 484.632
191 0 49.0588 10.5588 518 117.079 500.685 483.28
192 0 51.0808 11.4133 583 115.913 500.99 480.624
193 0 54.0653 11.5416 624 114.423 502.606 481.147
194 0 55.0695 10.9316 602 117.417 501.276 480.671
195 0 56.1244 12.0269 675 126.68 501.674 477.742
196 0 60.1024 11.314 680 126.425 501.672 478.543
197 0 61.2107 12.1384 743 124.56 502.596 476.623
198 0 64.1109 11.7141 751 124.461 501.414 477.621
199 0 64.1027 9.98398 640 128.569 500.652 477.272
200 0 66.1226 10.7981 714 126.27 500.438 475.84
201 0 70.0874 12.0849 847 120.921 500.752 475.898
202 0 71.0318 12.2058 867 122.788 502.098 472.648
203 0 74.0613 11.1529 826 124.947 502.178 470.821
204 0 74.0404 12.4527 922 124.356 502.509 467.95
205 0 79.1119 11.212 887 124.905 502.234 469.816
206 0 79.1959 10.6571 844 127.592 501.43 469.457
207 0 84.2095 12.3264 1038 123.062 501.882 465.25
208 0 86.2292 11.9681 1032 122.762 501.831 464.577
209 0 89.2811 11.3462 1013 123.586 501.47 464.963
210 0 91.2609 10.9576 1000 123.837 501.379 463.473
211 0 95.3739 11.1561 1064 124.886 501.587 460.727
212 0 100.217 12.1237 1215 120.462 501.692 460.495
213 1 51.1222 11.9322 610 115.556 501.889 482.323
214 0 52.0271 11.7631 612 116.444 502.041 481.827
215 0 54.0891 12.313 666 113.878 502.462 481.593
216 0 57.0901 12.0862 690 114.378 501.536 478.938
217 0 59.0337 13.2636 783 109.771 501.904 479.146
218 0 59.1079 12.4518 736 113.141 501.681 477.461
219 0 60.1393 12.5542 755 112.567 502.384 477.809
220 0 65.2348 12.8612 839 110.322 502.247 476.201
221 0 70.1466 12.2458 859 79.8859 502.191 475.214
222 0 69.2232 12.1202 839 111.622 502.538 474.897
223 0 69.1569 11.6402 805 114.843 502.44 471.509
224 0 73.2336 12.5352 918 112.332 502.531 471.5
225 0 72.1701 11.4452 826 118.398 501.734 469.903
226 0 75.1326 11.7925 886 116.165 501.284 470.885
227 0 79.2039 11.9186 944 117.256 501.262 469.626
228 0 81.0862 11.5309 935 118.815 501.8 467.837
229 0 84.1758 12.9135 1087 117.158 501.587 463.534
230 0 88.2738 12.6765 1119 116.689 501.906 464.542
231 0 90.1822 12.009 1083 119.97 502.048 462.812
232 1 48.0853 9.67032 465 115.957 502.449 486.069
233 0 46.05 9.09881 419 118.792 502.468 484.883
234 0 50.0569 11.3271 567 113.905 502.776 484.025
235 0 49.0808 10.9819 539 117.013 503.557 482.965
236 0 51.0587 11.3791 581 115.293 502.749 482.255
237 0 54.0934 11.5356 624 112.79 502.386 481.25
238 0 56.0584 11.381 638 112.65 502.044 480.373
239 0 55.0876 11.6723 643 114.655 502.586 478.58
240 0 58.0783 12.0183 698 112.407 502.95 477.986
241 0 60.1287 11.7581 707 113.805 502.519 477.075
242 0 62.1008 11.3203 703 115.178 501.388 478.548
243 0 64.0725 12.0176 770 111.377 502.104 477.408
244 0 65.0427 10.9928 715 114.789 502.022 475.245
245 0 70.066 12.2599 859 110.431 502.264 475.014
246 0 69.1555 10.0354 694 115.004 502.072 476.847
247 0 73.1428 11.293 826 112.271 502.15 475.294
248 0 77.1889 11.3747 878 110.538 502.159 473.682
249 0 78.1262 10.9566 856 112.632 501.855 470.722
250 0 81.1216 10.8972 884 113.535 501.878 469.303
251 0 85.153 11.7788 1003 112.684 501.094 466.861
252 0 88.3242 12.0239 1062 111.519 501.685 465.576
253 0 89.1731 11.6515 1039 113.849 501.723 464.188
254 0 95.1852 11.2728 1073 115.154 501.422 462.445
255 1 51.191 11.6622 597 114.663 500.921 480.776
256 0 52.2403 12.0597 630 117.265 501.4 476.986
257 0 55.1779 12.7769 705 116.455 501.255 477.128
258 0 55.1562 13.2533 731 114.655 500.486 479.714
259 0 57.1176 13.9011 794 113.349 500.936 477.625
260 0 57.088 13.3128 760 116.257 501.103 477.751
261 0 60.1013 13.9764 840 113.315 500.886 477.852
262 0 59.1401 12.5803 744 119.043 500.659 477.524
263 0 62.1515 12.7752 794 117.927 501.218 475.475
264 0 64.2283 13.125 843 116.698 500.177 474.827
265 0 67.1836 13.3961 900 116.101 501.234 473.847
266 0 69.192 13.4264 929 115.569 501.983 472.612
267 0 72.1627 14.1347 1020 113.537 502.293 471.647
268 0 72.1328 13.8217 997 116.077 501.523 470.047
269 0 74.291 14.1201 1049 116.029 502.266 468.96
270 0 76.2479 12.9971 991 119.704 501.928 467.785
271 0 79.1539 14.0486 1112 116.084 501.559 466.633
272 0 82.2061 13.6 1118 117.011 502.03 464.75
273 0 85.2026 14.131 1204 115.71 501.932 463.73
274 0 89.1472 13.9993 1248 116.68 500.796 460.643
275 0 90.1544 12.9445 1167 121.524 500.7 459.332
276 0 95.1825 14.7401 1403 116.486 500.795 456.192
277 0 98.2959 14.4563 1421 118.156 501.564 455.163
278 1 50.2949 11.1343 560 118.629 501.341 479.946
279 0 52.2226 12.6957 663 112.386 501.173 476.943
280 0 54.1512 13.056 707 119.635 500.519 480.399
281 0 57.2498 12.2446 701 121.361 500.632 479.274
282 0 56.0692 12.2884 689 122.417 500.84 479.61
283 0 61.1565 12.3454 755 120.143 500.152 479.615
284 0 60.1238 12.9233 777 120.66 500.614 478.001
285 0 62.1375 14.1299 878 117.491 500.306 476.574
286 0 64.2167 14.0462 902 118.504 500.849 474.315
287 0 68.1691 13.4958 920 117.092 500.712 475.133
288 0 68.1311 12.0063 818 121.378 500.434 474.687
289 0 72.1811 13.8125 997 116.182 501.111 473.091
290 0 75.1773 13.4881 1014 117.15 500.736 471.178
291 0 77.1027 12.6066 972 117.356 500.908 469.35
292 0 79.1014 13.135 1039 107.675 500.795 470.595
293 0 83.074 13.5783 1128 107.807 501.218 468.13
294 0 85.0374 13.3588 1136 107.463 500.928 468.109
295 0 87.1114 13.0523 1137 108.935 501.631 465.539
296 0 91.1019 12.3049 1121 111.378 501.544 464.441
297 0 95.0639 13.2648 1261 109.38 501.193 462.354
298 0 96.106 11.7891 1133 115.448 502.208 459.38
299 0 100.165 13.1283 1315 111.341 501.748 458.096
300 1 49.0834 12.5297 615 108.483 502.293 482.12
301 0 52.1207 12.0106 626 108.885 502.372 482.835
302 0 54.0599 12.9486 700 105.547 501.78 481.753
303 0 56.0473 12.5965 706 105.596 501.402 481.595
304 0 58.0125 12.98 753 105.858 501.713 480.206
305 0 57.0732 12.335 704 107.156 501.763 479.25
306 0 60.044 12.4409 747 106.811 502.019 479.115
307 0 62.0497 13.5698 842 105.505 501.791 475.57
308 0 67.0993 14.0836 945 103.52 501.343 475.501
309 0 69.0626 13.6688 944 104.27 501.919 475.57
310 0 70.0819 13.9551 978 105.819 501.644 474.133
311 0 71.0915 13.2787 944 109.004 501.752 474.005
312 0 74.08 13.4044 993 109.007 501.421 472.607
313 0 78.0636 13.5659 1059 108.519 501.168 469.571
314 0 79.1279 12.9663 1026 113.009 500.821 467.81
315 0 82.0941 13.2409 1087 113.655 500.282 468.111
316 0 83.0636 13.291 1104 115.373 499.665 467.064
317 0 86.0754 13.0351 1122 116.216 500.519 465.765
318 0 91.1273 13.5086 1231 115.87 501.27 463.318
319 0 93.1128 12.2217 1138 120.603 501.279 461.069
320 1 51.0264 12.1702 621 118.295 500.787 483.201
321 0 52.0179 12.3996 645 117.738 500.026 483.684
322 0 53.1104 12.2951 653 121.606 500.256 482.315
323 0 54.078 12.9258 699 121.213 500.402 481.464
324 0 56.0757 11.9125 668 123.831 500.645 481.269
325 0 59.1038 13.011 769 119.771 500.741 480.612
326 0 59.1061 13.5011 798 119.622 501.231 481.253
327 0 61.0842 12.9657 792 122.516 501.211 478.039
328 0 62.081 12.4354 772 124.067 501.339 477.955
329 0 65.1141 13.1001 853 121.361 501.611 476.62
330 0 68.0832 14.5998 994 116.547 500.677 476.323
331 0 69.0515 12.5848 869 123.066 500.312 475.581
332 0 70.1145 12.7934 897 124.116 500.671 473.944
333 0 73.1266 14.5228 1062 119.051 500.169 473.184
334 0 74.093 12.7138 942 125.875 500.123 470.535
335 0 78.146 14.78 1155 118.012 501.067 469.802
336 0 81.1105 13.6357 1106 121.055 500.469 469.664
337 0 83.1113 13.6925 1138 121.62 501.345 467.257
338 0 88.1229 14.7294 1298 116.946 500.861 467.416
339 0 89.114 12.6355 1126 124.361 500.227 464.305
340 0 94.1945 14.0242 1321 120.734 500.922 462.441
341 1 49.0636 12.1475 596 120.836 500.7 483.166
342 0 49.0965 11.4876 564 120.832 500.75 483.599
343 0 50.1085 11.5749 580 122.095 500.869 482.653
344 0 55.1515 13.7621 759 114.601 501.207 481.57
345 0 56.0319 12.1003 678 109.494 502.524 480.482
346 0 58.0707 12.4676 724 108.557 503.294 480.547
347 0 58.0204 11.6166 674 111.881 502.654 479.214
348 0 61.034 13.3532 815 106.812 502.052 477.934
349 0 64.0602 12.66 811 107.324 502.402 478.948
350 0 67.0546 12.0946 811 107.908 501.641 477.027
351 0 67.1154 11.8006 792 109.841 501.452 475.854
352 0 69.0841 12.3328 852 108.195 502.454 475.597
353 0 71.0486 13.2163 939 107.035 501.464 474.812
354 0 73.1221 12.4039 907 108.736 501.602 475.331
355 0 75.1165 12.4207 933 109.659 501.702 471.848
356 0 77.0792 12.1563 937 110.815 501.662 470.951
357 0 82.0879 13.7657 1130 115.239 501.415 468.385
358 0 84.13 12.2073 1027 120.427 501.941 466.113
359 0 85.1274 12.17 1036 121.108 502.545 466.028
360 0 88.1267 13.3444 1176 119.313 501.869 464.484
361 0 93.1447 12.7543 1188 119.772 502.428 463.223
362 0 97.1295 14.0946 1369 115.562 502.094 462.423
363 0 99.1059 14.1465 1402 117.424 501.074 460.746
364 0 100.159 13.5984 1362 121.884 500.495 457.269
365 0 104.097 13.3433 1389 122.196 500.791 458.094
366 0 105.089 12.2943 1292 125.42 502.06 453.491
367 0 110.258 13.4139 1479 121.085 501.741 453.968
368 0 114.083 13.9986 1597 119.992 502.044 452.569
369 0 118.173 13.6241 1610 121.82 502.102 450.539
370 0 122.171 13.8412 1691 121.807 501.942 449.869
371 0 126.33 14.1059 1782 120.223 501.845 448.966
372 0 130.19 14.4634 1883 120.378 502.323 444.828
373 0 134.274 14.6417 1966 119.359 502.217 442.396
374 0 139.194 14.0595 1957 120.925 501.545 439.859
375 0 145.29 14.0547 2042 121.654 500.663 438.59
376 0 148.375 14.8475 2203 120.654 500.618 436.479
377 0 152.252 14.0819 2144 124.312 501.08 431.391
378 0 157.194 14.5743 2291 122.807 500.874 429.48
379 0 162.226 13.8695 2250 125.333 501.301 426.859
380 0 168.235 13.8616 2332 124.804 500.813 426.643
381 0 174.393 14.0372 2448 124.562 500.547 422.334
382 0 178.226 14.7958 2637 123.834 501.39 417.818
383 0 185.208 15.3773 2848 121.318 501.499 415.216
384 0 190.225 15.6551 2978 121.256 501.952 413.632
385 0 195.315 14.4075 2814 124.244 502.081 410.432
386 0 205.249 15.5567 3193 120.18 501.433 407.351
387 0 210.213 16.1456 3394 119.115 501.588 402.473
388 0 216.328 14.5844 3155 123.282 501.109 400.838
389 0 222.306 14.1967 3156 125.643 500.458 393.844
390 1 71.0934 12.4906 888 110.717 500.884 473.74
391 0 73.0954 12.6547 925 111.437 500.774 471.288
392 0 76.0949 12.4713 949 111.325 502.271 471.289
393 0 78.1145 12.4561 973 111.72 501.773 471.738
394 0 80.0733 11.1523 893 116.375 501.401 471.39
395 0 84.0504 12.1237 1019 114.195 501.11 468.598
396 0 85.1341 12.357 1052 115.334 501.418 466.937
397 0 87.0946 12.274 1069 114.021 501.334 465.259
398 0 93.1262 12.424 1157 113.182 501.88 464.858
399 0 95.0783 11.0856 1054 117.282 501.224 460.522
400 1 49.0206 10.7506 527 113.843 501.615 483.361
401 0 51.078 11.3943 582 111.646 500.948 482.677
402 0 53.0579 12.0812 641 109.156 502.159 482.337
403 0 53.0262 11.5415 612 108.444 503.275 482.402
404 0 55.0586 12.1507 669 107.568 503.138 481.012
405 0 56.0599 11.8266 663 108.072 503.06 480.179
406 0 58.1054 11.8405 688 108.076 503.31 478.683
407 0 58.0828 12.1034 703 107.922 503.821 479.095
408 0 61.1003 11.5548 706 108.398 503.698 477.129
409 0 63.0977 12.2033 770 106.361 503.248 475.94
410 0 64.0591 11.7079 750 108.203 503.149 475.204
411 0 68.1756 12.6145 860 104.82 503.709 473.934
412 0 68.1294 12.2708 836 106.805 503.688 471.298
413 0 71.0858 12.2106 868 106.908 503.601 472.061
414 0 74.1545 12.5684 932 105.916 502.933 469.818
415 0 77.1627 13.6335 1052 101.808 503.215 470.512
416 0 78.1175 12.5324 979 104.932 503.195 470.277
417 0 81.0903 13.3308 1081 102.6 503.096 468.479
418 0 83.1693 11.8193 983 106.305 503.238 468.155
419 0 87.1341 12.8423 1119 105.259 503.51 465.066
420 0 90.1943 13.4377 1212 103.436 502.479 463.258
421 0 92.109 12.2355 1127 106.996 502.896 461.05
422 0 95.1621 13.0304 1240 106.353 502.837 461.988
423 0 97.166 12.5044 1215 106.52 503.286 460.523
424 1 52.0908 11.1152 579 105.815 503.114 481.511
425 0 52.0613 12.1395 632 103.307 502.043 482.54
426 0 56.0732 12.0022 673 108.84 501.205 480.811
427 0 58.063 12.0214 698 109.107 501.093 479.64
428 0 58.0343 12.7511 740 107.808 500.896 478.25
429 0 61.0839 12.2127 746 108.72 501.473 478.834
430 0 63.0232 11.2022 706 111.041 500.514 478.516
431 0 63.0353 12.8817 812 107.833 500.661 477.469
432 0 65.0183 12.7656 830 108.987 500.799 475.23
433 0 68.036 12.6404 860 108.531 500.971 474.158
434 0 70.0402 13.0496 914 107.851 500.41 474.461
435 0 71.1018 13.558 964 107.218 500.813 473.515
436 0 75.0726 13.9598 1048 105.342 500.786 474.152
437 0 75.1205 13.5249 1016 108.587 501.101 469.244
438 0 79.1289 13.9393 1103 107.613 500.951 470.263
439 0 79.0993 13.7928 1091 108.006 501.286 468.935
440 0 82.2117 13.5017 1110 105.928 500.641 469.205
441 0 84.1141 13.446 1131 105.877 500.973 467.502
442 0 85.1086 12.2197 1040 109.513 501.462 466.275
443 1 48.1342 11.0109 530 106.726 500.683 485.904
444 0 49.0261 12.2384 600 105.51 501.463 484.567
445 0 51.0479 12.2826 627 105.7 503.324 484.423
446 0 53.0088 13.5827 720 102.899 503.885 482.732
447 0 54.1081 13.1404 711 103.298 503.485 481.685
448 0 56.0874 12.8728 722 102.706 503.945 482.691
449 0 56.0243 11.9591 670 105.152 503.606 480.582
450 0 60.0498 11.9068 715 104.445 503.171 480.58
451 0 59.0316 12.2985 726 104.514 503.262 478.887
452 0 61.0715 11.8386 723 105.194 503.245 478.488
453 0 63.0531 12.3864 781 103.26 502.846 476.798
454 0 64.0585 12.6759 812 102.56 503.419 477.999
455 0 66.0489 11.4461 756 105.467 503.795 477.146
456 0 67.0335 11.9343 800 105.024 503.295 474.418
457 0 69.1847 12.8063 886 104.673 503.121 474.17
458 0 74.0603 13.597 1007 102.244 503.286 473.93
459 0 75.2289 13.8245 1040 103.316 502.699 470.793
460 0 78.1475 14.1015 1102 98.1252 502.896 471.385
461 0 77.1574 11.3275 874 104.121 502.7 470.11
462 0 83.1554 13.4447 1118 100.6 502.762 468.993
463 0 84.11 11.8297 995 103.96 502.01 469.101
464 1 45.1576 12.6003 569 101.308 502.699 485.84
465 0 46.1063 12.4712 575 101.937 502.823 485.217
466 0 48.1154 12.3245 593 97.597 502.469 487.064
467 0 51.1165 12.9117 660 101.565 502.179 484.353
468 0 52.291 12.3348 645 101.45 502.212 484.017
469 0 51.2834 11.1537 572 105.016 501.787 483.063
470 0 52.1529 12.9044 673 101.59 501.685 480.667
471 0 56.1689 11.9817 673 101.256 501.667 482.633
472 0 55.0964 12.6687 698 101.655 502.381 480.302
473 0 57.1402 12.3031 703 101.596 502.38 480.531
474 0 61.1358 12.6767 775 99.9316 501.902 479.732
475 0 61.1188 11.6331 711 102.807 502.229 478.139
476 0 64.0685 11.6906 749 101.74 502.32 479.471
477 0 66.1133 12.887 852 101.268 501.832 475.364
478 0 70.1591 13.5834 953 99.3389 501.41 476.32
479 0 72.0716 14.1526 1020 98.4324 502.034 475.725
480 0 72.0887 13.206 952 95.9884 502.334 474.668
481 0 74.102 13.6569 1012 96.6038 502.467 472.511
482 0 75.1326 12.0187 903 100.122 502.705 474.202
483 0 79.1537 12.2799 972 100.876 501.767 473.228
484 0 84.105 13.9825 1176 98.7355 501.986 471.2
485 0 83.1123 14.2699 1186 101.084 502.221 467.871
486 0 87.055 13.5891 1183 103.063 502.19 469.166
487 0 88.0837 13.7937 1215 104.956 502.139 466.164
488 0 91.1923 12.7971 1167 107.022 502.4 465.327
489 0 93.1139 14.1547 1318 105.77 501.714 463.264
490 0 97.1286 14.1874 1378 107.12 501.414 459.683
491 0 103.195 14.6713 1514 105.25 501.318 459.707
492 0 104.186 14.714 1533 106.301 501.528 457.049
493 0 109.169 13.7218 1498 108.302 501.327 454.648
494 1 56.172 12.9958 730 103.601 501.966 481.886
495 0 60.0643 10.572 635 109.076 502.324 482.691
496 0 60.1205 12.5082 752 110.963 502.476 479.387
497 0 64.1543 14.0443 901 106.494 502.533 480.487
498 0 65.0666 12.9867 845 109.981 502.931 477.922
499 0 67.1286 12.3345 828 109.149 502.514 476.969
500 0 71.0513 13.7788 979 108.553 502.421 475.306
501 0 73.0544 14.0443 1026 112.259 502.753 473.799
502 0 72.0806 12.9022 930 117.014 502.163 473.077
503 0 78.0568 13.6823 1068 114.144 502.043 471.806
504 0 80.0973 14.1703 1135 114.358 501.474 468.949
505 0 83.1349 14.711 1223 113.797 502.06 469.181
506 0 85.2166 15.0792 1285 114.198 502.572 467.652
507 0 88.193 14.9218 1316 115.653 502.432 464.275
508 0 90.201 14.0021 1263 118.423 502.379 462.665
509 0 94.1506 14.5405 1369 118.244 501.774 459.53
510 0 95.2563 14.3298 1365 120.021 501.266 458.579
511 0 101.13 14.3577 1452 119.189 500.994 458.288
512 0 104.16 14.8138 1543 119.07 501.596 454.275
513 0 110.164 14.1789 1562 121.18 501.428 454.721
514 1 58.1003 14.2512 828 120.28 500.742 478.303
515 0 61.1141 13.4012 819 123.2 502.56 480.513
516 0 62.1026 15.4744 961 118.264 502.39 480.818
517 0 65.0492 14.6351 952 120.855 502.091 478.694
518 0 65.0492 14.6351 952 150.199 502.091 478.694
519 0 68.0376 13.7571 936 127.076 502.198 475.138
520 0 72.0705 14.2361 1026 126.107 502.583 474.804
521 0 74.0916 13.6048 1008 129.708 502.312 473.007
522 0 76.1392 14.0795 1072 129.161 501.945 472.578
523 0 78.0949 13.6116 1063 131.999 501.165 468.944
524 0 81.1119 13.3273 1081 133.413 501.5 470.17
525 0 85.066 14.8708 1265 130.367 502.076 468.053
526 0 87.093 15.0184 1308 130.29 501.55 466.252
527 0 88.0901 14.1105 1243 135.389 501.317 465.772
528 0 90.1092 13.8943 1252 136.875 502.006 462.968
529 0 95.0739 14.0627 1337 136.918 502.685 462.96
530 0 98.0974 14.8118 1453 136.844 502.063 460.837
531 0 102.084 14.8602 1517 136.626 502.233 457.67
532 0 108.052 15.7332 1700 132.429 501.685 456.907
533 0 112.157 16.1826 1815 131.569 501.602 453.53
534 0 116.178 15.175 1763 133.869 502.029 452.429
535 0 120.258 15.658 1883 131.481 501.867 448.643
536 0 125.193 15.1047 1891 133.396 501.453 446.422
537 1 64.0677 12.1902 781 137.606 501.557 476.236
538 0 68.1758 13.4359 916 134.316 501.741 474.99
539 0 70.0626 13.7163 961 134.066 501.878 472.839
540 0 75.2096 15.3571 1155 127.944 501.696 472.214
541 0 77.1806 13.8636 1070 133.529 502.337 471.877
542 0 80.1884 13.9796 1121 134.232 502.527 469.059
543 0 80.2152 13.5884 1090 136.045 502.726 467.018
544 0 86.2705 13.9329 1202 133.261 502.072 466.854
545 0 89.2171 13.6185 1215 133.204 501.98 467.185
546 0 90.2156 14.1328 1275 134.078 501.889 464.47
547 0 93.2376 13.4066 1250 133.386 502.294 461.296
548 0 97.2034 14.6497 1424 128.721 502.436 459.847
549 0 101.312 14.4109 1460 130.742 501.698 457.975
550 1 52.1364 12.2563 639 126.828 502.247 483.099
551 0 54.0441 12.4343 672 123.81 502.231 482.938
552 0 56.0577 11.9341 669 122.897 501.735 482.469
553 0 58.0284 10.5293 611 124.191 501.35 483.494
554 0 61.0309 12.4363 759 121.819 502.04 478.576
555 0 63.0651 11.4326 721 123.472 502.531 477.692
556 0 64.0523 11.8185 757 124.604 502.129 476.168
557 0 67.0512 11.5732 776 124.046 502.82 475.87
558 0 69.1088 11.2721 779 125.501 502.687 474.85
559 0 70.0315 10.9094 764 125.8 502.891 473.306
560 0 75.0827 11.8669 891 122.315 502.132 471.762
561 0 79.1352 11.7899 933 124.383 503.075 470.902
562 0 81.2008 11.724 952 124.772 503.108 469.699
563 0 84.2855 12.1848 1027 123.736 502.657 465.911
564 0 86.0971 11.4522 986 125.281 502.691 466.752
565 0 91.1127 12.1608 1108 122.512 502.879 464.096
566 0 96.1754 11.5414 1110 124.165 502.734 462.602
567 1 51.1446 12.0443 616 116.222 501.945 484.364
568 0 54.085 11.371 615 117.53 502.66 483.907
569 0 55.0953 12.3422 680 117.804 502.893 482.497
570 0 55.1315 10.2482 565 117.54 502.579 483.947
571 0 57.1731 10.8617 621 117.014 502.659 482.411
572 0 57.2047 10.5935 606 116.634 502.406 482.573
573 0 60.0608 9.47373 569 116.638 502.536 480.52
574 0 62.1141 11.1891 695 113.412 502.176 478.121
575 0 65.0998 11.0446 719 112.118 502.348 478.522
576 0 65.0901 10.401 677 113.801 502.483 476.177
577 0 69.1435 11.4689 793 111.521 502.299 473.84
578 0 72.0903 11.2637 812 110.097 502.42 473.788
579 0 73.0928 11.3554 830 110.59 502.18 472.28
580 0 76.1124 10.7341 817 111.431 502.258 471.48
581 0 77.1445 11.3683 877 111.123 502.755 470.873
582 0 80.2229 11.7547 943 110.527 502.087 466.739
583 0 84.112 11.1161 935 112.121 502.782 466.772
584 0 86.1316 12.5041 1077 109.172 501.909 466.22
585 0 88.251 11.6939 1032 112.453 501.676 463.826
586 0 90.2653 11.7653 1062 113.354 501.642 464.629
587 0 94.23 12.3421 1163 112.463 502.132 463.407
588 0 98.198 11.5888 1138 115.177 502.079 460.844
589 0 102.07 12.3249 1258 113.624 502.038 459.438
590 0 104.187 13.1783 1373 113.755 502.177 457.832
591 0 108.135 12.0035 1298 117.468 501.928 455.949
592 0 112.344 11.1265 1250 119.178 501.479 454.99
593 0 113.332 11.0384 1251 120.25 500.962 454.106
594 1 59.0968 11.0835 655 111.621 500.716 479.342
595 0 61.195 10.8669 665 117.526 500.598 476.615
596 0 63.0838 11.7304 740 108.758 501.061 477.761
597 0 66.1853 11.4074 755 109.342 501.55 476.362
598 0 68.2217 12.7086 867 106.87 501.478 474.562
599 0 71.1562 11.6223 827 108.69 501.187 474.642
600 0 73.0844 11.7809 861 108.892 501.599 471.08
601 0 76.1244 11.363 865 109.995 501.924 471.161
602 0 76.0837 10.5804 805 111.52 502.084 469.501
603 0 79.2124 10.6801 846 112.429 502.06 469.417
604 0 84.2402 13.4259 1131 106.68 502.2 466.506
605 0 85.1199 11.4074 971 111.811 500.813 466.805
606 0 89.107 11.2561 1003 112.557 501.161 464.054
607 0 93.3679 11.8135 1103 112.469 501.371 461.642
608 0 96.2554 12.3526 1189 111.589 502.071 460.088
609 0 100.2 11.5769 1160 113.796 502.34 458.282
610 0 103.35 11.582 1197 114.572 502.019 457.246
611 1 54.1235 11.289 611 107.188 501.362 483.817
612 0 55.1454 11.8958 656 106.84 501.697 482.2
613 0 57.0465 11.6747 666 103.177 501.814 479.901
614 0 57.1405 11.043 631 105.404 501.319 480.669
615 0 59.1484 11.0062 651 105.338 501.593 480.874
616 0 62.0893 12.1116 752 102.17 501.251 479.028
617 0 64.1385 11.3348 727 104.926 501.93 477.748
618 0 67.1062 11.0571 742 105.05 501.495 476.208
619 0 68.0441 11.8306 805 104.76 502.099 473.796
620 0 72.1447 12.766 921 102.967 502.548 474.164
621 0 75.149 11.3375 852 107.472 502.096 474.561
622 0 76.2217 12.6867 967 108.065 501.849 471.04
623 0 81.356 13.2135 1075 109.979 501.103 469.195
624 0 83.1812 13.681 1138 112.048 501.315 466.245
625 0 85.2016 12.7697 1088 114.485 500.649 466.862
626 0 90.2613 12.6189 1139 111.244 500.243 460.882
627 0 91.2699 12.852 1173 110.526 500.635 459.462
628 0 95.146 13.4215 1277 109.449 501.549 458.582
629 0 98.2748 13.5945 1336 108.907 501.887 456.33
630 1 51.0365 11.8543 605 101.26 501.615 485.987
631 0 51.0966 11.8599 606 104.677 501.282 482.79
632 0 51.1841 10.8041 553 107.076 502.392 484.609
633 0 53.1505 10.8748 578 106.799 502.112 485.394
634 0 54.1915 12.0868 655 106.2 502.021 482.179
635 0 58.1519 11.3668 661 107.474 502.303 481.902
636 0 59.1727 12.303 728 106.331 502.312 480.878
637 0 60.1368 11.2244 675 109.951 502.086 479.287
638 0 62.179 11.4347 711 110.218 502.543 478.163
639 0 63.1386 10.0414 634 115.199 501.948 477.377
640 0 66.0683 11.9573 790 110.785 502.352 476.742
641 0 68.0929 11.9689 815 111.174 502.366 476.248
642 0 70.2906 12.7186 894 110.767 502.714 473.843
643 0 72.1928 12.522 904 111.925 502.337 472.799
644 0 76.2729 12.7568 973 110.936 502.092 472.205
645 0 79.2095 12.7384 1009 111.5 502.514 470.354
646 0 81.1458 11.732 952 113.946 502.714 470.55
647 1 41.0373 9.84471 404 109.601 503.782 488.601
648 0 45.0583 9.78731 441 107.506 503.451 490.027
649 0 46.0901 10.653 491 107.648 503.77 488.21
650 0 46.0276 10.4502 481 109.069 502.694 486.291
651 0 48.3324 10.2416 495 110.291 501.4 483.749
652 0 51.0161 11.5258 588 114.726 502.874 485.522
653 0 52.0625 11.006 573 116.906 502.291 485.419
654 0 54.0349 11.6776 631 115.74 503.154 483.319
655 0 54.0535 11.9511 646 116.601 503.08 482.325
656 0 55.0274 11.358 625 117.253 502.898 483.77
657 0 57.0267 11.9067 679 117.555 502.152 481.115
658 0 59.1888 12.3503 731 114.891 501.877 483.375
659 0 61.1818 12.4057 759 115.198 501.818 481.117
660 0 62.1649 13.2229 822 114.365 501.891 479.519
661 0 63.1854 12.3605 781 117.425 502.438 479.689
662 0 65.126 13.2973 866 116.573 502.193 476.821
663 0 67.1838 11.7588 790 119.211 502.133 477.261
664 0 68.1102 12.656 862 109.454 502.116 477.881
665 0 69.0826 12.8976 891 109.973 502.428 476.742
666 0 70.089 11.8706 832 114.385 502.272 475.596
667 0 72.1452 12.364 892 113.294 502.323 473.395
668 0 75.0746 12.6008 946 112.289 502.038 472.132
669 0 78.1016 12.2917 960 113.046 501.62 471.36
670 0 79.1686 11.4313 905 116.531 502.346 470.253
671 0 82.085 12.3287 1012 114.815 502.092 469.246
672 0 83.1629 12.5416 1043 114.995 501.122 466.33
673 0 88.0831 12.4655 1098 113.937 501.472 466.723
674 0 89.1138 11.3787 1014 117.331 501.33 465.656
675 0 93.1501 12.5926 1173 115.234 501.577 460.979
676 0 98.1506 12.4706 1224 113.828 501.466 462.477
677 1 51.0134 13.075 667 110.477 502.414 483.967
678 0 52.2417 11.9636 625 115.003 501.966 484.989
679 0 49.1386 9.80898 482 110.6 502.195 488.905
680 0 52.0864 10.9434 570 107.458 501.802 488.668
681 0 53.2162 9.9218 528 108.888 502.752 488.907
682 0 55.1251 11.0657 610 108.913 502.472 483.685
683 0 56.1489 11.0599 621 108.533 502.032 484.134
684 0 60.1303 11.2256 675 108.732 501.544 480.895
685 0 59.1632 9.34703 553 113.269 501.855 481.92
686 0 65.1719 11.6615 760 108.843 501.374 480.217
687 0 64.1513 10.7246 688 112.326 501.392 480.233
688 0 67.119 12.2022 819 109.044 502.221 477.977
689 0 71.2033 11.2635 802 110.372 501.596 476.507
690 0 73.1649 10.9069 798 111.409 501.395 475.699
691 0 75.1679 9.7116 730 114.196 501.595 473.942
692 0 78.0978 11.5752 904 111.394 501.351 470.387
693 0 81.1463 10.9185 886 112.898 500.979 470.582
694 0 82.1253 11.0319 906 113.979 501.192 468.694
695 1 43.0518 9.56986 412 112.993 502.833 490.422
696 0 43.0366 10.7815 464 113.138 502.582 488.748
697 0 45.0861 11.2673 508 112.852 502.87 488.11
698 0 45.0288 11.1928 504 113.127 502.079 488.982
699 0 45.0775 9.27292 418 119.275 502.05 487.988
700 0 47.0271 10.3557 487 117.382 501.963 487.156
701 0 48.0445 9.51201 457 119.179 501.993 488.155
702 0 47.0774 9.87736 465 119.785 501.467 486.512
703 0 48.041 9.51271 457 119.744 500.84 488.278
704 0 53.0409 9.93574 527 118.975 500.455 483.989
705 0 54.0377 8.19798 443 120.172 500.42 486.458
706 0 55.1404 10.2103 563 118.044 501.082 481.829
707 0 56.0385 10.5106 589 117.941 500.334 481.613
708 0 58.0671 10.264 596 117.488 500.792 482.003
709 0 61.1158 10.1447 620 118.332 500.935 479.426
710 0 63.1085 10.6325 671 116.517 501.092 477.924
711 0 62.0843 8.89114 552 120.344 500.359 478.632
712 0 68.0579 9.7564 664 117.675 500.834 475.45
713 0 74.1494 11.787 874 111.978 500.713 474.026
714 0 77.0924 10.6885 824 112.027 500.807 476.333
715 0 78.0845 11.8589 926 112.16 500.945 471.616
716 0 79.0559 10.1953 806 114.589 501.354 473.323
717 0 83.06 10.8476 901 114.948 500.84 468.497
718 0 86.0329 11.6816 1005 110.974 500.824 470.979
719 1 48.0356 12.0119 577 109.913 500.669 487.329
720 0 49.0405 11.6231 570 118.8 500.525 485.84
721 0 49.2284 12.0053 591 119.773 502.641 485.073
722 0 51.0313 13.0116 664 116.807 502.134 485.211
723 0 51.1173 10.6031 542 123.544 501.223 483.714
724 0 53.1074 11.3732 604 122.566 501.075 481.786
725 0 54.0382 11.5844 626 120.933 501.931 481.214
726 0 57.0509 11.4284 652 120.271 501.469 482.844
727 0 60.1715 11.8495 713 120.154 500.519 479.64
728 0 61.0984 11.8497 724 119.518 501.695 479.778
729 0 64.1404 11.2721 723 120.692 501.535 478.094
730 0 63.2256 11.7199 741 121.31 500.699 476.247
731 0 66.1438 12.7601 844 118.501 500.501 476.136
732 0 69.2374 12.681 878 118.615 500.314 475.419
733 0 72.2111 13.7375 992 114.565 500.135 474.657
734 0 73.1906 13.4034 981 117.643 500.003 474.187
735 0 75.1757 12.5439 943 120.812 500.456 471.651
736 0 79.1433 14.2274 1126 113.74 500.702 472.719
737 0 81.2147 12.5962 1023 117.392 499.874 471.942
738 0 85.1597 13.5862 1157 115.736 500.703 468.502
739 0 88.1768 13.3935 1181 115.754 500.435 467.573
740 0 89.3048 12.2054 1090 120.641 500.861 464.967
741 1 47.0756 10.6212 500 117.462 500.984 488.718
742 0 50.0421 11.2905 565 111.993 501.147 487.481
743 0 50.0071 11.6384 582 112.473 500.507 485.818
744 0 52.0362 11.0308 574 115.423 500.702 483.301
745 0 52.1186 12.5483 654 111.021 500.667 485.529
746 0 57.1009 13.3273 761 106.842 500.98 485.548
747 0 56.135 12.1849 684 111.292 500.928 484.402
748 0 59.1513 12.6793 750 109.771 501.368 482.415
749 0 60.0591 12.4211 746 110.237 500.799 481.961
750 0 64.0976 13.5575 869 105.188 501.09 480.606
751 0 63.095 12.8853 813 109.092 501.731 478.72
752 0 66.068 12.7293 841 108.382 501.757 480.417
753 0 69.0742 13.4204 927 106.2 501.717 478.381
754 0 71.1423 13.2973 946 106.623 501.174 476.061
755 0 74.1084 12.3738 917 109.237 501.487 476.625
756 0 77.137 12.4713 962 108.725 501.499 476.278
757 0 78.1488 13.3079 1040 106.264 500.979 473.393
758 0 83.1962 13.7025 1140 104.637 500.781 470.529
759 0 84.0976 12.2001 1026 107.451 501.164 469.165
760 0 88.0967 11.7598 1036 107.913 501.384 466.798
761 0 93.2047 13.8941 1295 102.452 501.816 464.871
762 0 94.0938 11.6161 1093 108.924 501.141 463.685
763 0 97.2817 11.955 1163 107.237 500.55 460.028
764 1 50.0953 11.6378 583 106.63 501.937 486.818
765 0 55.1547 12.5465 692 101.449 502.217 486.405
766 0 53.095 11.9032 632 104.366 502.059 485.625
767 0 54.121 11.5852 627 105.52 501.82 482.648
768 0 57.0749 13.7539 785 100.501 502.808 482.41
769 0 58.0854 11.1904 650 105.855 502.097 480.528
770 0 61.0384 13.2703 810 100.585 502.754 481.515
771 0 63.0599 12.9559 817 103.299 502.8 478.283
772 0 66.1331 13.5333 895 101.149 501.911 476.553
773 0 68.0894 12.6451 861 104.11 502.137 478.091
774 0 70.1103 12.8084 898 105.002 502.943 475.654
775 0 73.0997 12.4351 909 105.782 502.408 473.59
776 0 75.0768 13.2664 996 104.066 502.007 474.347
777 0 76.0744 12.4089 944 107.587 501.958 472.681
778 0 80.0839 13.6357 1092 105.679 502.265 471.14
779 0 84.0921 13.616 1145 105.275 501.953 471.341
780 0 87.1037 14.5 1263 103.53 502.162 466.893
781 1 46.0647 12.0483 555 107.802 502.742 488.038
782 0 47.0354 11.8422 557 109.041 503.244 487.095
783 0 49.037 13.1126 643 106.316 502.984 486.801
784 0 49.072 12.716 624 105.338 502.255 486.463
785 0 50.079 13.0793 655 103.53 502.313 485.976
786 0 53.1209 12.9328 687 103.862 502.511 486.298
787 0 53.2809 12.1057 645 105.786 502.462 486.425
788 0 55.0508 12.1706 670 106.357 502.454 485.084
789 0 57.1546 12.5274 716 105.372 502.584 483.813
790 0 58.0821 12.3962 720 106.035 502.149 482.799
791 0 61.1661 11.5914 709 106.969 501.946 480.98
792 0 63.0615 13.019 821 104.263 501.932 478.873
793 0 65.0927 11.9522 778 105.662 502.23 480.085
794 0 67.0539 13.5264 907 103.379 501.617 479.05
795 0 69.08 11.6387 804 107.922 501.289 478.131
796 0 69.0909 11.8105 816 108.435 502.299 477.855
797 0 72.2097 12.8653 929 106.54 502.122 474.804
798 0 76.0926 12.9316 984 106.095 501.815 475.527
799 0 76.1224 11.5603 880 110.259 501.984 472.433
800 0 81.0854 10.0018 811 106.958 501.236 470.831
801 0 84.1052 11.6877 983 104.486 501.3 468.812
802 0 86.1097 11.137 959 106.273 501.394 466.7
803 0 89.0825 11.1133 990 107.582 500.998 465.743
804 0 92.1649 11.5011 1060 106.683 501.056 466.564
805 0 94.097 10.5104 989 109.36 500.677 463.493
806 0 99.1186 12.2177 1211 107.531 500.874 462.765
807 0 104.156 11.7516 1224 108.23 500.842 460.482
808 1 56.1055 11.7814 661 103.797 500.977 482.537
809 0 57.1559 12.0023 686 106.181 501.857 482.103
810 0 60.0683 12.8187 770 105.048 502.632 481.93
811 0 60.0804 11.8674 713 107.799 502.272 482.254
812 0 63.059 12.1949 769 107.216 501.607 480.381
813 0 65.1153 11.6409 758 108.425 502.028 477.186
814 0 67.1688 12.8184 861 106.293 501.413 476.761
815 0 69.1064 11.2001 774 110.155 501.748 476.288
816 0 73.1269 12.0476 881 106.564 501.411 477.152
817 0 77.1397 12.5098 965 107.162 500.724 473.063
818 0 79.1751 12.4155 983 108.892 501.188 473.241
819 0 81.1668 11.5318 936 113.29 501.028 469.921
820 0 84.183 11.867 999 112.156 501.333 469.704
821 0 89.1714 12.8292 1144 110.327 501.215 468.599
822 0 91.277 13.0482 1191 111.737 501.265 463.559
823 0 95.2234 13.106 1248 111.565 501.153 462.176
824 0 97.3887 13.0919 1275 112.195 500.62 460.089
825 0 101.404 13.5793 1377 111.285 499.871 457.295
826 0 105.28 13.6589 1438 111.405 500.451 455.163
827 1 52.0743 10.2162 532 112.024 501.66 483.818
828 0 55.0875 11.2185 618 108.853 501.494 484.031
829 0 54.129 12.2301 662 107.787 502.536 482.139
830 0 57.1222 12.5695 718 107.196 502.429 481.699
831 0 59.1322 12.0916 715 107.778 502.221 480.924
832 0 62.138 10.8629 675 110.074 501.953 480.533
833 0 62.2746 10.9836 684 111.001 501.782 479.927
834 0 63.0408 11.9764 755 109.695 501.665 476.673
835 0 69.1186 12.6015 871 106.952 501.458 477.612
836 0 68.0892 11.4996 783 110.032 502.188 474.798
837 0 72.1473 12.0587 870 108.17 501.943 474.086
838 0 76.1342 12.7144 968 107.611 501.576 473.063
839 0 78.1301 12.1208 947 110.09 501.153 471.569
840 0 82.1225 13.212 1085 106.863 501.552 472.488
841 0 86.1 12.1951 1050 108.693 501.555 470.893
842 0 87.198 12.1906 1063 110.287 501.301 468.596
843 0 89.1209 11.1085 990 112.8 500.679 469.03
844 0 93.1634 11.8716 1106 111.093 501.068 467.711
845 0 97.1394 13.6711 1328 107.956 501.132 463.407
846 1 49.1151 11.2593 553 111.342 502.045 485.515
847 0 51.041 11.3242 578 109.856 501.964 486.76
848 0 53.1438 12.6449 672 107.753 500.708 483.938
849 0 56.091 11.4992 645 116.521 499.907 483.992
850 0 60.0513 12.3561 742 113.792 499.309 482.527
851 0 60.0634 12.2038 733 114.019 499.705 481.604
852 0 62.1246 13.3281 828 111.38 499.506 479.681
853 0 65.1238 13.3438 869 110.901 499.636 479.227
854 0 65.0396 11.8236 769 115.294 499.635 478.346
855 0 69.1025 14.2687 986 109.423 499.804 476.413
856 0 71.0599 13.3409 948 110.863 500.037 475.53
857 0 72.1552 12.6256 911 114.064 500.154 473.362
858 0 77.0621 13.5345 1043 110.119 499.903 473.967
859 0 77.0888 13.5558 1045 111.518 500.076 469.556
860 0 80.164 11.8881 953 113.815 499.68 470.306
861 0 83.1187 12.7649 1061 112.154 499.972 468.897
862 0 86.039 12.4943 1075 113.075 500.508 465.889
863 0 89.1077 12.4793 1112 112.6 500.496 464.29
864 1 48.1294 11.8431 570 109.754 499.549 486.361
865 0 46.1708 11.8473 547 108.565 499.803 486.918
866 0 47.0315 12.396 583 99.1921 501.225 485.36
867 0 46.0561 10.5306 485 105.169 500.518 487.157
868 0 49.0723 11.534 566 101.733 500.548 486.694
869 0 50.0328 12.0321 602 102.081 500.055 484.696
870 0 53.0931 11.979 636 101.712 500.94 484.409
871 0 55.1841 11.7244 647 101.068 500.94 484.646
872 0 55.0847 12.1449 669 102.151 500.528 480.719
873 0 58.1158 11.8556 689 103.406 500.927 481.579
874 0 60.0235 13.0282 782 101.604 500.246 477.648
875 0 61.0918 11.4254 698 105.765 499.994 477.183
876 0 63.1211 11.0898 700 106.81 500.361 475.801
877 0 66.0706 12.4261 821 105.155 500.467 475.345
878 0 70.0515 12.9904 910 103.931 500.004 475.827
879 0 71.079 11.2551 800 108.316 499.524 474.685
880 0 74.0628 12.827 950 105.904 500.002 472.829
881 0 76.0648 12.2264 930 107.344 499.549 472.338
882 0 78.1136 12.8147 1001 107.393 500.248 469.617
883 0 81.137 12.3495 1002 107.659 500.314 469.252
884 0 83.1986 12.9209 1075 107.797 500.451 467.96
885 0 86.063 11.8169 1017 110.065 500.143 468.778
886 0 89.2225 12.3399 1101 110.302 500.594 464.564
887 0 91.1173 12.1272 1105 110.71 500.678 464.36
888 0 95.173 12.0622 1148 111.953 500.922 461.843
889 0 97.215 10.1219 984 116.161 500.945 455.676
890 1 52.1369 11.7575 613 104.222 501.876 482.829
891 0 53.105 12.899 685 106.693 500.708 482.62
892 0 54.0207 12.8654 695 112.036 501.465 481.212
893 0 56.0434 12.5974 706 113.17 500.805 478.904
894 0 59.1218 13.1593 778 111.733 500.856 478.799
895 0 61.0989 13.5518 828 110.988 501.035 477.264
896 0 63.0504 13.6875 863 111.736 501.657 477.188
897 0 64.1506 12.9695 832 114.499 501.45 474.008
898 0 67.1082 14.0966 946 111.633 502.063 473.224
899 0 69.1498 13.5358 936 113.743 501.785 472.764
900 0 73.0682 14.1512 1034 112.033 502.126 470.894
901 0 71.074 12.5644 893 118.072 501.845 468.919
902 0 77.1747 16.1193 1244 107.512 502.312 469.219
903 0 78.0589 13.2977 1038 115.579 501.757 469
904 0 83.1723 14.3557 1194 111.768 502.346 465.52
905 0 85.0408 13.8639 1179 113.472 500.517 466.691
906 0 88.1256 13.4694 1187 114.1 499.859 465.824
907 0 91.1328 12.7726 1164 115.436 499.876 462.647
908 1 50.0912 12.058 604 112.962 499.796 481.126
909 0 53.2661 11.0014 586 109.353 500.263 478.77
910 0 55.0914 12.1616 670 99.206 500.781 479.684
911 0 57.1807 11.7522 672 100.488 501.071 478.629
912 0 58.0454 13.0587 758 99.1675 500.917 477.551
913 0 60.0428 12.1913 732 100.489 500.896 478.971
914 0 61.0371 11.4193 697 103.129 500.717 476.092
915 0 65.0822 11.7236 763 103.987 500.523 475.877
916 0 67.0847 12.76 856 101.569 500.321 476.262
917 0 69.0777 12.1313 838 103.32 500.199 474.961
918 0 72.1356 11.9913 865 104.045 500.55 475.103
919 0 72.18 12.1225 875 106.654 500.238 471.375
920 0 75.1382 11.9912 901 106.829 500.754 473.361
921 0 78.1259 12.3263 963 105.733 500.7 471.55
922 0 82.3542 12.9805 1069 105.468 500.857 468.931
923 0 85.2394 12.6702 1080 106.867 500.644 469.448
924 0 88.1247 12.4937 1101 109.094 500.79 467.449
925 0 89.1709 13.3452 1190 109.224 500.224 465.166
926 0 93.2034 11.9202 1111 113.403 500.613 464.437
927 0 96.0618 11.5447 1109 117.17 500.222 461.17
928 0 99.2456 11.6277 1154 117.4 500.237 459.685
929 1 56.1622 10.7189 602 109.478 501.367 484.909
930 0 56.1385 11.4182 641 105.75 501.877 483.437
931 0 59.2166 11.9899 710 107.196 501.561 482.201
932 0 61.0417 12.172 743 106.758 501.75 480.078
933 0 63.0718 12.8742 812 105.367 501.507 479.19
934 0 64.0702 11.3469 727 109.041 501.648 478.392
935 0 68.1601 12.8668 877 104.994 501.236 476.597
936 0 68.0394 11.4933 782 109.688 501.527 476.26
937 0 72.0264 12.7453 918 105.508 501.41 474.174
938 0 76.0931 13.1681 1002 105.005 501.264 472.966
939 0 76.1412 12.2667 934 108.122 500.403 473.229
940 0 80.2118 12.4171 996 107.749 500.997 472.37
941 0 83.1425 13.1822 1096 105.911 500.773 468.895
942 0 87.1206 13.2231 1152 106.698 501.056 467.856
943 0 90.083 13.2655 1195 106.537 501.343 465.516
944 0 91.2131 12.4434 1135 110.561 501.204 465.988
945 1 48.1369 10.9064 525 112.469 501.503 486.33
946 0 51.0924 11.4694 586 110.638 501.439 486.555
947 0 51.019 11.9171 608 111.543 500.967 484.087
948 0 54.0731 12.2427 662 108.684 500.956 482.805
949 0 56.0521 12.5954 706 108.222 501.166 482.225
950 0 57.0557 12.146 693 109.141 500.616 482.12
951 0 59.1454 12.241 724 109.58 501.13 478.887
952 0 61.1245 12.4173 759 109.718 500.08 478.914
953 0 62.0383 11.3801 706 112.612 500.361 479.626
954 0 62.1114 10.8837 676 115.484 500.318 478.599
955 0 65.135 12.4664 812 111.893 500.27 477.716
956 0 68.0464 11.8008 803 121.01 501.547 475.584
957 0 70.1237 13.2765 931 117.464 501.798 474.988
958 0 71.0408 12.4717 886 119.663 501.297 474.763
959 0 73.0989 12.8046 936 116.845 501.63 473.798
960 0 76.0828 12.9596 986 118.418 501.615 470.749
961 0 78.0633 12.5411 979 120.156 501.522 470.414
962 0 84.1177 13.9329 1172 115.016 501.026 469.914
963 0 83.0889 12.4686 1036 121.163 501.294 467.864
964 0 88.1276 13.5485 1194 118.013 500.605 464.767
965 0 90.1808 13.3066 1200 119.47 500.659 462.285
966 0 93.0944 12.6538 1178 120.565 500.486 460.851
967 0 96.2044 13.1595 1266 118.17 499.783 461.271
968 0 100.133 13.9115 1393 116.924 500.006 458.905
969 0 103.135 12.5176 1291 120.011 499.974 458.52
970 1 54.1215 11.9546 647 115.81 499.784 481.235
971 0 57.1341 13.7046 783 111.683 500.257 480.267
972 0 57.1463 12.6342 722 121.666 500.918 481.417
973 0 59.1197 13.4135 793 121.516 501.097 478.835
974 0 61.134 13.7239 839 119.913 500.654 477.962
975 0 63.1862 13.5156 854 120.17 500.252 476.068
976 0 66.0851 12.9833 858 121.423 501.093 475.467
977 0 68.0524 14.0333 955 118.941 501.264 475.479
978 0 71.1389 14.7036 1046 117.791 500.728 473.343
979 0 72.0406 12.2431 882 121.158 500.274 474.169
980 0 75.0984 14.7673 1109 117.139 500.452 472.343
981 0 76.115 14.0577 1070 119.244 500.133 471.482
982 0 80.0706 12.976 1039 120.994 500.206 470.787
983 0 80.0886 13.4226 1075 122.829 500.307 468.491
984 0 83.0597 13.9899 1162 121.102 500.395 466.179
985 0 86.0729 13.9417 1200 121.287 500.566 466.659
986 0 89.1432 14.056 1253 122.468 501.477 463.109
987 0 93.1003 13.6734 1273 123.926 501.967 462.13
988 0 95.1829 13.7315 1307 124.682 502.069 461.65
989 0 97.1617 13.6576 1327 125.711 501.567 459.027
990 0 100.181 13.825 1385 126.099 501.028 457.941
991 1 56.0693 11.1826 627 122.746 500.703 482.707
992 0 55.0703 10.9678 604 124.925 500.098 482.692
993 0 59.0647 12.7826 755 122.366 500.8 479.699
994 0 60.1011 12.4623 749 125.17 500.602 477.336
995 0 63.0813 12.3967 782 124.055 501.161 478.393
996 0 65.194 12.2711 800 124.544 501.457 477.072
997 0 67.2319 12.7767 859 124.302 501.539 475.821
998 0 68.1619 12.0889 824 124.925 501.263 476.567
999 0 69.1476 12.7553 882 126.257 500.955 473.234
1000 0 73.2378 13.463 986 122.333 501.15 474.26
1001 0 74.1874 12.2393 908 127.749 501.331 471.076
1002 0 77.1599 13.0119 1004 125.586 501.524 470.565
1003 0 80.2693 13.4173 1077 124.137 501.084 469.667
1004 0 83.3964 13.0581 1089 125.515 501.084 466.116
1005 0 86.2932 12.8863 1112 125.013 501.463 466.763
1006 0 86.283 11.6361 1004 129.409 501.264 465.85
1007 0 88.0835 11.6707 1028 125.838 501.046 464.746
1008 0 91.1145 11.4252 1041 126.261 500.936 463.196
1009 0 95.1652 12.9669 1234 123.065 500.333 460.656
1010 0 99.1036 12.714 1260 122.72 500.729 458.95
1011 0 101.131 11.6581 1179 125.109 500.962 458.742
1012 0 106.157 13.8474 1470 119.601 500.259 455.658
1013 0 110.186 12.9508 1427 121.02 500.76 455.234
1014 0 113.221 12.4447 1409 122.482 501.051 452.757
1015 0 116.244 13.1189 1525 120.099 500.858 453.161
1016 0 119.126 11.6263 1385 119.934 501.056 450.277
1017 0 122.16 11.7469 1435 121.128 500.474 446.851
1018 0 129.172 11.8911 1536 120.124 501.247 444.292
1019 0 133.227 12.1597 1620 120.506 501.425 440.285
1020 1 74.0751 11.6098 860 114.122 501.277 473.95
1021 0 74.0583 11.95 885 113.937 501.314 472.328
1022 0 77.043 12.0842 931 115.016 500.802 471.291
1023 0 78.1042 11.7023 914 117.438 500.986 467.334
1024 0 81.1277 12.844 1042 115.312 501.18 469.237
1025 0 84.1333 12.3376 1038 116.427 501.118 465.382
1026 0 87.0961 11.826 1030 124.555 501.66 463.784
1027 0 90.1105 11.3749 1025 126.315 501.43 461.96
1028 0 94.0973 12.0939 1138 123.54 501.886 462.672
1029 0 94.1263 11.2615 1060 126.271 501.192 460.029
1030 0 100.065 10.6731 1068 127.35 501.008 458.29
1031 0 104.141 12.0606 1256 124.287 501.365 457.765
1032 0 108.14 12.2249 1322 123.789 501.65 455.452
1033 0 109.119 11.1163 1213 127.652 501.748 451.602
1034 0 113.272 13.1012 1484 123.144 501.675 450.363
1035 0 117.175 12.5197 1467 125.155 502.153 450.076
1036 0 123.155 12.6832 1562 124.173 501.887 449.552
1037 0 126.114 12.3301 1555 124.993 501.507 447.905
1038 0 130.163 11.816 1538 126.904 501.081 444.34
1039 0 134.123 11.7653 1578 127.313 501.223 441.428
1040 0 139.219 11.9955 1670 123.442 500.059 441.365
1041 1 67.0896 11.507 772 121.544 499.992 473.183
1042 0 73.0618 12.4415 909 117.96 500.237 473.513
1043 0 75.0759 13.3865 1005 116.839 500.077 471.566
1044 0 76.2387 13.6545 1041 117.066 500.539 471.78
1045 0 78.1186 13.4155 1048 119.313 499.748 469.558
1046 0 80.2473 13.6204 1093 119.525 500.453 468.498
1047 0 83.1649 13.5273 1125 121.438 500.645 465.84
1048 0 86.1851 13.4594 1160 122.033 500.52 466.828
1049 0 90.2033 14.4562 1304 118.845 500.535 465.348
1050 0 91.1562 13.2739 1210 124.303 500.649 460.627
1051 0 95.3116 13.545 1291 122.534 500.934 461.943
1052 0 99.154 14.1194 1400 121.461 501.055 461.007
1053 0 102.323 14.3077 1464 120.772 500.944 460.061
1054 0 102.22 13.5003 1380 119.088 500.474 460.551
1055 0 104.275 13.6754 1426 118.748 500.466 460.784
1056 0 108.259 13.3106 1441 120.808 500.79 457.908
1057 0 111.176 12.7096 1413 121.903 500.088 454.977
1058 0 117.224 12.5913 1476 121.644 500.215 452.493
1059 1 64.3037 11.7412 755 121.15 500.458 474.942
1060 0 64.1677 8.74272 561 117.547 500.763 470.836
1061 0 66.1209 11.0253 729 102.435 500.848 470.582
1062 0 69.0841 11.8406 818 101.375 500.892 469.864
1063 0 70.1441 12.5741 882 100.781 501.068 469.592
1064 0 72.0685 10.0876 727 106.673 501.706 469.149
1065 0 74.1352 10.2111 757 107.791 501.244 468.499
1066 0 78.1422 11.6454 910 105.922 500.992 465.429
1067 0 76.0496 10.4931 798 111.956 501.586 461.876
1068 0 82.1362 11.9801 984 108.588 501.218 460.632
1069 0 80.0819 11.8004 945 112.095 501.54 457.861
1070 0 87.0959 11.7227 1021 111.536 500.997 459.136
1071 0 90.127 13.6696 1232 109.834 499.747 455.858
1072 0 93.1306 12.6596 1179 113.973 499.763 456.08
1073 0 98.1543 13.5501 1330 113.598 500.329 455.139
1074 0 104.111 12.6884 1321 115.643 499.872 454.382
1075 0 106.144 13.2178 1403 114.758 500.03 450.276
1076 0 108.115 12.6901 1372 114.164 499.603 446.946
1077 1 57.0272 11.4857 655 112.027 500.148 473.13
1078 0 60.1098 10.8967 655 116.414 499.612 474.29
1079 0 61.0517 11.4821 701 115.83 501.388 472.936
1080 0 64.0551 11.5526 740 117.486 501.928 475.441
1081 0 66.0736 11.7293 775 116.683 501.661 471.914
1082 0 68.0358 12.2289 832 116.494 501.861 470.645
1083 0 67.1062 11.9065 799 118.65 502.004 471.179
1084 0 72.0886 11.7772 849 119.272 502.432 468.702
1085 0 73.0431 12.1983 891 119.254 501.554 467.951
1086 0 76.145 12.4893 951 115.845 501.175 467.393
1087 0 75.2473 11.3227 852 121.962 501.238 464.13
1088 0 81.1745 14.0931 1144 113.853 500.826 462.983
1089 0 83.2167 12.7258 1059 118.074 500.999 461.292
1090 0 85.2561 11.2367 958 121.97 501.034 460.811
1091 0 87.2726 12.5469 1095 119.033 501.094 460.532
1092 0 91.19 13.1703 1201 116.545 501.503 458.725
1093 0 94.1891 12.5917 1186 114.358 501.414 456.827
1094 1 49.0995 10.55 518 113.34 499.969 478.151
1095 0 53.1241 10.6731 567 124.34 499.469 480.19
1096 0 55.1748 11.5995 640 121.994 500.772 481.542
1097 0 58.2107 12.3345 718 117.053 501.109 483.636
1098 0 58.2325 11.8662 691 120.02 500.848 482.628
1099 0 65.3752 10.4015 680 122.963 500.287 480.618
1100 0 66.2207 11.069 733 122.121 500.456 479.422
1101 0 65.2318 11.0989 724 123.048 501.068 478.501
1102 0 66.1666 11.6826 773 121.199 501.907 478.675
1103 0 68.1419 12.1218 826 121.54 501.373 477.052
1104 0 72.2512 12.8441 928 118.713 501.804 475.425
1105 0 74.328 12.4717 927 118.373 501.746 476.862
1106 0 76.17 12.2095 930 120.361 502.058 474.62
1107 0 78.2831 12.5953 986 119.538 501.417 473.696
1108 0 82.2291 11.8085 971 121.988 501.085 471.732
1109 0 83.2314 11.8945 990 123.808 501.337 469.438
1110 0 86.2704 11.9972 1035 123.124 501.147 469.297
1111 0 90.2736 11.7642 1062 124.79 500.855 465.577
1112 0 93.1929 12.7799 1191 121.793 500.623 466.835
1113 0 98.4761 12.8051 1261 122.27 500.529 465.048
1114 0 100.35 12.7752 1282 124.156 501.14 462.232
1115 0 103.243 12.2236 1262 120.883 500.44 461.62
1116 1 52.0858 11.1355 580 116.781 501.652 485.597
1117 0 55.1139 11.4309 630 106.463 500.876 481.765
1118 0 56.05 12.4889 700 109.493 501.406 480.514
1119 0 59.0626 13.3756 790 116.709 501.722 481.729
1120 0 59.1002 11.8443 700 123.533 501.533 482.153
1121 0 62.1788 13.1395 817 99.011 501.53 480.179
1122 0 64.182 13.7889 885 118.662 500.913 479.716
1123 0 66.0915 13.5872 898 120.176 501.179 478.714
1124 0 69.0902 14.7633 1020 116.046 501.064 479.425
1125 0 72.1438 15.4275 1113 115.592 501.054 477.883
1126 0 72.1815 14.3111 1033 122.035 500.995 475.119
1127 0 74.128 13.5981 1008 124.504 501.8 474
1128 0 76.1638 14.2719 1087 123.789 502.227 474.241
1129 0 76.124 14.2268 1083 125.727 502.216 471.586
1130 0 79.0734 13.3167 1053 129.121 501.543 470.529
1131 0 83.106 13.5369 1125 127.558 501.574 470.096
1132 0 85.0524 14.9555 1272 125.405 501.624 467.112
1133 0 88.0822 14.6 1286 126.376 502.22 465.332
1134 0 91.0593 14.507 1321 128.609 502.034 465.329
1135 0 93.0612 15.0009 1396 126.973 501.433 463.158
1136 0 95.1813 14.9399 1422 127.342 502.193 463.085
1137 0 100.092 15.0062 1502 126.352 502.154 460.326
1138 0 103.164 13.5997 1403 130.038 501.426 459.29
1139 0 105.047 13.4512 1413 130.969 501.312 456.21
1140 0 106.058 13.4643 1428 129.445 501.005 457.305
1141 0 112.082 13.5972 1524 127.434 500.722 452.568
1142 1 60.0626 12.1373 729 123.977 501.395 474.481
1143 0 61.0588 12.7582 779 123.8 501.54 475.222
1144 0 64.0966 14.1349 906 121.753 501.146 477.321
1145 0 67.148 13.8947 933 121.922 500.35 475.904
1146 0 68.2185 13.061 891 123.064 500.633 474.337
1147 0 71.3219 13.6003 970 119.56 500.257 470.732
1148 0 71.1003 13.5443 963 120.017 500.683 471.231
1149 0 75.1153 12.9135 970 120.081 500.186 469.016
1150 0 77.1833 13.021 1005 120.499 499.564 468.125
1151 0 79.0911 13.554 1072 119.068 499.164 466.539
1152 0 83.159 12.1334 1009 120.534 499.204 465.756
1153 0 85.24 12.5411 1069 118.05 498.964 465.155
1154 0 91.1315 14.0456 1280 113.148 499.016 463.62
1155 0 91.143 14.0878 1284 114.317 499.303 459.613
1156 0 94.0893 13.5722 1277 112.684 498.985 460.251
1157 0 97.1592 12.8964 1253 113.741 499.267 457.978
1158 0 100.24 14.0163 1405 110.022 499.698 455.152
1159 0 103.244 13.7248 1417 111.251 499.764 452.741
1160 0 107.285 13.1146 1407 112.564 499.063 445.898
1161 0 110.218 13.4552 1483 112.175 499.34 445.693
1162 0 112.181 11.1516 1251 118.205 499.196 447.018
1163 1 63.2266 11.3085 715 120.817 499.516 472.218
1164 0 65.1529 12.3709 806 117.708 499.301 471.841
1165 0 68.0586 13.121 893 116.609 498.998 472.239
1166 0 70.1144 13.4922 946 115.504 499.237 470.428
1167 0 72.0837 12.1525 876 119.465 498.704 469.672
1168 0 77.1773 13.605 1050 114.735 499.608 467.09
1169 0 79.1128 14.7132 1164 112.062 499.277 468.073
1170 0 80.173 13.7702 1104 114.885 499.593 467.818
1171 0 84.1554 13.8197 1163 114.815 498.574 463.979
1172 0 89.1642 14.8602 1325 110.718 499.392 464.042
1173 0 89.1626 13.6941 1221 115.69 500.256 460.691
1174 0 94.1131 14.1638 1333 114.436 500.434 459.056
1175 1 53.0764 12.3596 656 113.466 499.925 480.86
1176 0 53.087 12.2629 651 114.366 500.241 479.611
1177 0 57.1008 12.6968 725 112.524 498.997 477.441
1178 0 57.1049 13.3439 762 112.747 498.833 474.392
1179 0 59.0542 13.7839 814 111.299 498.568 474.559
1180 0 62.1225 13.0066 808 112.537 498.509 472.09
1181 0 62.1724 13.5269 841 112.581 499.264 470.815
1182 0 65.2215 13.5385 883 110.786 500.327 469.804
1183 0 68.29 13.5305 924 111.019 500.871 467.525
1184 0 69.2892 13.7251 951 110.448 500.648 464.989
1185 0 70.2632 12.1543 854 108.434 500.129 467.15
1186 0 73.1466 12.9329 946 106.961 500.733 464.98
1187 0 76.2293 12.7772 974 106.364 500.714 465.68
1188 0 79.1942 11.9832 949 108.889 499.942 462.083
1189 0 84.2516 13.1036 1104 105.644 500.259 460.456
1190 0 87.2381 12.804 1117 107.177 500.122 458.226
1191 0 90.3315 12.8194 1158 107.193 500.119 456.846
1192 0 93.4095 11.9688 1118 108.488 499.621 454.922
1193 0 99.2963 13.213 1312 104.316 500.452 452.457
1194 1 51.1068 11.5053 588 110.466 499.595 473.077
1195 0 53.1623 12.49 664 108.307 500.176 472.432
1196 0 54.2152 12.395 672 108.868 500.249 471.388
1197 0 56.0922 13.0143 730 105.978 500.916 474.793
1198 0 58.0893 13.376 777 106.479 500.824 473.6
1199 0 60.0603 14.4188 866 103.788 500.569 474.132
1200 0 58.1193 11.3559 660 113.508 500.588 472.059
1201 0 65.0599 13.2954 865 107.239 500.182 469.49
1202 0 65.0521 13.8351 900 107.392 500.331 467.289
1203 0 69.1226 13.7582 951 106.848 499.761 464.644
1204 0 69.0415 13.9481 963 108.194 499.868 464.909
1205 0 72.2109 12.5466 906 111.575 500.509 463.223
1206 0 73.2052 13.1548 963 110.753 500.799 462.794
1207 0 78.0977 13.7392 1073 110.017 500.432 460.957
1208 0 79.0616 13.5337 1070 111.271 500.07 461.183
1209 0 84.1801 14.3383 1207 108.335 500.305 459.524
1210 0 86.2263 13.3486 1151 111.34 499.984 457.398
1211 0 88.1034 14.6873 1294 108.777 499.961 455.825
1212 0 90.0649 13.6235 1227 112.89 499.257 453.597
1213 0 94.1554 15.485 1458 108.85 499.877 452.68
1214 0 98.1741 12.7019 1247 115.764 500.305 449.973
1215 0 102.107 13.1137 1339 114.866 499.963 449.825
1216 0 103.111 13.3837 1380 114.15 500.649 447.56
1217 1 53.1102 10.0922 536 117.707 500.547 471.688
1218 0 59.0501 11.4648 677 113.759 500.155 469.871
1219 0 59.0113 12.1333 716 110.598 500.446 468.742
1220 0 62.0714 12.0506 748 108.743 500.286 468.759
1221 0 62.0567 11.4895 713 111.822 500.039 468.697
1222 0 62.0495 10.8623 674 115.846 499.77 468.178
1223 0 67.0611 11.333 760 113.579 499.825 468.188
1224 0 69.0862 11.8692 820 114.289 499.602 465.634
1225 0 72.0386 11.9797 863 116.169 499.606 463.62
1226 0 73.0546 12.6618 925 114.922 499.532 464.785
1227 0 74.0878 11.6213 861 118.568 500.143 462.966
1228 0 78.095 11.7549 918 117.301 500.265 463.573
1229 0 81.2031 10.6646 866 120.984 500.062 460.699
1230 0 86.0865 11.5465 994 117.533 500.633 460.528
1231 0 86.1399 12.2591 1056 115.866 500.56 457.795
1232 0 91.0973 12.1738 1109 115.335 500.665 458.321
1233 0 92.1089 11.6818 1076 118.463 500.25 454.999
1234 0 94.1163 11.5177 1084 118.091 499.782 453.825
1235 0 99.0611 13.2444 1312 114.601 499.9 450.508
1236 0 101.149 12.8622 1301 114.135 500.392 450.707
1237 0 104.234 11.6277 1212 118.197 499.966 444.889
1238 0 110.199 11.824 1303 115.792 500.227 447.001
1239 1 60.2489 9.27818 559 110.664 499.624 476.374
1240 0 66.323 11.248 746 104.129 499.154 472.382
1241 0 67.1343 10.8142 726 105.147 499.266 475.083
1242 0 68.2112 11.0246 752 105.12 499.032 475.509
1243 0 72.1518 11.2818 814 105.227 499.179 471.795
1244 0 72.0643 10.5045 757 107.137 499.568 472.255
1245 0 76.2075 13.0302 993 109.356 499.285 471.225
1246 0 78.0902 12.652 988 110.607 498.577 469.763
1247 0 81.284 12.7331 1035 111.248 498.897 468.834
1248 0 84.1152 12.364 1040 112.479 498.51 466.185
1249 0 85.2068 12.6398 1077 113.683 498.962 462.612
1250 0 86.3043 12.3516 1066 115.097 499.508 465.093
1251 0 89.2175 12.6208 1126 115.928 499.027 460.861
1252 0 93.1892 12.3405 1150 116.494 499.14 460.646
1253 0 96.1887 12.2052 1174 116.229 498.957 459.764
1254 0 97.2146 11.7781 1145 119.183 498.739 454.941
1255 0 102.276 13.444 1375 112.837 500.068 455.887
1256 0 107.169 11.9344 1279 116.71 500.016 453.063
1257 0 108.326 11.0408 1196 118.86 499.518 449.84
1258 0 113.288 13.7173 1554 110.136 499.553 447.904
1259 1 62.1161 10.1423 630 109.775 500.286 474.687
1260 0 64.2038 11.5414 741 107.923 500.015 475.105
1261 0 68.1381 10.9483 746 116.973 500.465 474.861
1262 0 68.0868 10.8538 739 118.402 500.195 473.192
1263 0 72.2586 11.7218 847 115.999 500.286 470.747
1264 0 73.1078 10.6829 781 118.57 500.729 471.138
1265 0 75.2029 11.6618 877 117.397 500.974 466.812
1266 0 79.1005 12.9835 1027 113.476 500.197 468.638
1267 0 83.2186 11.6801 972 116.791 500.485 466.489
1268 0 84.2025 11.318 953 118.177 501.029 464.417
1269 0 87.1772 11.9297 1040 116.862 501.213 462.913
1270 0 90.167 11.2791 1017 118.305 500.38 461.736
1271 0 93.2036 12.4459 1160 115.404 500.572 459.367
1272 0 95.1568 12.1484 1156 117.526 500.653 457.621
1273 0 97.2635 11.3609 1105 119.368 500.224 455.443
1274 1 52.0894 9.79087 510 116.251 499.163 478.408
1275 0 54.0419 9.99224 540 108.463 501.302 478.75
1276 0 56.1232 9.87115 554 108.608 499.666 478.857
1277 0 57.0472 10.9909 627 104.847 499.11 479.415
1278 0 60.068 11.0874 666 104.477 500.038 477.179
1279 0 58.0496 10.6978 621 106.99 500.18 480.704
1280 0 60.1205 9.5974 577 107.333 498.78 480.795
1281 0 60.0536 9.17514 551 111.436 499 475.728
1282 0 65.0618 9.92903 646 109.025 498.947 474.861
1283 0 67.1377 10.8285 727 107.637 498.959 473.78
1284 0 67.1433 9.62122 646 110.503 499.268 474.048
1285 0 70.1186 9.28427 651 110.596 499.101 472.826
1286 0 70.0701 10.0185 702 111.241 499.172 471.853
1287 0 73.1137 9.99813 731 111.715 498.777 471.007
1288 0 77.0944 11.8296 912 109.295 498.991 469.159
1289 0 80.0747 10.0656 806 111.656 498.903 470.556
1290 0 83.1028 11.5159 957 109.254 498.902 467.67
1291 0 85.0483 10.1119 860 112.055 499.019 469.316
1292 0 88.1105 10.3052 908 112.608 500.006 467.562
1293 1 49.0967 10.2858 505 109.184 499.6 485.422
1294 0 54.0928 10.1492 549 106.497 498.898 484.035
1295 0 54.1681 10.9289 592 107.319 499.211 482.578
1296 0 56.1231 11.0828 622 106.756 499.693 480.69
1297 0 58.0745 11.5541 671 106.201 499.259 480.319
1298 0 59.0842 11.746 694 106.844 499.037 478.947
1299 0 60.1204 12.1257 729 105.587 498.636 478.394
1300 0 62.2254 12.4547 775 104.748 499.515 477.243
1301 0 63.0893 11.3965 719 108.355 499.061 477.184
1302 0 65.123 12.4687 812 105.679 499.369 475.401
1303 0 67.1231 12.3653 830 105.241 499.684 475.351
1304 0 69.1455 11.8446 819 106.519 498.781 474.518
1305 0 71.05 11.7101 832 105.407 499.581 474.326
1306 0 74.0712 10.5439 781 107.052 499.813 471.699
1307 0 76.0518 12.4126 944 103.999 500.196 470.001
1308 0 79.0737 12.0015 949 103.96 500.024 470.248
1309 0 81.1077 11.0347 895 105.996 499.897 467.636
1310 0 83.1079 10.0833 838 107.545 500.283 469.305
1311 1 39.1338 9.91469 388 106.719 500.778 487.861
1312 0 42.0684 11.3862 479 103.931 502.077 485.873
1313 0 44.2206 11.5331 510 102.655 502.194 484.651
1314 0 46.0405 11.7071 539 101.878 502.169 485.007
1315 0 45.0798 9.89358 446 107.691 502.202 485.805
1316 0 47.0693 11.3237 533 104.144 501.409 485.854
1317 0 48.071 11.1918 538 105.255 500.989 485.086
1318 0 49.0698 10.2099 501 106.459 500.97 484.78
1319 0 52.0692 11.3503 591 102.135 501.288 481.878
1320 0 54.0545 12.1359 656 100.264 500.245 482.843
1321 0 53.1073 10.6388 565 104.655 500.927 481.198
1322 0 53.1276 10.2771 546 106.469 501.176 481.024
1323 0 58.0981 12.5822 731 99.5349 500.383 480.714
1324 0 58.0655 11.4181 663 102.822 500.275 481.531
1325 0 58.0382 12.0955 702 103.255 501.03 478.947
1326 0 59.1141 11.1141 657 105.209 501.323 478.591
1327 0 63.0403 12.0875 762 102.744 500.467 478.504
1328 0 64.0452 12.2726 786 103.123 500.654 477.431
1329 0 67.1015 12.3544 829 103.267 499.867 475.294
1330 0 67.0744 11.4351 767 105.082 500.215 475.665
1331 0 71.1287 12.0486 857 104.736 499.916 473.601
1332 0 73.0832 12.301 899 104.256 499.61 472.258
1333 0 75.1564 13.1991 992 103.121 500.092 471.157
1334 0 77.1373 12.0175 927 106.179 500.335 470.031
1335 0 79.1258 12.3474 977 105.135 500.111 470.466
1336 0 84.1439 13.061 1099 103.507 499.894 469.583
1337 0 87.2389 12.5174 1092 105.627 500.209 466.959
1338 1 43.0464 10.6397 458 110.114 500.742 487.895
1339 0 44.015 11.7687 518 108.651 500.448 487.373
1340 0 46.0951 12.2139 563 108.14 499.62 485.082
1341 0 49.1333 13.2497 651 108.588 501.091 483.642
1342 0 50.124 12.7284 638 106.088 500.801 485.636
1343 0 49.0659 12.2488 601 109.1 500.403 484.739
1344 0 51.0478 12.1651 621 109.014 500.378 483.533
1345 0 55.0521 13.2602 730 104.73 500.693 481.367
1346 0 55.0758 13.3997 738 104.607 500.496 481.465
1347 0 57.0604 12.8811 735 105.875 500.839 481.188
1348 0 59.1149 12.7379 753 106.526 501.299 479.252
1349 0 61.0596 12.365 755 106.503 501.229 480.972
1350 0 62.0375 12.299 763 107.363 501.025 477.354
1351 0 67.0463 12.8717 863 104.204 501.063 478.221
1352 0 68.0799 13.3666 910 103.159 501.301 478.267
1353 0 70.0505 13.3047 932 104.085 501.427 474.517
1354 0 74.0428 13.1275 972 103.656 501.448 473.47
1355 0 76.0822 13.0254 991 102.475 501.788 474.255
1356 0 78.1175 13.3261 1041 102.407 501.286 470.732
1357 0 82.0605 14.6234 1200 98.3792 501.371 470.019
1358 0 85.1247 14.1087 1201 99.8759 501.535 467.898
1359 0 86.098 13.0201 1121 103.136 501.194 465.519
1360 0 87.1044 11.9741 1043 110.432 500.761 463.686
1361 0 92.2042 11.442 1055 114.091 499.636 462.155
1362 0 95.1724 9.62464 916 109.762 500.091 465.884
1363 1 52.0979 11.536 601 100.235 500.498 482.652
1364 0 52.1116 11.6673 608 99.2993 500.702 484.062
1365 0 53.0559 11.7423 623 103.379 500.679 483.072
1366 0 58.0785 12.156 706 100.365 500.661 482.501
1367 0 57.0788 12.5966 719 101.75 500.723 479.594
1368 0 59.0733 11.6465 688 103.183 500.596 479.203
1369 0 64.0472 12.522 802 100.973 500.717 478.325
1370 0 63.0939 11.6652 736 103.499 500.765 476.936
1371 0 67.0894 12.0287 807 102.156 500.908 474.833
1372 0 70.1269 12.6485 887 100.741 500.276 473.293
1373 0 71.0604 12.6231 897 101.489 500.077 474.177
1374 0 74.1263 12.3168 913 102.449 500.285 471.648
1375 0 77.073 11.7291 904 103.521 500.458 468.602
1376 0 80.0825 13.3487 1069 100.698 500.661 469.234
1377 0 81.117 12.6361 1025 103.441 499.735 467.639
1378 0 85.1991 11.6433 992 105.456 500.642 465.385
1379 0 87.1525 11.8184 1030 106.511 501.014 465.149
1380 0 90.1378 13.08 1179 103.962 500.832 463.74
1381 0 92.3166 12.2297 1129 107.425 500.613 461.939
1382 0 97.2836 12.1089 1178 108.195 500.12 460.64
1383 0 100.072 12.3111 1232 109.462 499.714 459.032
1384 0 104.196 12.7548 1329 109.093 499.331 457.36
1385 1 53.0915 11.1882 594 110.204 499.978 481
1386 0 55.1357 11.9161 657 115.291 500.795 479.539
1387 0 56.1127 11.7977 662 110.261 501.373 480.128
1388 0 58.0943 11.8256 687 110.279 501.678 478.715
1389 0 63.1629 14.1697 895 104.125 501.555 477.879
1390 0 63.1739 11.7612 743 110.721 502.782 479.19
1391 0 65.1071 13.4087 873 108.353 500.711 476.308
1392 0 68.124 12.8589 876 109.707 500.691 473.553
1393 0 70.1291 14.3164 1004 106.651 500.711 474.007
1394 0 72.1547 12.6949 916 112.159 501.31 471.558
1395 0 74.3178 12.7157 945 112.18 501.319 472.185
1396 0 77.0576 12.3674 953 114.604 501.099 469.976
1397 0 80.0728 13.1755 1055 112.904 501.282 469.093
1398 0 81.1897 13.0682 1061 114.342 501.393 465.239
1399 0 84.1496 12.0619 1015 115.11 501.776 465.395
1400 0 88.1089 14.0735 1240 109.195 500.878 463.068
1401 0 91.1009 13.8418 1261 109.359 500.699 462.803
1402 0 92.1489 12.393 1142 113.637 500.874 459.777
1403 0 95.189 11.8816 1131 113.512 500.473 458.138
1404 1 49.0351 10.8086 530 111.106 501.272 478.842
1405 0 53.0714 12.4361 660 111.083 500.988 481.806
1406 0 55.0524 13.1874 726 109.236 500.218 481.258
1407 0 57.0927 13.6445 779 108.711 500.137 479.777
1408 0 58.0457 12.628 733 112.356 499.677 477.98
1409 0 59.1298 12.6163 746 112.416 499.846 477.641
1410 0 62.1001 13.7359 853 110.128 500.658 476.996
1411 0 65.0699 13.6161 886 109.508 500.649 474.742
1412 0 66.0697 13.1376 868 112.934 500.753 472.286
1413 0 68.0305 13.2588 902 112.08 501.033 473.408
1414 0 70.0475 14.0619 985 111.123 501.249 471.232
1415 0 72.0334 13.2022 951 113.909 500.167 468.22
1416 0 73.0959 13.5849 993 114.516 500.399 465.499
1417 0 77.0545 13.2633 1022 114.354 499.904 467.406
1418 0 79.0725 13.3295 1054 115.408 499.862 463.675
1419 0 81.0353 12.8956 1045 116.12 500.2 464.154
1420 0 83.062 12.894 1071 116.934 499.971 461.365
1421 0 86.0624 13.0254 1121 117.882 499.492 462.459
1422 0 90.2051 14.2121 1282 115.225 499.555 458.798
1423 0 93.1534 13.0752 1218 117.743 499.205 457.922
1424 0 95.1109 14.257 1356 114.547 500.442 454.715
1425 0 96.1077 13.4745 1295 118.195 500.928 455.722
1426 0 99.1832 13.2482 1314 119.247 501.209 453.441
1427 0 104.201 13.0229 1357 119.822 501.675 452.813
1428 0 108.238 14.0432 1520 117.281 499.946 450.519
1429 0 113.264 13.4377 1522 118.762 499.713 447.455
1430 0 115.163 13.0164 1499 120.472 499.816 447.62
1431 0 120.356 13.7426 1654 118.243 499.556 442.6
1432 1 62.1435 11.57 719 116.7 500.106 470.274
1433 0 65.2085 14.2466 929 108.531 501.075 471.618
1434 0 65.1188 11.9627 779 113.3 501.58 472.421
1435 0 70.2149 13.416 942 109.148 501.197 469.128
1436 0 71.0807 13.14 934 111.085 501.001 468.086
1437 0 72.0856 11.8332 853 115.179 501.413 468.204
1438 0 77.1092 13.4614 1038 110.82 501.432 466.7
1439 0 79.1056 12.6034 997 113.112 502.014 464.143
1440 0 80.1131 13.1938 1057 113.368 501.701 459.731
1441 0 83.0914 13.1662 1094 113.806 501.601 458.827
1442 0 85.1177 13.4402 1144 113.31 501.098 458.485
1443 0 89.0823 13.8187 1231 112.197 500.906 458.331
1444 0 90.1064 12.1301 1093 117.037 501.064 457.529
1445 0 94.2683 13.7692 1298 112.943 501.572 454.618
1446 0 95.1916 13.289 1265 114.213 501.63 448.759
1447 0 96.161 12.6975 1221 116.783 500.921 449.742
1448 0 100.187 11.8079 1183 118.117 500.435 449.496
1449 0 103.353 11.4463 1183 119.375 500.095 446.334
1450 0 104.121 11.5827 1206 118.9 499.891 445.543
1451 0 109.06 9.99447 1090 121.123 499.661 444.967
1452 0 116.243 12.362 1437 115.315 500.414 440.685
1453 1 57.0491 11.604 662 113.089 499.066 466.107
1454 0 60.0215 11.7791 707 111.733 498.563 470.331
1455 0 61.1829 11.3594 695 113.122 499.734 466.25
1456 0 65.195 12.4243 810 109.019 500.06 465.26
1457 0 69.2407 12.406 859 111.375 500.836 464.438
1458 0 69.1917 12.0968 837 112.599 500.432 466.848
1459 0 68.1295 10.6562 726 117.238 500.488 465.47
1460 0 73.1364 12.3331 902 109.912 501.09 464.376
1461 0 77.1925 9.91028 765 115.009 500.932 462.795
1462 0 77.1996 12.8628 993 110.212 499.991 459.3
1463 0 81.3055 11.795 959 112.066 499.73 458.893
1464 0 82.2577 11.1965 921 114.465 500.195 458.113
1465 0 85.2069 11.7831 1004 114.125 500.298 457.427
1466 0 88.1562 11.3548 1001 115.014 500.404 454.841
1467 0 91.0777 12.3521 1125 108.224 500.573 454.991
1468 0 94.1707 12.3393 1162 109.052 500.404 456.115
1469 0 98.196 12.3732 1215 109.927 500.381 455.1
1470 0 100.385 9.90191 994 113.875 500.48 454.867
1471 0 103.298 10.7456 1110 114.877 500.068 450.757
1472 1 62.1334 11.2017 696 106.529 499.779 472.336
1473 0 62.2008 12.8133 797 112.42 499.915 474.243
1474 0 65.0475 12.9598 843 113.027 501.146 476.106
1475 0 67.0831 13.7441 922 110.467 501.544 473.913
1476 0 70.0798 13.9127 975 108.771 501.366 473.875
1477 0 71.0667 12.1576 864 113.192 501.619 473.481
1478 0 74.0394 13.5333 1002 110.587 501.621 470.001
1479 0 75.0957 13.05 980 111.83 501.584 470.168
1480 0 79.0636 13.4322 1062 110.457 501.941 468.017
1481 0 81.0669 11.3116 917 115.147 501.8 468.044
1482 0 85.0931 13.6791 1164 109.614 501.643 463.558
1483 0 88.1412 13.5464 1194 109.372 501.258 462.621
1484 0 89.1096 11.6037 1034 114.194 500.769 460.328
1485 0 93.1054 11.9435 1112 110.143 500.379 459.941
1486 0 96.1751 11.3335 1090 108.594 499.934 458.256
1487 1 50.0907 10.2414 513 107.548 498.651 482.158
1488 0 52.165 12.6905 662 101.024 499.447 481.293
1489 0 53.0893 12.997 690 98.9087 501.774 481.449
1490 0 53.1396 11.4604 609 103.516 501.562 480.401
1491 0 55.0628 11.5868 638 102.481 500.766 479.973
1492 0 59.044 12.0927 714 101.847 500.692 479.429
1493 0 59.0892 12.5234 740 102.947 500.884 475.514
1494 0 59.0935 11.8287 699 105.622 501.393 477.069
1495 0 60.0896 11.7491 706 105.237 501.064 475.109
1496 0 66.089 13.5726 897 100.116 500.943 473.715
1497 0 66.0592 12.0952 799 102.864 500.728 476.623
1498 0 67.0495 12.3938 831 103.296 500.875 474.532
1499 0 72.0889 14.1214 1018 99.0697 500.688 473.52
1500 0 71.0728 12.1284 862 105.007 501.132 471.927
1501 0 72.1521 12.1549 877 106.737 501.073 470.513
1502 0 74.1346 12.1401 900 107.701 500.381 469.962
1503 0 79.0884 13.605 1076 98.0799 500.039 469.079
1504 0 79.0748 12.836 1015 100.983 499.603 468.468
1505 0 82.1255 14.2708 1172 99.6288 500.381 467.853
1506 0 82.1908 13.8337 1137 99.8382 499.645 470.678
1507 0 82.1476 12.4897 1026 109.471 500.556 468.894
1508 0 84.2439 12.7606 1075 109.718 499.831 465.918
1509 0 84.1908 12.8161 1079 112.215 500.023 465.743
1510 0 86.1441 12.2934 1059 112.012 500.07 464.421
1511 0 90.1544 12.8446 1158 108.528 499.756 464.512
1512 0 95.1737 12.3564 1176 107.431 500.451 463.165
1513 1 51.0972 11.3509 580 102.841 500.662 482.671
1514 0 52.1557 10.9863 573 96.1623 500.082 483.862
1515 0 55.0286 11.6848 643 93.8087 500.218 481.975
1516 0 55.0178 11.9598 658 94.1368 500.41 480.172
1517 0 57.122 12.202 697 93.132 500.135 481.36
1518 0 59.0634 11.7501 694 94.4438 500.293 480.277
1519 0 59.1179 11.7731 696 95.9483 500.614 479.082
1520 0 64.1272 12.3505 792 94.9937 500.665 477.75
1521 0 65.1351 13.188 859 95.3213 500.916 477.583
1522 0 64.1173 12.8047 821 96.7905 500.893 476.067
1523 0 67.1821 11.4316 768 100.664 500.688 476.958
1524 0 70.0652 12.6025 883 99.6274 500.492 477.024
1525 0 70.1414 11.4198 801 104.072 500.335 475.574
1526 0 71.1059 12.0243 855 104.011 499.97 474.067
1527 0 74.1502 11.6116 861 106.714 499.314 472.927
1528 0 76.109 12.0485 917 106.984 499.459 471.568
1529 1 40.0192 11.4445 458 109.404 500.009 490.587
1530 0 40.0399 11.064 443 111.242 500.314 490.458
1531 0 43.0259 12.4111 534 107.386 499.903 489.478
1532 0 41.023 11.5301 473 110.112 500.34 488.784
1533 0 44.0286 11.9468 526 109.892 500.354 488.962
1534 0 46.1008 11.6918 539 112.221 500.208 487.286
1535 0 47.0653 11.3672 535 114.069 500.684 488.09
1536 0 48.0422 11.7189 563 114.075 499.84 488.176
1537 0 49.0542 11.6606 572 116.257 500.098 487.019
1538 0 52.0628 12.1008 630 114.29 499.706 487.146
1539 0 53.0754 12.4917 663 114.977 499.716 485.115
1540 0 54.0353 13.3616 722 114.284 499.249 483.843
1541 0 56.0666 12.9311 725 115.492 499.766 484.498
1542 0 56.1935 12.0121 675 118.776 500.028 484.633
1543 0 58.024 12.5638 729 116.82 499.929 484.471
1544 0 60.0306 13.4431 807 115.67 498.981 482.371
1545 0 62.1315 12.2804 763 118.562 498.765 481.798
1546 0 63.0522 12.6245 796 118.886 500.098 478.931
1547 0 66.053 13.9888 924 114.424 499.482 480.009
1548 0 68.0843 13.072 890 116.34 499.411 477.381
1549 0 70.0524 13.8753 972 114.672 499.072 475.849
1550 0 73.0614 13.4818 985 115.655 498.556 475.476
1551 0 73.0349 13.0759 955 118.197 498.451 473.287
1552 0 77.0705 13.6369 1051 117.165 498.431 472.111
1553 0 79.0972 13.515 1069 117.191 498.261 470.303
1554 0 82.0758 14.645 1202 113.022 497.559 469.739
1555 0 85.0905 13.6678 1163 116.41 498.445 468.343
1556 0 86.0841 13.2661 1142 118.968 497.551 467.083
1557 0 90.0987 14.5507 1311 116.397 497.184 465.571
1558 0 91.0899 12.9103 1176 121.339 497.471 463.759
1559 1 50.0289 9.73438 487 127.713 496.891 484.62
1560 0 52.0591 11.948 622 121.084 497.895 483.778
1561 0 51.1841 11.4098 584 116.009 497.538 484.765
1562 0 52.0712 12.3677 644 114.599 497.96 485.238
1563 0 56.0812 13.0347 731 111.787 498.416 481.822
1564 0 56.1146 12.6883 712 113.358 498.013 481.101
1565 0 60.0564 11.7556 706 114.059 497.353 481.446
1566 0 62.0852 13.8197 858 109.105 496.655 480.414
1567 0 64.0924 13.4961 865 109.618 497.625 478.082
1568 0 67.0416 13.7825 924 108.708 497.078 477.82
1569 0 69.0489 14.3087 988 107.808 497.723 476.894
1570 0 72.0783 13.7906 994 110.057 497.401 475.398
1571 0 73.0683 13.5216 988 110.723 497.236 474.05
1572 0 77.0787 14.8679 1146 107.917 497.265 472.247
1573 0 79.1636 14.1858 1123 110.289 497.518 471.216
1574 0 79.0608 13.0026 1028 115.065 497.19 469.411
1575 0 84.1734 13.9949 1178 111.879 498.313 469.977
1576 0 84.1479 14.2012 1195 113.344 498.02 468.241
1577 0 88.088 14.2698 1257 114.444 497.038 466.319
1578 0 89.0533 13.5088 1203 119.875 497.309 464.862
1579 0 94.0409 13.8131 1299 118.665 497.525 464.022
1580 0 97.0882 14.5023 1408 117.648 497.14 461.355
1581 0 97.0842 12.793 1242 121.341 497.39 461.003
1582 0 100.086 11.65 1166 123.945 497.721 461.323
1583 0 103.182 13.1031 1352 120.517 497.197 460.945
1584 0 106.215 12.3805 1315 122.261 497.633 458.23
1585 0 113.106 13.6332 1542 120.606 497.506 454.907
1586 0 115.106 14.1435 1628 120.22 497.413 453.708
1587 0 119.175 13.0061 1550 123.221 497.039 450.794
1588 0 121.206 13.3491 1618 123.808 497.29 450.363
1589 0 125.172 13.8609 1735 122.587 497.756 446.054
1590 0 130.132 12.7025 1653 124.497 497.739 444.544
1591 0 136.17 13.3877 1823 123.178 497.959 442.185
1592 0 141.18 13.0188 1838 122.078 497.739 437.481
1593 0 146.109 12.874 1881 123.176 497.531 439.972
1594 0 150.254 12.1261 1822 125.216 498.383 436.143
1595 1 81.0823 13.0608 1059 111.684 497.661 468.328
1596 0 85.1736 13.7014 1167 109.937 498.33 466.856
1597 0 86.0842 13.3009 1145 112.62 498.909 464.057
1598 0 90.1046 13.7174 1236 111.361 499.31 465.56
1599 0 92.1213 13.4931 1243 111.775 499.221 464.352
1600 0 94.0984 12.9545 1219 112.766 498.616 462.415
1601 0 99.1411 13.0925 1298 112.515 499.005 459.715
1602 0 102.093 12.7923 1306 114.74 498.426 458.533
1603 0 106.098 13.6478 1448 121.072 498.667 455.548
1604 0 110.15 13.2365 1458 121.093 498.952 455.384
1605 0 112.1 13.6129 1526 119.989 497.929 454.076
1606 0 115.172 12.9892 1496 121.389 497.591 450.898
1607 0 120.119 13.1453 1579 118.524 497.999 448.557
1608 0 123.212 12.8558 1584 117.052 497.367 445.934
1609 0 127.247 12.5976 1603 111.462 497.939 448.515
1610 0 131.175 11.7096 1536 113.906 497.502 447.758
1611 1 71.0565 13.6511 970 111.084 497.653 473.607
1612 0 70.0884 11.8422 830 117.605 497.127 471.295
1613 0 76.1115 11.9299 908 119.836 497.023 471.826
1614 0 81.0757 14.0486 1139 114.716 497.511 470.437
1615 0 81.0874 12.3324 1000 120.286 496.938 468.365
1616 0 86.2757 13.99 1207 116.301 497.287 465.512
1617 0 89.1244 13.4755 1201 117.127 497.336 465.596
1618 0 93.1214 14.7012 1369 113.665 497.335 465.313
1619 0 93.1077 13.4038 1248 119.313 497.152 462.653
1620 0 98.0598 13.4204 1316 119.168 497.991 461.447
1621 0 98.1005 14.3628 1409 119.062 497.622 459.341
1622 0 101.093 14.0366 1419 120.016 496.534 457.59
1623 0 107.298 14.6973 1577 115.641 497.512 456.813
1624 0 109.061 13.2219 1442 118.748 496.919 454.896
1625 0 113.173 12.0611 1365 120.057 496.779 453.893
1626 1 63.0466 12.7366 803 111.073 496.544 479.02
1627 0 66.2344 12.9238 856 111.22 496.569 475.859
1628 0 68.0547 13.3275 907 108.279 496.792 476.445
1629 0 70.0761 12.4436 872 111.498 497.195 474.982
1630 0 73.0893 13.5861 993 108.84 496.529 473.254
1631 0 73.2015 12.7183 931 111.321 496.828 473.382
1632 0 78.0529 14.0033 1093 108.154 496.319 472.177
1633 0 78.0564 12.2988 960 112.626 496.014 470.189
1634 0 83.1522 13.4573 1119 110.33 496.529 466.988
1635 0 84.1467 13.1199 1104 111.014 496.752 468.268
1636 0 88.0937 14.0759 1240 108.887 496.723 465.173
1637 0 92.2068 14.3265 1321 107.679 497.573 463.419
1638 0 95.1172 14.1404 1345 108.175 496.994 461.584
1639 0 100.18 13.5156 1354 109.22 496.858 460.289
1640 0 103.22 14.5514 1502 107.711 496.86 460.045
1641 1 54.0893 10.723 580 115.829 496.795 478.986
1642 0 56.2209 10.8145 608 110.388 498.064 471.523
1643 0 58.183 10.6904 622 110.312 497.793 469.37
1644 0 59.0484 11.0926 655 108.94 497.707 474.872
1645 0 65.2156 13.4477 877 113.659 498.416 476.34
1646 0 66.1396 12.5341 829 116.187 498.502 477.223
1647 0 69.1361 13.0612 903 115.553 498.219 476.243
1648 0 68.1249 12.0954 824 119.712 498.261 474.511
1649 0 72.1015 12.316 888 118.529 498.84 474.199
1650 0 75.2155 13.7339 1033 115.456 498.735 472.121
1651 0 77.0878 13.6727 1054 116.021 498.102 471.935
1652 0 83.203 13.8456 1152 113.448 497.802 471.531
1653 0 84.2163 14.0115 1180 114.447 497.991 469.231
1654 0 86.1844 13.68 1179 116.586 497.696 466.35
1655 0 88.2925 14.1348 1248 116.837 497.613 463.615
1656 0 90.3389 12.6413 1142 121.02 497.842 463.018
1657 0 94.2455 13.0616 1231 117.724 497.266 465.701
1658 0 98.4163 14.5606 1433 114.744 497.193 462.725
1659 1 50.0758 11.1032 556 118.144 498.863 485.969
1660 0 53.125 12.7812 679 113.022 498.826 482.414
1661 0 53.0396 13.2165 701 112.956 498.799 482.183
1662 0 56.2184 12.7005 714 116.195 498.969 482.231
1663 0 58.2285 14.134 823 112.739 499.441 481.505
1664 0 59.2007 13.2262 783 116.517 499.109 478.706
1665 0 60.2449 12.8974 777 118.817 498.272 478.885
1666 0 64.182 12.8541 825 117.91 498.022 478.068
1667 0 64.1678 13.2309 849 117.013 498.572 477.277
1668 0 67.1749 12.9215 868 116.444 498.592 477.384
1669 0 67.2367 14.5159 976 114.09 498.458 474.891
1670 0 67.1996 12.4703 838 120.047 498.494 475.354
1671 0 72.3175 14.2842 1033 112.823 498.744 474.492
1672 0 73.184 13.5139 989 116.158 498.559 472.782
1673 0 76.0763 14.6169 1112 113.64 498.38 471.998
1674 0 77.1053 13.4751 1039 117.035 498.479 469.384
1675 0 82.1495 14.924 1226 111.602 498.65 469.827
1676 0 82.088 12.9983 1067 118.289 498.824 467.604
1677 0 85.2505 14.17 1208 114.993 498.732 465.797
1678 0 87.1354 14.2652 1243 114.873 498.707 465.385
1679 0 90.1115 14.0715 1268 112.385 499.069 466.134
1680 0 95.1567 13.3254 1268 116.767 497.968 463.886
1681 0 96.1536 12.0744 1161 119.822 497.481 464.953
1682 1 52.1439 11.3724 593 118.791 498.423 479.951
1683 0 53.1053 11.1665 593 112.174 499.528 478.396
1684 0 55.0639 11.6229 640 105.839 498.847 478.68
1685 0 58.0706 11.3138 657 106.787 498.994 479.192
1686 0 58.0477 11.5939 673 106.706 498.516 478.762
1687 0 61.0404 11.3695 694 107.111 497.772 479.215
1688 0 60.0761 10.6531 640 114.722 498.447 481.703
1689 0 64.1022 11.4037 731 112.592 497.531 478.424
1690 0 68.0744 11.9428 813 107.68 497.972 476.541
1691 0 70.1218 11.8366 830 107.783 497.607 471.216
1692 0 71.1082 13.1068 932 106.879 498.234 471.716
1693 0 74.1693 12.9568 961 106.39 498.481 472.099
1694 0 76.2733 12.665 966 107.754 497.806 468.946
1695 0 79.1995 12.9546 1026 107.731 498.095 467.747
1696 0 80.2567 11.7747 945 110.396 498.182 468.934
1697 0 84.2755 11.7946 994 111.265 498.056 465.971
1698 0 86.4304 12.0906 1045 110.92 498.331 464.219
1699 0 91.1444 11.6299 1060 113.111 498.133 460.74
1700 0 94.2444 11.8522 1117 113.506 497.68 459.704
1701 0 97.188 11.9151 1158 114.023 498.217 458.013
1702 0 99.1672 12.6655 1256 115.404 497.55 456.704
1703 1 53.0781 10.6824 567 112.092 497.912 482.37
1704 0 55.1419 11.7152 646 108.802 498.557 480.224
1705 0 57.1165 12.0806 690 108.258 498.355 480.816
1706 0 59.0597 13.444 794 113.358 495.904 478.775
1707 0 59.0324 12.2136 721 118.824 496.011 477.888
1708 0 64.0299 14.2277 911 111.979 496.258 475.857
1709 0 66.0259 13.0403 861 114.884 496.82 475.819
1710 0 66.0586 12.9582 856 115.735 496.845 474.721
1711 0 70.0331 14.436 1011 111.783 496.392 474.247
1712 0 72.0561 13.9752 1007 113.592 496.748 472.471
1713 0 73.0592 13.4275 981 117.416 497.141 471.93
1714 0 73.077 12.0284 879 120.857 496.916 473.039
1715 0 76.0484 12.4394 946 120.145 496.282 470.653
1716 0 81.1356 13.0892 1062 119.212 495.941 466.618
1717 0 84.1148 13.22 1112 117.613 496.635 467.746
1718 0 86.1657 12.5224 1079 118.884 496.413 465.259
1719 0 88.1069 12.9729 1143 117.263 496.444 462.095
1720 0 91.1295 12.0049 1094 120.044 496.48 458.434
1721 0 95.1935 12.4273 1183 115.69 497.305 455.373
1722 1 48.1529 9.9267 478 106.303 498.59 478.571
1723 0 51.0427 11.5198 588 102.469 497.267 482.099
1724 0 52.0645 12.1964 635 97.5228 497.953 478.704
1725 0 50.1167 10.5753 530 103.321 498.189 477.751
1726 0 54.069 11.1894 605 101.355 497.902 476.309
1727 0 54.0329 10.4011 562 104.308 497.393 475.765
1728 0 57.066 11.8109 674 101.675 497.309 476.068
1729 0 59.0778 12.3397 729 103.174 497.741 474.855
1730 0 60.0615 11.738 705 104.827 497.041 473.617
1731 0 60.0525 9.82474 590 110.356 496.797 472.78
1732 0 64.0853 10.8761 697 108.155 497.723 470.297
1733 0 65.0949 11.4909 748 108.123 497.536 472.159
1734 0 69.1642 12.2896 850 107.356 497.307 470.378
1735 0 71.0998 11.8003 839 108.802 497.198 469.602
1736 0 73.0742 12.2752 897 108.858 497.119 467.365
1737 0 76.0624 11.7535 894 110.294 497.369 466.971
1738 0 78.143 11.7349 917 110.462 497.206 465.047
1739 0 80.1192 12.0446 965 110.644 497.193 463.017
1740 0 84.029 12.8051 1076 109.717 497.013 460.628
1741 0 89.086 11.8762 1058 111.621 497.315 461.028
1742 0 90.1775 12.4976 1127 110.235 497.498 459.12
1743 0 92.2584 11.9447 1102 113.138 496.959 456.628
1744 0 95.0882 11.8101 1123 114.004 497.724 456.666
1745 0 99.2226 12.4367 1234 113.265 498.233 455.418
1746 0 102.14 11.4842 1173 114.961 497.801 454.662
1747 1 55.0954 10.4001 573 111.361 498.545 477.963
1748 0 55.157 10.3885 573 113.012 497.817 475.023
1749 0 62.0296 12.3973 769 115.865 496.828 478.072
1750 0 63.149 12.2251 772 117.01 498.92 476.03
1751 0 67.1586 13.1927 886 113.595 499.177 475.143
1752 0 69.0887 13.432 928 113.775 499.023 474.356
1753 0 71.1398 12.5106 890 117.852 499.418 472.616
1754 0 74.1253 13.8954 1030 114.025 499.421 472.344
1755 0 76.1066 13.0081 990 117.221 498.898 471.077
1756 0 77.073 12.6244 973 118.78 499.017 471.472
1757 0 82.0821 13.4256 1102 115.895 498.277 468.433
1758 0 85.0944 13.6554 1162 115.172 498.915 469.27
1759 0 86.1159 13.0406 1123 117.934 499.01 466.486
1760 0 91.095 13.3707 1218 116.739 499.112 464.638
1761 0 92.1483 13.348 1230 117.109 499.003 465.659
1762 0 94.095 13.125 1235 118.096 498.381 462.926
1763 0 99.1179 13.7816 1366 114.887 498.265 463.29
1764 0 99.0844 12.3935 1228 120.506 498.52 461.91
1765 0 105.116 14.2415 1497 115.986 498.964 458.878
1766 0 108.175 13.7555 1488 117.542 498.843 457.552
1767 0 108.145 12.1688 1316 122.661 498.394 455.256
1768 0 113.131 11.8359 1339 124.007 498.357 456.337
1769 1 62.0824 11.5814 719 123.204 498.652 477.374
1770 0 65.1735 12.1368 791 118.077 498.431 476.278
1771 0 68.1534 12.2958 838 117.384 499.006 474.116
1772 0 71.0447 12.4288 883 118.066 499.619 474.259
1773 0 74.0479 13.2482 981 117.136 498.999 472.873
1774 0 77.1043 12.6582 976 118.558 498.93 471.496
1775 0 75.0651 12.1228 910 122.834 499.024 469.215
1776 0 80.1935 13.2056 1059 118.125 498.381 470.195
1777 0 84.158 13.5459 1140 116.995 498.533 468.307
1778 0 86.1737 12.5908 1085 122.452 498.755 465.308
1779 0 90.1327 13.2693 1196 119.875 498.553 466.263
1780 0 94.191 13.6956 1290 119.171 498.6 462.436
1781 0 95.1456 14.0101 1333 119.957 497.832 461.571
1782 0 100.284 13.711 1375 121.224 498.668 458.509
1783 0 103.156 13.0773 1349 123.12 498.42 457.793
1784 0 106.149 14.4419 1533 118.858 499.004 458.599
1785 0 109.132 13.9373 1521 123.279 498.934 452.204
1786 0 114.211 14.6046 1668 122.026 498.646 452.874
1787 0 114.224 12.5806 1437 130.531 497.967 448.585
1788 0 117.175 12.7673 1496 131.027 498.142 448.908
1789 1 65.0948 11.5217 750 129.504 499.437 474.655
1790 0 63.0552 11.1807 705 125.105 498.559 470.068
1791 0 66.1299 11.8706 785 120.902 499.041 466.468
1792 0 68.163 11.942 814 119.844 499.131 466.271
1793 0 68.0638 10.8428 738 125.164 498.682 463.241
1794 0 72.0769 11.7652 848 121.812 498.562 463.48
1795 0 76.0681 12.5282 953 118.633 498.022 462.605
1796 0 78.1084 12.1882 952 120.458 498.19 459.329
1797 0 79.1666 11.9495 946 122.612 498.763 458.274
1798 0 82.1121 11.9958 985 122.483 497.499 458.56
1799 0 84.1012 12.8417 1080 119.878 498.431 458.527
1800 0 88.0892 12.7598 1124 119.77 497.74 457.052
1801 0 91.1108 11.9964 1093 121.512 497.575 456.349
1802 0 91.1031 12.0742 1100 123.361 497.405 453.96
1803 0 96.1365 12.6695 1218 122.187 497.817 451.641
1804 0 101.193 13.2124 1337 119.955 498.623 451.381
1805 1 58.0888 10.1224 588 109.733 499.252 474.663
1806 0 59.3137 12.3917 735 119.718 498.937 473.834
1807 0 61.3605 13.6244 836 111.019 498.84 473.745
1808 0 64.2528 12.9489 832 114.947 498.873 473.255
1809 0 64.0793 12.7342 816 117.19 499.332 475.944
1810 0 67.1578 12.6568 850 117.362 499.698 474.284
1811 0 69.2115 12.7147 880 117.028 499.948 473.688
1812 0 71.2299 13.5617 966 115.414 499.46 471.335
1813 0 74.2143 13.8653 1029 114.143 499.325 469.785
1814 0 76.1918 12.7704 973 117.671 498.535 468.015
1815 0 78.2103 13.4509 1052 115.861 498.801 468.035
1816 0 81.2126 13.2615 1077 115.85 499.231 465.021
1817 0 84.3283 12.4751 1052 117.383 498.774 464.014
1818 0 85.1639 12.611 1074 116.764 499.357 463.341
1819 0 90.0849 14.0756 1268 111.995 499.737 460.661
1820 0 94.1615 13.9866 1317 111.205 499.263 457.089
1821 0 95.1531 13.0737 1244 113.92 499.441 458.745
1822 0 97.1324 12.8793 1251 114.717 499.48 454.617
1823 0 101.089 12.1674 1230 115.998 499.292 454.547
1824 0 101.219 11.4406 1158 119.025 499.231 454.108
1825 1 54.0656 10.6537 576 117.495 500.339 476.168
1826 0 59.1862 11.7595 696 113.389 500.111 476.829
1827 0 62.0888 11.5802 719 99.1029 500.1 476.915
1828 0 60.0758 10.6532 640 101.902 499.1 476.363
1829 0 64.1259 11.0564 709 100.405 499.189 476.007
1830 0 66.1257 12.0074 794 98.427 499.011 473.776
1831 0 68.1638 12.2939 838 97.2005 499.309 473.782
1832 0 71.0995 11.8707 844 97.8637 499.047 470.879
1833 0 74.1504 12.2184 906 97.0353 498.789 470.663
1834 0 75.1732 12.0256 904 97.8872 498.381 467.778
1835 0 77.1686 11.5332 890 98.718 498.804 467.994
1836 0 81.2136 11.7714 956 98.6015 497.89 467.99
1837 0 80.1553 11.091 889 101.286 498.564 468.213
1838 0 84.135 12.1471 1022 98.9883 498.227 469.616
1839 0 84.2943 11.6378 981 101.884 497.774 464.009
1840 0 89.4066 12.0908 1081 100.99 497.376 461.047
1841 0 93.4518 12.5091 1169 101.246 497.4 460.181
1842 0 94.2877 13.7027 1292 100.81 497.887 458.457
1843 0 98.3163 13.5888 1336 102.046 497.838 458.287
1844 0 99.4033 12.2732 1220 105.93 497.341 456.658
1845 0 103.159 12.7085 1311 105.91 497.609 456.819
1846 0 106.282 12.1751 1294 108.27 497.665 454.086
1847 0 110.21 13.1114 1445 106.545 497.525 455.298
1848 0 110.261 12.5158 1380 111.213 498.289 450.903
1849 1 60.1494 10.5903 637 104.623 498.115 479.111
1850 0 63.1239 11.0418 697 104.211 498.516 474.703
1851 0 64.3608 10.2858 662 106.104 497.529 475.224
1852 0 68.228 11.5349 787 104.351 498.086 474.159
1853 0 72.186 13.0496 942 100.668 498.304 470.965
1854 0 73.1629 11.7273 858 103.51 497.74 472.612
1855 0 76.2526 12.2619 935 102.14 499.112 468.501
1856 0 78.2635 12.3557 967 102.233 498.623 465.522
1857 0 80.3944 11.5182 926 104.83 498.214 465.771
1858 0 81.1161 12.4759 1012 104.245 498.326 463.338
1859 0 84.1361 12.0162 1011 105.894 498.6 461.69
1860 0 85.2006 12.4177 1058 105.756 498.522 461.824
1861 0 89.1086 14.2523 1270 102.711 498.281 460.73
1862 0 91.2283 12.8578 1173 108.144 498.298 462.479
1863 0 95.2966 12.1935 1162 110.272 497.334 460.041
1864 0 98.2789 12.8105 1259 110.092 497.454 458.969
1865 0 100.181 12.2279 1225 112.46 498.131 458.673
1866 0 104.207 12.5999 1313 111.491 497.819 457.564
1867 0 104.286 11.5644 1206 116.932 498.597 447.047
1868 0 108.339 11.5656 1253 117.067 499.238 445.879
1869 0 110.257 11.3916 1256 117.539 498.428 446.778
1870 0 115.328 11.9832 1382 116.938 497.941 445.979
1871 1 61.1245 11.5666 707 108.849 498.905 473.075
1872 0 66.0808 11.6524 770 106.087 497.639 475.184
1873 0 66.1539 11.6244 769 105.746 497.514 474.793
1874 0 68.1448 11.8718 809 105.799 497.461 473.948
1875 0 72.2198 12.1435 877 105.26 497.579 471.463
1876 0 72.126 12.3672 892 106.053 497.4 471.039
1877 0 76.1384 12.0307 916 106.283 497.397 467.622
1878 0 80.2848 12.1318 974 105.807 498.243 467.936
1879 0 81.076 12.5685 1019 106.185 497.488 467.669
1880 0 83.1756 12.0107 999 112.468 497.873 464.736
1881 0 88.2356 12.5573 1108 110.173 497.568 464.16
1882 0 88.0941 11.9645 1054 107.971 497.328 465.594
1883 0 93.1595 13.2998 1239 106.201 497.234 462.065
1884 0 94.1408 10.8773 1024 112.291 497.803 462.138
1885 0 97.2613 12.3893 1205 109.927 497.619 458.929
1886 0 101.261 12.058 1221 110.559 498.413 453.678
1887 0 103.194 12.7043 1311 109.63 498.753 452.736
1888 0 106.257 12.6298 1342 109.081 497.964 453.602
1889 0 108.096 12.7757 1381 109.695 497.668 451.594
1890 0 111.219 13.0013 1446 109.313 497.919 446.722
1891 0 113.283 11.7052 1326 112.189 498.719 445.393
1892 0 121.138 11.5735 1402 110.495 498.015 445.698
1893 0 123.542 13.5905 1679 107.387 497.695 441.147
1894 0 127.467 11.7286 1495 110.183 497.918 443.285
1895 0 130.346 11.8761 1548 110.001 498.616 438.425
1896 0 137.463 13.7128 1885 105.259 498.649 437.957
1897 0 140.314 12.3793 1737 108.101 498.178 435.723
1898 0 148.623 14.0422 2087 104.317 498.525 430.607
1899 0 150.646 13.3823 2016 107.98 497.962 427.064
1900 0 157.47 13.4057 2111 107.914 497.477 424.323
1901 0 159.507 13.0966 2089 108.786 497.312 416.622
1902 0 165.501 13.5105 2236 107.237 497.351 421.907
1903 0 170.287 13.7298 2338 107.068 497.103 421.714
1904 0 175.577 13.6692 2400 107.89 497.751 417.474
1905 1 92.2673 11.2499 1038 95.6734 497.821 463.508
1906 0 95.4287 11.1078 1060 96.0679 497.524 462.473
1907 0 98.1157 12.0878 1186 96.5725 497.358 456.771
1908 0 99.3941 10.1213 1006 99.5487 497.89 459.236
1909 0 104.257 11.5483 1204 99.8065 498.192 453.739
1910 0 108.121 11.4872 1242 100.589 498.156 452.738
1911 0 112.458 12.698 1428 98.1821 497.725 451.234
1912 0 115.601 12.249 1416 98.1306 497.857 450.654
1913 0 119.486 11.9679 1430 99.6182 497.365 446.739
1914 0 121.421 11.069 1344 101.312 498.185 445.498
1915 0 127.45 11.5182 1468 101.11 497.796 442.61
1916 0 129.399 10.8502 1404 102.197 498.321 441.536
1917 0 131.396 9.89373 1300 104.852 498.244 439.05
1918 0 138.507 11.6817 1618 102.325 498.219 435.246
1919 0 143.466 12.3095 1766 102.622 497.728 431.181
1920 0 145.442 11.8054 1717 104.029 498.24 433.594
1921 0 150.448 11.5389 1736 106.72 497.722 429.389
1922 0 155.568 13.1775 2050 103.801 497.452 428.551
1923 0 160.683 11.9241 1916 106.765 497.871 425.486
1924 0 165.556 12.6 2086 104.336 497.824 425.83
1925 0 167.514 13.3541 2237 104.519 497.68 421.957
1926 0 172.322 11.7512 2025 107.791 497.736 418.93
1927 0 179.409 12.4799 2239 107.153 497.848 417.667
1928 0 186.508 12.6536 2360 107.894 498.366 415.321
1929 0 191.638 13.0715 2505 109.763 498.117 408.557
1930 0 196.709 12.1194 2384 114.502 497.989 410.357
1931 1 143.407 10.4876 1504 111.854 498.945 437.945
1932 0 147.425 12.4538 1836 114.809 499.156 436.942
1933 0 152.461 12.4163 1893 116.426 499.027 430.859
1934 0 158.503 12.3783 1962 116.397 499.505 429.946
1935 0 164.33 13.0651 2147 115.759 498.948 427.502
1936 0 169.391 12.6689 2146 117.47 498.909 421.466
1937 0 175.493 13.6074 2388 116.015 498.41 420.498
1938 0 182.346 13.6663 2492 115.943 498.034 421.379
1939 0 186.45 13.9126 2594 116.554 497.586 417.309
1940 0 191.53 12.8752 2466 119.61 497.828 416.251
1941 0 198.536 13.5139 2683 119.215 497.451 409.652
1942 0 204.463 13.9927 2861 118.352 497.565 408.372
1943 0 209.503 13.4127 2810 120.763 497.428 404.58
1944 0 217.365 12.3755 2690 122.457 497.912 409.376
1945 0 224.394 13.2936 2983 121.843 497.693 400.058
1946 1 169.425 13.8823 2352 119.779 498.451 428.04
1947 0 173.319 14.9666 2594 118.941 498.165 422.288
1948 0 177.418 13.5781 2409 124.222 498.1 419.862
1949 0 182.509 12.8925 2353 124.189 497.056 411.887
1950 0 187.343 14.1826 2657 121.391 496.519 406.111
1951 0 196.514 14.228 2796 119.829 497.625 408.611
1952 0 200.644 13.3221 2673 124.188 497.478 399.832
1953 0 206.56 14.054 2903 122.088 496.979 402.776
1954 0 216.879 14.8193 3214 120.199 496.942 397.491
1955 0 222.763 13.4852 3004 124.651 497.085 393.087
1956 0 229.55 14.5851 3348 122.882 497.895 388.803
1957 0 237.66 13.8812 3299 125.198 498.391 385.392
1958 0 246.729 14.9233 3682 121.203 498.582 381.319
1959 1 178.616 13.1903 2356 123.459 497.82 415.497
1960 0 185.517 13.2387 2456 122.976 497.692 413.887
1961 0 193.536 14.7311 2851 119.921 497.714 407.894
1962 0 197.531 13.5068 2668 122.874 497.286 406.18
1963 0 206.777 14.6486 3029 119.915 497.458 402.639
1964 0 209.781 14.8298 3111 119.64 497.18 401.605
1965 0 217.531 14.6048 3177 121.218 497.848 397.22
1966 0 221.502 13.2911 2944 125.41 498.349 392.973
1967 0 232.603 14.1228 3285 122.539 497.908 392.658
1968 0 240.433 14.3158 3442 122.768 497.959 387.689
1969 0 248.572 14.6879 3651 122.766 498.268 384.099
1970 1 65.3116 12.1877 796 116.503 498.781 473.036
1971 0 65.2426 13.1356 857 116.989 498.903 470.16
1972 0 72.3212 15.3897 1113 108.447 498.398 465.991
1973 0 72.6022 13.5258 982 113.473 498.666 468.998
1974 0 73.3597 13.8359 1015 114.281 498.438 464.456
1975 0 78.2886 14.3316 1122 112.429 497.697 466.304
1976 0 79.5017 13.2073 1050 116.115 497.522 463.993
1977 0 83.2268 13.8177 1150 114.409 497.628 463.629
1978 0 85.4407 12.3594 1056 118.289 497.854 460.665
1979 0 90.5063 14.4631 1309 112.891 498.06 460.456
1980 0 92.5087 13.696 1267 114.905 498.531 459.033
1981 0 94.3622 13.3316 1258 116.785 497.832 457.27
1982 0 97.2816 13.5277 1316 115.96 497.897 456.701
1983 0 101.373 13.7314 1392 114.616 497.434 454.651
1984 0 103.495 13.4596 1393 116.083 496.982 451.569
1985 0 108.408 13.3754 1450 116.056 497.234 448.563
1986 1 55.46 11.0169 611 120.517 497.889 474.088
1987 0 59.2248 11.2453 666 118.547 498.014 474.571
1988 0 61.2776 12.4026 760 116.03 497.379 473.212
1989 0 63.329 13.1377 832 114.145 498.282 470.901
1990 0 65.3432 12.9164 844 114.398 498.712 471.031
1991 0 70.4251 13.2055 930 112.745 497.976 471.841
1992 1 91.3844 18.7122 1710 88.3684 498.15 458.967
1993 0 87.4693 18.658 1632 92.973 498.295 461.279
1994 0 86.69 20.3945 1768 91.0085 498.186 457.814
1995 0 87.5392 22.7784 1994 88.5135 498.398 458.921
1996 0 85.3721 17.5701 1500 103.287 497.985 461.81
1997 0 84.4273 16.2744 1374 109.793 497.852 461.135
1998 0 84.3375 14.3945 1214 116.169 498.386 460.049
1999 0 86.4164 14.6037 1262 116.469 498.489 461.834
2000 0 89.4289 14.1789 1268 119.088 498.522 458.42
2001 0 91.5169 13.7242 1256 122.089 498.378 456.994
2002 0 94.4268 14.4027 1360 120.835 498.557 456.498
2003 0 99.4442 14.9129 1483 119.467 498.356 455.31
2004 0 101.449 13.7508 1395 124.606 497.503 452.376
2005 0 104.361 14.4881 1512 124.47 497.976 450.044
2006 0 108.47 14.0223 1521 125.099 496.936 450.383
2007 0 114.447 14.4783 1657 123.571 497.775 447.777
2008 0 118.362 13.9319 1649 125.55 497.999 444.365
2009 0 123.368 14.3068 1765 124.339 498.796 442.887
2010 0 117.356 12.6538 1485 127.03 498.605 439.34
2011 1 64.175 9.34943 600 117.923 498.9 466.332
2012 0 68.5125 11.3118 775 110.357 498.843 470.369
2013 0 71.2622 12.7557 909 107.221 498.572 468.949
2014 0 72.2152 11.438 826 112.017 498.407 468.373
2015 0 75.212 11.2216 844 116.277 498.358 468.133
2016 0 77.1586 10.8219 835 116.235 497.916 467.06
2017 0 80.1767 11.3624 911 115.737 498.641 465.225
2018 0 83.188 11.7685 979 115.398 498.1 464.755
2019 0 85.1297 11.1947 953 117.515 497.944 462.42
2020 0 88.166 11.7733 1038 116.52 497.673 462.303
2021 0 91.202 10.2629 936 118.433 497.885 463.22
2022 0 93.2051 12.2526 1142 117.442 497.267 457.533
2023 0 96.1261 11.7658 1131 118.003 497.291 455.774
2024 0 99.2001 12.3589 1226 117.015 497.856 454.227
2025 0 102.177 11.1473 1139 119.203 497.811 454.732
2026 0 106.146 10.7399 1140 119.789 497.604 449.228
2027 0 110.252 11.4283 1260 117.136 497.463 448.583
2028 0 114.217 11.5307 1317 117.717 497.746 445.544
2029 0 120.143 12.61 1515 114.292 497.979 444.935
2030 0 122.111 10.8672 1327 119.704 497.889 440.502
2031 0 128.072 10.6815 1368 119.702 497.476 439.01
2032 0 131.084 11.2447 1474 120.024 497.732 438.983
2033 0 134.195 11.7367 1575 122.803 497.713 439.472
2034 0 139.155 10.7003 1489 125.642 497.597 434.509
2035 0 145.245 11.8559 1722 123.288 497.66 432.971
2036 0 148.212 11.3216 1678 123.67 497.52 432.328
2037 1 89.1584 10.6888 953 113.321 497.555 462.219
2038 0 90.0878 8.89132 801 117.151 498.206 460.015
2039 0 94.0741 11.3953 1072 112.697 498.572 459.863
2040 0 94.2051 9.45809 891 119.208 498.746 455.328
2041 0 96.0767 9.82548 944 119.551 498.667 451.388
2042 0 102.13 10.6335 1086 115.789 498.402 455.285
2043 0 103.092 10.0396 1035 117.442 498.214 453.443
2044 0 107.284 10.0947 1083 118.135 497.75 450.993
2045 0 113.181 10.143 1148 117.444 497.391 447.916
2046 0 115.18 11.2953 1301 115.152 497.754 448.417
2047 0 119.303 9.7315 1161 118.719 498.314 447.339
2048 1 67.107 8.95585 601 109.255 498.749 474.241
2049 0 74.2658 10.5298 782 110.85 499.244 469.532
2050 0 77.5277 11.6861 906 113.88 498.392 464.429
2051 0 79.3514 11.783 935 114.536 498.261 461.152
2052 0 79.336 11.3316 899 116.561 497.989 459.806
2053 0 82.2145 12.5525 1032 115.545 498.599 459.566
2054 0 84.0954 12.2242 1028 113.733 497.025 462.733
2055 0 85.0849 12.8107 1090 113.954 496.781 460.615
2056 0 88.0999 11.5664 1019 115.659 496.591 463.712
2057 0 90.0871 12.6988 1144 114.389 496.121 459.573
2058 0 93.1442 13.667 1273 112.496 495.909 457.195
2059 0 96.0933 13.5701 1304 113.502 496.224 458.159
2060 0 97.0255 11.8422 1149 117.872 495.934 455.113
2061 0 100.086 12.3594 1237 117.523 496.358 455.043
2062 0 104.135 11.8212 1231 119.92 496.708 451.954
2063 0 108.152 13.3885 1448 115.472 496.805 453.184
2064 0 108.099 12.544 1356 118.423 496.877 450.45
2065 0 111.158 12.0729 1342 120.256 497.165 447.309
2066 0 113.17 11.5667 1309 121.44 496.787 445.83
2067 0 117.088 12.623 1478 119.744 497.089 445.528
2068 1 66.0693 10.9885 726 118.017 496.955 467.014
2069 0 69.086 11.189 773 115.295 497.882 467.301
2070 0 63.0847 10.8584 685 105.696 498.257 460.051
2071 0 69.0436 11.0655 764 101.759 497.952 460.691
2072 0 68.1765 10.2968 702 104.359 498.425 459.295
2073 0 71.0759 10.5099 747 104.202 498.424 456.29
2074 0 74.1283 10.185 755 104.208 498.453 457.268
2075 0 76.054 9.23028 702 108.026 498.707 451.454
2076 0 79.177 9.54823 756 106.91 498.604 448.782
2077 0 82.1457 10.3475 850 104.818 497.787 448.726
2078 0 83.1044 9.83101 817 106.804 497.077 448.699
2079 0 86.2276 11.1101 958 105.709 497.296 446.404
2080 0 89.132 11.3427 1011 107.044 497.498 446.057
2081 0 95.0635 11.5397 1097 106.425 497.362 442.869
2082 0 95.1289 10.3544 985 108.585 497.194 442.329
2083 1 51.1254 9.07572 464 107.705 497.716 466.267
2084 0 56.1863 8.50742 478 113.956 495.935 465.87
2085 0 57.1676 10.0581 575 100.151 497.617 466.061
2086 0 60.1706 10.1545 611 100.175 496.805 466.254
2087 0 66.1953 9.36622 620 100.761 497.321 467.51
2088 0 66.1315 10.1011 668 106.888 497.861 473.292
2089 0 69.0854 10.3061 712 108.52 499.09 472.128
2090 0 71.0358 9.46002 672 110.775 499.253 471.113
2091 0 73.1391 10.5279 770 108.774 499.044 469.073
2092 0 76.0871 10.1857 775 109.023 498.925 467.77
2093 0 77.0832 9.52217 734 112.328 498.756 465.76
2094 0 82.1158 12.0074 986 106.078 499.198 465.891
2095 0 82.2322 11.3946 937 109.173 499.138 465.573
2096 0 85.1304 11.7232 998 109.169 499.377 465.094
2097 0 89.1572 12.9546 1155 106.425 499.496 462.802
2098 0 89.1474 11.0828 988 111.927 498.639 463.887
2099 0 95.1159 12.5531 1194 108.555 498.319 460.158
2100 0 95.1172 10.2295 973 115.32 497.625 460.08
2101 0 97.0934 11.4323 1110 113.299 498.094 456.481
2102 0 102.226 10.8582 1110 114.832 497.738 458.14
2103 0 103.219 10.6376 1098 115.358 497.961 457.191
2104 0 109.113 11.5568 1261 112.446 497.956 455.728
2105 0 114.195 12.3122 1406 110.49 497.77 454.533
2106 0 116.202 12.2288 1421 112.997 498.134 449.406
2107 0 122.302 12.8943 1577 115.717 497.588 444.511
2108 0 123.273 11.7138 1444 113.676 497.964 448.775
2109 0 128.084 12.9213 1655 111.339 498.175 445.345
2110 1 73.1512 12.2076 893 111.286 498.676 470.06
2111 0 73.1512 12.1529 889 141.144 498.67 469.966
2112 0 79.0655 12.6224 998 111.261 498.162 470.64
2113 0 82.1303 13.0037 1068 110.238 498.253 467.063
2114 0 84.1676 13.3543 1124 110.033 498.449 465.398
2115 0 87.2454 13.697 1195 109.338 498.425 463.038
2116 0 89.1496 13.0679 1165 111.54 497.744 461.227
2117 0 91.1633 12.8451 1171 113.043 497.664 459.446
2118 0 95.2915 13.6528 1301 111.28 497.942 459.805
2119 0 98.282 12.7796 1256 113.716 497.139 457.494
2120 0 101.411 13.5291 1372 111.892 497 452.276
2121 0 102.302 11.8375 1211 115.988 497.724 451.745
2122 0 107.392 12.4869 1341 112.846 497.969 448.273
2123 0 108.143 13.0753 1414 110.423 498.574 449.214
2124 0 112.11 12.4699 1398 111.964 499.084 444.2
2125 1 61.1175 9.84988 602 115.427 499.365 469.744
2126 0 65.1178 10.2737 669 113.206 498.785 471.593
2127 0 67.0409 10.516 705 115.518 498.902 473.667
2128 0 69.0819 10.7698 744 116.956 498.695 472.351
2129 0 70.0649 10.6615 747 117.124 498.028 471.767
2130 0 74.1338 11.4253 847 114.928 497.763 467.107
2131 0 78.0428 12.4291 970 110.197 497.536 468.155
2132 0 79.0955 13.4774 1066 108.752 497.505 465.412
2133 0 79.1217 12.2343 968 113.073 497.793 464.954
2134 0 82.0395 11.1532 915 116.454 497.774 462.156
2135 0 85.1175 11.208 954 115.481 498.332 462.937
2136 0 88.1457 11.776 1038 113.611 498.343 462.776
2137 0 92.0775 11.1971 1031 115.401 498.235 460.217
2138 0 97.1442 12.4557 1210 111.752 498.647 459.022
2139 0 100.154 12.6506 1267 111.208 498.504 457.747
2140 0 99.1442 11.6598 1156 114.213 498.851 457.281
2141 1 59.0433 10.3653 612 108.588 498.145 478.392
2142 0 63.0603 11.6396 734 106.163 497.172 476.147
2143 0 64.0637 9.95884 638 106.157 496.05 472.969
2144 0 63.087 10.7788 680 95.6 495.935 469.549
2145 0 67.0336 10.8901 730 96.4507 495.721 466.64
2146 0 65.0389 10.5783 688 98.0087 496.246 466.439
2147 0 67.1147 8.15022 547 103.415 495.234 463.66
2148 0 70.1758 10.0604 706 97.5807 495.837 466.246
2149 0 71.0895 10.5642 751 98.7497 495.602 463.716
2150 0 72.0521 8.52161 614 104.267 495.632 457.974
2151 0 73.0817 10.3035 753 100.529 495.724 458.648
2152 0 75.0969 10.4532 785 100.209 496.126 457.926
2153 0 81.1016 10.53 854 97.8021 496.39 459.33
2154 0 81.1562 10.2642 833 99.2509 496.471 455.252
2155 0 81.1496 9.84602 799 100.449 497.314 450.556
2156 0 84.2284 11.267 949 97.7734 497.514 450.793
2157 0 87.0818 11.0471 962 99.1123 497.457 452.34
2158 0 92.1013 12.4537 1147 96.9459 497.905 447.747
2159 0 97.0467 11.6748 1133 98.4581 497.628 446.279
2160 0 97.2817 11.8008 1148 100.731 497.449 445.476
2161 1 52.0193 7.7279 402 106.731 497.774 466.888
2162 0 58.0884 8.98631 522 103.843 496.969 466.084
2163 0 58.0284 10.2536 595 102.573 498.486 465.309
2164 0 60.1442 9.16132 551 104.517 498.501 463.423
2165 0 62.047 9.31552 578 104.483 498.313 463.005
2166 0 63.0712 10.4326 658 101.527 497.76 463.915
2167 0 68.0639 9.79961 667 101.946 497.774 461.714
2168 0 67.0832 9.01865 605 104.917 497.557 459.618
2169 0 68.0908 9.76637 665 103.48 497.783 460.298
2170 0 72.0635 10.6711 769 100.46 497.714 459.48
2171 0 78.0773 10.5024 820 99.939 497.746 457.956
2172 0 77.0384 10.5013 809 99.2954 497.333 458.544
2173 0 82.1476 9.60466 789 100.008 497.792 455.716
2174 0 86.0851 9.72293 837 98.9964 498.275 454.915
2175 0 85.099 10.7287 913 98.1369 498.137 454.008
2176 0 88.0266 10.565 930 99.5333 497.925 450.033
2177 0 95.2704 9.45729 901 95.9667 497.256 450.685
2178 0 97.2344 10.3256 1004 97.7988 497.348 447.713
2179 0 100.34 10.4843 1052 97.8146 497.48 448.025
2180 1 55.0241 8.75979 482 91.5539 498.266 473.419
2181 0 57.0774 9.54844 545 92.2183 498.418 468.077
2182 0 61.0338 10.2075 623 89.305 497.957 469.555
2183 0 57.0364 9.48518 541 91.0111 496.665 467.301
2184 0 62.0821 9.76127 606 90.0347 496.531 468.15
2185 0 64.0728 9.66088 619 90.7027 497.226 463.15
2186 0 65.16 10.6814 696 89.5761 497.609 466.417
2187 0 67.2289 10.6651 717 90.364 497.653 463.223
2188 0 69.1238 9.77955 676 92.6923 496.68 461.22
2189 0 69.1606 10.9311 756 91.9603 496.853 462.147
2190 0 77.2013 11.1268 859 90.9942 497.525 461.594
2191 0 78.2213 10.9689 858 92.5944 497.086 460.265
2192 0 78.1255 10.4959 820 95.1988 496.691 459.182
2193 0 78.1446 11.7347 917 94.7775 496.775 458.336
2194 0 83.1323 12.3177 1024 94.1514 497.09 454.878
2195 0 87.1208 11.1225 969 96.4221 497.201 455.411
2196 0 88.1072 11.5314 1016 97.2805 496.419 454.544
2197 0 90.2392 12.0458 1087 97.8519 496.443 453.769
2198 0 93.1489 11.2508 1048 100.454 496.324 449.327
2199 0 95.1696 12.8928 1227 98.9658 496.19 450.185
2200 0 100.32 13.4071 1345 97.9346 496.688 449.5
2201 0 104.288 12.6189 1316 100.244 496.918 447.413
2202 0 109.37 12.4075 1357 101.788 497.349 447.833
2203 0 109.224 11.9022 1300 105.58 496.803 446.227
2204 0 113.345 12.0694 1368 111.857 497.244 448.961
2205 0 116.184 12.8331 1491 110.608 497.461 449.195
2206 0 121.241 12.0668 1463 111.731 497.337 445.314
2207 0 123.22 10.956 1350 115.515 497.197 445.503
2208 1 71.0616 12.3695 879 110.419 498.034 468.956
2209 0 75.0602 13.336 1001 107.685 498.115 466.377
2210 0 75.0323 11.5817 869 112.883 498.178 464.484
2211 0 78.0589 10.6842 834 115.968 498.205 463.825
2212 0 80.0658 12.6521 1013 111.525 497.648 462.631
2213 0 80.1264 12.031 964 115.041 497.804 459.282
2214 0 83.0448 12.3909 1029 112.967 497.409 458.563
2215 0 88.086 13.1008 1154 111.231 497.51 458.399
2216 0 89.1412 12.0707 1076 114.161 497.986 457.338
2217 0 93.1237 13.8848 1293 109.427 498.002 453.661
2218 0 96.1771 12.3522 1188 112.912 498.308 453.388
2219 0 98.1347 12.2281 1200 113.65 498.026 450.183
2220 0 100.126 13.6128 1363 110.098 498.145 449.822
2221 0 104.097 12.9206 1345 112.019 497.641 447.486
2222 0 109.219 13.3219 1455 110.452 497.146 448.83
2223 1 55.0513 9.8817 544 110.721 498.449 470.283
2224 0 58.035 11.4931 667 106.484 497.814 469.537
2225 0 58.0239 10.3406 600 110.357 497.893 467.93
2226 0 62.0395 11.4604 711 109.795 498.394 468.857
2227 0 67.0434 11.6641 782 111.419 496.431 471.977
2228 0 71.1411 13.677 973 105.538 495.811 472.151
2229 0 71.0639 11.3841 809 111.337 495.335 473.32
2230 0 75.154 12.8137 963 108.968 495.827 469.212
2231 0 75.1639 13.3575 1004 109.283 495.674 469.449
2232 0 79.1039 11.7693 931 114.807 495.803 465.856
2233 0 81.1091 12.6126 1023 113.239 496.431 464.954
2234 0 84.144 11.7655 990 114.093 496.582 465.578
2235 0 86.1754 12.521 1079 112.526 496.515 462.798
2236 0 91.1804 12.9194 1178 111.116 496.01 461.765
2237 0 92.2385 11.5787 1068 114.434 495.862 459.297
2238 0 97.2768 11.6986 1138 114.493 496.531 458.805
2239 0 97.3643 11.9859 1167 113.756 495.985 455.384
2240 0 102.172 11.3143 1156 113.17 495.521 455.302
2241 0 104.081 10.4534 1088 111.785 495.016 451.506
2242 1 57.0877 9.82699 561 108.38 496.162 476.663
2243 0 59.032 9.84211 581 109.527 498.155 478.692
2244 0 63.1059 11.2192 708 105.946 497.468 477.058
2245 0 64.2391 11.6129 746 107.287 496.786 476.457
2246 0 63.3307 12.4268 787 106.708 496.878 474.081
2247 0 68.2756 12.1566 830 106.402 497.386 474.44
2248 0 68.1354 12.1376 827 107.684 497.203 474.712
2249 0 70.2362 11.02 774 110.74 497.284 472.948
2250 0 72.2277 13.0144 940 106.311 496.779 470.319
2251 0 74.3227 11.8403 880 109.088 497.067 469.907
2252 0 74.6603 11.3849 850 111.451 496.659 466.572
2253 0 77.3615 12.9522 1002 108.885 496.475 463.031
2254 0 79.1944 11.1877 886 106.521 495.895 465.839
2255 0 82.3966 11.6388 959 106.514 495.864 461.511
2256 0 85.2735 12.0553 1028 107.469 495.94 464.777
2257 0 89.1611 11.2942 1007 110.469 495.917 464.213
2258 0 92.2558 12.0101 1108 112.534 495.67 462.553
2259 0 95.2899 11.6592 1111 112.51 495.712 460.822
2260 0 100.396 11.365 1141 112.589 495.66 460.322
2261 1 55.2521 11.0041 608 107.164 496.609 486.074
2262 0 58.3728 12.2831 717 105.958 496.388 483.877
2263 0 57.3422 10.9169 626 111.014 496.764 485.535
2264 0 58.2145 11.1484 649 114.048 497.219 477.952
2265 0 62.1318 10.7352 667 115.559 497.123 479.279
2266 0 62.2294 10.3649 645 117.121 496.372 479.384
2267 0 65.0672 11.7263 763 112.797 495.63 486.472
2268 0 67.0744 12.2849 824 112.91 495.05 485.482
2269 0 70.145 12.6025 884 113.276 494.078 484.394
2270 0 69.1051 11.7792 814 115.52 494.939 484.919
2271 0 74.2883 12.2496 910 114.113 494.724 482.384
2272 0 81.1824 12.281 997 110.91 494.766 483.489
2273 0 79.2748 11.3781 902 114.54 494.127 481.58
2274 0 81.1831 10.8397 880 117.503 493.768 478.485
2275 0 85.3369 12.6206 1077 112.063 493.169 479.192
2276 0 89.2692 11.8294 1056 113.705 493.297 475.349
2277 0 90.3442 11.8325 1069 113.428 492.922 475.274
2278 0 94.3313 11.4914 1084 115.392 492.34 469.82
2279 0 96.3709 12.0368 1160 114.185 492.281 471.091
2280 0 101.477 13.1655 1336 109.927 491.388 464.385
2281 0 104.399 13.0173 1359 110.469 490.692 461.694
2282 0 110.493 11.7202 1295 112.588 490.9 460.657
2283 1 63.2162 11.6584 737 105.427 490.529 482.889
2284 0 64.1829 11.5451 741 107.672 490.868 482.247
2285 0 66.2119 11.7351 777 106.167 491.66 484.776
2286 0 65.1672 10.4961 684 110.816 491.589 481.235
2287 0 65.0688 9.98942 650 113.243 491.348 481.115
2288 0 73.1578 12.7533 933 105.355 490.225 481.505
2289 0 74.1547 11.5839 859 107.406 490.487 482.059
2290 0 76.1973 11.3127 862 108.229 491.248 480.096
2291 0 80.2311 12.2521 983 106.237 490.959 480.058
2292 0 84.295 11.6377 981 106.635 490.747 479.852
2293 0 87.2176 13.1625 1148 103.51 491.748 478.695
2294 0 88.2135 12.5718 1109 105.867 490.877 476.634
2295 0 90.1959 11.7078 1056 108.812 490.943 468.672
2296 0 95.2007 11.7331 1117 106.594 491.84 474.941
2297 0 98.2226 11.5757 1137 107.215 492.812 471.921
2298 0 100.152 11.7222 1174 106.555 492.348 472.555
2299 0 105.172 12.7506 1341 105.329 492.335 467.753
2300 0 109.228 12.3961 1354 106.414 492.232 466.74
2301 0 111.165 11.9462 1328 107.74 492.033 463.925
2302 1 61.1478 10.4664 640 100.678 492.238 491.748
2303 0 60.1437 10.159 611 102.525 491.866 488.956
2304 0 65.2012 12.4077 809 97.5501 490.625 485.213
2305 0 66.1783 12.7988 847 102.247 490.883 488.312
2306 0 69.2136 13.0899 906 100.438 490.925 488.172
2307 0 70.1068 12.538 879 103.124 490.961 484.838
2308 0 73.1627 13.1488 962 98.7921 490.18 485.496
2309 0 75.1047 12.7688 959 100.234 489.715 483.16
2310 0 77.0791 13.4018 1033 98.5779 489.188 482.393
2311 0 80.1993 12.2445 982 101.227 489.178 480.979
2312 0 79.0671 11.6989 925 103.519 488.955 477.812
2313 0 82.1627 12.8525 1056 100.806 489.575 477.759
2314 0 86.1103 11.9498 1029 102.466 489.22 475.776
2315 0 88.1824 12.4968 1102 100.617 489.621 475.229
2316 0 91.1205 12.9389 1179 100.278 488.928 471.778
2317 0 94.1454 12.3957 1167 101.978 489.255 470.585
2318 0 96.1951 13.0568 1256 100.742 489.182 469.846
2319 0 98.175 13.8121 1356 99.1976 489.563 466.762
2320 0 103.215 13.6124 1405 99.1488 490.216 466.465
2321 0 105.149 13.1433 1382 100.884 489.845 462.517
2322 0 107.281 13.1151 1407 101.821 490.532 461.423
2323 0 111.139 13.1727 1464 101.722 490.704 458.889
2324 0 113.296 12.5335 1420 104.965 491.01 457.597
2325 0 113.143 11.7285 1327 107.771 490.917 456.901
2326 0 117.256 12.8948 1512 106.817 491.339 451.555
2327 0 122.326 12.6384 1546 107.5 490.607 453.418
2328 0 125.245 13.1263 1644 109.251 490.555 445.544
2329 0 131.283 13.6728 1795 108.411 490.804 439.51
2330 0 133.389 12.3249 1644 113.035 490.657 438.139
2331 0 142.401 14.1292 2012 108.453 491.527 439.189
2332 0 145.324 13.8794 2017 108.487 491.37 435.21
2333 1 82.2145 12.1511 999 111.169 490.89 466.699
2334 0 87.2817 11.3655 992 112.468 491.531 464.818
2335 0 89.1548 12.6858 1131 107.25 490.59 465.279
2336 0 91.201 12.3025 1122 109.267 490.854 466.507
2337 0 94.2557 12.9966 1225 109.165 490.577 463.96
2338 0 97.309 12.5477 1221 111.79 490.491 459.883
2339 0 100.357 13.5317 1358 111.907 490.476 457.35
2340 0 104.292 13.9033 1450 112.03 490.674 456.643
2341 0 108.363 13.2148 1432 115.297 491.19 452.865
2342 0 111.426 13.776 1535 114.57 491.168 449.935
2343 0 114.368 13.9462 1595 116.072 491.58 448.723
2344 0 115.769 13.1037 1517 119.602 492.041 451.1
2345 0 123.429 14.9073 1840 114.969 491.8 446.48
2346 0 126.59 14.1481 1791 118.384 492.503 442.117
2347 0 131.722 14.1282 1861 118.419 491.959 439.544
2348 1 69.3713 11.6475 808 122.202 491.735 470.267
2349 0 72.141 11.533 832 122.162 493.195 469.365
2350 0 75.1671 13.0243 979 119.126 493.834 470.392
2351 0 77.1056 13.0211 1004 119.926 493.541 471.105
2352 0 78.1495 12.9751 1014 121.962 493.26 465.519
2353 0 80.2581 13.5313 1086 121.785 494.052 461.752
2354 0 81.1524 12.6798 1029 125.357 494.448 460.317
2355 0 84.1587 12.6428 1064 125.772 494.07 457.398
2356 0 88.2242 12.7856 1128 124.962 494.238 456.195
2357 0 90.2204 12.8907 1163 124.652 493.555 457.103
2358 0 94.2698 12.4218 1171 126.41 493.763 455.639
2359 0 96.2017 13.3574 1285 124.69 494.338 452.901
2360 0 101.365 13.0025 1318 124.898 494.171 451.814
2361 0 100.19 11.9573 1198 129.869 494.108 447.562
2362 0 106.211 13.5861 1443 124.408 493.405 447.107
2363 0 111.434 13.6493 1521 123.467 493.596 445.786
2364 0 114.382 12.5369 1434 127.688 493.708 444.814
2365 0 116.395 13.1621 1532 127.631 493.388 439.539
2366 1 65.3132 10.0592 657 124.788 493.431 466.976
2367 0 69.202 11.3147 783 115.522 494.255 470.148
2368 0 72.1336 11.2292 810 114.654 494.657 467.796
2369 0 73.1984 11.1341 815 115.736 494.409 467.639
2370 0 73.2333 10.6919 783 116.129 493.986 459.437
2371 0 77.2569 11.2094 866 113.382 494.3 460.391
2372 0 79.2442 11.0544 876 114.986 494.779 456.86
2373 0 81.2665 9.42578 766 118.342 495.282 459.586
2374 0 82.3737 11.4114 940 114.197 495.206 459.599
2375 0 83.2284 11.2942 940 114.733 495.493 458.311
2376 0 88.3443 11.1722 987 114.637 495.215 455.956
2377 0 86.2889 10.8589 937 117.959 494.732 456.636
2378 0 88.1811 10.1836 898 120.766 494.893 452.726
2379 0 88.1603 10.9573 966 120.18 494.813 453.198
2380 0 89.2457 11.3731 1015 120.864 494.728 445.082
2381 0 98.1267 10.4049 1021 121.6 494.728 452.012
2382 0 97.2614 10.5386 1025 120.386 495.324 448.311
2383 0 99.1322 9.6336 955 124.466 495.187 442.268
2384 0 106.328 10.7027 1138 119.701 495.602 446.692
2385 0 110.18 11.4539 1262 120.367 495.239 442.403
2386 0 110.278 11.5798 1277 123.16 495.399 436.408
2387 0 114.272 11.3939 1302 123.303 496.104 436.943
2388 0 120.35 11.9568 1439 124.883 496.074 434.668
2389 0 125.177 11.991 1501 126.901 495.514 434.85
2390 1 67.1585 9.02343 606 120.35 496.079 461.414
2391 0 70.1696 10.9164 766 113.662 495.376 460.916
2392 0 72.215 8.95936 647 115.164 494.813 458.284
2393 0 76.1176 11.9683 911 109.81 494.429 459.205
2394 0 76.1171 9.38029 714 115.609 495.304 456.436
2395 0 82.0755 10.9655 900 111.781 495.354 456.958
2396 0 85.0739 11.5899 986 111.028 495.617 457.844
2397 0 83.1836 10.2905 856 117.495 495.271 452.956
2398 0 90.0921 10.7557 969 119.579 494.734 454.606
2399 0 97.1665 12.7822 1242 121.643 494.933 458.761
2400 0 98.1284 12.127 1190 114.518 495.026 458.498
2401 0 100.077 11.3113 1132 115.738 495.263 459.176
2402 0 105.224 11.8889 1251 113.976 494.44 457.626
2403 0 108.37 11.959 1296 113.925 494.768 455.228
2404 0 111.099 11.6653 1296 114.082 495.466 453.99
2405 0 116.201 12.7968 1487 112.5 495.199 450.845
2406 0 118.211 10.7266 1268 120.811 495.193 450.293
2407 1 64.103 10.6703 684 117.216 495.573 475.519
2408 0 67.1317 13.1086 880 111.133 495.692 475.819
2409 0 66.0774 9.94289 657 109.665 494.913 478.721
2410 0 67.0517 10.6634 715 109.297 494.404 476.733
2411 0 71.0373 11.0224 783 109.58 494.119 474.207
2412 0 71.1289 10.3334 735 111.639 494.488 471.984
2413 0 76.144 10.4407 795 111.397 494.618 468.512
2414 0 78.0777 11.2964 882 108.599 494.641 470.524
2415 0 79.0838 10.8998 862 110.317 494.386 468.166
2416 0 81.0933 10.1488 823 112.592 494.186 468.108
2417 0 85.0536 11.5457 982 110.743 494.204 464.645
2418 0 88.1354 11.142 982 111.846 494.499 462.807
2419 0 90.0959 10.5443 950 113.025 494.811 462.886
2420 0 96.0879 8.29449 797 114.74 495.23 468.469
2421 0 93.0844 10.7644 1002 114.057 493.869 459.872
2422 0 94.0659 9.70596 913 117.953 494.977 458.243
2423 0 100.166 11.6207 1164 111.423 494.722 457.069
2424 0 104.173 11.6921 1218 110.47 494.764 455.82
2425 0 106.143 11.0699 1175 113.388 494.633 455.245
2426 0 107.145 9.91179 1062 117.916 495.008 453.535
2427 0 113.204 12.2698 1389 113.928 495.12 450.647
2428 0 114.159 11.4665 1309 117.905 494.614 446.071
2429 0 119.138 11.2642 1342 119.106 494.633 443.94
2430 0 123.123 11.9555 1472 116.607 496.842 450.796
2431 1 71.1416 9.75519 694 113.988 497.229 461.693
2432 0 77.1288 11.4224 881 114.748 496.236 468.188
2433 0 79.0721 10.6359 841 117.042 496.341 465.74
2434 0 82.1541 10.0908 829 118.055 496.519 466.913
2435 0 86.1342 12.1903 1050 113.039 495.986 466.044
2436 0 85.077 10.8372 922 117.993 497.182 463.811
2437 0 90.1357 12.3037 1109 114.233 496.603 461.584
2438 0 92.1307 12.1566 1120 114.836 496.024 459.664
2439 0 95.1642 12.7464 1213 113.485 496.354 460.463
2440 0 98.2691 12.3335 1212 115.647 495.923 456.967
2441 0 101.286 13.3089 1348 113.358 495.918 458.295
2442 0 105.344 13.3658 1408 113.472 495.796 455.546
2443 0 107.235 12.4773 1338 118.184 494.843 449.823
2444 0 111.325 14.2555 1587 115.123 494.883 448.77
2445 1 61.1406 11.3672 695 113.681 494.047 476.984
2446 0 63.0799 11.8897 750 113.523 494.133 475.68
2447 0 65.0399 13.1304 854 110.384 493.149 476.21
2448 0 64.0665 12.2217 783 108.53 493.722 477.697
2449 0 67.0985 12.1165 813 109.626 493.755 477.528
2450 0 68.0451 12.6387 860 110.066 494.219 476.392
2451 0 68.0519 11.9615 814 112.15 494.086 476.158
2452 0 71.0664 12.5376 891 110.73 494.356 474.82
2453 0 72.0481 12.2141 880 112.767 494.234 473.772
2454 0 76.0513 11.9919 912 112.197 493.845 472.049
2455 0 79.0498 13.4852 1066 108.617 494.968 471.392
2456 0 79.1369 11.7771 932 114.114 494.664 469.576
2457 0 81.0485 12.5604 1018 112.798 494.818 467.65
2458 0 83.269 12.5257 1043 112.424 495.223 467.8
2459 0 86.0933 13.1253 1130 111.548 495.042 464.017
2460 0 87.06 10.6593 928 115.333 494.761 467.551
2461 0 90.0838 12.9435 1166 112.045 494.581 463.576
2462 0 94.0889 12.3713 1164 113.529 494.54 461.177
2463 0 92.0931 11.9227 1098 116.323 495.252 457.172
2464 0 98.0766 14.9475 1466 108.072 494.324 457.774
2465 0 100.166 13.9668 1399 110.756 494.763 454.834
2466 0 102.104 12.928 1320 113.373 495.081 451.186
2467 0 106.106 12.2614 1301 114.579 495.387 452.637
2468 0 106.052 11.1549 1183 117.071 495.413 449.97
2469 0 111.122 11.7439 1305 115.489 495.454 448.434
2470 0 113.255 12.2202 1384 115.114 496.071 447.691
2471 0 118.175 11.7876 1393 114.006 495.797 447.955
2472 1 67.1823 10.9404 735 110.494 495.78 471.997
2473 0 67.1687 11.7614 790 107.268 496.439 466.486
2474 0 69.1961 10.0439 695 107.548 497.102 464.18
2475 0 70.1408 12.6888 890 102.525 496.553 462.631
2476 0 75.1639 9.95158 748 107.301 496.849 458.667
2477 0 78.1996 10.0512 786 106.536 496.377 459.997
2478 0 79.1549 10.7637 852 105.681 496.244 458.063
2479 0 84.1481 10.6122 893 105.48 495.507 457.239
2480 0 86.1915 11.1612 962 104.69 495.926 457.484
2481 0 90.2481 12.3327 1113 102.037 495.544 456.656
2482 0 92.2523 11.5011 1061 103.696 495.076 455.245
2483 0 93.1367 10.6081 988 107.173 495.303 453.722
2484 0 99.1957 12.3292 1223 103.861 495.364 450.573
2485 0 100.408 11.6026 1165 104.955 495.002 449.298
2486 0 104.104 11.3733 1184 104.15 495.172 449.326
2487 0 107.31 12.338 1324 103.36 495.622 444.582
2488 0 111.202 11.4926 1278 104.981 495.352 446.117
2489 1 64.1882 12.4789 801 100.773 495.446 469.28
2490 0 66.1488 11.3834 753 102.969 496.182 471.664
2491 0 72.1852 13.9779 1009 101.493 496.08 467.432
2492 0 75.393 12.5874 949 105.022 495.435 468.25
2493 0 75.2614 13.1674 991 105.64 495.489 464.971
2494 0 76.225 11.8203 901 109.877 496.872 463.898
2495 0 80.1754 12.9217 1036 107.707 497.198 462.064
2496 0 85.1821 12.9722 1105 105.747 496.401 464.485
2497 0 85.2595 12.116 1033 110.545 495.154 464.591
2498 0 86.2252 12.6529 1091 111.094 495.456 461.801
2499 0 89.1636 12.4378 1109 112.69 495.701 458.452
2500 0 92.2621 12.833 1184 111.24 496.221 458.406
2501 0 94.3032 13.2975 1254 110.896 496.71 457.284
2502 0 99.3896 13.2811 1320 112.061 497.071 451.933
2503 0 100.337 12.2487 1229 115.375 496.547 450.219
2504 0 105.235 13.0375 1372 113.944 496.464 448.743
2505 0 106.217 13.1712 1399 115.135 495.806 445.747
2506 0 111.433 11.7559 1310 116.753 495.758 446.008
2507 0 116.336 11.9395 1389 116.339 495.634 447.323
2508 1 65.1476 12.8938 840 100.512 497.374 472.408
2509 0 64.0736 12.2827 787 107.548 495.466 474.712
2510 0 66.097 11.8916 786 109.284 495.602 475.494
2511 0 70.1861 13.6494 958 106.185 495.763 471.285
2512 0 72.0454 12.742 918 109.297 495.427 471.361
2513 0 73.0949 13.5988 994 108.398 495.046 467.193
2514 0 74.042 13.0602 967 109.799 495.261 469.454
2515 0 76.0844 13.669 1040 109.672 495.055 466.068
2516 0 79.0734 12.95 1024 111.469 495.607 464.808
2517 0 82.0519 13.6621 1121 110.867 495.426 465.944
2518 0 84.0562 13.6099 1144 111.999 495.427 464.787
2519 0 87.0948 13.9503 1215 111.932 494.96 462.826
2520 0 91.0715 13.8243 1259 111.974 494.961 462.89
2521 0 91.1011 14.226 1296 112.391 495.837 462.683
2522 0 97.1096 14.4064 1399 109.688 495.589 460.881
2523 0 98.155 14.6197 1435 111.116 496.002 458.659
2524 0 99.1818 14.4583 1434 112.855 495.331 457.425
2525 0 103.139 13.4091 1383 116.776 495.471 455.675
2526 1 57.1333 12.4621 712 117.881 495.785 478.062
2527 0 58.0164 13.2549 769 116.502 495.969 476.984
2528 0 59.0929 12.4042 733 115.269 495.608 475.784
2529 0 63.1199 12.9436 817 112.436 497.252 477.351
2530 0 65.052 13.2509 862 112.524 496.255 475.223
2531 0 65.0265 12.764 830 115.701 495.304 473.335
2532 0 67.0315 14.441 968 112.907 496.068 471.975
2533 0 72.1262 14.4885 1045 111.469 496.183 471.9
2534 0 71.0577 13.4679 957 116.8 496.209 470.833
2535 0 73.0199 14.2153 1038 116.29 496.491 467.721
2536 0 76.0377 14.0062 1065 115.939 497.275 467.544
2537 0 77.1331 14.1703 1093 117.068 496.184 466.777
2538 0 79.1042 14.5883 1154 116.781 495.477 466.246
2539 0 82.0935 12.8512 1055 120.118 496.161 465.02
2540 0 86.0358 14.9938 1290 113.88 496.016 462.197
2541 0 90.0634 14.4121 1298 113.997 495.751 461.27
2542 0 90.1069 13.828 1246 116.651 496.412 458.898
2543 0 94.1151 14.8116 1394 113.68 497.064 457.626
2544 0 96.0457 13.7955 1325 116.531 496.774 456.013
2545 0 100.065 13.7711 1378 116.489 496.624 455.841
2546 0 100.106 14.2449 1426 116.602 497.243 454.106
2547 0 104.05 14.272 1485 117.075 496.836 453.112
2548 0 105.167 12.4754 1312 117.736 497.127 449.355
2549 0 111.182 14.5976 1623 111.701 497.602 446.363
2550 0 114.177 14.7316 1682 114.311 497.035 446.62
2551 0 116.197 13.6493 1586 119.794 497.047 447.365
2552 1 65.1111 12.3328 803 118.27 497.692 471.437
2553 0 69.1056 11.7791 814 119.948 498.097 468.378
2554 0 69.0413 13.2964 918 119.347 498.717 465.275
2555 0 73.0431 12.2393 894 120.404 498.773 467.31
2556 0 76.0409 12.7037 966 119.554 498.305 465.35
2557 0 78.0459 13.2871 1037 119.578 498.659 462.696
2558 0 81.0673 13.1002 1062 120.155 498.336 461.497
2559 0 83.0284 13.4773 1119 120.187 497.742 458.499
2560 0 86.0635 12.3862 1066 122.661 497.633 458.537
2561 0 91.1086 12.9845 1183 120.945 498.166 456.857
2562 0 94.111 14.4298 1358 118.491 497.438 454.289
2563 0 96.1784 13.9636 1343 120.415 497.85 454.258
2564 0 95.2294 13.0317 1241 125.595 497.889 451.517
2565 0 102.191 14.4044 1472 120.767 497.484 453.313
2566 0 105.185 12.5493 1320 127.104 497.386 449.849
2567 1 57.0511 12.6553 722 117.323 497.752 474.458
2568 0 57.0823 12.0703 689 118.99 496.79 475.094
2569 0 57.0581 11.8301 675 114.434 497.018 473.013
2570 0 62.0526 13.1663 817 108.688 497.733 471.705
2571 0 63.0457 12.5782 793 110.899 497.605 469.087
2572 0 65.1143 12.2247 796 111.729 497.697 469.436
2573 0 69.0807 12.8256 886 109.545 497.826 468.826
2574 0 70.1558 12.8143 899 111.627 496.988 467.15
2575 0 73.1292 12.266 897 112.668 497.077 466.532
2576 0 75.0582 13.6294 1023 109.465 497.01 463.448
2577 0 78.1648 12.3073 962 113.519 497.014 462.919
2578 0 81.0602 12.8546 1042 113.614 497.164 461.917
2579 0 84.1306 12.9442 1089 113.22 496.656 461.656
2580 0 88.1727 14.6077 1288 122.057 496.928 462.665
2581 0 91.1642 13.887 1266 125.37 497.588 458.269
2582 0 94.0786 13.9458 1312 124.848 497.89 457.357
2583 0 95.0747 13.0003 1236 128.568 497.885 455.611
2584 0 98.0991 12.783 1254 129.091 497.851 455.426
2585 0 101.154 13.1087 1326 128.52 497.47 457.281
2586 0 106.209 13.2757 1410 129.876 496.992 452.999
2587 0 109.184 13.9672 1525 127.793 497.743 451.892
2588 0 113.131 13.8954 1572 129.731 497.968 449.212
2589 0 116.315 13.9191 1619 130.12 497.548 448.09
2590 0 119.104 13.5763 1617 131.623 497.587 444.544
2591 0 124.141 13.6539 1695 131.205 497.863 443.34
2592 0 126.198 14.3663 1813 122.531 497.362 442.716
2593 0 132.224 14.9595 1978 120.305 497.64 437.503
2594 0 137.222 14.145 1941 122.472 497.26 437.549
2595 0 143.229 15.1157 2165 120.03 497.524 432.73
2596 1 76.1584 14.2335 1084 124.538 497.549 464.005
2597 0 79.079 13.7963 1091 125.288 498.24 458.763
2598 0 82.264 14.1374 1163 120.321 498.128 460.794
2599 0 83.2631 14.304 1191 121.158 497.315 456.46
2600 0 87.1131 14.418 1256 120.877 497.664 459.111
2601 0 89.2498 13.0869 1168 126.051 497.69 454.861
2602 0 92.2413 13.9525 1287 123.565 497.315 455.342
2603 0 94.1167 14.1314 1330 125.226 497.456 453.883
2604 0 100.094 14.5064 1452 123.642 497.222 451.538
2605 0 103.153 14.8808 1535 123.536 497.627 445.924
2606 0 106.266 14.7367 1566 124.31 497.741 446.976
2607 0 109.149 14.2374 1554 126.175 497.236 446.689
2608 0 115.167 15.2475 1756 122.534 497.347 443.923
2609 0 116.142 14.1379 1642 126.923 497.395 440.166
2610 0 122.197 15.4096 1883 121.938 497.471 439.062
2611 1 64.0368 12.7427 816 124.467 496.886 466.042
2612 0 65.0683 13.3091 866 128.716 496.967 463.85
2613 0 69.104 13.0817 904 126.053 496.965 461.798
2614 0 71.0905 13.3632 950 125.197 496.771 463.825
2615 0 75.0522 15.3893 1155 120.094 497.242 462.651
2616 0 76.139 14.0401 1069 124.948 497.027 464.714
2617 0 80.15 13.9239 1116 125.528 497.582 463.724
2618 0 81.1786 13.0823 1062 128.269 497.835 464.782
2619 0 85.1829 13.3243 1135 127.45 496.101 464.707
2620 0 88.2013 13.1631 1161 127.604 495.887 463.766
2621 0 89.2278 14.1996 1267 124.867 496.205 463.557
2622 0 92.2024 13.4812 1243 126.94 496.506 461.532
2623 0 94.1584 13.7959 1299 125.62 496.59 461.299
2624 0 98.2293 13.5092 1327 125.952 496.599 457.609
2625 0 101.268 14.1703 1435 125.989 496.518 453.825
2626 0 102.177 14.2497 1456 124.668 496.124 452.35
2627 0 108.215 15.1273 1637 121.79 496.536 450.847
2628 1 58.104 11.1352 647 128.411 496.372 476.295
2629 0 61.1317 11.7779 720 125.043 495.429 475.069
2630 0 64.0562 13.0979 839 118.412 496.086 472.318
2631 0 67.1393 13.539 909 123.119 495.629 475.725
2632 0 69.1158 13.282 918 122.551 495.668 473.049
2633 0 73.0577 12.6065 921 120.837 494.832 471.367
2634 0 75.1149 13.9386 1047 117.623 495.147 471.423
2635 0 77.0612 12.9248 996 123.865 494.975 469.29
2636 0 79.0406 13.6259 1077 123.615 494.747 467.643
2637 0 85.1156 14.6859 1250 118.97 494.823 467.234
2638 0 86.1115 15.0851 1299 118.697 494.952 465.754
2639 0 89.1366 13.7205 1223 121.707 494.637 466.585
2640 0 91.0226 14.1723 1290 120.533 493.971 465.531
2641 0 93.0518 14.4651 1346 121.15 493.961 462.909
2642 0 97.1527 14.9867 1456 118.721 494.254 463.135
2643 0 100.148 14.4386 1446 119.946 494.414 461.487
2644 0 101.119 13.6077 1376 123.802 494.196 460.776
2645 0 106.099 14.5901 1548 122.305 493.797 452.604
2646 0 107.238 14.6776 1574 121.181 494.05 453.747
2647 0 111.23 14.1598 1575 123.276 494.362 452.491
2648 0 115.196 14.2105 1637 122.718 494.352 449.885
2649 0 117.21 14.666 1719 122.403 494.319 448.284
2650 0 123.233 14.8743 1833 120.899 494.514 446.288
2651 0 127.241 14.6729 1867 122.496 493.707 442.396
2652 0 130.23 14.7662 1923 122.497 494.104 440.798
2653 0 136.322 14.2677 1945 123.928 493.838 436.164
2654 1 79.2173 12.4468 986 122.783 493.241 467.147
2655 0 81.065 14.3959 1167 119.384 493.423 465.599
2656 0 82.0505 13.1139 1076 123.637 493.577 464.803
2657 0 87.0573 13.7266 1195 117.233 493.951 464.743
2658 0 90.1912 14.4027 1299 115.994 494.952 461.823
2659 0 93.0812 14.4927 1349 115.716 494.11 458.822
2660 0 96.1551 13.8838 1335 116.819 493.857 456.918
2661 0 98.1248 12.7185 1248 118.53 494.179 456.664
2662 0 102.116 15.0222 1534 113.174 494.675 453.377
2663 0 104.038 14.1295 1470 114.922 494.673 451.535
2664 0 109.095 14.272 1557 113.372 494.364 449.345
2665 0 112.161 13.4806 1512 115.865 494.054 446.567
2666 0 116.152 13.9128 1616 114.968 494.756 445.852
2667 0 121.211 13.3733 1621 114.911 494.627 445.69
2668 0 123.08 13.3734 1646 115.328 494.523 443.056
2669 0 126.118 12.7182 1604 116.31 494.383 440.341
2670 0 130.141 12.5095 1628 116.477 494.573 439.082
2671 0 135.186 12.7454 1723 115.789 494.109 435.754
2672 1 79.0827 13.1129 1037 115.259 494.116 461.756
2673 0 84.1626 13.2363 1114 115.352 494.035 461.348
2674 0 86.119 13.6904 1179 114.595 494.511 457.435
2675 0 90.1145 14.4483 1302 112.062 494.78 456.363
2676 0 90.1305 12.7038 1145 117.346 495.017 456.019
2677 0 98.1868 15.0937 1482 109.59 494.957 454.996
2678 0 99.1318 12.7507 1264 116.294 495.078 454.109
2679 0 103.115 14.0231 1446 113.702 495.15 448.712
2680 0 106.208 13.5866 1443 114.309 495.565 450.663
2681 0 109.091 14.4467 1576 112.938 495.839 447.371
2682 0 112.177 13.1399 1474 115.915 495.465 448.007
2683 0 114.162 13.6911 1563 115.521 494.518 443.307
2684 0 119.193 14.3213 1707 113.603 495.395 442.904
2685 0 122.106 14.34 1751 114.347 495.126 438.549
2686 0 126.21 13.3904 1690 116.388 495.233 440.03
2687 0 131.154 13.8768 1820 115.23 494.751 437.065
2688 0 134.254 13.1392 1764 116.833 494.76 436.487
2689 0 140.306 13.5632 1903 113.628 495.182 432.592
2690 1 63.1524 11.7494 742 115.167 495.009 467.644
2691 0 70.3902 13.2689 934 110.282 495.163 466.284
2692 0 68.1264 12.9612 883 113.033 494.766 464.459
2693 0 73.2797 13.9739 1024 109.552 494.87 461.295
2694 0 76.1266 14.6861 1118 107.726 494.871 462.674
2695 0 77.2095 13.9361 1076 110.27 494.973 461.684
2696 0 80.245 12.9229 1037 112.437 495.405 461.713
2697 0 83.1571 13.4925 1122 111.604 495.093 458.898
2698 0 87.2873 14.5038 1266 109.15 494.869 456.99
2699 0 89.2831 13.5748 1212 111.536 496.052 455.936
2700 0 90.3679 12.9028 1166 114.695 496.068 454.524
2701 0 95.2465 13.0713 1245 114.033 495.708 453.424
2702 0 97.3231 13.2445 1289 113.781 495.499 452.358
2703 0 101.378 13.5631 1375 112.828 494.888 451.101
2704 0 105.211 12.6507 1331 115.797 494.834 449.378
2705 0 107.29 14.0926 1512 111.3 495.663 447.975
2706 0 109.456 12.7357 1394 115.176 495.356 447.085
2707 0 114.321 13.4709 1540 112.858 495.001 447.684
2708 0 118.215 14.4651 1710 111.056 494.93 444.987
2709 0 122.191 14.0681 1719 112.539 494.6 440.377
2710 0 124.578 12.4902 1556 116.522 494.966 439.118
2711 1 66.1043 12.3441 816 115.199 495.724 467.685
2712 0 68.2584 12.3062 840 116.812 495.342 466.04
2713 0 71.1305 13.0746 930 114.567 495.381 464.714
2714 0 73.248 11.7955 864 117.333 495.692 465.568
2715 0 78.1281 13.5291 1057 112.907 495.699 462.706
2716 0 81.2818 14.4682 1176 110.288 495.327 459.946
2717 0 83.1904 12.4654 1037 116.586 495.913 458.302
2718 0 81.1339 12.239 993 119.816 496.248 457.344
2719 0 86.2426 12.3837 1068 118.423 495.704 457.249
2720 0 88.119 12.8009 1128 116.68 496.152 456.455
2721 0 93.2095 12.5094 1166 117.808 496.543 451.79
2722 0 96.2193 12.3156 1185 116.983 496.127 453.202
2723 0 98.3642 12.8502 1264 116.892 495.714 450.849
2724 0 103.319 12.6888 1311 117.897 495.125 446.92
2725 0 109.163 14.1898 1549 117.305 494.881 447.554
2726 0 112.336 13.7623 1546 115.809 494.988 445.219
2727 0 117.388 13.6386 1601 117.467 495.352 441.132
2728 1 63.2554 10.9082 690 121.822 495.936 465.407
2729 0 67.3388 10.8555 731 121.685 495.762 464.302
2730 0 69.1694 12.4477 861 117.56 495.531 464.239
2731 0 67.3364 11.747 791 123.57 495.671 458.601
2732 0 71.2799 10.2273 729 126.111 495.446 458.528
2733 0 75.0737 11.895 893 121.191 495.43 456.486
2734 0 75.2227 13.6661 1028 117.635 495.769 456.412
2735 0 76.0592 11.9381 908 124.695 495.132 451.75
2736 0 81.2106 12.486 1014 122.206 494.914 452.136
2737 0 84.1779 12.331 1038 122.573 494.84 451.285
2738 0 88.1321 13.3096 1173 120.777 494.575 449.785
2739 0 91.1319 13.464 1227 120.156 495.407 452.371
2740 0 91.2592 11.4071 1041 129.142 495.478 447.721
2741 0 94.2233 12.7782 1204 125.87 495.973 447.173
2742 0 97.126 12.3242 1197 127.596 495.713 444.405
2743 0 101.177 13.165 1332 126.252 495.199 442.369
2744 0 101.184 13.3618 1352 126.598 495.391 442.644
2745 0 108.23 12.455 1348 129.067 495.658 439.671
2746 0 112.201 12.2905 1379 129.403 496.604 440.443
2747 0 118.226 13.1612 1556 126.78 496.094 440.274
2748 1 56.0328 8.29871 465 110.138 496.142 472.832
2749 0 61.0369 9.58437 585 110.174 496.337 471.162
2750 0 63.0612 9.07055 572 110.212 496.781 470.502
2751 0 64.0783 10.4404 669 107.127 496.523 470.066
2752 0 69.0577 9.65859 667 106.39 496.631 472.538
2753 0 68.08 9.69448 660 108.865 496.332 469.902
2754 0 70.0625 9.24889 648 110.381 495.886 470.025
2755 0 72.0875 9.61332 693 122.257 495.022 465.056
2756 0 76.0877 9.10791 693 122.847 495.7 464.876
2757 0 78.1046 10.678 834 118.369 495.564 466.367
2758 0 80.0933 10.5252 843 118.693 495.708 464.967
2759 0 78.1645 8.9043 696 124.784 496.099 458.481
2760 0 83.1283 9.94847 827 121.487 496.433 459.629
2761 0 87.1537 10.6708 930 119.043 496.689 460.871
2762 0 88.213 10.4746 924 119.535 496.554 458.938
2763 0 92.0884 11.5433 1063 115.438 496.929 459.103
2764 0 91.1445 9.85249 898 121.062 496.807 455.04
2765 0 94.1187 10.0511 946 121.945 496.174 453.282
2766 0 95.2021 10.9766 1045 118.312 495.914 452.933
2767 0 100.181 11.1997 1122 117.008 495.772 451.675
2768 1 25.0119 5.15755 129 97.7674 496.403 492.884
2769 0 26.0058 6.88309 179 94.7542 496.374 491.788
2770 0 23.0161 5.38752 124 92.8145 497.161 495.129
2771 0 19.0086 6.1025 116 91.8966 496.922 495.81
2772 0 20.0145 4.6966 94 94.8191 497.043 493.362
2773 0 20.0145 5.29616 106 95.2736 496.123 493.066
2774 0 19.008 5.31357 101 93.8119 495.644 493.426
2775 0 13.0005 2.6922 35 96.9714 495.857 495.514
2776 0 14.0002 1.2857 18 97.3889 495.889 496.944
2777 0 20.0087 4.99782 100 94.46 495.61 493.27
2778 0 17.0065 2.46964 42 95.381 495.476 496.071
2779 0 18.0035 6.22101 112 91.9732 496.875 495.429
2780 0 21.0048 6.61754 139 91.5683 496.863 493.029
2781 0 22.0023 6.40842 141 89.773 496.213 494.823
2782 0 18.0021 2.66635 48 94.8542 496.812 494.75
2783 0 20.0176 6.89393 138 89.558 497.116 494.391
2784 0 18.0027 6.16576 111 90.4234 497.369 494.09
2785 0 14.0015 3.49962 49 95.0408 496.816 491.918
2786 0 14.0018 4.07092 57 90.8772 496.579 494.737
2787 0 17.0008 2.17636 37 94.5946 498 494.135
2788 0 18.0024 6.44359 116 88.5517 497.707 492.862
2789 0 19.01 7.04892 134 86.0299 498.119 493.299
2790 0 16.0004 1.12497 18 95.4444 498.167 492
2791 0 16.0212 3.86988 62 90 498.21 489.516
2792 0 11.0027 5.54411 61 83.9672 496.967 494.066
2793 0 17.0046 1.35258 23 90.3478 497.217 491.609
2794 0 11.0031 3.18091 35 85.6 496.829 487.029
2795 0 20.0074 5.448 109 81.3853 497.385 494.872
2796 0 17.0087 3.6452 62 82.8871 497.5 494.984
2797 0 17.0052 1.94059 33 84.6667 497.909 494.727
2798 0 16.032 2.994 48 86.1042 498.271 493.042
2799 0 21.0054 4.99871 105 80.9905 498.171 494.19
2800 0 22.0087 6.77005 149 79.7047 498.53 492.946
2801 0 19.002 4.36796 83 81.7952 498.217 493.843
2802 0 24.0076 7.37266 177 78.2768 498.582 493.701
2803 0 20.021 5.74396 115 81.1391 498.513 494.504
2804 0 20.0107 4.69748 94 81.5745 496.734 496.085
2805 1 4 4.5 18 72.2778 498 483.222
2806 0 0 0 5.98857e-55 -nan -1.11932e+188 -3.34078e+37
2807 1 19.0092 7.04923 134 76.0746 498.433 490.433
2808 0 18.0772 5.64248 102 81.0098 497.706 495.804
2809 0 17.006 4.29259 73 82.3699 496.493 496.301
2810 0 16.001 4.06224 65 81.0615 496.923 499.323
2811 0 17.0084 4.05681 69 79.9565 496.957 498.507
2812 0 18.0397 5.65421 102 80.9412 498.118 495.637
2813 0 15.0024 5.06584 76 82.9605 497.921 494.724
2814 0 11.001 3.72695 41 84.7317 497.634 496.463
2815 0 17.023 4.87576 83 81.5422 497.301 497.084
2816 0 16.0031 5.06153 81 82.9012 496.667 495.815
2817 0 16.04 5.73567 92 80.7717 496.402 497.772
2818 0 25.0056 5.23882 131 82.1908 496.092 493.641
2819 0 17.0253 4.99258 85 81.8706 498.329 489.812
2820 0 17.0722 4.33454 74 83.973 498.419 490.122
2821 0 18.1112 4.41715 80 81.6 498.988 492.238
2822 0 10.0086 1.49871 15 79.2667 494.667 492
2823 0 17.0024 2.2938 39 87.0769 493.82 496.41
2824 0 15.0211 5.79184 87 74.6322 494.644 496.897
2825 0 19.0113 6.36464 121 72.9835 494.645 498.24
2826 0 19.0227 6.15056 117 75.2393 494.769 498.162
2827 1 135.34 11.4674 1552 101.387 494.719 434.26
2828 0 141.291 13.5111 1909 97.8292 495.3 435.855
2829 0 144.173 12.8179 1848 99.5676 494.705 434.4
2830 0 147.253 12.6517 1863 101.286 494.685 430.864
2831 0 151.271 11.8 1785 103.432 494.644 430.074
2832 0 157.366 12.6456 1990 102.381 494.948 426.588
2833 0 161.575 13.2446 2140 101.959 495.005 420.028
2834 1 94.2907 8.91923 841 96.5731 495.174 454.696
2835 0 99.3566 10.4271 1036 93.4257 495.378 455.099
2836 0 99.5259 10.7409 1069 96.8746 494.476 449.373
2837 0 103.263 10.9816 1134 94.5282 494.411 447.482
2838 0 105.112 10.3414 1087 95.8592 495.003 448.089
2839 0 107.354 10.7495 1154 95.6248 495.144 447.605
2840 0 111.217 10.6818 1188 97.4116 494.891 451.762
2841 0 113.156 10.4899 1187 98.6538 494.634 446.398
2842 0 115.136 11.3518 1307 97.2854 494.502 449.614
2843 0 118.192 11.2191 1326 98.6486 494.716 444.135
2844 0 121.215 11.7312 1422 97.7658 494.721 444.879
2845 1 18.0037 4.6657 84 83.5238 496.369 498.94
2846 0 17.0133 4.87853 83 85.9639 496.482 498.735
2847 0 20.0022 4.84946 97 83.8144 495.392 500.155
2848 0 16.0013 5.12458 82 80.9024 495.988 500.512
2849 0 17.0198 3.40779 58 85.9828 495.948 498
2850 0 20.007 7.94722 159 78.327 496.377 498.56
2851 0 18.0105 6.10756 110 82.3727 496.055 498.5
2852 0 17.0032 7.29274 124 80.5484 496.048 498.54
2853 0 21.0666 7.35762 155 79.9161 495.574 497.542
2854 0 21.1298 5.86848 124 82.3064 495.056 496.411
2855 0 21.0438 5.41726 114 82.5877 494.798 496.719
2856 0 20.0624 7.12775 143 80.7413 493.832 496.147
2857 0 20.1769 6.39345 129 81.7287 493.016 495.62
2858 0 6 1.83333 11 91.2727 492.636 490.636
2859 0 13.0656 3.7503 49 84.4694 491.49 493.939
2860 0 17.2466 4.6386 80 86.0125 492.962 493.175
2861 1 193.731 12.1044 2345 112.05 494.219 401.158
2862 0 198.585 12.6243 2507 112.299 493.558 401.317
2863 0 202.649 11.7197 2375 114.923 493.666 395.174
2864 0 208.493 12.2834 2561 114.437 493.822 396.989
2865 0 215.691 13.2551 2859 113.36 494.113 392.398
2866 0 218.359 12.0627 2634 117.278 494.137 389.751
2867 0 227.415 12.6025 2866 114.94 493.709 386.871
2868 0 234.508 12.4687 2924 116.06 493.803 379.977
2869 1 170.403 12.5995 2147 110.203 494.211 414.814
2870 0 176.512 11.8802 2097 109.802 493.537 408.109
2871 0 181.307 11.3509 2058 111.754 493.199 406.157
2872 0 184.25 11.3378 2089 116.42 493.656 401.431
2873 0 190.324 11.9901 2282 115.424 493.776 399.848
2874 0 195.285 12.1156 2366 113.476 494.057 396.626
2875 0 201.43 11.9843 2414 113.682 494.143 393.67
2876 0 208.437 13.131 2737 114.012 494.397 386.909
2877 0 213.361 12.1297 2588 116.494 493.767 385.774
2878 0 221.314 13.2301 2928 116.474 493.27 379.74
2879 0 231.411 13.3615 3092 116.281 493.846 378.067
2880 0 237.397 13.2141 3137 116.746 493.266 377.502
2881 0 242.397 11.9432 2895 121.428 493.64 366.639
2882 0 254.485 12.9163 3287 115.024 493.32 364.452
2883 0 259.563 13.1067 3402 117.103 493.519 352.718
2884 1 57.6207 10.3782 598 93.2425 493.779 471.192
2885 0 60.1961 9.75146 587 94.9165 492.463 471.031
2886 0 62.2888 10.1784 634 93.0331 493.702 474.345
2887 0 66.4388 11.7251 779 89.2105 493.778 472.357
2888 0 67.2939 12.7352 857 87.5228 493.019 473.249
2889 0 67.1584 10.2742 690 91.2812 492.658 473.899
2890 0 62.0819 8.35993 519 96.867 492.343 472.141
2891 0 66.1502 8.78305 581 95.6868 492.382 474.85
2892 0 70.2116 9.95562 699 93.1273 493.252 472.282
2893 0 69.1672 8.13969 563 98.6146 493.016 469.964
2894 0 71.1995 9.26973 660 96.4106 493.473 471.953
2895 0 72.1076 9.52743 687 98.4236 492.578 468.269
2896 0 76.265 9.93903 758 97.6834 492.693 467.433
2897 0 81.0476 12.3384 1000 90.621 492.573 459.836
2898 0 81.0826 11.4328 927 93.4962 492.715 461.39
2899 0 77.0529 10.7329 827 98.4184 492.472 459.381
2900 0 78.0579 9.03176 705 102.414 493.353 459.089
2901 0 80.0978 9.33858 748 103.024 493.916 456.18
2902 0 84.0165 11.5692 972 99.7449 492.671 444.656
2903 0 83.0421 10.1876 846 101.954 493.02 451.47
2904 0 84.1779 10.9411 921 102.674 493.153 454.093
2905 0 87.0763 9.70414 845 104.48 493.053 453.959
2906 0 82.0864 9.92857 815 106.439 493.064 445.201
2907 0 92.138 10.3215 951 104.985 493.539 445.801
2908 0 102.098 6.54273 668 111.731 493.034 449.172
2909 0 111.296 16.2001 1803 88.041 493.133 444.654
2910 0 116.242 23.1069 2686 75.2197 493.194 434.61
2911 0 117.123 15.5563 1822 91.5395 493.729 436.458
2912 0 118.176 13.1499 1554 97.8745 493.708 434.879
2913 0 120.132 14.3009 1718 97.557 493.401 430.356
2914 0 124.167 12.7812 1587 99.9679 493.918 429.827
2915 0 127.179 14.0982 1793 98.5209 494.256 428.376
2916 1 70.0701 9.44768 662 103.214 494.869 454.995
2917 0 73.0647 10.4017 760 99.9763 493.875 457.522
2918 0 75.1115 11.7425 882 96.3855 493.828 459.135
2919 0 77.0996 11.0895 855 99.8316 493.294 452.47
2920 0 79.1299 11.4242 904 101.412 493.823 454.009
2921 0 78.1057 11.6637 911 102.473 493.876 451.795
2922 0 81.2231 12.0902 982 101.83 493.537 451.292
2923 0 81.2403 11.6198 944 104.101 494.389 450.122
2924 0 85.0497 12.0283 1023 103.564 494.937 449.062
2925 0 85.1502 12.3664 1053 103.335 494.213 452.688
2926 0 90.2055 11.629 1049 105.888 494.32 448.483
2927 0 89.2071 11.5798 1033 107.319 494.776 448.822
2928 0 94.1384 11.8124 1112 106.049 494.604 448.024
2929 0 98.187 13.5456 1330 102.849 494.671 446.977
2930 0 97.2231 11.417 1110 109.123 494.391 445.709
2931 0 104.226 12.9718 1352 104.17 494.058 446.527
2932 0 103.315 12.0215 1242 108.387 494.034 441.982
2933 0 108.2 13.5583 1467 103.87 493.952 443.434
2934 0 107.145 12.8424 1376 108.341 493.948 438.362
2935 0 113.222 14.1846 1606 103.243 494.172 441.357
2936 0 116.177 13.0491 1516 106.908 493.694 438.637
2937 0 121.211 13.0104 1577 106.155 493.15 438.417
2938 0 121.266 13.994 1697 105.311 493.382 434.959
2939 0 126.242 12.2621 1548 108.689 494.121 433.337
2940 0 131.208 12.7279 1670 106.615 493.901 431.109
2941 0 135.193 13.7212 1855 104.662 494.287 427.39
2942 1 76.1469 10.1383 772 101.826 493.944 457.095
2943 0 77.2066 11.1648 862 98.8213 494.556 462.022
2944 0 80.0786 11.3389 908 92.9736 494.434 458.496
2945 0 81.3675 10.6554 867 94.6932 493.814 457.843
2946 0 86.0767 12.0474 1037 91.3877 494.463 455.89
2947 0 87.2393 11.5888 1011 93.0109 494.36 455.361
2948 0 92.2098 12.5692 1159 91.0017 494.551 453.96
2949 0 94.1463 11.9282 1123 92.3891 494.75 455.744
2950 0 97.1562 11.6102 1128 94.0585 494.278 452.387
2951 0 98.1135 11.8536 1163 94.5813 493.592 449.034
2952 0 98.1308 12.0655 1184 95.2475 493.623 451.881
2953 0 103.18 12.3668 1276 94.9451 493.977 449.585
2954 0 105.15 11.146 1172 98.0085 494.311 447.269
2955 0 107.063 11.9743 1282 97.8908 494.239 445.496
2956 0 108.186 9.85343 1066 101.517 494.743 446.402
2957 0 115.179 12.5023 1440 97.2972 494.893 445.47
2958 0 120.177 11.067 1330 107.948 495.686 446.162
2959 0 123.121 11.8501 1459 105.777 495.058 448.672
2960 0 127.243 11.4977 1463 105.969 493.535 442.581
2961 0 132.206 11.7317 1551 105.775 493.275 438.75
2962 1 74.0406 11.5747 857 103.859 494.883 470.702
2963 0 79.0787 12.5318 991 102.118 494.423 465.802
2964 0 80.141 12.8399 1029 102.896 494.379 469.068
2965 0 83.0698 13.0011 1080 102.739 495.183 466.769
2966 0 85.0961 12.5858 1071 105.12 494.927 466.106
2967 0 85.1712 11.471 977 109.406 494.449 464.294
2968 0 90.2213 13.4447 1213 106.025 494.747 462.833
2969 0 95.1674 12.3992 1180 108.376 494.714 462.494
2970 0 94.1054 12.7304 1198 109.817 493.922 460.694
2971 0 99.2553 12.6744 1258 110.027 495.095 457.629
2972 0 102.255 14.4443 1477 105.793 494.952 458.563
2973 0 103.098 12.3474 1273 111.711 494.829 455.328
2974 0 106.412 12.508 1331 111.697 493.588 454.476
2975 0 110.289 13.6732 1508 109.715 493.286 453.285
2976 0 113.35 13.3833 1517 110.748 493.9 451.62
2977 0 117.251 12.6396 1482 112.321 494.277 450.808
2978 0 116.316 11.8126 1374 115.604 494.274 448.86
2979 0 123.691 13.3639 1653 111.319 493.996 448.582
2980 0 124.263 14.0026 1740 111.244 494.353 448.544
2981 0 128.33 13.512 1734 112.701 493.713 444.944
2982 0 130.486 13.4957 1761 106.789 492.946 440.441
2983 0 136.26 13.621 1856 106.651 493.738 439.309
2984 0 139.416 13.7287 1914 108.462 493.006 435.534
2985 0 146.46 13.758 2015 105.859 493.354 438.703
2986 0 149.388 14.1243 2110 106.154 493.341 435.898
2987 0 152.336 12.9057 1966 111.033 493.238 431.064
2988 0 159.5 13.7304 2190 109.154 492.907 430.38
2989 0 162.251 12.7149 2063 112.725 492.705 421.034
2990 0 170.563 13.3968 2285 113.073 492.298 421.764
2991 0 174.499 14.4643 2524 111.63 492.164 420.023
2992 0 179.598 13.7808 2475 114.055 492.754 415.21
2993 0 182.474 12.8292 2341 117.89 493.355 411.145
2994 0 188.589 14.3858 2713 114.731 492.954 404.788
2995 1 213.544 21.0495 4495 92.1844 492.279 385.875
2996 0 208.635 18.1034 3777 101.005 492.275 394.995
2997 1 152.387 12.3961 1889 115.257 492.907 426.638
2998 0 158.473 12.7404 2019 115.531 493.474 422.99
2999 0 164.814 13.3423 2199 114.035 493.159 422.425
3000 0 168.366 13.245 2230 114.722 492.687 420.324
3001 0 175.562 13.6249 2392 112.784 493.175 421.897
3002 0 179.427 13.2477 2377 115.08 493.368 416.645
3003 0 180.409 13.2033 2382 117.74 493.017 409.955
3004 0 187.482 13.6066 2551 116.925 492.949 413.185
3005 0 190.403 13.7445 2617 117.966 492.809 407.297
3006 0 195.374 14.2188 2778 117.558 492.323 404.046
3007 0 200.436 13.8199 2770 119.278 492.454 399.133
3008 0 205.446 12.9523 2661 122.477 492.354 397.104
3009 0 213.486 13.9307 2974 119.453 492.833 398.128
3010 0 221.556 13.7843 3054 120.379 492.76 392.222
3011 0 228.414 13.5981 3106 120.852 492.691 387.108
3012 0 234.453 12.3777 2902 124.441 493.14 384.356
3013 0 244.598 13.3893 3275 122.397 492.924 378.996
3014 0 255.348 14.447 3689 119.452 492.87 375.674
3015 0 264.486 13.8344 3659 121.145 493.185 376.908
3016 1 196.409 12.3212 2420 122.029 493.346 403.483
3017 0 205.267 12.6665 2600 119.835 493.28 408.227
3018 1 62.0765 11.5342 716 111.338 493.856 469.359
3019 0 68.2288 9.92249 677 109.756 493.208 470.024
3020 0 71.1489 12.7479 907 108.291 492.471 472.232
3021 0 75.1763 13.9273 1047 105.394 492.532 471.448
3022 0 77.1545 13.2721 1024 107.442 493.086 468.836
3023 0 79.1532 13.4423 1064 106.254 492.939 470.825
3024 0 81.1681 12.8622 1044 109.105 493.007 469.296
3025 0 85.1087 13.9821 1190 105.893 493.099 467.881
3026 0 88.107 12.8821 1135 108.453 492.633 469.105
3027 0 89.1362 13.0026 1159 109.27 492.358 462.722
3028 0 92.0897 13.0308 1200 109.642 492.263 462.519
3029 0 96.12 15.283 1469 103.941 493.103 461.785
3030 0 97.1004 12.8424 1247 111.164 491.987 458.387
3031 0 100.121 14.6622 1468 106.221 492.612 457.503
3032 1 42.0836 10.0039 421 108.228 492.66 484.534
3033 0 43.1044 10.3934 448 108.893 492.239 481.402
3034 0 49.0273 11.8709 582 109.809 491.808 486.12
3035 0 49.1003 11.5071 565 114.018 492.221 483.628
3036 0 48.1338 11.1148 535 115.185 492.656 484.118
3037 0 50.106 11.3559 569 114.04 492.805 484.891
3038 0 53.0685 11.6453 618 113.227 491.72 484.782
3039 0 54.0976 13.3832 724 111.78 493.072 482.037
3040 0 54.1399 11.1932 606 117.64 492.795 483.38
3041 0 60.0867 14.6122 878 106.075 492.941 477.898
3042 0 61.0876 14.7821 903 106.814 493.02 478.989
3043 0 59.0491 11.7529 694 117.313 493.229 479.667
3044 0 63.0705 13.477 850 112.474 494.749 477.62
3045 0 66.0872 12.9526 856 112.093 493.418 478.075
3046 0 64.0589 12.0826 774 103.081 493.154 476.083
3047 0 64.02 12.7616 817 108.02 493.668 478.775
3048 0 66.0255 11.8591 783 113.321 492.854 476.974
3049 0 66.0612 11.2017 740 105.659 492.724 479.05
3050 0 64.0553 10.5378 675 117.582 493.516 475.806
3051 0 65.0855 11.723 763 116.168 494.151 477.408
3052 0 67.0477 11.8125 792 116.561 493.612 475.996
3053 0 67.0437 11.8281 793 117.25 493.873 476.504
3054 0 70.0444 11.9781 839 115.437 493.62 476.626
3055 0 71.0321 11.3047 803 115.935 494.347 474.618
3056 0 74.0503 12.3565 915 110.776 494.349 474.439
3057 0 77.1229 11.4233 881 111.738 494.673 470.79
3058 0 78.0371 11.6996 913 110.095 494.493 470.509
3059 0 80.0446 11.5061 921 109.837 494.596 468.947
3060 0 84.0352 11.1025 933 109.665 494.196 467.636
3061 0 88.0713 12.3536 1088 106.862 493.415 466.508
3062 0 91.1059 11.8214 1077 108.16 493.604 464.922
3063 0 94.1583 12.4365 1171 107.35 494.224 463.792
3064 0 97.1093 12.1101 1176 107.952 494.314 464.222
3065 1 58.063 12.3314 716 107.596 494.846 481.473
3066 0 59.1168 12.4499 736 107.985 494.158 476.717
3067 0 59.0438 12.55 741 107.688 493.131 480.564
3068 0 60.0255 11.6784 701 112.652 493.181 476.88
3069 0 60.0553 11.6226 698 113.128 493.01 477.596
3070 0 63.1136 13.0717 825 110.272 492.971 477.225
3071 0 63.0647 11.8608 748 115.012 493.52 476.098
3072 0 66.0867 12.3928 819 114.429 493.484 473.841
3073 0 66.0529 12.3386 815 115.998 493.195 473.848
3074 0 69.137 12.2366 846 117.434 492.704 471.917
3075 0 71.0496 13.7369 976 114.777 493.026 470.363
3076 0 73.1127 15.141 1107 111.801 493.16 471.269
3077 0 75.1152 12.6872 953 118.654 493.395 469.89
3078 0 78.1142 13.6979 1070 116.73 492.971 468.564
3079 0 78.121 12.8135 1001 119.922 493.294 469.412
3080 0 79.0726 12.9881 1027 120.679 493.319 465.758
3081 0 82.0515 12.3215 1011 122.585 492.325 464.158
3082 0 87.1671 14.237 1241 116.474 492.318 464.341
3083 0 88.1032 13.0756 1152 120.703 493.13 463.469
3084 0 91.3007 13.9648 1275 116.607 493.272 461.47
3085 0 93.1179 14.1326 1316 116.616 493.381 458.72
3086 0 96.2423 13.705 1319 117.713 493.453 457.814
3087 0 97.2133 13.6093 1323 116.712 493.197 455.324
3088 1 55.0758 11.1846 616 121.047 494.179 477.432
3089 0 59.0582 11.3447 670 119.554 492.957 477.525
3090 0 58.0854 12.2578 712 117.025 493.455 476.065
3091 0 60.0628 13.5525 814 113.505 493.584 476.646
3092 0 61.0969 13.2576 810 114.837 493.512 476.902
3093 0 63.1038 12.9945 820 114.616 493.878 476.599
3094 0 65.1182 13.6828 891 113.048 494.15 472.997
3095 0 69.0829 14.8083 1023 109.213 493.76 472.071
3096 0 70.1349 15.1137 1060 108.233 494.124 472.646
3097 0 71.0416 13.654 970 113.049 494.433 471.064
3098 0 74.0847 14.4564 1071 110.894 495.021 468.326
3099 0 77.0378 14.7201 1134 110.014 494.176 466.273
3100 0 80.0591 16.0132 1282 106.159 494.612 465.063
3101 0 81.1099 14.166 1149 111.832 494.301 464.422
3102 0 85.0603 14.766 1256 109.496 494.318 463.917
3103 0 86.1176 14.3641 1237 111.299 494.118 464.428
3104 0 89.0668 14.5509 1296 111.596 493.855 462.943
3105 0 87.1181 13.0053 1133 118.385 493.925 459.683
3106 0 93.0884 14.6957 1368 112.53 494.127 460.4
3107 0 94.0419 13.7705 1295 115.865 494.063 459.494
3108 0 97.0488 14.673 1424 114.251 494.529 457.14
3109 0 99.1612 12.4444 1234 119.149 494.452 458.056
3110 0 104.159 13.4985 1406 115.711 494.238 457.228
3111 0 110.096 13.4428 1480 115.414 494.34 453.416
3112 0 112.165 13.7298 1540 114.972 494.124 452.953
3113 0 119.153 14.5779 1737 111.151 493.581 448.421
3114 1 64.039 12.7422 816 120.317 494.403 471.69
3115 0 68.0882 14.2609 971 115.694 493.794 470.495
3116 0 72.0599 15.39 1109 111.334 494.307 470.848
3117 0 74.2153 15.4146 1144 111.856 494.201 470.141
3118 0 77.1874 15.3004 1181 112.34 494.41 467.486
3119 0 78.0662 14.9104 1164 112.99 493.622 467.991
3120 0 81.0982 15.0928 1224 112.605 493.8 464.6
3121 0 85.1128 15.7321 1339 110.965 493.854 464.456
3122 0 88.1278 15.9314 1404 110.197 494.2 463.744
3123 0 89.0977 15.1744 1352 113.422 494.598 461.667
3124 0 92.179 14.9383 1377 113.951 494.404 459.412
3125 0 95.1767 14.741 1403 114.269 493.885 460.526
3126 0 99.0957 16.59 1644 109.884 494.654 457.961
3127 0 102.139 16.7811 1714 110.297 494.563 455.062
3128 0 105.088 15.9295 1674 112.897 494.529 453.03
3129 0 108.179 16.6021 1796 111.486 494.088 453.64
3130 0 112.168 15.8869 1782 113.81 494.56 451.854
3131 0 117.117 15.8047 1851 113.962 494.476 451.687
3132 0 120.114 15.3354 1842 115.82 495.081 448.001
3133 0 125.248 15.0183 1881 115.761 494.749 448.581
3134 0 128.069 14.6718 1879 116.667 494.73 443.378
3135 1 70.0685 13.7152 961 122.072 494.761 473.302
3136 0 73.0485 15.7567 1151 118.167 495.27 470.646
3137 0 74.0775 15.0383 1114 120.025 494.598 470.693
3138 0 78.0302 16.3142 1273 115.86 495.409 469.704
3139 0 80.0873 15.7953 1265 117.195 495.807 469.47
3140 0 83.2166 15.9704 1329 120.436 495.362 468.892
3141 0 86.2421 15.5608 1342 122.269 495.422 468.05
3142 0 90.2292 15.1281 1365 123.592 495.662 465.369
3143 0 90.0555 15.335 1381 124.09 495.992 466.568
3144 0 94.2568 15.2986 1442 123.652 496.017 464.899
3145 0 97.1872 15.5679 1513 123.927 496.05 462.589
3146 0 99.1317 15.6862 1555 124.572 495.914 462.959
3147 0 104.225 16.3684 1706 121.85 495.889 460.215
3148 0 108.266 14.9908 1623 125.651 494.868 458.559
3149 1 56.1893 14.4512 812 131.068 495.041 483.491
3150 0 59.1598 14.2664 844 130.609 495.218 482.171
3151 0 62.1092 16.6803 1036 123.474 495.4 480.373
3152 0 65.0884 16.0551 1045 123.626 495.462 479.301
3153 0 65.2486 16.031 1046 125.572 494.557 478.536
3154 0 68.2169 15.7292 1073 125.703 494.423 477.719
3155 0 70.1501 15.7234 1103 126.507 495.007 477.129
3156 0 73.1214 15.4127 1127 127.024 494.547 475.676
3157 0 73.0807 15.2024 1111 129.753 493.927 473.381
3158 0 77.1305 15.947 1230 127.419 493.902 472.617
3159 0 80.3192 16.5091 1326 125.413 494.217 470.935
3160 0 81.0766 15.5779 1263 128.748 494.198 468.998
3161 0 86.0733 16.0909 1385 126.746 494.814 468.245
3162 0 87.0925 16.2356 1414 128.308 493.917 466.796
3163 0 91.108 16.9469 1544 126.167 494.021 466.223
3164 0 94.1027 15.9507 1501 129.322 493.989 464.45
3165 0 97.22 16.2724 1582 128.787 494.657 463.01
3166 0 100.095 16.8939 1691 127.548 495.439 460.559
3167 0 105.146 15.9778 1680 129.091 494.402 459.563
3168 1 44.0261 14.3097 630 133.498 494.435 487.63
3169 0 45.1478 14.7073 664 131.747 494.565 487.139
3170 0 47.1113 14.2641 672 131.507 495.067 486.137
3171 0 50.0866 14.5548 729 130.62 493.993 483.754
3172 0 50.0453 15.3261 767 129.146 494.297 484.931
3173 0 53.0781 14.5446 772 131.027 494.588 483.479
3174 0 57.0902 15.4317 881 126.976 494.712 483.388
3175 0 59.0666 16.9131 999 123.915 494.553 481.03
3176 0 60.0459 17.1036 1027 124.415 494.572 481.392
3177 0 59.0255 15.3662 907 132.323 493.682 480.12
3178 0 64.0459 17.2845 1107 125.051 493.883 479.157
3179 0 66.0584 15.9556 1054 129.814 494.084 478.318
3180 0 67.0772 16.0412 1076 131.602 493.544 477.296
3181 0 69.0587 17.5503 1212 128.412 493.452 475.419
3182 0 71.0239 16.7268 1188 132.126 493.778 475.388
3183 0 72.0692 16.8727 1216 132.905 493.812 475.274
3184 0 73.1267 15.6441 1144 138.58 494.234 473.959
3185 0 77.0425 17.0555 1314 135.081 493.731 470.566
3186 0 80.1199 16.1258 1292 138.556 493.728 469.725
3187 0 81.1042 16.8549 1367 136.49 493.547 470.846
3188 0 85.1002 16.2397 1382 139.459 493.05 468.234
3189 0 87.2074 17.4182 1519 136.402 493.212 465.761
3190 0 90.1406 16.5519 1492 140.066 493.456 464.976
3191 0 93.206 16.6298 1550 140.112 492.945 462.828
3192 0 95.0733 17.313 1646 139.051 493.202 461.248
3193 0 98.3069 16.8961 1661 141.001 492.889 460.146
3194 0 100.119 16.5502 1657 142.033 493.241 460.451
3195 0 106.144 18.3336 1946 135.747 493.107 457.308
3196 0 109.217 17.7994 1944 137.593 492.528 456.577
3197 0 111.264 16.9686 1888 140.728 492.667 454.354
3198 0 116.18 16.4572 1912 141.834 492.454 451.521
3199 0 120.142 16.8468 2024 140.614 492.523 449.126
3200 0 124.253 17.6816 2197 137.657 492.623 449.146
3201 0 123.248 16.552 2040 166.709 493.558 447.457
3202 0 132.202 18.623 2462 135.681 492.685 445.383
3203 0 134.131 17.0058 2281 141.999 492.11 442.639
3204 0 138.184 16.3261 2256 144.959 491.921 439.767
3205 0 143.277 16.667 2388 143.591 492.031 438.962
3206 0 147.245 16.408 2416 144.484 492.487 435.86
3207 0 153.243 17.9128 2745 139.937 492.656 433.874
3208 0 157.271 16.5829 2608 144.056 492.721 434.404
3209 0 159.306 15.6177 2488 149.243 492.276 427.878
3210 0 167.174 17.0003 2842 144.849 492.215 425.949
3211 0 171.271 15.9339 2729 148.257 492.24 424.218
3212 0 178.278 17.0071 3032 143.098 492.854 423.899
3213 0 184.182 16.5869 3055 144.087 492.276 418.802
3214 0 191.346 16.9954 3252 141.288 492.523 414.696
3215 0 197.396 15.3296 3026 145.96 492.645 412.007
3216 0 203.432 15.9218 3239 143.903 492.507 411.089
3217 0 210.359 17.2182 3622 139.858 492.236 405.275
3218 0 215.392 15.3024 3296 146.701 492.143 402.632
3219 0 222.303 15.4474 3434 145.695 492.152 400.946
3220 0 228.424 16.4825 3765 143.623 492.473 394.723
3221 0 232.343 15.1543 3521 148.757 492.584 394.604
3222 0 241.388 15.9991 3862 145.834 492.703 391.117
3223 0 248.315 16.02 3978 146.277 492.62 387.339
3224 0 255.307 16.58 4233 145.972 492.713 382.194
3225 0 264.424 15.8495 4191 148.104 492.765 381.179
3226 0 270.468 16.05 4341 146.4 493.429 376.363
3227 0 280.558 17.1658 4816 143.166 493.202 371.829
3228 0 285.354 18.2826 5217 140.649 493.683 367.168
3229 0 292.389 16.8679 4932 144.334 493.359 362.391
3230 0 302.39 17.6097 5325 142.141 492.832 361.709
3231 0 312.395 18.0316 5633 143.031 492.475 355.206
3232 1 176.378 13.8339 2440 157.42 493.027 422.639
3233 0 181.371 15.8184 2869 153.483 493.571 418.93
3234 0 187.273 14.6364 2741 156.839 493.078 416.048
3235 0 196.395 16.4719 3235 151.181 492.943 413.336
3236 0 203.483 16.2717 3311 151.089 492.812 408.441
3237 0 210.558 15.0125 3161 154.748 493.38 404.736
3238 1 68.181 13.0095 887 153.309 493.97 471.767
3239 0 71.2398 15.0899 1075 145.048 493.844 470.761
3240 0 73.2486 15.1402 1109 144.948 493.882 469.935
3241 0 78.2223 13.8579 1084 150.016 493.939 468.538
3242 0 76.2332 14.8754 1134 148.578 493.993 467.595
3243 0 80.2708 15.4477 1240 147.824 493.86 466.543
3244 0 82.1977 15.3776 1264 151.171 493.592 464.708
3245 0 85.1954 15.5055 1321 149.494 493.474 463.276
3246 0 87.225 14.239 1242 153.744 492.834 461.035
3247 0 90.1776 15.8354 1428 148.277 493.95 459.741
3248 0 93.1575 14.9424 1392 149.705 494.187 460.024
3249 0 97.3358 15.4928 1508 147.424 494.403 458.209
3250 0 99.1905 15.8684 1574 149.485 493.456 455.435
3251 0 103.23 15.0828 1557 150.883 493.83 453.435
3252 0 105.336 15.0092 1581 152.459 494.018 450.799
3253 0 109.199 15.3481 1676 150.954 494.575 450.36
3254 0 112.165 15.8784 1781 149.478 494.522 447.406
3255 0 115.129 15.1048 1739 153.259 494.458 444.228
3256 0 119.223 15.232 1816 154.161 494.633 443.355
3257 0 120.255 15.2259 1831 157.584 494.131 441.997
3258 0 123.436 14.712 1816 159.046 494.22 442.854
3259 0 129.169 15.5842 2013 157.564 493.719 438.758
3260 0 131.221 15.4397 2026 160.068 493.844 436.279
3261 0 135.207 14.8661 2010 163.734 493.8 436
3262 0 140.205 15.6414 2193 161.296 493.861 433.628
3263 0 143.179 15.107 2163 165.912 494.064 431.441
3264 0 149.281 16.5058 2464 159.907 493.802 430.246
3265 0 152.174 14.4309 2196 170.356 493.76 427.859
3266 1 117.141 13.8465 1622 172.376 493.916 446.936
3267 0 119.273 14.58 1739 170.415 494.256 445.56
3268 0 122.389 14.1761 1735 174.508 493.575 441.665
3269 0 128.501 14.1399 1817 173.336 493.855 439.552
3270 0 130.576 14.3824 1878 173.645 494.191 438.268
3271 0 133.613 13.9282 1861 175.291 494.075 437.183
3272 0 138.613 14.8904 2064 171.51 493.868 435.261
3273 0 140.706 14.4486 2033 175.649 493.502 431.167
3274 0 146.604 15.2929 2242 170.337 493.452 430.982
3275 0 150.657 16.4479 2478 169.964 493.729 428.254
3276 0 154.882 15.9412 2469 172.151 494.032 425.062
3277 0 161.129 15.5279 2502 172.69 493.847 423.084
3278 1 114.951 12.5879 1447 178.699 493.554 443.571
3279 0 116.754 12.5392 1464 177.234 494.395 443.303
3280 0 120.92 13.3559 1615 175.225 494.383 437.462
3281 1 66.0666 9.80828 648 138.472 494.014 472.872
3282 0 67.0791 8.70614 584 140.447 493.651 473.046
3283 0 71.106 10.9555 779 137.508 493.508 468.724
3284 0 72.0936 9.41832 679 137.854 494.437 470.716
3285 0 80.1805 6.61008 530 141.704 494.453 470.791
3286 0 80.1531 7.97224 639 142.936 494.238 464.634
3287 0 80.1584 7.87192 631 136.708 494.046 469.856
3288 0 80.1654 8.25793 662 135.87 494.051 468.533
3289 0 84.2701 8.44902 712 135.871 494.233 466.701
3290 0 85.1886 7.97055 679 139.099 494.468 465.3
3291 0 89.2364 9.85024 879 136.894 494.025 461.06
3292 1 46.056 10.1181 466 123.738 494.32 481.086
3293 0 47.0641 9.34895 440 126.791 493.53 481.47
3294 0 48.0488 9.32386 448 127.402 493.696 480.033
3295 0 50.0751 10.4443 523 123.849 493.763 479.082
3296 0 53.0205 10.2602 544 123.789 493.732 478.417
3297 0 53.0501 9.61355 510 125.704 494.026 478.451
3298 0 55.0416 8.01211 441 130.406 493.746 481.898
3299 0 54.0244 9.81037 530 130.383 493.728 477.511
3300 0 55.0588 8.59081 473 134.909 493.37 480.924
3301 1 115.2 9.82641 1132 151.848 493.83 446.406
3302 0 120.281 10.7416 1292 149.118 493.406 444.625
3303 0 124.314 9.08182 1129 152.485 493.454 444.383
3304 0 127.216 8.5445 1087 151.868 494.436 445.886
3305 0 131.442 10.1718 1337 148.923 493.872 439.498
3306 0 136.25 9.56328 1303 148.78 493.923 439.834
3307 1 79.0452 5.98392 473 132.854 493.427 478.129
3308 0 78.1121 8.11654 634 130.527 493.836 471.319
3309 0 78.0708 7.90308 617 128.169 494.405 473.365
3310 0 79.1444 9.33737 739 125.277 494.037 469.156
3311 0 77.0574 7.15052 551 127.764 494.437 473.367
3312 1 40.0595 9.2113 369 122.875 494.713 485.74
3313 0 42.0488 9.91706 417 120.055 493.952 483.312
3314 0 44.0567 10.4411 460 116.513 494.026 484.263
3315 0 44.0525 10.3059 454 116.344 493.833 483.656
3316 0 46.035 10.9916 506 115.49 494.314 482.03
3317 0 43.0698 8.66035 373 120.399 493.987 484.185
3318 0 44.0398 8.56044 377 119.127 494.276 486.69
3319 0 44.0227 8.7682 386 120.484 494.604 484.083
3320 0 43.034 9.99209 430 118.698 494.586 483.521
3321 0 47.0244 10.4627 492 116.776 494.213 481.348
3322 0 47.0449 8.43874 397 119.453 494.657 485.179
3323 0 50.0517 9.98966 500 117.494 493.676 481.934
3324 0 50.0352 9.83307 492 117.843 494.919 482.313
3325 0 51.1197 8.99849 460 119.52 494.433 481.274
3326 1 116.193 9.33789 1085 126.297 494.616 449.96
3327 0 121.227 9.32962 1131 126.41 494.43 449.497
3328 1 67.1098 14.1112 947 100.433 494.663 472.842
3329 0 68.0344 13.8165 940 100.987 494.519 476.137
3330 0 71.1146 16.0445 1141 98.7476 494.696 473.633
3331 0 73.1046 16.2097 1185 102.105 494.783 473.317
3332 0 74.1431 17.0211 1262 105.614 494.556 471.163
3333 0 77.0791 15.9836 1232 107.929 494.49 470.795
3334 0 78.1302 16.4085 1282 107.991 493.952 470.657
3335 0 82.0767 16.7039 1371 107.312 494.34 467.087
3336 0 82.104 14.3477 1178 114.733 494.795 467.801
3337 0 85.0842 16.0194 1363 110.2 494.653 466.394
3338 0 88.1282 16.215 1429 109.864 494.12 465.516
3339 0 90.1715 15.0269 1355 114.26 494.025 462.669
3340 0 94.0883 16.1231 1517 110.793 494.198 462.93
3341 1 49.0613 12.4334 610 117.402 493.843 485.293
3342 0 53.0992 12.5426 666 119.128 493.458 485.059
3343 0 53.1274 13.3265 708 120.412 494.137 483.737
3344 0 56.2054 14.0022 787 117.718 494.39 482.229
3345 0 58.0811 14.342 833 117.681 494.041 481.594
3346 0 58.0297 13.3208 773 120.93 494.37 480.843
3347 0 60.02 15.1116 907 115.892 494.542 480.13
3348 0 61.0305 13.4851 823 120.637 494.338 479.708
3349 0 63.0936 13.5671 856 120.654 494.408 477.238
3350 0 64.0601 13.0971 839 121.011 495.337 478.81
3351 0 67.0544 14.4062 966 117.581 494.625 477.216
3352 0 68.0292 14.6702 998 118.327 494.46 474.418
3353 0 71.0417 14.7378 1047 117.445 494.711 474.85
3354 0 71.0618 13.6501 970 122.052 494.61 474.081
3355 0 74.055 15.1104 1119 118.52 494.644 472.208
3356 0 76.0688 14.5658 1108 120.342 494.535 472.318
3357 0 77.0819 14.3224 1104 122.068 494.275 471.165
3358 0 80.0415 14.5924 1168 121.664 493.964 471.169
3359 0 83.0503 14.1601 1176 123.016 494.004 469.726
3360 0 86.1476 14.301 1232 122.077 493.556 468.24
3361 0 89.0774 15.537 1384 118.929 493.509 467.421
3362 0 91.1984 15.1428 1381 118.762 493.82 464.749
3363 0 93.1055 14.403 1341 119.761 493.199 465.148
3364 0 99.1214 15.708 1557 115.882 493.591 460.558
3365 1 52.0469 12.7577 664 117.633 493.988 482.203
3366 0 52.0605 12.6776 660 119.692 492.115 482.732
3367 0 57.0723 13.4741 769 118.138 492.974 482.586
3368 0 56.0485 13.9879 784 121.505 493.036 480.582
3369 0 61.0926 14.5844 891 120.135 492.964 480.687
3370 0 62.1178 14.3598 892 121.79 493.554 478.836
3371 0 62.0577 14.551 903 121.657 493.671 478.698
3372 0 64.0869 14.1215 905 123.114 492.888 478.652
3373 0 68.0821 14.6441 997 120.741 493.62 478.011
3374 0 69.0292 13.8637 957 124.426 493.196 475.811
3375 0 70.1228 14.2607 1000 123.163 493.653 474.153
3376 0 74.1124 14.4645 1072 121.751 493.39 474.187
3377 0 75.114 14.4314 1084 122.285 492.937 472.649
3378 0 78.122 13.5685 1060 124.161 493.511 469.797
3379 0 81.0974 13.7736 1117 122.713 493.406 470.346
3380 0 82.1312 13.7828 1132 123.454 493.648 467.458
3381 0 85.2089 13.508 1151 122.837 493.546 464.524
3382 0 87.1221 13.7738 1200 122.182 493.713 464.319
3383 0 90.1136 13.9934 1261 121.83 493.629 460.11
3384 0 92.2757 12.6144 1164 125.875 493.198 459.972
3385 0 96.272 14.0435 1352 122.007 493.505 458.749
3386 0 101.24 16.2188 1642 115.459 493.106 457.797
3387 0 103.166 14.3749 1483 121.394 492.562 454.891
3388 0 108.314 15.2889 1656 117.781 492.065 456.06
3389 0 111.278 14.001 1558 122.415 492.262 451.695
3390 0 116.195 14.4584 1680 119.543 493.336 452.189
3391 0 120.161 14.3558 1725 120.636 493.095 446.934
3392 1 68.0802 13.6016 926 125.022 493.745 472.162
3393 0 71.091 13.9539 992 124.301 494.125 472.141
3394 0 75.0904 12.4916 938 126.983 493.819 472.676
3395 0 77.1284 14.2619 1100 123.077 493.921 469.683
3396 0 78.1784 14.3902 1125 122.635 494.245 469.871
3397 0 82.1274 13.0894 1075 125.379 494.413 467.032
3398 0 85.0889 13.4918 1148 124.414 494.979 465.82
3399 0 89.1445 14.8299 1322 119.98 493.818 462.477
3400 0 93.1171 13.628 1269 122.017 494.125 462.947
3401 0 95.1061 14.2578 1356 119.653 493.876 460.119
3402 0 98.1274 13.5436 1329 120.823 494.235 457.205
3403 0 100.146 13.8498 1387 120.146 494.077 454.96
3404 0 105.213 13.9526 1468 117.989 494.083 454.948
3405 0 107.093 13.9785 1497 119.253 493.772 453.34
3406 0 110.202 12.8582 1417 120.457 493.75 453.14
3407 0 115.157 13.4077 1544 117.614 493.924 449.791
3408 0 120.154 13.5243 1625 117.583 493.222 447.759
3409 0 124.147 13.1135 1628 118.166 493.015 446.194
3410 0 128.275 13.0267 1671 118.407 493.61 442.128
3411 0 134.173 12.7522 1711 117.84 493.646 443.084
3412 1 71.0954 11.7026 832 115.472 494.076 472.48
3413 0 74.1598 13.5788 1007 117.021 493.864 469.129
3414 0 78.0278 12.7134 992 119.021 493.57 469.577
3415 0 80.0849 13.6355 1092 117.294 493.062 465.911
3416 0 83.1193 13.4866 1121 116.977 493.687 465.876
3417 0 85.167 13.0567 1112 118.025 493.911 464.191
3418 0 90.1309 12.9811 1170 116.383 493.85 464.346
3419 0 92.1873 13.2665 1223 116.735 493.791 460.02
3420 0 95.1849 13.2584 1262 115.544 493.449 460.6
3421 0 97.1874 12.5222 1217 118.606 493.892 456.628
3422 0 103.103 13.3459 1376 115.385 493.663 456.22
3423 0 104.152 13.0771 1362 115.613 493.642 453.767
3424 0 108.217 12.5859 1362 115.496 493.804 451.942
3425 0 112.372 13.0905 1471 114.791 493.885 448.143
3426 1 52.2518 10.0284 524 110.723 493.952 480.019
3427 0 54.0339 10.7525 581 108.415 493.74 480.267
3428 0 54.085 11.5189 623 109.162 493.628 477.581
3429 0 58.1912 11.7887 686 104.001 495.071 478.563
3430 0 58.1437 9.7861 569 108.731 494.761 479.16
3431 0 61.0743 12.1 739 105.152 494.375 477.779
3432 0 65.0958 10.7995 703 107.529 494.223 476.518
3433 0 63.1519 11.6069 733 106.483 494.224 475.261
3434 0 66.0919 11.9228 788 105.801 494.306 473.921
3435 0 67.136 10.9777 737 109.053 494.738 473.796
3436 0 70.2989 11.3373 797 107.769 495.2 474.331
3437 0 73.2316 11.3612 832 109.224 494.68 471.722
3438 0 74.1299 11.0482 819 111.139 494.341 469.637
3439 0 79.1072 12.7548 1009 106.457 494.615 467.791
3440 0 81.1232 13.0296 1057 110.37 493.956 466.941
3441 0 84.2156 11.4587 965 113.824 494.074 465.144
3442 0 88.2064 11.1443 983 114.508 493.645 463.37
3443 1 50.103 9.97945 500 111.118 494.392 481.242
3444 0 51.1989 10.8205 554 109.7 494.475 481.061
3445 0 55.0489 10.8631 598 107.5 495.635 481.184
3446 0 52.1125 10.4773 546 113.852 493.507 477.665
3447 0 54.0894 9.13303 494 108.269 493.652 480.257
3448 0 57.1877 10.3519 592 105.277 493.377 480.074
3449 0 59.1028 10.6594 630 106.963 493.435 478.565
3450 0 62.0181 12.3512 766 103.567 493.287 477.026
3451 0 65.0406 12.5306 815 101.389 493.492 478.07
3452 0 67.065 11.0788 743 105.957 493.425 475.511
3453 0 64.0863 9.81489 629 110.089 494.118 474.293
3454 0 68.1597 11.6491 794 106.031 493.918 474.766
3455 0 70.1662 10.8742 763 109.919 493.556 472.191
3456 0 72.1394 11.159 805 110.614 493.368 470.319
3457 0 75.0615 11.5638 868 109.154 492.918 471.702
3458 0 76.2116 11.3106 862 111.908 492.854 466.616
3459 0 80.2247 11.9539 959 110.483 493.226 467.166
3460 0 85.1616 12.67 1079 108.595 493.54 467.462
3461 0 87.1109 12.2832 1070 113.97 493.482 465.041
3462 0 91.1449 12.7599 1163 112.893 492.47 463.728
3463 0 92.1359 12.4382 1146 114.037 492.584 462.775
3464 1 49.0825 10.5537 518 110.743 493.597 484.459
3465 0 49.1107 8.83718 434 114.721 493.028 483.717
3466 0 52.1746 10.6182 554 111.222 493.236 482.798
3467 0 51.2647 11.4894 589 109.733 493.334 480.871
3468 0 55.1629 12.309 679 110.103 492.386 478.259
3469 0 57.1537 11.7403 671 111.955 491.894 480.148
3470 0 58.0609 10.799 627 118.41 492.496 480.344
3471 0 58.1718 11.8786 691 117.404 492.861 479.441
3472 0 60.2497 12.8631 775 113.983 492.573 480.092
3473 0 62.2013 12.1059 753 117.267 492.475 477.254
3474 0 64.1021 11.9185 764 118.086 492.347 476.305
3475 0 66.2938 13.2441 878 114.901 493.005 475.244
3476 0 70.2629 13.0225 915 115.228 492.951 474.308
3477 0 71.3441 12.0122 857 122.559 493.056 472.389
3478 0 72.1236 13.6571 985 120.571 492.653 471.019
3479 0 76.291 13.3961 1022 119.287 492.923 470.662
3480 0 77.3456 13.1229 1015 121.893 493.115 468.446
3481 0 78.1695 12.6136 986 119.674 493.464 469.144
3482 0 82.1391 11.7484 965 122.389 493.406 466.915
3483 0 82.165 12.268 1008 122.06 493.554 465.74
3484 1 45.0309 10.5705 476 116.775 493.882 487.746
3485 0 46.0892 11.3693 524 115.061 493.639 486.594
3486 0 46.065 10.5286 485 118.414 493.122 485.146
3487 0 47.0493 11.1585 525 117.276 492.756 484.091
3488 0 51.0645 12.2198 624 123.976 492.851 483.237
3489 0 51.0953 12.3495 631 123.716 492.659 483.076
3490 0 54.0693 11.7072 633 124.978 492.341 481.968
3491 0 55.0941 12.7781 704 122.842 492.203 480.091
3492 0 56.0728 12.1092 679 124.448 492.421 481.268
3493 0 59.1041 12.5372 741 122.699 492.332 478.695
3494 0 59.125 11.8224 699 124.8 492.173 478.691
3495 0 62.1036 12.6563 786 122.743 492.184 477.323
3496 0 63.1051 12.7723 806 122.093 492.435 476.442
3497 0 65.1257 13.7427 895 120.31 492.447 474.783
3498 0 68.2568 13.0829 893 120.624 492.082 473.53
3499 0 70.1145 13.2355 928 119.631 492.665 472.27
3500 0 71.0964 11.1961 796 125.461 492.513 471.119
3501 0 74.031 12.8054 948 121.387 491.911 471.443
3502 0 75.0493 12.4318 933 123.615 492.631 467.421
3503 0 78.0518 10.9927 858 127.705 493.268 466.833
3504 0 81.0742 12.2604 994 124.303 493.453 466.548
3505 1 42.0188 10.0907 424 122.224 492.66 487.743
3506 0 43.0329 10.2945 443 124.483 492.158 485.819
3507 0 46.0213 11.2557 518 120.66 492.104 484.93
3508 0 47.033 11.8853 559 115.181 493.111 486.36
3509 0 49.0493 12.4976 613 114.023 493.121 484.984
3510 0 49.0319 11.9718 587 118.514 493.601 484.939
3511 0 48.0128 11.5802 556 122.005 493.086 483.263
3512 0 50.1052 11.0368 553 122.237 493.955 483.998
3513 0 53.0286 11.1072 589 122.394 493.205 482.99
3514 0 55.0491 13.1519 724 116.137 493.486 482.536
3515 0 57.1151 13.1839 753 116.09 493.27 482.011
3516 0 58.0444 12.5766 730 120.385 493.179 481.341
3517 0 60.1119 12.7096 764 120.866 493.297 477.551
3518 0 61.0641 13.0355 796 119.121 493.2 479.319
3519 0 63.0506 11.6414 734 125.766 494.084 478.944
3520 0 65.0713 13.0011 846 122.811 494.511 476.524
3521 0 69.0312 12.4437 859 122.82 494.427 477.715
3522 0 70.0677 12.2453 858 124.788 493.491 475.39
3523 0 72.1151 12.7713 921 124.407 494.409 473.466
3524 0 72.0769 12.8613 927 125.9 493.865 472.369
3525 0 77.0443 12.1748 938 125.337 495.048 473.083
3526 0 77.0825 11.6239 896 127.752 494.836 471.244
3527 0 84.2067 14.1438 1191 119.772 493.941 468.76
3528 0 84.2233 13.2505 1116 122.617 494.202 469.272
3529 0 88.176 12.9627 1143 123.06 494.574 465.99
3530 0 92.2772 13.752 1269 121.587 494.488 464.169
3531 0 96.1118 13.734 1320 119.625 494.814 465.322
3532 1 53.0265 11.8431 628 124.634 494.717 481.618
3533 0 54.1258 11.4733 621 123.293 494.151 480.539
3534 0 56.1798 12.7448 716 116.288 494.205 477.677
3535 0 60.0439 13.1404 789 120.375 494.517 480.082
3536 0 61.1008 14.1406 864 118.587 493.943 477.888
3537 0 63.0486 12.9107 814 121.797 493.956 476.778
3538 0 63.0266 12.0108 757 125.018 493.987 475.732
3539 0 66.1156 13.1134 867 121.209 493.371 476.141
3540 0 69.0711 13.2327 914 120.893 494.246 473.728
3541 0 70.0719 13.6146 954 120.737 493.416 472.531
3542 0 75.0173 13.8635 1040 119.391 493.146 470.918
3543 0 76.0635 13.7122 1043 120.193 492.796 471.323
3544 0 78.101 14.3916 1124 119.56 493.075 468.025
3545 0 81.088 13.8492 1123 120.841 493.282 468.988
3546 0 86.0859 14.2184 1224 119.648 492.992 466.355
3547 0 88.0607 13.8768 1222 122.163 492.121 464.489
3548 0 92.177 14.483 1335 120.045 492.545 465.681
3549 0 93.0414 15.1223 1407 120.768 493.223 461.903
3550 0 97.0958 14.7483 1432 121.031 493.189 463.734
3551 0 98.0725 13.439 1318 126.842 492.97 458.458
3552 0 103.103 15.276 1575 121.695 493.232 458.144
3553 0 107.067 14.5609 1559 123.909 493.363 456.523
3554 0 111.054 13.516 1501 126.193 493.105 453.486
3555 1 56.0407 12.6515 709 123.062 493.214 482.587
3556 0 58.0349 13.2851 771 122.643 493.676 480.386
3557 0 59.072 13.0349 770 124.765 493.805 478.339
3558 0 62.0783 13.3702 830 122.501 493.523 479.257
3559 0 63.1712 13.0439 824 124.803 494.076 476.964
3560 0 67.1773 12.7573 857 123.961 494.634 475.953
3561 0 70.0852 13.2268 927 121.54 494.274 476.41
3562 0 71.1606 13.5468 964 122.877 494.411 474.106
3563 0 74.0997 14.6424 1085 118.984 494.134 474.025
3564 0 76.1598 14.8897 1134 119.024 494.63 471.429
3565 0 78.0959 13.5218 1056 122.906 494.148 470.463
3566 0 80.058 13.5402 1084 123.057 494.377 470.733
3567 0 82.0665 13.4769 1106 124.042 494.381 467.993
3568 0 85.1508 13.9517 1188 122.793 494.534 465.513
3569 0 88.0648 14.6029 1286 120.862 494.249 466.058
3570 0 91.0733 14.0436 1279 122.88 493.836 463.369
3571 0 92.1199 12.6357 1164 126.653 494.028 464.625
3572 0 96.0796 13.4576 1293 124.459 494.291 462.379
3573 0 98.2248 14.6399 1438 123.192 494.919 460.169
3574 0 101.19 14.1615 1433 125.379 495.013 459.525
3575 0 103.115 13.3443 1376 127.925 493.799 457.105
3576 0 106.324 13.6281 1449 125.827 494.289 455.585
3577 1 54.0836 11.963 647 125.603 495.304 479.603
3578 0 57.173 13.7477 786 119.754 494.485 475.83
3579 0 60.0479 13.4892 810 126.605 494.828 476.67
3580 0 61.0563 12.9553 791 128.393 494.688 476.008
3581 0 64.1044 13.6964 878 126.444 494.628 475.251
3582 0 66.2251 14.2997 947 124.669 494.465 473.569
3583 0 67.0622 14.2554 956 125.687 493.979 471.3
3584 0 71.1375 14.9288 1062 123.239 494.566 470.725
3585 0 72.1902 14.3371 1035 125.526 494.622 470.878
3586 0 75.082 14.291 1073 125.494 493.924 468.344
3587 0 76.0377 13.5328 1029 126.106 494.286 468.842
3588 0 79.1064 14.1582 1120 126.99 493.974 466.55
3589 0 81.1762 15.4971 1258 124.412 494.37 463.291
3590 0 85.2388 14.3127 1220 126.789 494.234 463.29
3591 0 88.1797 15.3096 1350 123.308 494.165 461.754
3592 0 90.2065 15.143 1366 122.404 494.577 461.39
3593 0 93.4673 14.3045 1337 124.452 494.76 460.592
3594 0 96.2372 13.1758 1268 128.07 494.802 458.256
3595 1 48.0406 12.4478 598 127.876 494.813 478.423
3596 0 50.1364 12.6255 633 125.807 494.645 476.246
3597 0 53.0654 13.2667 704 125.848 494.939 479.92
3598 0 54.0637 13.7985 746 126.515 494.487 478.71
3599 0 56.0386 12.5806 705 129.085 494.105 478.844
3600 0 59.0541 13.6146 804 124.907 493.909 477.958
3601 0 61.0828 13.7355 839 125.256 493.69 475.696
3602 0 63.0639 14.0968 889 124.695 494.157 473.366
3603 0 66.0831 13.1047 866 126.4 494.579 472.569
3604 0 68.0722 13.1037 892 126.408 494.648 473.461
3605 0 71.0634 14.48 1029 122.187 494.453 471.275
3606 0 74.1018 14.4126 1068 121.566 494.484 471.064
3607 0 76.1144 14.4913 1103 121.178 495.541 470.478
3608 0 79.2788 14.5941 1157 119.939 495.447 469.08
3609 0 82.2008 13.7225 1128 123.386 494.655 468.381
3610 0 85.0904 14.4317 1228 120.796 494.68 465.939
3611 0 89.1158 15.3733 1370 117.314 495.052 466.085
3612 1 47.0595 11.3261 533 123.259 494.704 486.375
3613 0 49.1185 13.3351 655 110.347 494.363 484.637
3614 0 50.0363 12.9706 649 111.433 494.005 484.65
3615 0 50.0381 13.13 657 111.927 494.222 484.79
3616 0 53.1002 13.4839 716 109.69 494.747 484.655
3617 0 53.0669 11.7211 622 115.36 494.556 482.109
3618 0 55.0896 12.7247 701 111.663 494.91 483.506
3619 0 59.0455 13.1763 778 109.198 494.452 482.74
3620 0 60.0173 12.4131 745 112.879 495.234 480.503
3621 0 62.0848 13.546 841 111.229 494.614 478.792
3622 0 63.0614 13.5582 855 112.273 494.954 477.035
3623 0 63.1851 12.408 784 116.838 494.416 475.876
3624 0 69.0334 12.8923 890 114.421 494.938 476.491
3625 0 71.0604 13.4111 953 113.593 495.281 475.065
3626 0 73.068 13.0426 953 115.665 495.549 474.174
3627 0 76.1626 13.8913 1058 115.467 495.247 472.108
3628 0 79.0451 13.8908 1098 115.336 495.72 471.31
3629 0 82.1485 13.7799 1132 115 494.288 470.041
3630 0 85.0868 13.1278 1117 115.673 494.582 469.908
3631 0 88.1281 14.1725 1249 114.368 495.158 465.785
3632 0 93.2043 14.5701 1358 113.126 495.457 464.048
3633 1 49.0723 13.6941 672 114.893 494.015 483.647
3634 0 51.1098 12.2481 626 117.69 495.073 483.831
3635 0 52.171 12.9191 674 115.358 494.542 483.236
3636 0 54.169 13.0148 705 113.801 494.974 483.87
3637 0 57.1102 12.4496 711 114.302 495.027 482.525
3638 0 60.1281 13.5544 815 111.653 494.185 481.221
3639 0 59.0911 11.1523 659 119.777 494.628 480.17
3640 0 63.1372 12.5441 792 115.389 494.259 479.106
3641 0 65.1453 12.8482 837 114.508 493.935 478.866
3642 0 66.248 11.94 791 118.365 494.143 477.951
3643 0 69.0928 13.6917 946 114.402 493.506 476.513
3644 0 71.1186 12.9643 922 116.988 494.329 474.587
3645 0 73.1124 12.9527 947 117.741 494.051 473.933
3646 0 75.2497 12.4386 936 118.869 494.297 472.878
3647 0 80.0344 12.3697 990 118.725 494.246 471.325
3648 1 41.0566 11.4476 470 118.298 493.968 489.272
3649 0 43.0319 12.2003 525 114.343 494.402 486.09
3650 0 44.0707 13.3422 588 117.609 494.367 487.616
3651 0 46.2321 12.8266 593 118.334 494.329 486.298
3652 0 48.07 12.1489 584 119.991 494.401 487.098
3653 0 49.0913 14.0554 690 115.458 493.948 486.342
3654 0 49.1271 13.4549 661 118.392 493.743 485.401
3655 0 52.0414 13.7198 714 117.917 493.826 484.665
3656 0 53.0739 13.8109 733 117.42 493.61 484.763
3657 0 54.2382 12.8692 698 119.986 493.936 484.574
3658 0 54.0587 13.2449 716 121.384 494.191 481.737
3659 0 58.2497 13.4765 785 118.656 493.68 482.375
3660 0 57.0777 13.3502 762 121.57 493.786 480.312
3661 0 59.0478 12.4645 736 123.802 493.898 479.514
3662 0 61.1029 13.0763 799 121.829 493.748 478.378
3663 0 65.0696 13.8621 902 117.978 493.439 478.694
3664 0 64.0369 11.8369 758 119.443 494.182 479.35
3665 0 69.0513 12.0635 833 119.178 493.454 477.062
3666 0 68.0598 11.916 811 120.052 493.785 475.795
3667 0 73.0565 11.9633 874 118.91 493.437 474.161
3668 0 76.1384 12.9895 989 116.225 492.989 475.448
3669 0 77.0979 12.6852 978 117.357 493.65 473.581
3670 0 82.1069 14.2254 1168 113.857 493.201 469.588
3671 0 81.0286 12.0945 980 119.942 492.814 469.97
3672 0 87.1191 12.2935 1071 118.69 493.146 467.045
3673 0 89.1011 13.0077 1159 118.552 492.929 466.425
3674 0 92.1149 13.6134 1254 118.717 493.784 463.014
3675 1 51.019 12.1915 622 116.805 494.539 485.709
3676 0 51.1968 11.0749 567 121.695 492.513 484.258
3677 0 53.0402 11.9155 632 119.916 493.945 481.16
3678 0 53.1034 12.1273 644 118.082 492.815 483.725
3679 0 55.0699 11.6761 643 119.432 492.372 481.415
3680 0 58.063 12.3142 715 118.81 492.317 480.162
3681 0 58.091 11.1549 648 123.262 492.096 478.756
3682 0 62.0907 12.1757 756 119.659 492.368 479.005
3683 0 63.0663 12.3838 781 119.62 492.653 475.681
3684 0 67.0667 12.167 816 120.343 492.472 475.489
3685 0 69.1204 11.6608 806 122.125 492.154 473.311
3686 0 72.0364 12.0217 866 121.99 492.329 472.032
3687 0 74.1277 12.465 924 119.811 492.249 472.759
3688 0 77.101 12.0362 928 120.578 492.612 469.872
3689 0 81.1833 11.6157 943 120.374 492.526 468.882
3690 0 81.0976 10.0003 811 123.402 492.222 469.069
3691 1 45.1326 11.3222 511 117.869 492.043 485.773
3692 0 46.2016 11.6013 536 116.437 492.125 485.703
3693 0 45.1481 11.8056 533 116.902 493.199 483.97
3694 0 43.1049 11.6924 504 118.282 493.625 484.936
3695 0 47.0663 11.2182 528 116.803 493.708 483.591
3696 0 48.1702 12.4973 602 114.193 494.15 484.354
3697 0 48.0495 9.86483 474 121.179 494.363 482.814
3698 0 52.0529 11.1233 579 116.674 494.154 482.548
3699 0 53.0401 11.1237 590 116.747 493.403 481.588
3700 0 55.0813 11.7281 646 115.427 493.42 479.892
3701 0 59.1297 13.0899 774 111.791 493.636 479.121
3702 0 60.0394 13.208 793 112.897 492.847 478.623
3703 0 64.0697 12.7673 818 112.495 492.729 477.468
3704 0 67.1579 13.4161 901 110.16 493.338 477.263
3705 0 69.0998 12.4892 863 113.448 493.144 473.971
3706 0 71.0814 12.0144 854 115.196 492.656 472.447
3707 0 73.0469 12.8274 937 113.547 492.963 473.243
3708 0 74.0715 12.0424 892 116.793 493.15 471.515
3709 0 80.0852 13.2609 1062 113.97 492.728 467.79
3710 0 82.1002 12.5456 1030 116.599 492.846 465.983
3711 0 82.1002 12.5822 1033 139.484 492.834 465.871
3712 0 87.1018 12.893 1123 116.301 492.861 464.447
3713 0 87.0962 12.8593 1120 142.604 491.866 464.396
3714 1 44.2079 8.93506 395 117.306 493.537 483.504
3715 0 44.0385 9.94585 438 116.772 493.552 479.331
3716 0 49.1463 11.0486 543 117.74 493.442 483.854
3717 0 51.1054 10.8208 553 118.964 493.349 483.566
3718 0 54.1164 12.4362 673 114.132 493.034 482.945
3719 0 56.2512 13.0842 736 111.83 492.553 481.448
3720 0 56.1073 12.2979 690 114.513 492.587 481.146
3721 0 59.2417 12.525 742 113.637 492.943 480.799
3722 0 61.0965 11.1136 679 115.342 493 482.244
3723 0 61.1319 11.8269 723 116.13 492.929 477.432
3724 0 65.2103 12.8814 840 111.304 493.512 478.229
3725 0 67.2528 13.1444 884 111.817 492.374 477.295
3726 0 68.3261 11.2841 771 117.285 492.761 474.436
3727 0 71.1227 12.2043 868 114.945 493.242 473.229
3728 0 73.154 11.8517 867 115.843 493.098 472.894
3729 0 74.2662 12.7918 950 113.733 492.369 469.134
3730 0 76.2335 11.9501 911 116.741 492.732 468.645
3731 0 80.2425 11.6023 931 117.517 493.375 467.873
3732 0 83.2786 13.1486 1095 114.14 492.808 464.167
3733 0 86.4016 12.7081 1098 113.922 492.782 464.563
3734 0 89.1959 12.4109 1107 111.62 494.111 463.284
3735 1 45.0283 10.1492 457 109.276 493.56 483.95
3736 0 50.0384 12.8501 643 102.701 493.513 483.961
3737 0 51.0878 11.4509 585 105.306 493.18 483.338
3738 0 53.0214 11.9386 633 104.395 492.799 482.769
3739 0 56.031 12.3682 693 104.176 493.548 482.124
3740 0 53.0495 10.3677 550 107.793 493.555 482.325
3741 0 55.0862 11.0554 609 106.589 493.483 481.097
3742 0 58.0675 11.6588 677 106.552 493.641 477.727
3743 0 61.0747 11.6251 710 106.117 493.493 475.589
3744 0 61.0855 10.6572 651 106.7 493.545 477.19
3745 0 64.1059 11.0442 708 107.186 493.65 476.566
3746 0 66.038 11.0997 733 109.922 493.902 473.141
3747 0 68.0657 11.6652 794 109.044 493.861 472.889
3748 0 69.0832 11.0157 761 111.561 493.544 472.413
3749 0 73.0739 12.0426 880 110.642 493.198 470.11
3750 0 76.1648 11.8953 906 111.83 493.459 467.328
3751 0 79.1434 12.9512 1025 110.133 494.056 465.795
3752 0 79.067 12.0278 951 112.155 494.166 464.769
3753 0 82.1304 10.8973 895 114.985 494.074 463.753
3754 0 87.2191 12.6692 1105 112.58 493.224 462.7
3755 0 91.2478 13.5127 1233 112.74 493.366 460.244
3756 0 95.2419 12.6415 1204 112.398 493.355 459.052
3757 1 50.1535 11.3651 570 109.504 494.353 480.184
3758 0 50.051 9.77003 489 109.728 495.693 479.546
3759 0 51.0769 11.0422 564 108.05 495.562 474.879
3760 0 52.0826 12.461 649 108.077 494.504 481.61
3761 0 55.0354 11.9378 657 108.425 494.397 481.845
3762 0 54.0939 10.4078 563 113.384 495.453 481.599
3763 0 59.0897 12.7264 752 107.935 495.375 478.045
3764 0 59.08 12.2038 721 111.108 495.315 476.968
3765 0 61.0811 13.081 799 109.262 495.068 476.927
3766 0 65.0361 12.0548 784 110.878 495.43 476.274
3767 0 65.0647 12.403 807 110.734 495.685 474.867
3768 0 67.0557 11.8409 794 112.105 495.975 475.298
3769 0 70.0864 11.5144 807 113.758 495.455 473.429
3770 0 71.2335 12.8872 918 110.435 495.635 471.661
3771 0 76.2367 13.8516 1056 107.688 495.633 471.593
3772 0 76.2765 14.3688 1096 108.434 495.381 470.872
3773 0 80.2247 14.3223 1149 112.187 495.194 467.412
3774 0 81.1515 13.3701 1085 115.122 495.592 468.463
3775 0 85.2004 14.2018 1210 112.972 495.629 465.323
3776 0 85.1851 13.8639 1181 115.209 495.407 465.547
3777 0 92.2538 14.059 1297 113.152 495.353 463.372
3778 0 93.2493 14.0162 1307 114.771 495.582 459.368
3779 0 98.3112 13.9658 1373 113.833 495.067 459.543
3780 1 48.2692 10.9594 529 118.04 495.361 483.507
3781 0 51.2274 13.4108 687 112.109 495.706 482.025
3782 0 52.0765 13.4226 699 107.748 495.969 482.777
3783 0 53.1654 12.8843 685 115.378 496.219 479.727
3784 0 55.1136 12.574 693 115.672 495.548 479.928
3785 0 55.0656 12.4579 686 114.206 495.003 481.738
3786 0 57.0711 12.6684 723 114.892 495.487 480.632
3787 0 59.1178 13.2278 782 113.913 495.738 477.5
3788 0 62.0745 13.5966 844 112.171 496.056 478.133
3789 0 65.1106 14.7749 962 109.335 495.351 476.578
3790 0 63.1279 13.2113 834 116.156 495.711 474.495
3791 0 67.1225 13.6765 918 113.767 495.148 474.781
3792 0 70.0767 13.6279 955 113.848 495.352 474.43
3793 0 72.0845 14.8714 1072 111.055 495.311 471.247
3794 0 74.1234 14.26 1057 113.09 494.68 469.045
3795 0 76.1791 14.374 1095 112.758 494.311 467.492
3796 0 80.1047 15.4048 1234 109.726 494.418 467.875
3797 0 82.1854 14.6498 1204 112.725 494.424 466.694
3798 0 85.1393 15.3396 1306 111.274 493.97 465.253
3799 0 88.1771 16.0699 1417 108.653 494.183 460.592
3800 0 89.2011 13.3519 1191 116.214 494.3 460.835
3801 0 92.2948 14.6704 1354 112.44 493.288 459.571
3802 0 96.2434 13.8607 1334 115.323 494.225 454.874
3803 1 45.0612 11.8062 532 114.573 495.002 481.353
3804 0 46.0508 11.8347 545 115.147 495.057 478.903
3805 0 50.0296 12.4127 621 115.245 494.427 479.092
3806 0 53.1137 13.1793 700 112.39 494.38 478.991
3807 0 53.0348 12.8029 679 115.604 494.807 481.119
3808 0 55.0625 12.8218 706 116.458 494.246 477.494
3809 0 55.0288 12.7206 700 116.313 494.754 476.231
3810 0 56.0821 11.2335 630 120.74 494.705 475.505
3811 0 58.0264 13.1492 763 115.933 494.713 475.72
3812 0 60.0377 13.1251 788 115.388 495.166 477.459
3813 0 62.064 11.7459 729 119.067 494.999 476.388
3814 0 61.0486 12.4982 763 119.079 494.914 472.64
3815 0 64.2055 13.2076 848 114.871 494.979 471.456
3816 0 67.1851 12.5325 842 116.441 494.586 471.411
3817 0 68.2949 12.3289 842 115.871 494.626 470.784
3818 0 69.3806 11.9198 827 117.157 494.846 469.664
3819 0 73.2771 12.2821 900 116.119 494.489 466.819
3820 0 76.2158 12.9238 985 113.005 494.581 466.221
3821 0 77.1649 11.6763 901 115.548 494.483 465.909
3822 0 78.1605 12.0521 942 114.428 494.377 463.665
3823 0 84.221 12.396 1044 112.01 494.517 462.914
3824 0 87.1723 12.1025 1055 110.901 495.102 461.511
3825 0 88.2456 11.638 1027 112.595 495.173 459.459
3826 0 92.2406 12.2289 1128 109.53 495.319 459.824
3827 0 96.1676 12.8838 1239 108.246 494.641 457.479
3828 1 50.0244 10.5748 529 107.488 495.24 482.03
3829 0 55.1772 13.1032 723 102.658 494.036 478.982
3830 0 58.124 13.2992 773 108.42 494.05 479.558
3831 0 57.0948 12.3829 707 113.33 494.117 477.731
3832 0 59.0922 12.5567 742 112.873 494.625 477.383
3833 0 61.1856 13.8922 850 110.742 494.181 476.482
3834 0 62.1186 12.46 774 115.438 494.335 474.916
3835 0 66.0775 14.1046 932 110.221 493.805 474.983
3836 0 67.1776 13.2038 887 114.012 493.939 473
3837 0 69.2745 12.6453 876 115.926 493.782 473.176
3838 0 72.264 13.077 945 115.287 493.333 471.911
3839 0 75.095 13.676 1027 113.894 493.76 470.126
3840 0 77.0415 11.7469 905 118.201 494.156 469.713
3841 0 81.1074 13.0074 1055 113.516 494.637 469.749
3842 0 83.1196 12.2474 1018 116.502 494.373 467.161
3843 0 86.2046 12.2383 1055 117.818 494.155 464.542
3844 0 87.2867 12.3959 1082 117.904 494.824 463.365
3845 0 91.1757 12.5582 1145 117.386 494.69 462.498
3846 0 94.1055 12.9004 1214 115.413 494.803 462.463
3847 0 97.1355 13.5378 1315 114.567 495.205 459.325
3848 0 100.123 12.9741 1299 113.332 494.808 459.446
3849 1 54.0497 11.7669 636 114.308 495.127 479.599
3850 0 55.0615 11.8958 655 115.476 494.901 478.803
3851 0 58.0808 12.5515 729 113.584 494.228 478.937
3852 0 60.1815 11.3822 685 116.658 494.587 477.588
3853 0 62.0577 11.5538 717 114.265 494.656 477.388
3854 0 62.1054 12.6076 783 114.119 494.529 473.794
3855 0 64.0514 11.4283 732 116.066 494.754 473.947
3856 0 67.1442 11.8104 793 112.692 494.82 475.889
3857 0 68.1552 13.0731 891 112.437 494.855 472.541
3858 0 71.1018 12.5735 894 114.594 494.622 470.303
3859 0 73.1144 12.2821 898 115.321 494.301 468.962
3860 0 78.1598 11.7324 917 115.523 494.233 468.686
3861 0 79.1716 11.3425 898 116.693 494.405 467.45
3862 0 83.2235 12.0279 1001 115.947 494.678 463.131
3863 0 86.1163 11.949 1029 116.19 494.746 461.647
3864 1 47.0604 10.6459 501 112.661 495.04 484.287
3865 0 47.1535 10.7945 509 109.786 494.772 483.601
3866 0 49.0347 11.7876 578 104.874 494.612 482.059
3867 0 49.0468 11.9274 585 105.65 495.085 482.316
3868 0 49.1075 11.0167 541 108.969 495.207 481.183
3869 0 53.1269 12.0466 640 105.658 495.505 479.055
3870 0 56.1424 11.4708 644 107.444 495.073 479.076
3871 0 57.1084 12.3975 708 105.497 494.565 476.373
3872 0 57.0783 11.2302 641 110.231 494.705 476.792
3873 0 59.1646 11.1384 659 114.71 494.373 477.351
3874 0 61.1705 10.9366 669 116.141 493.958 474.386
3875 0 61.1354 10.763 658 117.347 494.549 473.102
3876 0 67.1892 11.609 780 113.505 494.565 473.41
3877 0 70.1663 12.4561 874 110.442 494.706 473.058
3878 0 71.2038 9.97138 710 116.823 494.731 469.425
3879 0 72.2734 9.98985 722 116.952 495.019 470.72
3880 0 73.2254 9.85996 722 116.679 494.501 471.291
3881 0 80.2346 11.4415 918 116.362 494.895 467.037
3882 0 83.262 12.2024 1016 114.825 494.659 463.794
3883 1 45.0293 9.4605 426 114.153 495.629 485.894
3884 0 49.0404 12.3979 608 107.566 496.118 484.477
3885 0 51.0925 11.4694 586 111.42 494.742 483.394
3886 0 48.0821 10.8148 520 117.092 495.785 482.127
3887 0 53.0684 11.3438 602 114.179 495.849 483.136
3888 0 54.1728 11.0572 599 116.252 495.307 479.711
3889 0 56.062 11.9154 668 112.906 495.362 482.148
3890 0 58.0498 12.6099 732 112.102 495.743 480.295
3891 0 59.1346 13.4608 796 112.202 495.665 477.632
3892 0 62.1459 13.3718 831 112.463 495.419 477.563
3893 0 62.0726 11.7604 730 116.734 494.752 477.545
3894 0 65.0756 13.5996 885 112.444 495.28 475.962
3895 0 65.1284 12.6059 821 116.637 495.34 474.354
3896 0 71.144 13.1002 932 112.447 495.26 476.016
3897 0 69.1245 11.7903 815 118.644 493.897 472.638
3898 0 74.2189 13.7566 1021 112.291 493.459 471.902
3899 0 78.169 13.7139 1072 111.475 494.279 471.369
3900 0 77.2123 13.1197 1013 114.249 493.782 471.304
3901 0 82.2241 13.1227 1079 114.468 493.809 466.662
3902 0 86.4542 13.8108 1194 111.631 493.982 466.848
3903 0 88.3036 13.1592 1162 113.454 493.41 464.87
3904 1 46.1843 11.0427 510 114.62 494.861 486.431
3905 0 48.035 10.9295 525 112.425 494.524 486.215
3906 0 51.0431 12.4013 633 109.932 494.39 485.085
3907 0 52.0592 11.8135 615 110.748 494.483 485.005
3908 0 54.1252 12.1385 657 110.309 494.422 483.874
3909 0 54.1447 11.7278 635 112.857 494.101 481.86
3910 0 57.194 12.5712 719 110.008 494.181 482.239
3911 0 59.1236 11.0785 655 114.125 494.252 481.521
3912 0 57.1359 12.0415 688 114.173 494.365 480.727
3913 0 60.163 11.7182 705 115.23 494.325 480.243
3914 0 64.1596 13.6534 876 97.3836 493.759 477.785
3915 0 64.1286 13.7224 880 112.155 492.634 477.652
3916 0 64.1128 13.1487 843 114.669 492.371 476.376
3917 0 67.1167 12.8731 864 114.09 492.409 477.256
3918 0 68.1795 12.4964 852 114.554 492.768 475.919
3919 0 70.1717 12.3554 867 115.463 492.969 474.232
3920 0 71.1188 11.2488 800 118.128 492.672 474.192
3921 0 75.2315 13.2125 994 112.224 492.2 472.655
3922 0 77.2274 13.143 1015 112.637 492.293 472.123
3923 0 78.2952 11.7887 923 116.313 492.398 468.252
3924 0 78.283 11.1135 870 117.477 491.403 469.866
3925 0 86.3227 12.7892 1104 113.76 491.734 465.462
3926 0 85.4018 11.7796 1006 117.068 491.383 466.907
3927 0 91.2004 11.6666 1064 117.531 491.164 463.82
3928 0 93.177 12.2777 1144 115.006 491.614 463.388
3929 0 98.2508 12.0203 1181 115.81 491.542 458.458
3930 0 99.0904 10.4955 1040 115.328 491.871 460.412
3931 1 51.0891 11.5289 589 104.881 491.626 485.105
3932 0 52.0727 11.8296 616 111.231 493.758 482.81
3933 0 54.04 12.0466 651 109.685 493.908 483.035
3934 0 55.0608 12.5134 689 108.21 493.348 483.046
3935 0 57.0501 11.4811 655 111.788 492.858 480.682
3936 0 61.0389 11.3534 693 110.19 493.475 481.434
3937 0 61.1094 11.8312 723 110.311 493.401 477.906
3938 0 65.1422 11.4672 747 111.827 493.622 479.432
3939 0 68.0535 12.8575 875 107.666 493.479 478.367
3940 0 68.1147 13.6975 933 108.744 493.228 477.108
3941 0 69.1772 13.3425 923 109.586 493.458 476.368
3942 0 71.0997 12.0254 855 113.992 492.623 475.98
3943 0 73.1252 12.4718 912 113.711 492.633 474.925
3944 0 72.0542 12.5045 901 115.194 492.322 472.697
3945 0 77.1701 12.6992 980 113.258 492.171 472.055
