time division length width area intensity CMx CMy
0 0 37.0199 13.6413 505 138.632 809.754 480.941
1 0 36.0312 12.3227 444 144.124 810.466 481.3
2 0 37.0198 12.5879 466 143.888 810.442 480.354
3 0 38.0331 12.8835 490 143.084 811.061 479.829
4 0 39.0429 12.8577 502 142.904 810.938 479.602
5 0 38.0096 12.6547 481 145.358 810.736 481.222
6 0 40.0065 12.523 501 144.022 809.75 480.166
7 0 42.0098 12.6161 530 158.6 808.808 480.708
8 0 42.0113 12.6871 533 157.749 807.792 480.702
9 0 42.0217 12.8267 539 144.327 810.382 479.362
10 0 42.0428 11.8926 500 149.608 810.63 479.808
11 0 44.0394 13.2381 583 143.393 810.515 479.913
12 0 44.0656 13.321 587 145.012 809.995 478.642
13 0 48.0624 13.961 671 139.544 809.902 478.109
14 0 47.0428 13.8597 652 142.032 810.23 478.037
15 0 49.0379 13.6629 670 142.33 810.13 477.598
16 0 49.0491 12.8647 631 145.563 810.301 477.808
17 0 50.0399 13.3693 669 144.676 810.245 477.782
18 0 50.0896 13.1365 658 147.112 808.772 477.223
19 0 52.0799 13.4793 702 144.856 809.963 477.476
20 0 53.06 13.513 717 146.893 809.702 475.911
21 0 55.1001 13.9201 767 104.012 809.404 478.674
22 0 55.0547 14.4039 793 143.141 808.277 477.308
23 0 57.0426 13.8493 790 143.692 808.47 476.053
24 0 58.054 12.5228 727 146.586 808.52 476.904
25 0 61.0795 14.4402 882 141.274 808.45 474.481
26 0 61.0488 13.4319 820 143.972 808.288 475.138
27 0 64.0401 13.9288 892 141.302 807.728 474.068
28 0 65.0343 12.8855 838 146.696 808.679 472.45
29 0 68.0795 14.8943 1014 139.784 807.767 471.853
30 0 69.0232 13.213 912 145.445 807.166 470.909
31 0 72.1314 14.127 1019 142.764 807.881 469.305
32 0 75.1565 14.1438 1063 141.269 808.017 468.559
33 0 78.0435 14.2356 1111 140.671 807.449 469.286
34 0 78.0975 13.2399 1034 145.626 807.355 466.902
35 0 83.0389 13.8008 1146 141.954 807.44 464.901
36 0 85.0635 13.5781 1155 142.517 806.873 463.696
37 1 45.0708 12.5802 567 144.852 807.619 483.79
38 0 46.0693 13.7185 632 140.729 807.095 482.247
39 0 48.0891 14.3068 688 139.722 807.186 481.208
40 0 48.0613 13.3996 644 142.034 808.162 480.508
41 0 49.0222 12.6677 621 140.62 807.32 480.903
42 0 49.021 11.8929 583 143.25 806.985 480.527
43 0 51.111 12.4826 638 140.016 807.793 479.508
44 0 55.0354 14.0273 772 134.769 807.641 477.443
45 0 57.0537 13.7414 784 135.645 806.556 477.815
46 0 61.0361 14.3194 874 132.116 806.255 476.87
47 0 60.054 12.7052 763 138.775 806.655 476.224
48 0 63.0448 13.0701 824 136.559 807.201 476.371
49 0 66.1094 13.8407 915 134.552 806.766 473.861
50 0 69.0665 13.5956 939 135.585 806.177 472.611
51 0 70.0597 13.7882 966 136.286 806.15 471.059
52 0 73.0669 13.5629 991 136.156 806.294 471.604
53 0 78.1007 14.8782 1162 130.969 806.607 469.362
54 0 80.0557 14.0652 1126 134.74 806.33 468.574
55 0 82.0825 14.059 1154 135.135 805.651 466.59
56 0 82.1704 13.3138 1094 138.694 805.512 465.657
57 0 88.155 14.5426 1282 133.22 806.072 463.76
58 0 91.0956 13.7658 1254 134.974 806.214 462.654
59 1 46.0862 12.8672 593 141.806 805.678 482.656
60 0 47.0538 13.0064 612 138.69 805.611 483.384
61 0 50.0555 12.7259 637 136.879 805.929 483.383
62 0 49.0971 12.3022 604 136.727 806.55 482.305
63 0 51.0657 11.4558 585 137.282 806.243 482.81
64 0 53.0258 11.2021 594 136.852 805.609 482.291
65 0 56.0513 12.1496 681 135.22 805.386 480.228
66 0 59.0633 13.4432 794 131.756 806.353 477.906
67 0 60.1185 12.4255 747 135.308 805.546 477.344
68 0 63.033 13.3581 842 131.493 804.748 477.784
69 0 65.0785 13.307 866 132.77 805.07 475.12
70 0 69.0552 13.7281 948 131.892 804.777 473.736
71 0 71.0903 14.4183 1025 132.565 804.973 470.373
72 0 74.0633 14.7982 1096 130.591 804.664 469.481
73 0 78.1185 14.158 1106 131.331 804.712 469.168
74 0 79.0417 14.271 1128 133.047 805.278 468.427
75 0 83.0719 14.6981 1221 131.555 804.948 460.545
76 0 85.0485 14.627 1244 133.089 804.98 462.446
77 1 43.0444 11.1513 480 134.902 804.35 486.531
78 0 46.0229 12.0158 553 133.215 804.588 485.448
79 0 47.0303 12.7365 599 132.299 805.437 484.129
80 0 49.0335 14.2964 701 127.001 804.972 483.68
81 0 50.0673 13.1623 659 130.915 805.953 481.106
82 0 51.0828 13.4292 686 129.703 805.055 483.335
83 0 52.1021 12.8018 667 132.163 805.418 481.078
84 0 54.0522 12.9135 698 128.665 805.689 482.361
85 0 56.0437 13.3646 749 123.035 805.388 480.316
86 0 60.0253 13.9941 840 120.274 804.786 480.637
87 0 60.0086 13.7147 823 122.575 804.633 479.795
88 0 62.0545 13.1175 814 124.73 804.429 477.007
89 0 64.0125 13.0131 833 125.837 804.824 477.378
90 0 67.0421 13.4841 904 125.798 804.659 471.591
91 0 70.0189 14.2819 1000 122.751 804.262 475.415
92 0 71.0834 13.5475 963 126.718 804.432 473.492
93 0 75.0628 14.681 1102 122.711 804.871 471.441
94 0 78.0885 14.6885 1147 123.274 804.52 472.02
95 0 81.0768 14.1841 1150 125.153 804.9 469.363
96 0 83.0619 14.8203 1231 124.08 804.981 468.597
97 0 86.1426 15.3466 1322 124.204 804.081 467.194
98 0 89.1499 13.9989 1248 128.667 803.713 466.073
99 1 48.009 11.2895 542 130.203 804.518 485.814
100 0 46.0167 10.431 480 118.398 804.238 476.592
101 0 49.0295 13.4613 660 116.291 804.414 485.323
102 0 51.027 13.1695 672 118.135 804.595 484.688
103 0 51.1083 12.8355 656 120.354 804.648 483.562
104 0 53.0462 12.442 660 120.798 804.1 484.106
105 0 55.0669 12.8571 708 119.466 804.59 482.177
106 0 56.0326 12.582 705 120.007 804.04 481.84
107 0 59.0601 13.6132 804 116.738 803.782 480.96
108 0 61.1602 13.2276 809 118.41 804.567 478.616
109 0 63.0583 12.2426 772 121.104 803.578 478.228
110 0 65.1915 13.3453 870 118.054 803.878 477.971
111 0 67.1023 12.7715 857 119.797 803.188 476.236
112 0 72.0726 13.75 991 115.222 803.036 476.485
113 0 74.0309 13.8051 1022 116.271 803.8 473.26
114 0 75.0189 13.7565 1032 117.293 804.454 471.467
115 0 78.0452 11.5958 905 121.771 804.048 473.167
116 1 41.0422 11.8171 485 119.252 804.157 489.563
117 0 43.0215 12.947 557 117.199 804.12 487.619
118 0 43.0056 11.3241 487 120.546 804.271 488.378
119 0 46.0211 12.1901 561 117.075 804.904 487.039
120 0 47.0349 12.8203 603 114.778 804.433 487.498
121 0 49.048 13.1504 645 113.691 804.154 485.33
122 0 50.0345 13.011 651 113.925 803.86 485.221
123 0 51.0277 13.2281 675 114.027 804.598 483.773
124 0 53.051 14.3635 762 111.828 804.928 482.874
125 0 56.0812 13.6231 764 113.716 804.851 483.076
126 0 54.0459 13.174 712 117.379 804.76 481.673
127 0 55.0153 12.4874 687 119.831 804.482 480.754
128 0 59.0487 12.3627 730 120.641 804.945 479.211
129 0 61.0866 12.867 786 122.438 804.709 477.58
130 0 63.0665 14.1438 892 119.865 804.077 477.793
131 0 65.0754 13.784 897 113.619 804.29 476.886
132 0 66.0575 12.6254 834 110.336 804.438 475.094
133 0 69.109 13.4281 928 114.903 803.794 475.655
134 0 70.0489 12.9053 904 116.309 803.684 472.02
135 0 72.1394 13.8343 998 114.16 804.048 473.595
136 0 74.1648 13.8071 1024 115.455 803.862 471.595
137 0 76.0604 12.0431 916 116.021 803.874 469.148
138 0 79.1387 12.3454 977 115.144 804.261 466.741
139 0 82.1184 12.4698 1024 116.241 804.614 466.538
140 0 86.0889 13.3699 1151 113.418 802.934 465.207
141 0 87.0887 12.3667 1077 115.013 802.965 463.785
142 0 90.0946 12.7089 1145 116.38 803.431 462.644
143 0 92.1272 12.3091 1134 115.872 803.826 463.515
144 0 97.0505 12.715 1234 114.33 803.4 461.044
145 0 99.1236 12.8325 1272 116.315 803.46 449.803
146 0 104.118 13.9745 1455 114.485 803.928 454.587
147 0 105.114 12.2059 1283 119.605 804.323 458.713
148 1 53.0354 12.1051 642 116.271 804.293 483.24
149 0 55.014 12.4514 685 117.79 803.374 480.626
150 0 59.0984 13.8413 818 108.319 804.159 481.072
151 0 59.0746 13.5083 798 109.004 804.119 478.664
152 0 60.1079 13.3926 805 109.758 804.316 478.911
153 0 62.0222 14.1079 875 108.529 804.256 477.601
154 0 65.0752 13.154 856 110.273 804.529 477.213
155 0 64.1384 12.7537 818 113.851 804.87 475.885
156 0 67.0486 12.4835 837 114.425 805.216 473.977
157 0 70.1497 12.2452 859 115.657 805.115 472.811
158 0 73.0614 12.9343 945 113.913 805.184 473.305
159 0 75.085 13.0386 979 114.665 804.884 471.031
160 0 79.1217 12.6893 1004 114.747 804.113 470.727
161 0 81.0931 13.9099 1128 112.638 803.931 467.91
162 0 85.0587 13.2732 1129 113.097 803.913 468.365
163 0 87.1302 13.2446 1154 114.869 803.94 464.931
164 0 91.1108 13.9171 1268 113.61 804.544 461.426
165 0 92.1159 12.6688 1167 118.46 804.527 463.622
166 1 48.0489 12.3624 594 116.929 804.867 484.345
167 0 50.0801 13.139 658 115.574 804.654 482.617
168 0 51.0736 13.647 697 115.056 804.372 482.09
169 0 52.0475 13.3724 696 116.478 804.17 480.726
170 0 55.086 13.724 756 117.487 803.356 480.75
171 0 55.0445 13.3892 737 120.733 803.345 478.433
172 0 58.0874 13.0665 759 119.702 803.561 479.328
173 0 60.1143 14.3061 860 116.679 803.137 478.029
174 0 63.0229 12.9159 814 120.016 803.402 476.694
175 0 64.0436 14.8649 952 116.873 803.968 475.357
176 0 65.0479 11.7913 767 125.188 803.888 475.722
177 0 68.1139 13.3013 906 113.788 804.461 470.389
178 0 68.0472 11.7712 801 119.006 804.572 469.37
179 0 71.1103 12.8814 916 116.751 804.396 467.611
180 0 74.1231 11.6563 864 120.42 803.65 467.593
181 0 79.188 13.0449 1033 115.592 804.541 467.902
182 0 79.0971 12.4278 983 120.059 803.946 466.514
183 0 83.0981 13.6826 1137 117.665 804.21 463.974
184 0 85.1179 12.8293 1092 122.193 804.275 465.43
185 0 89.1753 12.5147 1116 122.59 804.288 463.487
186 0 91.2 12.9605 1182 122.96 804.673 461.667
187 0 95.1197 12.2898 1169 124.223 804.524 461.584
188 1 47.0686 12.0675 568 113.18 804.331 485.928
189 0 49.06 11.7611 577 113.525 804.733 484.969
190 0 49.0772 11.6347 571 115.243 804.758 483.886
191 0 51.1093 10.546 539 117.193 804.167 482.779
192 0 54.058 11.3582 614 114.826 804.355 480.712
193 0 55.051 10.79 594 116.783 804.955 480.513
194 0 57.1683 11.8597 678 115.088 804.659 478.732
195 0 57.0464 10.0795 575 118.866 804.964 479.835
196 0 62.0303 12.5906 781 113.22 804.99 477.73
197 0 63.0989 11.5533 729 116.436 806.003 477.166
198 0 67.0656 12.9724 870 113.425 804.884 474.434
199 0 66.0606 11.8528 783 117.996 804.112 474.447
200 0 70.1938 12.0239 844 116.536 803.648 473.384
201 0 72.1147 12.4801 900 116.614 803.871 470.841
202 0 75.0547 12.2977 923 116.736 803.947 472.495
203 0 78.0985 11.8696 927 118.528 804.114 468.532
204 0 79.1366 11.7392 929 119.849 804.484 465.847
205 1 42.1232 9.73336 410 117.451 804.488 485.641
206 0 46.0659 11.4184 526 112.259 803.534 485.39
207 0 47.0864 12.6576 596 108.102 804.062 483.711
208 0 47.0721 12.2366 576 107.812 804.495 484.28
209 0 48.1599 10.0291 483 112.816 804.176 483.377
210 0 50.1579 11.9423 599 107.538 803.97 482.289
211 0 52.1706 11.5774 604 108.806 804.151 478.899
212 0 53.1317 11.0104 585 108.776 804.258 481.432
213 0 53.1182 12.0674 641 108.373 803.665 479.805
214 0 54.0809 11.8341 640 108.922 804.219 480.405
215 0 56.0874 11.0007 617 111.614 804.63 478.929
216 0 59.1152 11.4522 677 109.513 803.674 478.787
217 0 59.0879 12.5914 744 107.886 803.781 475.97
218 0 63.1563 11.8911 751 108.457 803.652 476.526
219 0 66.1537 13.3175 881 106.292 804.358 474.209
220 0 70.1064 13.2798 931 104.908 804.152 473.574
221 0 69.2794 12.4135 860 78.686 804.102 473.231
222 0 74.2946 12.6658 941 108.719 804.586 470.436
223 0 75.1062 12.0629 906 110.5 804.514 469.821
224 0 77.316 11.1879 865 114.587 804.595 468.376
225 0 80.238 12.6374 1014 111.728 803.874 466.785
226 0 82.1578 11.3562 933 116.133 803.567 466.103
227 0 88.1871 12.7796 1127 113.69 803.303 463.138
228 1 45.0823 10.0039 451 112.945 804.244 486.089
229 0 50.1573 10.806 542 109.491 804.375 484.563
230 0 50.1027 10.7379 538 111.918 804.753 483.634
231 0 50.0809 11.761 589 106.263 804.834 482.859
232 0 49.1363 10.8677 534 109.966 804.837 483.871
233 0 51.0543 10.9099 557 110.363 804.838 483.167
234 0 54.1222 11.1045 601 109.674 805.088 481.95
235 0 55.2208 11.7347 648 109.83 805.128 479.864
236 0 56.1564 11.2187 630 109.4 804.9 480.414
237 0 59.2033 11.7223 694 108.491 804.137 477.353
238 0 60.2258 11.3573 684 108.44 803.77 475.55
239 0 61.2198 11.1729 684 109.591 804.545 475.484
240 0 63.1578 11.0042 695 110.112 804.748 474.01
241 0 67.1337 12.6166 847 106.234 804.414 472.589
242 0 69.178 11.5933 802 107.935 804.232 471.774
243 0 74.1701 11.8107 876 105.911 804.178 471.951
244 0 77.2525 12.1679 940 104.997 804.095 469.316
245 0 78.1132 10.9457 855 108.791 804.532 467.033
246 1 39.0465 10.193 398 106.219 804.781 488.658
247 0 42.0349 11.1812 470 108.989 805.036 485.779
248 0 44.053 11.8721 523 109.855 805.203 484.501
249 0 44.0318 12.0141 529 111.456 805.527 483.62
250 0 47.0174 11.5489 543 111.917 805.482 484.484
251 0 47.0261 12.3761 582 111.471 804.459 483.21
252 0 49.0508 11.6614 572 113.538 804.925 482.288
253 0 51.114 12.2667 627 112.297 804.343 480.614
254 0 51.0481 11.0876 566 115.415 804.995 480.719
255 0 53.0164 11.6568 618 114.199 804.518 480.542
256 0 52.0748 11.7907 614 115.477 805.204 478.555
257 0 55.0658 11.4227 629 115.762 805.067 479.095
258 0 57.0184 13.329 760 110.626 804.749 477.505
259 0 58.044 12.4388 722 112.148 805.082 478.428
260 0 62.0666 12.7283 790 112.272 805.468 474.952
261 0 63.0268 12.6772 799 111.469 805.014 476.655
262 0 64.0768 12.8596 824 112.712 804.453 475.915
263 0 65.0414 11.977 779 115.035 804.946 474.616
264 0 70.0706 13.8575 971 110.332 803.83 472.089
265 0 71.0778 13.2953 945 112.499 804.883 472.62
266 0 74.1048 13.3864 992 113.188 804.625 468.871
267 0 75.047 12.9386 971 115.593 805.744 470.096
268 0 77.0773 13.1556 1014 115.134 804.864 469.753
269 0 82.1009 14.129 1160 112.614 805.14 468.741
270 0 84.1579 13.8906 1169 114.892 804.563 466.224
271 0 85.0988 13.2434 1127 117.22 804.382 462.635
272 0 88.0726 12.8303 1130 115.623 804.547 464.972
273 0 93.1624 14.3513 1337 110.469 804.782 462.457
274 1 47.0722 10.622 500 115.532 803.278 485.182
275 0 50.0246 11.0546 553 115.031 803.376 483.731
276 0 50.0167 12.036 602 112.836 803.458 483.85
277 0 54.0254 12.1609 657 112.974 804.003 482.306
278 0 53.0234 11.9947 636 111.214 803.478 484.684
279 0 52.1134 10.9761 572 114.916 803.262 485.044
280 0 56.0282 12.4223 696 111.977 802.94 481.148
281 0 56.0313 11.7077 656 114.476 803.079 481.401
282 0 59.0836 12.7785 755 112.562 803.134 478.404
283 0 62.0433 12.5235 777 111.828 802.444 479.081
284 0 64.031 12.6501 810 111.46 802.821 477.988
285 0 65.0827 13.1218 854 111.952 802.568 476.588
286 0 66.1071 12.5403 829 113.598 803.647 477.11
287 0 69.0463 12.5568 867 114.129 803.01 474.378
288 0 70.074 12.0159 842 115.019 802.764 474.866
289 0 74.096 12.9022 956 113.163 803.481 472.004
290 0 75.1322 12.5246 941 113.613 803.094 471.927
291 0 80.1011 14.257 1142 110.581 804.169 464.305
292 0 78.0485 11.7363 916 116.657 803.06 467.788
293 0 84.3194 12.4171 1047 113.698 803.123 467.391
294 0 87.0829 13.3895 1166 111.733 802.918 463.052
295 0 89.1348 11.937 1064 114.65 803.664 464.611
296 0 95.1763 13.3016 1266 111.4 803.534 463.177
297 0 96.0803 13.2493 1273 113.631 803.655 458.695
298 0 100.149 13.6597 1368 113.226 804.088 456.621
299 0 104.135 12.4741 1299 116.217 803.453 455.593
300 1 56.0428 12.1514 681 114.944 803.821 478.57
301 0 59.0973 12.1494 718 114.085 805.208 477.815
302 0 60.0584 13.4369 807 110.866 803.829 478.874
303 0 61.0517 13.0054 794 115.271 802.744 477.395
304 0 64.0518 11.5063 737 119.689 803.071 474.704
305 0 66.058 13.034 861 115.397 803.21 474.024
306 0 70.1061 13.2656 930 114.438 803.451 473.448
307 0 69.0883 13.1715 910 116.951 803.337 470.619
308 0 72.1563 12.6669 914 117.54 803.433 470.315
309 0 75.0914 13.1706 989 115.739 804.264 468.304
310 0 76.0557 12.412 944 118.427 804.148 468.129
311 0 80.0959 13.4963 1081 115.279 804.352 463.082
312 0 83.1256 13.7142 1140 114.117 803.963 464.215
313 0 84.1484 13.2266 1113 115.493 803.639 463.226
314 0 87.2228 13.4942 1177 115.66 803.647 459.832
315 0 91.2447 13.4912 1231 115.009 803.378 458.907
316 0 90.2365 13.0324 1176 111.91 802.633 454.942
317 0 95.223 12.6335 1203 111.736 803.103 450.948
318 1 46.0436 9.25211 426 114.477 803.481 477.843
319 0 49.0398 11.0319 541 105.046 803.675 476.734
320 0 49.0401 10.2161 501 104.383 802.89 476
321 0 54.0253 12.4201 671 102.636 803.107 479.726
322 0 54.0228 11.2175 606 106.69 802.967 479.525
323 0 58.0686 12.7435 740 102.296 802.692 476.739
324 0 59.0414 11.5343 681 105.744 803.084 476.154
325 0 62.1664 12.5148 778 103.533 803.261 475.596
326 0 64.0703 13.1262 841 103.364 803.7 474.43
327 0 66.0594 12.6704 837 104.888 803.742 474.746
328 0 68.0322 13.2437 901 103.953 803.878 474.173
329 0 72.0911 13.372 964 104.073 804.186 472.967
330 0 74.0641 13.1373 973 104.934 803.356 472.642
331 0 76.0948 13.5752 1033 106.218 803.106 471.078
332 0 77.0944 13.1397 1013 108.119 803.846 468.49
333 0 81.1501 13.6414 1107 105.952 803.855 467.56
334 0 84.1177 13.4811 1134 106.026 803.905 465.282
335 0 88.1069 13.6766 1205 105.999 804.571 465.604
336 0 89.0635 12.7662 1137 110.05 803.88 464.97
337 0 93.0996 14.1032 1313 106.825 804.698 461.305
338 0 97.1875 12.6354 1228 111.702 804.066 462.494
339 0 101.209 13.9217 1409 109.857 803.157 456.754
340 1 53.05 10.0094 531 108.972 804.424 477.836
341 0 58.0361 11.3722 660 113.28 804.583 478.026
342 0 60.248 12.4817 752 114.62 803.16 472.959
343 0 62.0298 12.3328 765 114.656 804.614 477.732
344 0 62.0503 12.0225 746 116.257 804.966 477.068
345 0 67.0467 13.3937 898 112.041 805.031 475.239
346 0 66.0779 11.9859 792 116.817 805.899 474.359
347 0 71.1314 14.0866 1002 111.501 805.215 471.284
348 0 74.058 13.5434 1003 112.153 804.609 471.807
349 0 75.0419 13.2459 994 114.949 804.937 469.466
350 0 77.1082 12.7094 980 117.002 804.203 469.193
351 0 80.1424 13.6881 1097 116.35 804.168 467.259
352 0 81.0864 13.0848 1061 117.994 805.11 467.938
353 0 85.1015 13.0668 1112 119.381 804.268 465.556
354 0 89.101 14.0066 1248 117.127 804.21 463.337
355 0 90.0945 13.2971 1198 116.78 804.075 460.476
356 0 93.1069 13.6188 1268 119.218 804.054 460.674
357 0 95.2051 13.6127 1296 120.677 803.365 458.273
358 0 100.197 14.2021 1423 119.021 803.942 459.46
359 1 51.0442 10.8338 553 118.729 805.526 483.855
360 0 54.0705 11.0227 596 119.364 804.817 483.23
361 0 54.0253 12.5497 678 112.173 805.438 482.22
362 0 54.1971 11.901 645 111.913 804.783 481.963
363 0 56.029 10.9229 612 114.224 804.454 481.359
364 0 57.0695 12.2482 699 112.21 804.546 480.412
365 0 57.0671 11.5128 657 115.591 804.68 479.677
366 0 60.0926 11.0663 665 117.215 805.328 477.744
367 0 61.1199 13.089 800 113.722 804.87 476.119
368 0 64.0541 12.5207 802 113.884 805.414 477.011
369 0 67.0622 12.6152 846 113.304 805.58 475.929
370 0 69.0867 13.4613 930 112.158 805.181 472.772
371 0 74.0934 13.2535 982 111.103 805.144 471.965
372 0 73.1913 11.832 866 115.798 805.618 472.066
373 0 77.0981 12.4257 958 114.359 805.768 468.834
374 0 77.1045 12.3598 953 117.037 804.988 465.43
375 0 81.0609 13.311 1079 114.276 803.902 465.481
376 0 84.0404 11.9347 1003 117.286 803.998 465.02
377 0 88.1498 12.4561 1098 116.088 804.279 463.392
378 0 93.2181 14.1925 1323 111.706 803.969 460.581
379 1 48.0851 10.419 501 115.255 805.096 480.433
380 0 50.0853 11.0611 554 109.789 803.278 476.924
381 0 50.1155 10.0568 504 113.857 803.907 471.161
382 0 51.0461 10.4415 533 105.477 804.319 475.325
383 0 55.0951 10.1279 558 105.013 805.091 478.254
384 0 54.0759 10.5592 571 107.953 805.277 473.581
385 0 57.0734 10.5653 603 107.36 805.489 474.071
386 0 59.0871 9.40983 556 109.103 804.845 475.369
387 0 62.0429 10.5089 652 107.549 805.176 473.695
388 0 62.131 9.93062 617 110.493 804.587 472.532
389 0 69.1246 13.1936 912 114.044 804.458 474.067
390 0 70.1 13.709 961 113.787 804.957 473.35
391 0 72.1366 12.6704 914 117.239 804.733 473.005
392 0 74.1861 12.6169 936 117.81 804.841 472.749
393 0 77.1836 13.0598 1008 116.891 805.368 470.737
394 0 80.1484 13.8867 1113 116.358 804.981 468.012
395 0 84.0729 12.62 1061 118.867 804.56 467.495
396 0 87.2238 12.6571 1104 119.42 804.735 466.02
397 0 89.1171 13.342 1189 117.682 804.481 463.963
398 0 92.2015 12.4076 1144 119.391 804.961 462.594
399 0 95.2723 13.0993 1248 117.379 804.256 459.338
400 0 98.1722 12.8142 1258 119.796 804.335 458.191
401 0 101.113 14.3898 1455 116.165 804.74 457.473
402 1 57.0365 12.3605 705 118.791 805.136 481.113
403 0 59.1391 11.6336 688 120.215 805.866 480.706
404 0 63.1046 12.9151 815 116.223 805.687 480.126
405 0 64.1061 12.6977 814 116.977 805.873 478.701
406 0 64.2241 12.9546 832 118.042 805.488 477.12
407 0 68.3258 13.2307 904 116.644 805.772 475.808
408 0 71.2952 13.1005 934 117.049 805.582 472.529
409 0 74.309 13.1613 978 116.244 805.166 471.945
410 0 76.3797 12.5819 961 118.329 805 472.617
411 0 79.4014 12.6446 1004 118.624 805.274 467.872
412 0 82.1911 11.6923 961 117.914 805.27 468.228
413 1 42.051 11.1056 467 110.152 805.627 488.818
414 0 44.0322 11.0374 486 109.195 804.119 488.811
415 0 45.0172 11.2402 506 102.597 805.789 486.312
416 0 46.0436 10.8376 499 107.495 804.098 486.778
417 0 46.0662 12.0479 555 107.905 804.341 485.283
418 0 48.0482 11.8839 571 108 804.525 485.513
419 0 49.023 13.4427 659 105.332 804.716 483.87
420 0 52.0657 12.273 639 106.837 803.955 484.203
421 0 52.0458 11.7973 614 109.438 804.349 483.037
422 0 53.0247 11.4852 609 112.117 804.32 481.491
423 0 57.0838 12.8057 731 106.601 804.895 481.038
424 0 58.0586 12.763 741 108.043 804.796 480.185
425 0 60.1282 11.2759 678 110.59 804.935 481.065
426 0 60.1259 12.0414 724 110.106 804.3 478.718
427 0 62.1591 12.2106 759 109.675 804.249 477.098
428 0 65.2434 12.7829 834 106.41 804.394 476.771
429 0 66.108 11.8745 785 107.754 804.76 477.116
430 0 71.1289 12.0907 860 107.392 803.771 474.964
431 0 73.0808 11.0152 805 110.155 803.743 473.468
432 0 74.1066 12.563 931 108.916 803.842 472.131
433 0 76.0755 12.2247 930 110.627 804.058 471.908
434 0 79.3477 12.4767 990 109.935 803.615 470.56
435 0 82.2306 12.9392 1064 109.05 804.031 469.247
436 0 85.095 12.5624 1069 111.59 804.067 466.051
437 0 88.117 12.8579 1133 112.838 804.189 464.508
438 0 92.1202 12.3751 1140 117.782 804.204 463.847
439 1 46.1702 10.6129 490 117.824 804.582 486.41
440 0 48.1133 11.9094 573 113.087 804.962 484.55
441 0 49.0881 11.897 584 111.065 805.548 485.767
442 0 50.0646 11.9845 600 112.705 805.972 485.183
443 0 52.0638 13.0801 681 109.91 805.401 484.056
444 0 51.0128 11.2129 572 116.337 805.666 483.523
445 0 56.094 12.6573 710 110.635 805.542 481.854
446 0 57.0283 12.7481 727 110.829 806.279 480.188
447 0 57.0787 12.2462 699 112.552 805.967 482.491
448 0 60.0508 12.6726 761 112.871 806.509 479.976
449 0 62.0243 13.4947 837 110.817 806.111 478.268
450 0 65.0771 13.8605 902 109.653 805.955 478.065
451 0 67.0349 13.7242 920 111.378 806.013 477.228
452 0 70.1655 14.5086 1018 109.209 805.815 475.781
453 0 70.0663 13.5729 951 113.53 805.532 475.411
454 0 74.1026 14.8308 1099 110.463 806.084 474.907
455 0 75.1147 13.3529 1003 117.09 806.401 468.357
456 0 77.0642 13.625 1050 115.99 805.971 471.456
457 0 80.0552 13.1534 1053 117.424 805.8 469.858
458 0 83.0776 13.2767 1103 117.857 806.07 469.352
459 0 86.085 13.9746 1203 116.387 805.534 467.925
460 0 88.167 12.9981 1146 120.262 805.634 466.029
461 1 49.0248 11.9531 586 120.099 806.297 486.119
462 0 48.0358 11.6372 559 122.626 806.726 485.172
463 0 52.0198 12.7451 663 120.281 805.774 484.344
464 0 54.0324 13.3068 719 115.975 805.573 485.114
465 0 55.0737 13.146 724 118.278 805.673 483.993
466 0 58.034 13.3887 777 117.543 805.525 484.306
467 0 59.0932 12.6749 749 124.171 805.367 482.251
468 0 60.0682 13.9009 835 118.705 805.309 481.054
469 0 60.0645 13.3856 804 121.279 804.924 480.124
470 0 61.0192 13.9792 853 120.557 805.177 479.539
471 0 63.1348 13.194 833 122.822 804.683 479.122
472 0 64.1111 12.9307 829 125.239 805.663 477.294
473 0 66.049 13.1872 871 125.506 805.622 477.157
474 0 69.038 12.819 885 126.896 805.089 477.105
475 0 71.0496 13.1176 932 126.055 805.448 474.998
476 0 72.0516 13.4626 970 126.398 805.59 474.957
477 0 77.0488 13.9652 1076 124.443 805.016 472.634
478 0 81.0891 14.6012 1184 123.02 804.567 471.21
479 0 81.069 13.7661 1116 125.954 805.185 471.527
480 0 83.0614 14.1943 1179 125.118 804.818 469.029
481 0 87.091 13.5261 1178 125.685 805.211 465.538
482 1 46.0392 12.5763 579 125.413 805.848 488.055
483 0 49.0212 13.6676 670 119.019 804.202 487.515
484 0 47.0271 12.2908 578 122.742 804.384 487.391
485 0 51.1086 13.0311 666 117.794 804.395 486.949
486 0 51.0387 12.8922 658 119.409 804.637 486.842
487 0 51.0956 13.0931 669 121.12 804.604 484.604
488 0 51.0614 12.201 623 125.485 805.003 484.881
489 0 52.0505 13.1219 683 124.379 803.615 484.141
490 0 55.0813 12.8174 706 124.405 803.351 482.552
491 0 56.1132 13.0094 730 124.551 803.263 482.689
492 0 57.1424 13.1426 751 124.798 803.619 481.387
493 0 59.1088 12.8746 761 124.942 803.531 482.03
494 0 60.0436 13.6068 817 123.141 803.803 480.586
495 0 64.0346 13.1491 842 124.3 803.907 477.659
496 0 67.084 13.6843 918 121.58 804.386 478.992
497 0 69.0698 13.87 958 121.335 804.213 477.654
498 0 71.0572 13.2006 938 123.812 804.585 476.292
499 0 73.1301 13.264 970 124.569 804.077 475.901
500 0 76.0839 13.8794 1056 125.212 804.245 473.799
501 0 77.0694 13.1699 1015 131.201 804.963 471.962
502 0 82.1508 14.0108 1151 127.499 805.336 470.694
503 0 83.1141 12.5129 1040 132.309 805.1 470.538
504 0 86.1189 13.2607 1142 131.055 804.433 465.647
505 0 92.1217 13.1565 1212 131.018 804.809 446.577
506 0 96.0862 13.0508 1254 133.215 805.239 434.395
507 0 99.0904 13.6441 1352 131.57 805.521 442.601
508 1 52.0761 12.2129 636 135.107 805.781 470.052
509 0 54.042 13.397 724 130.367 805.682 482.747
510 0 56.0232 13.1017 734 132.059 805.105 482.756
511 0 57.0317 12.3615 705 133.763 804.994 482.549
512 0 59.0342 13.4498 794 131.131 805.423 480.943
513 0 61.0686 13.5094 825 131.109 805.305 480.39
514 0 64.1074 13.2278 848 132.476 804.719 478.706
515 0 66.0684 14.3488 948 130.081 805.45 477.402
516 0 68.0447 13.5499 922 131.535 805.667 476.362
517 0 69.0384 13.7605 950 131.921 805.256 475.014
518 0 69.0384 14.0791 972 142.067 805.272 475.273
519 0 73.103 13.3373 975 133.307 805.365 473.237
520 0 75.04 13.4995 1013 133.092 805.75 471.955
521 0 80.145 14.2616 1143 130.286 805.508 471.214
522 0 83.0269 13.863 1151 130.917 805.05 468.531
523 0 86.0835 14.1723 1220 130.768 803.838 465.73
524 0 89.0711 14.1572 1261 130.919 804.343 464.219
525 0 92.1378 13.1759 1214 132.229 804.971 465.737
526 0 94.1036 13.1345 1236 132.884 804.329 461.793
527 0 98.1377 13.5626 1331 130.865 804.173 459.874
528 1 50.0261 10.8943 545 124.754 805.488 483.394
529 0 52.1112 12.1663 634 117.046 805.938 483.674
530 0 54.0749 12.6676 685 113.435 805.454 484.039
531 0 54.0924 11.8501 641 116.204 805.278 483.131
532 0 57.1513 11.5833 662 115.95 804.719 484.017
533 0 58.0689 11.2108 651 117.063 804.59 481.492
534 0 60.087 11.8661 713 114.641 805.007 481.147
535 0 62.0673 12.2609 761 115.063 805.024 478.455
536 0 63.1425 11.6562 736 117.24 804.469 478.512
537 0 66.0541 13.065 863 112.927 804.35 478.433
538 0 70.1863 13.5639 952 112.433 804.597 475.15
539 0 72.1967 12.0781 872 116.229 804.782 474.72
540 0 75.0986 12.8498 965 114.864 804.543 474.475
541 0 78.1198 12.8136 1001 115.889 804.911 472.577
542 0 80.0738 12.2262 979 118.191 805.205 470.221
543 0 83.1761 11.9025 990 120.267 805.411 468.52
544 0 84.1591 12.2506 1031 121.306 804.79 467.617
545 0 88.0994 11.8389 1043 123.515 804.431 465.075
546 1 44.1201 11.6727 515 119.32 804.353 484.186
547 0 47.1783 12.8449 606 114.693 804.523 483.338
548 0 48.1011 10.4571 503 120.175 804.406 483.608
549 0 51.0555 13.4364 686 113.156 804.478 483.175
550 0 52.0657 11.4855 598 113.395 805.067 485.462
551 0 53.0291 13.3134 706 109.955 805.058 482.717
552 0 54.0314 11.5674 625 114.394 805.074 483.254
553 0 56.0308 12.1719 682 112.903 804.586 483.899
554 0 58.0589 12.0912 702 114.494 804.926 481.68
555 0 63.057 13.4323 847 110.466 804.975 480.4
556 0 63.0712 13.9366 879 111.375 804.799 478.445
557 0 66.0899 14.2382 941 111.384 805.454 479.444
558 0 67.1622 13.2366 889 115.498 805.188 476.927
559 0 70.046 13.4911 945 115.475 805.429 476.945
560 0 71.1601 13.575 966 117.607 804.563 475.623
561 0 74.1434 14.1348 1048 116.945 805.476 475.75
562 0 77.0726 13.1564 1014 122.064 805.498 473.638
563 0 79.0955 12.9464 1024 127.285 804.856 470.642
564 0 80.1011 12.6465 1013 127.195 804.992 471.946
565 0 82.0996 12.4727 1024 125.496 805.358 471.185
566 0 86.1834 12.6707 1092 123.28 805.198 471.014
567 0 87.15 12.4957 1089 125.522 804.094 467.524
568 0 91.0811 12.4395 1133 126.377 804.678 467.501
569 1 50.0557 11.8268 592 128.838 805.453 485.698
570 0 52.0557 11.9295 621 127.28 805.079 485.639
571 0 54.0701 13.2421 716 124.309 805.183 483.684
572 0 56.1125 13.17 739 127.058 804.095 483.811
573 0 57.0389 11.3782 649 123.239 804.284 484.274
574 0 57.077 11.7035 668 123.759 804.01 482.331
575 0 60.1359 12.7046 764 121.039 804.206 479.948
576 0 60.0608 11.6881 702 124.305 804.329 479.504
577 0 64.068 12.2526 785 121.548 805.094 478.618
578 0 67.0298 12.114 812 120.793 804.713 477.431
579 0 69.0582 12.8008 884 118.73 804.253 476.343
580 0 71.1083 11.7426 835 119.473 804.475 477.835
581 0 72.0367 11.6746 841 121.386 804.711 473.289
582 0 75.0368 11.8875 892 120.572 804.537 473.327
583 0 79.134 12.2956 973 118.992 804.718 472.379
584 0 81.0908 11.333 919 120.411 804.045 470.432
585 0 85.151 12.4132 1057 118.748 803.885 468.862
586 0 88.191 11.5318 1017 121.494 803.784 467.072
587 0 92.2452 12.4885 1152 119.475 804.294 464.252
588 1 47.2381 10.9869 519 119.006 804.944 486.05
589 0 49.2859 11.6058 572 116.815 804.869 485.435
590 0 51.0578 12.5936 643 111.862 805.387 484.569
591 0 51.0348 11.2276 573 115.555 805.051 484.798
592 0 53.0626 12.0801 641 113.354 804.694 484.942
593 0 55.0152 12.1239 667 114.061 803.604 485.069
594 0 55.1215 11.6833 644 117.062 803.169 482.332
595 0 60.0511 12.7891 768 113.69 803.394 479.918
596 0 62.0477 12.2648 761 115.247 803.657 480.524
597 0 62.0684 12.1479 754 118.751 804.172 478.305
598 0 66.1114 12.9478 856 115.336 804.488 479.361
599 0 68.0995 12.981 884 117.607 804.152 476.658
600 0 71.0634 12.5381 891 119.579 804.414 475.67
601 0 74.0625 12.6785 939 119.567 804.722 474.633
602 0 76.1424 12.3978 944 122.039 804.745 472.387
603 0 78.0821 12.5637 981 122.459 804.701 471.465
604 0 82.0934 12.8756 1057 125.968 804.678 467.018
605 0 83.0881 12.228 1016 131.079 803.772 468.143
606 0 86.0758 12.5587 1081 129.286 803.96 465.847
607 0 91.0627 12.2004 1111 128.726 804.084 465.67
608 0 92.0455 12.1679 1120 132.261 804.622 460.961
609 0 96.1566 12.282 1181 131.235 804.565 460.732
610 1 52.2145 11.2038 585 122.126 803.516 481.908
611 0 53.194 11.0539 588 123.376 803.029 481.262
612 0 56.3692 11.7972 665 120.253 803.564 480.32
613 0 59.1795 11.7777 697 118.643 805.218 481.185
614 0 60.0974 10.7159 644 120.68 804.63 481.581
615 0 62.1389 11.4421 711 120.315 805.066 480.415
616 0 61.184 11.1304 681 122.267 804.648 479.012
617 0 65.1139 11.0883 722 122.553 805.251 478.756
618 0 67.1555 12.3445 829 119.407 804.648 475.361
619 0 70.131 11.0793 777 121.45 805.157 475.692
620 0 73.0942 12.1077 885 119.051 805.747 474.358
621 0 77.1454 12.3144 950 118.053 804.98 473.727
622 0 77.1196 12.0981 933 120.796 804.802 470.242
623 0 80.2273 11.9785 961 121.056 804.173 469.71
624 0 82.22 11.7733 968 121.654 804.432 469.312
625 0 86.1264 11.8198 1018 122.886 803.745 465.946
626 0 87.1865 11.6991 1020 124.715 803.037 462.687
627 0 91.2748 11.7338 1071 123.067 802.555 462.828
628 0 95.2306 10.6478 1014 126.961 803.136 458.285
629 0 97.2502 11.3419 1103 125.077 803.684 454.67
630 0 102.296 11.8088 1208 124.089 803.13 454.967
631 1 54.2416 9.95546 540 121.567 802.63 480.9
632 0 54.1614 10.0994 547 123.413 803.358 478.978
633 0 58.1389 12.2981 715 119.099 803.055 475.843
634 0 61.0955 11.703 715 120.387 804.652 477.487
635 0 62.1012 12.1254 753 121.274 804.92 477.264
636 0 65.112 12.0869 787 121.741 804.966 474.731
637 0 66.0606 12.7005 839 120.17 804.704 474.34
638 0 69.1836 13.5726 939 118.504 805.01 473.816
639 0 71.0991 12.6303 898 121.69 804.192 471.411
640 0 72.0469 12.3531 890 123.212 804.435 471.163
641 0 74.0938 12.3762 917 123.942 804.189 470.065
642 0 77.0669 13.3261 1027 121.146 804.776 469.367
643 0 82.1905 12.4467 1023 123.312 804.358 466.867
644 0 83.1548 12.0017 998 124.845 804.129 464.452
645 0 84.2428 11.4787 967 124.882 804.136 456.667
646 0 90.1665 12.4658 1124 122.872 804.317 458.991
647 0 96.2978 13.0636 1258 119.503 804.562 456.689
648 1 47.0563 9.58426 451 119.938 804.138 477.202
649 0 52.0733 9.75548 508 115.301 804.295 480.433
650 0 56.0696 12.1456 681 120.369 803.034 481.571
651 0 56.0725 12.7692 716 120.813 803.318 482.866
652 0 57.0072 10.9986 627 125.228 802.563 483.282
653 0 59.0317 11.9427 705 123.413 802.909 482.054
654 0 61.0164 12.0132 733 124.347 803.166 479.857
655 0 65.0249 12.7336 828 121.262 803.351 480.023
656 0 65.0173 12.3967 806 124.841 803.073 477.097
657 0 69.0737 12.8993 891 122.769 802.595 477.932
658 0 70.0293 12.9946 910 122.654 802.569 477.219
659 0 71.05 13.1316 933 124.437 802.414 474.108
660 0 74.0169 13.4429 995 125.235 802.549 472.802
661 0 77.0392 13.2011 1017 127.053 803.348 474.325
662 0 78.0873 12.4732 974 131.004 803.36 471.98
663 0 83.0272 13.6702 1135 128.293 803.065 470.177
664 0 84.1423 13.3583 1124 127.942 802.618 469.483
665 0 88.0509 12.9698 1142 125.927 802.874 467.168
666 0 91.051 12.2019 1111 128.836 804.885 466.971
667 0 93.1548 13.762 1282 121.566 805.116 465.746
668 0 97.0643 12.5278 1216 121.299 804.557 464.704
669 0 101.055 12.8643 1300 121.535 803.841 464.393
670 1 55.0565 11.0977 611 118.147 805.264 483.841
671 0 56.0206 11.8171 662 108.384 804.124 480.147
672 0 56.1486 11.0065 618 110.128 803.294 479.128
673 0 60.1244 10.7777 648 110.508 803.815 478.631
674 0 62.0717 11.5512 717 109.845 803.72 477.827
675 0 64.1537 11.9401 766 108.986 804.013 478.013
676 0 65.1262 11.6696 760 111.071 803.824 475.532
677 0 66.0825 10.9257 722 113.639 803.907 474.86
678 0 68.0576 11.4903 782 112.675 804.243 474.673
679 0 70.0894 11.3712 797 113.607 803.921 473.678
680 0 71.097 11.3648 808 115.238 803.708 471.594
681 0 76.0749 12.0013 913 112.668 804.46 471.878
682 0 79.0962 12.352 977 111.916 804.321 469.057
683 0 81.0416 11.7347 951 114.162 803.631 467.062
684 0 84.1389 12.0158 1011 114.825 803.429 466.047
685 0 88.2537 12.4641 1100 113.045 802.815 462.509
686 0 93.1289 13.8303 1288 125.674 803.577 463.95
687 1 47.0747 10.6426 501 127.375 804.132 486.441
688 0 47.1316 11.9665 564 114.661 804.558 480.457
689 0 48.1424 10.6767 514 119.333 803.366 479.502
690 0 50.0639 10.9061 546 113.815 803.747 482.427
691 0 51.0769 10.9443 559 114.476 803.88 481.61
692 0 48.1253 9.08046 437 120.927 803.865 480.81
693 0 53.1596 12.0016 638 113.259 803.574 481.318
694 0 56.1509 11.4157 641 115.56 803.846 482.275
695 0 55.0518 10.8988 600 118.352 804.292 479.205
696 0 58.114 11.9076 692 115.844 803.805 476.831
697 0 59.1796 12.4367 736 114.192 803.971 478.145
698 0 60.1708 11.5504 695 119.734 804.387 474.898
699 0 63.1615 11.906 752 118.198 804.265 474.927
700 0 66.1154 12.5538 830 116.936 804.292 473.313
701 0 67.0404 11.7243 786 120.22 804.608 471.338
702 0 68.103 11.6735 795 121.23 804.156 472.148
703 0 70.0394 12.2502 858 121.155 803.652 470.501
704 0 74.1048 12.7522 945 119.444 803.211 469.616
705 0 77.0919 12.777 985 120.436 803.448 468.024
706 0 80.0974 12.722 1019 119.929 804.004 468.544
707 0 82.0361 12.9943 1066 120.602 803.4 466.049
708 0 84.0999 12.8181 1078 121.722 804.06 465.442
709 0 84.0567 13.3957 1126 122.427 804.098 461.851
710 0 89.0786 13.6284 1214 122.165 804.084 461.399
711 0 91.1399 12.5412 1143 125.177 803.407 459.841
712 0 96.3157 13.2792 1279 124.103 803.683 458.505
713 0 99.0718 14.0504 1392 132.667 803.302 458.785
714 0 101.149 14.4738 1464 131.555 803.402 458.682
715 0 105.13 14.8959 1566 131.011 803.498 455.266
716 0 111.173 15.0397 1672 128.132 804.055 454.6
717 0 113.196 15.3097 1733 128.523 803.665 452.359
718 0 115.171 14.6217 1684 125.359 803.936 446.877
719 0 121.126 15.9503 1932 121.608 804.126 445.87
720 1 60.1515 10.6564 641 124.616 804.215 477.036
721 0 62.0692 11.8738 737 124.209 804.429 472.478
722 0 66.0593 12.1406 802 121.95 803.85 472.969
723 0 67.1297 11.3809 764 124.452 803.759 472.28
724 0 70.0694 12.4734 874 123.025 803.397 470.843
725 0 71.0428 12.8092 910 122.063 804.294 469.49
726 0 75.0724 12.6944 953 121.495 803.916 469.817
727 0 79.0849 12.9987 1028 121.035 803.827 465.435
728 0 82.0957 12.6316 1037 121.528 804.188 465.496
729 0 83.113 12.5853 1046 121.649 804.409 462.359
730 0 85.0305 12.9013 1097 121.638 804.241 460.631
731 0 87.0687 12.5303 1091 122.409 803.862 459.434
732 0 92.0769 12.7068 1170 120.981 803.868 457.987
733 0 96.0719 13.0007 1249 118.513 803.589 457.044
734 0 97.0483 12.5711 1220 120.193 803.28 454.334
735 0 103.075 12.4279 1281 122.71 803.567 454.382
736 0 108.125 13.8543 1498 123.033 803.982 456.258
737 0 112.205 13.1367 1474 123.312 803.193 454.773
738 1 59.0222 11.6905 690 118.086 803.228 480.335
739 0 61.1841 12.1927 746 115.072 804.272 478.681
740 0 62.1318 13.2138 821 114.457 804.812 475.379
741 0 64.0547 12.2708 786 116.576 805.183 476.434
742 0 65.0426 12.2996 800 115.971 805.134 476.741
743 0 69.1184 12.9488 895 114.171 804.369 473.836
744 0 72.0968 12.4832 900 114.699 804.62 474.387
745 0 73.0724 13.5072 987 113.519 804.022 473.915
746 0 76.1333 12.7277 969 115.781 804.15 472.064
747 0 81.186 13.4383 1091 114.25 804.235 471.285
748 0 83.0344 12.549 1042 116.645 803.87 468.513
749 0 85.0801 13.3639 1137 115.331 803.098 465.203
750 0 90.0435 12.5717 1132 115.615 803.878 467.019
751 0 90.0906 13.1423 1184 117.373 804.47 462.671
752 0 93.0743 12.345 1149 118.492 804.713 463.303
753 0 94.2171 11.8662 1118 123.159 804.31 461.634
754 0 100.129 12.8134 1283 120.169 804.059 460.231
755 0 103.062 11.8375 1220 122.25 804.4 458.893
756 0 106.073 12.6894 1346 121.555 804.033 455.494
757 0 110.14 12.6567 1394 120.975 803.626 456.834
758 1 58.0842 11.0529 642 113.058 804.109 483.039
759 0 61.0915 13.1115 801 111.308 805.125 480.316
760 0 63.0395 11.9925 756 114.651 802.46 479.357
761 0 62.064 11.0692 687 114.469 803.082 481.278
762 0 65.0795 11.6627 759 113.395 803.312 480.527
763 0 67.0893 11.194 751 115.762 801.984 477.747
764 0 70.0726 12.7725 895 112.294 802.315 477.234
765 0 71.065 12.0172 854 116.345 802.869 474.568
766 0 74.0368 11.5618 856 118.063 802.484 473.933
767 0 77.0474 11.9277 919 118.101 803.111 473.211
768 0 78.0704 11.6946 913 119.2 804.83 474.807
769 0 81.016 12.7259 1031 120.345 804.068 470.989
770 0 82.0631 12.466 1023 121.48 804.784 472.252
771 0 85.0194 12.1149 1030 124.946 804.826 471.264
772 0 87.0422 11.3738 990 127.529 804.05 469.45
773 0 93.0375 11.7802 1096 126.777 804.166 468.367
774 0 95.0702 13.4848 1282 124.746 804.963 465.074
775 0 98.0565 13.6758 1341 123.984 804.634 462.707
776 0 102.044 14.1998 1449 122.88 803.936 459.665
777 1 53.0445 11.2547 597 124.047 803.533 482.603
778 0 56.0433 10.9201 612 119.17 803.41 484.371
779 0 57.0831 11.8949 679 115.448 804.436 483.35
780 0 56.0694 11.8603 665 120.392 805.146 481.511
781 0 62.0658 12.4868 775 116.892 805.366 479.742
782 0 64.1207 12.1178 777 116.945 805.718 480.533
783 0 65.0602 12.4654 811 116.54 805.488 479.954
784 0 66.0807 12.5907 832 116.422 804.993 478.155
785 0 67.0729 12.1808 817 117.239 804.776 476.464
786 0 68.0728 11.3261 771 119.223 805.064 477.847
787 0 73.0781 11.7545 859 117.889 804.881 474.788
788 0 74.1396 10.4667 776 119.719 804.832 475.044
789 0 75.1168 10.7699 809 120.15 804.975 471.2
790 0 80.1899 11.4603 919 116.819 804.576 473.274
791 0 82.1636 11.2824 927 118.508 804.381 469.036
792 0 83.1273 9.51553 791 123.689 804.32 464.631
793 1 46.1183 10.82 499 117.463 804.968 487.691
794 0 47.1216 11.1202 524 116.775 804.141 488.5
795 0 49.076 10.983 539 117.701 804.341 487.132
796 0 50.0699 10.4055 521 120.1 805.334 483.67
797 0 49.0438 11.296 554 118.061 805.105 483.955
798 0 50.0429 10.2712 514 121.848 804.73 487.377
799 0 51.1626 9.87048 505 123.275 804.683 485.457
800 0 54.1649 11.8527 642 118.773 804.601 484.768
801 0 54.1066 10.7011 579 124.062 804.662 484.14
802 0 56.15 11.8967 668 121.573 804.76 481.992
803 0 56.0695 11.2182 629 124.989 804.334 482.66
804 0 60.2059 11.2447 677 124.691 804.31 481.062
805 0 61.1081 11.0787 677 126.219 803.917 479.145
806 0 65.0657 12.4182 808 123.653 804.02 479.178
807 0 65.2742 12.593 822 125.328 803.962 479.482
808 0 68.0845 12.7636 869 125.647 803.773 477.287
809 0 67.0998 12.474 837 128.403 804.043 476.275
810 0 70.2473 12.3136 865 128.808 804.758 476.558
811 0 75.0911 12.7312 956 128.31 804.289 475.182
812 0 77.2026 12.8623 993 129.84 803.62 471.885
813 0 79.1864 12.6032 998 131.236 804.028 470.504
814 0 81.2885 12.8923 1048 132.253 803.391 467.364
815 0 85.3315 13.2425 1130 129.449 803.779 466.186
816 0 88.281 13.0832 1155 130.236 803.237 465.223
817 0 91.2525 13.6873 1249 128.116 802.873 465.239
818 0 94.2558 13.4421 1267 128.163 803.397 464.532
819 0 97.2281 13.0312 1267 129.262 803.559 463.376
820 1 51.0292 11.464 585 129.007 804.405 487.126
821 0 53.0496 12.0265 638 131.024 804.056 483.498
822 0 58.106 12.7181 739 129.084 803.724 481.014
823 0 59.0895 13.6403 806 128.326 803.484 480.794
824 0 59.0517 13.0225 769 126.767 803.282 480.216
825 0 62.1152 13.153 817 125.389 802.465 479.618
826 0 63.0297 13.5174 852 125.513 803.093 479.749
827 0 64.0488 12.8183 821 128.8 805.028 478.648
828 0 67.0823 12.03 807 131.357 804.584 477.569
829 0 70.0727 14.1139 989 126.857 804.855 474.725
830 0 72.0431 13.2004 951 132.268 803.253 473.678
831 0 73.1048 13.378 978 133.284 803.018 471.655
832 0 76.0582 12.9769 987 132.83 803.066 472.108
833 0 76.0334 12.0473 916 134.2 803.223 472.43
834 0 81.0575 12.596 1021 131.774 803.154 470.761
835 0 83.0608 12.7978 1063 131.536 802.646 469.404
836 0 86.1381 13.072 1126 129.338 803.242 467.432
837 0 87.0941 12.63 1100 131.243 803.266 467.796
838 0 91.052 11.7405 1069 133.578 803.591 469.678
839 0 92.1422 12.3288 1136 135.673 803.168 461.89
840 0 97.1645 12.803 1244 135.391 803.572 462.797
841 0 100.126 13.5429 1356 136.118 803.634 461.272
842 0 101.132 13.0029 1315 138.339 803.621 461.634
843 0 105.129 13.355 1404 137.047 802.85 459.918
844 0 104.319 11.8962 1241 137.607 802.722 459.227
845 0 108.267 11.7487 1272 138.325 802.886 458.11
846 0 111.247 12.8183 1426 135.194 803.006 456.304
847 0 113.23 11.2337 1272 139.634 802.771 453.57
848 0 114.32 10.2257 1169 143.263 802.71 450.07
849 0 121.192 12.8309 1555 134.188 803.215 453.417
850 0 121.426 11.6367 1413 139.949 802.609 450.003
851 0 123.333 11.2865 1392 140.39 802.907 452.103
852 0 124.192 10.5643 1312 145.061 802.697 449.085
853 0 128.367 11.3814 1461 144.993 802.819 446.77
854 0 128.234 11.8611 1521 145.92 802.913 445.346
855 0 132.252 12.4762 1650 147.042 803.06 441.446
856 0 132.065 11.4035 1506 149.189 803.393 447.505
857 0 134.217 11.1909 1502 152.578 803.589 444.325
858 0 138.346 12.0423 1666 154.902 803.066 440.83
859 0 138.302 12.8632 1779 154.791 803.251 445.042
860 0 137.16 12.2485 1680 162.695 802.806 445.346
861 0 138.12 12.576 1737 162.844 802.999 451.218
862 0 137.21 13.7017 1880 164.287 803.561 448.483
863 0 138.313 14.5973 2019 165.715 803.524 447.125
864 1 247.337 18.2909 4524 175.089 802.338 385.844
865 0 247.395 18.5008 4577 176.401 802.148 386.626
866 0 251.261 19.8121 4978 173.37 802.495 385.285
867 0 252.526 19.7445 4986 175.591 802.942 387.137
868 0 254.904 21.0628 5369 173.903 802.98 388.626
869 0 257.521 21.2215 5465 176.048 802.461 385.419
870 0 259.498 19.9809 5185 183.794 803.28 385.4
871 0 262.369 20.0366 5257 184.531 803.194 385.112
872 0 268.504 20.3945 5476 186.119 802.712 381.099
873 0 273.398 22.1216 6048 181.674 803.151 378.469
874 0 278.618 21.359 5951 185.824 802.628 376.558
875 0 282.641 21.7909 6159 186.311 802.11 371.064
876 0 287.484 22.7526 6541 183.678 802.671 372.039
877 0 291.503 21.7425 6338 189.289 802.783 370.927
878 0 295.608 21.9547 6490 191.078 802.27 369.092
879 0 302.894 23.6255 7156 185.19 801.934 365.459
880 0 306.79 23.0353 7067 189.837 802.28 363.737
881 0 312.885 24.0472 7524 186.57 802.13 363.904
882 0 313.932 22.9094 7192 195.442 802.758 359.375
883 1 328.084 31.6077 10370 162.819 802.914 345.026
884 0 327.031 30.9603 10125 168.911 803.239 348.586
885 0 319.059 23.8796 7619 197.73 802.576 359.025
886 0 327.145 27.8225 9102 184.627 803.08 352.786
887 0 330.338 25.7464 8505 192.9 803.093 353.267
888 0 336.363 25.7965 8677 193.771 803.207 353.152
889 0 342.421 24.9255 8535 198.131 803.093 349.135
890 0 348.381 27.2948 9509 190.145 803.168 346.526
891 0 355.45 27.7198 9853 188.734 802.317 341.815
892 0 361.663 26.7514 9675 193.278 802.729 345.532
893 0 366.807 24.9041 9135 201.22 801.828 340.987
894 0 372.773 26.496 9877 196.206 802.217 334.048
895 0 379.697 26.2841 9980 198.081 802.338 335.636
896 0 387.198 27.5595 10671 194.121 802.82 329.504
897 0 395.853 25.5372 10109 201.742 802.761 326.508
898 0 415.772 25.8555 10750 197.25 803.213 311.658
899 1 342.366 15.7054 5377 226.586 803.053 381.25
900 1 130.299 15.5565 2027 181.968 803.735 448.944
901 0 135.39 15.0824 2042 186.328 803.498 447.519
902 0 137.521 14.1288 1943 189.389 803.664 451.19
903 0 138.46 13.578 1880 195.904 803.499 448.66
904 0 141.598 14.1103 1998 193.41 803.783 447.225
905 1 47.2197 15.2691 721 178.182 802.1 487.483
906 0 47.2575 14.8125 700 183.627 802.547 486.177
907 0 49.3217 14.5169 716 183.719 802.71 486.103
908 0 50.3422 13.6863 689 188.075 802.562 485.797
909 0 50.226 14.1162 709 186.444 802.739 485.828
910 0 52.3413 13.9469 730 187.151 802.551 485.089
911 0 54.3723 13.9041 756 186.783 802.856 484.558
912 0 54.3056 12.7611 693 191.388 802.786 485.185
913 0 56.3315 14.4502 814 182.858 802.748 482.897
914 0 59.2747 14.7449 874 180.077 802.593 481.283
915 1 31.2865 11.2509 352 190.631 802.713 495.006
916 0 34.206 12.337 422 182.86 802.493 494.706
917 0 36.2115 12.8136 464 177.948 802.578 493.737
918 0 34.0983 11.9947 409 185.526 802.944 493.557
919 0 36.102 12.5201 452 180.958 802.81 494.33
920 0 36.0909 13.1335 474 181.35 802.749 492.405
921 0 38.0236 13.4127 510 176.157 802.806 492.769
922 0 36.0199 13.2982 479 180.202 803.002 489.232
923 0 39.0253 13.3503 521 177.376 802.94 488.641
924 0 39.0326 13.1172 512 180.678 803.037 487.223
925 0 39.0436 12.6013 492 183.132 802.39 487.51
926 0 42.0109 12.6158 530 179.511 802.896 488.017
927 0 44.0549 13.5286 596 175.336 802.577 486.921
928 0 44.091 13.3134 587 177.007 802.63 486.867
929 0 44.1025 12.5163 552 181.514 802.982 487.031
930 0 43.0266 13.9449 600 179.628 803.538 485.965
931 0 47.0393 14.3922 677 173.009 803.436 486.604
932 0 47.0923 13.8027 650 177.195 803.252 486.983
933 0 48.0333 14.1777 681 176.659 803.188 486.073
934 0 49.0627 13.9414 684 176.178 803.303 485.253
935 0 51.1017 13.8743 709 174.183 803.079 484.845
936 0 53.1399 13.869 737 172.858 803.255 483.973
937 0 55.2222 13.5815 750 171.169 803.201 482.797
938 0 55.1554 14.16 781 169.625 803.165 482.448
939 0 56.1922 13.0089 731 175.743 803.03 481.477
940 0 58.1582 12.8271 746 173.221 803.231 481.543
941 0 62.0977 13.2694 824 167.482 803.356 481.39
942 0 62.1065 13.815 858 169.367 803.293 478.407
943 0 66.1509 13.3029 880 165.983 803.584 479.769
944 0 69.1225 13.4688 931 165.68 803.818 476.403
945 0 71.1582 14.3905 1024 161.884 803.848 475.342
946 0 71.1746 13.6846 974 164.919 803.651 474.448
947 0 77.1624 13.9317 1075 159.168 803.407 473.905
948 0 80.2755 13.9021 1116 158.537 803.936 471.585
949 1 43.0866 12.1615 524 161.458 804.288 488.506
950 0 43.1653 12.3711 534 160.697 803.584 486.597
951 0 44.0899 13.1323 579 158.14 804.138 485.71
952 0 47.0924 12.9533 610 156.733 803.084 484.564
953 0 50.0964 13.4341 673 145.027 803.548 484.823
954 0 50.0361 13.0905 655 148.298 803.507 484.333
955 0 51.0789 12.9603 662 150.918 803.361 482.113
956 0 54.1413 14.0004 758 146.708 803.691 480.67
957 0 55.065 14.0743 775 147.939 804.102 480.421
958 0 57.0448 13.989 798 147.782 803.513 478.857
959 0 60.1108 13.7579 827 146.258 804.559 479.096
960 0 60.0855 13.6639 821 148.435 804.492 476.977
961 0 64.2121 13.6423 876 147.029 804.631 476.361
962 0 64.2876 13.3152 856 149.819 803.996 474.537
963 0 67.1252 13.9739 938 147.037 804.254 474.277
964 0 70.1368 14.3719 1008 145.167 803.729 472.868
965 0 71.2376 13.8129 984 148.282 804.03 471.516
966 0 75.1516 15.1161 1136 142.541 803.849 470.268
967 0 74.3085 13.4709 1001 149.402 803.249 469.227
968 0 79.2373 14.0843 1116 147.534 803.457 468.161
969 0 83.3529 13.9287 1161 145.827 803.463 468.172
970 0 85.3001 13.7397 1172 147.146 803.272 463.805
971 0 91.4196 14.0779 1287 143.658 803.564 462.04
972 0 95.3298 14.4551 1378 140.327 803.999 462.263
973 0 98.1642 15.0462 1477 140.839 803.821 458.779
974 1 52.1059 12.9736 676 142.297 803.947 483.544
975 0 56.1145 13.6506 766 138.11 803.223 481.585
976 0 58.0795 13.6365 792 140.856 804.062 479.389
977 0 61.137 14.8519 908 135.607 804.413 478.459
978 0 63.0974 13.5505 855 140.49 803.773 478.972
979 0 65.259 13.546 884 140.658 803.546 477.42
980 0 67.2065 13.5999 914 141.384 803.713 475.741
981 0 70.2899 13.9707 982 138.778 803.53 475.212
982 0 73.1598 13.8054 1010 138.309 803.524 473.711
983 0 76.2595 13.7425 1048 137.878 803.663 473.418
984 0 79.1544 13.5431 1072 138.244 803.456 471.945
985 0 83.1605 14.0812 1171 136.699 803.789 470.74
986 0 84.2344 13.0825 1102 141.27 804.321 466.863
987 0 88.146 14.0562 1239 138.407 804.693 464.844
988 0 91.1106 13.2147 1204 139.287 804.568 463.596
989 1 50.0734 11.7827 590 133.156 804.078 485.385
990 0 50.1016 12.295 616 130.657 803.541 484.232
991 0 51.0236 12.7588 651 128.26 803.283 483.192
992 0 52.0691 12.0225 626 127.907 803.941 483.272
993 0 56.0597 12.2726 688 124.433 804.599 483.9
994 0 57.0762 12.2643 700 125.661 804.306 482.256
995 0 56.0771 11.9122 668 127.993 804.855 480.061
996 0 60.0609 12.2376 735 125.295 804.586 480.216
997 0 64.0464 13.3653 856 124.697 804.466 479.301
998 0 66.168 12.4985 827 130.357 804.439 477.869
999 0 69.0846 13.4039 926 126.514 804.09 476.901
1000 0 70.2577 12.7246 894 127.695 804.422 476.261
1001 0 74.2509 12.9157 959 125.944 804.608 474.233
1002 0 76.1396 12.8842 981 125.556 804.629 472.576
1003 0 78.2242 12.6048 986 124.43 803.982 469.331
1004 1 40.0843 11.1515 447 119.879 803.588 489.562
1005 0 43.1111 10.5309 454 122.61 803.628 488.771
1006 0 43.1319 11.1055 479 123.246 803.315 486.628
1007 0 46.0933 12.1493 560 120.288 803.136 485.071
1008 0 47.1519 12.7248 600 118.78 802.763 485.997
1009 0 46.028 11.7103 539 123.649 802.725 483.874
1010 0 49.0304 13.2367 649 118.376 802.852 484.285
1011 0 50.0783 11.8614 594 123.116 802.83 483.599
1012 0 52.0522 12.8525 669 119.898 802.214 484.311
1013 0 54.0855 13.9964 757 117.23 802.872 481.314
1014 0 54.0543 11.7104 633 123.736 803.142 481.656
1015 0 57.1292 12.393 708 123.097 803.027 479.23
1016 0 57.095 11.6998 668 125.072 802.883 479.707
1017 0 60.0624 12.4204 746 123.107 802.558 478.172
1018 0 59.0694 11.9351 705 126.285 803.193 477.749
1019 0 64.062 12.9718 831 122.134 803.53 476.847
1020 0 66.087 13.2099 873 121.938 802.904 475.702
1021 0 66.1245 12.295 813 125.588 803.257 475.696
1022 0 71.0766 14.3929 1023 118.958 802.943 474.222
1023 0 71.0779 13.3516 949 123.83 803.286 472.83
1024 0 75.1167 14.7238 1106 120.931 803.685 471.945
1025 0 78.0864 13.9589 1090 123.643 803.801 466.558
1026 0 80.0612 13.8019 1105 126.022 803.717 466.26
1027 0 82.1745 13.0941 1076 129.575 803.508 465.191
1028 0 86.1354 13.7922 1188 127.848 803.8 464.184
1029 0 86.1499 13.1515 1133 130.722 803.02 461.885
1030 0 92.1368 14.0552 1295 127.101 802.979 461.902
1031 0 96.1426 14.6865 1412 125.025 803.409 463.03
1032 1 50.1115 11.9334 598 128.987 803.587 484.406
1033 0 51.0825 12.6854 648 128.207 803.248 482.633
1034 0 51.0521 11.4393 584 133.8 803.514 482.281
1035 0 56.1591 13.9782 785 127.264 804.122 478.622
1036 0 58.0536 14.6416 850 123.885 804.047 482.587
1037 0 60.1278 12.9225 777 130.69 803.592 477.573
1038 0 60.1173 12.6586 761 131.782 803.398 477.647
1039 0 63.211 12.9091 816 132.763 803.445 464.966
1040 0 66.2368 14.8407 983 126.105 803.318 463.766
1041 0 68.2083 14.9835 1022 126.327 803.825 463.138
1042 0 70.4086 13.9898 985 128.203 803.936 464.509
1043 0 72.3031 14.2318 1029 128.463 803.964 462.909
1044 0 74.3434 13.9084 1034 129.197 804.326 461.16
1045 0 79.2723 13.9519 1106 127.322 803.642 459.45
1046 0 79.1289 13.6233 1078 124.488 804.011 461.726
1047 0 82.0784 14.0719 1155 122.597 804.184 467.62
1048 0 84.0886 13.5928 1143 123.06 803.883 470.304
1049 0 85.1297 13.8964 1183 123.88 803.751 467.715
1050 0 89.2156 13.8429 1235 123.334 803.977 466.533
1051 0 92.1905 13.7541 1268 123.182 804.312 465.22
1052 0 97.1122 14.4163 1400 121.146 804.431 465.114
1053 1 50.0626 11.965 599 119.765 804.364 488.684
1054 0 53.0843 12.32 654 119.485 803.46 485.154
1055 0 55.0937 13.1594 725 118.181 803.839 484.943
1056 0 58.0676 13.9148 808 123.291 802.96 479.859
1057 0 59.1257 12.8032 757 129.074 802.427 477.626
1058 0 61.0435 13.5477 827 126.079 802.617 475.921
1059 0 66.1184 18.0434 1193 110.206 802.261 472.961
1060 0 67.1704 15.751 1058 117.72 803.037 474.078
1061 0 68.1701 13.613 928 124.68 802.716 471.136
1062 0 79.1595 16.5362 1309 109.066 802.94 461.791
1063 0 83.2723 18.6256 1551 101.789 802.916 459.029
1064 0 91.0927 14.359 1308 111.735 803.758 447.962
1065 0 97.5204 15.3301 1495 107.087 803.703 445.785
1066 0 100.137 17.2663 1729 101.781 803.664 444.778
1067 0 98.5147 17.5304 1727 105.325 804.251 442.024
1068 0 102.324 15.7734 1614 109.855 803.919 440.587
1069 0 99.3204 19.6938 1956 101.693 804.291 437.344
1070 0 97.312 17.5107 1704 107.211 803.83 436.467
1071 0 100.375 17.9527 1802 106.416 803.034 436.172
1072 0 99.2764 14.4848 1438 119.014 802.739 440.94
1073 0 100.182 13.1461 1317 123.092 803.416 444.884
1074 1 52.1101 12.2049 636 117.917 802.833 468.082
1075 0 54.2406 12.463 676 116.311 803.538 477.627
1076 0 55.1857 14.4421 797 119.235 802.657 474.542
1077 0 55.0937 13.9036 766 121.714 803.188 474.753
1078 0 56.1775 13.315 748 122.321 802.798 482.686
1079 0 59.1394 13.5274 800 124.22 802.451 476.431
1080 0 63.2025 13.8602 876 120.74 803.008 477.628
1081 0 66.2286 13.0004 861 122.57 802.674 476.685
1082 0 68.1029 14.7424 1004 120.122 802.896 467.242
1083 0 70.2744 15.041 1057 121.158 802.896 451.921
1084 0 72.2996 13.5132 977 125.993 803.34 450.519
1085 0 76.3529 14.2234 1086 122.364 802.579 453.696
1086 0 79.2213 14.4784 1147 120.737 802.849 459.523
1087 0 79.1875 13.2723 1051 125.509 802.987 462.304
1088 0 83.257 14.149 1178 122.301 802.667 461.563
1089 0 84.4629 13.6036 1149 124.708 802.788 459.837
1090 1 46.1607 11.2433 519 122.586 802.906 480.8
1091 0 49.1712 12.8531 632 116.508 803.177 480.087
1092 0 49.1313 12.5378 616 112.612 803.677 476.779
1093 0 52.1445 13.1366 685 119.161 802.712 469.771
1094 0 54.1455 12.9466 701 120.144 802.653 465.368
1095 0 56.0711 12.9478 726 122.091 802.081 455.23
1096 0 58.1274 14.7091 855 118.039 802.172 448.763
1097 0 58.1728 13.8037 803 121.705 802.442 447.12
1098 0 60.3265 12.6313 762 123.394 802.211 450.621
1099 0 61.3164 13.3569 819 122.347 802.005 449.89
1100 0 65.0475 13.4671 876 121.073 802.144 428.422
1101 0 68.1224 13.1822 898 119.732 802.628 429.111
1102 0 68.1994 11.9649 816 123.034 803.49 430.63
1103 0 72.0688 12.8766 928 120.263 803.025 431.591
1104 0 73.1771 12.8729 942 121.269 803.552 432.382
1105 0 77.2821 13.4831 1042 117.528 803.614 437.522
1106 0 80.1472 13.1009 1050 118.57 803.972 434.91
1107 0 83.1319 13.1959 1097 119.456 803.323 432.077
1108 1 43.0561 10.9857 473 118.704 803.068 452.628
1109 0 46.241 12.4349 575 114.377 803.497 453.497
1110 0 47.073 12.0026 565 119.156 802.947 451.354
1111 0 48.0565 11.3824 547 123.525 803.015 446.936
1112 0 51.1052 11.8188 604 120.546 802.747 446.919
1113 0 54.171 12.6452 685 119.904 802.742 441.599
1114 0 55.1081 12.9926 716 122.147 803.48 440.144
1115 0 57.059 13.2319 755 122.677 803.041 442.721
1116 0 59.1252 13.7336 812 120.518 803.116 448.995
1117 0 59.2479 13.452 797 122.514 802.891 452.659
1118 0 61.1562 13.4573 823 123.748 803.016 451.403
1119 0 65.1564 13.9818 911 123.009 802.877 428.508
1120 0 64.2393 12.7181 817 128.349 802.759 437.681
1121 0 67.1947 14.9714 1006 102.758 802.863 434.869
1122 0 69.2539 13.5877 941 125.722 802.304 435.327
1123 0 69.1657 12.7086 879 129.65 802.524 435.55
1124 0 74.1786 13.7641 1021 123.486 802.534 437.719
1125 0 75.0448 12.5525 942 126.971 802.576 435.331
1126 0 79.0859 14.4906 1146 120.721 802.479 441.881
1127 0 82.1223 13.4921 1108 122.85 803.232 424.647
1128 0 83.08 13.4328 1116 123.958 803.608 424.61
1129 0 87.1408 13.3462 1163 123.917 803.625 427.155
1130 0 91.1544 13.5923 1239 122.728 802.924 429.172
1131 1 47.1914 10.4892 495 120.212 803.416 452.461
1132 0 48.0603 11.8393 569 113.953 804.165 448.434
1133 0 49.2211 12.7181 626 112.946 804.655 447.07
1134 0 53.0359 11.8033 626 124.364 802.96 445.363
1135 0 57.0493 13.1816 752 117.691 802.484 448.801
1136 0 57.0876 11.4386 653 123.746 803.191 449.593
1137 0 58.0604 11.9875 696 122.312 803.339 447.415
1138 0 59.1196 12.6185 746 121.44 802.625 443.748
1139 0 63.0426 13.3878 844 117.912 802.588 445.071
1140 0 64.0816 12.4685 799 120.419 802.18 445.685
1141 0 66.0847 12.5596 830 120.189 802.228 448.761
1142 0 69.1305 13.0333 901 118.442 802.645 447.751
1143 0 71.0714 13.1558 935 116.911 802.981 440.405
1144 0 73.123 13.3884 979 117.915 803.278 441.286
1145 0 76.1074 13.2839 1011 117.842 802.45 444.021
1146 0 77.2961 12.5103 967 122.004 802.654 446.036
1147 0 79.2477 12.3663 980 120.869 802.048 449.891
1148 0 80.2414 11.428 917 123.721 802.614 448.846
1149 0 85.3466 13.5096 1153 116.121 802.201 450.074
1150 0 87.2037 12.8894 1124 119.746 801.752 449.039
1151 0 90.4467 12.582 1138 120.954 801.38 446.206
1152 0 92.3066 12.1335 1120 122.29 801.415 445.215
1153 0 94.118 12.6225 1188 120.452 801.189 450.497
1154 0 97.2714 11.8431 1152 122.247 801.006 455.947
1155 0 101.107 11.6708 1180 118.57 801.87 460.521
1156 0 105.229 12.0119 1264 118.045 801.25 456.445
1157 0 107.32 12.5419 1346 117.656 801.4 452.606
1158 1 62.1904 10.5965 659 114.912 801.828 474.208
1159 0 62.1802 11.2737 701 113.01 801.722 475.013
1160 0 64.2102 11.3533 729 112.137 800.99 476.525
1161 0 66.1546 12.9092 854 116.682 801.023 472.979
1162 0 69.1666 11.5807 801 124.774 801.277 470.074
1163 0 69.1987 12.0234 832 124.561 801.262 469.397
1164 0 76.1895 13.1646 1003 118.369 801.614 469.073
1165 0 78.319 13.7004 1073 118.352 801.811 453.069
1166 0 79.3237 13.01 1032 120.828 802.057 450.967
1167 0 81.3624 13.8147 1124 121.18 801.412 435.456
1168 0 85.3559 12.6998 1084 120.684 802.233 437.382
1169 0 87.3388 12.4801 1090 118.795 801.899 439.098
1170 0 88.2352 12.2287 1079 120.794 802.346 436.428
1171 0 93.1727 12.4071 1156 119.992 801.29 432.971
1172 0 95.2834 12.7934 1219 117.801 802.089 437.992
1173 0 98.2249 13.9272 1368 116.032 802.414 439.955
1174 0 101.205 12.9737 1313 118.031 802.756 444.487
1175 0 105.356 12.9941 1369 116.28 802.28 447.013
1176 0 110.335 13.033 1438 116.688 802.137 429.156
1177 0 112.296 13.2953 1493 116.577 801.807 425.475
1178 1 60.1759 11.5993 698 110.534 801.593 452.155
1179 0 62.2578 10.5047 654 115.916 801.456 453.569
1180 0 64.0711 12.6422 810 111.021 802.064 451.074
1181 0 65.1135 12.9159 841 122.162 802.384 441.989
1182 0 70.3937 12.6574 891 123.107 802.498 426.154
1183 0 71.1736 14.837 1056 118.205 803.155 427.946
1184 0 75.3585 13.6547 1029 119.54 803.217 431.933
1185 0 74.1432 12.1656 902 125.982 802.878 432.511
1186 0 80.2342 14.2707 1145 120.036 803.837 426.349
1187 0 81.2965 13.9243 1132 121.949 803.462 428.117
1188 0 84.3016 13.9855 1179 120.978 802.817 430.566
1189 0 86.1987 13.6081 1173 122.074 803.085 432.02
1190 0 89.3136 13.4694 1203 122.4 802.987 434.106
1191 0 93.1901 13.5959 1267 121.765 802.963 433.071
1192 0 96.1692 13.1123 1261 121.226 802.472 436.767
1193 0 98.2862 13.6845 1345 121.618 803.08 418.998
1194 0 103.187 14.5174 1498 116.85 802.33 407.535
1195 0 108.156 12.8981 1395 118.52 802.863 411.205
1196 0 110.228 13.5175 1490 116.703 802.911 409.031
1197 1 58.0277 11.3049 656 115.108 802.816 434.006
1198 0 60.0948 11.2489 676 111.805 803.562 438.197
1199 0 62.0825 10.5666 656 111.032 803.328 439.87
1200 0 65.0833 12.6914 826 113.539 801.968 444.869
1201 0 65.0806 12.4922 813 113.533 801.69 450.156
1202 0 68.0245 12.6572 861 113.228 802.056 439.84
1203 0 71.0543 13.6797 972 110.826 801.478 441.018
1204 0 72.0892 12.9839 936 112.909 801.564 446.741
1205 0 74.0608 13.9345 1032 109.439 802.037 455.227
1206 0 76.097 12.7995 974 111.69 802.246 463.439
1207 0 77.0834 14.5686 1123 110.077 802.092 451.467
1208 0 79.1025 13.2486 1048 113.674 801.812 446.057
1209 0 80.0599 13.2276 1059 115.167 801.943 441.644
1210 0 82.1592 11.855 974 118.487 801.484 445.162
1211 0 87.2228 14.1133 1231 112.491 801.759 447.261
1212 0 89.1296 13.1157 1169 115.294 800.966 449.496
1213 0 90.138 13.1687 1187 116.695 801.508 448.408
1214 0 94.1047 13.8463 1303 113.471 801.835 451.228
1215 0 96.102 13.5273 1300 116.598 801.779 445.825
1216 0 101.065 13.7238 1387 113.894 802.443 446.764
1217 0 104.122 13.0808 1362 115.524 802.526 438.109
1218 0 107.068 13.5522 1451 114.384 802.343 443.501
1219 1 58.1131 12.0111 698 108.718 802.84 477.696
1220 0 59.0998 11.2183 663 109.192 801.421 473.394
1221 0 62.0776 11.985 744 106.199 801.336 475.226
1222 0 64.1316 12.6459 811 108.027 801.031 474.672
1223 0 66.0438 13.7485 908 105.589 801.519 475.07
1224 0 69.0768 12.1604 840 110.04 801.504 473.396
1225 0 70.0579 12.8893 903 112.249 801.96 448.146
1226 0 76.1913 13.4399 1024 109.922 802.298 441.264
1227 0 77.162 13.1801 1017 110.471 802.68 443.56
1228 0 80.0976 12.3724 991 112.722 802.71 439.639
1229 0 81.1506 13.6043 1104 111.923 802.564 436.352
1230 0 84.1713 14.0071 1179 110.314 803.296 439.412
1231 0 85.1794 12.6791 1080 113.529 803.181 439.375
1232 0 89.1562 13.2128 1178 112.186 803.161 448.137
1233 0 91.0986 14.4459 1316 110.016 802.539 456.156
1234 0 92.1677 13.5297 1247 112.443 802.138 462.338
1235 0 94.1553 13.3184 1254 111.875 802.437 464.944
1236 0 97.3202 12.5359 1220 116.339 802.817 459.475
1237 0 99.2186 13.6668 1356 114.461 802.532 461.272
1238 0 102.23 12.6479 1293 118.301 802.443 458.503
1239 0 103.18 12.4733 1287 119.515 802.242 456.12
1240 0 106.272 12.2892 1306 120.272 802.031 450.668
1241 0 109.261 12.5296 1369 119.228 801.909 447.205
1242 1 58.0868 8.91768 518 117.562 801.873 471.247
1243 0 63.1366 11.7998 745 114.346 801.867 469.599
1244 0 66.0694 12.8501 849 115.987 801.916 467.237
1245 0 66.0504 12.5964 832 118.005 801.605 466.019
1246 0 69.0681 13.5518 936 115.58 800.872 470.035
1247 0 70.0872 12.8982 904 117.295 801.076 471.571
1248 0 73.1659 13.2165 967 116.501 800.625 470.418
1249 0 76.0378 13.3881 1018 116.469 801.056 469.304
1250 0 77.1037 13.2808 1024 118.191 801.564 466.448
1251 0 81.0979 13.1323 1065 121.437 801.643 442.646
1252 0 81.1573 12.5928 1022 123.621 801.985 443.639
1253 0 86.1593 12.6162 1087 122.387 801.736 443.387
1254 0 88.2136 13.456 1187 120.339 801.612 445.714
1255 0 92.2286 14.5833 1345 116.881 802.848 451.129
1256 0 94.2327 13.1483 1239 120.648 802.554 455.645
1257 0 97.2922 14.1532 1377 119.172 801.956 443.285
1258 0 100.161 13.668 1369 122.057 801.857 442.853
1259 0 102.247 13.1251 1342 122.853 802.303 449.647
1260 1 55.1234 11.1024 612 118.68 801.472 479.542
1261 0 55.2214 12.0786 667 116.859 802.276 477.009
1262 0 58.3431 12.6836 740 116.515 802.249 474.286
1263 0 61.0848 12.2616 749 117.013 800.983 476.049
1264 0 62.1426 12.5357 779 117.228 801.687 474.363
1265 0 64.1136 12.7118 815 117.763 802.038 474.643
1266 1 97.1521 8.13158 790 118.435 801.458 475.103
1267 0 97.1495 8.2759 804 120.057 801.843 472.845
1268 0 96.116 8.01115 770 123.426 802.303 472.744
1269 0 97.5648 17.6601 1723 92.4475 802.77 459.499
1270 0 99.7504 14.3859 1435 102.026 802.07 458.627
1271 0 92.41 19.446 1797 94.414 802.144 456.077
1272 0 91.2669 15.5697 1421 108.148 802.345 461.099
1273 0 90.3196 18.9106 1708 101.725 802.57 459.279
1274 0 84.3915 15.8428 1337 115.578 802.489 462.853
1275 0 89.3888 15.5165 1387 116.139 802.115 461.739
1276 0 89.4496 12.3421 1104 126.463 802.299 459.516
1277 1 48.12 11.118 535 120.905 802.899 473.247
1278 0 48.143 10.905 525 121.013 803.627 473.394
1279 0 50.0719 10.6846 535 120.265 803.942 476.402
1280 0 52.0448 11.0482 575 121.645 803.214 475.17
1281 0 57.1605 13.1909 754 122.407 801.613 478.828
1282 0 59.0786 12.5934 744 122.548 801.528 479.089
1283 0 59.2564 12.1168 718 125.596 801.539 475.414
1284 0 61.1195 12.7455 779 124.606 801.734 474.648
1285 0 63.1643 13.5203 854 121.986 801.567 475.58
1286 0 65.1224 12.561 818 125.456 801.753 473.425
1287 0 69.1372 14.3917 995 119.839 801.891 467.454
1288 0 70.1409 12.5177 878 126.885 802.014 457.853
1289 0 72.2508 14.6434 1058 122.23 802.141 452.532
1290 0 73.246 13.8165 1012 123.547 801.954 452.447
1291 0 77.3342 13.2024 1021 125.571 802.273 449.139
1292 0 77.3421 12.9425 1001 127.739 803.334 443.185
1293 0 80.2262 13.1503 1055 126.605 803.233 445.71
1294 0 84.3166 15.1216 1275 119.825 802.038 446.723
1295 0 88.2209 12.7067 1121 121.239 801.861 444.052
1296 0 88.1659 12.2496 1080 122.956 802.293 440.784
1297 0 91.1442 11.3556 1035 125.802 802.066 441.01
1298 0 97.224 12.6718 1232 122.749 801.722 422.011
1299 0 99.3439 13.0959 1301 124.185 801.344 417.583
1300 1 54.1284 11.5466 625 116.059 801.781 439.706
1301 0 56.1284 12.9168 725 109.247 801.474 442.977
1302 0 56.0718 12.2878 689 115.791 802.202 444.771
1303 0 59.1027 14.754 872 114.477 802.635 447.358
1304 0 61.0951 13.1107 801 118.567 801.712 448.054
1305 0 63.1081 12.6767 800 118.004 802.415 447.285
1306 0 64.0715 11.0502 708 121.174 802.206 455.523
1307 0 65.0436 13.3603 869 117.165 802.761 444.417
1308 0 69.0893 14.3872 994 113.183 802.939 444.095
1309 0 70.0899 13.5683 951 115.763 802.557 445.607
1310 0 73.0859 13.6141 995 115.159 802.926 448.817
1311 0 76.0848 14.0107 1066 114.273 802.62 447.892
1312 0 78.1094 13.289 1038 115.166 802.644 449.73
1313 0 81.1197 13.2767 1077 114.123 802.882 453.63
1314 0 80.1159 13.2808 1064 131.358 803.874 453.18
1315 0 87.2244 12.5882 1098 116.669 803.087 457.031
1316 0 91.148 13.3409 1216 114.192 802.526 463.057
1317 0 94.1563 14.3379 1350 113.061 802.034 455.172
1318 0 96.2712 13.8878 1337 115.434 801.925 450.316
1319 0 100.118 13.4242 1344 116.592 802.377 449.967
1320 0 103.156 14.2212 1467 115.853 801.336 446.188
1321 0 106.174 15.2486 1619 114.692 802.072 441.768
1322 0 108.138 14.1578 1531 118.655 802.468 441.623
1323 0 111.118 14.4262 1603 117.269 801.434 445.211
1324 0 115.119 13.8292 1592 119.37 801.362 440.427
1325 0 118.222 13.7707 1628 120.453 802.169 443.741
1326 0 120.164 14.2472 1712 120.305 802.596 443.338
1327 0 125.268 14.0738 1763 120.474 801.839 442.377
1328 0 130.234 14.1898 1848 120.583 801.991 438.029
1329 0 135.214 14.9541 2022 118.914 801.478 435.766
1330 0 139.443 14.3141 1996 119.96 801.805 438.221
1331 0 143.39 13.927 1997 122.691 801.575 435.321
1332 0 148.39 15.311 2272 118.688 801.561 435.941
1333 0 154.4 14.8187 2288 121.164 802.01 427.391
1334 0 159.31 14.7009 2342 121.931 802.395 426.744
1335 0 164.439 15.0512 2475 120.392 802.098 425.305
1336 0 167.241 13.3221 2228 125.478 801.903 423.469
1337 0 175.384 14.9558 2623 121.239 802.306 419.135
1338 0 179.275 13.5044 2421 122.094 802.484 415.47
1339 0 186.306 14.3527 2674 119.553 802.448 417.753
1340 0 194.433 16.3758 3184 116.998 802.394 411.858
1341 0 202.407 18.5517 3755 110.669 802.507 403.333
1342 0 208.314 16.8015 3500 114.645 802.347 408.337
1343 1 159.223 14.1751 2257 121.472 802.208 429.536
1344 0 162.245 13.1221 2129 123.424 801.753 427.873
1345 0 169.247 13.4183 2271 120.831 802.181 425.86
1346 0 176.293 13.7215 2419 120.446 801.951 419.622
1347 0 184.27 13.3337 2457 120.084 802.015 420.357
1348 0 189.273 12.2838 2325 123.355 802.671 415.962
1349 0 197.376 13.2691 2619 121.522 802.238 409.69
1350 0 204.328 13.3217 2722 119.63 802.071 410.626
1351 0 209.302 12.5656 2630 122.234 802.1 403.151
1352 0 220.491 14.3861 3172 116.864 802.366 401.701
1353 0 229.655 14.2562 3274 116.355 802.569 401.34
1354 0 236.616 13.4183 3175 118.675 802.724 392.999
1355 0 242.44 13.1744 3194 119.093 803.022 389.098
1356 0 250.525 13.4079 3359 118.158 802.557 378.052
1357 1 57.0775 11.8961 679 104.778 804.165 471.029
1358 0 61.0683 12.2158 746 109.831 802.08 476.272
1359 0 62.1116 11.7047 727 111.791 801.668 474.933
1360 0 63.1033 11.5683 730 112.747 802.306 476.099
1361 0 68.1096 11.2319 765 111.502 800.824 471.45
1362 0 70.1506 12.6442 887 108.202 801.503 474.466
1363 0 71.1433 12.3272 877 109.536 802.672 472.765
1364 0 75.2455 12.6121 949 108.947 801.875 470.205
1365 0 79.076 13.0128 1029 106.945 802.156 469.253
1366 0 81.1768 12.1833 989 109.971 802.405 469.449
1367 1 48.0583 11.4861 552 105.623 802.627 485.793
1368 0 50.1398 11.3682 570 101.518 801.595 479.335
1369 0 53.0577 12.3074 653 109.308 801.807 459.455
1370 0 55.1446 12.7483 703 107.568 802.024 462.967
1371 0 55.2656 12.7566 705 109.484 802.172 466.63
1372 0 56.0554 12.452 698 112.728 801.378 432.701
1373 0 60.1493 12.07 726 113.273 801.269 432.087
1374 0 62.2085 13.0047 809 111.726 801.687 432.407
1375 0 65.1342 12.9579 844 111.724 801.925 430.819
1376 0 67.1677 14.7243 989 106.471 802.039 431.641
1377 0 67.2358 12.7908 860 113.065 801.351 433.77
1378 0 68.0784 12.8234 873 113.685 802.346 436.844
1379 0 69.042 13.1514 908 114.343 802.915 436.694
1380 0 73.2343 12.658 927 112.981 802.812 443.663
1381 0 74.1968 13.5585 1006 112.291 802.653 443.83
1382 0 76.28 13.5553 1034 111.929 802.539 444.937
1383 0 77.3229 13.7217 1061 112.57 802.376 442.026
1384 0 79.1286 12.8399 1016 114.666 801.959 440.57
1385 0 82.0921 14.1061 1158 111.009 802.247 440.788
1386 0 84.2614 11.5949 977 115.293 802.161 442.24
1387 0 88.2942 14.3271 1265 109.596 802.372 437.251
1388 0 91.3247 13.786 1259 110.003 802.719 436.257
1389 0 93.295 12.9589 1209 112.427 802.737 440.74
1390 0 96.3198 11.8667 1143 113.507 803.961 441.656
1391 1 55.0801 11.8918 655 102.192 801.771 463.469
1392 0 56.0654 12.2 684 107.31 801.51 469.137
1393 0 56.0656 11.8254 663 110.054 801.87 471.914
1394 0 60.2066 13.2045 795 106.389 802.838 477.438
1395 0 60.2298 12.2531 738 109.375 802.554 476.805
1396 0 64.2226 13.2508 851 105.913 802.355 476.167
1397 0 65.1667 12.1074 789 108.769 802.494 475.897
1398 0 65.1197 11.3023 736 111.833 802.616 472.985
1399 0 71.3087 13.8412 987 105.06 803.088 468.486
1400 0 72.3194 12.6384 914 109.152 802.336 467.507
1401 0 75.2896 14.3579 1081 105.642 802.165 466.015
1402 0 77.4069 13.5259 1047 107.551 802.238 466.127
1403 0 80.3373 13.7172 1102 106.968 802.327 463.679
1404 0 81.2478 11.9019 967 109.23 802.343 460.958
1405 0 85.2897 11.162 952 109.195 802.372 458.22
1406 0 92.2614 16.399 1513 96.6748 801.6 451.635
1407 0 95.2798 15.4073 1468 99.0634 801.634 451.642
1408 0 96.2315 12.7817 1230 105.798 801.251 455.772
1409 0 98.2043 13.2683 1303 105.444 801.662 453.938
1410 0 103.158 12.8928 1330 106.686 802.377 453.359
1411 0 105.362 12.3859 1305 108.088 802.398 452.916
1412 0 108.219 11.9295 1291 111.012 802.614 448.098
1413 0 114.34 13.005 1487 108.079 802.969 446.61
1414 0 117.293 11.5182 1351 111.22 803.261 445.577
1415 1 64.2181 11.5077 739 107.373 802.007 473.13
1416 0 66.2517 12.9959 861 108.218 802.073 472.797
1417 0 69.1426 13.3781 925 109.015 801.53 468.693
1418 0 72.2471 13.5092 976 108.15 801.653 468.75
1419 0 71.2687 12.2354 872 113.286 802.008 468.625
1420 0 76.1701 11.9601 911 113.093 802.127 468.236
1421 0 80.3247 14.0181 1126 108.539 801.546 466.028
1422 0 83.1932 12.6092 1049 113.806 801.449 461.982
1423 0 85.3201 13.3966 1143 113.091 800.968 460.794
1424 0 89.4571 13.7273 1228 114.002 802.307 455.741
1425 0 92.3808 13.7041 1266 114.4 802.749 455.359
1426 0 95.4285 13.738 1311 114.04 803.212 454.424
1427 0 99.3932 13.9245 1384 113.506 803.634 450.956
1428 0 103.318 14.1795 1465 110.98 802.544 451.614
1429 0 105.395 13.0746 1378 117.517 802.323 449.2
1430 0 109.481 11.9016 1303 117.348 802.422 446.873
1431 1 56.1784 10.2175 574 108.103 803.103 476.341
1432 0 59.2057 10.776 638 113.748 802.947 473.995
1433 0 61.3018 11.1579 684 117.256 802.77 470.842
1434 0 63.2496 11.9052 753 115.39 803.125 471.081
1435 0 65.5698 11.7127 768 116.915 802.904 466.557
1436 0 68.569 13.3734 917 111.361 802.99 465.811
1437 0 69.2363 11.6557 807 111.399 803.219 469.478
1438 0 73.2604 12.1348 889 110.544 803.19 468.175
1439 0 75.2293 12.3356 928 110.998 803.929 465.255
1440 0 78.3639 11.9315 935 110.354 803.764 465.175
1441 0 80.1992 12.1198 972 111.376 803.79 461.9
1442 0 80.2155 11.145 894 114.895 803.357 461.56
1443 0 83.428 11.0634 923 115.531 803.146 459.09
1444 0 86.239 10.9579 945 116.595 803.358 456.235
1445 0 91.3327 11.8139 1079 113.561 804.349 458.92
1446 0 93.223 12.3575 1152 113.828 804.295 455.631
1447 0 95.2938 11.3334 1080 117.614 803.556 454.144
1448 0 99.355 11.776 1170 117.417 803.709 453.574
1449 0 102.339 11.462 1173 119.164 803.228 451.309
1450 0 106.355 12.0352 1280 118.123 803.041 453.198
1451 0 111.381 13.2518 1476 116.393 802.868 449.681
1452 0 113.322 13.166 1492 117.861 803.712 448.066
1453 0 117.337 12.7495 1496 120.421 802.943 444.743
1454 1 66.1386 11.2491 744 113.223 802.735 474.176
1455 0 68.1531 11.9584 815 117.828 801.551 468.983
1456 0 70.1973 12.5646 882 118.115 801.635 469.054
1457 0 73.2132 12.2382 896 117.239 802.473 465.397
1458 0 75.2331 11.2318 845 118.982 802.127 465.845
1459 0 75.2995 11.9921 903 118.598 802.213 465.029
1460 0 80.2786 13.2788 1066 114.076 802.809 464.735
1461 0 82.3177 11.9415 983 116.22 802.715 463.707
1462 0 84.4601 11.9228 1007 115.726 801.942 462.648
1463 0 87.4324 12.1465 1062 115.848 801.863 459.446
1464 0 90.3635 11.7857 1065 115.652 802.191 459.055
1465 0 94.3944 13.6131 1285 111.872 802.237 455.637
1466 0 95.411 11.4033 1088 114.871 802.507 455.54
1467 0 101.334 11.7334 1189 113.185 802.47 452.673
1468 1 52.3529 9.93259 520 108.117 802.41 479.367
1469 0 54.1132 10.6998 579 110.211 802.199 477.508
1470 0 58.1829 12.2373 712 114.254 801.985 475.694
1471 0 59.1825 11.8447 701 115.749 801.759 475.051
1472 0 62.1525 12.6141 784 112.028 801.497 475.046
1473 0 64.2492 12.7317 818 111.857 801.94 473.17
1474 0 64.1554 11.6904 750 113.451 801.611 474.456
1475 0 68.3734 12.1392 830 112.307 802.016 471.63
1476 0 70.3274 13.1386 924 109.327 801.884 470.32
1477 0 72.3751 13.1123 949 109.46 802.334 468.462
1478 0 73.3545 12.4328 912 110.396 802.587 465.625
1479 0 76.4694 12.1225 927 110.982 802.696 465.101
1480 0 78.4264 12.9931 1019 109.033 803.025 465.214
1481 0 83.6688 12.92 1081 106.673 802.611 463.148
1482 0 84.2013 11.6388 980 106.566 802.441 462.641
1483 1 43.1327 9.52873 411 101.776 801.883 484.195
1484 0 43.1232 9.41489 406 103.244 801.52 481.626
1485 0 47.1927 10.4889 495 99.0303 801.277 483.434
1486 0 48.1161 11.2436 541 99.5601 802.492 481.083
1487 0 49.2293 11.1925 551 107.256 801.915 479.586
1488 0 51.0705 11.8659 606 105.736 801.376 480.757
1489 0 53.043 11.9526 634 105.336 801.912 481.599
1490 0 54.068 10.9307 591 106.986 802.25 482.956
1491 0 55.0721 11.2943 622 106.986 801.486 480.789
1492 0 59.0489 13.5142 798 103.407 800.549 478.865
1493 0 61.0678 12.8382 784 105.741 800.936 477.402
1494 0 60.0722 11.919 716 109.687 801.513 476.397
1495 0 62.098 12.1421 754 109.788 801.271 475.349
1496 0 65.0311 13.3013 865 106.015 801.422 475.244
1497 0 66.0269 11.9042 786 109.519 800.94 475.204
1498 0 70.1297 12.3058 863 107.715 800.841 473.196
1499 0 73.1554 14.5991 1068 102.817 801.052 471.018
1500 0 74.1932 13.3974 994 106.042 801.696 471.131
1501 0 76.1875 11.6817 890 109.889 802.686 471.173
1502 0 77.1849 12.5802 971 108.358 801.39 470.824
1503 0 81.1838 13.8821 1127 99.4765 801.287 468.599
1504 0 82.1945 12.4096 1020 104.43 800.815 467.257
1505 0 80.149 12.4019 994 107.196 801.725 464.586
1506 0 83.1578 12.6627 1053 105.026 800.851 466.028
1507 0 84.1544 13.1069 1103 111.66 801.782 463.05
1508 1 44.1421 10.5115 464 113.088 801.241 483.726
1509 0 47.2166 10.5895 500 114.724 801.768 483.992
1510 0 49.1291 11.9685 588 109.354 801.179 484.702
1511 0 50.027 12.5932 630 107.994 800.57 483.681
1512 0 50.2239 11.17 561 111.44 801.326 482.97
1513 0 52.0591 12.3514 643 109.236 801.471 480.058
1514 0 54.0283 11.9012 643 107.518 801.205 482.956
1515 0 56.0248 13.2263 741 104.348 801.035 482.247
1516 0 57.0645 11.8462 676 108.676 801.494 481.385
1517 0 57.0724 12.3878 707 109.337 800.979 478.607
1518 0 58.0388 11.9231 692 111.571 801.007 479.945
1519 0 62.0759 13.5963 844 107.595 801.469 478.38
1520 0 61.0681 12.4287 759 113.493 801.57 477.087
1521 0 65.0384 14.1455 920 110.412 801.58 477.417
1522 0 66.0492 13.4294 887 113.344 801.666 477.157
1523 0 69.1635 12.2174 845 117.586 801.327 475.585
1524 0 70.1483 13.1436 922 118.184 801.36 474.773
1525 0 73.0444 13.7998 1008 117.123 801.298 476
1526 0 74.184 14.4371 1071 117.882 800.995 473.532
1527 0 77.0825 13.012 1003 123.364 800.563 471.911
1528 0 76.177 13.2192 1007 126.494 800.725 470.903
1529 0 80.0888 13.6848 1096 126.518 800.545 470.885
1530 0 82.1044 13.3001 1092 130.262 801.075 470.152
1531 0 84.0752 13.6426 1147 129.486 800.907 469.404
1532 0 87.122 13.0047 1133 132.927 800.564 468.365
1533 0 89.1817 13.1081 1169 135.909 800.782 466.352
1534 1 51.0411 11.0499 564 137.043 800.688 486.098
1535 0 52.0948 10.9416 570 138.507 801.726 483.875
1536 0 53.1267 12.6866 674 136.586 800.8 480.528
1537 0 54.1358 12.21 661 138.891 801.014 482.929
1538 0 57.1363 13.3365 762 135.71 800.513 481.646
1539 0 57.1653 12.9624 741 138.173 800.525 481.791
1540 0 61.1356 12.8567 786 137.735 799.938 481.029
1541 0 63.1654 12.7602 806 138.179 800.506 479.569
1542 0 64.1248 13.4269 861 136.066 800.828 479.477
1543 0 64.0469 12.2566 785 141.845 800.53 478.54
1544 0 66.1814 12.9946 860 140.438 799.843 477.615
1545 0 69.3081 13.4183 930 138.554 799.886 476.547
1546 0 70.09 13.8108 968 138.558 801.473 475.845
1547 0 72.1518 13.3746 965 140.109 800.742 473.508
1548 0 74.1907 13.6136 1010 138.505 800.665 473.785
1549 0 78.1371 13.4123 1048 137.869 800.208 471.97
1550 0 80.1214 13.3298 1068 137.957 799.699 470.82
1551 0 80.1799 12.6466 1014 140.43 799.669 467.317
1552 0 86.2976 13.3607 1153 136.138 799.807 465.021
1553 0 89.3033 14.2436 1272 133.37 799.686 464.033
1554 0 90.1832 13.0179 1174 137.371 799.026 461.843
1555 1 49.2357 11.5973 571 132.06 799.953 482.725
1556 0 50.074 12.7611 639 128.324 800.153 481.961
1557 0 50.0555 13.6848 685 127.353 800.288 479.292
1558 0 52.0828 12.7873 666 128 800.198 479.881
1559 0 55.1014 14.1739 781 127.374 799.896 469.633
1560 0 57.1429 13.65 780 128.574 800.949 469.963
1561 0 59.0377 14.1774 837 125.895 800.418 471.07
1562 0 61.1233 12.9574 792 129.256 800.683 467.787
1563 0 59.1252 13.8012 816 130.343 801.175 461.915
1564 0 61.1339 13.5768 830 128.572 800.532 465.641
1565 0 62.0924 13.2706 824 130.131 800.385 468.029
1566 0 64.1903 14.6595 941 125.071 799.783 471.646
1567 0 65.0536 14.1729 922 125.511 800.268 474.428
1568 0 67.1356 13.2419 889 127.933 799.936 473.429
1569 0 69.114 13.5573 937 126.704 800.467 471.031
1570 0 72.0728 13.5002 973 127.76 800.231 468.842
1571 0 73.1181 13.3072 973 127.936 799.935 469.094
1572 0 76.1993 13.8715 1057 126.476 800.012 467.99
1573 0 78.0435 14.8763 1161 123.847 800.354 463.928
1574 0 84.1533 15.5668 1310 118.979 800.123 461.912
1575 0 83.0789 13.5654 1127 125.422 800.918 465.148
1576 0 86.1188 13.6788 1178 124.661 801.036 462.501
1577 0 91.0755 15.7342 1433 118.507 800.308 458.555
1578 0 95.1317 14.5062 1380 121.112 800.97 455.13
1579 0 95.0963 12.7765 1215 126.758 801.175 457.607
1580 0 98.1154 13.5555 1330 124.327 800.506 456.066
1581 0 103.261 14.5166 1499 120.929 800.487 453.182
1582 1 50.028 11.1937 560 126.496 800.443 478.427
1583 0 53.0918 13.9758 742 120.745 800.177 471.818
1584 0 55.112 14.0441 774 119.866 800.384 470.03
1585 0 55.1827 14.2255 785 120.561 800.41 470.424
1586 0 56.2123 13.4668 757 123.333 800.394 470.779
1587 0 58.0804 13.7912 801 122.136 799.93 472.071
1588 0 59.0676 14.1194 834 121.453 800.086 475.355
1589 0 59.0398 12.3476 729 126.214 800.518 475.006
1590 0 62.0811 13.8528 860 120.198 800.567 477.395
1591 0 64.107 13.8206 886 121.523 800.726 473.83
1592 0 66.1301 13.0803 865 123.276 800.837 471.85
1593 0 69.0926 13.5181 934 123.367 800.874 471.206
1594 0 68.0737 12.9712 883 127.683 801.105 467.986
1595 0 74.0965 13.9278 1032 123.969 800.747 466.64
1596 0 76.0337 13.8754 1055 124.316 800.479 467.047
1597 0 77.1154 13.8883 1071 126.169 800.942 463.198
1598 0 81.1032 13.5383 1098 126.425 801.307 462.067
1599 0 85.0399 14.3697 1222 123.598 801.212 462.063
1600 0 85.1422 13.6947 1166 126.742 800.559 458.985
1601 0 87.0954 13.2039 1150 128.597 801.108 456.3
1602 0 93.0877 13.8579 1290 126.857 800.407 455.133
1603 0 98.073 14.5198 1424 124.159 800.966 452.96
1604 1 106.116 17.085 1813 113.924 801.176 447.903
1605 0 114.069 19.2164 2192 106.461 801.181 447.084
1606 0 121.081 18.2853 2214 107.097 800.973 442.463
1607 1 56.0824 11.6436 653 125.862 801.116 472.055
1608 0 61.0895 12.9319 790 120.222 800.467 471.01
1609 0 67.0933 15.3667 1031 111.67 800.194 466.404
1610 0 63.059 13.194 832 121.368 799.917 469.629
1611 0 67.0407 13.8722 930 118.441 800.503 466.966
1612 0 66.0619 12.5488 829 122.457 800.703 469.322
1613 0 75.114 14.671 1102 113.678 800.124 465.894
1614 0 78.1631 14.8791 1163 112.85 800.58 463.842
1615 0 78.0597 14.2967 1116 116.238 800.102 459.733
1616 0 81.1285 14.0271 1138 118.179 800.431 461.791
1617 0 82.0575 14.4898 1189 117.977 800.469 460.242
1618 0 84.2462 13.7098 1155 120.023 800.39 457.162
1619 0 88.1997 13.0613 1152 121.194 800.169 459.069
1620 0 90.1045 13.8284 1246 120.514 800.963 454.438
1621 0 94.2206 13.2349 1247 122.01 800.584 453.847
1622 0 99.0962 12.3516 1224 125.42 799.512 453.042
1623 1 50.0227 9.89551 495 123.903 800.636 474.347
1624 0 54.1185 12.5465 679 117.08 800.561 473.825
1625 0 59.0244 13.4012 791 117.217 799.688 475.436
1626 0 63.1283 13.7023 865 115.439 799.623 474.541
1627 0 65.0574 13.465 876 116.631 799.376 472.691
1628 0 64.1208 11.7591 754 122.748 800.416 474.436
1629 0 69.1743 13.8057 955 119.622 801.026 472.637
1630 0 73.1536 14.08 1030 118.554 800.543 471.388
1631 0 73.1129 12.3644 904 123.987 800.731 470.89
1632 0 75.2494 13.8207 1040 122.169 800.191 467.868
1633 0 77.235 12.8828 995 123.174 799.993 468.401
1634 0 81.1638 13.023 1057 121.227 800.377 468.878
1635 0 82.2484 13.4957 1110 119.953 800.721 467.065
1636 0 85.1153 12.7592 1086 122.064 800.529 463.97
1637 0 88.1894 14.0606 1240 118.338 801.444 464.464
1638 0 88.1622 12.4543 1098 124.572 800.937 460.87
1639 0 92.2058 12.9059 1190 120.871 800.824 463.91
1640 0 95.3141 11.971 1141 125.07 800.834 460.132
1641 0 97.2164 14.5037 1410 119.533 800.982 456.507
1642 0 98.1654 12.917 1268 123.904 801.494 457.529
1643 0 101.109 12.5804 1272 124.423 801.21 457.02
1644 0 105.105 12.8728 1353 122.953 801.56 455.772
1645 0 109.135 13.2497 1446 123.466 801.069 451.764
1646 0 114.094 13.2873 1516 122.251 801.04 453.176
1647 0 116.139 13.3719 1553 123.464 800.372 449.506
1648 0 120.204 12.587 1513 125.627 799.841 447.774
1649 0 125.13 13.9056 1740 123.055 800.501 443.136
1650 0 129.178 13.2143 1707 124.849 800.391 441.873
1651 0 135.302 12.8453 1738 126.39 799.795 441.113
1652 0 140.122 12.7032 1780 129.02 799.571 434.766
1653 1 82.1744 11.4756 943 122.786 799.841 467.224
1654 0 84.2704 11.7835 993 125.487 799.654 459.713
1655 0 84.0786 13.8323 1163 124.353 799.932 455.794
1656 0 86.0736 11.6993 1007 130.072 800.149 457.855
1657 0 89.0827 13.3359 1188 127.289 799.76 456.525
1658 0 92.2434 12.3478 1139 129.524 799.313 456.448
1659 0 96.2112 12.6181 1214 129.19 800.296 454.951
1660 0 99.1067 12.3201 1221 128.976 800.09 455.572
1661 0 98.2091 12.2188 1200 131.73 799.874 449.792
1662 0 106.126 13.041 1384 127.356 800.297 447.285
1663 0 109.114 12.8123 1398 127.106 801.076 447.33
1664 0 112.225 13.2235 1484 127.845 800.687 444.328
1665 0 114.127 12.1181 1383 127.726 800.367 445.217
1666 0 121.212 13.0845 1586 127.255 799.861 442.376
1667 0 120.153 13.1416 1579 129.994 800.26 437.232
1668 0 124.183 13.0211 1617 129.553 800.273 434.811
1669 0 129.155 13.1547 1699 128.741 800.3 431.958
1670 0 129.277 12.3378 1595 132.425 800.244 426.93
1671 0 137.238 12.9046 1771 130.222 800.406 425.953
1672 0 142.471 12.2341 1743 132.094 800.184 426.114
1673 0 146.296 11.5724 1693 135.567 799.894 421.389
1674 1 75.1579 11.1099 835 123.389 800.799 460.335
1675 0 78.0748 10.951 855 124.317 801.056 459.72
1676 0 84.1689 10.5977 892 127.108 800.263 455.915
1677 0 87.3232 11.967 1045 129.344 800.553 460.467
1678 0 89.3265 12.1017 1081 129.649 800.66 460.882
1679 0 90.1807 11.6544 1051 132.644 800.666 457.637
1680 0 95.2808 13.1926 1257 127.494 801.025 458.989
1681 0 98.3526 12.4755 1227 129.564 800.839 457.173
1682 0 100.386 11.9539 1200 131.759 800.56 455.868
1683 0 105.457 13.8255 1458 126.762 801.054 453.736
1684 0 106.569 12.0204 1281 131.774 800.585 453.738
1685 0 110.222 12.13 1337 125.349 799.582 451.539
1686 0 109.204 10.8421 1184 129.027 799.391 448.888
1687 0 115.205 12.1089 1395 123.862 798.467 448.67
1688 0 120.312 12.0769 1453 122.99 799.098 448.067
1689 0 125.344 11.0735 1388 123.445 798.465 447.327
1690 0 129.172 11.6588 1506 123.136 799.199 443.771
1691 0 133.219 12.1304 1616 123.028 798.879 439.783
1692 0 137.262 12.9024 1771 122.41 799.379 434.868
1693 0 141.229 12.5257 1769 123.341 799.601 433.672
1694 1 78.1279 11.1228 869 120.122 799.451 467.326
1695 0 82.1598 12.7191 1045 124.136 799.798 465.311
1696 0 84.0688 12.6087 1060 127.015 799.557 463.012
1697 0 85.1327 12.087 1029 129.591 799.525 463.946
1698 0 89.0714 12.8549 1145 127.171 799.801 462.693
1699 0 88.0502 12.3907 1091 131.907 799.725 459.242
1700 0 94.1074 12.1563 1144 131.247 799.148 460.677
1701 0 97.1591 12.8037 1244 129.827 799.762 456.956
1702 0 98.0992 12.2325 1200 134.667 799.197 444.742
1703 0 102.209 12.5429 1282 133.301 798.653 446.17
1704 0 107.114 13.9198 1491 125.991 799.429 440.746
1705 0 109.124 13.4067 1463 126.975 799.175 445.18
1706 0 111.127 12.4273 1381 130.332 798.613 446.738
1707 0 113.144 13.7524 1556 127.934 798.861 444.905
1708 0 119.079 14.5534 1733 124.114 798.995 448.398
1709 1 65.0554 10.5141 684 126.414 799.418 474.538
1710 0 68.1218 10.7601 733 124.723 800.443 473.88
1711 0 70.1083 12.2097 856 122.062 800.055 472.985
1712 0 72.0457 12.6309 910 122.198 799.398 464.502
1713 0 73.0776 11.3304 828 127.077 799.306 465.775
1714 0 77.0713 12.5858 970 124.584 799.358 453.595
1715 0 80.1653 12.337 989 126.163 798.884 455.269
1716 0 79.1532 12.5706 995 128.584 798.352 451.072
1717 0 83.1228 12.7041 1056 128.159 799.295 451.313
1718 0 85.0879 13.1394 1118 127.191 799.155 455.793
1719 0 87.0904 13.0554 1137 128.181 798.999 454.539
1720 0 89.1352 13.429 1197 127.992 799.116 454.336
1721 0 92.1323 13.231 1219 128.903 799.872 454.551
1722 0 96.1387 13.9278 1339 126.691 800.346 454.565
1723 0 97.1755 12.215 1187 132.012 799.931 454.748
1724 0 100.192 12.9152 1294 130.41 799.837 455.908
1725 0 104.092 12.7387 1326 130.624 800.216 456.922
1726 0 108.119 13.8551 1498 127.671 799.984 453.759
1727 0 109.201 12.8937 1408 131.266 799.257 449.102
1728 0 115.344 12.8745 1485 130.587 799.308 451.706
1729 1 64.1061 12.5261 803 127.416 799.87 467.948
1730 0 65.1647 12.1692 793 128.19 799.346 471.831
1731 0 69.0366 12.9786 896 126.464 798.625 472.944
1732 0 71.0285 12.8962 916 127.479 799.536 470.834
1733 0 72.0672 13.3487 962 128.106 799.531 462.484
1734 0 76.0713 13.7765 1048 125.832 799.302 464.39
1735 0 77.0836 13.7772 1062 126.614 799.186 465.279
1736 0 81.0496 14.6947 1191 123.966 799.066 462.259
1737 0 80.0694 12.9138 1034 131.175 799.542 464.087
1738 0 84.0331 13.6375 1146 129.329 799.315 460.209
1739 0 85.0297 12.9837 1104 131.581 799.351 459.736
1740 0 89.2052 13.3625 1192 129.289 799.208 459.571
1741 0 92.0689 13.8266 1273 128.375 799.738 456.902
1742 0 94.0773 13.1275 1235 130.194 799.315 458.544
1743 0 95.2704 13.7608 1311 129.88 798.736 459.555
1744 0 98.1622 14.853 1458 126.9 799.504 459.163
1745 0 102.066 13.4227 1370 129.631 800.036 456.543
1746 0 104.133 13.4347 1399 129.595 799.711 456.095
1747 0 109.233 13.8511 1513 127.12 799.881 452.22
1748 0 110.272 13.0224 1436 129.193 799.754 451.714
1749 1 65.1634 11.4942 749 124.965 799.85 475.943
1750 0 65.1531 12.1099 789 124.164 799.494 474.151
1751 0 68.0997 13.0544 889 120.056 800.623 473.255
1752 0 69.0391 12.3408 852 113.951 800.211 475.735
1753 0 69.0418 10.6747 737 128.632 799.905 470.11
1754 0 75.0272 12.8087 961 121.118 799.96 470.516
1755 0 75.0486 11.5525 867 119.042 800.05 470.441
1756 0 82.0667 12.4655 1023 123.163 799.727 456.982
1757 0 83.0449 14.0526 1167 120.009 799.067 452.953
1758 0 83.0268 12.4177 1031 126.976 800.106 448.02
1759 0 87.0223 12.7324 1108 125.102 799.738 449.981
1760 0 90.1024 13.4514 1212 124.455 800.422 443.805
1761 0 92.1602 12.5217 1154 127.578 799.939 439.304
1762 0 94.1751 12.9121 1216 128.262 799.33 435.441
1763 0 99.1042 13.4707 1335 126.094 799.318 436.199
1764 0 103.185 13.2675 1369 126.4 799.7 434.047
1765 0 105.178 13.4439 1414 126.726 800.065 434.011
1766 0 110.223 14.2257 1568 125.499 800.081 432.996
1767 1 62.1059 11.2872 701 125.913 800.013 457.783
1768 0 64.1503 12.2681 787 122.97 799.515 461.834
1769 0 69.1254 12.2097 844 122.495 799.185 464.632
1770 0 66.0485 12.7633 843 124.95 799.349 460.186
1771 0 70.0609 13.3313 934 121.273 799.924 462.833
1772 0 72.0705 11.7108 844 125.284 800.251 464.476
1773 0 74.0554 12.1126 897 124.805 799.608 460.862
1774 0 77.0824 13.3753 1031 123.048 799.709 446.631
1775 0 80.0723 13.4628 1078 122.732 799.698 444.116
1776 0 80.2504 12.2492 983 127.685 799.166 443.695
1777 0 82.1708 14.482 1190 121.772 799.418 442.587
1778 0 85.134 12.956 1103 124.736 799.716 446.352
1779 0 89.0326 12.8155 1141 124.354 799.353 447.904
1780 0 91.0681 13.2868 1210 123.387 799.627 446.98
1781 0 94.1657 13.0833 1232 122.734 798.946 451.023
1782 0 97.3304 12.8737 1253 122.89 799.939 443.933
1783 1 56.2667 12.1919 686 116.408 799.755 462.87
1784 0 58.1731 11.483 668 114.328 800.395 466.551
1785 0 57.1873 10.7716 616 111.545 800.356 468.622
1786 0 60.0781 12.1841 732 118.008 799.471 469.743
1787 0 63.0765 11.8269 746 117.992 799.043 470.291
1788 0 62.1623 11.7756 732 119.706 799.104 471.131
1789 0 65.055 13.5116 879 113.225 799.528 472.634
1790 0 68.1185 12.7278 867 114.712 799.286 473.073
1791 0 68.2344 12.0467 822 117.783 799.642 471.719
1792 0 71.1223 13.765 979 113.947 799.827 469.213
1793 0 76.1576 14.9558 1139 109.565 799.399 466.408
1794 0 79.2074 14.7713 1170 110.322 799.401 466.202
1795 0 77.1652 13.1795 1017 117.146 798.835 467.176
1796 0 79.192 13.9661 1106 116.25 799.222 464.921
1797 0 82.1338 12.5162 1028 120.377 799.791 464.231
1798 0 85.1465 13.6706 1164 118.32 799.339 463.458
1799 0 87.1296 13.061 1138 120.07 800.416 463.393
1800 0 90.233 14.0968 1272 117.329 799.719 461.852
1801 0 94.1245 13.6946 1289 119.025 799.791 459.539
1802 0 96.2449 13.9644 1344 119.583 799.711 458.171
1803 0 99.1474 14.5843 1446 118.618 800.164 455.895
1804 0 102.186 13.7104 1401 120.63 800.817 456.051
1805 0 105.15 13.3904 1408 122.756 800.474 452.199
1806 0 107.168 12.9143 1384 125.105 800.694 451.079
1807 0 113.255 14.2951 1619 120.389 800.875 449.017
1808 1 61.1219 11.7634 719 119.953 800.661 473.722
1809 0 63.1234 12.2142 771 119.39 800.597 472.927
1810 0 66.0969 12.2245 808 121.884 800.545 471.182
1811 0 68.0375 12.2726 835 123.283 800.554 472.508
1812 0 72.1468 12.6548 913 121.768 800.202 471.153
1813 0 74.2125 13.5691 1007 119.916 800.199 470.514
1814 0 74.1279 13.0315 966 122.426 799.34 469.087
1815 0 78.1217 13.5046 1055 122.353 799.788 465.455
1816 0 79.2595 14.0677 1115 121.502 800.12 466.11
1817 0 81.1102 12.7728 1036 126.376 799.62 465.771
1818 0 85.1916 12.9942 1107 124.921 800.139 464.714
1819 0 86.2297 13.5568 1169 124.53 800.688 463.953
1820 0 90.1735 13.3742 1206 124.291 800.23 462.533
1821 0 93.2159 14.0427 1309 123.998 800.379 459.141
1822 0 95.4783 14.286 1364 124.287 800.663 456.394
1823 0 99.3906 14.7499 1466 122.855 800.534 456.63
1824 0 101.651 14.2251 1446 125.117 800.687 454.217
1825 0 105.374 14.4817 1526 124.621 801.18 451.617
1826 0 110.17 12.5987 1388 119.673 800.906 456.542
1827 1 62.0723 12.4049 770 111.994 800.808 477.426
1828 0 62.1486 11.4403 711 113.636 799.892 475.058
1829 0 65.1811 13.7156 894 115.52 799.842 473.511
1830 0 66.0836 13.4224 887 122.901 799.681 473.85
1831 0 68.0934 13.2465 902 123.154 799.848 472.562
1832 0 70.117 14.3474 1006 119.824 799.943 471.782
1833 0 72.2176 14.5394 1050 120.431 799.811 469.55
1834 0 76.2148 13.1208 1000 122.965 799.69 467.438
1835 0 77.1687 13.1271 1013 123.763 800.175 465.819
1836 0 79.1858 15.1795 1202 118.325 799.514 467.58
1837 0 82.2357 13.7775 1133 123.316 800.358 462.038
1838 0 85.2113 14.376 1225 121.444 800.119 464.778
1839 0 87.2324 13.3551 1165 125.312 799.998 460.367
1840 0 89.2098 14.6845 1310 122.471 799.931 460.185
1841 0 93.3306 14.2397 1329 123.149 799.897 458.682
1842 0 95.392 14.3932 1373 123.668 800.42 456.546
1843 0 94.2859 13.2469 1249 128.09 800.406 453.649
1844 0 99.1527 14.039 1392 120.888 799.594 456.668
1845 0 102.21 13.4136 1371 123.236 800.054 454.101
1846 0 106.2 13.8606 1472 121.785 800.268 453.207
1847 0 109.21 13.7899 1506 122.02 800.218 451.029
1848 0 113.254 14.1275 1600 118.81 800.937 451.41
1849 0 115.403 13.1019 1512 122.81 800.732 446.697
1850 0 119.208 14.2272 1696 120.541 800.422 447.721
1851 0 123.314 14.0779 1736 121.35 799.665 446.779
1852 1 70.0921 12.1554 852 119.915 800.009 472.534
1853 0 72.0923 13.3301 961 119.717 799.133 470.164
1854 0 76.1042 14.0071 1066 121.088 799.626 458.404
1855 0 78.1372 13.7322 1073 125.892 800.099 449.737
1856 0 80.061 13.9394 1116 125.871 799.668 449.201
1857 0 82.0939 12.7293 1045 129.652 799.268 451.085
1858 0 86.0916 12.8932 1110 127.545 799.537 454.133
1859 0 88.0965 14.0301 1236 125.222 799.824 453.778
1860 0 90.2022 13.6915 1235 125.608 799.628 457.64
1861 0 90.0572 12.8141 1154 130.393 799.322 448.493
1862 0 93.0897 12.923 1203 130.382 799.522 445.264
1863 0 98.0802 14.4066 1413 126.001 799.743 446.751
1864 0 99.071 13.667 1354 129.642 799.944 441.746
1865 0 102.03 13.006 1327 130.658 800.554 444.07
1866 0 104.125 13.311 1386 130.287 799.805 445.404
1867 0 108.145 13.186 1426 129.192 799.966 448.837
1868 0 112.168 14.6388 1642 124.967 800.574 449.633
1869 0 114.167 13.6204 1555 127.564 799.781 449.61
1870 0 120.12 14.8185 1780 123.039 799.794 447.557
1871 0 123.169 13.794 1699 125.447 799.911 444.473
1872 0 129.151 14.6341 1890 120.728 800.27 441.678
1873 1 68.0237 13.2601 902 115.527 799.44 472.855
1874 0 68.0639 12.0181 818 119.561 799.535 472.989
1875 0 71.1264 12.3583 879 122.336 800.662 470.966
1876 0 74.1005 12.5235 928 123.015 799.429 470.002
1877 0 77.0936 13.4641 1038 120.133 799.542 468.667
1878 0 78.0985 12.8812 1006 122.29 800.353 466.634
1879 0 82.0972 13.8616 1138 119.319 799.815 465.331
1880 0 83.1842 12.6827 1055 122.817 799.895 464.271
1881 0 85.0897 10.9414 931 127.803 799.661 461.248
1882 0 89.1201 14.2953 1274 119.508 799.929 459.531
1883 0 90.1452 14.1438 1275 120.589 799.821 458.781
1884 0 94.1388 13.4482 1266 121.932 800.381 459.411
1885 0 96.1418 14.0106 1347 121.452 800.166 456.247
1886 0 100.13 14.1616 1418 120.452 800.104 457.235
1887 0 103.143 15.0761 1555 118.071 800.599 455.907
1888 0 107.124 13.9464 1494 119.681 799.859 454.052
1889 0 108.096 12.4334 1344 124.86 799.973 451.237
1890 0 113.205 13.957 1580 120.173 799.826 449.4
1891 0 116.185 13.7454 1597 119.887 800.824 451.019
1892 1 64.1564 10.8641 697 115.095 799.73 473.534
1893 0 66.15 11.8367 783 111.391 799.631 472.381
1894 0 69.0379 12.6452 873 111.764 799.631 471.885
1895 0 72.0984 13.0239 939 115.234 799.976 470.491
1896 0 76.0619 13.7257 1044 114 800.158 466.031
1897 0 77.043 12.9278 996 116.138 799.648 467.737
1898 0 80.0915 12.4607 998 116.282 799.911 468.241
1899 0 83.076 12.4103 1031 118.345 799.903 464.806
1900 0 86.065 12.1652 1047 120.154 799.689 455.666
1901 0 91.0586 15.0453 1370 112.639 799.485 453.498
1902 0 91.1402 13.8029 1258 115.71 799.285 461.183
1903 0 94.0951 12.9125 1215 118.333 799.071 459.759
1904 0 98.0358 14.8007 1451 113.641 799.779 458.447
1905 0 101.111 13.7967 1395 117.016 799.767 455.01
1906 0 102.125 12.5826 1285 121.728 799.658 442.285
1907 0 106.152 13.9046 1476 117.875 799.623 446.262
1908 0 109.095 13.2086 1441 121.146 800.143 444.84
1909 0 113.156 13.7155 1552 118.889 800.177 451.692
1910 0 117.094 13.2117 1547 119.904 800.343 451.165
1911 0 120.108 13.2465 1591 118.512 799.583 447.657
1912 0 126.174 13.4734 1700 119.361 799.834 446.182
1913 1 70.0565 10.8341 759 120.514 799.908 469.117
1914 0 73.1136 11.2291 821 118.41 801.022 471.643
1915 0 77.081 13.3755 1031 115.294 799.758 460.443
1916 0 78.17 12.1402 949 117.683 799.933 466.08
1917 0 79.1138 12.5136 990 118.141 800.029 462.531
1918 0 85.1293 13.3679 1138 114.677 800.087 462.863
1919 0 88.2665 14.3882 1270 114.058 799.777 450.319
1920 0 91.2023 12.7738 1165 118.033 800.264 450.367
1921 0 94.2154 13.8619 1306 116.195 799.763 447.821
1922 0 96.3415 13.9919 1348 117.131 799.645 446.526
1923 0 99.2608 13.6005 1350 117.207 800 449.843
1924 0 102.166 13.6738 1397 117.875 799.934 449.931
1925 0 104.312 12.7693 1332 120.449 799.734 452.622
1926 0 108.203 13.179 1426 119.892 799.987 451.105
1927 0 110.195 13.8119 1522 119.754 799.949 447.938
1928 0 113.23 13.371 1514 120.552 800.707 451.042
1929 0 117.201 13.5921 1593 119.286 800.594 448.579
1930 0 122.237 12.2386 1496 116.797 800.428 447.989
1931 0 126.199 13.8511 1748 112.768 800.419 443.788
1932 1 68.1382 10.6255 724 112.961 800.497 472.967
1933 0 72.1141 12.1197 874 111.483 800.299 471.035
1934 0 75.0441 13.6586 1025 117.063 800.766 468.11
1935 0 78.0506 12.825 1001 119.745 800.211 468.864
1936 0 80.1185 13.2179 1059 118.593 800.351 466.529
1937 0 82.0822 12.5728 1032 121.368 800.499 465.696
1938 0 84.0378 13.6724 1149 120.258 800.211 463.929
1939 0 87.1022 13.2603 1155 123.268 799.814 452.72
1940 0 88.1599 12.3526 1089 126.343 800.14 452.569
1941 0 93.2181 13.3665 1246 123.467 799.829 453.78
1942 0 96.1692 13.601 1308 124.776 799.888 453.432
1943 0 95.1461 13.474 1282 125.257 799.886 457.88
1944 0 101.291 14.7594 1495 120.308 800.426 460.381
1945 0 104.311 13.7666 1436 122.597 800.357 459.549
1946 0 106.173 13.4215 1425 124.895 800.858 456.534
1947 0 110.213 13.0928 1443 126.632 800.852 451.222
1948 0 113.121 14.5154 1642 124.509 800.551 437.769
1949 0 114.257 13.5835 1552 127.05 799.557 433.407
1950 0 118.405 13.3441 1580 129.449 799.082 433.928
1951 0 122.188 13.8639 1694 128.698 800.211 425.805
1952 0 125.188 14.3864 1801 126.868 800.062 428.851
1953 1 69.1374 10.2983 712 128.92 799.761 463.098
1954 0 73.1118 12.3236 901 125.67 800.107 449.727
1955 0 73.0934 11.9299 872 125.626 800.237 456.523
1956 0 78.1188 13.4795 1053 123.618 800.677 456.111
1957 0 78.1731 13.726 1073 125.806 801.169 453.682
1958 0 83.0833 13.2277 1099 124.473 801.381 456.067
1959 0 86.0886 14.0669 1211 127.749 800.42 453.946
1960 0 86.2814 13.1662 1136 131.284 800.623 457.618
1961 0 89.1448 14.4708 1290 128.436 800.536 449.315
1962 0 92.1968 14.469 1334 127.422 800.241 450.686
1963 0 94.0908 13.5401 1274 131.727 800.335 446.199
1964 0 97.1293 14.6815 1426 128.423 800.135 448.499
1965 0 100.164 13.4879 1351 130.633 800.771 449.633
1966 0 103.129 14.797 1526 127.235 801.213 447.932
1967 0 106.118 14.4555 1534 128.148 800.76 450.104
1968 0 107.138 13.3286 1428 131.915 800.748 449.744
1969 0 110.14 13.7825 1518 130.292 800.965 448.252
1970 0 115.168 15.0563 1734 126.085 801.187 447.486
1971 0 118.124 13.8922 1641 129.108 801.68 445.308
1972 0 122.174 13.71 1675 128.825 801.105 445.214
1973 0 127.188 14.396 1831 126.37 801.444 443.273
1974 0 131.308 13.0838 1718 128.388 801.912 440.781
1975 1 71.2196 12.651 901 126.004 800.9 469.469
1976 0 73.274 13.006 953 126.308 800.529 459.974
1977 0 77.1345 15.272 1178 121.523 800.376 458.059
1978 0 79.1191 14.5224 1149 124.445 800.608 458.786
1979 0 80.1079 13.2821 1064 128.386 800.992 460.617
1980 0 85.1882 13.3352 1136 125.615 801.518 465.952
1981 0 87.1646 15.27 1331 121.655 800.824 462.382
1982 0 89.1759 15.8115 1410 120.865 800.81 460.313
1983 0 92.2732 13.3408 1231 127.559 800.505 458.379
1984 0 93.1108 14.327 1334 127.053 800.076 454.693
1985 0 96.1556 13.8317 1330 128.915 800.047 454.352
1986 0 100.12 14.173 1419 127.988 800.223 453.536
1987 0 103.124 15.4766 1596 125.574 800.291 448.955
1988 0 107.15 15.0163 1609 126.235 799.694 448.73
1989 0 110.157 14.2524 1570 127.496 800.484 448.334
1990 0 116.159 15.4616 1796 123.673 801.111 444.584
1991 0 120.513 13.7911 1662 127.797 800.543 443.116
1992 1 65.3108 11.6673 762 130.971 800.067 466.297
1993 0 68.2396 12.2803 838 129.71 800.049 466.993
1994 0 70.1426 13.8147 969 126.41 800.423 466.507
1995 0 72.0831 13.6648 985 127.671 800.739 464.786
1996 0 79.0925 14.0848 1114 124.504 800.099 460.009
1997 0 79.0842 13.1505 1040 130.031 799.974 459.631
1998 0 82.1105 13.7985 1133 127.981 800.647 456.645
1999 0 83.2111 13.8443 1152 129.245 800.904 456.509
2000 0 88.1376 14.3185 1262 126.763 800.936 458.531
2001 0 90.1016 13.5847 1224 129.913 800.703 457.435
2002 0 93.192 14.454 1347 128.251 800.973 454.214
2003 0 95.0437 13.2991 1264 131.181 800.785 453.951
2004 0 99.083 13.8773 1375 128.772 799.804 452.187
2005 0 99.1728 12.9169 1281 131.404 800.723 454.112
2006 0 104.102 13.5925 1415 129.647 799.671 450.553
2007 0 109.086 13.8606 1512 127.58 800.557 448.695
2008 0 112.228 13.9805 1569 126.328 800.693 448.527
2009 0 118.151 13.415 1585 127.498 801.436 446.393
2010 1 63.0061 12.5543 791 126.576 800.445 469.799
2011 0 67.0441 12.6782 850 126.751 800.364 468.458
2012 0 69.0475 12.2524 846 128.671 801.142 469.037
2013 0 70.0541 13.1613 922 126.57 800.975 468.027
2014 0 73.1695 12.7649 934 127.779 801.043 466.596
2015 0 76.0676 12.9753 987 127.608 801.008 464.917
2016 0 79.091 13.9586 1104 123.544 800.441 462.692
2017 0 82.1797 13.2393 1088 125.239 801.146 463.288
2018 0 84.0771 12.8691 1082 127.664 800.616 459.408
2019 0 84.1165 13.41 1128 127.427 800.437 455.848
2020 0 89.1024 12.7045 1132 128.08 800.044 457.031
2021 0 93.1583 14.0084 1305 122.965 800.307 454.23
2022 0 94.1123 13.2289 1245 125.969 799.722 453.598
2023 0 93.163 11.6892 1089 131.206 799.701 450.782
2024 0 101.084 13.9982 1415 122.592 800.387 450.444
2025 0 104.374 13.5667 1416 123.459 800.33 451.163
2026 0 106.097 13.516 1434 122.6 800.123 448.402
2027 0 112.148 13.4822 1512 122.343 799.993 446.106
2028 0 117.093 13.28 1555 123.077 800.335 445.115
2029 0 121.154 13.2146 1601 121.475 800.415 440.926
2030 0 126.08 14.3164 1805 117.406 800.255 437.228
2031 1 68.1522 11.445 780 119.35 799.888 465.3
2032 0 72.0566 11.7408 846 119.839 800.296 463.788
2033 0 78.0781 12.257 957 120.696 799.837 460.579
2034 0 77.0694 11.1069 856 124.789 799.925 462.418
2035 0 84.1213 13.3498 1123 121.009 799.768 441.776
2036 0 86.1231 12.5518 1081 123.395 799.802 442.506
2037 0 92.2649 13.212 1219 120.429 799.354 445.485
2038 0 91.1526 12.4407 1134 124.761 800.167 445.801
2039 0 94.1892 13.1968 1243 123.975 800.559 448.951
2040 0 96.1517 12.8339 1234 126.255 800.806 449.759
2041 0 98.1305 12.5751 1234 128.105 800.927 451.793
2042 0 100.178 12.2782 1230 130.068 800.636 451.627
2043 0 106.176 13.7319 1458 125.456 800.429 451.055
2044 0 105.14 13.4203 1411 127.49 799.974 449.668
2045 0 108.188 12.885 1394 128.997 799.572 445.423
2046 0 114.117 14.6428 1671 123.807 799.703 446.026
2047 0 119.39 13.7365 1640 125.984 800.232 447.652
2048 0 117.213 12.4047 1454 133.695 800.088 441.884
2049 0 124.191 13.0122 1616 131.503 801.152 440.853
2050 0 128.251 13.4658 1727 131.826 800.797 439.938
2051 1 75.0406 11.687 877 127.46 800.489 466.85
2052 0 77.1269 12.3303 951 130.342 799.849 467.671
2053 0 80.1758 12.9465 1038 133.417 800.246 458.588
2054 0 83.0641 13.2548 1101 132.892 800.486 458.424
2055 0 86.1281 13.4335 1157 133.887 800.2 454.589
2056 0 88.169 13.3607 1178 132.362 799.784 462.871
2057 0 90.2134 12.803 1155 136.339 799.36 457.777
2058 0 95.3563 14.0526 1340 131.822 799.321 450.315
2059 0 98.2277 13.1531 1292 134.005 799.395 452.825
2060 0 98.2313 13.2239 1299 135.278 799.403 452.179
2061 0 105.347 14.6848 1547 127.618 799.718 454.072
2062 0 106.229 13.019 1383 133.482 800.104 453.308
2063 0 110.482 13.0157 1438 135.49 800.114 449.889
2064 0 113.323 14.1895 1608 133.262 800.148 447.096
2065 0 118.594 13.6685 1621 134.093 800.589 447.563
2066 0 119.385 12.3633 1476 136.791 799.995 442.064
2067 1 66.1601 10.8222 716 127.307 799.806 472.566
2068 0 67.0756 11.3007 758 123.198 800.573 474.869
2069 0 71.349 12.8383 916 134.499 799.755 466.316
2070 0 71.3273 11.7767 840 140.67 799.914 463.98
2071 0 75.1861 13.553 1019 134.154 799.898 463.951
2072 0 79.2185 13.7089 1086 132.689 800.527 459.045
2073 0 80.3752 12.6283 1015 136.592 800.46 457.113
2074 0 84.5124 13.3353 1127 133.594 800.569 460.581
2075 0 84.2716 12.7564 1075 137.217 801.059 460.669
2076 0 86.1908 13.2149 1139 135.945 800.888 457.809
2077 0 90.2867 13.6676 1234 132.995 800.105 456.135
2078 0 92.3573 12.3217 1138 137.167 799.545 457.763
2079 0 97.3399 13.2833 1293 132.966 799.98 457.838
2080 0 99.3877 12.8889 1281 134.477 800.012 453.629
2081 0 101.25 12.9185 1308 133.345 800.037 454.022
2082 0 106.232 13.0563 1387 133.547 799.92 452.256
2083 0 108.443 13.3342 1446 132.728 800.177 448.969
2084 0 113.196 13.0658 1479 134.59 800.207 446.045
2085 1 61.346 10.4326 640 125.541 800.6 475.997
2086 0 64.2594 11.6403 748 130.548 799.694 471.956
2087 0 66.2907 12.4301 824 127.097 800.365 472.181
2088 0 69.3703 12.6423 877 126.016 800.255 469.457
2089 0 72.3274 12.001 868 125.498 800.755 469.092
2090 0 74.2356 11.8003 876 126.796 800.997 468.291
2091 0 73.3337 11.9045 873 128.262 800.785 466.039
2092 0 79.1929 11.7687 932 127.333 800.765 465.342
2093 0 80.351 11.8356 951 128.758 800.722 462.225
2094 0 82.3592 12.0084 989 129.014 801.217 460.916
2095 0 87.3846 12.8398 1122 126.185 801.316 460.774
2096 0 88.3384 12.8483 1135 126.699 801.574 460.841
2097 0 91.2065 13.0364 1189 126.403 801.791 460.389
2098 0 93.2086 12.7671 1190 129.278 800.806 455.717
2099 0 97.3674 13.0228 1268 127.946 800.676 454.737
2100 0 99.3844 11.7926 1172 132.528 799.736 453.47
2101 0 101.276 12.5203 1268 129.991 800.502 451.842
2102 0 105.331 13.3769 1409 129.331 800.001 448.172
2103 0 107.299 13.439 1442 129.029 800.335 450.311
2104 0 110.427 12.1619 1343 133.06 800.381 446.475
2105 0 115.493 13.6632 1578 129.061 800.173 445.933
2106 0 116.321 12.6375 1470 133.068 800.424 443.404
2107 0 121.428 12.7154 1544 132.687 799.92 440.921
2108 0 127.322 13.5483 1725 129.227 799.97 437.794
2109 0 132.517 13.5681 1798 128.111 800.161 438.936
2110 1 72.2613 12.1919 881 124.133 800.398 468.421
2111 0 72.2472 12.2219 883 132.3 800.382 468.412
2112 0 75.2284 12.8542 967 127.428 799.967 463.195
2113 0 78.3217 12.0273 942 127.714 800.092 463.259
2114 0 82.285 12.6998 1045 126.177 800.393 462.297
2115 0 84.165 11.7983 993 129.12 800.454 460.412
2116 0 87.3581 11.7562 1027 130.259 799.951 456.322
2117 0 89.2481 13.2216 1180 127.061 799.899 456.145
2118 0 92.2056 12.8951 1189 128.522 800.459 454.927
2119 0 96.2892 13.2414 1275 127.357 799.859 453.565
2120 0 99.4036 13.6917 1361 127.295 799.902 450.297
2121 0 101.333 11.7632 1192 132.836 800.528 451.225
2122 0 104.407 11.9149 1244 132.899 800.654 449.666
2123 0 108.421 13.7335 1489 128.198 800.733 447.238
2124 0 111.361 12.006 1337 132.675 801.229 447.425
2125 0 115.319 14.0566 1621 127.48 800.928 444.893
2126 0 117.197 13.2597 1554 129.795 800.213 445.94
2127 0 120.233 12.01 1444 134.402 800.627 441.823
2128 0 128.262 13.2307 1697 129.08 800.484 441.524
2129 0 131.239 13.3802 1756 130.021 799.792 436.83
2130 0 139.381 14.7438 2055 129.576 798.888 432.839
2131 0 143.203 12.9048 1848 135.728 798.794 432.62
2132 0 148.239 14.4294 2139 131.021 798.703 429.334
2133 1 83.2285 12.9763 1080 126.326 798.9 459.789
2134 0 86.3215 11.8974 1027 127.847 798.731 459.176
2135 0 88.3993 12.5227 1107 125.469 799.453 457.297
2136 0 91.2041 12.1815 1111 123.442 799.729 459.3
2137 0 91.1235 10.6229 968 127.341 799.757 458.304
2138 0 96.1432 11.6701 1122 124.731 800.284 453.645
2139 0 96.2216 11.3072 1088 126.532 799.584 451.105
2140 0 102.207 12.1714 1244 122.736 799.79 451.27
2141 0 104.241 11.79 1229 124.278 798.998 449.277
2142 0 108.213 11.3942 1233 123.192 799.224 451.419
2143 0 111.097 11.4135 1268 121.575 799.245 449.857
2144 0 115.087 11.4174 1314 123.078 799.11 444.608
2145 0 119.286 12.097 1443 120.353 798.892 445.784
2146 0 124.196 11.7959 1465 121.362 798.988 441.179
2147 1 70.0946 9.47291 664 107.592 797.788 471.286
2148 0 72.2083 9.70803 701 108.066 798.014 469.385
2149 0 73.1411 11.553 845 118.083 798.967 459.963
2150 0 76.3642 11.3666 868 120.684 798.933 459.187
2151 0 80.2405 12.1759 977 118.766 799.029 455.845
2152 0 81.3354 11.6186 945 121.327 799.528 455.669
2153 0 84.3073 12.2291 1031 119.376 799.472 456.186
2154 0 85.3368 11.6831 997 121.853 799.459 456.716
2155 0 90.2796 12.4834 1127 120.037 799.177 453.964
2156 0 91.2828 11.7985 1077 122.614 799.513 451.946
2157 0 94.3259 12.7113 1199 120.385 799.335 454.957
2158 0 96.3162 12.677 1221 120.423 800.189 456.09
2159 0 99.3916 12.8985 1282 120.779 799.935 453.258
2160 0 101.402 12.5244 1270 122.45 799.75 451.255
2161 0 106.5 11.9999 1278 116.883 798.49 449.084
2162 0 108.118 11.6169 1256 116.171 799.299 454.558
2163 0 111.279 12.4552 1386 115.442 799.755 450.132
2164 0 116.196 10.4565 1215 119.102 799.356 447.243
2165 0 118.177 10.5943 1252 120.071 799.449 445.867
2166 1 70.1401 10.864 762 103.252 799.451 475.672
2167 0 72.1547 10.4359 753 107.327 799.252 471.738
2168 0 74.1154 9.6741 717 115.858 797.375 468.901
2169 0 75.0788 10.0295 753 116.928 798.918 466.583
2170 0 79.657 10.8967 868 121.304 798.507 462.498
2171 0 84.4649 12.6798 1071 115.959 798.814 463.824
2172 0 84.3813 10.4288 880 122.583 798.312 462.444
2173 0 88.5244 13.6121 1205 115.661 798.92 460.558
2174 0 91.5748 12.7218 1165 117.838 799.372 457.038
2175 0 93.4107 11.9686 1118 120.996 799.344 456.501
2176 0 95.3911 11.3533 1083 123.113 799.119 455.37
2177 0 99.5078 12.9638 1290 120.069 799.533 452.493
2178 0 104.545 14.501 1516 116.05 799.689 451.728
2179 0 105.374 11.9858 1263 124.3 799.521 447.298
2180 1 62.4442 10.3292 645 118.915 799.22 471.639
2181 0 64.4511 10.9385 705 107.695 800.155 471.867
2182 0 65.3614 12.515 818 104.414 800.104 471.983
2183 0 68.2563 12.4238 848 115.37 798.868 475.894
2184 0 68.3015 11.3028 772 119.852 798.565 472.812
2185 0 70.39 13.1553 926 116.301 799.863 472.302
2186 0 71.1874 11.2801 803 122.582 799.802 469.766
2187 0 75.4944 13.3917 1011 115.344 799.807 471.615
2188 0 77.3987 11.7831 912 121.447 799.069 466.863
2189 0 80.5063 12.4586 1003 120.308 799.075 466.349
2190 0 81.4983 12.7365 1038 120.877 799.898 465.395
2191 0 82.3721 12.832 1057 121.087 799.472 464.903
2192 0 84.5494 12.8682 1088 123.029 799.154 461.081
2193 0 87.4748 13.1924 1154 122.794 799.255 460.932
2194 0 88.3778 12.5145 1106 125.936 799.698 459.168
2195 0 92.616 11.6395 1078 128.221 799.619 456.818
2196 0 94.6393 12.2042 1155 128.15 798.758 455.335
2197 0 97.7173 13.0274 1273 126.323 798.986 454.631
2198 0 101.645 13.7537 1398 124.348 798.925 452.137
2199 0 104.651 13.6931 1433 125.029 798.74 452.084
2200 0 106.552 12.6417 1347 129.302 798.99 448.005
2201 0 109.547 12.5334 1373 130.052 799.272 446.777
2202 0 114.526 13.2982 1523 126.965 799.809 447.747
2203 1 65.1477 10.2536 668 117.057 799.832 470.829
2204 0 69.1377 11.7881 815 116.643 799 460.07
2205 0 70.2046 11.7229 823 128.993 799.69 457.706
2206 0 72.1822 12.704 917 127.327 799.38 461.145
2207 0 73.11 12.9394 946 126.944 798.79 467.811
2208 0 75.1686 13.0241 979 126.59 799.226 468.617
2209 0 77.2251 12.7031 981 127.118 799.187 468.122
2210 0 81.3043 13.9845 1137 124.153 798.952 464.46
2211 0 82.4173 13.2375 1091 128.275 798.889 460.236
2212 0 82.3119 13.3516 1099 129.253 798.508 458.478
2213 0 86.151 12.2111 1052 125.28 799.189 455.263
2214 0 88.0942 12.2369 1078 124.811 798.881 455.348
2215 0 88.2427 11.6497 1028 127.64 799.002 451.564
2216 0 93.1026 12.4594 1160 124.411 799.478 448.722
2217 0 95.1716 12.4302 1183 124.403 799.743 447.6
2218 0 97.0941 12.39 1203 123.89 800.188 447.219
2219 0 103.273 13.7112 1416 119.516 800.304 448.983
2220 0 104.235 13.3641 1393 121.241 800.578 451.641
2221 0 106.154 12.2087 1296 124.302 799.89 452.938
2222 0 109.196 12.94 1413 122.186 799.25 447.991
2223 0 112.359 12.2464 1376 124.291 799.386 447.097
2224 0 116.243 13.2653 1542 122.16 798.93 447.996
2225 0 121.243 14.0132 1699 119.676 798.989 447.114
2226 0 123.365 14.4206 1779 119.257 799.561 444.661
2227 0 127.43 13.9449 1777 120.785 798.991 441.935
2228 0 132.271 14.1452 1871 121.513 799.12 439.625
2229 0 136.333 14.2885 1948 122.281 798.936 435.946
2230 0 140.35 14.5921 2048 121.847 798.898 432.458
2231 1 80.1249 11.3198 907 118.271 798.527 464.198
2232 0 84.189 12.4363 1047 117.843 798.573 463.645
2233 0 85.0863 12.6225 1074 120.752 798.98 462.722
2234 0 89.1222 13.3749 1192 123.324 799.155 445.521
2235 0 93.111 13.6182 1268 122.058 799.029 438.808
2236 0 96.1836 15.2729 1469 118.551 798.617 440.69
2237 0 98.2258 13.4995 1326 122.219 798.575 443.69
2238 0 98.2479 12.4685 1225 126.208 799.18 444.246
2239 0 103.253 15.2732 1577 117.595 798.79 445.477
2240 0 105.3 14.7103 1549 120.386 798.385 444.316
2241 0 108.267 14.4365 1563 120.835 797.532 445.936
2242 0 110.221 13.7451 1515 121.427 798.969 450.526
2243 0 114.314 14.6964 1680 118.35 799.345 453.204
2244 0 116.351 15.754 1833 117.038 799.129 448.235
2245 0 119.295 13.8899 1657 121.515 798.541 448.561
2246 0 122.2 14.1653 1731 121.235 798.67 445.031
2247 0 128.214 14.4836 1857 120.142 799.262 443.546
2248 0 133.253 16.2698 2168 115.083 799.311 442.267
2249 0 135.248 13.8856 1878 121.612 799.883 443.368
2250 1 75.0481 9.44728 709 120.697 800.093 471.171
2251 0 80.1096 12.8075 1026 113.667 800.582 467.855
2252 0 83.0768 14.3963 1196 117.442 799.112 468.176
2253 0 83.0892 12.4926 1038 123.771 799.758 466.88
2254 0 89.1186 13.5886 1211 119.951 798.467 465.154
2255 0 90.0334 14.1281 1272 120.654 799.528 463.351
2256 0 94.0807 13.5628 1276 121.754 799.617 464.132
2257 0 96.0745 13.4479 1292 122.289 799.056 464.435
2258 0 99.1054 14.2071 1408 121.928 798.45 460.834
2259 0 103.118 14.5755 1503 119.71 799.333 462.878
2260 0 104.09 13.8246 1439 122.171 799.477 463.278
2261 0 107.142 13.3188 1427 124.44 799.379 461.968
2262 0 109.113 13.4814 1471 118.661 798.777 462.555
2263 0 114.149 14.4198 1646 122.148 798.948 461.697
2264 0 119.106 13.3159 1586 121.084 798.48 461.308
2265 0 123.088 12.8201 1578 122.197 798.349 460.018
2266 1 69.098 13.3434 922 120.618 797.387 485.143
2267 0 71.0989 13.5867 966 117.093 796.87 486.127
2268 0 73.1101 13.5412 990 123.942 797.03 483.711
2269 0 76.0545 14.2529 1084 121.472 795.684 484.458
2270 0 78.095 12.8689 1005 126.797 797.139 481.384
2271 0 82.0521 14.7345 1209 122.007 796.585 480.954
2272 0 83.108 13.0192 1082 127.477 796.461 480.681
2273 0 86.1246 13.9449 1201 126.221 795.825 477.886
2274 0 89.1677 15.2073 1356 123.322 795.489 477.148
2275 0 91.1921 13.4113 1223 129.433 794.911 475.398
2276 0 94.1409 14.797 1393 126.696 794.899 474.243
2277 0 98.2556 14.0348 1379 129.807 794.5 469.226
2278 0 99.2598 14.4369 1433 131.1 794.079 466.422
2279 0 101.298 13.5837 1376 134.975 794.09 462.182
2280 0 105.325 15.2386 1605 127.888 794.126 463.059
2281 0 108.294 14.8116 1604 130.313 793.386 461.55
2282 0 110.232 14.7597 1627 129.448 793.597 461.958
2283 0 116.274 14.8786 1730 130.691 793.131 459.324
2284 0 119.143 15.0827 1797 131.187 793.318 454.633
2285 0 123.26 14.66 1807 132.933 793.474 449.86
2286 0 128.298 15.2068 1951 132.076 793.438 448.38
2287 0 132.27 15.0299 1988 131.851 793.162 450.599
2288 1 145.205 21.6935 3150 110.59 792.296 437.778
2289 0 149.164 18.9188 2822 117.94 792.568 433.94
2290 1 77.2941 12.1743 941 130.795 793.541 481.107
2291 0 80.1509 13.0753 1048 130.413 793.208 478.99
2292 0 84.1549 14.6991 1237 128.741 793.18 474.253
2293 0 91.2124 18.6268 1699 115.347 794.119 469.185
2294 0 93.2041 18.54 1728 116.531 793.672 468.275
2295 0 92.2186 14.9319 1377 128.8 793.998 472.534
2296 0 96.2179 14.5711 1402 128.026 794.557 472.53
2297 0 98.1801 13.2613 1302 132.55 794.759 468.584
2298 0 103.129 14.2346 1468 128.178 794.413 468.396
2299 0 106.294 13.7261 1459 127.683 794.422 465.612
2300 0 108.242 13.9687 1512 127.224 794.299 461.938
2301 0 111.283 14.2789 1589 125.342 794.406 463.001
2302 0 115.2 13.3681 1540 127.789 794.292 460.903
2303 0 120.329 13.8537 1667 126.287 794.028 458.628
2304 0 122.193 13.5359 1654 128.398 793.755 453.357
2305 0 127.16 13.8251 1758 126.66 794.41 453.01
2306 0 133.32 14.4764 1930 124.176 794.314 450.341
2307 0 139.267 13.8798 1933 125.863 794.238 448.202
2308 0 145.354 14.413 2095 124.376 793.533 446.524
2309 0 147.264 13.52 1991 127.516 793.132 445.269
2310 0 151.236 13.7534 2080 127.008 792.597 444.181
2311 0 159.188 14.9258 2376 124.064 792.459 437.525
2312 0 165.266 14.4071 2381 125.178 792.576 438.419
2313 0 169.246 13.5779 2298 127.53 793.061 434.418
2314 0 174.213 13.9485 2430 127.476 792.632 430.73
2315 0 180.259 13.9799 2520 127.374 792.84 429.318
2316 0 186.453 15.044 2805 125.688 792.187 427.065
2317 0 191.176 14.0918 2694 128.14 792.246 418.275
2318 0 198.217 14.0704 2789 128.107 792.247 418.864
2319 0 207.171 15.118 3132 126.075 792.463 411.909
2320 0 212.446 15.6651 3328 127.061 792.639 410.013
2321 0 219.156 15.5597 3410 128.129 792.465 405.683
2322 1 52.0676 12.3685 644 117.056 793.495 488.728
2323 0 54.1735 11.98 649 117.724 792.806 487.798
2324 0 57.0855 13.0156 743 114.641 793.046 487.47
2325 0 56.1315 12.5776 706 118.647 793.344 484.431
2326 0 58.2534 11.4671 668 121.081 793.672 483.284
2327 0 57.222 11.6214 665 140.98 793.677 483.238
2328 0 63.3126 12.6673 802 117.485 793.121 484.579
2329 0 65.0667 13.3555 869 117.125 793.224 481.086
2330 0 66.1494 12.3055 814 119.047 793.633 484.162
2331 0 69.2083 13.0042 900 119.276 793.948 478.461
2332 0 69.0996 12.9813 897 118.043 794.122 482.276
2333 0 73.1625 13.4085 981 117.21 793.523 477.931
2334 0 73.2637 12.8304 940 118.888 794.437 475.823
2335 0 78.2097 12.8373 1004 118.207 793.626 475.153
2336 0 78.1864 12.726 995 120.141 793.755 472.747
2337 0 79.2389 12.3803 981 121.071 793.587 473.123
2338 0 81.3501 13.1407 1069 120.1 793.498 465.904
2339 0 90.5286 15.3874 1393 110.986 793.522 456.774
2340 0 99.6452 19.0978 1903 97.494 793.775 449.181
2341 0 95.2805 15.1028 1439 112.974 794.269 452.778
2342 0 96.3663 13.843 1334 117.072 794.201 455.694
2343 0 100.327 15.1405 1519 113.519 794.463 451.486
2344 0 419.278 13.2227 5544 126.81 795.069 289.468
2345 1 53.2845 11.0351 588 113.1 794.813 476.76
2346 0 55.1475 10.2271 564 112.275 795.746 477.278
2347 0 56.1729 11.9809 673 112.143 795.178 478.034
2348 0 63.1809 15.0678 952 104.301 795.321 474.217
2349 0 71.3181 17.3168 1235 93.0032 794.887 468.365
2350 0 70.4086 17.9807 1266 90.6145 795.049 463.424
2351 0 72.4251 13.9178 1008 101.794 795.545 467.951
2352 0 72.2857 14.8715 1075 99.6633 795.462 464.849
2353 0 73.3037 19.0168 1394 90.7963 796.29 460.824
2354 0 69.4247 14.116 980 107.478 796.572 465.894
2355 0 72.2205 14.8573 1073 106.1 796.499 464.339
2356 0 74.321 14.2894 1062 107.722 796.654 463.965
2357 0 72.5134 12.0943 877 116.416 795.989 463.897
2358 0 74.3942 14.114 1050 111.513 796.257 462.843
2359 0 78.3348 13.7359 1076 112.405 796.845 461.736
2360 0 78.4092 12.7536 1000 116.668 796.855 459.774
2361 0 80.3614 12.0207 966 117.232 796.956 460.641
2362 0 82.1384 13.5138 1110 115.095 796.29 458.87
2363 0 84.2628 13.9207 1173 114.784 796.555 456.806
2364 0 87.3068 12.8741 1124 117.969 796.617 454.881
2365 0 91.2362 13.2294 1207 117.867 796.314 454.094
2366 0 94.3664 12.8965 1217 118.534 796.561 453.627
2367 0 96.454 13.2291 1276 117.955 796.952 451.154
2368 0 99.354 12.9839 1290 118.809 797.006 449.046
2369 0 103.445 14.1622 1465 116.441 796.575 449.317
2370 0 105.249 12.9028 1358 119.742 796.398 447.041
2371 0 110.356 13.257 1463 117.976 796.507 445.384
2372 0 112.499 12.8979 1451 119.316 796.974 444.225
2373 0 115.269 12.4752 1438 121.015 797.4 442.687
2374 0 122.316 13.7431 1681 118.885 797.271 439.249
2375 1 72.2714 10.5436 762 118.311 797.72 462.891
2376 0 73.1118 11.6534 852 117.12 797.398 458.469
2377 0 76.1682 11.9998 914 116.505 797.136 459.954
2378 0 79.1942 11.3392 898 117.722 797.363 458.908
2379 0 81.1623 12.284 997 115.838 797.287 457.589
2380 0 84.1485 10.7429 904 120.159 797.364 453.416
2381 0 87.1672 12.2408 1067 114.798 797.246 455.967
2382 0 87.1975 12.4774 1088 115.722 797.78 453.475
2383 0 93.2435 12.9982 1212 113.961 797.796 450.593
2384 0 94.1231 11.7506 1106 118.425 798.032 446.506
2385 0 98.1136 12.6588 1242 116.672 797.816 444.097
2386 0 104.223 12.3965 1292 116.324 798.089 445.289
2387 0 105.189 12.9101 1358 115.441 798.757 445.842
2388 0 109.188 11.6954 1277 119.026 798.62 441.854
2389 0 114.199 12.0842 1380 117.249 798.364 441.846
2390 0 122.336 12.9561 1585 116.213 798.489 436.606
2391 1 63.1652 10.6388 672 114.542 797.729 465.085
2392 0 61.1379 9.94474 608 117.965 797.546 464.414
2393 0 64.1858 11.4356 734 113.249 796.993 465.053
2394 0 67.0956 10.6266 713 114.989 797.756 462.721
2395 0 66.2231 10.2532 679 117.739 797.919 461.401
2396 0 71.1175 10.3491 736 115.87 798.147 461.314
2397 0 71.2151 11.0229 785 115.425 797.762 459.299
2398 0 76.1968 11.654 888 112.793 797.564 459.684
2399 0 74.2278 11.788 875 115.067 796.857 457.942
2400 0 82.2027 11.423 939 114.733 797.511 456.345
2401 0 80.1572 10.6042 850 119.146 797.492 455.225
2402 0 85.1478 10.84 923 119.395 797.054 451.413
2403 0 89.0868 10.3831 925 119.499 797.249 453.36
2404 0 92.1222 11.2351 1035 119.074 797.948 448.758
2405 0 90.194 11.054 997 121.349 797.47 449.052
2406 0 88.1223 12.8231 1130 119.265 797.536 448.024
2407 1 100.208 12.524 1255 117.05 797.747 449.646
2408 0 103.273 13.0721 1350 115.81 797.742 447.267
2409 0 108.156 12.3525 1336 117.473 798.155 446.626
2410 0 112.17 13.5865 1524 115.907 797.921 441.809
2411 0 113.179 10.9208 1236 124.635 797.39 437.899
2412 0 116.146 12.4843 1450 121.501 797.616 437.428
2413 0 121.097 12.0977 1465 123.306 798.281 435.403
2414 0 123.114 12.5656 1547 123.071 798.14 434.312
2415 0 129.213 12.8393 1659 123.625 797.804 429.991
2416 0 132.199 13.3587 1766 123.707 797.74 428.154
2417 0 136.168 13.3511 1818 124.146 797.715 422.387
2418 0 137.268 13.0548 1792 126.641 797.789 420.362
2419 0 139.089 13.3439 1856 127.92 798.006 415.862
2420 0 148.22 13.3585 1980 127.31 797.693 418.197
2421 0 154.247 13.4136 2069 128.57 797.18 412.374
2422 0 159.291 13.7233 2186 128.304 797.258 409.108
2423 1 227.216 8.21686 1867 144.751 797.418 387.719
2424 0 219.187 10.7169 2349 138.693 797.503 388.984
2425 0 218.488 10.0234 2190 138.267 797.342 394.386
2426 0 225.215 7.86361 1771 139.667 797.814 398.35
2427 0 230.407 9.51792 2193 137.212 797.98 395.558
2428 0 225.314 7.62491 1718 136.704 797.839 407.744
2429 0 231.335 6.34146 1467 141.674 797.583 405.26
2430 0 229.204 7.16392 1642 139.189 798.286 407.612
2431 0 222.296 13.0772 2907 132.796 798.132 388.787
2432 0 232.286 13.5522 3148 131.566 797.448 384.931
2433 0 240.311 13.7655 3308 131.033 797.047 385.344
2434 0 247.426 13.0019 3217 135.568 797.122 375.009
2435 0 258.446 13.8249 3573 133.012 796.898 373.258
2436 0 265.427 13.3747 3550 132.454 798.147 371.246
2437 0 272.569 14.4184 3930 132.543 797.612 362.832
2438 0 283.368 14.0277 3975 133.831 797.17 363.173
2439 1 320.462 8.99951 2884 142.933 797.618 372.335
2440 0 318.517 9.01991 2873 148.77 797.559 356.324
2441 0 322.9 22.7593 7349 112.788 797.698 330.675
2442 0 323.688 15.8115 5118 135.149 797.839 335.985
2443 0 331.789 15.6998 5209 135.799 797.356 325.575
2444 0 344.659 18.1339 6250 130.608 797.469 323.663
2445 0 354.605 16.0319 5685 138.445 797.02 312.688
2446 0 368.766 15.4597 5701 139.983 797.252 312.058
2447 0 380.85 16.156 6153 136.655 796.724 308.306
2448 0 390.77 14.7325 5757 141.853 796.95 293.177
2449 0 406.666 16.0082 6510 138.265 796.848 289.231
2450 0 405.863 14.6922 5963 143.578 797.223 288.097
2451 0 397.412 24.1488 9597 105.652 798.588 276.928
2452 0 399.267 26.8066 10703 101.704 798.903 271.092
2453 0 397.53 26.0634 10361 106.149 797.606 269.294
2454 0 390.554 15.0504 5878 141.185 796.8 292.378
2455 0 401.85 14.814 5953 142.314 797.839 280.165
2456 0 418.902 15.4976 6492 141.019 797.529 278.059
2457 0 423.729 16.6238 7044 139.068 797.674 271.782
2458 1 191.544 10.7808 2065 122.633 798.149 407.751
2459 0 196.458 10.5417 2071 122.58 797.929 407.67
2460 0 427.74 12.8115 5480 144.059 797.897 293.19
2461 1 121.438 9.93096 1206 121.012 797.801 444.648
2462 0 124.453 10.4698 1303 120.509 797.755 441.289
2463 0 125.289 9.45016 1184 123.331 798.454 444.178
2464 0 122.581 6.88523 844 129.588 797.25 439.823
2465 1 13.0025 3.53779 46 97.1956 798.391 499.87
2466 0 9.0004 0.888849 8 108.25 798.375 496.875
2467 1 83.1257 8.69767 723 112.963 798.726 466.188
2468 0 87.0898 8.79552 766 114.88 798.689 461.326
2469 0 87.1708 7.10101 619 120.698 798.682 458.767
2470 0 98.1072 11.6811 1146 118.455 798.867 445.195
2471 0 99.1353 12.2257 1212 118.176 798.428 444.393
2472 0 100.187 12.7861 1281 116.97 798.466 443.489
2473 0 102.165 12.0589 1232 119.362 798.646 444.203
2474 0 106.21 12.4564 1323 118.964 798.726 445.463
2475 0 108.174 12.822 1387 119.09 798.375 446.136
2476 0 110.284 13.0572 1440 118.818 798.963 448.8
2477 0 113.141 12.7186 1439 121.1 798.35 447.481
2478 0 116.215 14.0086 1628 117.643 797.978 446.974
2479 0 118.21 13.3068 1573 120.273 797.918 444.999
2480 0 121.214 13.2163 1602 121.672 798.508 444.492
2481 0 123.209 12.7507 1571 123.461 798.058 445.941
2482 0 125.396 14.7293 1847 119.412 797.702 441.143
2483 0 127.157 13.3772 1701 125.744 798.064 436.684
2484 0 134.373 13.5072 1815 124.913 798.034 432.407
2485 0 137.2 14.1618 1943 122.939 797.508 431.278
2486 1 84.5263 11.5822 979 117.737 797.48 458.588
2487 0 85.2094 12.0409 1026 112 798.676 462.84
2488 0 88.2812 12.5848 1111 111.563 798.109 460.883
2489 0 91.3504 12.8516 1174 118.491 797.532 455.703
2490 0 92.243 12.4562 1149 119.575 798.643 454.703
2491 0 96.3524 13.7931 1329 116.162 798.259 453.276
2492 0 99.3967 14.1554 1407 116.121 797.672 453.239
2493 0 102.341 13.9827 1431 117.739 797.767 450.543
2494 0 105.465 13.9572 1472 117.788 798.193 450.237
2495 0 108.273 12.958 1403 121.113 798.356 449.924
2496 0 110.402 12.8893 1423 121.464 797.63 450.285
2497 0 111.398 12.3701 1378 125.041 797.707 446.948
2498 0 116.395 12.8614 1497 122.11 798.055 446.459
2499 0 119.485 13.349 1595 121.24 798.296 443.324
2500 0 121.436 13.365 1623 124.779 798.444 440.945
2501 0 124.352 12.8023 1592 127.578 798.276 433.903
2502 0 128.449 14.0911 1810 124.993 798.933 431.784
2503 0 131.663 13.9371 1835 125.832 798.377 432.905
2504 0 136.443 13.8446 1889 124.043 798.426 431.605
2505 0 138.456 13.5494 1876 125.86 797.876 429.152
2506 0 141.727 13.7377 1947 124.461 797.912 431.866
2507 0 147.703 13.825 2042 123.011 797.829 429.705
2508 0 152.653 14.4118 2200 122.459 798.751 423.685
2509 1 85.5045 11.2743 964 120.06 798.499 457.58
2510 0 87.7307 11.9114 1045 124.678 798.593 458.956
2511 0 87.4382 11.6768 1021 124.25 798.942 453.746
2512 0 91.2854 12.8279 1171 120.902 798.641 453.99
2513 0 91.0927 12.9538 1180 121.411 798.546 452.397
2514 0 93.1153 13.145 1224 119.5 798.678 456.978
2515 0 97.0378 13.6442 1324 118.625 798.542 453.459
2516 0 99.1043 13.1881 1307 120.212 799.088 450.053
2517 0 103.11 13.3159 1373 119.945 798.792 449.226
2518 0 104.073 12.6354 1315 121.852 798.62 446.037
2519 0 106.123 12.6552 1343 122.435 798.252 445.215
2520 0 110.115 13.5313 1490 119.789 798.278 444.367
2521 0 111.039 13.5178 1501 120.196 799.149 443.793
2522 0 113.103 12.9616 1466 121.236 798.69 441.606
2523 0 116.199 13.2015 1534 121.086 798.974 439.339
2524 0 121.2 14.3234 1736 117.82 798.26 436.971
2525 0 127.136 14.0952 1792 117.771 798.339 432.964
2526 0 128.572 14.5289 1868 117.585 798.697 432.473
2527 0 132.346 14.1901 1878 119.789 798.58 431.089
2528 0 137.36 13.9487 1916 120.867 798.104 425.826
2529 0 144.42 14.0008 2022 120.5 798.956 424.931
2530 0 147.324 12.6456 1863 125.083 798.962 422.75
2531 0 151.362 13.1539 1991 124.172 798.068 418.742
2532 1 84.1352 11.2319 945 118.558 798.593 454.405
2533 0 87.2673 12.1237 1058 116.906 798.829 453.695
2534 0 91.2302 12.7589 1164 115.519 799.066 452.929
2535 0 91.2668 13.3126 1215 116.45 799.529 451.721
2536 0 92.1973 12.3322 1137 119.368 800.226 450.506
2537 0 96.1955 12.9112 1242 118.959 799.033 447.969
2538 0 97.2059 12.098 1176 119.439 798.469 450.602
2539 0 102.411 13.4946 1382 115.627 798.981 446.394
2540 0 103.16 12.437 1283 119.333 798.765 442.836
2541 0 105.257 12.7307 1340 118.145 798.44 441.91
2542 0 108.316 12.0757 1308 119.015 799.081 442.145
2543 0 114.261 13.793 1576 115.261 799.775 439.265
2544 0 116.214 13.2514 1540 116.223 799.448 441.216
2545 0 120.282 14.441 1737 114.484 799.125 435.664
2546 0 121.272 14.0594 1705 116.069 799.801 434.722
2547 0 127.2 13.6635 1738 117.083 799.369 433.142
2548 0 131.205 14.1382 1855 116.694 799.203 428.398
2549 0 137.271 13.2366 1817 118.045 799.647 427.143
2550 0 141.231 14.1683 2001 116.691 799.214 425.043
2551 0 144.216 13.7225 1979 118.607 799.115 421.139
2552 0 146.184 13.1136 1917 121.237 799.411 415.828
2553 0 153.157 11.3805 1743 125.167 799.847 417.964
2554 0 159.161 13.8539 2205 118.352 799.511 417.219
2555 0 163.185 13.2672 2165 120.338 799.703 413.629
2556 0 168.253 13.4797 2268 119.535 799.174 412.03
2557 0 173.342 14.1454 2452 118.205 799.518 407.209
2558 0 178.204 14.5059 2585 117.575 799.342 406.244
2559 0 183.394 14.1989 2604 118.497 798.81 402.197
2560 0 187.363 12.7453 2388 122.891 798.881 399.704
2561 0 196.46 13.107 2575 120.928 799.407 398.045
2562 0 203.265 14.4393 2935 118.141 799.221 391.786
2563 0 209.274 13.7762 2883 120.417 799.522 393.939
2564 0 217.327 14.7749 3211 118.082 799.655 387.824
2565 0 227.409 15.1533 3446 117.894 799.013 385.495
2566 0 232.513 14.2788 3320 122.447 799.171 378.25
2567 1 53.2346 10.125 539 106.525 799.321 475.968
2568 0 55.2559 11.492 635 111.011 798.748 468.83
2569 0 58.1234 12.3874 720 107.829 798.788 474.925
2570 0 58.1077 11.4959 668 111.328 799.145 474.244
2571 0 61.1425 11.6449 712 111.715 799.524 471.056
2572 0 63.0878 12.2845 775 109.733 799.773 473.421
2573 0 65.163 12.4764 813 110.63 800.392 471.255
2574 0 69.2128 12.2521 848 110.479 799.174 468.376
2575 0 69.1914 12.0969 837 112.179 799.404 469.587
2576 0 72.1549 13.7482 992 107.094 799.306 467.397
2577 0 73.2141 12.1698 891 111.504 799.3 467.447
2578 0 77.2063 14.0274 1083 107.001 799.596 466.783
2579 0 77.2313 13.6862 1057 108.861 799.189 464.501
2580 0 80.2714 12.3705 993 111.882 799.087 465.615
2581 0 83.223 12.7849 1064 111.622 799.647 463.054
2582 0 85.3102 13.6912 1168 110.583 799.799 462.968
2583 0 87.1853 14.4176 1257 110.056 799.946 456.57
2584 0 92.3856 13.9957 1293 110.759 799.988 455.495
2585 0 98.4854 15.9414 1570 104.842 799.613 451.234
2586 0 96.2529 15.293 1472 108.875 799.057 453.111
2587 0 98.5727 14.1824 1398 112.552 799.27 455.406
2588 0 101.438 14.5409 1475 110.006 799.729 452.081
2589 0 104.527 13.4224 1403 115.967 799.365 447.944
2590 0 105.377 12.7542 1344 117.667 799.65 450.099
2591 0 127.31 16.6365 2118 97.4518 800.327 440.972
2592 0 125.223 17.2972 2166 96.2604 800.102 438.745
2593 0 126.385 19.409 2453 93.3274 800.428 438.594
2594 0 132.408 17.9596 2378 95.8045 800.241 434.496
2596 0 136.421 19.1026 2606 93.7206 800.619 430.423
2597 1 150.358 16.055 2414 99.6094 800.471 427.756
2598 0 149.456 17.2291 2575 98.953 800.984 425.946
2599 0 142.411 19.6262 2795 97.6415 801.175 427.643
2600 1 73.3036 12.1958 894 109.136 800.336 468.952
2601 0 77.4735 12.9851 1006 111.101 800.564 464.465
2602 0 83.2308 13.0721 1088 119.831 799.355 437.707
2603 0 85.3561 13.473 1150 119.977 799.174 431.187
2604 0 89.2919 13.943 1245 117.238 798.921 432.299
2605 0 92.1858 14.7203 1357 115.605 799.34 430.708
2606 0 92.2025 12.863 1186 122.125 799.57 429.949
2607 0 96.2146 13.023 1253 119.574 799.111 432.857
2608 0 98.2109 13.7765 1353 118.551 799.308 430.88
2609 0 101.159 12.9598 1311 121.889 799.356 427.409
2610 0 104.243 13.1616 1372 120.446 799.677 428.032
2611 0 109.131 14.139 1543 117.423 798.98 429.297
2612 0 111.147 13.6576 1518 119.751 799.198 428.232
2613 0 113.198 13.4632 1524 121.427 799.074 425.259
2614 0 119.225 15.2149 1814 116.278 798.965 426.611
2615 0 121.176 13.4102 1625 120.926 799.452 425.784
2616 0 125.218 14.0794 1763 120.319 799.554 422.884
2617 0 128.335 13.8856 1782 121.163 800.003 422.195
2618 1 71.1361 11.2039 797 116.98 800 454.154
2619 0 75.0454 13.152 987 113.97 798.444 450.59
2620 0 78.1915 12.0601 943 120.185 798.223 449.472
2621 0 79.0924 12.909 1021 118.834 798.513 449.826
2622 0 79.1139 13.1077 1037 120.061 798.852 446.904
2623 0 84.1175 13.1007 1102 118.383 798.814 446.989
2624 0 86.2115 13.1769 1136 117.804 798.848 447.587
2625 0 89.1914 13.7009 1222 116.24 798.8 448.16
2626 0 89.2386 13.5255 1207 117.863 798.379 446.516
2627 0 91.265 12.2939 1122 121.639 798.8 446.721
2628 0 96.1583 13.717 1319 116.282 798.425 447.049
2629 0 99.2536 13.6821 1358 117.856 797.529 440.968
2630 0 103.213 13.5544 1399 117.428 797.949 441.625
2631 0 106.248 15.1061 1605 113.875 797.836 439.817
2632 0 109.197 13.9656 1525 116.314 797.967 438.589
2633 0 112.198 13.9664 1567 116.484 797.597 438.537
2634 0 116.203 13.6916 1591 116.616 797.851 437.047
2635 0 120.188 14.8184 1781 113.912 797.69 434.788
2636 0 124.209 14.0167 1741 115.039 797.543 432.929
2637 0 127.155 13.5739 1726 117.068 797.469 430.664
2638 0 133.179 14.3116 1906 113.885 797.628 429.396
2639 0 140.239 14.5252 2037 112.099 797.292 428.342
2640 0 142.344 13.6781 1947 115.349 796.499 425.814
2641 1 83.0958 12.985 1079 110.54 796.794 456.193
2642 0 84.083 12.3568 1039 115.109 797.099 454.096
2643 0 86.1275 13.004 1120 114.911 797.231 452.371
2644 0 91.113 12.929 1178 113.056 796.874 453.084
2645 0 95.1026 13.8167 1314 112.16 796.746 448.963
2646 0 97.1486 14.7506 1433 109.096 797.055 446.057
2647 0 100.292 13.8794 1392 111.096 797.325 446.99
2648 0 102.159 12.8428 1312 112.928 797.294 447.136
2649 0 106.253 13.1008 1392 113.978 797.121 445.147
2650 0 109.278 13.6258 1489 113.328 797.309 446.334
2651 0 113.203 12.9237 1463 114.734 796.617 448.206
2652 0 116.244 14.0566 1634 113.789 797.001 446.294
2653 0 117.179 13.0399 1528 116.107 796.767 451.829
2654 0 124.332 14.2602 1773 113.74 796.43 451.901
2655 1 72.1022 13.4947 973 119.325 796.991 476.257
2656 0 73.1274 14.2218 1040 118.997 796.755 473.549
2657 0 76.0924 13.9961 1065 120.098 796.798 470.1
2658 0 79.0836 13.5932 1075 120.978 797.782 467.86
2659 0 81.0512 13.7567 1115 121.508 796.947 468.926
2660 0 85.2254 15.7113 1339 115.904 796.762 466.976
2661 0 87.1003 14.9253 1300 116.821 797.137 468.261
2662 0 89.1514 14.5034 1293 118.776 797.582 465.571
2663 0 90.2517 13.4734 1216 121.414 797.6 466.45
2664 0 95.1531 14.545 1384 119.031 797.305 463.269
2665 0 97.1289 14.3109 1390 119.895 797.177 462.776
2666 0 101.079 14.1374 1429 121.271 797.752 460.812
2667 0 103.091 15.2778 1575 119.067 797.724 458.851
2668 0 105.276 14.1152 1486 122.749 797.56 459.134
2669 0 110.269 15.1085 1666 120.297 797.521 457.577
2670 0 112.262 14.5463 1633 121.882 797.639 457.651
2671 0 116.111 15.8038 1835 120.1 797.282 453.952
2672 0 119.16 15.1561 1806 122.277 797.182 451.843
2673 0 124.151 15.0703 1871 123.417 797.078 448.542
2674 0 129.251 15.4815 2001 121.474 797.447 448.129
2675 0 132.238 14.9428 1976 123.794 797.604 447.134
2676 0 135.182 14.7578 1995 124.445 797.869 448.407
2677 0 141.276 15.1547 2141 125.226 797.701 441.608
2678 0 147.283 16.2747 2397 121.806 797.653 442.564
2679 0 151.225 16.5383 2501 122.533 797.575 440.393
2680 0 156.245 15.7893 2467 125.278 797.787 439.929
2681 0 160.384 15.5626 2496 127.701 797.837 436.586
2682 0 164.318 15.1352 2487 130.472 797.407 432.505
2683 0 170.363 15.6782 2671 129.542 796.52 430.863
2684 0 177.291 16.7577 2971 127.001 797.323 425.919
2685 0 182.196 15.2858 2785 130.943 797.213 422.896
2686 0 188.261 17.5819 3310 124.553 797.247 421.984
2687 0 192.444 15.6461 3011 130.845 796.954 422.772
2688 0 198.277 15.8516 3143 132.07 796.937 414.782
2689 0 205.288 15.7097 3225 134.056 797.449 412.813
2690 0 211.289 15.8314 3345 133.941 797.201 410.981
2691 0 221.358 17.0448 3773 129.224 797.448 408.008
2692 0 228.287 16.4179 3748 131.814 797.061 404.053
2693 0 234.332 15.2604 3576 135.209 797.202 401.678
2694 0 244.289 15.5636 3802 134.411 797.077 395.592
2695 0 253.38 15.901 4029 132.315 797.306 394.943
2696 0 263.342 15.3488 4042 133.694 797.719 390.358
2697 1 52.0575 13.6772 712 141.677 798.167 485.9
2698 0 56.0933 14.7076 825 138.578 797.755 483.909
2699 0 61.1401 17.9915 1100 125.801 799.055 482.282
2700 0 62.055 17.0816 1060 130.491 799.051 481.287
2701 0 60.1511 15.8102 951 139.197 798.555 480.308
2702 0 65.0494 15.7111 1022 136.676 798.346 480.451
2703 0 67.103 15.5135 1041 138.186 797.616 478.716
2704 0 67.1026 15.3645 1031 140.034 797.708 477.864
2705 0 72.0417 15.7131 1132 137.017 798.542 476.401
2706 0 73.0902 16.4454 1202 135.388 798.3 475.283
2707 0 76.0621 16.3814 1246 134.845 797.855 473.777
2708 0 84.1022 18.4062 1548 124.734 797.908 469.037
2709 0 82.1833 17.0473 1401 133.617 797.648 471.8
2710 0 84.1111 16.1334 1357 136.769 798.037 470.345
2711 0 86.1607 15.9585 1375 138.242 798.239 469.544
2712 0 88.0742 15.4983 1365 139.494 798.061 469.022
2713 0 91.0997 15.7739 1437 139.74 798.043 465.884
2714 0 96.1036 15.9828 1536 137.953 798.259 464.847
2715 0 106.18 21.5483 2288 118.005 798.376 458.599
2716 0 108.184 20.0493 2169 122.741 797.9 456.666
2717 1 54.1417 13.5755 735 141.618 798.793 484.411
2718 0 57.0919 14.1526 808 140.845 799.11 482.094
2719 0 62.1222 17.3368 1077 129.942 798.619 478.916
2720 0 63.125 15.4455 975 134.454 799.005 480.721
2721 0 68.1189 19.1577 1305 121.063 799.503 475.595
2722 0 76.1514 20.8401 1587 109.753 799.173 470.941
2723 0 78.1758 18.9573 1482 115.24 798.64 470.389
2724 0 81.3059 20.8841 1698 110.428 798.355 468.22
2725 0 81.1394 23.5521 1911 109.907 798.009 469.25
2726 0 82.1016 21.4003 1757 113.547 798.319 468.018
2727 0 82.2312 19.6397 1615 119.646 798.554 465.331
2728 0 84.1218 19.7808 1664 120.737 798.79 465.501
2729 0 86.1406 22.7999 1964 114.348 798.51 462.594
2730 0 87.1812 20.5205 1789 122.323 798.553 462.622
2731 0 87.1828 18.6619 1627 130.108 798.615 463.163
2732 0 86.308 16.6033 1433 139.867 798.129 460.544
2733 0 91.1816 17.35 1582 136.71 798.241 461.393
2734 0 94.1443 17.2395 1623 138.02 798.611 459.136
2735 0 96.1426 17.1308 1647 139.271 797.99 456.772
2736 0 100.29 17.1402 1719 138.921 797.788 456.308
2737 0 102.167 17.0994 1747 140.143 797.753 453.503
2738 0 107.288 17.4577 1873 138.976 797.56 452.739
2739 0 110.316 16.5978 1831 141.898 798.336 449.72
2740 0 114.355 16.4662 1883 142.175 798.439 449.15
2741 0 120.183 16.8576 2026 140.605 798.821 447.169
2742 0 123.205 16.6957 2057 141.026 798.57 445.361
2743 0 128.234 16.4388 2108 142.383 798.155 441.596
2744 0 132.182 16.0006 2115 143.377 798.275 438.821
2745 0 139.567 16.0353 2238 141.634 798.615 437.671
2746 0 145.472 16.2712 2367 140.243 799.591 435.849
2747 0 152.45 16.4775 2512 139.561 798.994 430.822
2748 0 156.205 15.9854 2497 141.206 798.644 427.181
2749 1 66.1066 14.3405 948 139.073 799.06 471.88
2750 0 70.2906 14.2978 1005 136.969 799.38 471.457
2751 0 71.2586 14.721 1049 137.566 799.121 469.079
2752 0 74.2271 15.5334 1153 134.998 799.261 468.466
2753 0 78.4099 15.4317 1210 133.545 799.168 467.93
2754 0 80.2478 15.4397 1239 134.523 798.492 465.959
2755 0 83.3998 15.1799 1266 135.711 798.66 461.971
2756 0 87.2 15.1835 1324 135.373 799.149 462.748
2757 0 89.4018 15.5814 1393 134.45 798.666 459.545
2758 0 93.2468 15.8182 1475 131.616 798.834 458.912
2759 0 97.1538 15.1924 1476 132.886 798.968 455.531
2760 0 101.232 16.5165 1672 129.214 798.803 456.696
2761 1 55.315 14.788 818 131.133 799.266 477.366
2762 0 58.3195 12.8773 751 136.071 799.256 475.9
2763 0 60.2522 14.5887 879 133.654 799.776 474.563
2764 0 62.319 13.4149 836 137.218 799.616 473.565
2765 0 64.2473 14.3819 924 134.696 799.058 473.04
2766 0 65.2975 14.5029 947 135.964 798.794 471.753
2767 0 66.2453 14.3557 951 137.425 798.772 470.355
2768 0 67.4013 14.1837 956 138.058 799.336 470.632
2769 0 70.4675 13.6091 959 140.065 799.394 468.918
2770 0 70.2306 13.7974 969 141.096 799.78 467.865
2771 0 75.2866 14.8632 1119 135.555 799.75 468.982
2772 0 76.57 13.935 1067 140.561 799.664 465.445
2773 0 80.3667 13.8615 1114 139.63 799.022 464.484
2774 0 80.4176 15.1708 1220 138.402 798.616 461.564
2775 0 83.4188 14.1095 1177 141.619 798.543 461.798
2776 0 87.4158 15.2718 1335 138.112 799.101 460.778
2777 0 88.2943 15.2784 1349 139.216 798.79 461.014
2778 0 89.3777 14.545 1300 142.724 798.034 458.282
2779 0 97.4737 15.6042 1521 136.675 798.33 456.972
2780 0 100.368 15.9612 1602 136.292 798.611 456.213
2781 0 99.4467 14.269 1419 144.957 797.551 454.062
2782 0 103.519 15.3015 1584 141.953 798.274 452.573
2783 0 105.455 14.6224 1542 144.593 798.211 453.121
2784 0 107.341 15.7256 1688 142.829 798.266 450.587
2785 0 111.331 14.8656 1655 146.061 797.719 449.022
2786 0 115.527 16.6282 1921 140.896 797.269 444.501
2787 0 115.251 15.592 1797 146.016 798.383 446.461
2788 0 120.39 16.5877 1997 143.768 798.599 443.095
2789 0 123.308 15.6438 1929 147.084 798.567 444.111
2790 0 127.461 15.5499 1982 149.131 798.329 440.397
2791 0 130.469 15.9271 2078 148.882 798.708 437.267
2792 0 134.373 15.0775 2026 152.355 798.22 436.328
2793 0 141.41 16.9366 2395 146.289 797.897 431.756
2794 0 145.403 16.6709 2424 147.688 797.534 430.184
2795 0 149.365 16.7041 2495 148.936 797.753 427.396
2796 0 153.38 15.9995 2454 152.674 797.785 423.851
2797 0 156.459 15.4545 2418 155.957 798.097 420.768
2798 0 165.309 16.6356 2750 149.531 798.614 422.36
2799 0 171.367 17.4538 2991 147.529 798.276 416.176
2800 0 177.566 16.4389 2919 150.138 798.13 414.512
2801 0 184.449 17.3273 3196 146.852 797.612 411.918
2802 0 191.555 16.4339 3148 149.911 798.36 407.581
2803 0 196.323 16.371 3214 150.646 798.216 402.751
2804 0 204.334 17.124 3499 147.416 798.53 400.57
2805 0 210.467 16.3209 3435 150.497 798.231 397.406
2806 0 218.416 16.345 3570 151.385 797.896 392.373
2807 0 227.349 16.4856 3748 150.746 797.726 386.632
2808 0 235.437 16.9472 3990 149.028 798.306 383.69
2809 0 244.474 17.4047 4255 146.902 798.143 381.791
2810 0 254.555 16.079 4093 151.334 797.801 375.289
2811 0 264.405 16.3121 4313 150.808 797.665 367.796
2812 1 74.3234 8.73211 649 130.613 799.159 463.391
2813 0 73.2973 9.79572 718 130.311 798.818 463.565
2814 1 16.032 3.92963 63 107.889 798.413 493.079
2815 0 18.0323 4.04829 73 105.123 798.37 494.836
2816 0 15.0206 3.12903 47 105.511 798.085 495.106
2817 0 18.0332 3.77083 68 106.765 798.059 491.676
2818 0 18.0389 5.37728 97 101.381 797.711 493.082
2819 0 16.0045 4.87363 78 103.385 798.051 494.167
2820 1 94.1941 9.80953 924 120.137 798.629 454.178
2821 0 95.2699 6.20343 591 128.393 798.849 445.636
2822 0 101.339 6.50291 659 127.64 798.387 445.319
2823 0 107.247 8.2333 883 121.01 797.694 450.019
2824 0 110.202 6.86013 756 122.339 797.312 451.767
2825 0 113.113 8.77 992 122.016 797.024 445.661
2826 0 113.4 8.2804 939 129.66 797.068 445.248
2827 0 117.488 10.4096 1223 125.895 797.218 442.968
2828 1 56.3878 7.34201 414 114.908 798.896 472.401
2829 0 58.0987 6.29962 366 117.563 798.407 472.852
2830 0 61.197 6.3892 391 117.563 798.335 472.606
2831 0 61.182 6.42346 393 118.758 798.188 470.473
2832 0 64.2416 7.26943 467 115.445 798.358 474.809
2833 0 68.2215 7.05056 481 118.886 798.056 470.06
2834 0 68.2882 7.5855 518 119.199 798.029 469.039
2835 0 72.1786 6.44235 465 122.247 797.419 470.649
2836 0 70.1981 7.33638 515 123.882 797.678 464.322
2837 0 72.1401 7.08344 511 124.284 797.196 466.157
2838 0 78.153 9.41743 736 118.439 797.329 465.094
2839 1 15.0008 4.39977 66 108.303 796.076 495.167
2840 0 14.0025 3.07087 43 108.674 795.512 496.419
2841 0 16.0053 7.06017 113 102.619 795.912 495.097
2842 0 14.0013 3.214 45 108.8 796 495.733
2843 0 11.0032 4.72588 52 106.327 796.135 496.654
2844 1 133.594 9.67111 1292 126.909 796.817 437.761
2845 0 136.453 8.69161 1186 129.465 797.198 437.796
2846 0 141.354 8.3549 1181 131.357 796.848 434.747
2847 0 151.377 6.355 962 135.053 796.211 437.807
2848 0 149.444 9.1004 1360 131.255 796.471 426.949
2849 0 154.485 9.94919 1537 129.165 796.368 422.232
2850 0 162.394 9.18135 1491 129.224 797.194 424.377
2851 0 162.574 10.0385 1632 127.037 797.082 426.012
2852 1 12.0008 3.08313 37 107.649 798.946 497.568
2853 0 12.001 5.3329 64 99.9219 799.453 499.594
2854 0 12.0016 4.41608 53 103.415 799.321 497.962
2855 0 14.0043 5.06987 71 95.9577 795.746 498.31
2856 0 14.0028 5.42749 76 95.171 795.487 499.039
2857 0 12.0002 3.74994 45 100.533 795.689 499.244
2858 0 12.0019 5.41581 65 98.2308 795.631 498.108
2859 0 10.0009 6.59943 66 92.5606 795.864 497.879
2860 0 17.0173 5.40628 92 89.2717 797.065 496.489
2861 0 15.0094 5.39661 81 88.7778 797.988 498.58
2862 0 15.0008 7.06627 106 85.4811 796.698 496.547
2863 0 13.0009 4.61505 60 88.35 796.333 494.867
2864 1 163.411 13.6098 2224 124.998 795.602 418.273
2865 0 165.385 12.7158 2103 126.97 795.93 416.537
2866 0 170.408 12.03 2050 121.859 796.732 418.141
2867 0 174.158 12.3336 2148 122.899 796.184 412.529
2868 0 175.272 11.2796 1977 127.189 796.074 408.067
2869 0 180.479 12.3616 2231 124.691 796.1 404.967
2870 0 186.388 12.4686 2324 124.12 796.191 404.522
2871 1 128.268 10.7743 1382 126.104 796.012 431.755
2872 0 132.222 11.2613 1489 123.069 796.479 430.852
2873 0 137.231 12.519 1718 122.36 796.385 426.799
2874 0 141.201 12.2591 1731 124.266 796.581 425.197
2875 0 144.206 11.9829 1728 126.845 796.654 426.032
2876 0 146.204 11.9012 1740 128.888 796.949 428.77
2877 0 148.101 11.553 1711 132.357 796.261 418.001
2878 0 154.199 11.4852 1771 131.893 795.856 419.64
2879 0 159.267 12.0803 1924 129.767 796.354 417.934
2880 0 162.131 11.9348 1935 130.927 795.903 421.513
2881 0 167.178 12.6033 2107 130.753 796.476 416.132
2882 0 169.187 11.9985 2030 133.903 796.195 418.453
2883 0 175.139 11.6079 2033 134.295 796.7 414.985
2884 0 185.223 13.7078 2539 127.35 796.618 413.095
2885 0 189.298 14.2156 2691 125.923 795.831 411.591
2886 0 194.411 13.0085 2529 130.195 796.737 400.99
2887 0 199.261 13.1888 2628 128.8 796.48 402.305
2888 0 205.283 14.0245 2879 127.703 795.694 394.546
2889 0 207.383 12.0213 2493 134.266 795.769 394.626
2890 0 215.381 12.9213 2783 130.757 795.538 395.482
2891 0 222.317 13.5887 3021 129.187 795.452 387.959
2892 0 229.41 13.5304 3104 128.958 796.225 385.286
2893 0 235.269 13.3464 3140 129.717 796.076 383.264
2894 0 244.687 13.4008 3279 128.89 796.546 378.471
2895 1 189.368 12.2038 2311 132.846 795.925 403.787
2896 0 194.304 12.1665 2364 132.239 795.821 400.599
2897 0 199.314 13.4712 2685 129.612 796 396.747
2898 0 203.245 13.0925 2661 131.505 795.958 393.063
2899 0 210.339 13.3071 2799 131.059 795.751 389.884
2900 0 217.258 13.1779 2863 129.684 796.666 394.213
2901 0 219.325 13.4048 2940 131.773 796.786 384.137
2902 0 227.33 14.5296 3303 124.675 795.942 388.569
2903 0 231.217 14.4366 3338 126.161 796.26 380.085
2904 0 240.415 13.1398 3159 130.275 795.941 375.683
2905 0 246.385 12.866 3170 131.536 795.995 370.251
2906 0 255.27 12.6846 3238 132.363 796.189 364.592
2907 0 260.473 11.6826 3043 135.908 796.549 360.151
2908 0 270.379 11.8056 3192 136.133 796.217 355.507
2909 0 277.616 13.2089 3667 133.959 795.943 354.616
2910 0 276.572 10.1673 2812 143.068 796.341 351.082
2911 0 295.757 16.8551 4985 124.081 796.74 344.909
2912 0 306.674 16.7376 5133 123.285 796.85 332.588
2913 0 315.592 13.9452 4401 131.964 796.636 322.669
2914 0 326.434 15.9114 5194 125.187 796.988 325.162
2915 1 77.1094 9.25958 714 103.64 796.728 461.728
2916 0 77.1494 8.94369 690 106.343 797.507 460.71
2917 0 81.1565 8.55138 694 107.535 796.324 459.373
2918 0 84.2099 8.41944 709 109.042 796.79 457.944
2919 0 88.1404 10.8917 960 111.87 796.324 456.321
2920 0 90.1325 10.9505 987 111.107 796.536 453.913
2921 1 36.1974 8.81279 319 96.0533 796.533 483.618
2922 0 34.2183 7.48139 256 98.7109 796.621 480.09
2923 0 35.2671 9.44222 333 93.7267 797.67 480.682
2924 0 37.2083 9.00337 335 94.4896 798.296 481.287
2925 0 35.2232 8.37517 295 97.6339 797.4 481.664
2926 0 36.215 8.22863 298 98.6208 797.315 482.191
2927 0 38.4444 9.54626 367 95.5531 798.057 479.033
2928 0 41.3167 10.0202 414 93.7343 798.314 481.908
2929 0 42.4269 10.8893 462 92.9697 798.26 481.494
2930 0 44.3068 10.7433 476 93.1324 798.109 482.431
2931 0 41.2556 10.9076 450 96.1156 797.593 481.804
2932 0 43.1922 10.1407 438 106.26 797.361 475.555
2933 0 43.1411 11.2654 486 106.245 797.117 475.395
2934 0 42.211 10.9687 463 110.171 797.283 478.611
2935 0 45.2747 11.9051 539 107.731 797.273 478.594
2936 0 44.2033 12.6914 561 108.615 796.749 479.214
2937 0 43.1484 10.9158 471 113.584 796.151 479.671
2938 0 43.0624 12.0291 518 112.141 796.523 479.398
2939 0 42.0597 11.1746 470 115.394 797.398 481.447
2940 0 45.0606 13.4708 607 107.926 797.054 482.99
2941 0 45.0296 12.4141 559 111.597 797.556 483.592
2942 0 44.1411 13.1397 580 111.11 796.819 484.034
2943 0 45.0914 12.7297 574 110.946 797.199 485.664
2944 0 43.0866 12.1383 523 115.115 797.042 485.159
2945 0 45.1483 12.027 543 115.529 796.424 482.797
2946 0 45.1744 12.9055 583 112.172 796.924 486.081
2947 0 45.2172 12.0308 544 115.827 796.726 485.423
2948 0 44.087 13.3373 588 114.153 797.097 485.024
2949 0 46.1364 11.8561 547 116.519 797.11 485.176
2950 0 45.0819 12.5771 567 116.113 797.079 484.189
2951 0 45.1645 12.6648 572 116.584 796.355 484.073
2952 0 45.0888 12.4865 563 118.44 796.304 484.06
2953 0 46.1315 12.6595 584 115.473 796.541 486.546
2954 0 46.0429 12.2495 564 117.732 796.803 484.883
2955 0 46.1825 12.8404 593 116.18 796.572 484.954
2956 0 44.1082 12.5827 555 119.166 796.82 483.562
2957 0 45.1228 13.1641 594 116.37 797.19 486.02
2958 0 44.0492 11.9639 527 120.822 797.283 483.797
2959 0 47.051 12.9859 611 116.768 797.327 485.028
2960 0 47.0362 13.5002 635 115.079 796.293 484.455
2961 0 47.0513 12.5395 590 118.532 795.842 484.354
2962 0 46.0335 12.4909 575 120.132 796.146 484.39
2963 0 45.1137 12.7899 577 120.882 795.69 483.856
2964 0 48.1542 13.1453 633 116.87 795.694 485.662
2965 0 47.0827 14.0179 660 115.509 796.523 486.329
2966 0 46.1663 12.6716 585 118.304 796.386 486.313
2967 0 47.1351 12.8991 608 118.173 795.898 484.936
2968 0 47.1611 12.68 598 119.214 796.423 485.502
2969 0 46.1714 13.3199 615 118.231 796.369 484.333
2970 0 46.1666 13.3863 618 116.974 795.403 487.065
2971 0 44.0544 11.3042 498 119.384 796.392 487.958
2972 0 44.0516 11.7816 519 119.316 796.26 487.225
2973 0 47.1135 12.9262 609 119.915 796.292 485.665
2974 0 49.161 13.466 662 116.654 795.503 485.861
2975 0 48.1335 12.0291 579 122.212 795.036 485.915
2976 0 49.1031 13.2578 651 118.23 795.836 485.324
2977 0 47.1415 11.6034 547 123.356 796.271 486.569
2978 0 47.0822 12.2339 576 122.747 796.158 485.189
2979 0 47.0201 12.8243 603 119.108 795.993 486.773
2980 0 47.1724 13.7581 649 119.256 796.525 484.75
2981 0 48.1458 13.376 644 119.219 795.811 485.519
2982 0 48.1178 14.2151 684 116.067 795.556 486.404
2983 0 48.0707 11.7743 566 122.265 796.555 486.184
2984 0 46.0633 13.1558 606 120.338 795.703 485.315
2985 0 46.0833 11.9132 549 123.475 795.698 483.831
2986 0 48.0378 13.3228 640 116.645 796.08 485.489
2987 0 49.0845 12.4683 612 120.002 795.768 485.936
2988 0 48.1252 12.3636 595 119.363 795.608 485.15
2989 0 46.0773 12.0233 554 121.507 795.449 485.973
2990 0 48.0711 11.899 572 121.063 795.441 485.67
2991 0 46.1116 11.2119 517 122.7 795.232 485.104
2992 0 49.0876 12.9361 635 116.65 795.332 484.65
2993 0 48.0859 11.7914 567 120.462 795.848 483.25
2994 0 49.1144 13.1326 645 117.381 795.554 484.219
2995 0 48.1219 12.5099 602 119.15 795.249 484.359
2996 0 47.0742 12.2572 577 120.118 795.073 484.14
2997 0 49.0405 13.3767 656 116.34 795.848 483.061
2998 0 48.1405 12.235 589 120.947 795.91 483.2
2999 0 48.0317 13.2621 637 117.9 795.598 482.868
3000 0 48.1456 13.0853 630 119.17 795.251 483.51
3001 0 48.0982 11.83 569 122.501 795.642 484.524
3002 0 48.1452 13.1477 633 118.567 795.932 484.714
3003 0 49.0367 13.6021 667 116.562 795.628 482.139
3004 0 48.1671 13.2248 637 118.229 795.466 484.429
3005 0 50.1084 13.1515 659 117.583 795.426 483.944
3006 0 50.04 13.789 690 115.997 795.022 482.688
3007 0 48.032 11.3882 547 122.894 794.998 482.907
3008 0 49.0651 12.7993 628 118.506 795.094 483.846
3009 0 48.1319 13.7954 664 116 795.55 483.628
3010 0 50.0462 11.2096 561 122.647 795.358 484.169
3011 0 48.0571 12.1522 584 121.425 795.435 484.312
3012 0 49.0486 11.6619 572 122.21 795.946 482.437
3013 0 49.0767 12.2054 599 120.766 795.521 481.983
3014 0 50.1161 11.8325 593 120.968 795.727 484.096
3015 0 51.173 12.7997 655 117.227 795.918 483.728
3016 0 51.096 12.7407 651 117.243 796.114 484.384
3017 0 48.1225 11.346 546 122.991 796.099 483.377
3018 0 50.1448 11.9653 600 120.217 795.888 483.088
3019 0 51.1234 12.7339 651 117.19 795.872 483.988
3020 0 51.0645 12.6115 644 117.149 795.602 483.689
3021 0 50.0739 12.182 610 118.23 795.243 483.734
3022 0 53.0668 12.0226 638 116.914 795.85 484.243
3023 0 50.0688 12.7025 636 118.629 795.987 482.465
3024 0 48.1451 12.4208 598 120.028 795.841 482.477
3025 0 51.118 12.8135 655 115.649 795.875 484.363
3026 0 51.2611 13.2849 681 116.129 795.932 480.169
3027 0 52.151 12.4254 648 116.775 795.267 484.159
3028 0 50.0845 12.7584 639 118.571 795.529 482.598
3029 0 51.09 13.9949 715 114.751 796.028 483.147
3030 0 52.105 13.396 698 116.054 794.993 482.864
3031 0 51.1424 13.4331 687 114.491 795.492 484.53
3032 0 51.256 12.8765 660 116.95 795.714 483.038
3033 0 52.2088 12.4692 651 117.748 794.722 484.399
3034 0 49.08 12.7139 624 118.582 795.474 482.045
3035 0 51.0393 12.5198 639 118.205 795.438 483.023
3036 0 48.0325 12.6373 607 120.105 795.758 483.11
3037 0 50.1306 12.1084 607 119.85 795.941 483.642
3038 0 52.1421 13.3482 696 115.682 795.585 483.102
3039 0 51.1564 13.1753 674 115.602 796.231 483.809
3040 0 51.0771 12.8042 654 117.089 795.953 483.598
3041 0 50.0518 13.1464 658 116.74 796.216 484.909
3042 0 51.1344 13.533 692 115.913 796.337 483.799
3043 0 52.0878 13.7652 717 114.165 796.312 483.572
3044 0 51.107 14.2446 728 112.372 796.69 484.685
3045 0 50.1298 12.5674 630 113.284 796.04 486.34
3046 0 51.1036 12.3475 631 108.13 796.425 484.16
3047 0 52.0873 11.9223 621 112.712 796.467 483.652
3048 0 50.0456 10.1907 510 118.847 795.753 484.008
3049 0 52.0517 11.3925 593 101.027 795.906 484.607
3050 0 50.0316 11.8525 593 109.523 796.545 482.767
3051 0 50.0612 12.0652 604 111.641 797.349 482.692
3052 0 51.1248 11.8729 607 110.498 796.812 483.026
3053 0 52.0628 13.0227 678 107.661 796.684 481.833
3054 0 51.0313 12.1886 622 110.36 796.476 484
3055 0 51.079 12.5296 640 109.661 797.291 482.519
3056 0 52.0104 12.8628 669 108.088 796.982 484.423
3057 0 52.0264 13.5893 707 107.601 797.433 482.48
3058 0 50.0174 12.4757 624 111.814 797.144 483.228
3059 0 52.1424 11.8138 616 110.518 797.258 483.125
3060 0 53.078 13.5461 719 107.396 797.089 480.395
3061 0 52.0324 13.5685 706 108.286 796.251 481.864
3062 0 51.0457 11.7346 599 113.062 796.394 483.053
3063 0 53.0351 13.5382 718 107.678 796.489 482.511
3064 0 52.0694 12.4641 649 111.179 796.801 482.379
3065 0 51.0892 11.8225 604 113.363 796.945 482.419
3066 0 50.0528 12.9663 649 110.746 796.473 482.193
3067 0 50.0441 12.6688 634 112.692 796.375 482.005
3068 0 52.0683 12.5412 653 111.767 796.43 483.061
3069 0 51.0676 12.8653 657 110.747 796.242 483.164
3070 0 52.0325 12.3577 643 112.359 796.403 481.888
3071 0 48.0764 11.5233 554 116.596 796.686 481.635
3072 0 52.0302 12.9156 672 110.912 796.737 482.208
3073 0 50.1168 12.2713 615 113.585 796.322 482.281
3074 0 50.0201 12.415 621 113.56 795.947 481.568
3075 0 51.0803 12.4314 635 113.277 796.22 481.236
3076 0 52.0932 12.4776 650 112.491 795.62 481.128
3077 0 51.0285 11.7777 601 114.023 796.083 479.927
3078 0 52.0554 13.3704 696 110.501 795.517 481.434
3079 0 53.0637 13.2294 702 110.373 796.009 481.161
3080 0 49.0326 12.2572 601 114.552 795.947 481.145
3081 0 51.07 10.8674 555 116.168 795.332 481.899
3082 0 52.02 12.7836 665 111.28 795.355 481.916
3083 0 52.0123 12.5932 655 112.669 795.969 481.292
3084 0 51.0166 12.1137 618 114.592 796.058 481.536
3085 0 52.013 13.1121 682 110.908 796.081 479.488
3086 0 50.1167 12.5307 628 113.333 796.123 480.817
3087 0 52.0338 13.1645 685 110.715 795.838 481.585
3088 0 53.0688 12.1163 643 112.03 795.796 481.114
3089 0 52.0435 12.1053 630 113.095 795.597 481.481
3090 0 52.0758 12.9619 675 110.281 795.596 481.818
3091 0 52.0503 12.949 674 110.763 795.316 480.874
3092 0 54.0329 13.6398 737 109.459 795.353 480.138
3093 0 51.0196 12.0542 615 114.675 796.055 481.164
3094 0 53.0421 11.8962 631 113.784 796.388 480.323
3095 0 51.1953 11.9152 610 115.98 795.941 480.944
3096 0 53.2 12.6316 672 115.528 796.455 480.464
3097 0 51.1968 11.739 601 119.311 796.333 479.784
3098 0 53.2504 12.7323 678 115.95 796.817 478.602
3099 0 53.1782 13.2197 703 113.826 796.175 480.06
3100 0 52.1292 12.1813 635 116.876 796.633 479.68
3101 0 53.1368 13.5123 718 112.634 796.414 479.294
3102 0 51.2802 12.0904 620 116.779 796.776 480.268
3103 0 51.1158 12.0902 618 117.552 796.474 476.65
3104 0 51.2833 11.6997 600 118.257 796.287 478.41
3105 0 55.2093 14.0918 778 110.131 796.296 479.063
3106 0 51.2157 12.1838 624 117.029 796.349 478.282
3107 0 51.2923 11.7951 605 117.684 796.226 479.79
3108 0 54.2307 13.0184 706 113.483 796.904 478.663
3109 0 53.2009 14.0787 749 111.849 796.852 477.744
3110 0 52.1518 11.6966 610 117.802 796.657 477.877
3111 0 53.1434 12.0617 641 115.523 796.663 478.34
3112 0 53.2057 13.3632 711 112.447 796.578 477.727
3113 0 54.1379 12.0618 653 114.913 796.159 478.418
3114 0 52.1798 12.8402 670 114.175 796.869 478.379
3115 0 53.3237 13.4462 717 112.18 796.37 478.57
3116 0 53.1699 12.808 681 113.514 796.589 477.021
3117 0 52.1467 12.5991 657 115.052 796.361 478.044
3118 0 54.146 13.9623 756 110.669 796.492 477.067
3119 0 52.168 12.7473 665 114.481 795.647 476.8
3120 0 52.211 13.7136 716 111.151 795.934 478.851
3121 0 51.1174 11.5029 588 117.896 795.85 477.5
3122 0 52.1546 13.2107 689 112.657 796.268 478.328
3123 0 53.1814 12.448 662 113.834 796.619 477.769
3124 0 51.1475 12.376 633 115.52 796.588 478.97
3125 0 52.169 12.1528 634 114.984 796.14 479.033
3126 0 52.2466 13.2257 691 111.97 796.944 477.381
3127 0 53.1476 14.074 748 109.787 796.787 477.183
3128 0 52.1148 12.9522 675 111.932 796.932 480.439
3129 0 54.1596 13.0355 706 111.346 796.518 478.356
3130 0 52.2181 13.6351 712 111.348 796.875 477.317
3131 0 52.2934 12.6402 661 113.416 796.865 478.231
3132 0 53.1085 12.4839 663 112.617 797.469 478.042
3133 0 54.303 12.4671 677 110.957 797.224 480.297
3134 0 54.3995 13.2354 720 109.828 797.258 479.139
3135 0 55.1191 13.3348 735 109.382 797.02 479.003
3136 0 55.2952 13.0934 724 109.504 797.61 477.818
3137 0 55.0292 12.8477 707 109.676 796.868 480.037
3138 0 54.1298 13.8371 749 108.172 797.594 478.196
3139 0 54.1923 13.1569 713 108.335 798.035 480.474
3140 0 53.0946 13.8621 736 107.787 797.569 480.152
3141 0 54.1955 13.2483 718 108.727 797.567 480.767
3142 0 55.1424 13.4379 741 108.19 797.756 479.98
3143 0 53.151 12.6808 674 110.751 798.147 481.061
3144 0 53.1463 12.6632 673 110.762 798.27 480.428
3145 0 55.1348 14.1471 780 106.968 798.315 479.509
3146 0 53.2347 11.6278 619 112.714 798.032 480.451
3147 0 55.0492 13.824 761 106.84 798.11 479.673
3148 0 54.1044 13.4 725 108.146 797.041 478.97
3149 0 54.2637 13.2501 719 108.529 796.933 481.366
3150 0 54.069 12.521 677 110.95 797.136 479.981
3151 0 54.2163 12.5977 683 109.322 797.281 479.697
3152 0 52.0697 13.0018 677 109.117 797.324 481.337
3153 0 53.1295 12.9495 688 109.222 796.599 482.388
3154 0 53.1529 11.9843 637 111.576 796.325 481.168
3155 0 53.0892 12.5826 668 111.28 797.232 480.316
3156 0 53.2604 12.5234 667 110.447 796.673 481.306
3157 0 52.0258 12.0517 627 112.604 796.021 480.204
3158 0 53.1114 11.8995 632 112.002 795.957 479.767
3159 0 53.0911 11.8287 628 112.01 796.395 480.696
3160 0 52.265 11.6139 607 113.086 796.351 480.916
3161 0 54.1443 13.0762 708 108.486 796.999 480.744
3162 0 54.1546 13.4245 727 107.337 796.206 481.875
3163 0 52.2271 12.4073 648 111.608 796.284 480.545
3164 0 55.2573 14.3149 791 105.492 796.249 480.666
3165 0 53.1137 11.9555 635 111.454 796.685 481.616
3166 0 53.072 13.4534 714 106.989 797.735 481.587
3167 0 52.2683 10.7714 563 114.025 796.554 482.663
3168 0 53.1725 12.8074 681 107.683 796.361 479.802
3169 0 54.1485 11.5423 625 109.994 796.41 478.907
3170 0 53.1225 12.6312 671 107.358 797.165 481.075
3171 0 53.0444 11.6883 620 110.073 796.01 480.973
3172 0 53.1735 11.9044 633 109.957 796.33 479.949
3173 0 54.2138 14.6642 795 103.024 796.701 481.35
3174 0 52.128 11.3375 591 111.525 796.709 481.668
3175 0 51.2579 11.725 601 111.414 796.506 480.943
3176 0 52.089 12.4978 651 108.092 796.708 482.189
3177 0 52.0549 13.3513 695 107.601 795.886 480.378
3178 0 54.1302 12.9318 700 107.747 796.021 480.364
3179 0 50.2341 12.601 633 111.27 796.1 480.25
3180 0 53.1292 12.9496 688 109.224 795.593 481.546
3181 0 54.1605 14.3462 777 105.134 795.521 482.373
3182 0 54.236 13.976 758 106.104 795.896 482.355
3183 0 54.2579 13.1778 715 106.917 796.008 482.441
3184 0 53.0843 12.9794 689 108.26 796.412 481.495
3185 0 53.1345 12.7789 679 108.376 795.95 481.013
3186 0 51.2478 12.7225 652 109.816 795.87 480.528
3187 0 51.1999 11.543 591 111.719 795.719 481.541
3188 0 54.0922 13.1627 712 107.146 795.355 480.103
3189 0 52.1848 12.3408 644 109.947 795.424 479.876
3190 0 52.2806 12.3373 645 109.307 795.633 480.278
3191 0 54.2194 13.39 726 105.926 795.298 480.755
3192 0 53.1194 12.3119 654 108.573 795.621 481.133
3193 0 52.0865 12.5368 653 109.394 795.179 480.997
3194 0 54.0958 11.646 630 111.143 795.435 480.479
3195 0 53.2848 10.7348 572 113.467 795.407 480.724
3196 0 53.1966 12.0872 643 110.852 794.748 479.63
3197 0 52.1229 11.588 604 111.765 794.767 479.439
3198 0 53.1774 12.3737 658 109.084 794.778 481.102
3199 0 52.1145 13.1249 684 108.607 794.933 480.633
