time division length width area intensity CMx CMy
0 0 31.0034 11.0633 343 146.499 356.781 483.662
1 0 31.0555 11.8497 368 144.448 357.519 482.342
2 0 34.012 12.5838 428 138.689 357.614 482.834
3 0 34.0123 11.8193 402 142.388 358.149 482.659
4 0 35.0068 13.2831 465 135.783 357.753 482.682
5 0 35.0099 12.8821 451 140.211 357.448 481.845
6 0 36.0111 13.2737 478 139.082 356.425 481.36
7 0 36.0159 13.2442 477 147.648 355.43 481.396
8 0 39.0255 13.3759 522 137.117 356.814 481.08
9 0 39.024 13.0945 511 137.732 356.973 481.137
10 0 42.0329 13.3229 560 136.773 356.927 480.379
11 0 44.0254 15.0141 661 129.489 356.849 479.162
12 0 43.053 13.8898 598 136.062 356.207 478.46
13 0 45.031 13.302 599 136.361 355.947 479.12
14 0 46.0206 13.2984 612 136.387 355.892 478.832
15 0 47.0535 13.7716 648 135.877 355.5 478.009
16 0 45.0827 12.7765 576 140.53 355.616 477.663
17 0 49.0674 13.2675 651 137.366 355.465 476.406
18 0 51.0406 13.8517 707 135.081 354.075 477.023
19 0 51.1083 14.8117 757 132.83 355.238 476.985
20 0 54.0717 14.8507 803 132.829 354.995 475.117
21 0 56.0751 15.8181 887 98.6979 354.74 473.431
22 0 58.0979 14.5616 846 132.894 353.556 475.463
23 0 61.0394 15.7275 960 133.447 353.796 473.746
24 0 62.0847 15.2695 948 135.928 353.989 472.697
25 0 64.0658 14.5788 934 138.919 353.881 470.547
26 0 69.0708 14.8543 1026 133.847 353.664 471.767
27 0 70.2091 15.0978 1060 135.445 353.221 469.301
28 0 71.1009 15.2459 1084 136.26 354.269 466.938
29 0 73.0487 14.5793 1065 137.946 353.346 468.528
30 0 78.0479 14.5552 1136 136.17 352.917 465.754
31 0 78.0488 14.2091 1109 139.074 353.634 465.534
32 0 82.0932 14.4105 1183 137.463 353.83 464.381
33 0 87.145 15.7324 1371 129.913 353.397 462.762
34 1 45.03 11.7921 531 141.277 353.446 483.605
35 0 48.0262 14.2631 685 136.396 353.409 480.581
36 0 49.1007 13.2585 651 139.318 353.212 480.375
37 0 49.0623 13.9618 685 136.362 353.254 481.269
38 0 52.1662 14.2429 743 134.262 352.864 480.319
39 0 53.0726 14.7722 784 134.862 353.022 478.907
40 0 54.0286 14.4738 782 134.964 353.926 478.192
41 0 57.1131 14.7952 845 132.601 353.013 476.975
42 0 58.0429 14.9889 870 133.025 352.629 475.547
43 0 60.0448 15.2053 913 129.897 353.726 474.589
44 0 61.029 13.5182 825 135.295 353.554 475.359
45 0 65.0413 14.9136 970 129.901 352.55 473.804
46 0 67.1791 14.5879 980 131.11 352.086 472.485
47 0 70.0727 16.4115 1150 124.964 352.647 471.029
48 0 72.0572 15.3073 1103 128.046 353.119 469.284
49 0 74.0874 15.3332 1136 127.76 352.737 466.868
50 0 75.1426 14.1997 1067 130.8 352.079 466.263
51 0 78.0907 13.8173 1079 128.434 352.109 464.47
52 0 82.1272 13.3817 1099 126.087 352.115 461.193
53 0 86.1761 14.2151 1225 122.962 352.391 458.441
54 0 87.1539 14.2162 1239 122.9 352.22 457.656
55 0 91.2508 14.3451 1309 121.803 351.62 456.222
56 0 97.0997 14.3358 1392 120.362 351.494 454.874
57 1 49.0472 12.172 597 118.516 352.642 481.077
58 0 53.068 13.3037 706 117.853 352.494 481.195
59 0 52.062 13.1958 687 118.54 351.769 481.074
60 0 55.0596 12.8951 710 118.941 351.662 479.846
61 0 57.0709 13.2467 756 118.18 352.189 477.873
62 0 60.0911 13.4296 807 118.518 352.755 477.566
63 0 63.0423 13.8003 870 116.876 352.621 475.654
64 0 64.0258 13.3696 856 119.454 351.991 475.718
65 0 68.0641 12.6939 864 120.521 351.755 475.503
66 0 69.1625 14.3286 991 117.743 352.671 472.683
67 0 72.0723 13.8888 1001 119.288 351.794 471.846
68 0 74.1106 13.0076 964 121.705 350.975 470.775
69 0 76.0516 13.7275 1044 121.097 351.483 468.616
70 0 80.0784 14.1986 1137 119.519 351.51 467.902
71 1 42.0596 10.6278 447 119.651 352.38 488.74
72 0 41.0452 11.8162 485 114.264 352.08 484.043
73 0 45.0355 12.8565 579 107.073 350.577 486.411
74 0 43.0228 12.2958 529 115.072 352.321 486.654
75 0 43.0382 12.4076 534 114.277 352.017 487.277
76 0 45.0473 12.0318 542 116.288 352.118 484.625
77 0 47.029 10.2065 480 117.442 351.819 484.504
78 0 49.0469 12.4371 610 113.148 351.738 483.856
79 0 52.0975 12.7261 663 111.259 351.685 482.857
80 0 53.054 11.592 615 113.753 351.766 481.62
81 0 53.0175 11.5245 611 114.134 351.838 481.527
82 0 55.0496 11.753 647 112.968 351.464 479.21
83 0 59.092 11.8798 702 110.671 351.952 478.715
84 0 61.0714 11.6749 713 111.569 352.309 477.982
85 0 64.0706 12.2677 786 108.413 351.944 476
86 0 65.1138 11.9022 775 108.933 351.105 477.979
87 0 69.073 11.2345 776 110.287 350.897 474.735
88 0 71.2879 11.9796 854 107.968 350.898 473.567
89 0 73.1055 11.6407 851 108.866 351.007 471.737
90 0 74.0526 11.5458 855 108.412 350.908 471.334
91 0 78.1017 11.6643 911 108.078 350.374 470.269
92 0 80.1456 11.4666 919 108.797 350.499 466.174
93 0 84.1699 11.3342 954 109.317 350.955 466.813
94 0 87.1243 12.0518 1050 106.976 350.295 466.065
95 1 46.0093 11.6498 536 104.55 351.071 485.614
96 0 46.0492 11.3791 524 106.229 351.187 485.697
97 0 49.0596 11.6797 573 107.51 350.227 484.841
98 0 48.0563 10.5293 506 108.257 350.024 486.219
99 0 49.1181 11.3807 559 108.009 350.209 484.265
100 0 51.0187 11.6232 593 106.796 350.481 483.1
101 0 53.0464 10.7642 571 108.028 350.562 482.194
102 0 55.0174 11.3055 622 107.585 350.656 480.452
103 0 57.0751 11.0556 631 109.265 350.553 479.65
104 0 58.0397 10.4067 604 109.533 350.508 482.821
105 0 60.0512 10.7408 645 110.062 350.746 479.816
106 0 64.1008 12.2307 784 106.471 350.23 478.411
107 0 67.1091 11.7868 791 107.757 349.719 476.683
108 0 68.0539 11.4321 778 110.312 350.039 475.239
109 0 70.1073 12.4809 875 108.515 349.427 474.55
110 0 72.0665 11.753 847 112.257 349.103 471.481
111 0 75.0437 12.7126 954 109.588 348.496 471.803
112 0 81.0592 13.5456 1098 106.83 348.515 469.316
113 0 82.1059 11.7409 964 111.411 349.357 470.095
114 0 85.1043 12.9723 1104 108.226 349.902 464.731
115 0 89.055 12.06 1074 108.728 349.379 466.615
116 1 47.1876 11.5072 543 107.19 349.072 484.626
117 0 49.1975 12.0738 594 105.167 349.135 483.739
118 0 50.0377 11.911 596 103.507 349.898 483.839
119 0 51.2198 12.8271 657 101.842 349.994 483.196
120 0 52.1343 11.3169 590 104.559 349.814 481.597
121 0 55.106 12.3762 682 101.198 349.367 481.588
122 0 57.1089 12.59 719 100.113 348.829 480.452
123 0 60.0464 12.8567 772 98.9469 349.526 478.481
124 0 60.1322 11.5412 694 102.359 349.677 477.601
125 0 64.0722 12.6888 813 99.4108 349.556 476.07
126 0 65.1243 12.1307 790 100.539 349.513 475.291
127 0 67.1665 10.9578 736 103.471 349.321 474.774
128 0 70.0806 12.7139 891 100.517 349.843 472.776
129 0 72.0832 12.3607 891 101.862 349.673 470.697
130 0 76.076 12.3166 937 102.775 349.186 470.146
131 0 78.0786 13.7041 1070 100.058 349.962 468.195
132 0 81.0811 12.3457 1001 102.084 350.542 468.823
133 0 83.0906 11.325 941 105.362 349.904 466.318
134 0 87.0862 12.4245 1082 103.741 349.809 463.757
135 0 90.2269 12.8676 1161 104.266 350.145 464.87
136 1 46.0998 10.4122 480 108.096 350.41 486.294
137 0 49.1252 11.3384 557 108.44 350.029 482.399
138 0 50.0398 11.4909 575 111.941 350.861 483.692
139 0 51.0747 13.118 670 108.964 351.254 482.076
140 0 53.0824 13.187 700 109.55 350.197 480.604
141 0 54.0699 11.9105 644 111.602 350.537 481.885
142 0 55.1498 12.0399 664 114.137 349.608 480.52
143 0 56.1073 10.872 610 116.952 350.405 480.313
144 0 60.1656 13.1304 790 111.58 349.99 478.577
145 0 60.1488 11.8207 711 116.322 350.302 476.948
146 0 62.258 13.4601 838 113.406 350.592 475.444
147 0 63.2783 12.2791 777 116.429 350.743 476.144
148 0 68.1901 14.005 955 110.679 350.61 475.017
149 0 71.3066 13.0703 932 111.079 349.996 475.336
150 0 71.0494 11.9635 850 113.726 349.96 473.032
151 0 74.0195 13.4559 996 110.403 349.895 471.323
152 0 76.0828 12.8413 977 113.083 350.432 469.603
153 0 80.0496 13.5291 1083 104.502 350.144 470.086
154 1 37.0257 10.5062 389 108.401 350.524 490.278
155 0 43.0519 10.7545 463 107.812 350.736 489.136
156 0 43.107 11.7846 508 105.618 349.921 488.205
157 0 44.2096 13.436 594 104.088 350.008 484.347
158 0 46.0315 13.3604 615 104.616 350.224 486.437
159 0 48.01 12.5807 604 106.505 349.891 485.839
160 0 47.0147 12.9747 610 106.838 349.075 482.657
161 0 49.0348 11.6244 570 109.807 349.098 483.649
162 0 50.0467 13.0678 654 106.657 348.992 481.89
163 0 51.0328 12.1686 621 108.428 349.213 483.166
164 0 53.0503 13.2139 701 105.809 349.642 481.174
165 0 55.0324 13.8646 763 105.562 349.784 480.216
166 0 55.0598 13.4218 739 107.47 349.835 481.214
167 0 58.0861 12.0511 700 109.269 349.767 479.803
168 0 58.082 13.1883 766 108.238 349.423 476.039
169 0 62.0577 13.8097 857 106.026 349.321 475.573
170 0 64.036 13.6173 872 106.659 349.331 476.446
171 0 67.0939 12.9967 872 108.463 349.204 475.576
172 0 68.1016 13.333 908 109.453 349.509 475.557
173 0 70.0756 13.3427 935 110.337 349.034 471.85
174 0 74.0583 13.7054 1015 109.723 349.403 471.643
175 0 74.0779 13.6073 1008 112.126 349.476 469.191
176 0 77.0773 13.96 1076 112.192 349.53 468.176
177 0 81.0836 15.1079 1225 109.39 350.02 467.882
178 0 83.0519 13.7143 1139 114.23 349.954 465.392
179 0 87.0635 14.1047 1228 119.7 349.447 463.375
180 0 89.0884 13.7504 1225 121.957 348.8 464.197
181 0 90.2069 13.5577 1223 122.832 349.487 461.422
182 0 96.0987 15.3904 1479 117.153 349.12 459.809
183 0 99.1178 13.6101 1349 121.022 349.398 459.365
184 1 50.0304 10.4337 522 120.927 349.72 483.983
185 0 50.0164 12.256 613 116.264 350.364 481.246
186 0 52.0356 12.5491 653 113.43 350.698 481.155
187 0 53.0286 12.1255 643 115.792 350.628 480.877
188 0 54.0268 12.4568 673 114.588 350.006 481.694
189 0 57.0593 13.0741 746 112.662 350.55 479.824
190 0 58.0356 11.424 663 116.537 350.409 480.228
191 0 62.0316 13.0901 812 112.571 349.975 477.702
192 0 63.0692 13.287 838 112.887 350.086 476.214
193 0 64.0534 12.7394 816 115.217 350.615 475.618
194 0 66.1703 12.619 835 116.127 350.226 474.211
195 0 69.1403 12.7277 880 116.155 350.09 473.498
196 0 73.077 14.2589 1042 111.823 350.25 473.018
197 0 73.0754 13.4655 984 114.697 351.081 472.274
198 0 75.099 12.3038 924 119.4 350.12 469.883
199 0 80.0784 13.8614 1110 115.16 349.278 468.454
200 0 81.1535 13.8503 1124 115.819 348.978 466.531
201 0 85.1071 13.1364 1118 117.935 349.42 465.906
202 0 87.1679 13.2618 1156 117.837 349.487 465.238
203 0 89.1829 14.0498 1253 116.78 349.674 464.385
204 0 92.077 13.152 1211 120.534 349.964 462.407
205 0 97.1947 14.1469 1375 118.258 349.473 459.951
206 0 98.1856 13.3625 1312 123.352 348.915 460.362
207 0 104.13 14.6836 1529 120.43 349.387 456.735
208 0 107.123 13.6665 1464 121.64 349.589 454.506
209 0 111.142 13.8651 1541 120.245 349.254 453.7
210 1 57.1052 12.7484 728 112.838 350.03 476.828
211 0 58.1034 13.5792 789 113.757 350.227 475.19
212 0 59.0596 13.5626 801 118.377 348.946 476.39
213 0 60.0579 12.2548 736 123.039 348.461 476.649
214 0 61.0244 12.6343 771 122.642 349.093 476.314
215 0 66.0438 13.6273 900 118.434 349.443 474.967
216 0 67.0332 14.0378 941 117.878 348.379 473.774
217 0 70.0344 13.9646 978 117.117 348.681 472.409
218 0 71.034 13.1768 936 118.582 349.984 472.975
219 0 73.018 13.6953 1000 118.779 350.648 469.177
220 0 75.0307 12.9414 971 119.939 350.411 470.471
221 0 79.0409 15.7513 1245 82.098 350.556 472.059
222 0 78.034 13.4172 1047 118.445 350.852 468.591
223 0 81.1632 14.1567 1149 117.554 350.832 465.304
224 0 82.0715 12.745 1046 117.391 349.758 466.884
225 0 84.1251 13.7177 1154 117.008 348.862 464.841
226 0 87.1008 14.2479 1241 115.303 348.444 462.767
227 0 90.1366 13.7569 1240 117.335 348.527 461.808
228 0 95.1429 14.1997 1351 114.714 349.266 461.56
229 0 96.222 14.0404 1351 116.03 349.313 459.783
230 0 103.096 13.3274 1374 116.381 349.675 458.802
231 1 54.0269 10.8464 586 114.92 350.026 481.637
232 0 53.0944 9.83154 522 110.904 349.944 477.031
233 0 56.0847 12.071 677 107.715 350.477 474.456
234 0 57.0244 12.0475 687 114.016 350.511 479.824
235 0 60.0284 11.9444 717 114.117 350.743 478.591
236 0 62.073 12.437 772 111.385 350.031 478.101
237 0 65.0457 14.067 915 109.8 349.291 475.073
238 0 68.1279 13.8123 941 110.194 348.544 474.235
239 0 69.0989 12.938 894 112.679 349.338 475.671
240 0 70.0918 12.6834 889 114.438 349.893 474.003
241 0 72.0625 12.7251 917 115.602 349.392 471.574
242 0 76.2399 12.6705 966 115.052 349.173 471.473
243 0 77.0888 12.5829 970 116.762 349.095 468.797
244 0 81.1632 13.1956 1071 113.86 349.011 467.931
245 0 83.1823 14.0775 1171 112.491 349.681 464.901
246 0 86.2196 13.0133 1122 114.711 349.625 464.641
247 0 90.1154 13.0832 1179 114.659 349.541 463.656
248 1 48.1517 10.82 521 112.347 350.545 484.035
249 0 49.0443 11.194 549 110.546 349.277 484.548
250 0 51.1598 12.1971 624 111.037 350.247 480.814
251 0 53.0366 11.7466 623 111.011 350.23 482.65
252 0 54.0676 11.9295 645 112.395 350.679 480.223
253 0 57.0235 13.1875 752 109.644 350.729 479.221
254 0 56.0736 12.7868 717 112.577 350.411 478.031
255 0 59.1441 12.2582 725 113.19 350.088 477.934
256 0 62.1183 12.283 763 112.733 350.574 478.034
257 0 62.0794 12.8545 798 113.109 350.558 475.637
258 0 62.0705 12.8241 796 114.005 350.207 474.97
259 0 66.0314 12.5849 831 114.479 350.501 473.793
260 0 68.0766 13.1029 892 114.259 350.602 472.183
261 0 69.05 13.4395 928 114.091 350.274 471.082
262 0 73.0884 12.7517 932 115.545 350.131 470.418
263 0 76.1948 13.7411 1047 114.674 350.541 468.686
264 0 79.1571 11.5972 918 119.209 349.407 469.981
265 0 82.1395 14.7676 1213 112.475 350.12 467.458
266 0 83.1104 13.452 1118 117.441 350.843 465.589
267 0 86.2315 13.7421 1185 116.788 351.062 464.622
268 0 89.1023 13.434 1197 117.295 350.251 462.901
269 1 46.0472 9.92459 457 116.182 351.586 487.234
270 0 45.0179 11.1733 503 115.501 351.406 485.606
271 0 46.0272 11.5584 532 109.288 350.188 485.111
272 0 49.0181 12.5872 617 106.232 350.681 484.673
273 0 48.0935 11.7895 567 110.753 349.822 484.212
274 0 50.0472 12.708 636 109.329 348.95 483.33
275 0 52.0577 12.659 659 109.615 349.258 482.508
276 0 53.0577 11.6666 619 112.456 348.94 482.465
277 0 53.0746 12.9441 687 110.099 349.837 482.686
278 0 53.0267 12.6351 670 113.285 349.487 481.609
279 0 58.0868 12.4297 722 112.119 349.187 480.488
280 0 58.0316 13.4926 783 110.678 348.76 480.238
281 0 60.0502 13.3388 801 112.624 349.061 476.171
282 0 62.0604 12.8746 799 113.039 349.139 477.578
283 0 64.1038 12.433 797 114.03 348.604 476.897
284 0 66.0448 13.3697 883 112.185 348.926 476.327
285 0 64.0377 11.8524 759 118.327 348.628 474.659
286 0 70.0278 13.2804 930 113.601 349.203 474.19
287 0 73.0404 13.9238 1017 112.787 349.044 472.732
288 0 74.0395 13.2227 979 112.865 349.089 472.128
289 0 77.1128 13.6035 1049 119.323 350.333 469.686
290 0 81.1377 14.2967 1160 115.886 350.037 469.014
291 0 80.1083 13.2945 1065 120.651 350.12 466.973
292 0 85.1173 14.1452 1204 116.847 349.753 467.292
293 0 87.0946 13.514 1177 120.336 349.743 465.946
294 0 90.1148 12.9169 1164 118.896 349.564 466.52
295 0 92.1491 12.686 1169 118.958 349.977 463.742
296 1 50.0511 12.667 634 113.104 349.931 481.978
297 0 51.0807 11.2175 573 114.328 349.387 482.7
298 0 53.0307 13.313 706 108.19 350.154 481.399
299 0 53.0183 11.9393 633 108.401 350.054 481.992
300 0 56.0672 12.4493 698 106.123 351.02 480.603
301 0 57.0204 12.6797 723 106.949 350.466 479.178
302 0 58.0538 12.0405 699 107.103 349.742 481.567
303 0 60.0733 11.6524 700 107.879 349.456 479.476
304 0 60.0345 11.7266 704 108.244 349.743 478.003
305 0 63.1366 11.974 756 106.528 350.741 475.246
306 0 66.1115 12.4487 823 104.429 350.88 475.04
307 0 70.1078 11.5251 808 106.101 350.708 473.989
308 0 70.0699 11.617 814 107.101 350.817 473.332
309 0 73.0698 11.9201 871 106.866 351.475 470.76
310 0 75.0922 11.1729 839 108.657 351.285 470.147
311 0 77.1219 11.4494 883 107.542 351.257 469.132
312 0 80.0668 13.2514 1061 105.018 350.803 466.14
313 0 84.0717 13.4528 1131 103.965 350.523 465.026
314 0 85.1989 12.2654 1045 108.806 350.141 462.423
315 0 91.2009 13.5744 1238 106.183 349.896 462.865
316 0 92.1638 13.4218 1237 106.648 349.221 461.898
317 0 95.1846 13.1954 1256 106.717 349.811 459.752
318 0 98.2143 13.0836 1285 106.925 350.716 458.935
319 1 49.0716 10.2503 503 107.789 351.201 481.952
320 0 53.1564 11.4191 607 102.952 350.209 480.063
321 0 53.0315 12.2946 652 102.15 350.529 478.793
322 0 54.0688 10.1352 548 105.73 350.533 480.763
323 0 56.025 11.7447 658 102.798 350.202 478.46
324 0 56.0759 10.9138 612 104.881 350.642 478.75
325 0 58.0854 10.4329 606 105.843 350.686 479.559
326 0 60.0836 10.9181 656 105.48 350.855 476.39
327 0 62.0454 10.9758 681 105.642 351.131 476.339
328 0 65.0753 11.1717 727 105.784 351.271 475.462
329 0 66.1388 11.113 735 107.463 351.463 473.97
330 0 68.0614 11.7982 803 107.262 350.711 473.334
331 0 72.0467 10.9512 789 108.63 350.284 473.42
332 0 73.1121 10.86 794 109.082 350.611 471.456
333 0 75.1529 12.3482 928 107.356 349.946 469.151
334 0 79.168 13.0861 1036 104.616 350.083 467.388
335 0 80.1005 12.7964 1025 106.377 350.62 466.406
336 0 83.045 12.9327 1074 105.707 348.722 465.531
337 0 88.0585 12.6847 1117 104.959 349.794 464.832
338 0 90.0532 11.8597 1068 107.338 349.213 463.975
339 0 92.0978 11.6507 1073 109.204 349.162 462.093
340 0 94.0621 12.0346 1132 108.985 349.797 462.06
341 0 98.2727 11.5597 1136 110.66 349.761 457.613
342 0 101.079 12.0697 1220 107.823 349.516 457.748
343 1 52.0483 9.52962 496 108.198 350.512 480.762
344 0 56.0731 11.0748 621 106.44 351.142 480.77
345 0 58.1558 12.8104 745 103.877 350.43 478.298
346 0 59.0891 11.508 680 104.412 350.394 480.376
347 0 61.0692 11.9045 727 104.135 349.979 477.952
348 0 65.1468 12.4488 811 102.243 349.31 477.599
349 0 66.0492 13.5808 897 100.877 349.863 475.032
350 0 69.0964 11.9398 825 103.199 349.68 476.741
351 0 70.1155 11.7663 825 105.234 349.509 472.332
352 0 72.0421 11.8125 851 104.853 350.472 474.21
353 0 75.0615 11.1908 840 114.465 348.721 471.307
354 0 80.0676 13.3262 1067 109.287 349.429 470.281
355 0 81.1277 11.9688 971 112.423 349.5 471.139
356 0 82.0859 11.2565 924 115.489 349.429 469.424
357 1 45.0238 10.1058 455 111.901 349.426 488.314
358 0 48.1069 12.5969 606 105.896 349.484 486.573
359 0 47.1359 11.8805 560 107.843 350.221 486.373
360 0 48.0371 11.5536 555 109.15 350.177 485.708
361 0 53.1021 13.2763 705 102.123 350.328 484.759
362 0 51.0399 13.1662 672 105.49 349.963 481.854
363 0 54.0279 11.2164 606 109.408 349.183 484.109
364 0 56.0694 12.538 703 107.576 349.307 480.686
365 0 58.0268 13.6661 793 104.047 349.712 481.13
366 0 61.0342 13.304 812 104.018 350.27 481.321
367 0 61.1767 12.7826 782 106.756 350.986 478.379
368 0 64.1024 13.5564 869 105.661 351.472 477.481
369 0 64.0746 13.0629 837 107.956 351.424 476.781
370 0 68.091 12.4833 850 108.875 351.429 476.207
371 0 69.1744 12.8227 887 108.464 351.203 476.104
372 0 73.1511 13.4653 985 107.223 351.653 474.684
373 0 74.0623 13.9747 1035 106.839 351.806 474.188
374 0 77.095 13.1785 1016 109.772 351.047 472.467
375 0 81.13 14.1748 1150 107.308 350.32 471.863
376 0 81.0564 13.25 1074 111.104 350.235 470.191
377 0 86.1094 15.6429 1347 105.056 350.67 467.419
378 1 46.038 10.8389 499 116.741 351.026 487.625
379 0 47.0477 11.2226 528 119.133 351.386 485.023
380 0 49.1739 11.7339 577 116.239 350.241 484.802
381 0 49.0817 12.5912 618 114.777 350.545 484.214
382 0 51.0966 12.036 615 117.704 351.14 484.07
383 0 55.0653 11.4046 628 118.936 351.169 483.303
384 0 55.0738 11.1487 614 120.469 351.533 481.624
385 0 58.0945 12.6174 733 115.726 351.802 481.345
386 0 57.2074 12.1313 694 116.71 349.968 480.804
387 0 59.0565 12.4118 733 116.231 351.48 481.205
388 0 61.0465 12.8263 783 115.231 350.899 479.45
389 0 63.0473 11.9751 755 117.305 350.217 478.101
390 0 62.0435 11.9916 744 118.886 350.722 477.214
391 0 67.0677 12.629 847 116.041 350.462 475.636
392 0 71.062 13.5515 963 111.76 350.497 476.345
393 0 69.0973 12.287 849 117.846 351.456 472.643
394 0 72.1078 10.6507 768 120.779 351.388 473.529
395 0 75.1913 12.4748 938 115.268 350.555 473.401
396 0 76.1354 12.4778 950 117.974 350.673 470.292
397 0 83.142 13.5792 1129 112.398 350.44 469.735
398 0 84.1575 12.7737 1075 116.275 350.841 467.097
399 0 86.1864 12.5078 1078 116.389 350.157 467.134
400 0 89.1996 11.8947 1061 118.143 350.124 466.831
401 0 94.1547 13.584 1279 114.178 350.195 462.62
402 1 50.0601 11.0267 552 113.384 351.109 484.27
403 0 51.0902 10.3738 530 109.577 351.43 483.451
404 0 53.0798 11.3979 605 112.276 351.372 484.076
405 0 56.0145 13.4608 754 100.345 351.939 482.96
406 0 57.0431 12.6571 722 103.007 351.842 480.209
407 0 59.0736 12.2559 724 103.51 352.064 480.624
408 0 60.0457 12.4072 745 103.603 352.052 479.152
409 0 63.0763 12.9843 819 101.829 351.525 477.977
410 0 64.0739 13.422 860 101.312 351.517 477.449
411 0 65.0326 12.9473 842 103.495 351.785 475.641
412 0 66.0762 12.7731 844 104.628 351.795 473.865
413 0 70.0529 13.2614 929 103.223 351.834 475.544
414 0 69.0845 12.5643 868 107.561 351.21 473.221
415 0 71.1219 11.6982 832 109.147 351.456 468.863
416 0 75.0616 13.5222 1015 105.306 351.323 469.466
417 0 75.0543 12.391 930 109.273 351.43 469.433
418 0 77.1194 11.1904 863 111.188 351.506 468.313
419 0 82.0591 12.881 1057 107.433 351.736 467.116
420 0 85.1133 12.3013 1047 108.345 350.84 467.429
421 0 89.1112 13.1409 1171 107.337 351.243 461.301
422 1 47.1004 11.295 532 109.009 351.652 483.6
423 0 46.0152 10.6487 490 110.447 352.551 482.176
424 0 47.0613 10.3695 488 107.895 351.547 476.691
425 0 50.0091 11.5979 580 109.119 350.509 480.805
426 0 47.0264 10.8875 512 106.057 350.492 484.807
427 0 49.1872 11.4054 561 104.586 351.528 483.303
428 0 52.1145 10.2275 533 106.34 350.927 482.011
429 0 52.0714 9.64061 502 109.233 351.39 482.759
430 0 52.0588 11.0068 573 108.391 350.361 480.813
431 0 58.0874 11.6721 678 105.24 350.726 481.078
432 0 59.0503 11.6511 688 105.738 350.791 479.722
433 0 62.0574 12.9719 805 103.411 350.882 478.265
434 0 63.0828 11.6197 733 105.587 350.256 479.022
435 0 68.0571 12.6365 860 102.534 350.665 477.4
436 0 67.0355 12.292 824 105.475 350.67 476.063
437 0 71.1227 11.6981 832 106.572 350.828 475.781
438 0 71.1114 11.1515 793 110.198 350.419 472.391
439 0 79.2241 13.6448 1081 102.517 350.239 472.241
440 0 80.0766 14.124 1131 103.075 349.832 470.813
441 0 83.0983 12.9365 1075 106.432 350.129 468.142
442 0 87.1323 14.7936 1289 105.031 350.702 466.363
443 0 88.0962 13.4172 1182 111.882 350.352 465.743
444 0 93.1576 14.0192 1306 109.761 350.381 461.723
445 1 49.0681 11.2904 554 106.769 350.072 483.74
446 0 51.1766 13.0138 666 102.734 350.535 480.548
447 0 52.1058 11.7837 614 105.542 350.27 480.713
448 0 55.0824 12.5448 691 101.764 351.75 483.912
449 0 54.1578 12.4451 674 104.545 351.699 481.889
450 0 54.0696 11.2078 606 108.734 351.193 481.959
451 0 56.042 11.3486 636 107.325 350.514 483.865
452 0 57.0588 10.9887 627 110 350.443 480.869
453 0 61.0348 11.3542 693 108.082 349.984 480.242
454 0 64.028 13.1505 842 106.03 351.061 477.116
455 0 64.0338 11.8219 757 110.514 351.374 477.527
456 0 66.1162 10.8748 719 112.695 350.843 476.631
457 0 70.0446 12.7062 890 108.906 350.757 475.393
458 0 73.0909 12.7649 933 109.482 350.922 474.907
459 0 75.077 11.9744 899 112.397 350.476 473.081
460 0 77.0458 12.2524 944 112.638 350.85 472.166
461 0 80.0436 13.1803 1055 111.645 350.993 470.387
462 0 84.1154 13.0297 1096 111.679 351.082 468.733
463 0 87.0949 12.9284 1126 112.251 350.298 467.157
464 0 88.0663 12.5474 1105 113.299 350.236 467.146
465 0 92.1183 13.005 1198 113.684 350.296 462.691
466 0 96.1021 13.0486 1254 113.089 350.127 460.116
467 0 99.0768 12.4853 1237 120.905 350.15 461.74
468 1 53.0463 10.5757 561 116.176 349.533 482.834
469 0 55.0182 11.5235 634 113.856 349.377 481.782
470 0 57.0373 11.8168 674 108.895 349.657 482.433
471 0 59.0782 12.1534 718 108.428 350.5 479.957
472 0 60.0634 12.4701 749 108.952 351.247 477.74
473 0 60.0424 11.1421 669 113.184 351.432 478.876
474 0 62.0706 11.1003 689 114.086 350.927 477.615
475 0 68.0387 13.3747 910 107.138 351.226 475.207
476 0 69.1229 13.3386 922 108.535 351.268 475.283
477 0 70.0756 12.4437 872 112.429 350.725 473.712
478 0 73.0793 13.9711 1021 109.387 350.246 470.932
479 0 76.1899 12.2457 933 113.384 350.921 472.087
480 0 77.1023 13.9166 1073 110.072 350.768 471.337
481 0 81.1082 13.6114 1104 110.32 350.946 467.924
482 0 85.1042 13.0193 1108 110.172 351.259 468.042
483 0 88.0778 13.5675 1195 110.188 350.51 466.366
484 0 90.0845 12.3107 1109 115.324 350.733 465.429
485 1 47.0525 9.6488 454 117.621 351.529 487.916
486 0 49.047 10.6836 524 118.592 351.718 485.861
487 0 50.1834 10.5613 530 118.809 351.375 484.038
488 0 52.0648 11.4857 598 115.756 351.803 483.284
489 0 52.0408 11.5102 599 115.998 351.077 483.377
490 0 55.0794 11.3654 626 115.588 351.014 481.034
491 0 57.0443 12.727 726 112.344 350.922 480.394
492 0 59.0647 12.3255 728 113.563 351.195 480.111
493 0 62.1343 13.2294 822 110.431 351.114 478.522
494 0 62.1036 12.8656 799 113.397 351.365 476.914
495 0 62.0652 11.3429 704 118.729 351.643 478.172
496 0 66.1164 12.6141 834 114.145 351.875 477.186
497 0 68.1006 12.2172 832 115.325 351.786 476.93
498 0 71.1502 13.8721 987 111.734 352.112 473.551
499 0 75.1119 13.4599 1011 113.043 351.65 474.235
500 0 74.075 12.7438 944 119.124 351.744 472.95
501 0 78.0804 13.0378 1018 120.635 352.008 472.644
502 0 81.0889 13.1831 1069 120.793 351.356 469.28
503 0 83.0847 12.5174 1040 122.999 351.199 470.073
504 0 86.1536 13.9286 1200 119.722 350.648 465.83
505 0 90.1604 13.7976 1244 119.87 351.133 465.89
506 0 92.1491 13.6952 1262 120.805 351.712 463.87
507 0 95.0781 12.8 1217 123.046 351.662 461.691
508 0 99.1348 13.8801 1376 119.326 351.617 461.161
509 0 101.233 13.5825 1375 121.131 350.927 461.346
510 0 104.093 13.4111 1396 120.683 350.506 456.523
511 1 54.0924 11.9056 644 120.25 350.118 482.888
512 0 56.0805 11.002 617 123.932 350.207 480.342
513 0 58.1867 12.288 715 120.28 349.794 478.888
514 0 56.0358 11.9923 672 113.938 350.769 474.766
515 0 60.0519 12.2228 734 120.858 351.775 478.315
516 0 62.1086 12.1883 757 120.119 351.834 477.102
517 0 63.1099 11.2185 708 121.503 351.499 478.425
518 0 65.1067 12.395 807 120.024 351.703 474.499
519 0 68.0968 12.1004 824 118.983 351.602 476.441
520 0 68.0634 11.695 796 121.712 351.992 473.608
521 0 70.177 11.7132 822 121.724 351.742 473.501
522 0 73.1236 12.5678 919 119.268 351.084 471.354
523 0 76.2122 13.5674 1034 115.559 349.926 471.448
524 0 76.1232 13.2417 1008 118.876 350.276 467.679
525 0 78.1172 12.4172 970 120.991 350.945 469.586
526 0 82.1313 13.1984 1084 118.447 350.296 466.633
527 0 84.1627 13.0224 1096 118.884 350.252 466.796
528 0 86.135 13.6182 1173 118.107 350.757 463.831
529 0 90.1139 13.4275 1210 118.021 351.426 463.998
530 0 92.1966 13.1024 1208 120.141 350.915 460.405
531 0 94.1572 13.127 1236 120.056 350.879 458.852
532 0 97.1845 12.4917 1214 121.835 350.138 458.115
533 0 102.105 13.8484 1414 117.752 350.055 456.608
534 0 104.096 11.8065 1229 121.928 350.482 453.787
535 0 107.229 11.1164 1192 123.872 350.487 453.006
536 1 62.0895 11.6445 723 110.786 350.923 477.509
537 0 63.0829 10.9063 688 107.974 350.727 477.866
538 0 64.1357 12.0994 776 105.37 349.67 475.79
539 0 69.0616 13.4228 927 100.024 349.84 475.469
540 0 71.0647 11.5106 818 104.024 349.513 475.29
541 0 72.0992 12.0112 866 103.417 350.251 475.804
542 0 75.0859 12.6788 952 102.988 350.415 472.435
543 0 78.0825 12.7685 997 103.45 350.587 471.038
544 0 81.0986 12.8979 1046 103.564 349.923 469.501
545 0 82.0954 12.8875 1058 104.79 349.858 467.447
546 0 85.1531 12.9179 1100 105.112 349.795 466.075
547 0 88.1075 12.428 1095 106.774 350.126 464.667
548 0 91.0962 12.1959 1111 107.203 350.154 464.851
549 0 94.0902 13.2745 1249 106.512 349.658 462.42
550 0 95.0762 11.7064 1113 111.629 349.794 462.64
551 1 52.0498 10.9126 568 110.63 349.764 486.002
552 0 54.1302 11.4539 620 108.374 350.048 484.898
553 0 55.2554 12.6322 698 107.026 350.61 481.39
554 0 57.0306 12.8352 732 108.04 350.709 481.769
555 0 59.0119 12.7263 751 108.876 350.754 481.023
556 0 58.0676 11.4005 662 114.337 350.708 480.085
557 0 63.049 12.3555 779 110.399 351.203 480.339
558 0 62.0549 12.5856 781 112.504 351.054 478.145
559 0 65.0548 12.8046 833 112.012 351.074 478.749
560 0 65.0453 13.2984 865 113.292 350.531 475.64
561 0 68.1363 13.3703 911 112.897 351.329 476.415
562 0 72.0732 13.6389 983 112.364 351.352 475.443
563 0 74.1177 14.6119 1083 110.69 350.807 474.334
564 0 74.0707 13.3386 988 115.779 350.962 474.859
565 0 79.0649 13.6976 1083 114.589 351.129 473.091
566 0 79.1251 13.9399 1103 115.545 351.393 470.434
567 0 83.1683 13.6831 1138 116.272 350.338 468.503
568 0 88.1186 13.6521 1203 115.677 350.766 467.622
569 0 90.0871 14.9633 1348 112.519 350.994 466.076
570 0 93.1334 14.0981 1313 116.303 350.863 465.155
571 0 95.1126 13.5944 1293 117.886 350.891 465.021
572 0 100.103 12.9067 1292 117.375 350.533 463.985
573 1 53.0661 13.4361 713 113.812 351.394 484.669
574 0 54.0291 13.1041 708 112.26 351.071 484.011
575 0 55.1739 13.4303 741 108.949 351.462 483.744
576 0 56.1001 12.5312 703 111.67 351.59 482.599
577 0 57.1253 12.5339 716 112.476 352.043 481.936
578 0 61.0468 12.8754 786 111.162 351.875 480.398
579 0 62.0644 13.0993 813 111.089 351.471 480.018
580 0 62.0399 12.6048 782 113.777 351.518 479.294
581 0 67.0443 13.1257 880 112.224 351.723 478.427
582 0 68.0412 13.58 924 112.477 351.305 475.991
583 0 69.0962 13.3727 924 114.448 351.418 475.871
584 0 71.0487 12.5125 889 116.576 350.691 474.547
585 0 76.0889 14.2071 1081 112.025 350.352 473.652
586 0 76.1727 12.5898 959 118.947 350.215 471.973
587 0 77.0658 13.4301 1035 117.814 350.642 471.624
588 0 82.1865 13.6154 1119 117.071 350.532 470.34
589 0 82.088 12.8764 1057 117.491 350.777 469.308
590 0 87.1094 14.0283 1222 114.274 350.966 467.763
591 0 89.1319 14.3495 1279 114.292 350.643 467.653
592 0 91.1234 13.158 1199 118.81 350.377 464.878
593 0 93.0864 13.3102 1239 118.178 349.732 464.326
594 0 96.0728 13.9582 1341 118.063 349.169 461.199
595 0 99.062 13.5975 1347 121.679 349.687 461.846
596 0 103.078 13.8632 1429 121.004 349.84 459.533
597 0 105.198 13.0706 1375 122.711 349.618 457.984
598 1 57.0507 11.9192 680 121.275 348.588 480.535
599 0 60.0098 13.6478 819 113.896 349.52 480.101
600 0 62.0828 13.4337 834 113.932 351.142 478.399
601 0 62.0709 12.5663 780 115.108 351.197 479.315
602 0 66.0251 13.3434 881 111.688 351.157 477.375
603 0 69.0635 13.6251 941 112.278 351.485 477.479
604 0 68.1061 12.1722 829 115.814 351.227 476.419
605 0 72.1251 14.1698 1022 112.05 349.978 472.681
606 0 74.0543 13.3146 986 114.993 350.306 472.536
607 0 77.2069 12.7968 988 116.502 350.583 470.234
608 0 81.0942 14.292 1159 111.324 351.278 470.217
609 0 81.1124 13.2779 1077 115.38 351.482 467.922
610 0 83.1242 12.1625 1011 119.341 351.064 466.172
611 0 85.0954 11.6575 992 118.996 350.426 468.294
612 0 89.0874 11.9546 1065 118.501 350.604 462.047
613 1 49.0125 11.5073 564 111.316 349.234 484.305
614 0 52.0252 11.283 587 110.373 348.697 484.574
615 0 51.0256 11.4256 583 111.012 349.117 484.42
616 0 51.0186 10.4864 535 106.925 350.415 486.097
617 0 51.0262 11.2883 576 107.22 350.872 485.16
618 0 50.0684 10.5256 527 109.905 350.355 484.398
619 0 53.0319 10.0128 531 110.004 349.661 482.418
620 0 57.0518 11.9365 681 104.695 350.32 481.354
621 0 58.0644 11.8317 687 104.652 350.307 480.808
622 0 57.0534 11.165 637 107.391 350.231 479.072
623 0 64.0429 12.6009 807 101.064 349.674 478.787
624 0 65.1077 12.1798 793 101.66 349.682 477.562
625 0 66.0704 12.1688 804 103.133 348.947 475.392
626 0 70.1451 11.0628 776 103.173 348.348 477.407
627 0 69.1062 11.8658 820 103.784 348.699 475.143
628 0 71.0748 10.904 775 107.548 349.308 472.615
629 0 75.0773 12.2008 916 104.997 349.559 472.75
630 0 78.0761 12.808 1000 104.877 349.387 470.598
631 0 81.0946 12.3683 1003 105.392 349.063 469.722
632 0 85.1157 12.9353 1101 104.149 349.617 467.72
633 0 86.1124 11.2876 972 108.226 349.344 467.593
634 0 90.1415 12.5137 1128 105.781 349.411 466.56
635 0 93.112 11.8245 1101 107.624 349.461 465.252
636 1 50.0496 12.2279 612 105.286 349.306 483.675
637 0 50.2563 11.7796 592 105.916 350.245 485.115
638 0 52.0843 11.3854 593 108.556 349.852 480.84
639 0 55.1489 11.7137 646 107.927 348.314 481.783
640 0 57.0296 12.4672 711 106.274 348.654 480.222
641 0 59.0453 12.0755 713 107.626 348.856 478.913
642 0 62.0216 11.8991 738 107.768 348.943 478.358
643 0 63.0641 11.9085 751 108.336 348.74 477.944
644 0 66.0668 12.1846 805 107.991 348.468 476.873
645 0 69.0576 14.4372 997 103.297 348.646 474.564
646 0 70.0376 11.965 838 109.544 348.597 475.743
647 0 73.0499 13.1554 961 105.692 349.065 476.585
648 0 74.0245 12.1716 901 111.182 348.699 473.042
649 0 78.036 12.1354 947 109.847 349.271 473.226
650 0 79.0316 13.0581 1032 108.542 348.467 470.412
651 0 80.0866 12.1743 975 111.942 348.777 468.57
652 0 84.0644 12.1811 1024 111.818 348.532 466.395
653 1 45.0283 10.6378 479 108.881 347.885 487.712
654 0 45.0124 9.64179 434 111.353 348.774 488.196
655 0 47.0548 10.9872 517 111.538 349.584 485.727
656 0 49.0158 11.5269 565 109.6 349.074 485.823
657 0 52.0174 12.169 633 108.791 348.258 485.738
658 0 48.107 10.1856 490 108.416 348.469 485.778
659 0 52.062 11.9089 620 104.853 348.756 485.265
660 0 50.114 10.4961 526 111.015 348.958 483.679
661 0 52.0279 11.5515 601 109.451 349.359 484.845
662 0 56.0843 11.5184 646 110.22 349.475 481.796
663 0 57.0482 11.1835 638 110.328 349.502 482.71
664 0 59.1041 10.9299 646 109.91 349.096 480.387
665 0 61.1488 12.6413 773 106.316 349.229 480.283
666 0 63.071 11.7645 742 107.164 349.07 481.683
667 0 65.1212 13.1601 857 104.746 349.375 478.282
668 0 68.1091 11.9514 814 106.555 349.081 475.638
669 0 68.1154 12.0678 822 108.276 348.377 477.035
670 0 73.0958 13.2566 969 105.876 349.124 476.144
671 0 75.2212 12.5231 942 108.86 348.815 475.102
672 0 78.114 11.1504 871 111.177 347.824 475.392
673 0 78.1509 11.8745 928 113.075 348.412 472.526
674 0 83.1722 12.9971 1081 110.658 348.414 470.17
675 0 88.0891 13.1344 1157 110.675 348.796 470.29
676 1 48.0424 10.7405 516 116.109 348.333 487.622
677 0 49.0303 11.034 541 116.95 348.56 486.762
678 0 50.175 11.5795 581 114.205 348.775 485.886
679 0 52.1246 13.0265 679 113.758 348.816 484.535
680 0 53.1173 12.7642 678 115.683 348.614 483.65
681 0 56.1036 12.263 688 116.363 349.358 484.126
682 0 59.0676 13.493 797 113.494 349.256 482.232
683 0 58.1221 13.0071 756 116.366 348.775 482.329
684 0 61.1486 12.9684 793 116.347 348.579 479.943
685 0 63.073 12.5569 792 116.874 348.729 480.74
686 0 63.049 12.8472 810 117.744 348.184 479.047
687 0 65.05 12.5288 815 117.996 348.05 479.169
688 0 68.0467 12.4326 846 117.827 349.147 476.974
689 0 72.0748 13.486 972 114.324 348.623 475.619
690 0 72.0725 12.4319 896 118.835 348.467 474.346
691 0 74.1431 13.5144 1002 116.209 349.133 472.469
692 0 75.2308 12.8405 966 118.705 349.238 471.248
693 0 78.1194 12.9289 1010 118.8 348.893 469.445
694 0 81.0595 13.3235 1080 116.889 349.153 471.2
695 0 85.1427 13.2014 1124 117.533 350.11 467.73
696 0 89.165 12.7965 1141 118.514 349.557 465.437
697 0 91.2407 13.5795 1239 116.895 350.101 464.447
698 0 93.1709 13.2981 1239 118.051 350.281 463.599
699 1 50.0904 10.6208 532 117.421 350.274 484.558
700 0 48.2765 10.7713 520 116.008 351.163 484.083
701 0 52.0192 11.515 599 110.893 350.561 485.245
702 0 53.0273 12.6161 669 113.33 349.196 483.236
703 0 56.0403 11.9021 667 113.91 348.766 483.204
704 0 57.0909 11.6306 664 115.283 348.423 481.676
705 0 58.0677 12.6921 737 112.594 348.385 480.829
706 0 61.041 12.9257 789 111.549 348.989 480.615
707 0 60.0585 11.9883 720 115.343 348.256 479.689
708 0 61.0756 12.3617 755 115.397 348.866 476.438
709 0 64.0403 12.6327 809 113.247 348.907 477.455
710 0 67.0472 13.9902 938 110.345 349.069 476.455
711 0 71.0739 12.3674 879 113.35 348.544 475.841
712 0 69.036 12.4573 860 115.814 348.952 474.322
713 0 72.1078 13.2579 956 114.75 348.808 472.29
714 0 74.0595 12.9626 960 115.007 348.916 471.101
715 0 79.1815 12.8692 1019 115.704 349.726 470.25
716 0 80.1361 12.8906 1033 116.741 350.205 468.702
717 0 81.1168 13.2155 1072 118.242 349.716 465.529
718 0 86.101 12.404 1068 118.734 349.538 466.79
719 0 87.1537 12.4493 1085 118.718 349.041 465.319
720 0 86.1453 12.2468 1055 119.909 349.067 465.547
721 0 96.279 12.7961 1232 116.539 349.322 463.88
722 1 48.0601 12.526 602 108.274 348.91 487.241
723 0 46.0708 9.52881 439 103.964 349.579 483.21
724 0 51.0674 10.2022 521 102.378 349.722 482.186
725 0 51.0338 9.64067 492 109.114 349.49 486.169
726 0 51.0826 10.2775 525 108.941 349.168 483.819
727 0 55.0982 12.4687 687 103.195 349.326 483.594
728 0 57.0875 12.1743 695 102.584 349.59 483.174
729 0 58.131 10.8548 631 105.412 349.781 480.921
730 0 60.053 11.8229 710 102.732 349.517 481.366
731 0 60.0449 10.9252 656 106.595 349.2 479.543
732 0 64.0419 12.7104 814 102.472 349.177 477.609
733 0 67.174 11.6414 782 102.757 348.935 478.295
734 0 68.0266 10.9516 745 105.815 348.762 477.69
735 0 69.0384 12.0078 829 104.971 349.005 475.6
736 0 73.1397 11.895 870 104.949 349.449 474.949
737 0 75.073 11.935 896 104.296 348.635 475.249
738 0 77.1159 10.8279 835 107.903 349.365 472.301
739 0 79.0645 12.5341 991 104.891 349.134 469.809
740 0 85.0826 12.4232 1057 105.453 349.397 468.52
741 0 86.1191 11.7512 1012 106.952 349.887 469.086
742 0 86.1472 11.7706 1014 107.355 349.901 466.346
743 0 90.1882 11.975 1080 106.531 349.17 465.33
744 0 93.1745 12.3317 1149 106.522 349.682 464.064
745 0 96.0987 12.2166 1174 106.276 349.229 462.649
746 1 49.0525 12.0483 591 103.078 349.298 485.022
747 0 51.0652 11.6518 595 102.729 349.022 485.229
748 0 50.0635 12.7438 638 99.7821 349.331 484.157
749 0 52.0388 12.7213 662 99.5347 349.142 485.459
750 0 52.0734 11.5222 600 102.097 349.118 483.195
751 0 57.073 12.9483 739 97.9932 349.907 481.055
752 0 57.0832 11.2643 643 102.084 349.826 481.907
753 0 61.1186 13.662 835 96.7629 349.687 480.531
754 0 61.0924 13.2259 808 98.6374 349.277 480.67
755 0 62.082 12.4029 770 101.727 349.738 478.803
756 0 64.1386 12.2391 785 102.711 349.76 476.344
757 0 66.1084 11.829 782 104.125 349.049 477.344
758 0 67.1449 11.5124 773 105.722 348.838 474.317
759 0 71.2168 11.795 840 104.927 349.196 474.549
760 0 74.0737 12.9466 959 102.644 349.358 474.835
761 0 76.0694 11.4106 868 106.581 349.718 474.082
762 0 79.0614 11.5986 917 105.328 349.12 474.943
763 0 83.0774 12.5907 1046 105.12 348.63 469.105
764 0 84.0565 11.5756 973 107.953 348.746 469.062
765 1 44.0197 10.4044 458 108.965 349.079 488.253
766 0 48.0571 10.654 512 107.705 348.885 487.555
767 0 49.0232 12.0351 590 104.129 348.88 485.759
768 0 47.0112 10.8059 508 113.713 349.067 484.52
769 0 48.0228 11.5362 554 106.283 350.022 485.448
770 0 50.0846 11.7601 589 104.435 351.536 485.334
771 0 50.0364 10.7322 537 107.598 351.693 485.127
772 0 53.1001 11.9209 633 103.935 350.664 484.803
773 0 52.0379 11.3571 591 107.682 350.783 482.753
774 0 55.0421 11.6093 639 106.221 351.674 481.125
775 0 56.1167 10.4782 588 107.422 351.333 483.893
776 0 61.0604 12.3648 755 102.743 350.714 480.689
777 0 61.1198 11.9437 730 104.479 350.597 481.168
778 0 63.0585 12.4488 785 104.828 350.972 477.976
779 0 65.0759 12.2472 797 106.97 350.837 476.723
780 0 66.0664 11.9728 791 107.928 350.92 476.608
781 0 72.1351 12.13 875 106.976 351.233 476.377
782 0 72.1118 13.1185 946 106.373 351.518 472.796
783 0 76.154 12.8555 979 106.869 351.416 471.132
784 0 79.1193 12.3611 978 107.344 350.872 471.966
785 0 80.0592 12.4158 994 109.382 349.166 471.228
786 1 44.011 12.0197 529 107.172 348.817 489.749
787 0 44.0682 11.3007 498 110.341 349.382 488.426
788 0 46.0647 11.6141 535 109.837 351.075 488.164
789 0 44.0237 10.8578 478 104.527 349.724 489.529
790 0 48.1354 10.1381 488 104.305 348.783 488.756
791 0 50.0433 10.431 522 103.682 348.866 487.908
792 0 49.0934 9.67544 475 106.238 348.737 487.467
793 0 53.1108 11.2783 599 102.147 349.244 484.691
794 0 52.1038 11.5347 601 104.203 348.79 482.198
795 0 55.072 10.2593 565 105.602 348.768 483.825
796 0 55.0334 10.3392 569 105.996 349.575 483.213
797 0 58.1243 12.0087 698 101.607 349.646 482.938
798 0 59.0861 11.8979 703 103.717 349.627 479.794
799 0 60.1679 11.0025 662 105.461 350.928 479.373
800 0 63.0739 11.8591 748 103.628 350.824 479.25
801 0 67.1802 12.3548 830 102.969 350.805 477.02
802 0 69.1342 11.7308 811 105.101 350.818 476.427
803 0 70.1542 11.8596 832 106.569 350.578 474.858
804 0 72.1823 12.7871 923 105.012 350.534 473.103
805 0 75.0707 11.9887 900 106.747 350.099 473.808
806 0 77.1132 11.321 873 110.324 350.1 472.032
807 0 81.1278 11.5004 933 109.725 350.229 471.244
808 0 84.1816 13.1383 1106 106.669 349.892 468.571
809 0 86.1259 11.9012 1025 110.882 350.266 466.395
810 0 90.1097 12.8843 1161 109.633 351.041 466.414
811 0 93.1455 12.9153 1203 110.668 350.8 463.543
812 1 50.0518 10.2094 511 109.712 350.808 486.55
813 0 53.1505 11.9472 635 105.641 351.274 485.839
814 0 52.1516 11.0639 577 108.348 350.737 484.374
815 0 55.0925 12.1251 668 104.06 351.436 483.931
816 0 57.1776 11.9452 683 105.154 350.876 482.578
817 0 58.1652 11.9315 694 106.447 350.481 482.209
818 0 59.0363 10.6206 627 110.3 350.955 480.774
819 0 63.2682 11.9017 753 107.328 350.916 481.321
820 0 63.0952 12.9645 818 107.418 351.317 477.929
821 0 63.0534 11.5616 729 111.978 351.469 479.97
822 0 67.0438 11.9027 798 111.959 351.719 478.398
823 0 70.0828 12.157 852 111.106 351.616 478.715
824 0 70.0667 13.3444 935 111.634 351.055 474.416
825 0 74.1551 11.5703 858 114.312 350.395 475.633
826 0 76.0901 11.631 885 113.724 350.914 475.938
827 0 80.1359 12.666 1015 112.276 351.616 471.457
828 1 43.0582 11.8909 512 110.891 351.893 489.439
829 0 42.0728 11.1711 470 109.049 348.708 489.54
830 0 43.0308 12.2238 526 114.217 351.388 487.696
831 0 44.0412 12.4429 548 114.111 351.038 487.248
832 0 46.029 11.5362 531 115.554 350.759 488.04
833 0 47.0742 11.62 547 116.373 350.581 487.6
834 0 48.0179 11.8914 571 116.553 350.433 487.287
835 0 49.0172 12.9138 633 115.114 350.42 484.602
836 0 51.04 12.598 643 114.459 351.028 485.117
837 0 51.0102 11.782 601 116.897 350.907 484.559
838 0 52.0369 12.7217 662 115.829 350.663 483.562
839 0 53.0258 12.4468 660 116.653 350.029 483.752
840 0 55.0577 11.8058 650 118.458 350.378 482.826
841 0 56.069 12.0566 676 116.703 350.402 483.037
842 0 56.0691 12.8056 718 116.882 350.228 480.01
843 0 58.0487 12.7651 741 115.648 349.717 481.096
844 0 62.0867 13.2718 824 113.519 349.949 479.358
845 0 63.0481 11.3881 718 117.951 350.223 479.49
846 0 67.0258 13.8305 927 111.104 350.462 476.655
847 0 68.1105 12.788 871 113.552 350.315 477.985
848 0 70.0315 12.6514 886 114.933 350.29 475.511
849 0 71.0856 12.4076 882 115.476 350.883 475.333
850 0 73.0749 12.7677 933 115.337 350.229 473.617
851 0 74.0623 12.1519 900 117.283 350.36 472.487
852 0 78.0932 13.2278 1033 113.836 350.009 471.585
853 0 79.0802 13.7582 1088 113.467 349.998 470.347
854 0 82.0739 12.6471 1038 116.483 349.873 466.874
855 0 84.0963 13.1159 1103 115.9 349.756 467.82
856 0 87.099 12.9049 1124 115.97 349.548 466.109
857 0 89.1223 12.9597 1155 116.04 349.782 464.913
858 0 93.2496 12.311 1148 117.842 349.337 464.595
859 0 98.1055 12.7618 1252 115.89 348.322 461.578
860 0 100.169 12.6986 1272 116.594 347.819 458.419
861 1 51.0803 10.8065 552 117.161 350.196 483.109
862 0 53.0965 11.6015 616 113.38 350.718 483.739
863 0 52.0579 10.0657 524 102.37 350.359 480.614
864 0 55.0766 10.2584 565 99.3752 349.446 479.513
865 0 57.0786 11.5104 657 97.933 349.304 476.77
866 0 56.0847 9.82443 551 101.768 349.343 473.875
867 0 59.0731 11.5958 685 98.7942 349.645 473.469
868 0 61.0356 11.3704 694 100.5 349.697 472.128
869 0 64.1567 11.0199 707 100.931 349.205 472.649
870 0 66.11 12.4187 821 99.9781 350.037 471.974
871 0 67.298 11.6942 787 101.882 349.962 469.365
872 0 71.1725 10.4254 742 104.64 349.299 465.628
873 0 73.0534 10.7045 782 105.46 349.729 465.098
874 0 77.2149 11.7853 910 103.151 349.211 465.093
875 0 79.133 11.765 931 104.12 348.655 464.509
876 0 80.1922 11.7842 945 105.657 349.163 463.001
877 0 83.149 12.5798 1046 105.077 349.193 459.777
878 0 87.1072 11.3883 992 107.872 348.67 459.634
879 0 91.1288 11.4344 1042 107.025 348.213 460.531
880 0 95.1395 11.8983 1132 106.949 348.551 457.675
881 0 97.1623 12.6695 1231 105.799 348.384 454.771
882 1 52.0353 11.2616 586 114.596 350.186 483.544
883 0 52.1264 11.8942 620 110.939 349.166 478.926
884 0 52.0636 9.27712 483 107.919 349.596 478.702
885 0 54.0604 10.6733 577 104.522 349.229 478.848
886 0 58.137 10.9569 637 104.289 349.804 478.202
887 0 59.1619 10.6488 630 104.468 349.729 476.221
888 0 64.0622 11.5981 743 102.257 349.855 475.802
889 0 65.0519 13.1126 853 108.375 348.98 477.202
890 0 69.094 12.3889 856 109.471 349.158 476.528
891 0 70.1966 11.2399 789 111.165 348.224 477.194
892 0 73.0595 12.264 896 108.456 348.631 472.354
893 0 76.0323 11.3241 861 109.994 347.692 472.83
894 0 80.0521 11.0678 886 108.448 347.989 473.035
895 0 82.0515 11.1881 918 109.228 348.118 470.562
896 0 86.1188 11.9486 1029 107.802 348.659 468.824
897 0 89.1153 11.401 1016 109.468 348.449 466.035
898 1 45.051 10.8988 491 107.23 348.957 488.75
899 0 46.0249 12.1673 560 106.446 348.925 485.725
900 0 48.0823 11.7923 567 108.413 350.84 485.298
901 0 50.0339 12.2317 612 106.992 350.645 483.85
902 0 52.0284 12.7623 664 106.256 350.866 483.577
903 0 54.0288 13.3077 719 104.431 350.615 482.797
904 0 54.1479 12.5582 680 106.697 350.997 483.325
905 0 57.1301 12.9354 739 104.617 349.422 482.652
906 0 58.0699 13.4321 780 104.881 349.864 480.817
907 0 61.051 12.7762 780 105.696 350.017 481.197
908 0 62.1193 13.0072 808 106.454 349.876 477.7
909 0 66.0954 13.0871 865 104.806 349.986 479.114
910 0 65.1864 13.7145 894 105.508 349.752 475.758
911 0 68.1219 13.4465 916 105.836 350.102 475.537
912 0 70.0755 14.2561 999 104.943 349.86 474.736
913 0 73.1097 14.1431 1034 104.482 349.775 474.824
914 0 74.1259 12.5192 928 109.58 349.389 473.398
915 0 75.0608 11.7105 879 113.532 349.555 469.875
916 0 81.1435 14.0615 1141 106.731 349.456 469.591
917 0 82.1584 13.547 1113 109.249 349.35 468.442
918 0 84.1321 12.4566 1048 112.598 349.657 468.019
919 0 85.1441 11.369 968 116.892 349.478 466.804
920 0 90.1026 13.3958 1207 111.665 349.185 465.362
921 0 92.1241 12.8414 1183 112.701 349.216 464.133
922 0 95.1491 11.771 1120 115.675 349.495 461.59
923 1 51.1066 11.388 582 112.741 349.519 483.366
924 0 54.0862 13.0348 705 107.177 349.672 483.617
925 0 56.0418 13.0081 729 106.816 348.936 482.775
926 0 54.0944 11.9791 648 110.262 349.744 483.103
927 0 55.1344 11.6443 642 112.131 349.382 481.882
928 0 61.081 12.508 764 108.572 349.373 480.331
929 0 61.1203 12.7944 782 108.932 349.587 480.047
930 0 63.1434 12.2578 774 109.773 350.123 477.853
931 0 65.136 13.3874 872 106.26 349.873 478.146
932 0 68.306 13.8202 944 105.495 349.707 475.742
933 0 69.1552 12.3635 855 109.537 349.482 475.393
934 0 70.068 13.3014 932 108.73 349.332 473.552
935 0 73.1439 13.8357 1012 107.041 348.886 470.757
936 0 77.1262 13.7826 1063 106.553 349.004 471.416
937 0 79.1684 13.6797 1083 106.536 348.749 469.604
938 0 82.2737 14.2087 1169 105.188 348.672 469.194
939 0 84.4135 14.5 1224 105.475 348.446 466.764
940 0 87.2543 13.9477 1217 106.117 348.744 463.672
941 0 90.1539 13.7099 1236 107.155 348.829 462.503
942 1 48.1395 11.1135 535 113.714 348.585 483.688
943 0 51.1336 12.1056 619 111.863 349.008 481.921
944 0 53.0858 13.902 738 107.207 349.694 483.056
945 0 54.1214 12.2133 661 111.195 349.469 483.126
946 0 53.0902 13.3735 710 105.749 348.894 483.234
947 0 53.0612 11.7788 625 109.658 350.36 482.614
948 0 56.0616 11.969 671 108.499 350.917 481.592
949 0 58.0591 12.6595 735 107.333 351.034 479.872
950 0 61.0987 12.9299 790 107.592 350.405 478.342
951 0 61.1123 12.1252 741 109.016 351.054 478.116
952 0 65.1625 12.4765 813 107.854 349.857 477.248
953 0 67.0722 13.3438 895 106.24 349.978 476.032
954 0 67.0859 11.761 789 111.584 348.123 472.757
955 0 71.1812 11.4497 815 111.299 347.944 473.955
956 0 74.1367 13.4886 1000 106.714 348.49 469.396
957 0 74.0762 12.1631 901 110.511 348.93 470.434
958 0 79.1262 12.7012 1005 108.754 348.483 469.297
959 0 82.0739 12.7324 1045 108.773 349.426 468.387
960 0 84.076 12.6433 1063 110.236 349.379 464.968
961 0 88.211 13.5244 1193 108.207 350.624 466.438
962 0 91.1183 14.2123 1295 107.462 350.133 462.927
963 0 93.1408 13.9359 1298 108.662 350.508 460.635
964 0 95.1384 11.8879 1131 113.874 349.74 460.441
965 0 100.104 12.9665 1298 111.488 350.093 458.344
966 0 100.23 12.7008 1273 111.563 349.948 455.421
967 1 51.0674 9.59516 490 105.496 350.086 475.965
968 0 55.0538 11.4979 633 100.694 350.171 473.875
969 0 56.0273 9.03131 506 98.8379 349.854 475.174
970 0 61.1495 12.7556 780 100.006 348.309 480.605
971 0 62.0664 11.8583 736 102.717 348.545 477.59
972 0 66.1213 13.0518 863 99.4612 348.998 478.659
973 0 67.1312 11.9468 802 103.905 348.863 475.294
974 0 70.0363 12.2508 858 102.664 348.825 474.661
975 0 73.197 13.1153 960 102.019 348.464 472.585
976 0 75.2481 12.4787 939 103.541 349.129 472.113
977 0 76.1219 12.2567 933 105.431 349.507 470.453
978 0 78.0652 12.4383 971 105.885 348.8 470.133
979 0 81.1061 11.7747 955 107.343 348.473 469.692
980 0 85.1379 11.9806 1020 107.221 348.794 468.645
981 0 89.1699 12.7397 1136 104.847 348.712 469.799
982 1 46.093 12.0626 556 105.79 348.709 483.874
983 0 50.035 12.5512 628 106.232 348.516 485.557
984 0 52.0444 12.3356 642 106.371 347.931 483.245
985 0 52.111 12.3199 642 111.41 350.335 482.802
986 0 55.0118 11.4703 631 113.117 351.521 482.396
987 0 57.0718 11.249 642 113.505 352.249 481.466
988 0 56.0594 12.6116 707 112.911 352.18 478.737
989 0 59.0387 12.026 710 113.027 351.348 480.658
990 0 61.0356 12.1077 739 112.33 350.888 480.876
991 0 63.0406 11.913 751 112.957 351.067 479.787
992 0 65.1493 11.4813 748 115.524 351.158 478.171
993 0 66.0348 12.024 794 114.8 351.35 478.259
994 0 69.0674 12.6688 875 112.921 351.353 476.103
995 0 70.1312 11.6638 818 115.061 351.902 475.845
996 0 72.1262 12.5752 907 114.012 351.563 473.752
997 0 75.1413 12.0174 903 115.391 351.653 473.034
998 0 78.108 13.6862 1069 110.541 351.54 473.729
999 0 78.1902 11.4081 892 118.475 351.288 472.561
1000 0 83.1555 13.2042 1098 114.149 351.157 469.007
1001 0 85.1978 12.4299 1059 116.636 351.253 468.523
1002 0 89.1405 14.393 1283 112.353 351.281 466.999
1003 0 90.0986 13.6961 1234 115.161 350.776 465.581
1004 0 93.0767 13.1719 1226 116.513 350.709 464.234
1005 0 96.0811 12.8954 1239 116.746 350.933 464.638
1006 0 99.2105 12.2568 1216 118.16 350.833 462.558
1007 0 105.307 12.5157 1318 118.074 350.312 460.316
1008 1 54.0502 10.6198 574 116.291 350.334 484.322
1009 0 58.1201 11.9752 696 111.829 349.97 482.678
1010 0 58.1841 12.5808 732 111.654 349.527 479.157
1011 0 62.2997 12.5362 781 115.595 349.074 479.371
1012 0 63.1532 12.3984 783 119.209 348.055 478.51
1013 0 66.1608 13.4672 891 115.893 348.681 477.295
1014 0 66.2145 13.4412 890 116.754 349.067 476.33
1015 0 69.0754 13.9558 964 116.049 348.892 476.306
1016 0 70.1032 14.1506 992 116.605 348.843 475.815
1017 0 70.1698 13.2536 930 119.838 348.254 475.973
1018 0 73.1676 14.1456 1035 118.505 349.16 473.386
1019 0 75.16 12.9989 977 121.697 349.403 473.927
1020 0 76.092 13.8517 1054 120.73 348.878 472.129
1021 0 80.1646 13.7342 1101 119.372 348.967 473.108
1022 0 83.13 13.2563 1102 122.421 348.39 470.206
1023 0 83.1067 13.4766 1120 123.514 348.851 468.833
1024 0 86.1296 13.8861 1196 123.674 349.131 468.336
1025 0 88.0997 14.1658 1248 123.301 349.074 465.244
1026 0 92.2397 13.5191 1247 125.203 349.109 464.901
1027 0 93.1785 12.3204 1148 125.755 348.633 465.325
1028 0 95.1115 13.91 1323 122.506 348.994 461.982
1029 1 51.1294 10.9526 560 119.293 348.634 482.127
1030 0 52.1482 11.218 585 115.106 348.639 474.687
1031 0 52.0793 10.4648 545 118.892 349.171 479.048
1032 0 53.0984 11.0361 586 119.991 349.034 478.476
1033 0 55.0951 13.2135 728 114.96 349.212 476.514
1034 0 57.1133 11.3284 647 119.632 349.142 477.264
1035 0 58.1229 10.7015 622 122.678 349.617 476.595
1036 0 60.1421 11.689 703 121.192 349.408 475.45
1037 0 61.0215 11.6516 711 121.406 349.063 476.554
1038 0 61.042 10.2225 624 126.566 348.824 474.22
1039 0 66.0986 12.4208 821 120.375 348.939 473.173
1040 0 67.1743 11.4032 766 122.999 348.559 472.346
1041 0 70.0979 11.8263 829 122.452 348.992 471.468
1042 0 71.1679 12.1965 868 122.629 349.129 469.983
1043 0 73.2046 11.42 836 124.91 349.635 468.367
1044 0 77.2194 12.3285 952 121.709 349.983 466.327
1045 0 78.1178 12.5964 984 121.937 349.327 466.911
1046 0 82.0979 12.144 997 122.412 349.946 464.597
1047 0 83.1399 12.2204 1016 123.522 349.659 463.516
1048 0 87.1674 12.0573 1051 123.168 349.015 464.418
1049 0 90.2711 12.4182 1121 123.357 348.826 461.768
1050 0 93.2161 12.7017 1184 123.244 348.961 460.802
1051 0 95.1891 12.0392 1146 125.811 349.053 459.872
1052 0 100.27 12.2669 1230 125.511 349.389 458.888
1053 1 51.0205 11.1132 567 120.841 349.185 484.42
1054 0 56.1616 10.8081 607 120.064 348.969 484.265
1055 0 58.2318 13.5836 791 113.302 349.307 480.963
1056 0 58.1278 12.3005 715 118.287 349.611 479.82
1057 0 62.2381 14.0589 875 112.207 348.946 478.57
1058 0 64.0583 12.7072 814 115.606 349.133 477.432
1059 0 66.1298 13.3223 881 114.443 348.785 477.234
1060 0 68.1617 13.0572 890 115.619 349.406 475.517
1061 0 71.2218 13.3246 949 114.67 349.179 474.444
1062 0 74.1139 13.0205 965 115.737 349.331 471.556
1063 0 76.1547 12.5797 958 117.363 349.168 472.55
1064 0 79.0596 12.7499 1008 118.297 349.94 471.032
1065 0 80.0404 11.8065 945 122.146 349.611 469.367
1066 0 83.1826 12.2261 1017 120.64 349.493 468.724
1067 0 87.0501 12.533 1091 121.185 350.092 467.789
1068 0 91.0588 13.5627 1235 118.315 349.754 464.44
1069 0 93.12 12.1456 1131 123.426 350.827 465.373
1070 1 47.1279 11.5218 543 119.459 351.225 483.333
1071 0 49.1233 12.1124 595 117.218 350.188 481.003
1072 0 51.1547 11.4945 588 117.976 350.116 477.74
1073 0 54.0884 12.8678 696 113.953 350.889 479.944
1074 0 52.2165 11.6821 610 109.974 349.705 477.279
1075 0 54.1308 11.3244 613 111.282 349.633 479.023
1076 0 56.16 11.2002 629 113.539 348.908 477.86
1077 0 58.1094 10.9621 637 114.144 349.777 477.265
1078 0 59.2895 11.0138 653 114.775 349.556 473.969
1079 0 61.2496 11.4776 703 115.553 348.745 475.589
1080 0 62.1799 11.2416 699 117.416 349.385 472.541
1081 0 64.3011 11.835 761 117.417 349.173 471.616
1082 0 65.1624 11.5557 753 119.911 349.211 470.433
1083 0 69.2988 11.9627 829 120.519 349.075 469.539
1084 0 69.1459 12.1048 837 122.912 349.419 466.889
1085 0 74.1083 11.6046 860 123.691 348.399 468.614
1086 0 77.1691 12.1163 935 121.902 348.785 467.004
1087 0 78.2314 12.0284 941 122.09 348.847 466.446
1088 0 81.0846 12.4315 1008 121.759 348.604 466.473
1089 0 84.1548 12.0373 1013 124.585 348.508 463.107
1090 0 89.098 12.851 1145 122.238 348.511 462.068
1091 0 92.0705 13.0769 1204 125.933 348.461 461.844
1092 0 95.1238 13.0251 1239 126.69 348.998 461.071
1093 0 96.0916 12.5817 1209 128.195 348.797 456.892
1094 1 49.0817 10.9409 537 124.7 348.562 480.268
1095 0 53.3385 11.9051 635 126.294 348.761 479.776
1096 0 53.0373 11.2751 598 108.231 348.985 479.294
1097 0 52.0683 11.965 623 120.531 348.409 484.629
1098 0 56.0767 12.3224 691 117.994 348.2 483.156
1099 0 55.0949 10.5273 580 121.829 347.697 482.7
1100 0 58.1132 10.9786 638 119.118 347.683 480.788
1101 0 63.0621 12.0358 759 115.568 348.354 477.439
1102 0 65.0569 10.8828 708 116.713 349.239 478.165
1103 0 68.1304 12.4467 848 113.347 348.798 476.742
1104 0 71.1657 11.1852 796 114.94 349.215 476.118
1105 0 72.0971 12.4138 895 114.135 349.213 473.339
1106 0 74.0699 11.6107 860 116.586 349.56 472.406
1107 0 75.0874 11.2269 843 117.961 348.913 470.257
1108 0 77.0876 9.78108 754 120.984 348.45 470.321
1109 0 83.173 11.6985 973 116.264 348.946 468.58
1110 0 83.2129 10.9478 911 118.942 348.632 467.169
1111 0 87.0958 11.3553 989 116.967 348.416 469.053
1112 0 89.172 10.9115 973 118.997 348.393 465.371
1113 0 93.1478 10.5317 981 120.912 348.56 461.278
1114 0 97.1149 10.2765 998 121.392 349.085 460.573
1115 0 100.128 11.2955 1131 118.077 348.6 458.241
1116 0 104.287 10.2697 1071 118.092 349.025 459.412
1117 0 107.218 10.875 1166 118.23 348.509 452.716
1118 0 111.208 12.9577 1441 111.848 349.169 451.672
1119 1 56.2442 11.4856 646 113.254 349.667 475.534
1120 0 59.0985 10.5925 626 109.728 350.24 476.064
1121 0 62.1696 12.5463 780 87.9846 350.12 474.165
1122 0 64.1185 11.9622 767 106.511 349.559 475.321
1123 0 62.1239 9.2074 572 113.694 350.054 475.851
1124 0 66.1088 11.6928 773 108.595 349.596 471.561
1125 0 70.1725 10.1464 712 111.961 349.972 473.768
1126 0 69.204 9.98498 691 115.106 349.738 470.961
1127 0 72.1858 12.1492 877 113.227 350.613 469.368
1128 0 78.178 12.3948 969 110.445 351.105 471.844
1129 0 82.1001 13.5932 1116 107.479 350.975 468.448
1130 0 84.0839 11.9761 1007 110.432 350.445 470.991
1131 0 85.2269 12.9771 1106 109.555 350.289 466.199
1132 0 88.0919 12.6686 1116 110.079 350.313 464.671
1133 1 50.0692 11.1246 557 109.35 351.905 485.517
1134 0 52.1364 11.9878 625 108.11 351.381 482.763
1135 0 52.1845 11.4977 600 113.647 348.93 479.772
1136 0 55.0404 12.1365 668 110.943 351.564 482.758
1137 0 58.0531 12.5919 731 109.773 351.8 482.313
1138 0 58.0219 12.7538 740 109.88 350.831 482.304
1139 0 57.0646 10.8474 619 107.788 349.574 482.764
1140 0 57.0462 11.219 640 107.567 350.356 482.677
1141 0 60.1004 12.1131 728 106.232 350.315 480.655
1142 0 62.0576 12.1017 751 105.656 350.651 480.574
1143 0 62.0506 10.2175 634 111.555 351.202 478.541
1144 0 66.0377 11.7963 779 108.087 350.737 476.702
1145 0 68.1266 12.0804 823 107.917 350.287 474.808
1146 0 70.1602 13.0558 916 107.194 350.618 474.087
1147 0 72.1344 12.546 905 108.851 349.98 473.11
1148 0 73.1325 12.3064 900 110.696 350.512 472.742
1149 0 77.1301 10.8129 834 114.103 350.088 472.252
1150 0 80.1354 13.2026 1058 109.447 349.411 470.751
1151 0 82.1504 13.2927 1092 110.747 349.055 469.515
1152 0 85.1957 13.6509 1163 110.844 348.976 466.842
1153 0 87.0871 12.1602 1059 114.461 348.747 467.349
1154 0 92.1806 12.4755 1150 113.213 348.577 464.756
1155 0 94.1283 13.2904 1251 113.327 348.905 461.217
1156 0 97.1557 13.0512 1268 113.435 348.931 462.345
1157 0 100.102 12.3174 1233 116.679 349.017 458.718
1158 0 102.125 12.6316 1290 114.332 349.391 455.69
1159 1 54.0336 10.7341 580 106.357 348.619 478.503
1160 0 56.0683 11.272 632 109.989 349.222 478.547
1161 0 61.02 13.6185 831 115.018 349.775 480.112
1162 0 62.0851 13.1594 817 117.685 349.815 478.345
1163 0 62.0472 12.6355 784 120.851 349.564 478.429
1164 0 64.0637 13.4397 861 118.446 349.963 476.666
1165 0 65.087 12.9519 843 119.543 349.786 477.09
1166 0 69.0773 13.5211 934 116.99 349.863 475.313
1167 0 71.1011 13.6988 974 117.346 349.467 472.309
1168 0 73.1274 13.4423 983 118.419 350.009 472.479
1169 0 74.1082 13.1295 973 118.972 349.782 473.504
1170 0 76.1737 13.0754 996 120.887 350.048 470.098
1171 0 82.1806 14.0909 1158 116.598 348.87 469.325
1172 0 83.177 13.7418 1143 118.885 349.696 468.845
1173 0 87.1442 14.1145 1230 118.525 348.863 467.133
1174 0 88.1662 14.7222 1298 117.774 349.055 466.784
1175 0 90.3857 13.8075 1248 120.007 348.715 466.303
1176 0 95.0858 14.9549 1422 117.384 348.496 466.086
1177 0 97.2448 14.3041 1391 120.434 348.122 462.813
1178 0 100.251 14.3838 1442 120.981 348.092 460.603
1179 0 104.262 14.7034 1533 120.346 347.873 458.618
1180 0 108.361 15.0607 1632 119.759 347.889 455.221
1181 1 57.1701 12.8214 733 123.475 348.115 478.915
1182 0 61.1966 11.9941 734 121.891 348.779 480.696
1183 0 62.1231 11.8796 738 119.894 348.434 479.524
1184 0 64.0363 13.6641 875 116.752 348.039 477.869
1185 0 67.0266 13.7856 924 115.728 347.947 477.631
1186 0 69.0252 13.9369 962 115.49 348.834 475.716
1187 0 71.1866 13.4014 954 118.149 348.588 473.94
1188 0 74.1491 14.7271 1092 115.385 347.984 472.162
1189 0 76.0653 14.1983 1080 116.679 348.095 470.565
1190 0 77.1497 13.597 1049 119.445 348.085 469.648
1191 0 80.2545 13.3201 1069 121.339 347.977 469.052
1192 0 84.1243 13.5276 1138 120.329 347.441 467.833
1193 0 86.1258 13.9912 1205 120.037 348.284 464.973
1194 0 91.1541 13.724 1251 120.162 347.58 461.888
1195 0 93.1831 13.5218 1260 121.931 348.129 460.854
1196 0 96.2315 14.33 1379 120.222 348.236 459.122
1197 0 99.2106 12.9018 1280 125.999 347.754 456.459
1198 1 51.059 9.18546 469 122.058 348.173 477.793
1199 0 54.1325 10.5112 569 120.503 347.854 476.142
1200 0 56.1647 11.4663 644 117.343 348.076 477.281
1201 0 59.1197 11.6205 687 108.122 348.895 475.428
1202 0 60.0592 10.6062 637 111.14 349.05 474.072
1203 0 62.0857 11.7257 728 109.24 348.577 475.378
1204 0 65.0289 13.4248 873 117.751 347.606 479.215
1205 0 69.0418 13.3832 924 117.829 348.09 476.593
1206 0 70.1132 13.8918 974 118.458 348.355 474.256
1207 0 71.2214 12.3699 881 123.406 348.247 475.017
1208 0 73.1227 12.8278 938 121.757 347.837 473.801
1209 0 79.1677 13.3893 1060 118.739 348.099 471.29
1210 0 80.1252 14.5647 1167 115.197 347.749 471.367
1211 0 82.1192 12.6767 1041 120.87 347.908 470.761
1212 0 82.1022 12.6184 1036 122.935 347.072 468.376
1213 0 87.3155 13.1821 1151 121.253 347.798 468.845
1214 0 90.2111 13.5017 1218 119.901 348.438 465.727
1215 0 91.2203 12.6945 1158 123.998 348.102 463.114
1216 0 96.2666 13.151 1266 119.801 348.938 463.496
1217 0 99.3184 12.7469 1266 121.611 348.915 460.142
1218 0 102.311 13.2733 1358 121.795 348.304 457.96
1219 0 104.137 13.4823 1404 121.105 348.286 457.36
1220 1 56.0565 12.7015 712 121.1 347.647 481.094
1221 0 58.0645 12.1417 705 117.312 347.711 478.186
1222 0 58.0958 10.6892 621 108.287 348.781 476.902
1223 0 61.1733 11.5737 708 105.795 348.301 471.17
1224 0 61.0659 11.0536 675 106.855 348.447 474.236
1225 0 65.1806 12.6878 827 116.4 349.236 477.17
1226 0 66.1189 13.8992 919 114.338 347.937 477.174
1227 0 69.1553 12.2333 846 118.111 348.267 474.376
1228 0 72.1634 12.9567 935 116.579 348.253 472.504
1229 0 74.11 12.7783 947 117.294 348.122 473.444
1230 0 76.1544 12.8555 979 114.474 348.907 470.683
1231 0 79.1433 12.3321 976 112.685 348.966 472.362
1232 0 81.0976 12.2815 996 114.986 348.981 468.406
1233 0 84.0801 13.2849 1117 112.681 348.634 466.046
1234 0 86.3252 12.8815 1112 113.136 348.29 465.161
1235 0 91.1941 12.9504 1181 113.22 348.506 463.78
1236 1 48.1175 10.8277 521 115.203 348.931 485.779
1237 0 51.0878 12.4296 635 113.852 348.057 483.822
1238 0 53.0651 11.3634 603 114.997 348.098 482.69
1239 0 52.0253 12.2825 639 117.141 347.624 481.685
1240 0 53.0438 11.1606 592 114.453 349.394 481.904
1241 0 55.0439 12.1721 670 111.943 349.74 480.124
1242 0 57.0483 11.5691 660 112.965 349.686 480.87
1243 0 61.0581 11.5464 705 113.525 349.294 479.78
1244 0 61.0887 12.3591 755 111.464 348.974 479.781
1245 0 65.1365 12.4661 812 110.842 350.028 477.255
1246 0 67.0294 12.5467 841 111.284 347.674 477.627
1247 0 67.0221 13.5478 908 111.393 347.752 475.239
1248 0 70.0874 13.3405 935 112.242 346.599 474.326
1249 0 73.0489 13.3062 972 113.506 347.082 472.061
1250 0 75.0607 13.216 992 115.256 347.5 471.749
1251 0 77.1226 14.9373 1152 115.516 347.018 470.185
1252 0 77.0726 13.1824 1016 120.67 347.303 470.428
1253 0 81.0349 14.9689 1213 116.688 347.087 467.368
1254 0 84.0381 14.5648 1224 118.325 346.994 466.734
1255 0 86.058 14.0254 1207 121.525 347.968 465.566
1256 0 89.0418 13.9036 1238 121.465 347.886 466.201
1257 1 49.0511 11.3555 557 122.111 347.535 486.122
1258 0 50.0376 11.7312 587 123.089 347.089 484.814
1259 0 51.0248 12.2097 623 112.734 348.474 484.822
1260 0 51.0383 11.0505 564 115.369 349.482 484.195
1261 0 54.1816 13.2886 720 110.212 349.558 482.065
1262 0 56.0993 11.7292 658 114.283 347.535 484.699
1263 0 54.0468 11.046 597 119.41 347.637 481.052
1264 0 56.0706 11.004 617 116.854 348.25 482.079
1265 0 59.1247 12.4821 738 113.304 348.306 481.462
1266 0 59.0524 11.4813 678 116.606 347.724 478.673
1267 0 64.0337 13.3055 852 110.148 347.986 477.653
1268 0 66.0767 11.6229 768 113.396 348.397 476.868
1269 0 68.1207 11.7585 801 113.93 348.422 476.292
1270 0 70.042 11.6216 814 113.19 347.682 475.351
1271 0 72.1141 12.1336 875 112.855 347.849 472.162
1272 0 75.2023 11.9677 900 113.042 348.103 472.247
1273 0 77.0812 11.8576 914 114.535 348.131 470.126
1274 0 82.1216 13.0416 1071 112.611 348.224 470.195
1275 0 85.0734 12.5891 1071 113.138 347.779 468.919
1276 0 86.141 11.6785 1006 117.147 347.849 465.61
1277 0 91.1634 13.229 1206 112.633 348.172 463.859
1278 0 93.1697 13.5237 1260 112.41 348.621 462.776
1279 0 97.1409 12.837 1247 114.876 348.483 462.337
1280 1 50.0653 10.5462 528 120.409 347.841 483.799
1281 0 52.0558 12.1792 634 119.29 347.948 481.347
1282 0 56.0645 12.6105 707 114.311 348.163 481.948
1283 0 57.035 12.1504 693 107.756 349.737 481.75
1284 0 58.1083 11.5474 671 109.335 349.984 480.526
1285 0 61.0955 13.0452 797 105.906 349.577 479.627
1286 0 63.0974 11.4902 725 110.421 349.789 479.131
1287 0 63.0703 11.6061 732 110.46 349.582 479.504
1288 0 66.0412 13.2644 876 107.643 349.602 476.81
1289 0 68.0396 12.1547 827 110.232 349.605 476.226
1290 0 72.0286 13.6057 980 106.124 349.419 476.23
1291 0 72.0362 12.7991 922 110.197 349.584 472.073
1292 0 76.1074 12.7189 968 109.928 350.506 473.309
1293 0 78.1402 12.6567 989 110.631 350.489 470.483
1294 0 79.0516 12.6373 999 112.094 349.423 468.492
1295 0 82.1716 13.0215 1070 112.086 349.631 466.247
1296 0 87.1177 13.2005 1150 111.405 349.945 465.911
1297 0 90.1585 12.6666 1142 112.934 349.586 466.264
1298 0 92.2181 13.0018 1199 112.601 349.149 464.501
1299 0 94.1164 12.0277 1132 116.137 348.804 463.841
1300 1 48.0164 10.309 495 123.168 350.085 484.675
1301 0 51.0241 11.4456 584 121.166 349.539 482.317
1302 0 52.0976 12.6877 661 117.702 349.59 481.415
1303 0 53.0405 11.5195 611 121.889 350.034 480.877
1304 0 56.092 13.0856 734 117.756 349.027 479.719
1305 0 53.0574 11.6855 620 113.079 349.485 481.008
1306 0 56.0344 12.2782 688 111.344 349.593 482.025
1307 0 57.0271 11.0474 630 115.027 349.927 480.741
1308 0 61.0232 12.0118 733 110.385 350.038 478.037
1309 0 62.058 11.1992 695 112.642 349.758 476.601
1310 0 65.1077 11.9033 775 111.468 350.112 476.675
1311 0 68.0882 12.3223 839 110.92 349.807 475.777
1312 0 69.1012 11.2154 775 112.672 350.062 475.97
1313 0 73.1104 11.8041 863 110.263 350.187 473.019
1314 0 76.185 12.1677 927 112.484 350.464 473.278
1315 0 78.0918 12.0627 942 113.886 350.483 470.331
1316 0 80.0814 12.1127 970 113.999 349.804 469.44
1317 0 85.1681 12.3168 1049 113.68 349.35 468.86
1318 0 87.1484 13.4368 1171 110.687 349.313 467.109
1319 0 89.1351 12.1052 1079 116.69 349.674 465.019
1320 0 93.1962 13.1872 1229 113.138 348.687 464.129
1321 0 95.14 11.2676 1072 116.98 349.36 463.788
1322 0 98.0916 11.7543 1153 117.035 349.624 459.484
1323 1 55.078 12.2372 674 114.263 348.926 478.832
1324 0 55.0312 11.8296 651 110.461 349.33 477.114
1325 0 56.081 11.3764 638 110.591 349.843 477.718
1326 0 58.1088 11.2375 653 112.164 350.208 475.205
1327 0 58.0263 10.3746 602 113.787 349.284 475.045
1328 0 61.044 11.1887 683 111.826 349.198 474.492
1329 0 63.0831 12.7926 807 107.25 348.504 473.332
1330 0 65.0649 11.4347 744 109.31 348.723 472.841
1331 0 67.1566 12.2996 826 108.051 348.454 471.609
1332 0 70.1249 11.7219 822 109.691 348.386 470.459
1333 0 72.1453 11.6155 838 110.309 348.84 470.079
1334 0 75.3014 11.9254 898 108.769 348.916 469.529
1335 0 78.196 12.2001 954 107.853 348.488 468.461
1336 0 78.1915 11.5614 904 110.837 348.32 466.664
1337 0 82.181 12.1196 996 109.681 348.646 465.588
1338 0 84.2034 12.3035 1036 109.959 348.498 464.764
1339 0 86.2836 13.0616 1127 108.861 348.392 463.366
1340 0 90.1549 14.0758 1269 106.513 348.801 460.652
1341 0 93.171 12.5468 1169 110.007 348.729 459.606
1342 0 98.2181 13.7449 1350 107.359 348.543 458.37
1343 0 99.2546 11.8382 1175 112.683 348.321 457.704
1344 0 103.19 13.0342 1345 110.698 348.122 455.804
1345 0 106.302 13.8379 1471 109.566 348.46 453.501
1346 0 109.295 13.3766 1462 111.295 348.354 447.622
1347 0 113.142 12.8334 1452 112.607 348.729 445.829
1348 0 117.193 12.9616 1519 112.317 349.272 446.276
1349 1 64.1115 11.9479 766 106.172 349.719 469.958
1350 0 68.1997 13.3578 911 112.764 349.097 468.396
1351 0 71.1533 13.3655 951 110.963 348.631 474.928
1352 0 72.112 13.0491 941 112.041 348.797 473.745
1353 0 77.1767 13.1128 1012 111.05 348.818 472.133
1354 0 80.2039 13.4283 1077 109.676 348.747 470.901
1355 0 83.347 13.1138 1093 109.595 348.685 469.542
1356 0 84.0458 13.3737 1124 109.843 348.228 466.753
1357 0 87.0759 12.8279 1117 109.298 348.336 467.487
1358 0 89.1005 12.9068 1150 110.101 348.612 464.151
1359 0 93.1498 13.8487 1290 108.415 348.219 460.441
1360 0 96.0777 13.0415 1253 110.626 348.279 458.72
1361 0 99.203 13.7496 1364 108.567 347.155 457.83
1362 0 105.116 13.4899 1418 108.446 347.054 454.775
1363 0 106.096 12.2908 1304 112.11 347.282 453.937
1364 0 109.079 12.7064 1386 111.518 347.924 452.463
1365 1 56.0953 11.6766 655 112.171 347.478 477.038
1366 0 58.0458 11.6632 677 114.239 347.272 477.923
1367 0 60.0589 12.0548 724 112.62 347.188 478.222
1368 0 61.0564 12.8406 784 111.818 347.143 475.448
1369 0 65.0702 12.11 788 114.236 347.31 474.915
1370 0 67.0211 12.6975 851 113.516 347.146 474.012
1371 0 67.0187 12.9068 865 114.673 347.214 471.884
1372 0 71.0594 12.9047 917 113.26 346.581 472.407
1373 0 74.0889 13.3893 992 111.511 346.714 470.947
1374 0 75.0657 11.763 883 118.06 347.06 469.453
1375 0 76.0659 11.8713 903 118.358 347.382 468.373
1376 0 79.0819 12.7589 1009 116.792 347.944 467.386
1377 0 82.0949 12.1201 995 119.395 347.15 467.388
1378 1 42.0448 9.51366 400 119.555 347.455 485.475
1379 0 45.0505 10.6769 481 115.931 348.262 483.229
1380 0 48.0426 11.5106 553 112.987 348.069 482.591
1381 0 48.1597 9.92531 478 110.117 349.567 481.444
1382 0 51.2141 10.7002 548 108.854 349.288 480.779
1383 0 52.2325 10.0895 527 111.954 349.131 479.529
1384 0 53.2424 10.3489 551 111.298 348.574 479.644
1385 0 55.257 10.9488 605 110.524 348.828 477.362
1386 0 57.2518 10.9167 625 110.475 348.402 477.286
1387 0 59.3628 9.29875 552 114.168 348.466 474.431
1388 0 61.2161 11.3859 697 109.432 348.935 475.445
1389 0 63.2963 11.3435 718 110.407 349.02 474.157
1390 0 64.299 10.6689 686 113.827 349.929 472.156
1391 0 68.278 12.6834 866 108.544 348.385 472.524
1392 0 71.4369 11.7446 839 110.582 348.423 471.247
1393 0 69.2267 10.6317 736 115.391 348.76 468.867
1394 0 73.3278 12.8328 941 111.064 349.452 467.482
1395 0 74.1806 12.3078 913 113.216 349.383 465.903
1396 0 77.2908 11.3468 877 114.765 349.185 467.724
1397 0 80.4137 11.217 902 115.397 349.131 466.522
1398 0 83.1548 12.1701 1012 114.811 350.126 467.059
1399 0 85.105 11.9617 1018 115.494 350.339 465.596
1400 0 87.1429 11.4869 1001 115.994 349.708 467.759
1401 0 93.1885 11.9543 1114 113.039 349.313 465.139
1402 1 47.0431 10.3309 486 113.753 350.021 486.496
1403 0 49.0405 10.9093 535 113.282 350.004 484.996
1404 0 52.0741 11.3108 589 112.769 349.988 483.338
1405 0 52.1142 11.5132 600 108.887 349.845 484.063
1406 0 52.0879 10.847 565 111.235 348.827 481.919
1407 0 55.1056 12.2492 675 106.84 348.711 482.031
1408 0 55.108 11.4684 632 109.584 348.305 479.756
1409 0 57.0482 11.3588 648 108.471 348.647 481.614
1410 0 59.0783 11.764 695 108.263 349.289 480.219
1411 0 61.0541 10.892 665 108.681 349.224 479.835
1412 0 61.0894 10.6401 650 111.162 349.358 476.894
1413 0 65.1259 11.1476 726 109.84 349.544 475.89
1414 0 67.0941 11.2827 757 109.034 349.798 476.741
1415 0 68.0648 12.3559 841 106.376 348.77 473.069
1416 0 71.0646 11.6936 831 107.32 349.046 472.952
1417 0 71.1646 11.8177 841 108.114 348.48 471.87
1418 0 74.0825 10.2723 761 104.276 348.3 469.459
1419 0 76.1422 10.7693 820 104.662 348.534 464.852
1420 0 80.1815 12.0851 969 101.909 348.734 462.724
1421 0 83.0601 11.0402 917 105.506 348.185 461.914
1422 0 85.0808 11.542 982 104.816 347.164 461.438
1423 0 87.1576 12.3569 1077 102.308 347.237 459.735
1424 1 43.1715 9.86763 426 103.883 348.359 480.892
1425 0 44.0985 9.955 439 106.412 348.984 480.745
1426 0 45.0663 10.0297 452 109.98 350.715 478.856
1427 0 46.0218 10.0387 462 110.199 351.045 479.496
1428 0 48.102 9.12645 439 112.649 349.995 477.879
1429 0 50.0245 11.4544 573 107.801 349.62 476.422
1430 0 51.0188 9.6827 494 112.792 349.585 476.346
1431 0 53.0508 10.2166 542 111.245 350.026 476.589
1432 0 56.031 12.4574 698 104.946 350.206 475.894
1433 0 55.0569 11.2974 622 109.124 350.158 474.73
1434 0 58.0549 11.024 640 110.494 350.227 473.159
1435 0 59.0849 10.5103 621 112.356 350.166 470.602
1436 0 58.1111 10.3767 603 114.289 349.702 469.619
1437 0 62.0955 11.2568 699 111.298 350.196 471.024
1438 0 62.0334 11.1069 689 114.006 350.023 470.261
1439 0 67.0444 11.8429 794 110.364 350.577 472.83
1440 0 65.0148 11.4282 743 112.943 350.233 470.911
1441 0 70.019 12.1396 850 111.281 350.429 468.068
1442 0 72.0696 10.9339 788 114.594 349.845 467.906
1443 0 77.0614 11.6531 898 112.842 349.402 467.827
1444 0 77.1353 11.1622 861 114.837 349.382 467.35
1445 0 79.0993 11.9723 947 114.373 349.535 463.65
1446 0 84.1811 11.1426 938 114.998 350.07 462.567
1447 0 85.2677 10.4729 893 117.882 349.482 461.358
1448 1 47.0423 11.7554 553 106.718 349.326 483.557
1449 0 47.126 11.5435 544 112.055 349.472 482.579
1450 0 47.0709 11.557 544 110.583 349.237 481.947
1451 0 49.1396 11.8642 583 110.022 349.12 481.696
1452 0 52.0886 11.7684 613 109.537 350.057 481.4
1453 0 52.1512 11.7351 612 109.681 349.266 479.358
1454 0 54.1073 11.9023 644 109.739 348.834 479.865
1455 0 56.1587 12.0729 678 119.283 348.528 477.814
1456 0 58.126 11.7847 685 120.05 348.663 477.864
1457 0 62.1212 12.2824 763 117.229 349.713 476.912
1458 0 62.3171 13.2227 824 116.158 349.176 477.152
1459 0 64.1858 12.3859 795 118.12 349.233 476.306
1460 0 65.1673 12.5216 816 118.276 349.896 475.404
1461 0 70.1601 12.5712 882 115.941 349.749 474.81
1462 0 70.1709 11.7998 828 120.19 348.984 471.612
1463 0 73.1875 12.6388 925 117.578 348.876 471.781
1464 0 75.2953 13.3342 1004 116.954 349.011 469.427
1465 0 75.2433 11.8682 893 121.587 349.158 469.406
1466 0 79.2984 11.5135 913 120.99 349.302 469.159
1467 0 81.2315 11.5842 941 118.978 349.241 467.604
1468 0 84.1955 12.2216 1029 108.879 349.26 466.102
1469 0 84.0975 12.0931 1017 110.647 349.327 466.395
1470 0 90.1752 12.5866 1135 109.663 349.493 466.029
1471 0 94.1016 11.9552 1125 110.689 349.267 462.116
1472 0 97.1538 12.7221 1236 110.083 348.814 462.316
1473 0 99.1677 13.2099 1310 109.801 349.045 458.828
1474 1 51.1428 10.0503 514 109.866 349.356 483.862
1475 0 54.0701 11.818 639 106.593 349.72 481.083
1476 0 57.073 11.0735 632 105.946 349.639 480.972
1477 0 58.1198 12.0269 699 104.202 349.866 480.386
1478 0 61.0597 12.1029 739 104.02 349.82 478.655
1479 0 64.0767 12.4382 797 101.772 349.891 478.048
1480 0 64.0556 11.412 731 104.647 350.157 478.839
1481 0 67.0405 12.6938 851 101.537 350.026 474.713
1482 0 69.1047 12.1699 841 102.685 349.886 475.164
1483 0 70.0534 12.9615 908 102.067 349.705 472.553
1484 0 74.052 12.4777 924 102.684 348.721 472.714
1485 0 77.1881 12.3594 954 102.24 348.384 471.728
1486 0 78.165 12.0258 940 103.506 349.232 469.956
1487 0 82.2381 12.6584 1041 102.339 348.33 466.109
1488 0 85.3119 12.7298 1086 102.331 348.153 462.737
1489 0 87.3416 11.9416 1043 104.676 348.473 461.732
1490 0 90.1127 11.075 998 106.778 348.049 460.012
1491 0 93.2137 13.1526 1226 104.008 347.236 459.277
1492 0 95.1891 11.8186 1125 113.37 346.686 458.958
1493 1 48.0509 12.0289 578 104.341 347.128 482.51
1494 0 50.1427 10.0713 505 108.798 347.861 481.442
1495 0 51.1347 11.5968 593 106.457 347.658 479.938
1496 0 51.1149 10.3884 531 109.524 348.915 483.269
1497 0 52.0674 10.0447 523 111.075 348.457 481.488
1498 0 53.2612 10.4955 559 109.497 348.705 481.313
1499 0 57.1008 10.3851 593 109.401 348.587 482.285
1500 0 60.1525 10.5898 637 107.265 349.024 478.488
1501 0 61.0882 11.1151 679 106.196 349.323 479.595
1502 0 62.1287 11.0738 688 107.065 348.698 476.045
1503 0 64.105 10.8728 697 101.501 348.539 476.374
1504 0 66.1758 11.001 728 103.095 348.034 473.265
1505 0 67.1291 11.1427 748 103.643 349.056 475.322
1506 0 67.1146 12.3371 828 101.298 348.214 474.053
1507 0 69.1481 11.4537 792 108.521 349.024 471.914
1508 0 70.1251 12.0071 842 106.745 348.53 474.015
1509 0 70.1307 10.9795 770 111.143 348.416 473.184
1510 0 72.1202 10.1913 735 112.91 348.442 470.752
1511 0 76.1061 11.4971 875 110.366 348.142 469.582
1512 0 79.1464 12.3442 977 107.196 348.26 468.908
1513 0 82.2984 11.9322 982 107.206 347.19 466.254
1514 1 43.1733 10.8632 469 103.284 347.388 484.397
1515 0 45.2029 10.3312 467 102.912 346.966 481.846
1516 0 48.0986 10.8735 523 101.669 347.371 481.979
1517 0 47.0463 12.0732 568 100.329 346.995 480.674
1518 0 51.1736 12.1352 621 104.654 347.258 481.035
1519 0 52.2551 11.9988 627 109.003 347.437 482.885
1520 0 54.0946 13.1436 711 106.764 347.56 483.724
1521 0 56.1192 12.6695 711 109.084 347.819 481.693
1522 0 56.0731 13.0187 730 107.096 347.959 480.804
1523 0 58.1164 15.1592 881 102.396 347.662 481.504
1524 0 58.1133 14.0415 816 107.409 347.62 480.332
1525 0 58.0795 12.7412 740 112.355 347.362 477.626
1526 0 61.1472 13.0178 796 112.618 347.072 479.182
1527 0 62.1301 13.6005 845 112.898 346.356 477.641
1528 0 64.1396 13.5486 869 113.687 346.646 477.556
1529 0 66.1508 13.4088 887 115.453 346.404 474.643
1530 0 68.0985 12.9225 880 118.215 346.84 475.728
1531 0 71.0371 13.6267 968 116.335 346.79 474.277
1532 0 72.1593 13.3316 962 118.945 346.588 472.595
1533 0 75.1468 13.8928 1044 117.623 347.299 471.06
1534 0 79.122 14.6862 1162 115.291 347.067 472.362
1535 0 81.2433 12.5057 1016 121.566 347.726 470.691
1536 0 82.2355 12.4156 1021 123.651 346.791 469.073
1537 1 44.1319 10.6952 472 124.672 346.801 487.958
1538 0 46.0928 11.5202 531 117.8 346.983 483.275
1539 0 47.0186 10.3363 486 116.479 347.247 481.753
1540 0 47.1518 11.5796 546 114.855 346.811 481.905
1541 0 49.0726 10.8003 530 116.896 347.468 480.67
1542 0 47.0658 10.3897 489 119.16 347.892 480.513
1543 0 51.0238 11.328 578 116.073 348.14 480.548
1544 0 54.0185 11.7737 636 114.164 347.233 479.991
1545 0 57.0284 11.8888 678 113.115 347.103 480.072
1546 0 57.0349 11.0634 631 115.948 348.307 478.204
1547 0 58.0562 11.0755 643 116.603 347.678 476.462
1548 0 60.0838 11.7502 706 115.184 347.708 474.994
1549 0 64.0565 10.4907 672 117.253 347.15 473.891
1550 0 66.0659 11.7307 775 114.255 346.365 473.514
1551 0 67.0952 11.2974 758 115.843 346.09 470.988
1552 0 68.0469 10.8308 737 116.688 346.107 469.52
1553 0 72.1604 12.2089 881 113.084 346.009 469.849
1554 0 74.0295 12.9408 958 112.182 345.713 468.358
1555 0 78.0744 12.8852 1006 112.156 346.608 465.878
1556 1 38.0712 10.0338 382 108.696 346.631 487.526
1557 0 40.0278 11.3921 456 104.533 346.272 487.467
1558 0 41.133 10.381 427 108.426 346.759 486.239
1559 0 41.1381 11.6923 481 111.42 346.574 483.314
1560 0 43.1118 12.0153 518 110.071 347.639 482.488
1561 0 43.1015 9.74445 420 114.664 346.993 483.605
1562 0 46.0333 12.1868 561 109.248 347.396 482.704
1563 0 47.0791 11.4063 537 112.376 347.901 481.367
1564 0 49.0725 11.7581 577 111.205 347.409 480.912
1565 0 51.0722 11.8264 604 111.753 346.873 479.773
1566 0 51.1311 11.5585 591 113.355 346.223 480.149
1567 0 54.0577 11.7282 634 112.724 346.981 479.248
1568 0 54.0652 12.8179 693 110.221 346.235 482.848
1569 0 57.1027 12.0134 686 110.216 346.729 482.8
1570 0 58.0669 12.2789 713 110.4 346.403 480.067
1571 0 61.1027 12.0944 739 110.077 346.192 478.616
1572 0 64.1488 12.6113 809 108.655 346.14 479.773
1573 0 65.155 12.4319 810 109.674 346.443 478.189
1574 0 66.1417 13.2745 878 108.9 346.055 477.715
1575 0 70.0937 13.1538 922 108.474 347.039 476.38
1576 0 73.1132 13.7048 1002 106.686 346.736 474.113
1577 0 74.1677 13.1189 973 108.565 345.709 473.003
1578 0 77.2098 13.0035 1004 108.502 346.347 470.557
1579 0 78.2832 12.4931 978 110.678 346.37 469.687
1580 0 85.2142 14.0939 1201 105.913 345.786 468.704
1581 0 87.1428 13.4607 1173 111.521 345.579 466.486
1582 0 88.2434 13.1455 1160 112.812 345.828 465.353
1583 0 93.2376 14.0501 1310 110.271 345.479 461.789
1584 1 43.1535 10.3815 448 112.275 345.938 485.455
1585 0 46.1335 11.8786 548 108.011 346.038 483.916
1586 0 49.203 13.6577 672 104.512 346.164 481.777
1587 0 52.1043 12.5517 654 103.659 345.427 483.402
1588 0 52.1066 13.4916 703 102.263 345.671 481.99
1589 0 55.0712 12.4929 688 103.573 346.096 482.494
1590 0 56.0588 12.9685 727 102.228 346.143 480.502
1591 0 56.084 11.0727 621 106.965 346.367 480.052
1592 0 58.0517 10.9558 636 106.601 346.039 479.208
1593 0 63.0882 13.5683 856 100.43 346.09 478.06
1594 0 64.1028 12.558 805 102.853 346.286 476.212
1595 0 67.1332 12.1102 813 103.137 345.836 477.408
1596 0 70.0507 12.6623 887 102.688 345.672 475.251
1597 0 70.1445 12.6311 886 103.799 346.052 474.791
1598 0 71.0887 11.1129 790 107.997 346.438 473.653
1599 0 74.0602 13.1785 976 104.712 347.412 469.389
1600 0 78.0747 11.5018 898 105.896 346.95 470.821
1601 0 80.118 12.6438 1013 105.205 347.45 467.917
1602 0 84.0743 12.6674 1065 106.157 346.691 467.454
1603 0 86.1524 12.3154 1061 108.275 347.216 466.139
1604 1 45.0316 10.0374 452 105.987 347.679 488.002
1605 0 45.0214 10.6616 480 106.804 347.456 487.706
1606 0 50.1854 12.2944 617 105.211 346.037 482.036
1607 0 51.0961 12.408 634 104.983 346.377 482.588
1608 0 51.0527 12.7319 650 109.543 345.198 481.831
1609 0 55.0461 12.3533 680 109.59 345.382 481.778
1610 0 54.1437 11.4325 619 113.2 345.213 480.541
1611 0 58.0754 12.191 708 109.853 345.812 480.833
1612 0 60.0589 12.4544 748 110.104 345.259 479.545
1613 0 63.1117 12.1372 766 109.941 344.621 477.138
1614 0 65.0822 12.0617 785 109.831 345.029 476.33
1615 0 65.0616 12.5881 819 111.175 344.532 472.186
1616 0 69.0534 11.5707 799 112.678 344.877 472.332
1617 0 70.0687 12.7874 896 110.708 345.334 472.632
1618 0 71.0293 11.8543 842 112.038 345.236 473.644
1619 0 77.1066 12.4114 957 110.515 344.678 469.507
1620 0 80.413 13.1571 1058 108.576 345.502 467.356
1621 0 80.0712 12.3765 991 111.994 345.372 465.169
1622 0 84.0683 13.4415 1130 109.777 344.288 463.885
1623 0 86.132 12.7711 1100 110.308 345.332 463.256
1624 0 90.1188 12.5501 1131 109.532 345.809 462.219
1625 1 46.1198 10.3643 478 105.86 346.676 485.676
1626 0 46.1653 10.2241 472 107.722 346.966 483.782
1627 0 50.1278 10.5331 528 106.661 346.648 482.871
1628 0 52.0687 10.0252 522 108.008 346.929 484.22
1629 0 54.1116 11.772 637 104.257 347.3 480.769
1630 0 58.1321 12.1276 705 102.828 346.616 479.587
1631 0 58.1369 11.3869 662 105.458 346.891 479.495
1632 0 60.1 11.8802 714 105.553 346.37 478.492
1633 0 62.1481 11.4082 709 106.702 346.166 478.327
1634 0 67.126 12.9309 868 103.833 346.558 476.38
1635 0 68.2292 11.989 818 106.522 346.718 476.388
1636 0 70.1224 12.25 859 107.448 346.583 474.198
1637 0 74.1785 12.0655 895 113.887 347.34 473.457
1638 0 77.1662 12.5055 965 113.852 346.826 470.812
1639 0 79.2921 11.754 932 111.643 346.771 472.621
1640 0 83.1802 12.4188 1033 114.656 346.713 469.923
1641 0 82.1541 11.0889 911 120.11 346.883 468.606
1642 0 87.2163 11.4199 996 117.834 347.561 466.025
1643 1 45.0346 11.1248 501 114.379 347.752 487.535
1644 0 47.0429 12.1379 571 113.737 348.686 484.881
1645 0 48.2121 11.6153 560 115.638 347.136 483.584
1646 0 49.361 12.0338 594 114.407 347.485 482.354
1647 0 51.1007 11.4871 587 119.716 347.468 483.206
1648 0 53.1473 12.3242 655 117.298 347.553 483.13
1649 0 53.0887 12.545 666 117.917 348.071 482.332
1650 0 57.0444 12.6393 721 117.304 348.315 479.54
1651 0 58.0185 11.9617 694 119.281 347.598 479.965
1652 0 60.0565 12.8046 769 117.221 347.116 480.086
1653 0 61.129 12.7108 777 118.245 347.477 478.557
1654 0 63.0583 12.8928 813 118.396 347.139 477.339
1655 0 65.092 12.5515 817 119.792 347.119 476.202
1656 0 68.1138 12.714 866 119.493 347.365 474.851
1657 0 68.076 13.3527 909 118.884 346.512 475.131
1658 0 72.1247 12.9082 931 120.248 346.4 473.778
1659 0 72.1054 13.6328 983 121.057 347.14 471.283
1660 0 76.0614 13.1736 1002 121.579 346.721 471.017
1661 0 79.0617 13.6096 1076 120.967 346.581 469.875
1662 0 78.0806 12.295 960 121.172 347.815 469.154
1663 0 81.0616 11.5344 935 123.012 348.389 470.405
1664 0 84.0586 11.8251 994 123.28 348.018 467.545
1665 0 88.1431 14.1474 1247 119.96 347.103 463.698
1666 0 92.1721 12.4658 1149 124.608 346.794 462.356
1667 0 93.1504 12.8394 1196 124.129 347.26 459.969
1668 1 50.0895 11.4395 573 125.64 347.93 481.649
1669 0 51.0228 10.6031 541 126.658 344.64 483.665
1670 0 54.0278 11.5496 624 124.545 344.481 481.33
1671 0 57.3251 12.6995 728 121.981 346.766 479.268
1672 0 59.2499 12.422 736 122.001 346.668 479.398
1673 0 59.2712 12.8224 760 124.171 346.291 477.614
1674 0 61.2353 12.0682 739 125.842 346.457 477.395
1675 0 64.3061 12.5493 807 123.905 346.704 477.196
1676 0 64.2823 12.2118 785 126.702 346.882 475.641
1677 0 66.3119 13.2857 881 123.412 346.899 476.102
1678 0 68.1493 12.4433 848 125.296 346.895 475.843
1679 0 72.2305 12.9585 936 122.895 347.012 474.35
1680 0 72.243 12.8178 926 124.643 347.202 473.204
1681 0 76.2778 13.4115 1023 122.193 346.802 469.999
1682 0 78.2487 13.1376 1028 122.789 346.688 470.66
1683 0 82.2614 13.4085 1103 121.244 346.929 469.957
1684 0 84.2061 13.4076 1129 121.089 346.455 467.958
1685 1 45.0495 11.9646 539 115.551 347.738 489.163
1686 0 44.0884 10.8419 478 113.372 346.088 488.674
1687 0 44.0305 11.5148 507 112.288 346.572 488.185
1688 0 47.0383 11.9052 560 119.918 347.286 487.184
1689 0 47.0639 11.4525 539 121.946 346.568 484.286
1690 0 50.0609 12.0254 602 120.573 346.94 483.556
1691 0 50.0493 11.7085 586 122.232 346.831 482.48
1692 0 52.0321 11.6659 607 121.667 347.333 483.545
1693 0 53.0819 12.509 664 119.929 347.637 482.265
1694 0 55.0649 11.9314 657 120.154 347.123 482.668
1695 0 56.1018 12.5843 706 118.268 347.388 481.592
1696 0 56.2139 11.8476 666 121.225 346.95 480.944
1697 0 59.2385 13.2346 784 117.23 346.753 479.443
1698 0 58.2133 12.0935 704 120.428 347.06 479.653
1699 0 59.2143 10.8926 645 123.924 347.043 478.169
1700 0 64.2585 12.5898 809 118.429 346.553 476.672
1701 0 66.2189 13.697 907 114.631 347.108 475.882
1702 0 68.2087 13.0775 892 116.203 346.576 475.666
1703 0 70.2412 13.112 921 117.153 346.091 473.578
1704 0 71.1765 13.5157 962 114.255 346.727 470.965
1705 0 74.2135 13.2456 983 114.386 346.4 470.719
1706 0 76.1145 12.5075 952 116.405 346.02 470.776
1707 0 77.194 11.6719 901 119.988 346.145 469.544
1708 0 79.1996 11.9192 944 120.707 346.186 468.373
1709 0 82.1562 13.7421 1129 117.091 346.695 465.438
1710 0 84.1461 13.7142 1154 117.543 346.737 465.001
1711 0 89.2344 13.4926 1204 118.724 346.222 464.614
1712 0 91.212 12.5641 1146 121.658 346.597 461.435
1713 0 93.2531 12.1926 1137 123.056 346.596 462.186
1714 0 95.217 12.8653 1225 121.855 346.113 459.666
1715 0 98.2286 13.1021 1287 121.157 345.523 459.127
1716 0 103.183 13.5003 1393 119.66 345.344 459.087
1717 0 106.189 13.5042 1434 119.542 345.987 457.363
1718 0 108.134 13.2336 1431 121.532 345.744 454.574
1719 1 54.0198 11.866 641 117.743 346.449 481.622
1720 0 54.028 11.1609 603 121.091 346.698 478.627
1721 0 57.1154 12.7111 726 116.886 347.893 477.89
1722 0 60.0579 12.6045 757 116.613 348.263 476.448
1723 0 60.0417 12.7578 766 117.278 347.884 475.082
1724 0 62.0775 12.8549 798 117.326 347.93 474.86
1725 0 63.0755 12.5088 789 118.384 348.062 473.077
1726 0 67.0482 13.3188 893 114.926 347.831 472.512
1727 0 70.0456 13.0201 912 115.12 347.152 471.144
1728 0 73.1029 13.3921 979 114.682 347.149 470.613
1729 0 75.0744 13.4267 1008 114.581 347.598 468.907
1730 0 77.0776 12.948 998 115.675 347.049 469.108
1731 0 77.0823 11.3645 876 121.888 346.639 465.186
1732 0 83.1184 13.1138 1090 116.607 347.383 465.144
1733 0 86.0845 12.7549 1098 117.608 347.189 465.646
1734 0 88.127 13.7188 1209 115.675 346.916 464.385
1735 0 90.116 12.3729 1115 119.673 346.885 462.029
1736 0 92.1672 12.9656 1195 118.863 346.622 460.898
1737 0 97.1351 12.601 1224 120.221 347.092 458.408
1738 1 55.0583 11.8057 650 116.606 347.463 480.988
1739 0 56.0885 13.0151 730 115.047 347.558 479.893
1740 0 58.0453 12.7831 742 113.301 347.28 479.819
1741 0 58.1037 13.0112 756 113.335 347.812 478.423
1742 0 61.0814 13.8995 849 110.779 347.412 479.071
1743 0 61.0913 12.7514 779 112.467 346.611 476.101
1744 0 65.115 13.6067 886 109.831 347.159 475.527
1745 0 66.0757 12.7581 843 112.906 347.63 475.581
1746 0 69.0929 13.6483 943 111.154 347.295 474.485
1747 0 71.1481 13.4368 956 112.271 347.262 473.932
1748 0 73.0788 13.4786 985 112.506 346.721 473.137
1749 0 75.1284 13.9628 1049 113.28 346.796 471.302
1750 0 77.1444 13.0016 1003 117.085 347.198 470.811
1751 0 81.1584 13.9111 1129 114.515 347.145 467.974
1752 0 84.213 13.4896 1136 115.885 347.102 468.32
1753 0 86.1676 13.8335 1192 116.622 347.607 466.162
1754 0 91.1658 14.15 1290 116.161 347.507 464.562
1755 1 48.036 11.991 576 118.411 347.795 484.877
1756 0 48.1363 11.5298 555 118.041 347.951 483.823
1757 0 48.1171 12.5111 602 120.492 347.193 483.027
1758 0 49.0678 11.8408 581 123.873 348.112 481.892
1759 0 53.0831 11.6986 621 124.185 348.106 481.082
1760 0 53.0225 12.7682 677 121.907 348.514 481.691
1761 0 55.104 13.5925 749 120.075 348.144 479.534
1762 0 55.0907 12.4885 688 123.66 347.735 479.898
1763 0 57.1045 12.6785 724 122.608 347.591 480.652
1764 0 59.0301 13.2475 782 121.123 347.896 479.345
1765 0 59.068 13.9669 825 120.297 348.281 478.886
1766 0 60.0814 14.8964 895 117.732 347.994 478.234
1767 0 63.0522 13.2113 833 121.866 347.366 477.254
1768 0 66.0679 13.6224 900 120.293 347.234 475.596
1769 0 69.1008 13.8204 955 118.684 347.018 474.994
1770 0 69.0662 13.8273 955 120.068 347.215 474.252
1771 0 69.09 12.8673 889 125.244 347.611 473.126
1772 0 73.1398 14.0416 1027 120.152 347.926 471.39
1773 0 76.1734 15.0184 1144 118.212 347.212 469.198
1774 0 77.0819 14.4132 1111 119.971 347.271 469.248
1775 0 80.1397 13.5888 1089 122.505 347.293 467.981
1776 0 82.1125 15.2717 1254 117.64 346.482 464.083
1777 0 85.1086 15.1454 1289 117.5 346.72 463.593
1778 0 87.1896 13.8204 1205 120.871 346.764 462.083
1779 0 90.1494 12.7122 1146 122.887 346.514 460.781
1780 1 47.1618 9.64764 455 124.356 347.092 483.629
1781 0 50.0871 10.0225 502 124.641 344.952 482.396
1782 0 52.3225 11.8305 619 118.622 346.834 482.27
1783 0 53.2145 12.91 687 118.1 346.23 479.985
1784 0 55.3177 12.6903 702 118.84 346.775 479.248
1785 0 58.2526 12.9265 753 118.187 346.801 478.825
1786 0 58.2109 12.4547 725 120.415 346.481 477.43
1787 0 62.2307 13.2893 827 118.139 345.773 476.706
1788 0 62.1971 12.9427 805 120.939 346.106 477.045
1789 0 63.1723 12.3314 779 122.768 346.67 476.105
1790 0 66.1602 13.558 897 119.595 346.152 473.594
1791 0 68.1758 13.1865 899 121.234 346.512 474.495
1792 0 72.1228 12.7283 918 122.94 346.589 472.06
1793 0 74.1769 13.2386 982 122.071 346.109 472.159
1794 0 76.2309 13.7215 1046 123.031 346.072 470.275
1795 0 77.1991 13.1219 1013 126.579 345.564 468.643
1796 0 83.1756 14.0787 1171 122.121 345.867 468.728
1797 0 84.1666 14.2337 1198 124.554 346.27 466.135
1798 1 41.0565 10.8631 446 131.007 346.991 486.922
1799 0 45.122 12.2778 554 124.83 347.94 486.892
1800 0 45.0267 11.3266 510 130.359 347.614 486.353
1801 0 48.0705 12.9185 621 126.319 347.459 485.106
1802 0 49.0147 12.5269 614 129.86 347.314 484.562
1803 0 50.0167 12.2559 613 131.721 347.881 483.292
1804 0 53.0434 13.1025 695 128.21 348.458 482.601
1805 0 53.0266 13.8233 733 128.134 348.165 480.708
1806 0 54.0417 13.5266 731 129.311 348.462 482.008
1807 0 57.0184 13.7149 782 128.559 348.615 480.538
1808 0 58.0333 13.6646 793 129.01 348.342 479.478
1809 0 56.0295 12.2257 685 135.825 348.004 479.702
1810 0 62.0495 13.6182 845 128.822 348.363 478.528
1811 0 62.0258 13.704 850 128.62 348.455 478.481
1812 0 63.0392 12.8333 809 132.266 348.062 477.169
1813 0 66.0645 13.2598 876 131.525 347.982 474.925
1814 0 69.0506 12.8022 884 131.383 347.133 475.113
1815 0 72.1126 13.8117 996 128.018 347.39 474.101
1816 0 74.0656 13.191 977 130.567 347.791 472.198
1817 0 78.0368 14.365 1121 125.699 347.176 471.716
1818 0 80.1076 13.744 1101 128.232 347.617 469.465
1819 0 80.0774 14.1363 1132 128.63 348.102 469.047
1820 0 85.112 14.0991 1200 127.444 347.602 467.087
1821 0 87.1983 14.1746 1236 128.475 347.678 464.308
1822 0 92.0843 13.998 1289 126.561 347.753 466.962
1823 1 49.0146 10.4459 512 134.316 347.873 484.049
1824 0 52.0767 11.4255 595 131.01 347.889 484.503
1825 0 54.1364 13.78 746 125.803 346.45 478.881
1826 0 57.1235 12.7968 731 128.982 346.092 479.401
1827 0 57.0622 13.1611 751 129.015 346.144 480.052
1828 0 59.0704 13.577 802 127.414 345.121 477.64
1829 0 61.1477 12.3308 754 130.39 345.363 476.683
1830 0 61.0887 12.4246 759 131.962 345.469 476.017
1831 0 63.0769 13.9354 879 127.753 345.518 475.505
1832 0 64.0387 12.8516 823 130.753 345.504 475.451
1833 0 67.0631 13.8079 926 127.664 345.405 474.198
1834 0 69.0544 13.7573 950 127.364 345.249 473.229
1835 0 73.033 14.1169 1031 125.714 345.639 471.225
1836 0 73.0887 13.3947 979 129.964 344.759 470.078
1837 0 77.0619 13.8071 1064 127.733 345.568 468.234
1838 0 80.1379 14.4751 1160 126.207 345.221 464.945
1839 0 82.0814 13.7059 1125 129.319 345.139 463.828
1840 0 84.0788 13.083 1100 131.229 344.968 463.445
1841 0 87.1196 13.8201 1204 129.482 345.141 462.015
1842 0 91.1359 13.9243 1269 128.033 345.716 458.942
1843 0 95.2787 13.8226 1317 127.468 345.512 456.485
1844 1 48.0343 11.3252 544 125.268 344.579 481.265
1845 0 50.0321 11.5326 577 120.951 345.166 478.445
1846 0 52.0918 10.7886 562 108.555 346.053 479.354
1847 0 51.0412 11.4809 586 105.817 346.887 472.696
1848 0 54.1047 10.4612 566 107.329 347.638 473.438
1849 0 54.032 10.9565 592 106.757 347.399 472.525
1850 0 58.1366 11.1978 651 105.103 347.041 472.859
1851 0 59.2306 11.0754 656 106.25 346.244 469.503
1852 0 61.1747 11.884 727 105.217 346.587 468.345
1853 0 64.0619 12.2382 784 104.361 345.996 468.79
1854 0 66.1921 12.0256 796 104.894 346.148 469.002
1855 0 65.1617 11.8321 771 107.54 346.695 466.508
1856 0 71.3086 12.1023 863 106.331 346.122 463.379
1857 0 72.1738 12.4006 895 106.608 345.712 463.112
1858 0 74.2332 12.7571 947 105.975 345.85 461.471
1859 0 76.2548 12.9303 986 106.247 346.309 460.528
1860 0 79.1698 12.77 1011 107.331 346.083 459.156
1861 0 83.1157 13.3669 1111 106.582 345.778 456.356
1862 0 87.1998 13.7844 1202 107.176 345.809 456.786
1863 0 91.1974 13.1363 1198 110.562 346.104 453.784
1864 0 91.1583 13.131 1197 114.602 346.285 450.075
1865 0 96.1671 13.5597 1304 113.705 346.841 449.647
1866 1 49.0706 11.1064 545 113.972 346.066 474.009
1867 0 52.0419 10.6837 556 116.056 346.478 474.39
1868 0 56.0385 10.9924 616 114.244 348.344 474.834
1869 0 54.0553 10.3043 557 117.16 347.47 474.619
1870 0 57.0334 10.6253 606 116.88 346.939 473.563
1871 0 61.042 11.4184 697 113.775 347.387 474.476
1872 0 64.2544 12.933 831 120.755 347.152 476.835
1873 0 65.1594 13.5054 880 120.818 346.799 475.03
1874 0 69.1867 13.4997 934 120.726 346.786 473.95
1875 0 71.1285 13.4826 959 120.563 346.735 474.696
1876 0 73.283 14.0415 1029 121.108 346.5 472
1877 0 74.1606 13.5382 1004 122.344 346.669 473.197
1878 0 76.2613 13.2571 1011 123.797 347.301 472.377
1879 0 77.1644 12.7002 980 120.324 347.078 472.399
1880 0 80.2333 13.0619 1048 119.343 347.121 471.23
1881 0 81.1741 11.3706 923 125.213 346.737 470.421
1882 0 86.1186 13.7717 1186 118.115 346.977 468.435
1883 0 90.1349 13.9458 1257 116.949 346.698 465.889
1884 0 91.1159 12.8957 1175 121.164 347.267 465.121
1885 0 95.1134 12.5534 1194 120.945 347.011 465.009
1886 0 99.1056 13.2283 1311 119.1 346.872 462.079
1887 1 54.0575 10.8033 584 119.346 347.473 485.599
1888 0 54.0582 11.9686 647 119.196 346.83 481.363
1889 0 59.0768 11.4089 674 119.914 347.481 480.016
1890 0 59.0736 12.0697 713 126.917 345.546 479.325
1891 0 66.065 13.6532 902 118.642 345.59 478.069
1892 0 65.1081 12.2105 795 123.615 344.561 476.443
1893 0 69.0982 12.967 896 119.72 344.357 476.417
1894 0 72.071 12.3628 891 122.499 344.942 473.987
1895 0 73.2226 13.9165 1019 119.477 347.712 474.178
1896 0 73.1538 12.6173 923 123.913 347.087 473.819
1897 0 75.2617 13.0611 983 124.205 346.733 469.371
1898 0 78.3277 12.2179 957 125.685 346.854 470.326
1899 0 81.193 12.8459 1043 124.99 346.569 466.826
1900 0 83.2205 12.8935 1073 125.15 345.6 465.224
1901 0 86.3784 12.9894 1122 124.42 345.431 465.144
1902 0 90.3114 12.1026 1093 124.507 345.312 463.919
1903 0 91.2445 12.9652 1183 122.924 345.051 463.407
1904 1 47.0734 10.2393 482 126.349 345.264 483.888
1905 0 49.0404 10.9909 539 123.147 345.338 482.837
1906 0 51.0773 11.786 602 122.106 345.214 483.095
1907 0 54.1588 12.4633 675 120.381 344.975 482.271
1908 0 54.1065 12.6417 684 121.284 345.434 481.089
1909 0 56.119 11.8142 663 121.682 345.839 482.569
1910 0 56.1792 12.5491 705 122.184 345.627 479.272
1911 0 60.1218 12.957 779 119.956 345.113 479.142
1912 0 63.0317 12.8824 812 119.251 345.232 478.563
1913 0 62.0684 13.3885 831 120.093 344.806 477.454
1914 0 66.1214 14.3826 951 115.915 345.634 477.697
1915 0 68.0713 12.8542 875 121.742 345.317 474.725
1916 0 66.1151 11.6615 771 118.566 346.092 475.554
1917 0 69.2313 12.1188 839 118.316 345.927 475.616
1918 0 72.1134 12.1753 878 116.407 346.132 475.042
1919 0 74.1421 11.9096 883 116.118 345.677 473.505
1920 0 75.1282 10.502 789 117.582 346.066 472.634
1921 0 80.1056 13.0703 1047 113.758 345.67 468.794
1922 0 80.2063 11.7821 945 117.669 345.332 467.815
1923 0 85.1437 11.6509 992 117.734 345.731 465.537
1924 0 87.1508 11.9792 1044 117.534 345.773 463.369
1925 0 91.1378 12.3988 1130 116.474 345.652 463.164
1926 1 50.0748 10.6441 533 115.598 345.645 484.901
1927 0 50.1148 11.2542 564 114.434 345.546 484.066
1928 0 51.0907 11.7047 598 112.691 345.936 484.62
1929 0 54.1347 12.1364 657 108.86 345.968 483.549
1930 0 55.1043 11.814 651 104.303 346.783 476.14
1931 0 54.1686 11.3535 615 105.787 346.904 476.054
1932 0 57.138 11.7085 669 106.593 346.871 476.556
1933 0 58.2066 10.875 633 109.687 346.919 475.341
1934 0 59.0816 11.4079 674 108.263 347.283 475.111
1935 0 61.1852 11.1465 682 109.457 347.279 475.878
1936 0 61.175 10.8214 662 111.542 347.26 473.121
1937 0 64.2179 11.4143 733 109.928 346.895 469.82
1938 0 66.258 12.6022 835 107.123 346.624 468.225
1939 0 68.331 11.9419 816 108.287 346.075 470.712
1940 0 71.3041 11.5561 824 109.888 346.375 468.606
1941 0 71.1555 11.5241 820 111.176 346.005 467.206
1942 0 75.2616 11.3604 855 112.729 346.021 462.14
1943 0 80.376 11.7697 946 111.323 345.815 464.738
1944 0 82.1623 11.7451 965 111.146 346.234 464.223
1945 0 86.1733 13.0783 1127 108.511 346.166 461.03
1946 0 86.1966 10.8937 939 115.253 346.859 461.056
1947 0 90.21 11.7836 1063 113.029 346.952 459.862
1948 1 46.1269 9.73402 449 111.107 346.719 481.165
1949 0 49.1382 11.9052 585 105.783 345.438 480.687
1950 0 47.1362 12.0502 568 108.085 345.644 478.391
1951 0 46.1328 10.5998 489 112.164 346.81 478.781
1952 0 48.0919 10.7295 516 113.099 346.632 476.504
1953 0 52.1536 11.8688 619 109.449 346.247 476.855
1954 0 53.2279 10.5396 561 113.668 346.217 475.975
1955 0 52.1386 11.5078 600 114.913 346.318 476.052
1956 0 55.1143 10.9228 602 115.213 347.799 476.664
1957 0 55.0956 11.235 619 115.572 348.037 474.554
1958 0 57.0522 11.025 629 114.145 348.083 475.456
1959 0 59.1167 11.1474 659 114.741 347.085 474.927
1960 0 63.0903 12.6327 797 110.703 347.064 472.325
1961 0 62.1021 11.9159 740 112.868 347.136 471.15
1962 0 65.256 11.7231 765 113.038 346.876 470.877
1963 0 71.1418 13.4098 954 108.453 347.292 467.844
1964 0 73.1307 13.2776 971 108.89 346.768 468.46
1965 0 76.2015 12.8475 979 109.452 347.509 467.856
1966 0 79.2714 12.5392 994 111.297 348.181 466.086
1967 0 82.0852 12.9378 1062 111.094 347.793 465.3
1968 0 84.194 12.0674 1016 113.4 347.798 465.253
1969 1 45.0917 10.3345 466 108.496 348.805 484.884
1970 0 44.0758 11.2533 496 108.2 348.688 482.51
1971 0 47.1632 11.3648 536 110.103 348.735 483.735
1972 0 48.0537 11.1958 538 105.844 348.392 481.145
1973 0 48.1249 10.9299 526 106.65 348.464 482.074
1974 0 51.2067 11.8149 605 104.36 348.324 479.327
1975 0 51.0291 11.5816 591 106.387 347.489 478.291
1976 0 51.1685 11.081 567 108.062 347.222 477.651
1977 0 53.0393 11.8026 626 106.185 347.473 479.171
1978 0 56.0529 11.3107 634 107.183 347.67 477.86
1979 0 56.0577 12.2552 687 105.585 348.022 476.805
1980 0 59.0833 11.5769 684 106.978 348.412 475.078
1981 0 60.2129 10.4463 629 109.55 347.63 474.787
1982 0 64.0921 11.1558 715 108.421 347.783 472.964
1983 0 66.1475 12.3058 814 105.928 347.319 472.167
1984 0 71.1523 11.2575 801 107.725 346.898 472.991
1985 0 70.0606 12.2751 860 107.27 346.969 469.067
1986 0 72.0718 12.6679 913 106.704 347.089 468.897
1987 0 74.1169 12.6152 935 107.559 347.144 468.614
1988 0 76.2482 11.9609 912 110.922 346.441 465.019
1989 0 80.1172 12.4443 997 108.726 347.234 466.532
1990 0 83.1329 12.6785 1054 109.088 347.813 465.637
1991 0 86.2318 12.5128 1079 110.737 347.085 461.621
1992 1 46.0662 10.7454 495 106.204 346.244 482.22
1993 0 45.0309 10.7482 484 109.033 346.37 481.246
1994 0 47.0425 10.5862 498 108.114 346.518 482.705
1995 0 48.1551 10.84 522 108.571 347.479 481.082
1996 0 50.1304 12.8066 642 104.662 346.815 480.109
1997 0 51.0549 11.0078 562 109.37 346.674 479.424
1998 0 55.0697 12.0393 663 116.216 346.092 481.965
1999 0 56.0745 13.4286 753 113.932 346.412 481.068
2000 0 58.154 12.7936 744 114.5 346.3 482.39
2001 0 59.0701 13.5771 802 112.378 346.231 480.691
2002 0 63.0747 13.1114 827 113.16 346.515 480.185
2003 0 65.1637 13.3663 871 112.85 346.333 478.951
2004 0 65.089 13.8733 903 112.558 345.408 476.723
2005 0 69.1442 13.0597 903 114.493 345.874 477.627
2006 0 69.0642 13.0314 900 115.633 345.081 474.773
2007 0 72.1575 14.1496 1021 113.277 345.917 473.672
2008 0 74.0873 12.3233 913 118.544 345.909 472.462
2009 0 77.2098 13.1849 1018 115.102 346.699 471.602
2010 0 80.1451 13.3757 1072 113.25 346.186 471.151
2011 0 81.1732 12.0114 975 117.837 346.186 468.697
2012 1 44.0303 11.3104 498 119.335 346.894 486.783
2013 0 47.0883 12.4872 588 112.639 346.298 486.454
2014 0 47.0634 12.94 609 110.954 346.136 484.067
2015 0 48.049 12.0918 581 112.874 346.005 483.675
2016 0 49.0892 12.3652 607 112.763 345.582 482.471
2017 0 51.0773 12.1776 622 113.238 346.396 481.685
2018 0 52.0936 10.9226 569 117.054 346.084 479.873
2019 0 54.0655 12.3554 668 112.993 345.837 480.835
2020 0 55.0585 12.7682 703 112.64 347.555 481.111
2021 0 57.0166 12.1193 691 113.482 347.65 480.726
2022 0 58.048 13.2132 767 111.914 347.073 478.458
2023 0 59.0701 13.0354 770 111.819 347.075 478.153
2024 0 61.0889 13.6522 834 110.018 347.698 477.391
2025 0 64.1356 13.0193 835 111.546 347.619 476.473
2026 0 66.0278 13.358 882 108.963 347.424 475.319
2027 0 68.0835 12.8959 878 110.158 347.277 474.952
2028 0 71.0507 13.4411 955 109.024 347.682 472.225
2029 0 73.0564 12.771 933 110.653 347.921 471.414
2030 0 75.1169 12.7668 959 110.419 347.729 470.198
2031 0 80.0891 13.3351 1068 107.221 347.317 469.5
2032 0 81.1528 13.986 1135 105.695 346.619 466.33
2033 0 85.09 12.4104 1056 109.774 346.706 466.695
2034 0 87.255 13.4548 1174 106.848 346.94 465.772
2035 0 88.1924 12.348 1089 111.211 346.826 462.955
2036 0 92.0894 13.02 1199 109.095 346.671 461.501
2037 0 94.2312 12.9681 1222 109.595 346.235 461.071
2038 0 99.1302 13.6487 1353 108.91 347.186 457.891
2039 0 100.085 12.4994 1251 112.75 347.491 457.516
2040 0 102.171 11.7352 1199 115.275 347.706 454.998
2041 0 107.211 13.0864 1403 112.053 347.771 453.991
2042 0 110.245 12.9439 1427 112.456 347.512 455.987
2043 0 113.162 12.3451 1397 114.628 347.371 451.926
2044 0 116.141 12.8895 1497 114.772 346.802 452.248
2045 0 121.136 13.2413 1604 112.939 346.477 448.966
2046 0 127.349 13.247 1687 113.81 346.346 441.885
2047 0 131.293 13.2071 1734 113.157 346.905 444.235
2048 1 68.2499 12.337 842 107.55 347.258 473.425
2049 0 70.1759 12.6112 885 106.628 348.18 472.191
2050 0 71.1557 12.5499 893 108.922 347.448 471.857
2051 0 76.1638 13.5366 1031 105.797 345.901 472.33
2052 0 78.147 12.5405 980 107.745 345.596 473.454
2053 0 79.0873 12.2902 972 110.302 346.216 469.543
2054 0 83.3102 13.4197 1118 108.352 346.389 467.446
2055 0 85.1306 12.6981 1081 111.394 346.018 467.412
2056 0 89.2032 13.6318 1216 109.037 345.93 466.161
2057 0 90.1982 13.4149 1210 110.85 345.355 464.933
2058 0 93.2604 13.028 1215 111.96 345.26 463.042
2059 0 96.1426 14.6345 1407 109.256 345.339 462.145
2060 0 99.2195 13.7271 1362 111.362 345.291 461.833
2061 0 102.296 13.6271 1394 112.992 345.515 460.808
2062 0 105.264 13.0719 1376 115.656 345.957 458.569
2063 0 109.313 14.152 1547 113.07 345.915 455.939
2064 0 110.295 13.3098 1468 116.579 346.014 454.955
2065 0 115.414 12.8753 1486 116.214 346.153 456.513
2066 0 119.331 14.2294 1698 114.598 345.716 448.12
2067 1 68.3418 13.4618 920 113.775 345.988 477.909
2068 0 68.2236 11.3597 775 116.981 345.974 473.406
2069 0 72.4071 12.3054 891 101.117 346.316 470.942
2070 0 70.1192 10.7531 754 108.606 347.057 472.5
2071 0 74.0644 11.8275 876 105.866 347.033 471.562
2072 0 76.08 11.5668 880 106.362 347.415 471.183
2073 0 80.0645 11.9404 956 106.622 347.433 467.544
2074 0 83.1036 11.5278 958 107.746 347.391 466.924
2075 0 87.1534 10.579 922 110.155 347.87 465.593
2076 0 90.1471 11.6143 1047 107.582 347.529 463.589
2077 0 91.2027 11.5347 1052 108.329 346.75 464.717
2078 0 95.1502 11.6553 1109 108.494 345.861 464.287
2079 0 99.1081 12.4813 1237 106.895 346.196 460.99
2080 0 102.297 12.5322 1282 106.893 346.144 457.502
2081 0 104.108 12.6118 1313 106.883 346.218 456.543
2082 0 108.246 12.3793 1340 108.224 346.119 453.533
2083 0 112.189 12.8622 1443 106.407 346.391 453.197
2084 0 116.176 11.6461 1353 110.713 346.173 452.935
2085 1 61.1486 10.0248 613 110.062 347.285 480.517
2086 0 63.1392 11.6251 734 106.839 346.3 479.433
2087 0 66.2125 11.6141 769 106.623 346.583 477.538
2088 0 67.1581 10.9145 733 109.052 346.478 473.469
2089 0 71.1939 11.4195 813 106.363 346.877 476.161
2090 0 71.213 11.2199 799 109.703 347.166 474.002
2091 0 75.1446 12.5358 942 105.734 346.998 472.524
2092 0 76.2738 11.3932 869 108.932 346.878 471.181
2093 0 79.2298 12.1167 960 109.061 346.864 467.533
2094 0 82.1704 13.6789 1124 105.321 347.24 467.329
2095 0 84.2858 12.8847 1086 108.12 347.167 467.783
2096 0 87.2444 11.9549 1043 110.625 347.655 467.888
2097 0 90.2343 11.9467 1078 111.805 347.891 464.965
2098 0 90.1092 11.1087 1001 115.408 347.057 464.266
2099 0 94.2201 11.6642 1099 114.323 346.931 461.905
2100 0 99.1067 12.9053 1279 112.527 345.954 458.274
2101 0 102.13 11.5833 1183 115.266 346.634 455.412
2102 0 106.18 12.5164 1329 113.323 345.836 456.565
2103 0 108.151 12.8154 1386 112.488 346.012 456.584
2104 1 58.0399 11.3026 656 116.273 346.799 481.323
2105 0 58.0698 12.0717 701 108.14 346.692 478.563
2106 0 60.0429 12.5743 755 111.895 347.199 479.262
2107 0 62.0787 12.0814 750 112.032 346.78 479.129
2108 0 63.0353 12.374 780 110.655 346.997 478.114
2109 0 67.0493 13.0053 872 108.619 347.29 474.822
2110 0 71.1123 12.4873 888 109.177 347.35 475.649
2111 0 72.1458 13.0292 940 108.485 346.589 473.5
2112 0 73.0994 13.1328 960 109.652 346.752 472.718
2113 0 76.1054 12.6404 962 110.096 346.779 470.687
2114 0 80.1975 13.2548 1063 108.129 347.135 470.257
2115 0 81.118 11.8346 960 111.42 347.271 468.186
2116 0 84.1053 13.2572 1115 107.778 346.639 467.805
2117 0 86.0866 12.3364 1062 110.883 346.652 466.041
2118 0 91.1193 12.6208 1150 109.281 346.974 463.927
2119 0 96.2183 14.0306 1350 104.28 346.202 465.22
2120 0 96.1941 12.8074 1232 108.256 346.125 460.769
2121 0 98.1562 12.8672 1263 107.975 347.004 461.968
2122 1 56.0268 12.8153 718 108.234 347.248 481.058
2123 0 55.2084 10.9041 602 106.248 345.846 476.346
2124 0 56.0864 11.7319 658 106.299 346.574 474.846
2125 0 57.113 11.6611 666 106.128 346.474 472.122
2126 0 61.1526 11.9864 733 105.061 345.656 472.599
2127 0 61.1629 12.246 749 97.2096 346.112 477.605
2128 0 61.1902 9.8872 605 100.959 346.079 479.944
2129 0 64.1008 11.6379 746 99.0174 345.594 476.626
2130 0 65.0437 10.2393 666 100.727 345.263 477.125
2131 0 69.069 11.1048 767 100.97 345.286 472.089
2132 0 72.1764 10.6683 770 101.31 345.042 462.291
2133 0 74.1939 10.9713 814 101.756 345.303 464.733
2134 0 76.1586 11.0559 842 102.414 345.107 463.398
2135 0 76.1364 11.2693 858 104.058 345.936 469.862
2136 0 82.11 11.85 973 102.549 345.598 469.096
2137 0 84.3036 11.3281 955 105.639 345.496 465.284
2138 0 87.3466 12.1814 1064 106.182 345.848 461.266
2139 0 92.3095 11.8081 1090 108.431 345.566 459.41
2140 0 94.2667 12.2631 1156 110.251 345.685 457.118
2141 0 100.186 13.5648 1359 108.671 344.915 458.81
2142 1 51.0667 12.1018 618 105.345 344.958 483.052
2143 0 53.0895 10.1715 540 108.331 346.094 479.267
2144 0 55.4165 10.5925 587 106.959 345.787 480.717
2145 0 58.229 11.0941 646 106.09 345.732 478.751
2146 0 56.2821 11.9932 675 104.228 345.93 476.427
2147 0 58.0212 12.0128 697 109.811 344.689 480.547
2148 0 59.0464 11.1268 657 111.822 345.181 479.96
2149 0 62.0641 11.7298 728 111.416 344.992 479.266
2150 0 65.0923 13.1045 853 108.333 345.094 476.021
2151 0 68.0985 11.8798 809 109.583 346.069 477.012
2152 0 69.1049 11.7503 812 109.797 346.483 477.111
2153 0 71.0637 11.7219 833 111.068 346.384 474.981
2154 0 74.1033 12.8469 952 107.354 346.2 472.191
2155 0 76.0587 12.7533 970 109.263 345.977 470.645
2156 0 79.064 12.3824 979 109.358 346.224 471.474
2157 0 82.1827 12.3992 1019 109.692 345.814 468.75
2158 0 85.2558 13.7351 1171 106.989 346.244 466.659
2159 0 89.3598 13.6639 1221 107.042 346.108 466.204
2160 0 90.2287 13.1111 1183 108.888 345.773 462.199
2161 0 93.121 12.3281 1148 110.307 345.425 465.015
2162 0 96.1461 13.6771 1315 108.57 345.658 463.83
2163 0 98.2573 13.373 1314 109.666 345.586 459.098
2164 0 102.139 12.2872 1255 112.669 345.749 462.068
2165 0 102.116 12.5838 1285 114.638 345.548 457.941
2166 0 109.123 12.408 1354 114.177 345.159 459.486
2167 0 110.117 12.6865 1397 114.773 345.182 458.535
2168 1 61.0339 11.7476 717 114.187 345.438 480.545
2169 0 62.2154 13.5015 840 112.08 345.631 481.257
2170 0 63.1379 12.544 792 116.196 344.574 477.485
2171 0 66.1208 12.8855 852 112.474 345.417 475.715
2172 0 69.1568 12.6958 878 111.318 345.118 477.215
2173 0 71.1067 12.418 883 112.915 345.59 474.231
2174 0 73.0913 11.7661 860 114.3 346.036 473.024
2175 0 76.2714 12.862 981 112.414 346.003 471.349
2176 0 78.0687 13.0526 1019 112.988 345.787 470.781
2177 0 79.1592 12.7338 1008 114.449 345.987 470.283
2178 0 84.1263 13.2539 1115 113.186 346.2 465.987
2179 0 87.1948 13.7852 1202 111.348 346.161 466.171
2180 0 88.2062 12.3914 1093 117.055 346.073 464.443
2181 0 91.2368 13.3937 1222 116.204 346.241 463.761
2182 0 94.2882 13.3845 1262 116.038 346.205 462.925
2183 0 98.2953 14.8329 1458 118.995 345.737 458.342
2184 0 102.205 14.3339 1465 120.894 345.127 459.618
2185 0 106.196 13.7952 1465 122.605 346.036 458.205
2186 0 108.295 14.1465 1532 122.391 346.217 455.202
2187 1 55.0655 11.4046 628 118.475 346.998 481.43
2188 0 58.1822 10.9312 636 116.108 345.649 480.261
2189 0 62.1136 12.139 754 113.976 346.191 477.792
2190 0 62.1461 11.9557 743 114.911 346.577 479.034
2191 0 65.1522 12.0334 784 114.344 346.357 476.935
2192 0 65.1308 11.6995 762 116.875 345.991 475.171
2193 0 69.2404 12.7816 885 114.731 346.088 474.256
2194 0 71.1201 11.5438 821 116.981 346.442 473.579
2195 0 72.192 12.0096 867 117.871 346.491 471.855
2196 0 72.1063 11.0947 800 123.429 345.329 469.17
2197 0 79.2286 13.2275 1048 117.093 345.715 469.488
2198 0 80.1501 12.9507 1038 117.964 345.469 469.879
2199 0 82.1659 12.5113 1028 121.472 345.139 464.889
2200 0 85.247 12.0356 1026 123.163 345.624 466.165
2201 0 89.0813 12.9881 1157 121.697 345.817 465.201
2202 0 90.1703 12.3211 1111 124.593 346.281 463.638
2203 0 93.332 12.7609 1191 123.166 345.585 460.532
2204 0 97.3535 13.3123 1296 121.209 345.967 460.36
2205 0 100.165 13.5177 1354 122.305 346.271 458.651
2206 0 103.143 12.5166 1291 124.138 346.18 456.664
2207 0 108.344 13.2448 1435 121.295 345.814 454.446
2208 0 111.25 12.2427 1362 124.353 345.749 451.392
2209 0 113.29 12.0046 1360 126.071 345.387 448.83
2210 1 61.0697 10.4307 637 124.022 345.697 476.7
2211 0 64.1859 12.5728 807 120.817 344.822 470.976
2212 0 66.1571 12.5157 828 119.169 345.523 475.581
2213 0 68.1529 13.1616 897 118.546 345.678 474.192
2214 0 71.2103 12.9756 924 119.624 345.331 472.964
2215 0 73.1521 12.4262 909 122.028 345.422 472.508
2216 0 76.207 12.9778 989 121.204 345.877 470.809
2217 0 78.077 12.2315 955 124.174 346.062 468.815
2218 0 79.1029 11.9717 947 126.793 346.32 468.257
2219 0 84.0611 11.8604 997 125.842 346.081 468.533
2220 0 87.1454 13.1275 1144 124.183 346.267 466.128
2221 0 87.2134 12.3719 1079 127.45 345.652 466.177
2222 0 89.0836 12.1684 1084 128.908 345.964 462.197
2223 0 94.2062 13.1732 1241 125.988 346.013 460.874
2224 0 95.1647 13.0511 1242 128.114 345.515 459.857
2225 0 100.299 13.8386 1388 125.207 345.609 459.194
2226 0 102.14 13.785 1408 126.659 346.09 456.67
2227 0 107.368 12.9928 1395 127.295 345.572 455.485
2228 0 110.192 13.2769 1463 127.361 345.427 454.006
2229 0 112.253 11.9641 1343 131.929 345.229 451.598
2230 1 61.1772 10.5758 647 123.309 345.98 477.224
2231 0 61.1951 11.3081 692 124.162 345.728 476.725
2232 0 66.271 12.1169 803 121.011 345.529 476.108
2233 0 66.2309 11.9884 794 122.237 346.184 475.957
2234 0 69.1474 11.0489 764 112.949 346.669 472.043
2235 0 71.0987 10.605 754 114.5 346.537 469.881
2236 0 74.1265 12.2763 910 112.049 346.01 467.28
2237 0 76.1389 12.1488 925 111.614 345.835 465.77
2238 0 77.0891 10.7927 832 115.788 346.392 463.167
2239 0 79.1076 10.9345 865 115.177 345.735 458.856
2240 0 84.0964 12.3786 1041 111.751 345.436 462.54
2241 0 86.1735 12.382 1067 112.81 344.557 460.749
2242 0 85.0773 11.3074 962 116.66 346.053 458.984
2243 0 88.07 10.2532 903 119.652 345.981 452.978
2244 0 94.1669 11.7026 1102 115.94 345.685 453.504
2245 0 98.2415 11.716 1151 116.192 345.136 453.434
2246 0 97.2352 11.3025 1099 118.258 345.082 452.433
2247 0 102.106 12.5262 1279 116.866 345.226 451.056
2248 0 106.183 12.3277 1309 120.822 345.212 450.153
2249 0 111.136 11.6524 1295 121.87 345.184 450.74
2250 0 113.208 12.1546 1376 123.116 344.711 446.202
2251 0 117.44 12.3638 1452 122.388 344.979 444.247
2252 1 62.0912 9.26057 575 112.19 345.01 475.708
2253 0 65.1604 11.3719 741 114.56 346.005 474.171
2254 0 69.0786 11.2625 778 108.337 344.789 472.193
2255 0 69.0617 12.0182 830 107.755 344.843 469.7
2256 0 72.1034 12.4682 899 107.154 344.68 469.177
2257 0 75.297 12.4573 938 106.459 345.149 468.232
2258 0 76.3046 11.7948 900 109.522 344.804 471.983
2259 0 77.1613 9.64214 744 115.407 344.946 469.001
2260 0 81.1911 11.3313 920 112.25 346.059 470.505
2261 0 82.1672 11.5861 952 113.574 345.809 468.463
2262 0 86.1446 11.1092 957 114.837 345.804 470.703
2263 0 87.2813 11.8468 1034 114.073 345.455 468.527
2264 0 89.2016 11.7599 1049 118.982 345.491 468.228
2265 0 93.1146 12.1356 1130 116.412 345.291 468.646
2266 0 96.1093 12.8187 1232 118.075 344.581 468.346
2267 0 98.1888 12.7509 1252 115.892 343.893 465.621
2268 0 102.149 12.188 1245 118.988 343.478 470.002
2269 0 105.13 12.0613 1268 118.33 342.366 465.458
2270 0 108.182 13.0705 1414 118.179 343.366 465.878
2271 0 110.21 12.2765 1353 121.392 342.877 463.152
2272 0 113.146 11.578 1310 124.304 342.733 459.489
2273 0 116.3 11.6424 1354 129.224 341.852 458.299
2274 0 121.346 13.2349 1606 124.738 341.655 456.745
2275 0 125.233 13.8781 1738 126.334 340.846 453.559
2276 0 130.295 13.5001 1759 123.64 340.802 450.311
2277 0 136.217 12.9793 1768 123.975 340.584 446.952
2278 0 140.122 13.1172 1838 124.125 340.058 443.381
2279 1 79.2266 11.9909 950 115.007 339.737 475.142
2280 0 81.1944 10.715 870 113.906 340.654 477.41
2281 0 84.2109 11.6256 979 109.735 339.99 473.225
2282 0 88.2632 11.8962 1050 108.278 340.008 472.542
2283 0 92.3606 11.8882 1098 108.589 339.829 473.312
2284 0 94.1285 12.4086 1168 110.285 339.859 469.899
2285 0 96.2469 11.9069 1146 111.413 340.107 467.954
2286 0 100.163 12.2101 1223 111.303 340.071 464.993
2287 0 104.442 11.4513 1196 114.421 339.853 467.166
2288 0 105.418 11.7627 1240 115.748 338.603 464.84
2289 0 111.599 12.2313 1365 114.521 338.855 462.467
2290 0 115.504 11.9563 1381 115.005 339.567 460.94
2291 0 118.283 11.4894 1359 122.743 339.121 459.151
2292 0 124.589 12.4409 1550 119.242 338.846 457.183
2293 1 64.0553 10.9124 699 119.81 340.641 486.229
2294 0 67.1252 12.6331 848 114.684 339.863 485.353
2295 0 69.1385 10.7321 742 121.387 339.918 483.65
2296 0 73.2148 11.9648 876 116.201 340.341 483.326
2297 0 74.15 12.4747 925 112.4 340.389 484.658
2298 0 77.1958 13.2391 1022 110.698 339.934 482.116
2299 0 79.1017 12.5029 989 113.887 339.973 479.546
2300 0 82.1624 12.5483 1031 113.402 339.82 476.408
2301 0 84.1235 12.6481 1064 112.521 339.671 476.266
2302 0 89.1279 12.6447 1127 111.542 339.503 475.633
2303 0 93.2007 13.9377 1299 108.717 339.206 470.084
2304 0 93.2134 12.348 1151 114.204 338.948 470.981
2305 0 97.1367 13.0229 1265 112.034 339.498 471.15
2306 0 101.353 13.6059 1379 113.61 339.575 467.145
2307 0 102.227 13.3233 1362 114.577 339.508 463.554
2308 0 106.21 12.7766 1357 115.977 338.767 460.231
2309 0 112.192 12.2825 1378 115.89 338.34 458.619
2310 1 60.1372 11.3075 680 117.066 337.404 484.132
2311 0 61.0547 11.8746 725 116.527 337.247 483.034
2312 0 65.045 13.0371 848 112.335 338.966 484.526
2313 0 66.2247 11.6875 774 115.901 338.28 484.125
2314 0 69.1567 12.9127 893 112.773 337.685 483.097
2315 0 68.067 11.7972 803 118.557 337.893 480.98
2316 0 74.2019 13.6519 1013 113.26 337.508 478.083
2317 0 75.2314 13.1062 986 115.152 337.705 479.587
2318 0 77.1567 12.9088 996 118.29 337.633 476.087
2319 0 79.2206 12.4967 990 119.775 337.999 476.74
2320 0 79.2124 12.0562 955 123.569 338.385 474.284
2321 0 83.2297 12.8079 1066 121.709 337.938 472.028
2322 0 87.1963 13.0969 1142 120.712 338.54 470.875
2323 0 89.154 12.17 1085 123.484 338.543 471.432
2324 0 92.1369 14.0118 1291 119.778 338.763 467.545
2325 0 94.3206 13.3269 1257 122.605 338.96 466.992
2326 0 98.3185 13.6393 1341 121.459 339.395 465.53
2327 0 102.289 14.3417 1467 118.931 338.649 462.329
2328 0 102.128 13.6692 1396 122.682 338.572 460.014
2329 0 106.168 13.5916 1443 122.263 338.812 461.03
2330 0 109.129 13.287 1450 123.581 338.77 458.739
2331 0 114.173 13.5671 1549 122.134 339.638 454.578
2332 0 118.167 13.5571 1602 119.308 339.472 455.576
2333 0 119.302 13.9311 1662 118.966 338.962 454.344
2334 0 123.197 14.0507 1731 118.744 339.626 449.675
2335 0 129.351 13.0034 1682 121.307 338.801 445.2
2336 1 69.1665 9.49881 657 123.341 338.842 475.224
2337 0 72.1724 11.0569 798 121.117 338.698 470.237
2338 0 76.2992 11.6122 886 110.532 338.944 471.042
2339 0 76.3916 10.6556 814 114.961 338.655 469.018
2340 0 81.1123 11.7245 951 112.761 338.971 466.51
2341 0 83.2569 12.9719 1080 110.597 339.654 466.819
2342 0 85.2674 12.2438 1044 113.893 339.399 462.468
2343 0 88.2801 12.9248 1141 112.814 339.721 462.709
2344 0 91.4161 12.2189 1117 114.378 340.239 462.19
2345 0 92.3481 12.0847 1116 119.039 339.662 458.147
2346 0 97.5061 13.7632 1342 115.027 340.508 454.759
2347 0 99.3015 12.6886 1260 118.775 340.043 456.284
2348 0 102.223 12.6977 1298 118.354 340.459 454.674
2349 0 106.388 13.009 1384 118.021 340.204 450.149
2350 0 110.619 12.5928 1393 119.358 341.184 450.354
2351 0 113.518 13.8568 1573 116.914 341.132 447.027
2352 0 118.462 13.8694 1643 116.712 341.069 446.363
2353 0 120.358 12.5709 1513 119.895 342.07 446.212
2354 0 125.385 13.8373 1735 115.229 342.406 445.825
2355 1 69.2877 10.0306 695 109.731 342.909 474.158
2356 0 69.0883 9.4951 656 111.505 342.312 473.377
2357 0 74.1844 10.757 798 110.706 341.277 472.96
2358 0 77.2113 11.2289 867 107.499 341.6 471.839
2359 0 79.225 11.1328 882 109.676 342.332 467.483
2360 0 82.1185 10.8015 887 110.077 342.248 467.993
2361 0 84.1608 11.8345 996 108.119 342.179 466.701
2362 0 88.2511 12.4644 1100 106.988 341.31 461.221
2363 0 91.2709 11.1317 1016 110.914 341.749 459.027
2364 0 92.3042 12.2746 1133 109.792 341.718 457.67
2365 0 95.4249 11.6741 1114 114.061 341.484 453.763
2366 0 98.2388 11.6655 1146 114.737 341.682 456.662
2367 0 100.28 11.049 1108 117.623 342.302 453.787
2368 0 102.209 11.2613 1151 117.766 342.231 451.81
2369 0 105.267 11.3996 1200 118.317 341.78 449.559
2370 0 109.259 11.3308 1238 118.048 341.556 448.977
2371 0 114.339 11.5096 1316 116.827 341.692 448.445
2372 0 116.361 11.2408 1308 117.052 342.132 448.823
2373 0 120.291 10.5411 1268 118.046 342.688 443.558
2374 0 125.47 12.0587 1513 115.374 342.514 443.953
2375 0 128.279 11.0385 1416 117.929 342.864 437.744
2376 0 133.386 11.9878 1599 115.931 342.672 437.004
2377 1 73.1632 10.3057 754 113.081 342.113 467.981
2378 0 75.2761 10.6541 802 109.744 342.736 460.35
2379 0 76.2029 10.4589 797 112.829 342.662 465.391
2380 0 81.1286 11.5742 939 109.244 342.628 466.114
2381 0 82.1218 10.7401 882 112.743 342.651 465.458
2382 0 84.244 10.8732 916 114.527 343.219 462.092
2383 0 85.2406 11.227 957 114.538 343.516 457.403
2384 0 91.1849 11.3177 1032 113.622 343.171 459.251
2385 0 92.2654 11.7487 1084 114.232 343.011 456.883
2386 0 96.4615 11.4864 1108 114.338 343.364 456.479
2387 0 95.5344 11.1792 1068 116.68 343.971 453.404
2388 0 99.3577 11.2724 1120 116.385 343.856 453.852
2389 0 104.442 12.4567 1301 113.964 343.554 451.391
2390 0 106.42 11.6425 1239 116.289 343.726 450.355
2391 0 110.353 11.7169 1293 116.627 342.886 449.19
2392 0 115.502 12.0344 1390 116.418 342.709 445.787
2393 0 117.348 12.791 1501 115.899 342.396 443.231
2394 0 120.348 11.2922 1359 119.74 343.273 443.691
2395 1 70.4108 11.4755 808 106.85 343.604 472.291
2396 0 74.0551 10.7758 798 106.236 345.662 470.845
2397 0 71.1035 10.5339 749 109.17 343.915 468.724
2398 0 71.1238 8.99839 640 115.325 343.983 462.977
2399 0 77.1525 10.1617 784 111.446 342.93 464.624
2400 0 80.0863 10.4512 837 111.68 343.546 460.276
2401 0 81.3421 9.90876 806 113.167 343.362 458.113
2402 0 83.331 11.1003 925 111.545 342.865 460.137
2403 0 88.2124 11.2909 996 111.103 343.898 461.293
2404 0 90.2164 10.7298 968 113.029 344.606 460.303
2405 0 92.2538 11.8261 1091 112.104 343.948 456.056
2406 0 96.233 11.4514 1102 113.793 344.175 456.933
2407 0 97.2185 11.3559 1104 115.017 344.3 454.151
2408 0 101.161 10.7255 1085 116.559 344.249 453.512
2409 0 105.236 11.2605 1185 115.653 344.673 452.491
2410 0 109.138 11.2243 1225 115.276 344.607 454.313
2411 0 111.164 10.7408 1194 115.843 343.933 450.749
2412 1 65.1169 10.842 706 109.276 345.082 473.731
2413 0 66.1037 11.6484 770 107.106 343.519 473.696
2414 0 69.2299 12.6824 878 104.023 343.173 471.388
2415 0 70.1118 10.6687 748 108.622 342.812 470.636
2416 0 73.0756 11.8781 868 106.012 342.811 468.984
2417 0 76.0962 10.9467 833 107.627 342.651 468.45
2418 0 79.1241 11.8042 934 105.511 342.843 466.022
2419 0 81.0652 12.1754 987 104.345 342.919 466.715
2420 0 85.1547 11.6611 993 105.284 342.476 467.029
2421 0 86.1145 12.4718 1074 104.743 342.139 463.502
2422 0 90.1054 10.9871 990 107.402 342.282 464.169
2423 0 93.1846 12.3626 1152 103.902 342.492 459.897
2424 0 97.1452 10.7983 1049 106.873 342.569 459.508
2425 0 102.148 13.0203 1330 101.094 342.609 458.865
2426 0 105.189 13.3664 1406 102.05 343.196 456.813
2427 0 107.16 12.5513 1345 105.028 343.381 453.094
2428 0 112.136 12.2797 1377 106.072 343.192 452.086
2429 1 61.0838 10.8867 665 107.577 342.307 480.913
2430 0 63.2343 10.7853 682 103.27 344.463 477.012
2431 0 62.0622 10.2961 639 101.695 343.562 478.521
2432 0 66.126 11.2815 746 99.3941 342.768 478.206
2433 0 66.1042 11.6483 770 101.155 342.683 475.008
2434 0 69.1693 11.2767 780 101.985 342.695 475.373
2435 0 71.1061 12.1227 862 100.381 342.719 471.738
2436 0 73.097 11.1906 818 102.943 343.855 472.136
2437 0 76.1246 12.0198 915 102.032 343.356 471.177
2438 0 78.1471 11.7343 917 103.182 342.785 471.883
2439 0 81.1164 11.5513 937 104.541 343.198 471.317
2440 0 83.1211 12.7645 1061 103.599 343.228 468.144
2441 0 85.1108 12.1841 1037 106.163 343.202 468.482
2442 0 88.147 12.1955 1075 106.546 343.862 467.493
2443 0 91.2204 12.5849 1148 106.508 343.578 467
2444 0 93.0952 10.978 1022 112.438 343.09 464.125
2445 0 95.1666 11.5587 1100 113.845 342.829 460.088
2446 0 100.078 12.2104 1222 111.788 343.079 461.019
2447 0 103.165 11.2732 1163 115.845 342.553 457.824
2448 0 104.076 11.2995 1176 118.292 342.754 455.512
2449 0 106.087 10.6233 1127 122.787 342.472 455.057
2450 0 113.296 12.7101 1440 118.533 342.91 451.407
2451 0 116.129 12.5636 1459 113.903 343.068 452.596
2452 0 111.154 10.1571 1129 127.087 343.527 458.38
2453 0 113.253 11.3375 1284 125.356 343.521 455.805
2454 1 67.0714 11.4952 771 116.865 342.195 476.157
2455 0 67.0864 11.3734 763 117.465 343.342 476.052
2456 0 70.1354 11.5206 808 114.877 342.995 477.538
2457 0 74.1211 11.5082 853 116.615 343.297 473.816
2458 0 75.0977 11.3452 852 117.704 343.489 472.694
2459 0 77.1089 10.777 831 120.053 343.372 470.449
2460 0 80.1809 12.1101 971 117.05 343.192 470.129
2461 0 81.1059 11.2076 909 119.624 342.905 469.319
2462 0 86.2146 11.1002 957 120.208 342.911 467.467
2463 0 89.1609 12.012 1071 119.048 343.602 465.411
2464 0 91.1011 11.2951 1029 121.64 342.561 465.147
2465 0 95.1291 11.2689 1072 120.775 342.691 464.298
2466 1 56.0662 12.2355 686 117.636 342.927 480.391
2467 0 57.0341 11.4318 652 119.141 343.383 481.558
2468 0 58.0801 12.2073 709 116.946 343.642 477.834
2469 0 59.1293 11.737 694 118.945 343.744 475.395
2470 0 64.1123 12.6809 813 114.405 344.134 476.776
2471 0 64.1799 13.3687 858 112.531 343.868 475.88
2472 0 66.0759 12.4705 824 113.955 343.931 476.386
2473 0 66.2349 12.6519 838 115.789 344.072 473.758
2474 0 69.1375 13.1622 910 114.431 343.984 473.247
2475 0 72.1208 13.6022 981 113.538 343.868 471.576
2476 0 75.0705 13.0677 981 111.644 344.266 472.056
2477 0 77.0791 13.791 1063 109.549 343.66 471.926
2478 0 78.0834 12.6147 985 113.515 343.48 470.534
2479 0 81.0979 12.5527 1018 113.17 343.6 471.431
2480 0 85.1086 13.2419 1127 110.95 344.044 468.135
2481 0 86.1232 13.4923 1162 111.089 343.735 466.003
2482 0 90.1661 12.7986 1154 111.327 343.29 465.243
2483 0 91.075 12.7807 1164 111.888 343.678 465.46
2484 0 97.1741 12.987 1262 111.111 343.88 461.641
2485 0 98.0819 12.979 1273 111.945 343.515 461.313
2486 0 103.065 13.1761 1358 111.694 343.59 458.8
2487 0 104.07 11.4539 1192 115.735 343.952 459.56
2488 0 110.092 13.0163 1433 110.71 343.655 457.52
2489 1 59.1211 12.1276 717 114.029 343.054 480.123
2490 0 62.098 13.4948 838 111.85 344.134 477.698
2491 0 64.0754 12.0015 769 115.562 343.284 475.926
2492 0 65.0642 13.2792 864 112.975 342.846 475.068
2493 0 66.0647 13.0781 864 114.789 342.971 473.714
2494 0 68.0744 13.8672 944 113.614 343.508 472.142
2495 0 70.0498 13.0479 914 114.868 343.736 473.635
2496 0 74.0755 14.6472 1085 111.292 342.887 470.094
2497 0 75.1496 12.5217 941 118.201 343.105 468.607
2498 0 76.0315 13.5339 1029 117.065 343.426 466.75
2499 0 80.0771 14.6234 1171 113.259 343.616 467.202
2500 0 80.0474 14.254 1141 115.868 343.972 465.907
2501 0 85.0857 14.4325 1228 115.556 343.754 464.16
2502 0 86.0806 13.6384 1174 120.299 344.314 463.173
2503 0 89.1001 14.3995 1283 118.633 343.998 461.345
2504 0 91.1528 14.6018 1331 118.147 344.04 458.005
2505 0 93.1252 12.9825 1209 122.813 343.313 457.119
2506 0 98.1297 13.7165 1346 120.717 343.267 456.215
2507 0 103.117 14.5757 1503 117.936 343.112 456.949
2508 0 106.186 14.6818 1559 117.674 344.088 455.748
2509 1 55.0639 10.4787 577 130.66 343.603 477.558
2510 0 59.0555 12.8862 761 121.139 343.76 477.84
2511 0 59.0712 11.3761 672 120.839 344.283 471.667
2512 0 62.0957 12.7384 791 117.325 344.038 471.048
2513 0 61.0793 12.803 782 118.948 344.104 469.247
2514 0 63.076 11.7953 744 120.788 344.402 468.023
2515 0 65.0308 13.1938 858 118.486 344.266 464.763
2516 0 67.0824 12.0151 806 120.897 344.82 466.811
2517 0 69.0859 12.9838 897 118.185 344.472 467.386
2518 0 72.0566 12.7955 922 117.39 344.384 466.101
2519 0 74.1395 12.5035 927 117.699 344.104 464.732
2520 0 76.1261 13.5433 1031 114.842 344.051 465.013
2521 0 79.1172 13.006 1029 116.617 344.944 462.687
2522 0 82.1711 14.1534 1163 113.008 344.593 461.194
2523 0 83.1655 12.926 1075 116.122 345.059 460.929
2524 0 85.0962 12.762 1086 117.238 344.347 458.253
2525 0 87.1704 12.1486 1059 111.982 344.797 458.72
2526 0 92.1682 13.0848 1206 109.457 345.1 457.987
2527 0 95.2171 13.9786 1331 108.32 344.858 455.808
2528 0 97.0756 13.4328 1304 110.321 344.525 456.012
2529 0 101.133 13.8135 1397 108.651 345.412 455.306
2530 0 102.159 13.479 1377 110.445 345.591 455.114
2531 0 106.1 14.0716 1493 110.735 344.616 448.917
2532 0 112.155 14.5959 1637 110.407 345.296 449.197
2533 0 116.15 14.4899 1683 111.717 345.303 448.334
2534 0 118.228 13.8546 1638 115.414 345.27 444.302
2535 0 123.536 14.0525 1736 114.495 345.628 442.407
2536 0 129.379 15.4121 1994 108.071 346.433 440.42
2537 1 69.0763 11.9288 824 108.417 345.647 469.205
2538 0 69.0672 11.9449 825 119.204 344.365 467.262
2539 0 74.046 13.3701 990 114.264 344.715 466.305
2540 0 76.0677 13.8824 1056 114.138 344.54 462.913
2541 0 79.111 14.1826 1122 112.434 344.233 462.997
2542 0 81.1513 13.2715 1077 114.448 344.916 462.084
2543 0 85.1013 14.2888 1216 111.988 345.558 460.799
2544 0 85.1122 13.5938 1157 115.237 345.191 457.547
2545 0 89.1029 13.9726 1245 113.615 345.153 457.56
2546 0 92.2189 14.2487 1314 114.033 346.117 454.902
2547 0 93.2183 12.637 1178 118.996 345.811 454.093
2548 0 97.1725 12.0919 1175 119.484 345.672 452.277
2549 0 103.221 13.9894 1444 113.769 346.13 450.726
2550 0 105.172 13.8725 1459 114.463 345.661 446.541
2551 0 111.136 14.0369 1560 113.365 345.696 446.42
2552 0 114.167 13.4978 1541 115.021 345.82 444.12
2553 0 119.092 14.006 1668 112.85 346.448 443.793
2554 0 125.094 13.6378 1706 112.589 346.219 439.95
2555 1 66.047 12.1126 800 111.711 346.231 470.508
2556 0 67.1732 11.5225 774 111.621 345.899 465.579
2557 0 70.068 13.5583 950 110.649 347.227 462.069
2558 0 73.1143 13.2395 968 111.242 346.969 464.7
2559 0 79.2405 14.3109 1134 111.477 346.083 466.184
2560 0 81.157 12.9872 1054 115.701 346.086 464.136
2561 0 83.1737 13.8265 1150 114.057 346.481 462.007
2562 0 87.2413 14.4886 1264 112.346 346.11 460.494
2563 0 89.2227 13.7073 1223 115.478 346.146 458.489
2564 0 93.3764 14.0721 1314 115.129 346.119 457.584
2565 0 96.4233 15.1416 1460 113.534 345.692 456.057
2566 0 99.271 14.0021 1390 117.214 345.735 455.087
2567 0 101.175 14.1834 1435 117.915 345.789 454.77
2568 0 104.31 14.3802 1500 118.539 345.071 451.08
2569 0 108.164 13.6552 1477 119.963 345.04 451.789
2570 0 113.217 15.1478 1715 115.942 345.643 447.593
2571 0 114.275 15.1739 1734 117.411 345.803 446.476
2572 0 118.175 14.9354 1765 118.756 345.824 447.298
2573 0 123.38 14.7755 1823 118.616 346.294 442.711
2574 0 126.41 13.6698 1728 120.428 345.403 442.753
2575 0 129.398 13.6478 1766 115.463 345.571 435.643
2576 0 136.257 13.4231 1829 113.783 345.613 435.114
2577 1 71.0886 12.0835 859 114.617 345.725 468.047
2578 0 76.1403 14.4733 1102 111.015 345.656 465.734
2579 0 79.3404 13.9273 1105 105.599 345.547 460.875
2580 0 80.2125 13.0404 1046 108.387 345.18 458.586
2581 0 84.1327 13.3598 1124 108.202 345.737 457.755
2582 0 83.1727 12.3238 1025 112.464 346.077 456.72
2583 0 88.154 12.6824 1118 112.01 345.955 456.733
2584 0 90.2106 13.4463 1213 112.016 345.896 454.688
2585 0 93.2543 13.4471 1254 112.447 345.407 454.537
2586 0 97.2952 13.937 1356 111.883 344.98 451.474
2587 0 99.1354 13.4059 1329 113.799 345.464 451.503
2588 0 103.122 15.1568 1563 111.55 345.676 452.366
2589 0 104.073 14.5955 1519 114.371 345.428 451.066
2590 0 108.142 14.407 1558 116.181 345.66 450.051
2591 0 112.078 15.3197 1717 121.496 345.673 447.206
2592 0 117.218 15.6461 1834 118.762 345.433 444.282
2593 0 121.177 15.5557 1885 118.016 345.798 440.536
2594 0 124.351 15.1506 1884 120.764 345.585 439.42
2595 1 69.0837 13.1724 910 121.934 346.268 469.255
2596 0 69.1495 14.0854 974 122.348 346.239 468.998
2597 0 73.1432 15.8183 1157 117.092 346.76 466.269
2598 0 74.2664 14.7846 1098 121.317 346.607 464.107
2599 0 77.2213 14.2318 1099 122.663 345.815 459.466
2600 0 78.1986 14.4504 1130 122.201 346.112 457.077
2601 0 82.1973 15.9738 1313 117.249 346.314 455.752
2602 0 85.1882 14.8729 1267 118.716 345.994 454.799
2603 0 88.1363 15.4647 1363 118.187 345.933 453.225
2604 0 91.218 14.8545 1355 119.525 345.646 452.717
2605 0 92.3112 14.7761 1364 121.949 345.979 450.979
2606 0 97.1288 14.7742 1435 120.77 346.179 450.507
2607 0 100.2 15.8383 1587 116.996 345.684 448.935
2608 0 104.119 14.1761 1476 118.688 345.75 448.979
2609 1 57.095 13.136 750 123.197 346.063 470.364
2610 0 58.1166 13.5762 789 121.877 346.423 469.861
2611 0 62.0592 14.1961 881 120.208 345.662 468.309
2612 0 63.1509 14.1091 891 120.698 345.89 468.122
2613 0 66.0201 14.1472 934 120.388 345.792 467.33
2614 0 68.1677 14.9631 1020 119.327 345.484 464.581
2615 0 72.1076 13.8682 1000 120.486 345.982 466.632
2616 0 73.2008 14.2075 1040 121.338 345.943 465.938
2617 0 75.0848 14.4104 1082 122.423 346.272 462.381
2618 0 77.2215 14.2447 1100 122.446 346.374 463.165
2619 0 79.1111 13.5506 1072 126.239 344.882 461.125
2620 0 82.2122 13.7814 1133 125.011 344.733 460.496
2621 0 84.2092 14.6659 1235 123.278 344.935 459.062
2622 0 88.0849 15.0196 1323 121.984 345.246 458.289
2623 0 91.1426 14.4718 1319 123.931 345.196 456.203
2624 0 93.1037 14.7685 1375 123.241 345.165 455.58
2625 0 96.2204 14.4668 1392 124.331 345.101 454.47
2626 0 100.055 14.3321 1434 124.555 344.704 452.036
2627 0 104.139 15.6041 1625 121.21 345.014 448.98
2628 0 106.14 14.0758 1494 126.98 344.625 448.691
2629 0 112.16 14.0692 1578 127.698 343.862 446.765
2630 1 60.0768 12.3342 741 130.691 344.584 472.493
2631 0 61.1037 12.847 785 131.354 344.546 470.163
2632 0 64.0719 12.564 805 130.95 344.733 469.791
2633 0 67.0717 12.7774 857 130.69 344.296 467.771
2634 0 66.041 14.7181 972 126.581 344.602 467.472
2635 0 70.0708 13.8574 971 129.126 344.36 465.43
2636 0 76.1022 15.7288 1197 122.005 344.119 464.494
2637 0 77.1277 14.8455 1145 125.914 344.17 462.649
2638 0 77.1146 14.8351 1144 128.083 344.073 460.933
2639 0 83.0564 15.1584 1259 125.367 343.786 460.211
2640 0 87.0451 15.9687 1390 121.996 343.149 458.601
2641 0 88.0659 15.8064 1392 123.728 342.965 455.231
2642 0 93.1217 15.7106 1463 123.198 343.266 453.92
2643 0 98.0843 15.4867 1519 122.943 343.448 454.128
2644 0 99.1844 16.0509 1592 123.792 343.139 450.327
2645 0 103.082 15.7156 1620 124.368 342.889 449.325
2646 0 107.143 15.8294 1696 123.242 342.893 446.311
2647 0 109.058 14.5428 1586 127.846 343.227 443.863
2648 0 115.151 15.7793 1817 123.329 343.184 442.072
2649 0 117.123 15.2745 1789 126.277 343.026 440.672
2650 0 122.165 16.0193 1957 124.22 343.291 439.083
2651 0 125.174 16.0257 2006 124.775 342.516 435.965
2652 0 130.098 15.5191 2019 125.855 342.883 436.467
2653 0 134.356 15.764 2118 126.135 342.624 433.196
2654 0 138.235 14.8949 2059 129.864 342.302 431.019
2655 0 142.217 15.2654 2171 130.411 342.591 428.107
2656 0 146.244 15.3989 2252 131.146 342.571 423.24
2657 0 154.191 15.656 2414 129.133 342.646 423.947
2658 0 159.202 15.9295 2536 128.904 343.719 418.09
2659 0 166.348 16.2491 2703 126.93 342.76 419.144
2660 0 171.632 15.6323 2683 128.767 342.512 415.11
2661 0 175.207 15.827 2773 128.231 342.847 408.939
2662 0 181.247 14.8692 2695 131.294 343.283 406.04
2663 0 188.37 14.8006 2788 130.423 343.273 404.136
2664 1 103.236 12.6119 1302 135.713 343.092 445.151
2665 0 110.387 14.3858 1588 129.499 342.594 442.279
2666 0 107.183 12.9965 1393 135.43 343.23 439.291
2667 0 116.47 14.2526 1660 128.677 343.077 438.201
2668 0 114.146 13.5703 1549 132.74 342.975 434.086
2669 0 127.476 14.8106 1888 125.109 342.858 433.578
2670 0 130.093 13.9823 1819 128.464 343.12 429.977
2671 0 136.306 15.4285 2103 123.028 342.677 429.181
2672 0 140.397 14.5445 2042 127.816 342.69 423.542
2673 1 79.336 11.7223 930 131.081 342.659 457.045
2674 0 80.2642 12.0477 967 132.636 343.188 452.533
2675 0 78.1834 12.6625 990 133.042 343.467 450.467
2676 0 83.2177 12.3171 1025 132.967 343.609 452.797
2677 0 88.4117 12.3965 1096 132.88 343.479 451.424
2678 0 85.3061 13.6215 1162 133.283 343.552 446.879
2679 0 91.144 14.0986 1285 130.498 343.459 448.745
2680 0 91.1832 12.6339 1152 137.083 343.734 447.006
2681 0 95.2249 13.2003 1257 135.644 343.908 444.808
2682 0 96.1818 14.0463 1351 134.608 343.465 443.774
2683 0 100.17 13.8365 1386 135.6 342.569 441.568
2684 0 103.255 14.1979 1466 134.815 343.349 437.878
2685 0 109.296 15.06 1646 131.275 343.26 438.033
2686 0 109.155 13.9527 1523 137.378 343.174 433.736
2687 0 117.246 14.6785 1721 133.217 342.812 436.7
2688 0 117.196 14.2155 1666 137.858 342.962 432.154
2689 0 118.417 14.5081 1718 138.353 343.344 427.055
2690 0 126.283 14.5705 1840 136.81 343.022 427.003
2691 0 131.169 15.0721 1977 135.63 343.348 426.72
2692 0 132.199 14.4404 1909 140.179 342.893 418.874
2693 0 143.329 14.4841 2076 141.934 342.833 417.368
2694 1 79.2274 9.64312 764 147.971 342.965 447.61
2695 0 77.2909 12.2395 946 142.314 343.003 447.63
2696 0 83.1486 12.1469 1010 142.699 343.575 444.827
2697 0 83.1734 10.9891 914 149.078 343.183 441.386
2698 0 84.213 12.3378 1039 146.268 342.909 439.824
2699 1 96.1789 10.3973 1000 147.863 344.041 440.445
2700 0 90.1507 11.5251 1039 150.153 344.139 436.195
2701 0 92.2529 9.92923 916 158.295 343.706 432.257
2702 0 86.1609 13.1266 1131 148.519 343.494 435.175
2703 0 89.2314 12.7421 1137 150.479 342.817 432.509
2704 1 115.162 9.97724 1149 151.755 342.878 431.923
2705 0 117.18 11.4781 1345 144.52 343.775 432.284
2706 0 121.165 11.4225 1384 144.447 343.462 431.789
2707 0 126.246 11.9133 1504 141.693 343.151 431.703
2708 0 129.207 11.1449 1440 147.491 343.149 423.394
2709 0 134.175 11.8353 1588 143.316 343.062 427.612
2710 1 112.154 12.1619 1364 151.708 343.318 421.853
2711 1 125.069 7.31595 915 171.685 343.373 412.016
2712 0 132.218 8.10029 1071 165.445 343.222 415.872
2713 1 99.1549 8.56236 849 172.552 343.104 413.518
2714 1 166.265 6.88659 1145 167.401 343.514 411.9
2715 0 164.262 8.6995 1429 162.927 343.677 407.148
2716 0 164.162 9.11297 1496 165.384 343.103 398.654
2717 1 135.098 15.0039 2027 151.727 343.829 399.93
2718 0 137.138 15.3495 2105 151.726 344.209 396.488
2719 1 168.207 9.54775 1606 167.986 343.628 393.76
2720 1 133.139 10.3275 1375 172.068 344.156 393.508
2721 1 169.179 8.50576 1439 168.948 344.678 397.224
2722 0 176.154 7.98733 1407 169.014 344.196 393.901
2723 0 158.161 8.61778 1363 177.652 343.65 380.434
2724 0 179.336 10.9626 1966 166.671 343.296 378.894
2725 1 201.338 14.1106 2841 155.145 343.018 374.302
2726 0 204.225 9.67069 1975 165.533 343.307 377.634
2727 0 200.399 11.2825 2261 161.537 343.667 374.096
2728 0 196.139 13.6944 2686 160.709 343.729 361.28
2729 0 203.345 15.245 3100 155.348 343.588 358.574
2730 0 205.262 15.9552 3275 154.861 343.55 354.16
2731 0 213.255 14.9258 3183 159.107 343.666 347.747
2732 0 223.205 14.3769 3209 160.688 343.241 341.867
2733 0 231.344 16.2615 3762 153.302 343.405 343.499
2734 1 34.0662 5.40125 184 91.1033 344.109 488.027
2735 0 28.0238 6.2447 175 94.4857 344.143 489.994
2736 0 23.0149 6.99547 161 95.1366 344.124 495.124
2737 0 22.0078 6.1342 135 100.237 343.785 493.941
2738 0 21.0215 3.23478 68 104.75 343.456 494.485
2739 0 22.0113 4.13423 91 104.692 344.637 495.22
2740 0 21.0037 5.99893 126 100.333 344.675 499.405
2741 0 23.0171 5.99555 138 103.268 345.283 497.159
2742 0 23.0414 6.03262 139 102.971 345.108 496.568
2743 0 22.0624 5.52977 122 103.221 344.689 495.5
2744 0 22.0024 3.99956 88 108.636 344.602 497.489
2745 0 25.0247 6.55353 164 104.835 345 493.659
2746 0 27.0051 6.18402 167 104.018 346.048 495.976
2747 0 26.0096 5.72866 149 106.262 345.47 495.53
2748 0 26.0028 5.19175 135 106.526 345.474 497.652
2749 0 26.0041 8.34484 217 102.23 345.304 495.051
2750 0 25.0424 5.98984 150 104.947 345.54 497.113
2751 0 26.0765 6.78771 177 105.13 345.237 495.35
2752 0 19.0096 5.52353 105 106.743 345.457 499.448
2753 0 19.0068 6.10306 116 105.897 344.853 500.103
2754 0 20.0435 7.78308 156 107.058 344.269 498.231
2755 0 17.0029 5.94017 101 107.812 344.653 499.287
2756 0 20.0104 5.44717 109 110.578 344.798 497.853
2757 0 20.006 5.79826 116 110.414 344.629 498.802
2758 0 23.0108 7.34439 169 105.367 345.249 497.888
2759 0 21.0188 5.04311 106 107.057 345.321 498.434
2760 0 17.0349 5.98771 102 109.167 344.833 498.353
2761 0 21.015 5.42469 114 107.412 345.114 495.456
2762 0 23.0144 6.0397 139 104.424 345.273 498.525
2763 0 22.0032 6.77174 149 105.409 345.644 496.933
2764 0 21.004 5.61798 118 107.644 345.924 497.322
2765 0 21.0155 5.23424 110 106.791 345.291 498.536
2766 0 24.0303 6.4918 156 105.423 345.115 496.724
2767 0 27.0152 7.73637 209 101.828 345.077 496.33
2768 0 23.0087 5.1285 118 107.847 345.805 498.424
2769 0 28.0059 6.46293 181 104.464 345.884 495.166
2770 0 24.008 5.66479 136 106.529 346.449 495.941
2771 1 87.5948 9.0188 790 118.338 345.235 462.286
2772 0 90.4099 9.50117 859 116.12 345.568 463.321
2773 0 89.5019 8.58082 768 119.941 344.694 460.938
2774 0 88.5687 10.9068 966 114.997 344.347 461.355
2775 0 92.6317 8.70112 806 119.576 344.438 463.258
2776 0 88.6786 9.44986 838 119.869 344.831 456.865
2777 0 87.6287 9.30061 815 120.276 344.407 458.557
2778 0 90.4857 9.60372 869 118.74 343.83 460.505
2779 0 91.7615 8.14067 747 122.552 344.119 459.952
2780 1 111.895 17.2304 1928 84.5067 344.373 451.514
2781 0 108.694 15.907 1729 89.9445 342.053 444.647
2782 0 110.694 16.0533 1777 90.489 342.889 447.691
2783 0 106.536 14.3895 1533 96.0202 342.751 448.554
2784 0 99.5335 13.7642 1370 101.436 343.004 451.093
2785 0 102.936 11.3663 1170 109.721 342.971 450.207
2786 0 98.879 10.6089 1049 114.051 342.273 450.11
2787 0 100.736 9.26184 933 115.09 343.571 453.464
2788 0 101.721 10.6861 1087 110.926 343.854 451.857
2789 0 100.763 10.1625 1024 112.615 344.002 452.82
2790 0 100.778 10.5678 1065 112.074 343.617 450.257
2791 0 102.88 9.78807 1007 112.65 344.154 452.122
2792 0 108.764 10.3619 1127 111.442 343.758 454.163
2793 0 100.773 11.4515 1154 109.544 343.433 459.759
2794 0 98.4732 10.4597 1030 112.626 343.051 458.668
2795 0 98.6742 11.766 1161 109.899 343.487 459.578
2796 0 97.5728 10.8022 1054 112.102 343.683 458.955
2797 0 98.5729 10.794 1064 112.009 343.919 458.304
2798 1 165.819 11.0603 1834 105.649 344.112 430.135
2799 0 170.267 11.3762 1937 105.5 343.76 425.663
2800 1 98.3721 10.9584 1078 109.738 344.05 462.663
2801 0 100.49 11.852 1191 107.933 343.258 457.558
2802 0 99.5225 11.4647 1141 108.855 344.502 460.961
2803 0 100.547 10.9104 1097 110.724 343.945 456.765
2804 0 100.467 11.4366 1149 108.83 344.172 457.634
2805 0 100.587 11.1346 1120 109.59 344.042 457.968
2806 0 100.499 11.4429 1150 108.986 344.139 458.625
2807 0 98.5128 9.86674 972 111.528 343.997 460.939
2808 0 98.811 10.768 1064 110.959 344.536 458.026
2809 0 101.573 11.3219 1150 107.448 344.301 459.143
2810 0 101.609 11.4753 1166 107.138 343.966 459.54
2811 0 99.5326 10.8809 1083 109.164 343.694 457.629
2812 0 99.4814 10.997 1094 108.434 344.307 458.711
2813 0 101.502 10.9555 1112 106.79 344.187 462.017
2814 0 97.6109 9.32273 910 113.681 343.552 457.3
2815 0 100.338 10.1656 1020 110.269 343.684 458.708
2816 0 100.496 11.3835 1144 105.926 343.916 460.165
2817 0 98.5202 11.7641 1159 106.29 343.49 459.489
2818 0 97.3661 10.25 998 110.891 343.153 456.299
2819 0 101.404 10.5321 1068 107.828 343.573 459.839
2820 0 100.387 9.44345 948 110.607 343.72 459.487
2821 0 99.6454 11.1495 1111 106.36 344.13 460.36
2822 0 99.4975 9.9902 994 109.063 343.518 459.418
2823 0 100.57 10.8383 1090 107.141 343.088 458.822
2824 0 99.5041 10.492 1044 108.021 343.368 459.568
2825 0 102.508 10.7894 1106 106.946 343.307 457.047
2826 0 102.47 10.1103 1036 107.044 343.196 460.449
2827 0 101.537 10.0357 1019 108.377 343.251 455.768
2828 0 101.662 10.5251 1070 107.103 343.912 456.566
2829 0 101.575 10.9771 1115 105.659 343.488 458.444
2830 0 103.666 11.5756 1200 103.218 343.512 458.237
2831 0 104.46 11.4781 1199 101.882 343.349 460.141
2832 0 104.645 9.91926 1038 106.087 343.222 458.237
2833 0 103.754 11.4213 1185 102.084 343.538 459.514
2834 0 103.587 11.43 1184 102.533 343.41 458.755
2835 0 102.567 11.4071 1170 103.087 342.741 458.167
2836 0 102.567 11.4461 1174 152.813 341.738 458.256
2837 0 103.522 11.0702 1146 103.837 342.404 457.3
2838 0 105.513 11.0129 1162 102.154 342.937 459.894
2839 0 104.637 11.6785 1222 101.739 343.053 457.683
2840 0 102.539 10.7667 1104 103.184 342.833 460.58
2841 0 102.515 11.5593 1185 101.436 342.678 458.829
2842 0 104.398 11.6573 1217 100.732 342.592 459.707
2843 0 103.465 11.1536 1154 101.819 342.976 459.609
2844 0 103.411 11.3141 1170 101.34 342.879 459.33
