time division length width area intensity CMx CMy
0 0 32.0258 11.5219 369 143.661 659.667 483.469
1 0 33.0479 11.0748 366 148.508 659.798 481.424
2 0 35.044 12.6983 445 139.29 660.22 482.013
3 0 35.0071 11.2549 394 149.426 660.068 480.688
4 0 35.0056 10.8554 380 147.926 660.279 481.339
5 0 38.017 12.3629 470 140.732 659.9 481.606
6 0 39.0301 12.4519 486 143.101 658.656 481.144
7 0 39.0323 12.4512 486 168.728 657.656 481.144
8 0 39.0323 12.5025 488 168.059 656.67 481.121
9 0 42.0266 13.087 550 142.424 659.833 479.064
10 0 42.0262 13.5154 568 143.076 659.785 479.607
11 0 44.0551 12.0531 531 147.267 659.652 480.435
12 0 45.0637 13.0482 588 144.906 659.005 479.405
13 0 45.043 12.7656 575 148.348 658.823 479.202
14 0 47.0166 12.9529 609 148.711 658.184 478.2
15 0 49.0255 13.9315 683 143.732 658.059 478.564
16 0 49.034 13.1745 646 147.861 658.221 479.246
17 0 49.0976 13.6259 669 149.33 658.048 477.683
18 0 49.0385 12.0721 592 157.551 656.606 477.204
19 0 52.0138 12.7658 664 152.956 657.976 477.613
20 0 54.0504 13.3764 723 151.072 657.77 476.73
21 0 55.0598 14.2936 787 109.36 657.665 477.794
22 0 57.1119 13.8325 790 149.014 656.367 476.506
23 0 57.1495 13.1585 752 151.86 656.505 477.086
24 0 59.1052 13.8736 820 150.95 656.562 474.033
25 0 62.0911 14.5593 904 148.381 656.666 473.368
26 0 64.1126 14.4433 926 146.487 656.464 473.472
27 0 64.0587 12.629 809 154.318 656.02 473.02
28 0 69.0452 14.295 987 148.795 657.061 470.308
29 0 71.0862 13.6454 970 149.553 656.082 470.43
30 0 72.0919 14.4538 1042 147.614 655.82 469.391
31 0 75.0686 14.7065 1104 146.119 656.525 468.771
32 0 79.0952 14.4889 1146 143.828 656.551 466.483
33 0 81.0862 13.9974 1135 144.821 655.9 465.889
34 0 83.0911 13.407 1114 149.121 655.996 464.452
35 0 86.1422 13.5358 1166 148.756 656.024 462.825
36 0 91.1945 14.343 1308 146.77 655.413 461.103
37 0 94.1329 14.4583 1361 148.318 655.648 457.597
38 1 49.0672 12.3708 607 148.465 655.362 480.209
39 0 50.1309 12.8863 646 145.19 655.906 479.545
40 0 53.1616 12.7912 680 142.787 656.988 478.35
41 0 53.021 13.372 709 137.914 656.023 476.333
42 0 57.1319 13.5651 775 134.052 655.688 477.717
43 0 58.0249 14.0802 817 132.922 656.371 475.971
44 0 61.0585 14.003 855 132.635 656.294 475.124
45 0 63.0295 13.0415 822 134.746 655.159 475.156
46 0 64.0505 13.1615 843 136.377 654.721 472.317
47 0 69.0375 14.876 1027 129.232 655.278 471.24
48 0 72.0531 14.1979 1023 130.964 655.743 470.714
49 0 74.0905 13.7669 1020 131.172 655.366 469.826
50 0 76.1089 15.018 1143 132.521 654.83 467.833
51 0 79.0755 14.0499 1111 135.942 654.654 467.71
52 0 84.1598 14.5794 1227 132.725 654.778 465.747
53 0 87.0841 15.663 1364 129.814 655.085 463.677
54 0 90.1699 14.1289 1274 139.715 654.873 460.903
55 0 94.2603 15.5845 1469 134.944 654.212 459.805
56 0 97.0655 15.0517 1461 136.216 654.153 458.613
57 0 100.137 14.6 1462 136.452 654.543 458.567
58 1 52.1558 10.9096 569 138.079 654.808 480.518
59 0 53.0774 11.7376 623 137.066 653.973 479.62
60 0 55.0312 13.1198 722 132.191 653.759 480.039
61 0 56.0624 12.7715 716 129.606 654.235 480.534
62 0 57.0262 12.9589 739 131.219 654.794 479.02
63 0 60.0351 12.9924 780 128.987 654.463 478.294
64 0 61.0374 12.8118 782 130.812 653.804 476.137
65 0 64.1229 13.0998 840 129.015 653.663 476.37
66 0 67.1014 13.2337 888 127.825 654.646 475.033
67 0 69.1499 13.5792 939 125.751 654.186 473.159
68 0 73.1985 13.2107 967 124.051 653.428 472.316
69 0 74.1015 12.159 901 127.334 653.84 470.113
70 0 75.1504 12.2421 920 127.593 654.104 469.096
71 0 77.1661 11.7927 910 128.815 654.712 469.494
72 0 82.1263 12.3834 1017 127.225 654.119 466.549
73 0 84.2132 12.029 1013 126.803 654.229 464.886
74 0 88.2962 13.9191 1229 124.52 654.607 462.932
75 0 92.1671 13.3779 1233 125.238 654.504 461.702
76 0 94.2715 12.9201 1218 126.937 654.521 460.432
77 0 96.1374 12.5133 1203 129.069 653.869 460.664
78 0 101.279 12.5988 1276 129.241 653.865 458.701
79 0 105.217 12.8116 1348 126.879 653.875 453.234
80 0 109.154 13.284 1450 123.663 654.132 453.901
81 0 111.105 12.2767 1364 126.254 654.256 453.67
82 1 59.1307 9.87642 584 130.481 654.163 476.688
83 0 63.1621 10.5285 665 124.377 655.01 476.962
84 0 64.1004 12.4492 798 118.128 655.125 473.219
85 0 69.0669 12.7268 879 125.018 654.534 472.457
86 0 74.139 13.7849 1022 123.664 653.204 472.481
87 0 75.2018 13.6433 1026 125.895 652.874 470.044
88 0 78.2324 12.7952 1001 128.629 653.041 469.562
89 0 81.2094 13.927 1131 125.122 653.543 469.694
90 0 82.0878 12.7425 1046 124.92 653.033 469.263
91 0 84.0277 12.7696 1073 127.848 652.119 467.279
92 0 87.0926 13.8703 1208 125.785 652.344 464.961
93 0 87.0958 12.2853 1070 131.881 652.992 462.702
94 0 92.1255 13.4273 1237 128.057 652.437 463.909
95 0 94.1397 12.7045 1196 131.69 652.587 461.724
96 0 99.0898 13.2304 1311 130.015 652.883 458.756
97 0 102.105 13.2706 1355 130.527 652.192 458.703
98 0 105.114 12.9669 1363 131.842 652.015 457.974
99 0 107.085 12.7189 1362 133.735 652.477 457.195
100 0 113.167 13.6878 1549 129.397 653.019 454.502
101 0 114.121 11.6893 1334 136.807 652.624 451.959
102 1 63.0463 11.0078 694 129.735 652.987 476.604
103 0 64.1318 10.7279 688 128.702 654.076 474.472
104 0 65.0442 10.6082 690 126.288 653.69 470.51
105 0 71.0388 12.8662 914 125.658 653.973 474.882
106 0 70.0318 12.4943 875 121.2 652.577 473.018
107 0 71.1563 11.0602 787 124.186 651.672 475.389
108 0 72.0731 12.5151 902 122.951 651.868 470.235
109 0 76.1896 11.957 911 123.98 651.352 470.662
110 0 79.1055 11.7185 927 124.688 651.799 468.091
111 0 81.1056 12.3419 1001 123.837 651.374 466.51
112 0 84.1388 11.0888 933 126.845 651.098 466.561
113 0 88.0948 12.2936 1083 124.078 652.037 465.44
114 0 91.1859 12.0633 1100 123.665 652.58 465.842
115 0 92.1129 12.1916 1123 126.168 652.172 463.295
116 0 97.0982 12.7397 1237 122.919 652.015 464.426
117 0 98.1475 12.8073 1257 125.023 651.986 461.613
118 0 102.142 12.5511 1282 125.861 652.133 460.275
119 0 105.184 12.1216 1275 126.635 652.901 458.228
120 0 109.241 13.2918 1452 124.685 652.526 455.617
121 0 110.288 11.3702 1254 128.825 652.166 454.624
122 1 59.0937 10.6441 629 124.472 651.862 479.887
123 0 61.0728 11.7728 719 124.758 652.459 475.124
124 0 60.0907 10.4842 630 120.678 653.683 477.659
125 0 63.0366 10.7874 680 119.457 653.418 476.575
126 0 64.0514 10.5228 674 118.895 652.872 476.829
127 0 67.0904 11.4025 765 118.616 653.195 474.765
128 0 73.1248 12.5675 919 113.152 653.727 475.003
129 0 74.0683 12.5965 933 114.812 653.524 471.484
130 0 76.099 12.2866 935 116.673 653.016 471.24
131 0 78.0918 12.6902 991 116.653 653.708 469.596
132 0 81.0873 12.69 1029 117.419 653.337 467.529
133 0 84.0633 12.5144 1052 118.081 652.48 464.731
134 0 86.084 11.5469 994 120.482 652.474 464.603
135 0 87.0652 12.818 1116 118.406 652.765 461.059
136 0 91.0688 12.1996 1111 119.751 652.554 463.363
137 0 95.135 12.2142 1162 119.834 652.422 461.392
138 0 99.1076 13.5812 1346 119.12 652.978 457.175
139 0 106.098 13.0351 1383 122.493 653.421 455.936
140 0 108.098 12.4609 1347 118.247 652.198 455.933
141 1 57.0641 11.6536 665 122.495 652.877 479.553
142 0 60.0534 12.772 767 113.595 653.059 478.983
143 0 62.1632 11.5342 717 115.63 653.805 477.312
144 0 64.1504 11.738 753 115.008 653.481 475.163
145 0 65.1149 10.7042 697 118.33 653.795 475.723
146 0 68.0698 12.7957 871 113.922 654.069 473.747
147 0 71.0942 12.4764 887 114.763 654.125 473.025
148 0 72.1088 11.7045 844 117.498 654.06 472.808
149 0 78.1407 12.5543 981 114.378 653.563 472.708
150 0 77.0916 12.5565 968 118.029 653.036 469.353
151 0 79.0707 11.3696 899 122.744 652.898 467.592
152 0 84.0452 12.0649 1014 121.134 653.568 466.13
153 0 86.0727 13.0355 1122 118.082 653.332 464.264
154 0 88.1455 11.9915 1057 120.282 653.092 464.657
155 0 92.0864 12.9987 1197 119.294 653.848 462.617
156 1 48.0434 10.9276 525 121.12 654.526 483.754
157 0 50.0365 10.4324 522 122.646 654.368 481.686
158 0 52.0324 11.5313 600 119.588 654.083 481.613
159 0 52.0389 11.1647 581 123.608 654.327 480.129
160 0 55.0161 11.5057 633 124.194 653.385 480.289
161 0 59.0299 11.4349 675 123.606 653.127 478.07
162 0 58.0371 11.6305 675 124.421 652.892 477.385
163 0 61.0264 11.7162 715 123.239 653.025 477.544
164 0 63.0585 12.084 762 122.126 653.874 475.14
165 0 64.0846 12.6395 810 121.977 653.891 473.751
166 0 65.0484 12.9135 840 122.444 654.082 472.763
167 0 68.0732 13.794 939 120.014 653.747 471.777
168 0 70.0418 12.6924 889 123.018 653.406 470.595
169 0 74.0667 14.1359 1047 118.346 653.233 470.57
170 0 75.0438 13.3655 1003 121.34 653.19 468.852
171 0 77.072 12.9619 999 122.865 653.138 465.863
172 0 78.0907 11.5635 903 126.918 653.089 468.216
173 0 83.0957 13.322 1107 121.113 652.486 467.309
174 0 86.0917 12.3008 1059 124.499 652.828 465.168
175 0 89.1466 12.2046 1088 124.833 652.841 463.375
176 1 46.0295 10.7323 494 120.393 653.753 483.794
177 0 47.0411 11.4581 539 118.195 654.089 481.894
178 0 49.0334 11.8083 579 112.701 654.019 481.19
179 0 50.0478 11.3891 570 114.337 653.444 480.804
180 0 52.0489 11.8158 615 113.028 653.146 481.462
181 0 54.0267 10.7725 582 115.297 653.591 479.326
182 0 51.0347 11.1297 568 117.335 653.051 478.472
183 0 56.0445 11.7228 657 114.387 653.032 478.42
184 0 57.0187 11.3471 647 116.385 653.125 477.156
185 0 59.0677 12.7989 756 112.788 652.885 475.549
186 0 60.0318 12.0603 724 115.374 653.395 475.849
187 0 60.0709 11.6862 702 117.323 653.389 474.598
188 0 64.0618 11.8791 761 115.953 653.036 475.66
189 0 67.144 12.8828 865 113.729 653.566 472.822
190 0 67.0531 12.602 845 115.691 653.45 470.951
191 0 71.0933 12.997 924 114.104 652.877 470.53
192 0 73.0988 13.0508 954 114.338 653.099 469.202
193 0 76.0774 11.8958 905 116.829 653.814 468.611
194 0 79.1628 12.4427 985 117.071 653.308 467.334
195 1 43.0432 10.199 439 124.435 654.554 484.916
196 0 45.0114 12.3746 557 119.312 654.214 484.397
197 0 45.0279 11.8815 535 117.366 654.398 484.645
198 0 45.0528 12.7406 574 112.652 652.761 483.612
199 0 45.0533 10.5875 477 116.769 653.138 484.386
200 0 48.0636 13.5237 650 109.612 652.414 481.983
201 0 49.0745 11.5131 565 114.669 652.738 481.623
202 0 53.1093 11.5611 614 113.453 652.992 482.037
203 0 55.1819 12.486 689 111.277 653.081 480.842
204 0 55.1108 11.994 661 114.617 653.419 480.054
205 0 55.069 12.3845 682 113.595 653.097 479.846
206 0 57.072 12.493 713 114.258 652.418 479.948
207 0 59.0757 12.6956 750 113.363 652.72 478.065
208 0 60.1113 12.7264 765 112.531 652.358 477.771
209 0 64.0662 13.1427 842 111.488 652.03 476.239
210 0 63.1253 12.293 776 115.473 651.902 474.727
211 0 65.1454 13.1398 856 114.996 652.123 474.631
212 0 69.1586 13.3461 923 114.294 652.235 474.058
213 0 68.0548 12.8426 874 119.137 651.918 473.134
214 0 72.0686 13.1125 945 118.946 652.515 470.781
215 0 74.0896 13.1192 972 120.679 653.162 468.654
216 0 77.0582 13.9116 1072 119.389 652.106 468.794
217 0 82.0821 13.2916 1091 120.566 652.451 468.329
218 0 81.1412 13.9387 1131 125.301 652.226 465.935
219 0 84.1656 13.6873 1152 125.527 653 466.025
220 0 88.1374 14.3866 1268 122.801 652.865 464.109
221 0 96.1767 13.6623 1314 90.7915 652.826 461.588
222 1 48.0219 10.3911 499 124.788 653.409 484.307
223 0 49.0738 11.8393 581 122.511 653.75 483.449
224 0 52.2053 13.9258 727 115.26 654.305 481.821
225 0 53.0534 13.1 695 119.137 651.508 481.685
226 0 54.0187 12.3661 668 120.65 651.907 481.22
227 0 55.0321 11.884 654 124.089 651.419 480.291
228 0 57.0345 12.3609 705 123.183 652.433 478.38
229 0 60.0255 13.1944 792 119.1 651.917 478.683
230 0 62.0258 13.5589 841 117.837 652.655 476.583
231 0 63.0771 12.3658 780 121.917 652.472 476.278
232 0 66.0522 12.4447 822 122.203 652.235 475.103
233 0 66.0464 12.4004 819 123.723 652.54 473.702
234 0 69.0792 12.5074 864 124.384 652.885 472.818
235 0 69.0184 10.9681 757 128.917 652.86 472.395
236 0 72.0347 12.1886 878 126.391 652.441 469.941
237 0 76.1916 12.2979 937 125.429 651.981 467.947
238 0 78.1326 12.3892 968 123.959 651.652 467.998
239 0 82.0604 12.3324 1012 124.636 652.705 465.678
240 0 84.0818 12.357 1039 123.785 652.632 464.331
241 0 88.0987 12.4519 1097 129.913 652.463 461.193
242 1 47.0521 11.1366 524 124.824 651.872 483.078
243 0 50.0451 11.5296 577 120.471 651.886 482.676
244 0 50.0111 12.9771 649 115.442 652.012 480.404
245 0 52.0146 11.4006 593 120.071 653.01 479.809
246 0 54.0401 12.3797 669 116.567 652.837 477.966
247 0 55.0169 11.3783 626 118.911 652.942 478.99
248 0 56.0494 12.15 681 116.819 653.485 477.756
249 0 61.0375 12.0582 736 115.341 653.204 474.895
250 0 63.0767 12.9683 818 113.946 653.271 474.284
251 0 66.0926 12.6943 839 112.735 652.592 473.37
252 0 66.1193 10.9197 722 118.061 653.184 473.116
253 0 68.0702 10.2541 698 118.755 653.266 472.699
254 0 71.0575 11.751 835 114.678 652.887 471.605
255 0 72.1255 11.1888 807 116.506 652.477 470.301
256 0 74.1287 11.9927 889 115.245 652.944 467.703
257 0 76.1243 11.8622 903 115.917 652.948 467.299
258 0 79.0685 12.154 961 114.392 652.494 465.071
259 0 84.0501 12.1951 1025 112.532 652.932 466.274
260 0 86.0829 10.5596 909 116.084 653.013 466.031
261 1 46.0879 10.8705 501 112.275 652.703 483.768
262 0 48.0284 11.7639 565 108.775 652.382 482.981
263 0 51.0318 11.4047 582 110.177 653.129 481.899
264 0 48.0176 11.0793 532 112.778 652.566 482.231
265 0 49.0219 11.1175 545 113.398 653.51 482.798
266 0 51.0277 10.5041 536 115.129 654.278 481.007
267 0 52.0856 11.0779 577 114.447 654.522 480.983
268 0 56.0537 11.9172 668 111.804 653.69 479.055
269 0 55.0204 10.4325 574 116.531 654.383 479.904
270 0 58.0488 11.9727 695 113.361 654.217 478.188
271 0 60.0403 11.5089 691 114.575 653.951 476.857
272 0 62.1007 12.3026 764 112.792 654.241 476.556
273 0 64.0734 12.6262 809 112.514 654.048 475.089
274 0 64.0606 11.5516 740 115.619 652.914 473.843
275 0 67.057 12.0644 809 114.098 653.04 475.41
276 0 70.1402 11.6338 816 115.153 653.091 471.765
277 0 73.116 12.446 910 113.457 653.46 471.123
278 0 76.0475 12.6894 965 112.619 653.204 472.184
279 0 77.1996 11.9301 921 116.298 652.762 468.477
280 0 81.1305 12.8188 1040 112.186 651.746 468.917
281 0 83.0548 12.0162 998 114.786 651.795 465.357
282 0 86.0715 12.234 1053 115.088 651.924 462.518
283 0 91.2596 11.9987 1095 116.011 651.266 462.567
284 1 45.0246 9.88348 445 112.171 651.614 486.951
285 0 47.2478 11.2598 532 111.671 652.882 482.575
286 0 48.101 11.954 575 111.334 651.988 482.532
287 0 46.0239 10.6901 492 118.925 651.378 483.453
288 0 47.0374 11.0975 522 117.709 651.247 482.962
289 0 51.0384 12.3045 628 113.323 652.099 480.83
290 0 51.0647 10.9861 561 116.501 651.706 481.144
291 0 54.1173 12.4359 673 112.707 651.975 479.808
292 0 55.0952 11.108 612 115.028 651.616 479.917
293 0 56.0756 10.4145 584 117.295 651.894 479.572
294 0 59.253 12.7251 754 110.757 651.798 476.663
295 0 61.2187 12.1205 742 111.03 652.474 477.66
296 0 64.1915 12.2134 784 111.323 652.238 474.721
297 0 63.2077 11.3752 719 113.517 652.413 474.563
298 0 66.231 12.5923 834 110.98 652.99 471.18
299 0 68.401 12.0027 821 112.16 652.22 471.197
300 0 70.2964 13.059 918 109.753 652.557 470.639
301 0 74.2926 13.3795 994 109.154 652.853 468.739
302 0 75.2272 12.4822 939 112.206 652.125 467.12
303 0 77.2766 14.0664 1087 108.889 651.954 465.842
304 0 79.2811 13.2566 1051 111.042 652.36 464.834
305 0 82.2544 13.8351 1138 110.077 652.603 461.37
306 0 82.258 11.9867 986 118.65 652.618 460.897
307 0 87.4614 12.8285 1122 116.669 652.67 456.469
308 0 88.3729 13.5562 1198 116.519 652.711 455.016
309 0 94.3637 13.501 1274 115.208 653.369 454.183
310 0 95.3911 13.5233 1290 115.56 653.125 452.626
311 1 50.2384 13.2767 667 108.241 653.351 475.243
312 0 51.266 10.0261 514 115.593 652.975 476.056
313 0 50.2232 11.5485 580 113.505 652.659 474.574
314 0 53.0385 12.1987 647 112.791 652.44 472.24
315 0 53.0761 11.0031 584 115.894 652.151 472.707
316 0 55.1641 10.1878 562 115.625 651.322 472.48
317 0 56.0769 11.5377 647 113.645 651.856 470.586
318 0 61.1354 12.9548 792 109.763 652.771 468.823
319 0 60.0283 11.4779 689 114.155 652.721 468.926
320 0 61.1205 12.4835 763 112.553 651.807 466.898
321 0 65.0913 12.3519 804 111.905 652.006 466.338
322 0 70.0129 12.512 876 110.836 651.726 466.634
323 0 72.1497 12.2662 885 112.273 651.729 464.203
324 0 72.058 11.1854 806 115.638 652.725 464.543
325 0 76.0941 13.4702 1025 111.265 652.72 461.456
326 0 78.1286 11.4299 893 116.33 653.012 462.142
327 0 80.2273 11.6793 937 116.616 653.132 461.121
328 0 85.2055 12.464 1062 114.454 653.289 461.096
329 0 89.145 13.0349 1162 113.693 653.434 457.367
330 1 46.0266 9.36414 431 113.246 653.334 478.849
331 0 49.086 11.0215 541 111.408 652.989 477.364
332 0 51.0255 11.2689 575 107.433 653.089 476.478
333 0 51.0405 10.8345 553 110.134 652.647 474.208
334 0 53.0326 11.0875 588 108.459 652.468 475.6
335 0 56.0532 11.7032 656 105.7 653.255 476.285
336 0 52.084 9.77267 509 113.424 652.261 472.538
337 0 59.0426 10.1791 601 109.023 653.037 474.07
338 0 61.0509 10.8762 664 108.047 652.601 473.081
339 0 63.0789 10.5424 665 109.495 651.928 471.86
340 0 65.1125 11.2421 732 109.123 652.559 470.139
341 0 67.0279 10.7567 721 111.785 652.563 467.667
342 0 68.0524 10.6242 723 111.907 652.535 466.61
343 0 72.0441 11.9232 859 109.659 652.381 466.122
344 0 76.038 11.6784 888 110.617 652.877 465.789
345 0 77.0998 11.3878 878 111.051 652.82 463.768
346 0 80.0892 11.5247 923 110.562 653.622 462.372
347 0 85.0562 11.8863 1011 109.392 653.04 461.932
348 0 85.1839 11.6806 995 111.435 652.361 458.311
349 1 43.0748 10.3309 445 103.912 652.634 484.494
350 0 45.0425 11.7223 528 99.8731 652.087 478.913
351 0 47.0596 12.1548 572 98.9773 652.152 478.437
352 0 48.0604 10.362 498 102.711 653.06 478.11
353 0 48.0453 11.0521 531 102.936 652.356 477
354 0 51.0823 11.178 571 101.025 652.783 478.69
355 0 52.0376 11.8952 619 100.9 652.79 476.25
356 0 55.0319 10.8846 599 102.805 652.678 476.669
357 0 54.0201 10.6442 575 105.11 651.89 475.864
358 0 57.0802 11.1948 639 104.526 652.601 474.854
359 0 58.0694 10.0742 585 105.759 653.39 475.256
360 0 61.0507 9.95893 608 106.13 653.002 475.079
361 0 62.0855 12.2734 762 103.732 653.232 470.165
362 0 63.109 9.52321 601 108.993 653.038 471.676
363 0 67.1421 10.8725 730 106.677 652.432 471.51
364 0 68.0869 11.0888 755 109.097 652.489 467.588
365 0 69.0679 11.3801 786 110.302 652.738 464.827
366 0 73.0879 11.6025 848 109.603 653.29 467.803
367 0 75.2151 11.7131 881 110.753 652.864 463.313
368 0 81.0699 13.5439 1098 113.302 653.495 466.89
369 0 83.2639 12.01 1000 118.529 653.49 467.179
370 1 43.1534 11.8647 512 116.023 653.865 484.92
371 0 47.0999 11.6348 548 112.226 653.792 485.712
372 0 44.0476 10.1254 446 113.184 652.888 482.298
373 0 45.0506 11.5426 520 108.887 653.146 481.298
374 0 47.0328 12.5019 588 108.73 652.594 479.551
375 0 47.1452 11.3267 534 112.328 651.861 480.524
376 0 50.0467 12.1686 609 111.279 652.527 486.01
377 0 50.0432 12.2494 613 114.75 653.315 483.529
378 0 53.1161 11.6537 619 115.514 653.136 483.252
379 0 53.0633 11.1942 594 117.83 653.695 482.192
380 0 60.0567 13.1542 790 110.585 653.028 481.018
381 0 58.0323 11.0456 641 117.824 653.075 480.507
382 0 59.1291 11.162 660 119.248 653.902 478.536
383 0 64.058 11.9111 763 116.304 654.14 476.962
384 0 67.0717 12.3748 830 115.195 654.424 475.833
385 0 69.1127 13.0367 901 113.893 654.592 474.981
386 0 72.1075 11.677 842 117.723 653.947 472.911
387 0 75.0933 12.0783 907 115.754 654.344 472.667
388 0 78.085 12.8834 1006 113.632 653.448 472.078
389 0 81.076 12.1244 983 116.422 652.773 470.328
390 0 86.1372 12.8516 1107 112.623 653.307 469.823
391 0 87.2039 12.6026 1099 115.497 653.156 465.303
392 1 45.0562 11.5855 522 117.276 653.83 485.761
393 0 48.0388 11.1368 535 116.333 654.467 486.522
394 0 48.0117 11.7471 564 116.303 654.461 484.746
395 0 48.0117 11.7263 563 142.513 653.467 484.787
396 0 50.066 11.8643 594 112.825 652.412 485.071
397 0 52.0896 12.8817 671 110.022 652.258 483.638
398 0 52.0508 11.0469 575 114.369 652.598 484.243
399 0 55.0694 12.2936 677 110.759 652.126 482.123
400 0 59.0222 12.4021 732 110.202 651.933 481.523
401 0 55.0179 11.3963 627 115.043 652.252 481.34
402 0 60.0904 10.8836 654 114.231 652.358 480.223
403 0 62.0684 11.8257 734 111.52 653.018 479.042
404 0 64.0739 12.3451 791 110.451 652.843 478.918
405 0 67.1221 11.6355 781 112.484 653.074 476.205
406 0 68.0973 12.2031 831 111.851 652.958 475.786
407 0 70.1279 11.75 824 114.243 653.318 474.603
408 0 73.0637 10.5114 768 117.339 653.31 473.089
409 0 76.0621 12.1217 922 113.795 652.821 472.162
410 0 81.133 13.0896 1062 111.903 652.848 470.456
411 0 84.0676 13.7984 1160 111.938 653.269 467.912
412 0 87.0392 14.5796 1269 110.177 653.2 467.355
413 0 90.0249 13.0408 1174 114.756 653.273 465.935
414 1 46.0543 11.6819 538 116.861 652.71 487.013
415 0 49.0865 11.6936 574 116.261 654.39 485.463
416 0 50.1857 12.6331 634 109.019 654.235 485.852
417 0 51.1922 11.9159 610 112.602 654.305 484.736
418 0 54.1808 11.517 624 112.111 654.476 485.087
419 0 52.1518 10.642 555 117.638 654.791 484.827
420 0 57.1585 12.9465 740 111.074 653.766 482.643
421 0 58.1752 13.2874 773 110.871 654.127 481.354
422 0 59.1013 12.4024 733 114.263 654.13 482.034
423 0 61.12 11.7474 718 116.412 654.765 479.056
424 0 61.1649 11.7715 720 117.911 654.64 478.712
425 0 65.1125 12.4707 812 115.118 654.759 477.828
426 0 66.1628 12.7715 845 115.42 654.064 475.582
427 0 68.0855 12.2493 834 117.109 653.829 475.253
428 0 72.0527 14.0314 1011 111.857 653.586 473.401
429 0 75.0593 14.3886 1080 111.278 654.294 472.381
430 0 75.1055 12.1962 916 118.885 653.365 471.841
431 0 79.0433 12.6513 1000 116.408 653.391 471.801
432 0 84.0644 12.5023 1051 115.814 653.514 469.388
433 0 86.1342 13.3164 1147 115.398 653.609 465.47
434 0 89.1576 12.4611 1111 117.377 652.891 465.92
435 0 91.2223 13.1108 1196 115.893 653.361 465.66
436 1 47.0159 11.2302 528 118.811 653.869 486.383
437 0 49.0484 11.6823 573 115.148 653.96 485.616
438 0 49.0769 11.4514 562 116.062 652.34 484.94
439 0 52.045 12.4123 646 114.745 652.093 484.605
440 0 54.154 13.4985 731 111.483 651.569 483.646
441 0 54.0615 12.7817 691 115.991 652.25 483.557
442 0 56.0528 13.0056 729 116.044 653.239 482.881
443 0 58.0723 12.0712 701 118.324 652.08 481.11
444 0 59.0838 13.2524 783 115.734 652.37 480.991
445 0 60.055 12.9881 780 117.268 652.347 479.881
446 0 62.0935 12.3201 765 118.244 652.84 479.69
447 0 64.0872 13.9341 893 114.94 652.563 476.955
448 0 66.0995 12.4509 823 118.993 653.002 477.406
449 0 68.066 12.1206 825 120.051 652.697 475.682
450 0 70.0971 12.6111 884 118.755 652.405 473.385
451 0 72.0533 12.8655 927 119.203 652.669 472.293
452 0 76.0467 13.2682 1009 116.986 652.566 471.694
453 0 78.125 13.4144 1048 117.304 652.14 468.9
454 0 80.0946 12.1731 975 121.648 652.635 469.64
455 0 83.1303 12.6067 1048 120.849 653.095 466.947
456 0 84.0632 12.4073 1043 122.863 652.621 465.76
457 0 87.0536 12.6359 1100 121.866 652.488 465.879
458 0 90.0861 13.0431 1175 122.24 652.849 464.788
459 0 94.0574 13.4173 1262 121.78 652.351 461.173
460 0 96.0623 12.5856 1209 124.288 652.449 463.476
461 0 98.0902 12.672 1243 127.289 652.834 458.2
462 0 102.081 12.206 1246 127.868 652.929 457.295
463 0 106.205 13.2103 1403 125.747 653.024 455.344
464 0 110.228 11.9661 1319 128.24 653.07 454.093
465 1 57.0369 11.4487 653 128.308 652.172 478.253
466 0 61.1052 12.6176 771 124.508 652.023 477.431
467 0 64.0412 12.164 779 124.797 653.897 477.104
468 0 61.0916 10.6398 650 122.115 653.691 479.808
469 0 63.1719 10.7959 682 122.001 653.378 477.83
470 0 67.0705 10.9139 732 117.735 653.469 475.787
471 0 71.1195 12.3735 880 113.091 652.965 474.108
472 0 72.2011 11.4264 825 115.576 653.882 472.979
473 0 75.1792 11.4526 861 118.476 653.996 472.394
474 0 79.1398 11.8272 936 117.201 653.405 469.618
475 0 81.134 11.8446 961 116.761 653.952 470.186
476 0 84.2824 12.4818 1052 114.48 653.901 468.428
477 0 87.1894 12.0313 1049 115.72 653.381 465.883
478 0 87.106 10.9637 955 119.436 652.99 466.642
479 0 93.145 12.5396 1168 113.461 653.611 465.373
480 0 95.2315 11.1938 1066 116.664 653.438 464.083
481 0 99.1013 11.241 1114 115.898 653.706 461.38
482 1 54.057 11.2844 610 115.159 654.613 480.918
483 0 55.1065 9.92624 547 118.784 653.704 481.848
484 0 56.0297 12.4577 698 115.665 653.62 479.298
485 0 57.0732 11.2838 644 112.039 654.025 482.002
486 0 59.1331 11.2627 666 113.267 654.08 480.625
487 0 59.0928 12.4888 738 111.163 654.007 478.924
488 0 63.0434 11.3414 715 113.032 654.436 478.876
489 0 63.0872 11.5554 729 113.451 653.704 477.882
490 0 67.1353 10.9629 736 112.442 653.618 477.761
491 0 69.1083 11.7786 814 110.66 653.496 475.977
492 0 73.0475 12.6219 922 108.642 653.747 473.283
493 0 72.1405 10.0776 727 114.662 653.726 475.623
494 0 78.064 12.1055 945 109.608 653.957 471.232
495 0 80.1125 12.5823 1008 109.595 654.02 471.064
496 0 81.1383 11.8933 965 111.838 654.288 469.212
497 0 84.0663 11.9073 1001 108.935 654.123 469.204
498 0 87.0618 10.9348 952 109.136 654.564 471.258
499 0 90.1185 11.7845 1062 108.734 653.917 466.251
500 0 95.1156 12.1641 1157 111.162 653.73 463.642
501 0 100.068 13.0011 1301 110.271 654.285 461.647
502 0 102.194 12.7797 1306 112.382 653.348 458.388
503 0 104.146 11.4934 1197 116.832 653.352 458.014
504 1 54.0541 10.1195 547 117.238 653.532 482.17
505 0 55.0161 11.5784 637 120.835 653.308 481.312
506 0 60.1172 12.1429 730 118.145 652.321 479.127
507 0 62.0612 13.7123 851 104.897 653.309 478.724
508 0 62.0293 12.5747 780 111.097 654.31 478.726
509 0 63.041 12.2143 770 111.501 653.668 478.613
510 0 66.0519 12.9595 856 108.586 653.523 475.285
511 0 68.0582 12.0632 821 110.052 653.345 476.294
512 0 70.0881 12.2988 862 110.713 653.629 472.858
513 0 72.0439 12.5895 907 111.603 653.27 475.254
514 0 74.0956 11.7551 871 114.131 653.001 474.251
515 0 75.0646 11.63 873 114.546 653.926 473.045
516 0 78.1274 10.9437 855 115.068 653.857 469.261
517 0 80.2383 10.5436 846 116.138 653.551 469.138
518 0 80.2351 10.6188 852 138.035 652.535 469.127
519 0 87.2784 12.2711 1071 112.89 653.324 468.082
520 1 45.1926 10.754 486 116.953 654.107 484.883
521 0 49.0812 12.7136 624 111.098 654.053 483.925
522 0 50.0296 12.2128 611 113.645 654.625 483.552
523 0 50.0136 12.1567 608 115.076 653.423 484.383
524 0 52.022 11.4183 594 117.37 653.946 483.401
525 0 55.0495 12.0437 663 113.646 654.75 484.395
526 0 54.0492 11.3785 615 117.989 654 483.028
527 0 56.1322 12.2033 685 115.758 653.68 482.128
528 0 57.1443 13.2122 755 114.061 654.393 480.808
529 0 58.0316 12.1313 704 117.696 654.891 480.007
530 0 59.0361 13.1106 774 115.612 654.457 479.424
531 0 61.0289 13.256 809 114.946 654.442 477.127
532 0 64.0435 12.6945 813 115.448 653.957 478.376
533 0 67.0483 13.4381 901 112.377 653.588 478.664
534 0 68.0694 12.9721 883 114.326 654.205 476.165
535 0 71.0297 12.7834 908 114.852 654.456 473.508
536 0 74.1144 13.0609 968 114.063 654.085 472.11
537 0 77.0695 13.3127 1026 112.718 653.964 469.884
538 0 78.1025 12.5988 984 116.069 654.088 468.51
539 0 82.0465 13.2364 1086 113.59 654.256 466.776
540 0 86.0765 13.1162 1129 113.162 654.016 466.856
541 0 88.1562 12.7274 1122 115.399 654.472 464.126
542 0 91.1575 12.4949 1139 116.715 654.409 463.965
543 0 94.241 13.9218 1312 113.28 654.601 462.569
544 1 52.049 10.7015 557 111.779 654.32 485.533
545 0 50.0523 10.5689 529 115.435 654.495 482.595
546 0 55.1309 12.8422 708 103.61 653.935 481.965
547 0 52.1074 10.1137 527 109.913 654.6 484.915
548 0 53.0665 10.2513 544 111.336 654.596 483.478
549 0 56.0464 10.0809 565 108.554 653.959 485.906
550 0 61.075 11.5104 703 105.805 654.104 482.875
551 0 59.0652 10.5138 621 110.337 654.327 481.879
552 0 62.0299 11.6234 721 108.344 654.237 480.899
553 0 63.1531 11.7809 744 108.954 653.667 480.277
554 0 67.1125 10.9816 737 110.467 654.065 479.754
555 0 68.0719 12.2811 836 107.827 654.075 479.002
556 0 72.0546 12.4211 895 106.706 654.045 477.619
557 0 71.0437 12.0489 856 109.306 654.425 477.007
558 0 76.1324 12.1236 923 103.002 653.671 472.489
559 0 78.0485 10.865 848 105.742 653.645 469.291
560 0 80.1559 11.4152 915 105.509 652.85 467.348
561 0 82.0874 11.8167 970 105.57 653.884 467.48
562 0 87.166 11.4494 998 106.301 653.935 466.123
563 1 45.0773 11.8907 536 109.897 654.278 488.114
564 0 47.0606 10.5396 496 112.623 654.111 488.429
565 0 48.0948 11.0615 532 111.795 654.769 486.853
566 0 50.1078 12.3933 621 109.18 654.393 484.783
567 0 52.1143 11.8969 620 109.977 653.219 484.308
568 0 54.1806 12.5691 681 108.957 653.934 484.532
569 0 55.1593 11.7478 648 110.938 654.082 483.764
570 0 55.0743 11.7296 646 111.339 653.856 483.694
571 0 59.1253 12.4651 737 109.179 654.03 481.654
572 0 60.1251 11.9917 721 109.752 653.756 481.613
573 0 60.0764 12.2844 738 110.641 653.889 480.948
574 0 63.0892 12.3159 777 109.736 653.522 479.297
575 0 66.0546 13.0952 865 106.938 653.827 479.452
576 0 68.1545 12.6037 859 108.292 653.866 475.892
577 0 68.1159 11.73 799 111.028 654.655 477.482
578 0 73.1875 13.3629 978 105.969 654.148 474.436
579 0 75.0915 12.7445 957 105.49 653.787 473.77
580 0 77.1227 12.9145 996 105.814 654.056 472.673
581 0 80.1274 12.9669 1039 106.452 654.038 471.369
582 0 83.0856 13.456 1118 106.767 653.861 468.397
583 0 86.1365 13.7572 1185 106.301 653.889 467.974
584 0 87.1256 11.8335 1031 111.461 652.831 466.878
585 1 47.1029 11.4218 538 108.974 652.47 487.994
586 0 49.0346 11.4205 560 105.879 652.832 485.646
587 0 51.0711 11.4742 586 106.703 653.536 484.375
588 0 52.0588 12.217 636 109.324 653.802 484.976
589 0 53.0586 11.3271 601 111.013 653.972 485.431
590 0 57.0319 12.7998 730 106.293 654.255 481.984
591 0 59.0272 12.5535 741 106.057 654.078 481.642
592 0 59.062 12.1229 716 107.559 653.672 481.588
593 0 62.0715 12.7917 794 105.487 653.196 480.399
594 0 65.0507 13.0667 850 104.295 652.667 479.006
595 0 66.0223 12.7533 842 105.822 652.734 479.116
596 0 69.2005 12.3843 857 107.103 652.814 476.951
597 0 72.2003 12.2299 883 108.36 653.528 475
598 0 73.0829 13.6694 999 106.266 653.314 473.851
599 0 76.1672 12.4726 950 109.413 652.91 471.971
600 0 77.185 12.4376 960 110.708 653.305 470.514
601 0 80.2395 12.7493 1023 110.833 653.829 469.628
602 0 84.2621 12.3662 1042 113.415 653.75 466.214
603 0 88.1837 13.4719 1188 114.529 653.865 466.838
604 0 89.2095 11.8934 1061 118.688 653.971 465.857
605 0 95.3401 12.5551 1197 117.297 652.414 462.292
606 0 98.3868 13.3046 1309 116.506 652.726 461.513
607 1 51.2426 10.4405 535 115.269 653.133 483.146
608 0 51.2412 10.9677 562 110.44 653.731 481.836
609 0 52.0717 10.7928 562 106.865 653.845 479.516
610 0 53.0852 10.9258 580 108.184 653.859 483.072
611 0 56.1283 11.5628 649 107.476 653.174 480.792
612 0 58.0927 11.2062 651 108.143 653.693 479.708
613 0 60.0203 11.1796 671 107.721 654.127 478.204
614 0 62.0705 12.1958 757 105.946 653.547 476.456
615 0 64.0745 12.0797 774 107.678 653.743 475.283
616 0 65.2591 11.2628 735 109.416 653.135 474.71
617 0 68.1559 12.0166 819 109.165 653.889 474.933
618 0 70.129 12.6481 887 108.738 653.458 472.366
619 0 73.17 13.1201 960 108.496 654.102 471.728
620 0 75.098 11.8246 888 111.176 654.624 473.332
621 0 77.0715 13.1826 1016 110.846 654.012 470.361
622 0 80.1137 11.8706 951 113.927 653.846 470.414
623 0 82.0635 12.1369 996 115.276 653.289 467.684
624 0 86.1154 14.2367 1226 111.651 653.57 465.501
625 0 88.1167 13.5956 1198 114.152 653.019 467.127
626 0 90.0688 11.9464 1076 121.053 652.337 464.437
627 0 93.106 13.0389 1214 119.074 652.242 462.801
628 0 96.1048 13.3916 1287 119.213 653.154 459.868
629 0 101.087 13.6714 1382 118.429 653.472 459.983
630 1 54.0284 10.8832 588 115.554 653.488 484.306
631 0 53.0657 12.6258 670 121.822 652.057 481.121
632 0 59.1073 13.0102 769 121.008 653.649 482.475
633 0 59.0938 14.0793 832 116.284 651.969 481.613
634 0 62.0377 13.0566 810 117.648 652.183 480.538
635 0 63.066 13.3828 844 118.763 652.41 479.919
636 0 65.0866 13.1517 856 120.014 652.522 478.557
637 0 66.1064 11.9353 789 123.394 652.347 478.114
638 0 66.0613 12.3976 819 124.668 652.647 476.983
639 0 70.0532 13.1186 919 122.123 651.959 475.335
640 0 73.0608 12.7976 935 122.127 652.264 474.791
641 0 75.1334 12.3913 931 123.12 652.301 473.292
642 0 78.0273 13.7772 1075 117.815 652.766 474.167
643 0 80.063 12.8649 1030 121.603 652.318 470.619
644 0 84.0835 13.0822 1100 120.744 652.115 468.99
645 0 88.1084 13.7558 1212 119.071 652.5 468.198
646 0 90.0959 13.1749 1187 122.066 652.704 465.713
647 1 50.024 11.7944 590 122.651 652.973 486.917
648 0 49.0564 11.925 585 124.65 652.788 486.585
649 0 51.0889 12.4685 637 123.223 653.382 485.735
650 0 51.0969 12.4469 636 123.836 652.55 484.373
651 0 54.2 12.8413 696 119.855 652.77 481.668
652 0 55.1014 13.7383 757 117.454 652.44 482.376
653 0 57.1768 12.1903 697 120.811 652.042 481.306
654 0 59.0775 12.7798 755 118.352 652.96 480.056
655 0 59.0763 11.8152 698 121.004 652.766 479.043
656 0 64.0542 13.7384 880 114.624 652.612 477.858
657 0 64.1339 12.1621 780 119.009 652.033 476.405
658 0 66.0507 12.8235 847 117.358 652.192 475.875
659 0 71.0957 12.5605 893 115.811 652.164 472.834
660 0 72.07 12.4462 897 115.652 652.227 473.875
661 0 75.1489 12.4553 936 116.748 652.823 470.726
662 0 81.1189 12.944 1050 114.51 652.469 470.335
663 0 80.1498 12.5889 1009 115.831 652.286 469.158
664 0 84.1023 11.7595 989 115.689 651.886 466.295
665 0 85.0827 11.6122 988 116.394 652.228 464.389
666 1 42.0094 10.9499 460 112.524 651.68 488.272
667 0 44.0124 11.4059 502 110.898 652.199 486.884
668 0 46.0247 11.5807 533 108.583 651.966 486.263
669 0 47.0137 11.4009 536 116.218 651.097 484.181
670 0 51.0505 12.5366 640 112.781 652.042 483.997
671 0 50.0775 11.1228 557 116.504 651.788 483.883
672 0 49.0265 9.8722 484 120.215 650.952 481.49
673 0 53.0845 11.8679 630 115.033 650.889 481.571
674 0 56.0245 13.1014 734 110.693 650.896 480.978
675 0 58.0529 11.8168 686 113.426 651.232 480.487
676 0 60.1255 10.7941 649 116.761 651.129 478.948
677 0 62.0702 12.7759 793 112.917 651.174 476.393
678 0 63.0721 12.5253 790 113.267 651.481 478.154
679 0 66.075 13.3182 880 112.795 651.295 474.966
680 0 66.0834 12.6053 833 117.495 651.612 474.336
681 0 69.1489 12.7262 880 118.253 652.512 473.845
682 0 73.1792 12.2439 896 119.278 652.621 474.368
683 0 73.2366 12.562 920 119.683 652.237 473.438
684 0 77.3481 13.4845 1043 117.25 652.381 469.9
685 0 78.0899 12.9082 1008 116.998 653.068 470.368
686 0 79.0596 12.7752 1010 118.821 652.776 468.926
687 0 81.1448 13.9627 1133 116.13 652.648 466.523
688 0 83.0569 12.5577 1043 119.928 653.236 464.224
689 0 85.1139 11.702 996 119.95 651.325 462.245
690 0 88.1263 12.2098 1076 119.843 651.161 460.831
691 0 89.1529 11.4522 1021 122.492 651.396 459.143
692 0 93.1403 10.4788 976 124.322 651.389 457.492
693 0 97.1211 12.5616 1220 118.509 651.248 453.415
694 0 101.146 11.7157 1185 120.316 651.476 451.722
695 0 103.08 12.2527 1263 118.927 652.492 450.292
696 0 108.076 11.5289 1246 119.612 652.425 449.967
697 1 57.0753 8.90052 508 112.892 652.793 473.398
698 0 62.0397 10.6061 658 107.302 653.433 472.638
699 0 62.0935 9.93662 617 104.498 653.637 469.229
700 0 66.0396 11.69 772 101.484 654.115 472.604
701 0 68.042 10.9491 745 103.383 654.307 472.113
702 0 69.1065 10.7949 746 103.464 653.859 471.713
703 0 73.0991 10.862 794 103.597 653.27 469.343
704 0 75.1422 11.6047 872 102.92 652.749 467.171
705 0 78.1242 12.4033 969 110.862 652.554 469.86
706 0 83.0483 13.3296 1107 107.062 653.336 468.343
707 0 86.1108 13.5639 1168 107.316 652.061 467.508
708 0 88.0487 12.4363 1095 111.689 652.861 465.691
709 0 90.1234 11.8615 1069 113.486 652.746 463.072
710 0 94.1427 12.6935 1195 109.914 652.956 461.244
711 1 49.1282 11.4598 563 112.472 652.43 484.471
712 0 53.0334 11.2382 596 115.579 652.453 482.572
713 0 54.1199 11.4561 620 109.324 652.202 481.019
714 0 55.0653 12.6395 696 107.909 652.858 481.351
715 0 58.0686 12.933 751 108.061 652.798 479.597
716 0 59.0578 11.294 667 112.043 653.211 481.366
717 0 60.0223 12.9785 779 109.969 652.811 480.648
718 0 63.0375 14.2138 896 107.809 652.71 478.163
719 0 64.0897 12.0144 770 114.601 652.558 477.906
720 0 65.0724 12.0942 787 115.854 651.778 476.634
721 0 70.1322 12.0202 843 115.214 651.976 474.827
722 0 71.0748 11.9592 850 116.432 651.368 473.773
723 0 74.0939 11.4045 845 118.592 651.186 474.034
724 0 77.1704 13.1527 1015 116.154 650.898 471.277
725 0 79.087 11.9362 944 120.095 651.791 469.301
726 0 82.064 12.5877 1033 118.909 651.512 469.266
727 0 86.1486 13.0008 1120 117.54 651.591 467.514
728 0 87.0711 13.0813 1139 120.247 651.844 464.467
729 1 45.0754 11.1369 502 118.727 651.749 486.803
730 0 45.0357 10.5694 476 120.548 651.569 486.349
731 0 46.1081 10.1934 470 121.091 652.623 486.345
732 0 48.0879 12.3108 592 117.142 653.367 483.806
733 0 47.0293 10.7167 504 123.105 652.976 486.494
734 0 51.057 11.7907 602 120.04 652.997 485.814
735 0 53.0651 12.626 670 119.534 653.237 484.33
736 0 52.0497 12.6994 661 121.531 653.705 484.392
737 0 55.0334 12.0472 663 121.35 652.92 484.43
738 0 56.0457 13.4711 755 119.168 653.407 482.821
739 0 58.2057 12.4902 727 121.711 652.388 483.318
740 0 56.0304 11.5473 647 121.326 652.156 482.98
741 0 59.0648 11.4959 679 120.742 652.571 482.832
742 0 59.1359 12.0231 711 121.241 652.55 481.765
743 0 63.0789 12.2545 773 119.915 651.978 480.86
744 0 65.2 12.7147 829 120.355 652.449 479.904
745 0 66.2562 12.7837 847 120.769 652.087 479.639
746 0 70.063 12.2747 860 117.588 652.266 477.991
747 0 70.0835 12.8418 900 118.022 652.124 476.15
748 0 73.071 12.8916 942 117.71 652.704 475.482
749 0 75.0773 12.7069 954 118.578 653.248 473.52
750 0 79.1333 13.5215 1070 114.099 653.31 472.525
751 0 83.1058 13.8498 1151 114.368 653.766 469.998
752 0 86.1115 13.8657 1194 114.776 653.843 467.429
753 0 86.1366 12.6311 1088 119.516 653.642 468.945
754 0 90.0685 12.9013 1162 118.205 653.11 468.788
755 0 93.0826 13.3537 1243 118.088 653.506 465.89
756 1 50.0331 11.2326 562 119.247 654.096 487.351
757 0 53.0738 12.1717 646 115.806 653.348 486.003
758 0 52.0365 11.9916 624 118.744 652.106 484.976
759 0 56.1586 13.177 740 115.226 652.014 483.293
760 0 57.0959 12.3301 704 118.305 651.878 484.222
761 0 58.1314 13.0394 758 117.112 652.425 482.226
762 0 60.0847 12.8652 773 118.141 651.93 479.691
763 0 63.1086 12.9776 819 116.756 651.468 479.814
764 0 63.1147 11.9465 754 121.163 651.806 479.019
765 0 65.0405 11.5928 754 121.427 652.123 477.46
766 0 70.0638 12.5743 881 116.319 652.128 477.577
767 0 70.0967 12.3829 868 119.431 652.597 473.302
768 0 74.1378 12.9489 960 116.991 653.019 473.393
769 0 77.158 13.6473 1053 115.361 652.371 472.2
770 0 77.1683 13.4641 1039 117.672 652.901 470.851
771 0 81.0758 12.5315 1016 120.18 653.189 470.824
772 0 83.0938 12.4077 1031 119.923 652.308 468.256
773 0 87.0858 11.9767 1043 121.002 652.807 467.886
774 0 91.1778 11.7682 1073 119.749 653.606 469.778
775 0 91.1203 11.9293 1087 121.46 653.194 465.524
776 0 97.0654 12.7131 1234 119.595 652.632 462.549
777 1 52.0295 12.0893 629 117.601 653.156 485.523
778 0 53.0446 10.9531 581 120.32 653.124 485.678
779 0 56.1437 12.2187 686 116.886 652.921 481.978
780 0 57.0728 12.1424 693 119.146 653.465 482.426
781 0 58.0447 12.3698 718 119.047 653.55 482.964
782 0 59.147 11.5813 685 120.442 653.81 482.175
783 0 61.0691 10.9875 671 120.914 653.607 483.361
784 0 62.1308 11.2665 700 121.307 653.094 479.49
785 0 65.1069 11.796 768 119.202 652.914 478.477
786 0 66.0894 11.3029 747 120.981 653.206 478.418
787 0 70.094 11.6272 815 119.323 653.122 477.172
788 0 72.0416 12.3956 893 117.607 653.441 473.324
789 0 76.0807 12.2107 929 117.158 653.621 473.324
790 0 77.0427 11.7727 907 117.911 653.25 472.197
791 0 80.1164 11.658 934 118.292 653.12 470.236
792 0 83.1074 12.5982 1047 117.33 653.264 468.655
793 0 85.107 11.6912 995 119.59 653.506 467.33
794 0 86.0679 10.8287 932 123.46 652.264 466.011
795 0 92.082 12.3368 1136 118.748 652.614 465.587
796 0 94.0619 12.3536 1162 119.664 653.549 462.886
797 0 97.1835 12.996 1263 119.171 653.53 461.786
798 0 100.091 13.4478 1346 120.064 652.739 460.597
799 0 103.075 13.4659 1388 121.082 653.123 459.633
800 0 108.056 13.419 1450 120.992 653.082 458.143
801 0 112.104 12.9255 1449 123.052 653.1 455.405
802 0 115.1 13.4144 1544 122.391 653.276 450.912
803 1 60.0699 12.7518 766 119.636 653.513 479.198
804 0 62.0602 12.2784 762 117.655 653.698 480.22
805 0 63.0878 11.8723 749 116.587 652.657 478.455
806 0 66.056 12.0504 796 117.617 652.862 477.508
807 0 68.0422 12.022 818 117.302 652.846 477.575
808 0 70.0704 11.8881 833 117.23 652.571 475.307
809 0 75.047 13.5249 1015 112.829 651.542 473.337
810 0 77.0808 12.4545 960 116.314 652.217 471.972
811 0 78.0368 12.6863 990 117.181 652.109 469.23
812 0 83.1226 12.0545 1002 118.077 651.677 470.242
813 0 84.0542 12.0517 1013 118.739 652.175 469.167
814 0 89.2076 13.1603 1174 114.862 651.67 467.071
815 0 89.0858 12.067 1075 119.694 651.904 468.23
816 0 94.0619 12.0665 1135 118.935 651.703 465.951
817 1 49.0381 11.6644 572 117.063 650.645 488.374
818 0 50.0197 11.8753 594 119.239 651.202 485.111
819 0 52.0185 11.073 576 121.148 650.972 483.234
820 0 55.097 12.7049 700 113.271 653.931 483.187
821 0 55.0578 12.3325 679 113.216 653.786 483.62
822 0 55.0755 11.2754 621 116.749 654.472 482.844
823 0 56.072 11.2712 632 116.741 654.372 481.53
824 0 61.119 13.171 805 109.902 653.917 480.593
825 0 62.0846 11.8387 735 113.833 653.131 479.088
826 0 64.0621 12.5035 801 112.303 653.606 478.642
827 0 66.081 12.3939 819 112.839 654.38 477.136
828 0 69.0778 12.4063 857 111.884 653.931 477.337
829 0 70.0691 12.6447 886 111.966 653.668 475.125
830 0 73.1334 12.9626 948 110.554 653.651 473.56
831 0 76.1278 13.2934 1012 109.655 653.238 472.877
832 0 77.1525 12.2744 947 113.297 652.884 472.419
833 0 78.14 12.3752 967 114.533 652.856 469.229
834 0 81.1962 12.5498 1019 113.691 652.624 469.5
835 0 86.1402 12.7699 1100 111.628 652.453 467.348
836 0 89.117 11.7486 1047 113.244 653.129 466.628
837 0 91.1196 13.5975 1239 108.898 652.968 463.822
838 0 94.2516 14.5568 1372 106.681 652.736 463.127
839 0 95.1097 12.985 1235 111.342 652.416 459.346
840 0 99.0833 12.8175 1270 111.531 652.85 461.455
841 1 52.1377 12.2944 641 110.064 652.975 481.913
842 0 55.1869 12.7748 705 110.443 652.579 479.838
843 0 55.1244 11.7734 649 104.387 652.65 479.78
844 0 57.1064 12.0652 689 101.193 652.924 478.981
845 0 59.1446 11.9876 709 102.372 653.049 476.605
846 0 58.1137 10.686 621 105.913 653.274 476.725
847 0 61.1925 11.4556 701 103.835 653.128 477.856
848 0 65.1047 11.9346 777 103.416 652.88 475.676
849 0 66.1441 10.6283 703 106.805 653.474 475.895
850 0 67.1407 12.4813 838 108.32 652.797 474.932
851 0 70.1675 12.0996 849 108.582 653.048 472.33
852 0 73.1601 12.7118 930 108.755 652.881 472.903
853 0 74.14 12.4359 922 111.466 652.882 472.307
854 0 78.1013 11.6259 908 115.076 652.697 472.758
855 0 80.114 11.596 929 115.83 652.778 470.8
856 0 84.2261 12.4902 1052 112.837 652.906 470.952
857 0 84.0964 12.4976 1051 117.062 653.144 467.883
858 1 43.0174 10.4841 451 118.089 653.574 490.102
859 0 45.0236 10.7499 484 116.57 653.876 487.374
860 0 45.0502 11.6759 526 119.369 653.211 486.989
861 0 47.0404 11.9897 564 119.865 653.351 487.332
862 0 45.0118 12.1301 546 122.41 653.879 486.729
863 0 50.0583 12.8051 641 119.284 653.978 485.34
864 0 48.076 11.7522 565 124.834 652.904 485.788
865 0 51.0192 11.2899 576 126.576 652.726 484.346
866 0 52.0286 12.6085 656 122.607 653.047 485.471
867 0 53.0448 12.1784 646 126.375 653.461 482.358
868 0 55.0118 12.2883 676 125.287 653.485 483.737
869 0 56.063 11.8616 665 127.358 653.038 483.317
870 0 58.0414 12.2843 713 128.128 653.701 479.536
871 0 61.0465 13.5307 826 123.459 653.659 480.438
872 0 62.0755 12.1787 756 128.169 653.169 480.173
873 0 63.049 11.7686 742 130.534 653.55 479.445
874 0 65.0515 11.3449 738 131.568 653.016 478.033
875 0 70.1302 13.1612 923 126.014 652.444 476.723
876 0 70.0262 12.938 906 129.14 652.337 476.104
877 0 71.0598 12.5528 892 123.512 651.311 475.144
878 0 72.0874 11.5832 835 127.962 650.829 475.632
879 0 76.0984 12.9832 988 123.24 650.351 474.721
880 1 40.036 11.0151 441 130.118 650.424 490.528
881 0 44.0366 11.6494 513 128.322 650.632 489.423
882 0 44.0536 12.1443 535 128.127 651.905 489.174
883 0 45.0557 12.2071 550 130.069 651.082 488.105
884 0 44.0855 11.3643 501 131.76 651.168 489.04
885 0 45.0616 11.6507 525 124.029 651.956 489.623
886 0 46.047 11.4014 525 127.421 652.238 487.806
887 0 46.0512 10.5752 487 128.086 652.292 489.869
888 0 48.0502 12.1956 586 124.677 652.391 487.295
889 0 51.0503 13.0851 668 122.048 651.861 486.753
890 0 49.0335 11.5635 567 128.205 651.762 486.882
891 0 52.1268 11.7406 612 127.6 650.995 487.124
892 0 55.1163 12.3557 681 126.251 651.501 485.653
893 0 57.0814 12.6486 722 124.855 650.722 485.584
894 0 57.1285 11.8155 675 129.292 650.97 482.391
895 0 60.0797 12.267 737 128.141 651.26 481.919
896 0 62.085 13.7553 854 125.367 651.862 481.046
897 0 63.0688 12.2564 773 131.312 651.736 478.847
898 0 67.1125 13.3209 894 127.05 652.188 479.337
899 0 69.0734 13.8693 958 124.667 651.907 478.404
900 0 71.1 12.2644 872 123.987 652.508 474.729
901 0 74.101 12.0106 890 124.562 652.243 474.53
902 0 74.1244 11.8719 880 127.825 652.466 473.222
903 0 76.175 12.55 956 128.697 652.372 472.138
904 0 81.1302 13.3119 1080 125.908 652.862 472.046
905 0 82.1198 13.8213 1135 125.346 651.434 469.655
906 0 84.1166 12.126 1020 130.865 651.689 468.487
907 1 45.0269 12.437 560 124.527 652.009 489.407
908 0 45.0554 11.9409 538 127.206 651.708 488.574
909 0 47.0352 12.7351 599 124.15 651.721 487.419
910 0 49.1694 12.8942 634 124.393 652.604 486.233
911 0 50.0379 11.8111 591 126.761 652.904 486.772
912 0 52.0572 13.3891 697 122.367 652.679 486.802
913 0 54.0698 12.9647 701 121.282 652.551 486.204
914 0 52.0482 12.2579 638 126.177 652.393 484.077
915 0 55.0397 12.4456 685 124.959 652.534 483.11
916 0 58.0733 12.8114 744 122.93 652.345 483.843
917 0 58.1187 13.0251 757 122.124 652.284 482.296
918 0 60.0613 12.404 745 124.102 652.552 480.848
919 0 64.1355 12.6451 811 118.403 652.06 479.023
920 0 66.0727 11.79 779 120.501 651.854 478.204
921 0 66.0871 11.9842 792 121.335 651.859 477.482
922 0 72.1218 13.602 981 115.89 652.177 476.245
923 0 72.0484 12.5749 906 120.753 652.055 475.634
924 0 76.0829 12.4864 950 120.749 652.259 476.428
925 0 77.1046 12.5284 966 122.939 651.632 474.321
926 0 79.1456 11.4473 906 127.157 652.121 473.491
927 1 42.0484 11.3203 476 121.601 652.429 491.605
928 0 41.0251 10.7251 440 125.914 652.448 490.489
929 0 45.0326 12.0579 543 122.492 652.602 489.783
930 0 45.1239 11.8341 534 123.502 651.951 488.895
931 0 47.0444 12.4351 585 121.938 652.149 488.836
932 0 50.088 12.518 627 121.579 652.04 488.1
933 0 52.1459 13.5965 709 119.422 652.694 486.162
934 0 53.0159 13.6752 725 119.459 652.812 485.766
935 0 54.0411 13.8968 751 120.096 652.519 484.758
936 0 55.0248 13.0668 719 123.225 652.872 485.594
937 0 56.0474 13.9525 782 123.054 652.653 481.563
938 0 61.0184 14.258 870 120.505 652.66 482.336
939 0 62.0385 13.7979 856 123.821 652.449 481.014
940 0 65.0476 14.2972 930 122.301 652.73 480.72
941 0 66.0773 13.3329 881 126.615 652.683 478.308
942 0 68.1164 13.9907 953 126.512 652.78 478.944
943 0 70.1215 12.9347 907 129.859 652.946 478.369
944 0 72.1806 13.3554 964 130.045 652.95 474.012
945 0 75.0836 12.7458 957 131.868 652.987 473.036
946 0 77.108 12.3593 953 131.45 652.838 474.188
947 1 41.1706 12.6061 519 125.8 652.632 490.424
948 0 41.0972 12.8719 529 128.505 653.147 489.783
949 0 44.0405 12.4204 547 123.543 653.371 491.095
950 0 46.0251 13.6882 630 125.189 652.819 489.276
951 0 47.0818 12.85 605 121.362 653.091 486.749
952 0 48.266 13.0734 631 125.781 652.287 488.401
953 0 52.0838 14.2271 741 120.233 652.533 487.196
954 0 53.0738 13.9428 740 121.981 652.461 485.755
955 0 55.0924 13.9947 771 121.27 652.499 484.708
956 0 56.0348 12.7956 717 124.502 652.904 483.82
957 0 59.121 13.5654 802 121.399 653.253 483.522
958 0 58.0581 13.4693 782 123.441 652.72 483.325
959 0 60.0927 12.3975 745 126.221 653.654 481.404
960 0 62.0631 13.7118 851 122.949 653.537 481.189
961 0 65.08 13.445 875 123.677 653.527 478.942
962 0 67.0678 13.6727 917 121.806 653.083 479.147
963 0 71.0724 14.1124 1003 119.695 653.333 477.286
964 0 71.137 14.0433 999 122.047 652.719 475.704
965 0 76.0568 14.5286 1105 120.16 653.001 472.11
966 0 78.1286 13.4138 1048 122.439 652.848 473.176
967 0 82.1978 13.6743 1124 121.577 652.304 471.09
968 0 84.098 13.7459 1156 121.327 652.367 470.689
969 0 86.1065 13.4833 1161 123.536 652.387 468.67
970 1 43.0232 13.1092 564 120.082 652.647 488.988
971 0 45.1256 13.0525 589 116.902 652.91 488.922
972 0 46.1932 13.0322 602 118.9 653.171 488.312
973 0 47.1024 13.4388 633 116.374 653.04 488.54
974 0 46.0632 12.0487 555 123.162 652.948 487.312
975 0 47.0143 11.9113 560 121.993 652.432 487
976 0 50.112 11.4543 574 116.868 652.913 483.087
977 0 53.0766 12.4725 662 114.464 653.249 482.902
978 0 56.0203 12.1742 682 114.672 652.449 482.443
979 0 57.0503 11.8492 676 116.8 652.158 481.24
980 0 60.0633 13.5357 813 113.085 652.139 479.188
981 0 62.0865 12.8047 795 114.751 651.893 480.079
982 0 62.1001 13.1562 817 115.841 652.07 477.676
983 0 65.0578 13.1729 857 116.862 652.167 478.305
984 0 68.043 13.2857 904 116.606 652.121 477.184
985 0 69.024 12.8506 887 119.45 652.448 477.397
986 0 72.058 14.0442 1012 118.17 653.038 474.963
987 0 74.0952 12.5379 929 122.04 653.531 474.298
988 0 79.1496 14.4789 1146 119.409 653.555 470.36
989 0 80.2798 13.6398 1095 122.847 653.146 468.419
990 0 85.2028 14.6709 1250 120.614 652.636 466.206
991 0 85.1265 13.6385 1161 125.561 652.548 464.044
992 0 90.1933 13.1828 1189 126.85 652.703 463.786
993 0 94.3475 13.5881 1282 127.296 653.191 460.332
994 1 48.0952 11.3525 546 125.658 653.324 484.152
995 0 50.2824 12.9668 652 124.681 653.77 480.676
996 0 53.1446 13.8678 737 122.71 653.517 478.863
997 0 53.1544 11.4196 607 127.69 653.156 485.529
998 0 56.0601 12.5044 701 130.913 653.144 483.354
999 0 57.0728 12.4928 713 128.362 652.571 482.376
1000 0 60.0416 12.7412 765 127.676 652.658 482.008
1001 0 61.2512 12.261 751 130.61 652.529 478.45
1002 0 64.3152 13.8226 889 126.146 652.479 475.855
1003 0 65.2772 12.9754 847 129.407 651.933 475.162
1004 0 68.2892 13.0328 890 128.704 651.91 473.602
1005 0 71.144 13.0861 931 128.623 652.191 472.794
1006 0 72.2839 13.7237 992 127.958 652.138 472.631
1007 0 75.2992 12.9882 978 129.58 651.675 471.25
1008 0 78.1756 14.7361 1152 126.1 651.267 468.605
1009 0 81.3215 13.1577 1070 130.05 651.132 467.726
1010 0 85.1686 13.8784 1182 128.513 651.62 466.24
1011 0 86.2461 13.9717 1205 129.722 651.807 464.304
1012 0 90.2481 13.7399 1240 130.42 651.131 462.7
1013 1 48.1104 12.4713 600 127.283 651.727 483.518
1014 0 49.0945 11.7121 575 126.482 651.996 485.118
1015 0 51.1748 11.8418 606 126.688 653.153 481.186
1016 0 51.1545 11.5923 593 129.954 653.108 480.644
1017 0 54.092 12.0351 651 131.068 651.432 481.991
1018 0 57.0899 12.5766 718 128.861 652.143 482.446
1019 0 59.0798 13.3887 791 128.02 652.485 479.894
1020 0 59.0472 12.4477 735 132.063 651.959 479.993
1021 0 62.0943 12.7065 789 131.26 652.189 479.521
1022 0 62.0492 12.5868 781 133.839 652.023 477.417
1023 0 65.1183 12.055 785 134.916 652.778 475.68
1024 0 70.2706 12.7792 898 131.38 653.374 475.841
1025 0 71.1266 12.1614 865 134.246 653.407 471.992
1026 0 74.1602 12.3516 916 134.521 653.401 470.063
1027 0 78.1768 13.4311 1050 129.889 653.142 470.134
1028 0 79.1648 12.2529 970 135.174 653.474 467.515
1029 0 82.2043 12.8582 1057 132.686 652.728 465.254
1030 0 85.1561 11.8136 1006 136.428 652.409 464.735
1031 0 86.1563 12.4657 1074 135.185 652.926 465.139
1032 0 92.2004 12.5054 1153 133.78 653.023 462.309
1033 1 47.1562 10.8575 512 130 653.684 484.701
1034 0 47.1312 11.1815 527 130.765 653.567 484.036
1035 0 49.0864 12.4475 611 127.391 653.754 484.43
1036 0 51.208 12.9863 665 131.011 651.81 482.833
1037 0 49.0961 11.9154 585 122.197 651.78 479.347
1038 0 50.132 11.1306 558 123.611 651.591 478.075
1039 0 54.1115 11.3469 614 120.873 651.7 478.104
1040 0 55.0722 12.2566 675 118.853 651.522 476.12
1041 0 56.1025 12.085 678 120.195 652.142 474.68
1042 0 56.0953 11.4805 644 121.734 652.287 473.891
1043 0 59.0621 10.8191 639 116.869 652.114 473.668
1044 0 62.2166 11.7171 729 115.158 652.328 471.695
1045 0 64.1074 11.6679 748 115.743 651.572 470.305
1046 0 68.1585 11.2092 764 116.996 652.986 471.7
1047 0 71.2184 12.2581 873 114.715 653.006 471.562
1048 0 70.2155 10.8665 763 119.687 652.337 468.682
1049 0 74.1691 11.5547 857 117.52 652.273 468.05
1050 0 77.2066 11.7866 910 118.612 652.382 465.198
1051 0 81.2549 12.9592 1053 115.709 652.67 465.029
1052 0 85.1819 13.6531 1163 115.482 653.015 464.835
1053 0 86.2415 12.7781 1102 121.892 652.63 468.58
1054 0 90.1092 12.2851 1107 123.554 652.581 465.203
1055 1 45.1031 11.2853 509 125.438 653.336 486.045
1056 0 47.0512 12.4545 586 124.031 653.678 485.527
1057 0 51.094 12.4476 636 117.607 652.62 484.52
1058 0 52.0257 13.1858 686 118.945 652.968 483.52
1059 0 50.1165 12.6705 635 118.112 652.381 482.613
1060 0 55.1134 12.3382 680 117.479 653.337 483.716
1061 0 58.076 13.4135 779 114.666 653.09 481.223
1062 0 60.095 13.3788 804 115.736 653.002 479.978
1063 0 61.1211 12.8434 785 117.372 653.134 480.367
1064 0 62.1274 13.3113 827 117.149 653.704 477.41
1065 0 65.0785 13.4607 876 117.155 653.487 477.895
1066 0 66.0692 13.4253 887 119.171 653.397 476.737
1067 0 66.1506 11.625 769 125.43 654.121 476.372
1068 0 71.1092 11.3628 808 124.788 653.666 475.063
1069 0 73.0773 12.2473 895 122.255 654.01 474.65
1070 0 76.0692 13.422 1021 118.8 653.313 473.879
1071 0 77.0559 11.8615 914 123.963 652.585 471.83
1072 0 80.089 12.5361 1004 122.707 652.178 471.118
1073 0 81.0967 12.331 1000 123.356 652.666 472.578
1074 0 85.1426 11.9329 1016 125.891 652.303 467.684
1075 0 88.0478 12.2661 1080 123.482 652.266 467.828
1076 0 91.0733 11.8256 1077 124.676 651.847 466.167
1077 0 92.104 11.0636 1019 125.803 652.511 466.542
1078 0 95.1674 11.3379 1079 126.141 652.2 464.2
1079 0 98.0697 11.4816 1126 127.549 651.607 464.133
1080 0 104.071 13.068 1360 124.126 652.32 459.446
1081 1 53.1072 11.2791 599 125.815 651.287 478.978
1082 0 58.1145 12.028 699 124.546 651.95 480.958
1083 0 59.0172 12.149 717 125.753 652.939 480.257
1084 0 61.137 11.6787 714 126.074 653.364 479.116
1085 0 64.1413 13.0181 835 122.766 652.61 476.866
1086 0 65.0384 13.4382 874 121.905 652.767 476.038
1087 0 68.0687 13.2513 902 121.438 652.864 476.375
1088 0 71.0415 14.4423 1026 118.666 652.544 473.37
1089 0 72.1273 12.7136 917 124.14 652.647 471.169
1090 0 75.0422 12.3797 929 124.06 652.554 470.915
1091 0 75.0753 11.5884 870 118.618 652.784 470.415
1092 0 78.1565 11.2595 880 120.33 652.36 470.2
1093 0 77.1219 11.8384 913 120.896 651.984 468.32
1094 0 82.077 11.1481 915 121.165 651.86 468.368
1095 0 84.065 10.9201 918 122.44 651.4 467.672
1096 0 87.0666 10.647 927 123.061 651.225 465.37
1097 0 90.0985 12.0535 1086 121.272 651.447 461.388
1098 0 96.2079 12.2235 1176 119.881 651.497 460.002
1099 0 100.122 12.1552 1217 120.292 651.643 459.364
1100 1 53.104 10.1687 540 123.067 652.454 481.178
1101 0 56.0975 11.1057 623 120.037 653.002 478.332
1102 0 57.0456 12.0956 690 112.777 653.165 479.454
1103 0 59.111 11.4023 674 113.666 652.806 478.375
1104 0 62.1088 12.3976 770 110.396 653.335 477.061
1105 0 63.1258 10.6929 675 115.683 653.292 475.604
1106 0 66.0552 12.7015 839 112.095 653.8 475.676
1107 0 68.1339 12.0351 820 113.674 653.388 474.899
1108 0 69.1001 10.9985 760 116.639 652.933 474.575
1109 0 74.1361 12.9626 961 111.779 653.247 473.522
1110 0 77.2302 13.1814 1018 111.103 653.07 473.513
1111 0 78.1421 13.4627 1052 112.704 652.853 470.28
1112 0 80.1989 13.2296 1061 113.932 652.684 470.986
1113 0 82.077 11.3552 932 119.259 652.621 469.127
1114 0 85.1251 13.1688 1121 116.401 653.062 466.809
1115 0 88.1781 12.9964 1146 116.752 652.367 466.63
1116 0 93.1313 13.1642 1226 115.631 652.578 465.711
1117 0 96.2752 12.5889 1212 118.325 652.328 464.425
1118 0 97.261 11.1864 1088 123.597 652.107 463.025
1119 1 53.1919 11.3363 603 123.481 651.023 482.458
1120 0 54.3043 12.0801 656 122.473 651.232 482.875
1121 0 57.2154 13.1433 752 100.467 651.133 481.48
1122 0 59.1686 12.3038 728 124.261 650.173 480.525
1123 0 59.229 12.4601 738 125.027 650.589 480.561
1124 0 62.2019 11.7842 733 126.172 650.555 480.166
1125 0 64.141 12.3946 795 126.026 650.767 477.628
1126 0 66.1437 12.8054 847 125.15 650.695 476.747
1127 0 66.0932 12.1344 802 127.919 651.332 476.586
1128 0 69.1667 12.5928 871 126.97 652.025 475
1129 0 70.1303 12.1203 850 129.102 651.733 475.079
1130 0 73.1782 12.777 935 128.101 651.313 473.087
1131 0 75.1273 12.7783 960 129.147 651.524 472.531
1132 0 77.2046 12.6547 977 130.039 651.51 470.933
1133 0 80.1702 13.6834 1097 126.755 652.131 470.198
1134 0 82.1672 13.5334 1112 128.323 651.786 466.924
1135 0 84.1716 11.8448 997 132.887 651.13 468.518
1136 0 88.1292 12.7654 1125 131.268 651.947 466.032
1137 1 46.0807 10.4599 482 126.019 654.4 488.236
1138 0 47.2254 10.9263 516 127.089 653.269 484.44
1139 0 49.1091 13.9282 684 112.94 652.814 485.855
1140 0 50.0853 11.9995 601 118.206 652.489 484.775
1141 0 51.1145 11.7188 599 115.933 652.73 483.327
1142 0 53.0629 13.5123 717 108.941 653.4 482.148
1143 0 55.0883 12.4346 685 111.299 653.682 481.085
1144 0 56.1444 11.4348 642 113.516 653.857 482.075
1145 0 58.1314 11.8697 690 113.816 653.017 479.481
1146 0 61.1762 12.7174 778 110.057 652.991 479.294
1147 0 62.1391 12.3915 770 111.056 652.499 479.419
1148 0 64.1683 12.9503 831 109.161 652.901 477.128
1149 0 66.1384 12.7006 840 109.904 652.481 475.363
1150 0 68.14 12.6651 863 109.607 651.659 473.579
1151 0 71.0873 12.2103 868 110.737 651.187 472.323
1152 0 72.1328 12.9206 932 109.094 651.307 471.828
1153 0 76.1658 12.2365 932 109.672 651.017 471.15
1154 0 78.1685 12.1149 947 110.163 651.023 469.288
1155 0 81.1321 12.5967 1022 108.848 651.362 468.073
1156 0 83.1987 12.7766 1063 108.812 651.312 466.529
1157 0 84.1543 11.5502 972 112.107 651.534 466.104
1158 1 44.0499 10.6016 467 113.27 652.764 485.019
1159 0 46.0354 11.1653 514 113.187 652.706 485.679
1160 0 48.0407 12.1355 583 111.515 651.947 483.695
1161 0 50.232 12.2034 613 112.47 651.966 482.339
1162 0 50.0398 11.7906 590 114.22 651.995 482.783
1163 0 52.0862 11.5962 604 114.162 651.978 481.389
1164 0 52.101 12.1111 631 114.177 652.255 481.626
1165 0 54.1511 11.0432 598 117.562 651.945 480.38
1166 0 59.1265 14.0715 832 108.011 652.245 479.218
1167 0 60.0866 13.0978 787 111.358 651.646 477.897
1168 0 59.0498 12.4641 736 115.709 652.655 477.406
1169 0 63.1844 12.7405 805 113.588 652.414 476.52
1170 0 63.0887 13.2195 834 113.692 652.752 477.504
1171 0 65.0672 12.1874 793 116.731 651.494 475.264
1172 0 69.2052 13.5539 938 111.647 652.209 474.142
1173 0 72.0808 12.8189 924 115.16 652.351 473.64
1174 0 73.1449 13.7945 1009 114.733 652.548 471.418
1175 0 76.1507 12.8298 977 117.157 652.158 471.571
1176 0 79.2516 13.1859 1045 116.478 651.956 468.818
1177 0 81.1906 13.4006 1088 116.015 651.655 467.057
1178 0 85.1121 12.9946 1106 118.317 651.47 466.316
1179 0 86.0637 13.5713 1168 117.901 651.164 464.512
1180 0 90.125 12.9598 1168 117.58 651.331 464.235
1181 1 49.0475 11.4991 564 120.901 652.312 484.362
1182 0 51.0967 11.7816 602 118.879 652.309 483.45
1183 0 53.0846 12.1692 646 117.235 653.192 482.364
1184 0 54.0515 11.6371 629 118.358 653.227 482.397
1185 0 56.1084 12.3333 692 116.497 652.994 480.551
1186 0 57.0874 12.0342 687 118.013 653.888 480.533
1187 0 59.073 12.2899 726 116.821 653.478 480.175
1188 0 61.1235 12.0903 739 117.57 652.758 478.08
1189 0 61.1366 11.9405 730 118.56 652.9 476.86
1190 0 66.0703 12.517 827 115.36 652.925 477.014
1191 0 67.0881 14.2499 956 112.464 652.66 474.736
1192 0 69.0481 11.731 810 118.546 652.204 473.826
1193 0 72.0556 12.5875 907 115.938 652.796 472.404
1194 0 74.0737 12.0826 895 117.389 652.14 471.714
1195 0 75.1246 11.3278 851 121.118 652.66 470.516
1196 0 80.1008 13.0336 1044 115.435 652.765 470.457
1197 0 82.147 13.0011 1068 118.047 652.235 466.989
1198 0 83.1579 12.4101 1032 119.836 652.377 465.92
1199 0 86.1735 12.1035 1043 120.725 652.156 464.649
1200 0 90.1081 14.0942 1270 115.492 652.195 464.56
1201 0 91.199 12.1931 1112 121.226 651.927 462.094
1202 0 95.1473 13.3057 1266 116.969 652.088 460.011
1203 0 99.1808 13.3796 1327 115.963 651.571 459.544
1204 1 50.0444 10.6306 532 120.039 652.265 483.799
1205 0 52.1162 11.1674 582 118.629 652.947 482.079
1206 0 53.0467 10.5567 560 124.875 653.023 480.852
1207 0 56.1297 11.8654 666 123.228 652.694 480.004
1208 0 59.0903 12.1171 716 121.566 652.124 479.608
1209 0 59.0866 12.8117 757 120.149 652.569 479.485
1210 0 62.1218 12.4755 775 121.369 652.053 476.787
1211 0 63.1281 11.2153 708 124.54 652.292 476.179
1212 0 66.1058 13.0548 863 119.34 651.457 476.231
1213 0 69.1345 12.2804 849 121.677 652.092 473.853
1214 0 71.0776 13.6752 972 116.796 652.486 473.931
1215 0 72.1052 13.1891 951 119.354 652.196 471.163
1216 0 73.0538 12.4703 911 120.619 652.852 470.79
1217 0 76.1678 13.2996 1013 118.656 652.802 468.381
1218 0 80.1092 13.3068 1066 117.856 652.494 468.21
1219 0 82.1686 13.594 1117 117.108 652.488 467.452
1220 0 84.0893 13.664 1149 116.73 652.285 467.346
1221 0 86.1285 12.9342 1114 118.839 652.133 464.973
1222 0 90.1845 12.0974 1091 120.621 651.687 465.793
1223 0 92.144 12.4045 1143 122.306 651.538 459.673
1224 0 96.1444 13.927 1339 117.07 651.526 460.208
1225 1 49.1304 10.2788 505 119.749 651.83 482.98
1226 0 51.2564 10.8669 557 118.522 650.521 481.878
1227 0 50.064 11.4254 572 115.862 652.586 483.633
1228 0 53.0691 11.7017 621 108.634 653.039 482.333
1229 0 53.0394 10.9353 580 112.238 652.378 482.66
1230 0 57.0645 12.9152 737 105.649 653.318 479.031
1231 0 59.0954 12.2006 721 106.068 653.19 477.207
1232 0 60.1115 11.3622 683 109.148 653.553 478.006
1233 0 62.0731 11.7281 728 108.854 653.014 478.087
1234 0 64.0882 12.2019 782 107.563 652.586 476.217
1235 0 66.1321 12.3843 819 108.067 652.476 473.864
1236 0 66.1323 11.0838 733 110.933 652.802 473.625
1237 0 70.1472 12.0033 842 109.615 652.367 472.224
1238 0 73.1417 12.8654 941 106.948 652.351 473.292
1239 0 75.1317 12.0721 907 110.56 652.076 471.838
1240 0 77.1151 12.1636 938 111.76 651.807 469.494
1241 0 80.2108 11.956 959 111.298 651.975 469.102
1242 0 84.0914 12.2248 1028 111.252 651.648 464.929
1243 0 87.0992 12.6178 1099 110.848 651.777 466.4
1244 0 88.0934 11.817 1041 113.7 652.018 465.467
1245 0 93.1366 12.0254 1120 112.958 651.704 464.872
1246 0 97.0893 13.5133 1312 109.642 651.381 463.134
1247 1 49.0185 10.8938 534 119.732 652.268 481.446
1248 0 53.0536 11.6863 620 117.061 652.045 479.902
1249 0 54.0598 11.1543 603 118.905 649.708 481.687
1250 0 55.1614 11.7836 650 118.009 650.18 480.914
1251 0 58.1044 11.7547 683 117.228 649.878 480.195
1252 0 59.1194 12.6185 746 115.605 650.096 480.114
1253 0 63.0609 13.0985 826 113.176 649.919 478.69
1254 0 65.1027 11.382 741 116.428 649.683 478.443
1255 0 67.2508 12.4906 840 114.867 650.768 476.245
1256 0 68.0814 13.0579 889 114.612 650.901 475.965
1257 0 69.2177 11.6589 807 118.529 650.297 474.508
1258 0 73.1663 12.0001 878 117.157 650.102 475.069
1259 0 75.0441 12.7658 958 116.945 650.325 471.989
1260 0 77.156 12.5201 966 118.068 650.315 469.994
1261 0 79.2234 11.2088 888 121.68 650.53 470.408
1262 0 82.1637 12.8159 1053 118.367 650.342 467.099
1263 0 85.2354 11.6384 992 120.471 650.544 469.785
1264 0 87.2468 12.1265 1058 119.871 651.246 466.163
1265 0 90.2706 13.0718 1180 118.817 651.803 463.358
1266 0 93.393 12.3243 1151 120.37 651.506 462.49
1267 0 94.3023 12.1524 1146 122.832 651.232 459.317
1268 0 99.236 12.0319 1194 121.892 651.37 460.985
1269 1 55.0831 12.2905 677 116.461 651.298 482.318
1270 0 57.1103 12.257 700 116.293 650.869 480.383
1271 0 57.0285 11.8362 675 113.544 652.778 479.308
1272 0 59.0986 11.8784 702 110.802 652.373 479.82
1273 0 59.0543 11.8704 701 110.939 652.642 479.051
1274 0 62.0478 12.023 746 110.768 652.464 478.331
1275 0 64.1646 11.7666 755 110.167 652.272 479.367
1276 0 66.0472 12.915 853 108.85 652.116 476.422
1277 0 70.0816 12.7423 893 108.247 652.607 474.404
1278 0 73.082 13.5875 993 105.786 652.899 473.658
1279 0 73.1811 11.943 874 110.949 652.785 474.462
1280 0 77.0234 12.5676 968 109.749 652.526 471.681
1281 0 78.0431 13.4669 1051 107.106 652.694 472.413
1282 0 81.0429 12.9438 1049 108.025 652.067 469.796
1283 0 85.127 12.8514 1094 107.863 652.372 467.517
1284 0 87.1914 12.3521 1077 110.076 652.569 466.63
1285 0 91.311 13.6457 1246 106.584 651.971 463.681
1286 0 92.1182 13.0919 1206 109.57 652.166 462.114
1287 1 48.118 11.8251 569 112.49 652.313 483.494
1288 0 49.1156 12.0125 590 112.412 652.349 483.23
1289 0 52.1185 11.4355 596 113.428 652.545 483.329
1290 0 54.1026 12.3839 670 112.467 652.206 481.998
1291 0 57.0513 13.5843 775 109.199 652.621 479.916
1292 0 57.091 13.4522 768 110.677 653.517 479.6
1293 0 59.0513 12.0234 710 114.594 653.362 478.849
1294 0 61.057 12.4146 758 114.607 652.488 476.624
1295 0 64.0917 13.1842 845 111.49 652.533 477.015
1296 0 64.1027 12.2148 783 115.475 652.914 476.05
1297 0 68.061 12.621 859 114.175 652.633 472.573
1298 0 71.1102 13.3314 948 112.235 652.356 472.651
1299 0 74.0782 12.9593 960 113.416 651.949 471.167
1300 0 75.2122 13.5217 1017 113.169 652.414 471.02
1301 0 78.1308 13.2726 1037 114.543 651.986 471.45
1302 0 78.1026 13.5207 1056 116.085 651.98 467.514
1303 0 83.1222 13.9794 1162 114.851 652.604 466.861
1304 0 86.2618 14.2473 1229 114.635 651.503 466.325
1305 0 89.1432 14.2355 1269 114.838 652.236 464.521
1306 0 90.2202 13.3451 1204 119.489 652.137 462.115
1307 1 48.153 12.7302 613 119.217 653.343 484.506
1308 0 49.0614 13.636 669 117.179 653.384 483.513
1309 0 50.025 12.6937 635 120.822 652.943 482.754
1310 0 50.0798 12.8794 645 121.659 653.259 483.234
1311 0 52.0967 13.3598 696 120.767 652.974 481.503
1312 0 55.0751 12.9096 711 121.084 653.073 481.557
1313 0 57.0711 13.4569 768 118.956 653.341 480.322
1314 0 58.0578 13.8655 805 119.388 653.276 479.718
1315 0 57.075 12.7551 728 125.876 653.404 479.25
1316 0 60.0462 12.5903 756 125.849 652.732 478.48
1317 0 63.0649 13.3672 843 124.151 652.222 477.537
1318 0 66.1527 14.6026 966 121.036 652.273 476.478
1319 0 66.0524 13.2319 874 127.596 652.617 476.101
1320 0 69.0956 14.4293 997 124.382 651.587 473.969
1321 0 72.0931 14.5922 1052 124.626 652.293 473.996
1322 0 74.0926 13.7126 1016 128.224 652.47 473.397
1323 0 76.0618 14.291 1087 127.3 651.558 470.452
1324 0 79.1332 13.1803 1043 127.726 651.497 469.325
1325 0 81.1228 13.9665 1133 127.277 652.3 468.987
1326 0 85.1318 15.0473 1281 123.8 652.655 468.699
1327 0 86.0882 13.7069 1180 129.321 651.717 466.992
1328 0 90.1515 14.4424 1302 127.471 651.833 464.773
1329 0 93.1775 14.0914 1313 128.193 651.152 463.19
1330 0 96.1098 14.1921 1364 127.979 651.496 460.272
1331 1 53.1528 12.0784 642 132.393 651.93 482.067
1332 0 54.1366 12.5978 682 130.943 651.362 479.906
1333 0 56.2215 13.4646 757 129.285 652 480.116
1334 0 59.1141 12.8227 758 130.127 652.425 481.665
1335 0 59.1648 13.2849 786 130.589 652.061 478.821
1336 0 61.0335 12.6324 771 131.283 651.501 479.707
1337 0 63.1227 13.45 849 130.475 652.226 477.499
1338 0 65.1722 14.1471 922 128.999 652.182 476.637
1339 0 68.1264 14.5905 994 127.744 651.906 473.796
1340 0 70.1433 14.2138 997 128.743 652.298 473.602
1341 0 72.1066 14.1596 1021 130.062 652.276 472.47
1342 0 74.0984 13.9274 1032 131.819 652.225 473.226
1343 0 76.1281 14.4231 1098 130.679 651.775 471.928
1344 0 78.1848 13.5832 1062 134.994 651.673 469.88
1345 0 80.121 13.8041 1106 133.899 651.967 470.08
1346 0 83.0812 14.9372 1241 131.885 651.705 467.392
1347 0 86.1366 14.6395 1261 132.783 651.881 467.359
1348 0 90.1441 14.976 1350 132.359 652.523 466.844
1349 0 90.153 14.6085 1317 136.371 652.244 463.525
1350 0 94.1507 15.1778 1429 135.378 652.137 461.175
1351 0 95.2456 14.4469 1376 139.626 652.161 460.942
1352 0 100.122 15.2913 1531 137.127 652.346 458.871
1353 0 103.149 14.7941 1526 140.023 652.447 456.14
1354 0 106.136 14.9903 1591 139.574 652.414 454.654
1355 0 113.213 15.016 1700 137.501 652.785 454.401
1356 0 115.188 14.3852 1657 138.531 652.442 452.357
1357 1 63.0279 11.5346 727 139.069 653.067 477.651
1358 0 64.039 11.5086 737 139.491 653.014 478.659
1359 0 68.1346 13.3853 912 135.111 651.65 473.227
1360 0 69.1075 12.8495 888 136.961 651.593 473.041
1361 0 74.1324 13.4894 1000 132.464 650.498 471.473
1362 0 76.1175 14.1492 1077 131.481 650.262 469.619
1363 0 78.1771 12.9705 1014 134.679 650.458 469.74
1364 0 80.1481 13.3128 1067 133.755 650.788 467.992
1365 0 85.1773 13.2195 1126 132.068 650.741 466.21
1366 0 87.1152 12.7418 1110 134.233 650.692 465.475
1367 0 90.1426 13.4565 1213 132.787 650.548 462.627
1368 0 93.2104 13.3354 1243 133.113 650.505 463
1369 0 93.0936 12.3961 1154 138.189 651.424 462.625
1370 0 99.1972 12.3592 1226 135.794 650.739 461.476
1371 0 102.107 13.6327 1392 132.725 650.938 457.343
1372 0 106.089 13.0928 1389 130.037 650.124 456.435
1373 1 55.0176 11.0692 609 118.906 649.417 483.632
1374 0 57.0497 11.5163 657 119.842 649.629 482.233
1375 0 58.1012 11.3767 661 127.281 649.955 479.343
1376 0 61.0936 11.9325 729 124.535 650.022 479.332
1377 0 61.0421 11.0743 676 128.37 649.265 477.633
1378 0 64.0501 12.1936 781 124.183 650.334 476.962
1379 0 67.055 11.9454 801 124.901 650.889 476.542
1380 0 67.0324 10.5621 708 128.614 650.677 476.852
1381 0 72.1214 12.6453 912 123.09 650.576 474.011
1382 0 75.0867 13.0516 980 120.614 650.464 473.679
1383 0 76.3367 12.3663 944 123.336 650.062 472.126
1384 0 80.1285 12.0057 962 123.271 649.608 470.667
1385 0 81.1352 13.003 1055 120.829 649.933 468.801
1386 0 83.1142 12.1159 1007 122.093 649.71 469.393
1387 0 87.0827 11.5178 1003 122.068 650.011 467.304
1388 0 88.2492 12.4194 1096 119.643 650.35 464.099
1389 0 92.122 11.6042 1069 120.928 650.461 464.527
1390 0 94.1607 10.9812 1034 121.679 651.62 464.596
1391 1 49.1919 9.98132 491 115.556 650.059 486.23
1392 0 52.0717 11.4073 594 110.114 649.909 484.162
1393 0 53.0491 10.9521 581 105.828 650.12 483.441
1394 0 55.1822 12.1235 669 103.719 651.003 479.179
1395 0 53.0945 10.2271 543 108.812 652.762 483.335
1396 0 56.0875 9.36037 525 109.444 652.537 483.135
1397 0 59.1181 10.4367 617 105.24 652.373 482.089
1398 0 60.1033 9.61678 578 105.41 652.516 475.704
1399 0 63.1485 10.5149 664 103.584 653.018 479.378
1400 0 63.1439 10.9433 691 103.593 652.182 476.376
1401 0 68.1359 10.9194 744 101.378 651.848 478.056
1402 0 70.0852 11.643 816 101.325 651.81 475.284
1403 0 72.2044 10.775 778 102.649 651.946 475.238
1404 0 74.1934 10.8635 806 103.785 651.72 470.619
1405 0 76.1764 12.2085 930 102.715 651.357 467.416
1406 0 78.1711 11.3213 885 105.453 650.623 468.765
1407 0 81.1336 11.7214 951 106.662 650.473 467.651
1408 0 86.2212 12.004 1035 106.88 650.018 465.886
1409 0 87.1986 11.491 1002 110.341 650.272 462.576
1410 0 89.2321 11.8567 1058 111.325 649.785 459.075
1411 0 93.2175 11.5858 1080 111.887 649.676 455.581
1412 0 96.094 11.4992 1105 113.145 650.46 457.598
1413 1 52.1839 11.0379 576 108.234 650.809 477.215
1414 0 54.2506 11.6128 630 108.333 651.54 476.84
1415 0 56.1426 12.8601 722 111.137 650.003 477.986
1416 0 58.043 12.5597 729 111.359 649.468 478.883
1417 0 59.1026 13.8911 821 108.513 649.628 478.54
1418 0 58.1276 13.1263 763 112.688 649.661 477.562
1419 0 61.1229 13.1047 801 112.669 650.114 476.141
1420 0 64.153 13.2963 853 112.04 650.137 474.3
1421 0 66.0607 13.4725 890 111.496 649.734 474.473
1422 0 69.1818 13.3995 927 111.227 649.813 473.434
1423 0 71.1871 13.5277 963 110.303 649.522 471.843
1424 0 73.1736 14.2674 1044 109.277 650.621 470.111
1425 0 76.2873 13.6458 1041 111.146 651.476 468.806
1426 0 79.3051 13.6183 1080 111.657 651.792 463.856
1427 0 83.3366 16.1154 1343 105.388 652.433 462.14
1428 0 82.3855 14.153 1166 110.357 651.106 461.831
1429 0 86.1843 13.3319 1149 112.427 650.516 458.769
1430 0 87.3004 13.3218 1163 113.831 650.607 455.51
1431 0 89.0674 12.339 1099 116.569 650.647 457.34
1432 0 94.1077 13.7927 1298 113.445 650.906 451.733
1433 0 96.0799 14.4775 1391 110.692 651.766 453.009
1434 0 100.256 12.897 1293 117.143 651.923 450.271
1435 1 51.2253 10.8345 555 114.213 651.685 475.831
1436 0 54.0603 12.2826 664 113.459 651.459 472.815
1437 0 57.2502 12.6288 723 111.716 651.747 473.479
1438 0 57.0485 11.4464 653 107.524 652.052 473.525
1439 0 57.1561 11.4249 653 108.26 652.995 473.204
1440 0 60.0302 10.3615 622 109.22 652.568 473.244
1441 0 62.1244 10.1731 632 111.511 652.53 471.892
1442 0 64.1838 11.8098 758 109.124 651.971 470.772
1443 0 67.1822 13.3964 900 106.42 651.728 469.361
1444 0 69.2185 12.54 868 109.09 651.763 467.415
1445 0 71.1865 12.2355 871 110.992 652.549 466.52
1446 0 75.1757 11.7192 881 111.736 652.62 466.143
1447 0 77.3131 12.3394 954 111.435 651.862 465.105
1448 0 79.088 12.7832 1011 112.898 652.018 462.224
1449 0 79.2221 12.6859 1005 114.538 651.514 461.972
1450 0 83.2535 11.9755 997 117.042 651.212 460.345
1451 0 86.1595 11.8733 1023 118.486 651.406 458.174
1452 0 89.1104 13.2981 1185 115.733 651.991 458.191
1453 0 91.1206 12.1597 1108 119.76 651.328 457.239
1454 0 95.266 12.2709 1169 119.242 650.986 456.322
1455 0 99.0764 12.8487 1273 118.626 651.142 454.229
1456 0 101.231 12.5455 1270 119.396 651.24 454.56
1457 0 105.146 13.2958 1398 119.021 652.148 451.499
1458 0 107.365 13.1234 1409 121.514 651.803 450.791
1459 1 59.1375 12.2596 725 118.09 651.948 477.05
1460 0 60.0602 12.7539 766 122.876 652.995 477.221
1461 0 63.0689 13.7152 865 121.571 652.638 475.808
1462 0 65.0552 14.6491 953 118.566 652.22 472.796
1463 0 67.1572 13.7737 925 121.459 652.149 473.92
1464 0 68.0664 13.2224 900 123.744 652.364 472.687
1465 0 71.1192 13.9484 992 122.399 652.405 471.478
1466 0 74.2161 13.6359 1012 122.84 652.622 469.863
1467 0 75.0988 13.7419 1032 123.371 652.475 469.259
1468 0 78.1129 14.0694 1099 123.929 652.516 467.47
1469 0 81.0855 13.3069 1079 125.698 652.504 466.85
1470 0 82.2133 12.7108 1045 129.979 652.722 465.359
1471 0 85.1269 12.8631 1095 129.194 652.488 462.982
1472 0 90.1452 14.7318 1328 122.844 651.874 460.024
1473 0 90.1571 12.6779 1143 128.991 652.332 460.532
1474 0 96.1996 13.9294 1340 124.184 651.765 459.581
1475 0 99.2045 12.9732 1287 125.538 651.082 461.026
1476 0 99.1065 13.1677 1305 126.793 650.877 456.963
1477 1 56.0998 11.943 670 129.372 650.93 476.873
1478 0 56.0547 12.2916 689 126.464 651.251 476.039
1479 0 59.098 12.3354 729 125.495 651.156 475.586
1480 0 61.0456 13.3998 818 125.735 651.828 476.489
1481 0 65.1462 12.541 817 126.525 651.695 474.807
1482 0 67.1422 13.1363 882 124.228 651.627 473.297
1483 0 71.0926 13.8833 987 121.045 651.467 471.397
1484 0 74.2269 13.8629 1029 120.048 650.884 470.532
1485 0 72.1064 12.5648 906 123.224 650.791 467.981
1486 0 72.0638 12.6832 914 124.372 651.746 464.434
1487 0 79.0704 12.7861 1011 120.76 651.004 466.234
1488 0 82.1179 13.5537 1113 120.245 651.04 461.903
1489 0 84.0513 13.6107 1144 119.638 651.296 462.725
1490 0 87.0539 14.1292 1230 118.067 650.813 459.353
1491 0 89.1319 13.6203 1214 119.492 650.171 458.355
1492 0 91.0664 13.0893 1192 123.526 650 456.227
1493 0 94.0881 14.04 1321 122.191 650.248 456.419
1494 0 98.2343 13.9157 1367 121.511 650.682 454.745
1495 0 103.045 13.8387 1426 115.908 650.365 452.553
1496 0 104.084 14.2289 1481 118.634 650.317 449.818
1497 1 55.0518 10.5719 582 120.287 649.802 476.399
1498 0 55.0702 11.4036 628 119.75 650.065 474.645
1499 0 57.0589 11.5495 659 121.349 649.938 473.49
1500 0 61.0739 12.2638 749 118.292 650.354 472.041
1501 0 60.0183 11.4632 688 121.558 650.387 472.51
1502 0 65.0673 11.4651 746 120.405 649.964 469.964
1503 0 67.0498 12.0806 810 112.394 650.656 469.594
1504 0 68.0402 11.9635 814 115.021 650.162 467.38
1505 0 70.0464 12.2919 861 115.605 651.057 467.574
1506 0 69.1356 12.1066 837 116.409 650.228 467.838
1507 0 72.055 12.5321 903 120.764 651.095 468.173
1508 0 71.126 12.5833 895 121.832 650.496 465.964
1509 0 71.0585 12.7782 908 125.084 650.544 465.629
1510 0 76.054 13.1617 1001 120.95 650.555 465.71
1511 0 80.0776 12.5004 1001 120.119 650.235 464.616
1512 0 82.1152 12.726 1045 119.373 650.607 461.737
1513 0 82.0581 12.7836 1049 119.571 650.179 459.955
1514 0 85.0979 12.3975 1055 120.616 650.077 458.578
1515 0 90.2129 13.2575 1196 116.764 649.902 456.948
1516 0 92.1459 11.8508 1092 120.394 650.328 455.536
1517 1 48.122 9.57982 461 112.421 649.731 479.139
1518 0 51.0982 10.7244 548 109.73 650.14 478.369
1519 0 50.1132 10.6758 535 113.738 649.854 477.31
1520 0 51.0275 10.5825 540 116.5 649.913 475.644
1521 0 56.1005 12.4598 699 110.948 650.288 477.319
1522 0 55.257 10.9488 605 116.792 650.529 474.043
1523 0 57.0461 12.4987 713 114.571 650.247 472.499
1524 0 59.0367 12.8395 758 114.538 650.194 473.335
1525 0 59.0484 12.9216 763 116.3 650.037 473.657
1526 0 63.0466 12.3242 777 116.674 649.739 473.295
1527 0 65.1549 11.9408 778 119.441 649.236 471.871
1528 0 68.0534 12.402 844 119.5 649.546 471.38
1529 0 67.0308 13.0835 877 120.432 649.149 468.883
1530 0 69.0457 12.1079 836 123.764 649.482 467.708
1531 0 72.0392 12.3266 888 122.762 649.55 470.404
1532 0 74.0589 12.9762 961 123.716 649.228 465.343
1533 0 78.1371 12.7084 993 125.362 649.419 465.972
1534 0 78.15 12.2585 958 127.683 649.385 464.286
1535 1 40.0389 11.1142 445 121.081 650.056 483.461
1536 0 42.0954 10.4762 441 132.63 650.884 486.95
1537 0 47.1323 12.7089 599 121.95 651.022 486.865
1538 0 47.0745 11.7048 551 115.267 650.748 487.446
1539 0 49.0824 12.5299 615 113.81 650.66 486.406
1540 0 48.1158 11.7009 563 117.183 650.201 487.217
1541 0 51.1104 12.0915 618 116.231 650.731 485.235
1542 0 51.0845 12.1172 619 117.013 650.958 484.887
1543 0 56.1275 12.3291 692 114.422 650.89 483.14
1544 0 55.1062 10.9062 601 119.824 649.88 483.388
1545 0 59.1079 12.7394 753 114.456 649.875 480.842
1546 0 60.1539 11.6867 703 116.42 651.361 481.137
1547 0 61.0762 11.6248 710 116.835 650.592 481.132
1548 0 63.1853 11.5533 730 117.885 650.521 478.099
1549 0 66.0844 13.7098 906 112.594 649.858 476.603
1550 0 68.0821 11.868 808 116.651 649.772 475.948
1551 0 70.0784 12.9426 907 113.551 649.477 474.636
1552 0 71.0952 11.8855 845 117.325 649.402 473.297
1553 0 73.0833 11.74 858 118.059 649.342 472.8
1554 0 77.1535 12.5853 971 115.277 648.742 471.107
1555 0 80.1462 12.602 1010 115.667 649.461 470.334
1556 0 83.0788 12.3858 1029 115.992 649.652 470.08
1557 0 86.1369 13.0258 1122 114.774 649.369 467.629
1558 0 89.1093 11.6037 1034 117.591 649.57 467.36
1559 1 50.1044 11.4162 572 116.14 649.724 485.719
1560 0 49.048 10.6426 522 117.155 650.669 486.385
1561 0 51.0596 9.81207 501 119.437 649.537 483.886
1562 0 54.0301 11.4381 618 114.231 649.134 482.32
1563 0 55.0563 10.7526 592 115.301 650.986 483.133
1564 0 56.079 11.8048 662 112.44 650.619 481.199
1565 0 59.0731 12.9501 765 110.642 650.046 480.647
1566 0 62.0938 13.238 822 109.788 649.304 480.019
1567 0 64.0797 12.422 796 110.1 650.313 479.943
1568 0 65.0911 12.567 818 110.993 649.839 478.194
1569 0 68.0929 12.5857 857 110.326 650.334 475.063
1570 0 67.0489 13.4678 903 110.627 650.073 476.092
1571 0 70.1653 12.0715 847 114.263 649.813 475.675
1572 0 73.1319 12.3749 905 112.896 649.633 475.948
1573 0 75.0712 12.1485 912 114.086 649.848 472
1574 0 80.0789 11.9507 957 109.36 649.367 469.193
1575 0 81.0898 12.406 1006 109.396 649.686 467.163
1576 0 84.0735 12.0133 1010 110.909 649.619 465.101
1577 0 87.1348 11.9585 1042 112.31 648.432 465.454
1578 1 46.0442 11.2066 516 109.469 648.674 486.895
1579 0 46.2405 11.2888 522 107.456 649.048 484.893
1580 0 49.1458 11.7406 577 109.289 648.676 484.225
1581 0 51.0609 11.3394 579 109.073 648.727 485.261
1582 0 53.0904 11.3015 600 109.758 648.665 483.352
1583 0 54.0876 11.7032 633 109.251 648.224 482.408
1584 0 56.0497 11.5433 647 108.454 648.595 482.558
1585 0 57.0439 12.99 741 107.049 648.714 480.022
1586 0 57.0808 12.9641 740 108.457 648.612 481.122
1587 0 60.0407 11.5089 691 111.427 648.255 480.333
1588 0 61.0699 12.0845 738 111.294 648.603 480.107
1589 0 64.0742 12.9849 832 109.085 649.073 477.54
1590 0 64.0584 11.9266 764 112.923 649.048 476.213
1591 0 67.204 12.5141 841 111.259 649.26 475.375
1592 0 69.1033 12.3873 856 112.297 649.105 474.039
1593 0 73.161 13.0534 955 109.926 648.982 475.239
1594 0 74.0841 12.5938 933 113.018 649.324 472.594
1595 0 77.0904 12.4529 960 113.489 649.091 472.508
1596 0 80.0988 12.522 1003 114.889 649.026 470.473
1597 1 41.1222 11.6482 479 115.666 649.891 489.251
1598 0 44.197 11.494 508 122.136 650.313 484.291
1599 0 42.0693 12.1229 510 122.384 650.327 484.01
1600 0 44.1304 12.6897 560 119.398 649.661 482.239
1601 0 48.1471 12.441 599 121.384 650.508 484.753
1602 0 49.2659 13.8026 680 118.479 649.784 483.941
1603 0 51.0944 12.7803 653 121.498 650.254 483.513
1604 0 51.0702 14.2745 729 118.333 650.538 484.252
1605 0 52.1287 13.5818 708 122.411 650.318 482.479
1606 0 54.1804 13.9165 754 120.649 650.212 481.889
1607 0 55.0858 13.1613 725 122.429 650.168 481.614
1608 0 56.078 12.6431 709 126.671 648.354 480.403
1609 0 58.0646 12.865 747 126.107 648.49 479.675
1610 0 59.056 12.7167 751 126.834 648.292 479.607
1611 0 63.0455 13.7044 864 124.308 648.754 476.855
1612 0 64.0174 12.7778 818 127.032 648.347 478.176
1613 0 67.0282 13.5018 905 124.702 647.935 476.123
1614 0 69.0672 14.3339 990 123.372 648.704 475.368
1615 0 71.1413 14.0846 1002 125.433 648.215 473.455
1616 0 73.0456 13.3478 975 129.111 648.45 472.53
1617 0 76.1886 14.0047 1067 126.615 648.639 473.015
1618 0 78.1371 13.9114 1087 129.109 648.603 470.201
1619 0 79.0804 13.1891 1043 132.732 648.513 468.29
1620 0 82.1562 13.3283 1095 133.205 649.367 467.709
1621 0 85.1645 12.5757 1071 136.99 648.898 466.084
1622 0 88.2631 13.7883 1217 133.334 648.108 467.564
1623 0 92.251 14.1137 1302 133.111 649.666 464.254
1624 0 95.1264 13.8552 1318 135.029 648.855 462.325
1625 1 50.0516 11.648 583 134.758 648.098 482.712
1626 0 54.0929 11.4802 621 134.069 648.734 481.868
1627 0 55.0359 13.3368 734 121.409 649.512 484.031
1628 0 57.0238 13.3278 760 123.17 649.758 482.942
1629 0 59.1513 13.1358 777 122.463 650.816 481.524
1630 0 58.0466 11.9731 695 128.111 650.173 480.587
1631 0 63.0414 13.3722 843 123.535 650.383 479.617
1632 0 65.067 14.0932 917 122.772 649.81 476.795
1633 0 67.086 12.6852 851 127.563 649.626 476.734
1634 0 68.0435 13.0211 886 127.731 650.028 476.81
1635 0 68.0681 12.8548 875 130.047 650.113 475.154
1636 0 73.0403 13.7595 1005 126.269 649.918 474.266
1637 0 75.0472 14.1111 1059 126.376 650.784 473.155
1638 0 78.0955 13.3042 1039 128.666 650.219 473.469
1639 0 81.1237 14.9401 1212 124.167 649.966 470.631
1640 0 81.1453 13.6052 1104 130.678 649.991 470.827
1641 0 85.0998 13.631 1160 131.539 650.047 470.016
1642 0 89.1393 14.539 1296 125.035 650.545 465.789
1643 0 91.1042 13.1169 1195 129.56 650.287 463.543
1644 0 95.1982 12.4477 1185 131.116 650.754 464.091
1645 0 97.1145 12.7066 1234 130.91 650.182 463.36
1646 1 56.0264 12.2085 684 131.314 650.684 483.523
1647 0 59.0496 13.8866 820 125.377 650.271 481.589
1648 0 59.0425 13.1261 775 129.277 650.218 479.55
1649 0 60.1088 13.8582 833 125.469 650.76 479.504
1650 0 62.1826 13.0583 812 127.687 650.565 476.502
1651 0 66.0891 13.2397 875 126.106 649.96 476.733
1652 0 67.1306 13.8834 932 124.698 649.623 475.247
1653 0 68.1008 12.6283 860 128.822 649.917 475.451
1654 0 71.084 12.8299 912 128.146 649.677 473.769
1655 0 75.1254 13.4708 1012 125.61 649.701 471.105
1656 0 77.1815 13.8634 1070 123.671 650.001 470.778
1657 0 79.1344 13.7993 1092 124.645 649.365 469.963
1658 0 81.1705 12.8988 1047 128.379 649.033 466.418
1659 0 83.1209 12.8247 1066 128.808 649.794 464.817
1660 0 91.1587 13.844 1262 123.436 649.472 465.643
1661 0 90.228 11.9586 1079 131.399 649.338 462.743
1662 0 95.1003 12.8496 1222 129.11 649.817 461.382
1663 0 99.2039 12.9531 1285 128.918 650.256 460.53
1664 1 53.2475 12.3574 658 132.631 650.088 479.764
1665 0 55.2959 13.0389 721 132.162 648.92 479.911
1666 0 56.2482 12.5515 706 137.724 648.442 476.428
1667 0 58.093 12.4111 721 137.15 650.155 477.294
1668 0 62.0772 12.7261 790 133.796 650.162 477.425
1669 0 62.0794 13.8693 861 131.722 650.124 474.229
1670 0 64.047 14.099 903 130.416 649.905 473.812
1671 0 65.1016 13.7938 898 127.528 650.144 473.234
1672 0 66.0893 12.9976 859 130.671 649.7 473.624
1673 0 71.0832 14.3212 1018 125.316 649.836 471.942
1674 0 71.0265 13.9666 992 127.093 649.761 469.696
1675 0 73.0485 13.977 1021 126.72 650.138 469.097
1676 0 76.068 13.7114 1043 126.57 650.105 468.692
1677 0 78.0879 13.5616 1059 127.64 650.09 466.822
1678 0 81.0649 13.9641 1132 124.393 650.319 462.993
1679 0 83.0788 12.9877 1079 126.589 650.241 463.709
1680 0 87.1478 14.0566 1225 123.874 650.322 459.184
1681 0 88.0978 13.065 1151 127.182 650.142 459.491
1682 1 44.0858 11.2962 498 124.763 650.062 481.651
1683 0 44.241 10.488 464 128.144 650.263 480.763
1684 0 45.1354 11.7646 531 126.32 649.448 474.382
1685 0 50.316 12.024 605 125.387 649.403 478.311
1686 0 52.1242 12.1441 633 124.111 648.888 477.036
1687 0 53.281 13.4194 715 121.368 648.227 477.6
1688 0 53.2309 12.0419 641 126.877 648.797 476.275
1689 0 57.2513 13.1176 751 122.156 648.068 475.133
1690 0 56.1859 11.4975 646 129.192 648.486 474.409
1691 0 60.0726 12.5015 751 125.377 648.511 472.846
1692 0 61.0514 13.1528 803 126.542 649.848 472.787
1693 0 62.0448 12.2814 762 128.882 650.096 472.787
1694 0 64.0549 13.145 842 126.749 649.594 471.342
1695 0 68.0706 12.8543 875 127.576 649.971 470.518
1696 0 70.0928 12.2552 859 130.624 649.863 467.634
1697 0 71.0674 12.7203 904 130.799 649.832 466.342
1698 0 74.0749 12.7844 947 130.28 650.11 465.441
1699 0 78.0302 13.8921 1084 126.945 650.009 465.731
1700 0 82.1215 13.3704 1098 128.757 649.485 463.706
1701 0 84.089 13.8306 1163 127.657 649.982 461.84
1702 0 87.1057 14.0404 1223 127.538 649.35 461.166
1703 0 91.0945 14.5453 1325 124.774 648.872 458.186
1704 0 92.1056 13.3217 1227 126.352 649.628 456.176
1705 0 92.1724 13.095 1207 128.724 649.225 454.152
1706 0 97.2158 12.3128 1197 129.405 648.582 456.629
1707 0 101.121 11.6296 1176 130.87 648.699 456.656
1708 1 55.0562 10.789 594 127.823 648.645 477.104
1709 0 58.2411 11.2292 654 127.393 649.879 476.424
1710 0 61.1318 12.9556 792 122.432 649.732 475.691
1711 0 63.2084 13.1786 833 122.306 649.289 475.773
1712 0 67.1405 12.6004 846 122.967 649.366 472.819
1713 0 68.1755 13.3919 913 124.15 649.261 473.704
1714 0 73.3566 13.2367 971 122.846 648.743 472.351
1715 0 71.2994 13.0436 930 125.29 648.237 471.18
1716 0 75.2964 12.5637 946 125.411 647.886 470.72
1717 0 77.2902 13.197 1020 124.578 648.417 465.826
1718 0 80.1903 13.1812 1057 123.179 648.114 467.956
1719 0 83.175 12.5038 1040 112.705 649.11 467.604
1720 0 86.1463 13.0011 1120 112.625 648.937 464.883
1721 0 88.173 13.3714 1179 113.048 649.799 464.197
1722 0 92.2351 11.8176 1090 119.064 650.229 463.329
1723 0 95.1631 12.6204 1201 116.891 649.818 462.899
1724 0 97.1236 12.5716 1221 117.835 649.694 461.898
1725 0 100.193 11.4978 1152 122.568 649.939 462.733
1726 0 105.292 11.9857 1262 121.804 649.666 458.402
1727 1 57.1389 11.4458 654 113.573 649.694 477.323
1728 0 58.1739 10.9155 635 116.466 649.4 475.061
1729 0 60.3574 12.4757 753 122.554 648.979 478.74
1730 0 62.1025 13.0913 813 124.01 647.776 476.283
1731 0 64.0748 13.0473 836 125.153 647.561 475.156
1732 0 64.1451 12.2379 785 127.248 648.606 474.651
1733 0 69.0673 12.6109 871 126.431 648.3 473.258
1734 0 71.0404 13.7527 977 123.712 647.934 472.844
1735 0 74.1281 13.3013 986 125.63 647.899 469.842
1736 0 75.1075 15.6309 1174 120.185 647.708 467.378
1737 0 78.0811 13.7677 1075 124.908 648.054 470.211
1738 0 79.086 13.656 1080 127.072 647.899 467.584
1739 0 85.1484 14.0813 1199 123.976 647.849 465.081
1740 0 87.1577 13.8255 1205 125.553 647.488 462.312
1741 0 89.0894 15.2543 1359 122.169 648.121 460.123
1742 0 91.0689 13.9235 1268 126.122 647.638 459.585
1743 0 96.1789 13.8804 1335 126.085 647.117 457.694
1744 0 98.1312 14.8475 1457 124.575 647.988 454.577
1745 0 103.375 15.2067 1572 122.606 648.681 448.302
1746 1 54.1658 10.0617 545 128.739 648.15 474.591
1747 0 56.0439 12.74 714 121.864 647.768 472.007
1748 0 61.0396 14.3841 878 118.072 646.938 476.137
1749 0 59.0203 12.4195 733 126.502 646.872 476.179
1750 0 63.3126 12.4936 791 128.968 648.478 476.862
1751 0 65.4548 13.2763 869 125.793 648.616 477.231
1752 0 67.5074 13.2282 893 127.373 648.49 474.62
1753 0 69.3909 12.7827 887 128.681 649.03 472.414
1754 0 73.3242 13.4062 983 126.381 649.251 473.183
1755 0 74.428 12.4415 926 131.834 648.544 468.927
1756 0 77.566 13.1243 1018 128.321 648.887 467.765
1757 0 78.4921 12.4853 980 129.95 648.174 467.302
1758 0 81.4835 12.5179 1020 130.834 648.778 465.516
1759 0 83.1305 12.0293 1000 120.33 649.054 467.963
1760 0 87.1572 12.2996 1072 121.165 649.329 467.212
1761 0 89.138 11.9926 1069 123.341 649.282 466.701
1762 0 93.1349 12.3369 1149 123.206 649.063 464.113
1763 0 97.2217 12.1372 1180 124.306 649.342 461.007
1764 0 100.315 12.4508 1249 123.635 649.674 459.913
1765 1 57.1497 11.5661 661 117.256 650.248 479.818
1766 0 56.1511 11.2554 632 119.655 650.248 479.166
1767 0 59.1628 11.9332 706 116.701 649.894 482.514
1768 0 63.1221 13.6244 860 121.96 649.593 479.452
1769 0 64.1188 13.7557 882 121.772 649.424 478.08
1770 0 64.2271 12.7049 816 125.993 649.413 477.33
1771 0 66.1786 13.4938 893 124.849 649.848 475.038
1772 0 67.2746 13.7199 923 124.355 650.072 474.052
1773 0 71.1675 13.6158 969 124.043 649.5 473.953
1774 0 72.1865 14.2547 1029 123.369 649.34 471.25
1775 0 73.0446 12.8415 938 127.845 650.308 469.878
1776 0 76.115 13.1643 1002 126.198 649.736 469.602
1777 0 79.0714 14.0127 1108 124.34 650.011 467.692
1778 0 79.1143 13.8028 1092 126.024 650.156 465.827
1779 0 83.1094 13.8372 1150 125.901 649.746 463.657
1780 0 84.032 13.8162 1161 127.746 649.984 459.717
1781 0 89.0844 15.0868 1344 123.013 649.31 460.822
1782 0 90.1327 14.6673 1322 125.099 650.011 458.81
1783 0 93.0961 13.8781 1292 127.682 649.758 458.735
1784 0 94.1041 12.7412 1199 131.973 650.155 454.857
1785 0 98.0993 14.6484 1437 126.115 650.095 455.138
1786 0 102.089 13.6645 1395 129.51 649.77 450.896
1787 0 104.11 14.1484 1473 128.921 648.931 450.272
1788 0 105.145 14.2279 1496 129.528 649.066 449.987
1789 0 108.207 12.9936 1406 132.708 649.405 449.553
1790 0 111.139 13.2537 1473 133.718 648.921 446.733
1791 0 117.108 13.4833 1579 130.797 648.662 449.061
1792 0 118.375 13.4572 1593 134.317 649.261 440.405
1793 1 63.1124 11.8994 751 127.57 648.57 470.551
1794 0 63.12 11.4544 723 131.573 648.286 468.4
1795 0 68.1081 11.7313 799 118.855 649.569 472.516
1796 0 68.0754 11.5901 789 121.345 649.72 471.705
1797 0 70.0504 12.8622 901 119.726 650.219 469.563
1798 0 73.1146 12.542 917 120.674 649.77 469.877
1799 0 73.1689 11.289 826 124.849 650.73 468.801
1800 0 78.1658 12.8957 1008 120.652 649.913 467.258
1801 0 79.0393 12.3483 976 122.958 649.934 467.103
1802 0 84.2234 12.9893 1094 121.314 649.366 464.392
1803 0 85.2715 12.6302 1077 123.633 649.765 463.006
1804 0 88.141 11.7766 1038 123.668 650.507 464.949
1805 0 92.1778 13.3546 1231 120.665 650.316 462.463
1806 0 93.1006 12.3952 1154 124.409 650.58 461.059
1807 0 96.1746 12.7061 1222 123.737 650.739 459.363
1808 0 101.156 13.4842 1364 120.726 650.595 459.495
1809 0 105.215 12.3366 1298 123.696 650.284 459.029
1810 1 58.0619 11.7116 680 115.312 651.309 482.735
1811 0 59.0492 13.5142 798 111.326 651.446 480.335
1812 0 60.1153 12.16 731 113.702 650.915 480.778
1813 0 61.1484 12.0199 735 113.894 650.839 478.91
1814 0 67.0512 12.5576 842 105.914 649.96 476.075
1815 0 67.0754 12.5083 839 107.794 650.246 473.727
1816 0 71.1821 12.2924 875 107.899 650.47 473.891
1817 0 72.0988 12.1916 879 108.059 649.997 473.141
1818 0 73.104 12.0513 881 108.756 650.398 471.993
1819 0 77.1389 12.7951 987 107.965 650.942 471.046
1820 0 81.1573 12.1 982 106.983 650.389 471.965
1821 0 83.0835 13.5526 1126 105.386 650.528 469.576
1822 0 83.1964 11.7794 980 109.717 650.281 468.472
1823 0 87.2686 11.9172 1040 109.412 650.077 467.989
1824 0 91.2262 12.7047 1159 109.649 650.15 467.099
1825 0 94.3527 12.8136 1209 117.822 650.477 463.654
1826 1 47.212 11.586 547 114.548 650.561 486.397
1827 0 48.0766 10.6913 514 116.691 650.56 484.852
1828 0 51.0607 12.73 650 114.728 649.797 479.169
1829 0 53.2532 11.6988 623 115.632 649.579 481.552
1830 0 55.2669 13.5524 749 112.101 649.471 479.053
1831 0 58.0855 12.4816 725 110.977 649.695 481.854
1832 0 60.1138 12.6926 763 108.347 650.054 482.987
1833 0 60.0839 12.7988 769 109.433 649.765 482.748
1834 0 62.099 11.5783 719 113.929 649.504 479.362
1835 0 64.1453 12.4717 800 112.415 649.919 476.391
1836 0 67.0982 12.5786 844 112.543 649.066 477.05
1837 0 70.2492 12.1567 854 113.412 649.547 473.485
1838 0 74.2677 13.7341 1020 110.211 649.127 471.782
1839 0 75.2661 13.2198 995 112.382 648.898 470.033
1840 0 78.0946 13.0355 1018 113.998 648.608 468.856
1841 0 82.1616 14.6784 1206 110.842 648.865 469.958
1842 0 82.1632 13.2298 1087 119.424 649.534 469.425
1843 0 84.2896 13.7265 1157 119.329 649.595 466.997
1844 0 90.2609 13.2616 1197 119.665 649.089 465.232
1845 1 44.0449 11.9878 528 119.612 650.123 487.438
1846 0 46.0931 12.0842 557 119.729 650.086 485.345
1847 0 48.1532 11.6296 560 119.938 650.089 485.493
1848 0 52.0715 13.2318 689 116.39 650.948 482.711
1849 0 52.0951 12.362 644 120.216 650.46 482.211
1850 0 55.1082 13.0471 719 118.104 650.345 481.825
1851 0 55.0461 12.753 702 122.036 649.607 479.792
1852 0 56.0747 12.84 720 123.929 650.068 480.499
1853 0 60.1392 13.1362 790 122.922 649.53 478.556
1854 0 62.1453 12.9857 807 123.436 649.675 476.944
1855 0 64.1987 12.7573 819 124.298 650.253 475.231
1856 0 66.1183 13.5212 894 122.733 649.76 473.638
1857 0 68.1088 13.5812 925 122.902 649.384 473.296
1858 0 70.2984 13.3431 938 123.729 649.49 471.28
1859 0 75.1717 13.3428 1003 121.938 649.898 471.345
1860 0 76.2741 13.0188 993 123.69 649.723 469.94
1861 0 79.1768 13.1983 1045 123.963 649.433 469.45
1862 0 82.1857 12.7638 1049 125.855 649.508 466.774
1863 0 86.1435 13.5936 1171 123.02 649.728 465.625
1864 0 90.1806 13.5173 1219 122.605 649.886 465.993
1865 0 93.1626 14.845 1383 119.565 650.412 463.746
1866 0 95.186 14.2668 1358 122.493 649.521 460.335
1867 0 98.1476 13.0212 1278 125.012 649.736 462.317
1868 1 52.1525 12.2142 637 120.35 649.556 482.427
1869 0 54.1305 11.8787 643 122.342 649.036 478.95
1870 0 52.1484 11.87 619 125.163 648.698 477.517
1871 0 56.0832 11.8217 663 123.891 648.726 475.636
1872 0 57.1599 12.0014 686 123.28 649.208 473.745
1873 0 59.0459 11.5165 680 124.281 648.729 473.878
1874 0 63.1553 13.5697 857 119.513 648.918 475.266
1875 0 64.1009 12.3555 792 124.271 648.807 474.4
1876 0 65.1267 13.0975 853 124.252 648.925 473.71
1877 0 68.2472 13.3339 910 123.129 648.51 472.818
1878 0 72.2602 13.742 993 121.763 649.174 472.105
1879 0 75.2647 14.4822 1090 120.614 648.619 468.887
1880 0 74.1893 13.4116 995 125.341 648.673 468.221
1881 0 76.2906 12.9898 991 127.46 648.339 466.456
1882 0 82.2746 13.8803 1142 123.036 648.481 466.965
1883 0 83.3235 13.4896 1124 126.849 648.395 462.705
1884 0 86.2353 13.4168 1157 126.606 648.934 464.603
1885 0 89.2612 13.3541 1192 128.045 648.726 461.674
1886 0 92.3557 13.7295 1268 127.341 648.627 460.263
1887 0 94.1685 12.3714 1165 131.243 649.033 460.784
1888 0 99.2859 13.5065 1341 127.639 648.301 458.444
1889 0 103.191 12.724 1313 129.923 648.4 458.299
1890 1 53.064 12.5886 668 122.822 649.594 482.502
1891 0 55.1724 12.5063 690 129.449 649.58 481.048
1892 0 57.1141 13.1316 750 120.503 649.665 481.08
1893 0 60.1432 12.7196 765 121.22 649.405 480.431
1894 0 60.1797 13.0775 787 121.839 649.555 479.155
1895 0 64.1273 13.8163 886 119.37 650.432 477.023
1896 0 64.0756 13.6713 876 121.41 649.908 475.866
1897 0 66.0911 11.696 773 126.669 649.539 475.612
1898 0 70.0825 12.2855 861 124.134 650.221 472.983
1899 0 73.1142 12.8156 937 122.139 650.171 474.272
1900 0 76.1316 13.3322 1015 121.036 649.814 472.217
1901 0 77.1348 13.444 1037 122.206 649.483 470.279
1902 0 79.1048 12.6162 998 124.188 649.564 469.952
1903 0 83.0608 13.9657 1160 121.385 649.161 467.215
1904 0 84.0919 13.7706 1158 123.177 649.84 466.245
1905 0 89.1406 13.316 1187 123.399 649.83 465.785
1906 0 91.0895 14.0411 1279 121.909 649.574 463.914
1907 0 93.1431 13.5383 1261 124.737 649.58 460.696
1908 0 98.0892 14.5378 1426 121.198 649.954 461.365
1909 0 101.092 13.9081 1406 123.363 650.278 458.329
1910 0 105.12 13.1373 1381 124.497 650.061 458.695
1911 0 108.1 13.9593 1509 123.362 649.404 455.013
1912 0 113.128 11.4473 1295 129.012 649.707 453.334
1913 1 60.0145 11.9804 719 124.127 648.897 478.595
1914 0 61.0272 11.3064 690 125.99 650.303 478.912
1915 0 67.0298 12.5467 841 122.945 649.484 474.801
1916 0 67.0794 12.0603 809 127.761 649.185 471.792
1917 0 68.0716 11.576 788 130.689 649.129 470.339
1918 0 73.1098 13.6097 995 123.946 649.239 469.967
1919 0 74.1135 12.8317 951 127.404 648.846 469.117
1920 0 75.2293 12.6945 955 130.999 649.613 468.397
1921 0 76.2679 13.2035 1007 131.076 649.41 468.496
1922 0 81.1119 13.1054 1063 131.074 649.149 466.344
1923 0 82.1116 13.4817 1107 130.717 649.641 465.094
1924 0 85.0748 12.7182 1082 133.433 649.546 464.291
1925 0 87.07 13.9084 1211 132.017 649.257 461.123
1926 0 89.1324 13.5529 1208 133.583 649.343 460.81
1927 0 91.128 13.1463 1198 135.502 649.472 458.684
1928 0 96.0979 14.2251 1367 131.38 649.928 459.002
1929 0 99.1256 14.6683 1454 129.553 649.624 457.106
1930 0 102.141 14.3233 1463 131.582 649.354 456.647
1931 0 106.202 14.7078 1562 132.383 649.4 453.216
1932 0 108.195 14.4183 1560 136.451 649.619 452.887
1933 1 58.215 11.4232 665 136.758 649.83 473.026
1934 0 59.1973 11.3856 674 134.375 649.958 467.647
1935 0 64.139 10.8982 699 121.617 650.182 473.21
1936 0 64.3109 11.802 759 120.142 650.117 470.725
1937 0 68.1209 12.654 862 118.218 650.191 471.182
1938 0 67.1019 10.9684 736 125.035 649.902 470.295
1939 0 70.1664 12.0428 845 123.718 649.276 467.367
1940 0 73.1366 12.757 933 121.691 649.531 469.135
1941 0 74.2041 13.1799 978 122.611 649.248 467.6
1942 0 76.3033 12.0571 920 128.003 649.372 466.011
1943 0 79.1343 12.8516 1017 127.095 649.264 464.868
1944 0 81.0869 12.4558 1010 128.862 649.868 465.015
1945 0 85.0777 13.1057 1115 127.828 649.819 462.563
1946 0 88.0673 12.5813 1108 130.384 650.104 461.449
1947 0 89.1827 13.2313 1180 130.95 649.949 458.766
1948 0 93.2072 13.0033 1212 133.221 649.897 456.952
1949 0 96.2341 12.719 1224 134.619 648.856 457.214
1950 0 100.187 13.874 1390 131.832 648.434 453.38
1951 0 104.231 13.8538 1444 131.818 649.127 450.365
1952 1 58.2017 11.4945 669 128.943 649.333 474.296
1953 0 59.1415 12.4785 738 133.56 648.102 476.309
1954 0 62.0884 11.838 735 134.093 649.075 477.81
1955 0 63.2474 13.6923 866 128.592 649.704 476.038
1956 0 65.1344 12.0674 786 133.719 650.337 474.541
1957 0 67.1196 13.1556 883 128.95 650.931 472.894
1958 0 69.1116 12.5739 869 131.229 651.072 472.231
1959 0 72.0632 13.7102 988 128.355 650.182 472.432
1960 0 75.099 13.3424 1002 128.999 650.079 470.029
1961 0 78.0921 13.5353 1057 128.946 650.122 469.696
1962 0 81.1223 14.9527 1213 124.082 649.876 467.826
1963 0 80.1538 12.2764 984 134.052 649.988 468.097
1964 0 85.0894 13.4094 1141 131.81 649.59 464.641
1965 0 89.2192 13.3155 1188 132.34 649.384 461.854
1966 0 90.1605 12.7329 1148 134.065 649.959 461.303
1967 0 93.2562 12.8892 1202 134.059 649.586 460.552
1968 0 98.2756 13.7878 1355 131.786 649.579 459.295
1969 1 53.219 12.6459 673 131.572 649.522 479.605
1970 0 55.169 11.9995 662 133.056 649.683 479.443
1971 0 56.0229 13.3517 748 131.925 651.075 477.156
1972 0 59.0796 12.4578 736 132.624 650.989 474.768
1973 0 61.1008 13.715 838 128.672 651.094 474.246
1974 0 63.1461 13.7776 870 127.756 650.793 473.121
1975 0 65.3706 12.7121 831 130.954 649.907 471.703
1976 0 68.2639 13.8873 948 124.912 649.128 473.028
1977 0 69.1204 13.7875 953 126.25 649.23 473.107
1978 0 75.3498 14.9967 1130 120.842 649.602 470.264
1979 0 76.2594 14.8441 1132 122.337 650.045 465.948
1980 0 78.2703 14.0283 1098 124.529 650.373 463.976
1981 0 79.1042 13.5517 1072 125.353 648.977 464.882
1982 0 84.0836 14.1288 1188 121.762 649.028 465.299
1983 0 86.0748 14.6152 1258 120.409 648.848 462.146
1984 0 86.061 13.5137 1163 123.962 648.292 459.883
1985 0 90.1374 13.3463 1203 123.638 648.346 460.386
1986 0 93.059 14.5821 1357 120.016 648.542 457.072
1987 0 95.2416 13.576 1293 122.81 648.554 455.125
1988 0 98.0794 13.4381 1318 123.087 648.559 453.787
1989 1 51.1089 10.4287 533 125.957 649.816 474.959
1990 0 54.1607 12.3152 667 120.729 650.036 474.008
1991 0 55.0627 12.168 670 122.043 649.506 473.055
1992 0 55.1303 10.8833 600 128.06 649.333 471.107
1993 0 59.0579 12.039 711 124.533 649.391 469.774
1994 0 62.148 12.1162 753 123.159 649.475 469.437
1995 0 64.0652 12.3624 792 121.681 649.794 469.628
1996 0 65.0704 12.279 799 124.05 649.258 467.13
1997 0 69.1345 13.2351 915 121.087 649.076 466.987
1998 0 74.1016 13.3735 991 118.698 649.698 465.341
1999 0 75.0883 12.3721 929 123.175 649.957 463.771
2000 0 79.081 12.2533 969 123.359 649.928 462.89
2001 0 80.0614 13.3522 1069 121.449 649.678 462.295
2002 0 83.1225 14.7734 1228 117.756 649.98 461.003
2003 0 84.1135 12.5307 1054 125.25 649.793 458.421
2004 0 89.1369 14.0795 1255 121.16 648.916 457.758
2005 0 90.1654 13.0649 1178 125.752 649.387 456.821
2006 0 93.0832 13.0206 1212 126.033 648.389 455.238
2007 0 95.1565 12.3481 1175 128.957 648.965 453.392
2008 0 100.147 12.931 1295 128.038 649.001 449.173
2009 0 101.088 11.95 1208 123.95 650.041 449.792
2010 0 106.19 12.4306 1320 125.202 649.394 450.13
2011 0 109.139 13.13 1433 123.712 649.166 446.989
2012 0 109.121 11.4093 1245 128.773 649.786 442.607
2013 0 117.139 11.1918 1311 127.201 649.52 441.448
2014 1 69.1346 11.3691 786 119.728 649.314 466.215
2015 0 73.0984 12.5174 915 120.307 648.731 469.122
2016 0 71.1256 10.6853 760 124.414 648.42 470.664
2017 0 75.1383 12.2175 918 121.423 649.118 468.175
2018 0 80.1833 11.9726 960 121.896 648.49 467.015
2019 0 82.1437 11.3095 929 124.367 648.341 466.675
2020 0 85.2066 11.5249 982 123.197 647.834 468.015
2021 0 88.0643 12.3433 1087 125.282 647.934 461.125
2022 0 92.1111 12.0507 1110 126.175 647.418 460.704
2023 0 96.0855 13.3423 1282 123.041 647.537 459.757
2024 0 101.113 13.2327 1338 123.062 648.262 459.643
2025 0 101.216 12.1918 1234 129.006 648.272 457.02
2026 0 104.25 13.4005 1397 125.426 648.163 453.563
2027 0 108.15 13.4073 1450 124.69 648.016 453.366
2028 0 111.175 13.0965 1456 126.226 648.582 452.251
2029 0 116.291 14.0251 1631 123.842 649.031 450.556
2030 0 121.595 13.9644 1698 125.097 648.968 446.451
2031 0 123.393 13.3476 1647 127.135 648.695 446.335
2032 0 128.384 13.2804 1705 129.726 648.406 439.198
2033 0 134.472 14.9622 2012 124.616 648.416 439.814
2034 1 70.1353 11.2497 789 121.887 648.169 473.077
2035 0 71.1626 11.1716 795 122.343 649.049 470.003
2036 0 78.0583 12.8237 1001 117.088 647.232 466.069
2037 0 78.1672 12.2174 955 120.265 647.509 469.517
2038 0 80.2287 11.9035 955 122.864 648.351 467.087
2039 0 81.1721 11.4448 929 126.793 648.656 465.096
2040 0 85.1888 13.3234 1135 122.169 648.882 465.515
2041 0 86.1594 13.1849 1136 124.616 649.047 462.726
2042 0 88.1668 13.4971 1190 123.391 648.735 464.45
2043 0 92.2348 12.9669 1196 126.094 648.569 459.686
2044 0 93.1635 13.1704 1227 127.982 648.089 458.756
2045 0 97.3101 13.2566 1290 126.46 647.791 461.379
2046 0 98.1165 13.2598 1301 128.346 647.839 460.022
2047 0 103.232 14.1332 1459 127.107 648.404 457.756
2048 0 105.251 14.7361 1551 126.327 648.192 455.511
2049 0 107.208 13.2173 1417 131.115 649.037 453.859
2050 0 111.361 14.3587 1599 128.91 648.74 451.595
2051 0 112.296 12.0575 1354 136.323 648.956 449.505
2052 0 118.566 13.0645 1549 132.657 648.703 446.606
2053 0 121.574 12.7741 1553 135.144 649.342 443.932
2054 0 122.174 11.238 1373 129.829 649.35 442.828
2055 1 67.1093 11.1311 747 120.347 649.157 473.906
2056 0 68.267 12.3046 840 121.601 648.831 473.743
2057 0 72.1232 11.5081 830 115.606 649.869 471.137
2058 0 73.1001 11.7921 862 115.499 649.458 469.181
2059 0 74.1094 11.8473 878 116.075 649.515 469.409
2060 0 78.16 12.129 948 115.068 649.457 467.922
2061 0 78.1389 10.9549 856 120.194 649.835 467.189
2062 0 82.1378 12.7712 1049 116.522 650.178 465.864
2063 0 84.119 12.7914 1076 114.099 649.833 460.657
2064 0 88.1634 12.1366 1070 114.664 649.955 462.294
2065 0 90.1283 12.2714 1106 115.111 650.051 460.719
2066 0 91.1395 11.2136 1022 118.68 649.383 458.022
2067 0 94.1748 13.2413 1247 113.791 648.904 458.448
2068 0 99.1837 12.2399 1214 116.091 648.604 455.696
2069 0 102.189 12.6041 1288 116.384 647.989 455.253
2070 0 104.087 12.5375 1305 116.629 648.333 453.251
2071 1 55.0919 10.7094 590 119.802 647.973 478.246
2072 0 61.1891 12.2898 752 121.166 648.154 477.072
2073 0 63.1362 12.7027 802 114.938 648.18 475.883
2074 0 63.1033 11.3306 715 114.947 648.227 476.759
2075 0 65.1293 12.36 805 113.022 648.742 475.107
2076 0 66.1419 12.1557 804 113.643 648.646 472.376
2077 0 68.1004 11.9089 811 114.146 648.026 471.97
2078 0 71.1562 12.1564 865 112.822 647.4 470.354
2079 0 75.0959 13.2897 998 110.327 647.837 468.85
2080 0 76.0988 13.5482 1031 110.451 647.932 468.712
2081 0 79.1855 12.5023 990 112.136 647.906 469.942
2082 0 80.1695 14.1201 1132 109.964 647.797 467.444
2083 0 81.1542 12.6672 1028 113.926 648.126 465.684
2084 0 84.1086 12.4482 1047 116.522 648.02 463.244
2085 0 88.2143 13.5012 1191 113.572 648.33 463.567
2086 0 90.1297 13.8245 1246 113.857 647.628 463.979
2087 0 92.13 12.5583 1157 118.087 647.935 462.334
2088 0 94.2538 13.8562 1306 116.355 647.872 458.29
2089 0 98.1305 13.2171 1297 117.81 648.452 458.259
2090 0 99.1256 14.3656 1424 119.572 648.387 456.483
2091 0 102.153 14.0182 1432 120.908 647.98 457.748
2092 0 106.14 13.9816 1484 123.151 648.106 453.446
2093 0 111.28 14.6477 1630 120.239 648.191 452.532
2094 0 113.17 14.8626 1682 120.566 649.027 451.591
2095 1 60.1207 10.9613 659 125.959 649.991 473.068
2096 0 64.3133 11.6772 751 124.718 649.061 471.15
2097 0 63.1182 11.7082 739 126.332 650.65 467.005
2098 0 68.1053 11.9374 813 124.654 649.312 467.599
2099 0 72.2616 12.7869 924 120.487 648.913 467.964
2100 0 72.1967 12.2443 884 124.451 647.919 465.317
2101 0 76.2484 11.4101 870 121.261 648.359 462.493
2102 0 79.3092 12.0289 954 120.513 648.336 463.418
2103 0 81.1958 12.6361 1026 119.477 648.2 463.528
2104 0 83.2497 12.2283 1018 118.575 648.156 467.071
2105 0 86.158 11.9896 1033 119.614 647.914 463.851
2106 0 91.1715 12.2078 1113 118.505 648.17 462.24
2107 0 94.1156 12.134 1142 119.623 647.838 459.765
2108 0 95.1362 12.2982 1170 119.99 648.102 458.147
2109 0 98.0918 12.315 1208 118.7 648.363 459.107
2110 0 102.268 12.9757 1327 117.436 648.295 453.2
2111 0 101.267 13.025 1319 146.191 648.298 453.086
2112 0 108.218 12.1145 1311 119.802 647.838 452.307
2113 0 110.19 12.2788 1353 119.771 648.116 446.812
2114 0 117.257 12.059 1414 119.48 648.18 445.399
2115 1 66.1254 11.6597 771 111.676 648.37 472.864
2116 0 66.2956 11.4487 759 115.773 647.91 469.647
2117 0 65.1342 10.9159 711 115.585 648.53 466.236
2118 0 68.1188 11.0102 750 114.477 649.005 464.716
2119 0 73.0507 12.3887 905 111.011 648.329 464.625
2120 0 74.0704 11.5296 854 114.004 648.365 461.906
2121 0 77.2166 12.0181 928 112.164 648.992 460.003
2122 0 80.234 11.8778 953 113.042 649.104 460.31
2123 0 81.1808 11.6037 942 113.579 649.168 459.36
2124 0 82.1941 11.4485 941 114.825 649.566 457.989
2125 0 88.0897 11.5791 1020 114.819 649.243 454.954
2126 0 90.1853 12.6739 1143 113.686 648.519 453.626
2127 0 95.0845 12.2102 1161 116.302 648.974 452.872
2128 0 97.3503 12.3369 1201 118.186 649.11 450.42
2129 0 97.1322 10.9438 1063 123.062 648.952 448.747
2130 0 105.168 12.9602 1363 125.605 647.466 456.454
2131 1 57.0976 11.4015 651 122.27 647.02 477.882
2132 0 59.1129 11.7233 693 120.612 646.945 477.543
2133 0 59.0812 10.7479 635 118.343 647.622 476.31
2134 0 64.0638 11.7851 755 116.84 649.356 461.507
2135 0 64.1404 11.1942 718 117.852 650 470.656
2136 0 69.1813 12.4456 861 113.878 649.862 468.873
2137 0 69.1832 11.9971 830 115.046 649.729 471.11
2138 0 71.2516 12.7015 905 114.18 650.093 469.453
2139 0 75.1188 12.6466 950 114.774 649.72 467.043
2140 0 77.2008 13.6268 1052 112.214 649.747 468.674
2141 0 79.142 12.6229 999 115.676 647.86 466.782
2142 0 82.2302 12.7812 1051 123.806 647.868 465.373
2143 0 87.2267 12.6567 1104 122.976 647.883 464.556
2144 0 88.1688 13.3381 1176 122.499 647.771 464.055
2145 0 92.209 13.9683 1288 121.668 647.717 461.015
2146 0 94.2887 14.1162 1331 122.469 648.085 459.491
2147 0 96.3951 12.511 1206 127.201 647.141 458.736
2148 0 98.3026 13.8857 1365 125.434 647.62 455.718
2149 0 102.37 14.0275 1436 125.892 647.396 454.821
2150 0 103.337 13.7027 1416 128.822 647.585 450.888
2151 0 109.5 13.6073 1490 127.709 647.684 451.646
2152 0 112.499 14.0535 1581 127.311 648.178 449.653
2153 0 115.182 12.6062 1452 126.76 648.282 447.939
2154 1 68.0832 11.1481 759 114.466 648.917 473.339
2155 0 69.0641 12.5536 867 114.809 648.343 471.632
2156 0 71.1404 12.3137 876 112.306 649.168 470.314
2157 0 75.1056 11.6369 874 113.516 648.839 470.576
2158 0 76.1662 12.2101 930 112.886 649.326 466.854
2159 0 78.1331 10.9941 859 115.768 649.116 468.918
2160 0 82.0922 12.7174 1044 112.21 648.488 465.594
2161 0 84.0693 11.1337 936 115.904 648.063 465.468
2162 0 86.1131 11.8681 1022 115.591 648.16 464.907
2163 0 89.1972 12.1753 1086 115.095 648.378 463.519
2164 0 93.1127 11.9533 1113 114.231 649.06 460.942
2165 0 97.2232 12.569 1222 112.326 648.657 459.425
2166 0 98.2213 12.4006 1218 113.796 648.124 457.138
2167 0 103.422 12.2025 1262 114.724 648.21 455.492
2168 0 107.117 12.239 1311 119.551 648.537 453.632
2169 0 109.124 11.629 1269 123.582 648.363 453.481
2170 0 115.081 12.1393 1397 121.924 648.466 452.243
2171 0 119.059 13.4219 1598 118.682 648.34 449.287
2172 1 65.3025 10.1374 662 112.184 646.749 475.278
2173 0 66.2097 10.4214 690 112.507 647.262 473.139
2174 0 69.1642 11.8125 817 109.7 646.995 471.532
2175 0 71.1298 11.008 783 111.605 647.382 471.604
2176 0 73.2382 12.6573 927 107.655 647.298 469.753
2177 0 74.2348 11.6926 868 111.281 647.568 467.838
2178 0 77.1404 11.7967 910 111.633 647.488 467.292
2179 0 80.2117 12.1678 976 110.995 647.532 466.97
2180 0 80.1726 11.2382 901 113.832 647.456 466.044
2181 0 84.1944 12.5068 1053 110.41 647.673 466.668
2182 0 85.1899 10.8464 924 116.19 647.787 462.1
2183 0 89.2044 11.7931 1052 115.099 647.466 459.647
2184 0 91.1348 10.9728 1000 117.019 646.843 461.317
2185 0 95.1992 11.9644 1139 114.778 647.831 461.415
2186 0 97.1601 11.5377 1121 117.284 647.995 458.795
2187 0 100.078 11.571 1158 117.864 648.168 456.759
2188 0 104.226 12.9239 1347 114.405 648.595 455.363
2189 0 108.357 13.1418 1424 115.147 648.622 454.908
2190 0 110.174 13.4061 1477 115.312 649.416 453.291
2191 0 113.252 12.7768 1447 117.494 649.001 449.25
2192 0 116.231 12.7075 1477 118.674 648.588 448.93
2193 0 120.322 12.6078 1517 118.562 648.798 450.26
2194 0 122.45 11.5884 1419 122.168 649.051 447.344
2195 0 128.233 12.1263 1555 119.616 649.135 446.919
2196 0 133.452 11.9518 1595 121.345 648.097 440.81
2197 0 137.332 11.3084 1553 122.453 648.23 441.569
2198 0 141.226 13.0075 1837 119.518 648.003 435.82
2199 0 145.29 11.4943 1670 122.804 647.819 438.549
2200 0 149.215 12.1703 1816 122.175 648.349 434.398
2201 0 154.335 11.4945 1774 124.676 648.365 428.994
2202 0 159.237 12.3589 1968 123.166 648.729 427.495
2203 0 165.296 11.3856 1882 126.236 648.159 425.418
2204 0 172.222 12.42 2139 121.953 647.325 425.816
2205 0 176.248 12.6413 2228 123.539 647.476 418.894
2206 0 183.269 13.341 2445 121.878 647.428 416.251
2207 0 188.294 12.8257 2415 123.663 647.089 413.528
2208 0 194.215 13.0217 2529 123.671 647.307 410.315
2209 0 198.319 12.3034 2440 125.703 647.3 410.892
2210 0 203.394 12.6061 2564 126.836 647.117 405.239
2211 0 204.3 11.3118 2311 129.306 647.289 409.822
2212 1 216.335 12.4021 2683 128.922 646.749 401.562
2213 0 221.317 12.3669 2737 129.928 647.213 397.503
2214 0 233.62 13.1196 3065 125.89 647.181 398.176
2215 0 239.774 12.7412 3055 128.894 647.353 392.211
2216 0 249.683 13.6253 3402 126.813 647.944 386.024
2217 0 256.512 12.7285 3265 129.107 648.003 382.887
2218 1 200.693 11.6098 2330 128.058 648.482 406.715
2219 0 207.575 12.4678 2588 129.708 647.839 397.787
2220 1 59.3148 8.76679 520 113.771 649.608 476.375
2221 0 62.1928 10.982 683 112.789 646.208 475.679
2222 0 64.0921 11.6239 745 109.165 646.534 475.952
2223 0 63.0559 8.91272 562 106.801 649.73 479.254
2224 1 240.518 12.9096 3105 129.543 647.399 384.247
2225 0 248.578 12.318 3062 131.642 647.502 377.279
2226 0 256.636 13.4042 3440 129.599 648.028 373.262
2227 0 263.521 12.7808 3368 130.648 647.419 370.681
2228 0 273.565 12.9402 3540 131.102 647.591 365.319
2229 1 141.282 7.33285 1036 118.253 648.039 452.715
2230 0 140.386 9.92263 1393 114.169 647.622 438.784
2231 0 139.342 8.87028 1236 119.016 647.599 443.287
2232 1 79.1014 8.63448 683 115.974 648.732 471.631
2233 0 83.1482 10.9203 908 107.983 649.009 466.41
2234 0 83.1482 10.8722 904 120.803 651.007 466.358
2235 0 85.0993 10.2234 870 110.848 649.06 465.54
2236 0 88.2202 10.1564 896 112.658 648.766 463.785
2237 0 90.0761 9.7251 876 118.444 648.637 468.416
2238 0 88.1965 11.5651 1020 115.7 649.402 466.46
2239 0 89.078 10.4515 931 118.401 648.947 466.351
2240 0 91.2738 11.1971 1022 114.856 648.345 461.515
2241 0 91.1529 11.2668 1027 115.721 647.491 462.648
2242 0 92.1276 10.8545 1000 120.387 648.955 463.15
2243 1 109.326 18.1018 1979 91.7044 649.002 449.645
2244 0 104.426 15.408 1609 101.428 648.799 453.332
2245 0 101.168 14.4315 1460 106.012 648.101 454.003
2246 0 103.204 15.542 1604 103.924 648.574 456.333
2247 0 102.19 15.8528 1620 104.135 648.838 452.949
2248 0 101.117 13.3608 1351 111.448 648.91 459.916
2249 0 101.244 13.0675 1323 112.9 649.062 457.724
2250 0 102.13 12.7386 1301 113.002 648.717 458.699
2251 0 103.327 13.946 1441 109.699 649.061 458.04
2252 0 103.12 12.2575 1264 115.206 648.659 455.743
2253 0 103.196 12.9171 1333 113.767 648.57 454.168
2254 0 104.195 12.3903 1291 114.861 648.383 456.256
2255 0 104.235 12.6924 1323 111.887 647.924 448.539
2256 0 101.198 12.273 1242 114.408 647.961 450.042
2257 0 104.241 12.4999 1303 112.422 648.072 449.382
2258 0 106.228 11.9837 1273 113.925 647.937 452.549
2259 0 105.382 11.1025 1170 117.264 648.226 451.269
2260 0 106.133 12.1357 1288 113.385 648.302 454.367
2261 0 107.194 12.3328 1322 111.433 648.129 454.301
2262 0 107.217 11.3415 1216 113.742 648.232 454.423
2263 0 110.246 11.556 1274 113.247 648.111 455.867
2264 0 107.242 12.1034 1298 114.446 647.982 455.159
2265 0 106.211 11.7972 1253 115.402 647.773 457.492
2266 0 106.127 11.6747 1239 115.971 647.05 456.346
2267 0 106.216 11.1941 1189 116.496 646.559 456.699
2268 0 107.273 12.5474 1346 113.197 646.152 459.23
2269 0 109.206 11.8858 1298 114.464 645.119 463.679
2270 0 104.121 10.1132 1053 120.08 646.295 472.005
2271 0 105.143 11.4701 1206 116.891 646 468.352
2272 0 107.102 11.335 1214 116.892 646.091 466.344
2273 0 106.156 10.4281 1107 118.191 645.434 468.272
2274 0 108.126 10.5248 1138 118.789 645.131 469.465
2275 0 107.095 10.3553 1109 118.179 644.61 471.665
2276 0 107.112 11.8474 1269 116.563 644.318 466.711
2277 0 107.143 10.9853 1177 118.153 643.952 465.748
2278 0 107.134 11.6396 1247 116.318 643.665 467.739
2279 0 106.126 10.007 1062 119.604 643.703 465.967
2280 0 107.141 11.7042 1254 115.348 643.615 464.194
2281 0 108.127 10.6357 1150 116.861 643.025 465.276
2282 0 109.174 11.4862 1254 114.919 643.069 465.896
2283 0 109.141 12.7816 1395 111.34 642.76 464.276
2284 0 111.163 12.2792 1365 111.653 642.807 465.538
2285 0 111.109 11.5202 1280 113.934 642.973 461.854
2286 0 111.099 11.1252 1236 113.743 642.994 464.677
2287 0 111.165 10.8758 1209 113.256 642.604 461.728
2288 0 112.203 11.0425 1239 111.598 641.636 465.22
2289 0 111.112 10.3409 1149 112.644 641.986 467.127
2290 0 113.213 11.739 1329 109.643 642.673 465.787
2291 0 114.121 11.8296 1350 107.512 642.484 468.836
2292 0 113.256 11.8051 1337 108.403 641.987 456.672
2293 0 114.221 11.7929 1347 108.21 642.872 457.671
2294 0 111.072 9.82246 1091 115.517 642.501 457.734
2295 0 115.196 11.4501 1319 115.069 642.362 459.426
2296 0 114.223 11.4338 1306 114.493 642.943 458.909
2297 0 115.205 11.9613 1378 111.303 643.511 463.496
2298 0 115.149 11.2637 1297 113.126 642.948 462.631
2299 0 116.285 12.005 1396 111.122 642.908 459.429
2300 0 116.203 11.4627 1332 112.632 642.708 455.308
2301 0 113.128 12.0307 1361 111.151 642.598 454.246
2302 0 111.165 11.5594 1285 112.577 642.567 457.238
2303 0 117.235 11.7115 1373 108.723 642.434 461.511
2304 0 112.093 10.75 1205 113.79 642.037 455.396
2305 0 113.161 12.6634 1433 108.555 642.756 458.527
2306 0 113.217 12.816 1451 108.195 642.648 456.669
2307 0 112.186 12.4436 1396 110.069 642.516 454.347
2308 0 114.155 11.2391 1283 111.564 641.86 454.638
2309 0 114.141 11.5296 1316 110.601 641.631 454.951
2310 0 115.154 11.7929 1358 109.669 641.114 455.703
2311 0 114.156 11.8347 1351 109.817 640.917 454.943
2312 0 118.195 13.1393 1553 104.661 641.245 458.46
2313 0 117.125 12.0811 1415 106.758 641.794 457.731
2314 0 117.201 12.3036 1442 106.144 641.334 457.684
2315 0 118.267 11.8461 1401 106.251 641.354 453.448
2316 0 118.138 11.9775 1415 105.235 641.14 459.688
2317 0 116.249 11.7421 1365 107.022 641.347 457.864
2318 0 119.184 11.8976 1418 103.237 641.439 454.947
2319 0 116.175 12.4123 1442 103.62 641.648 455.681
2320 0 118.258 13.6227 1611 109.642 641.688 458.496
2321 0 121.25 13.4103 1626 108.918 641.472 459.14
2322 0 120.166 13.1818 1584 110.181 642.095 459.294
2323 0 119.111 13.2733 1581 111.15 642.146 459.638
2324 0 116.28 13.1665 1531 112.54 642.196 458.62
2325 0 119.14 12.2377 1458 113.787 642.494 459.671
2326 0 116.148 11.5628 1343 116.494 642.886 458.979
2327 0 115.202 12.8991 1486 113.468 642.058 457.592
2328 0 118.122 12.6818 1498 113.24 641.969 456.504
2329 0 118.172 12.6765 1498 111.903 641.343 459.516
2330 0 117.12 12.8842 1509 110.543 641.354 459.843
2331 0 118.078 13.8553 1636 107.711 641.738 459.499
2332 0 119.115 12.7692 1521 108.523 641.746 457.597
2333 0 118.12 13.5794 1604 106.263 641.312 458.464
2334 0 117.093 12.6566 1482 108.182 641.945 458.306
2335 0 117.12 13.2941 1557 107.24 641.16 455.995
2336 0 119.109 12.3668 1473 109.062 641.402 455.532
2337 0 118.217 12.79 1512 108.278 641.102 453.384
2338 0 120.144 13.4006 1610 105.366 640.962 456.24
2339 0 119.08 12.3783 1474 108.41 640.905 453.526
2340 0 120.167 11.6088 1395 109.824 641.068 453.444
2341 0 117.064 10.7206 1255 112.487 641.728 453.316
2342 0 118.173 12.1094 1431 108.422 641.977 453.778
2343 0 121.188 11.6018 1406 109.428 642.247 453.297
2344 0 120.132 11.6539 1400 109.088 642.69 453.866
2345 0 118.151 10.9182 1290 111.031 642.143 450.718
2346 0 118.143 12.2225 1444 107.927 642.851 451.514
2347 0 120.063 10.9609 1316 109.198 642.507 454.098
2348 0 121.157 12.0835 1464 107.949 642.934 447.717
2349 0 120.122 13.12 1576 105.878 642.373 449.064
2350 0 121.164 11.8682 1438 108.842 643.241 446.455
2351 0 116.128 10.8931 1265 111.379 643.423 443.28
2352 0 123.097 12.1367 1494 107.243 643.372 445.135
2353 0 122.176 11.1151 1358 112.011 644.363 448.342
2354 0 120.117 12.0216 1444 111.712 644.763 446.465
2355 0 121.237 12.3807 1501 110.342 644.53 446.772
2356 0 120.11 11.631 1397 111.887 644.594 446.198
2357 0 119.192 12.1484 1448 109.259 643.903 445.234
2358 0 120.146 12.4765 1499 107.762 644.15 445.967
2359 0 121.169 11.6366 1410 108.728 644.761 448.731
2360 0 118.158 10.4775 1238 112.376 644.717 447.701
2361 0 120.18 11.2747 1355 108.869 644.846 447.92
2362 0 118.073 11.0864 1309 109.876 644.261 445.607
2363 0 120.159 11.6845 1404 107.506 644.458 447.212
2364 0 121.115 12.7812 1548 105.898 644.47 445.198
2365 0 118.202 10.5666 1249 111.674 644.264 445.138
2366 0 120.097 12.1485 1459 108.336 644.576 442.65
2367 0 121.142 12.539 1519 105.793 644.928 444.991
2368 0 119.339 10.4911 1252 110.314 644.997 442.365
2369 0 118.132 10.4967 1240 111.186 644.594 444.438
2370 0 119.127 11.8949 1417 107.107 644.368 445.898
2371 0 121.136 12.6057 1527 104.887 644.578 444.172
2372 0 122.116 10.5473 1288 108.398 644.922 447.846
2373 0 122.194 10.3442 1264 108.377 645.523 445.392
2374 0 121.194 10.1655 1232 109.516 645.446 443.64
2375 0 123.118 10.5833 1303 107.081 645.852 442.893
2376 0 120.19 10.7829 1296 106.738 645.548 443.881
2377 0 123.326 11.7899 1454 106.265 645.268 444.195
2378 0 122.197 11.6778 1427 107.114 645.447 447.62
2379 0 122.134 10.3902 1269 110.538 645.551 444.197
2380 0 121.146 10.6895 1295 109.661 645.486 446.103
2381 0 123.156 11.3027 1392 107.932 645.43 445.346
2382 0 119.131 11.1474 1328 107.817 646.011 448.953
2383 0 119.238 10.7851 1286 108.334 646.021 447.665
2384 0 122.231 12.2391 1496 104.338 646.084 447.031
2385 0 118.145 10.7411 1269 107.881 645.971 448.137
2386 0 120.274 10.6923 1286 107.556 646.257 447.595
2387 0 119.162 11.7655 1402 105.7 647.001 447.589
2388 0 121.121 11.8642 1437 104.084 646.787 450.109
2389 0 118.187 11.7018 1383 105.69 646.619 446.233
2390 0 117.133 11.3717 1332 106.072 646.494 446.453
2391 0 118.248 11.5351 1364 105.19 645.781 447.368
2392 0 118.135 11.8932 1405 104.729 645.572 443.909
2393 0 119.173 12.7797 1523 102.274 645.179 447.845
2394 0 118.13 11.335 1339 105.152 645.865 448.193
2395 0 120.116 12.9458 1555 101.963 646.329 446.334
2396 0 120.168 12.857 1545 101.129 646.348 447.085
2397 0 120.162 12.0005 1442 102.889 646.044 445.293
2398 0 120.146 12.4015 1490 101.854 645.956 444.964
2399 0 119.1 12.0235 1432 102.793 645.124 443.919
2400 0 123.168 12.2029 1503 100.828 645.846 446.374
2401 0 122.21 12.0612 1474 100.258 645.737 448.706
2402 0 121.192 9.5881 1162 105.076 645.198 446.363
2403 0 122.269 10.2642 1255 103.59 645.554 444.405
2404 0 122.18 11.5158 1407 101.192 646.144 446.934
2405 0 123.191 11.3726 1401 101.034 645.714 445.862
2406 0 122.267 11.8348 1447 100.672 645.712 445.51
2407 0 122.143 10.1111 1235 104.272 646.028 441.428
2408 0 122.145 11.5437 1410 99.4504 645.816 448.839
2409 0 117.075 9.23343 1081 103.614 647.007 437.198
2410 0 119.123 10.1156 1205 100.509 646.554 446.768
2411 0 118.103 10.0675 1189 101.454 646.053 445.197
2412 0 120.127 9.99774 1201 101.883 646.416 442.39
2413 0 118.113 8.97444 1060 102.999 647.116 443.83
2414 0 118.127 8.65169 1022 104.401 647.131 439.668
2415 0 117.164 8.48385 994 104.568 646.89 437.82
2416 0 119.176 9.60763 1145 100.839 646.65 443.507
2417 0 116.125 9.87731 1147 101.785 646.655 437.261
2418 0 121.199 9.85985 1195 99.7766 646.716 444.122
2419 0 120.143 9.38051 1127 100.814 646.879 441.533
2420 0 119.08 9.4306 1123 100.908 646.548 440.322
2421 0 121.3 9.87638 1198 98.7563 645.971 445.061
2422 0 120.219 9.7239 1169 99.9812 646.212 442.274
2423 0 121.131 10.8725 1317 96.6583 646.304 444.676
2424 0 119.142 10.9869 1309 95.492 646.387 448.17
2425 0 118.182 8.36845 989 100.719 646.208 444.634
2426 0 119.284 8.71872 1040 98.65 646.462 447.188
2427 0 119.126 8.34408 994 101.013 646.908 440.688
2428 0 120.244 9.15641 1101 98.5286 646.529 445.298
2429 0 119.093 8.57314 1021 99.6406 646.221 443.77
2430 0 119.096 6.60811 787 102.479 646.911 445.607
2431 0 119.106 8.28672 987 100.216 647.11 443.939
2432 0 119.119 9.93127 1183 97.4666 646.444 443.635
2433 0 118.157 9.45349 1117 98.6482 646.199 442.482
2434 0 119.152 6.95748 829 103.688 646.396 435.095
2435 0 121.244 10.4995 1273 96.6881 646.068 441.214
2436 0 120.102 9.55025 1147 96.8736 647.077 443.747
2437 0 117.26 9.55139 1120 98.292 646.646 439.429
2438 0 120.134 8.28244 995 98.3618 645.834 444.889
2439 0 121.149 10.1115 1225 96.4367 646.358 442.718
2440 0 122.255 10.2655 1255 103.041 646.683 447.557
2441 0 121.418 12.7 1542 99.8359 646.54 444.701
2442 0 117.249 11.386 1335 102.85 646.96 441.381
2443 0 119.452 12.3146 1471 100.534 646.391 444.298
2444 0 119.24 12.999 1550 99.5503 646.561 445.193
2445 0 117.281 11.1612 1309 103.184 646.12 445.476
2446 0 118.275 11.2703 1333 101.575 646.46 448.634
2447 0 119.301 10.9471 1306 101.689 645.836 448.632
2448 0 120.533 11.3247 1365 100.579 646.056 446.146
2449 0 121.469 13.7978 1676 96.6641 645.7 446.625
2450 0 120.585 11.1623 1346 101.971 646.068 444.718
2451 0 119.296 12.2971 1467 99.3845 646.256 447.905
2452 0 120.307 11.8696 1428 100.491 646.358 443.873
2453 0 120.367 13.1846 1587 97.344 646.354 446.586
2454 0 120.344 12.539 1509 98.0596 645.981 444.773
2455 0 120.271 11.3577 1366 99.7269 647.102 444.083
2456 0 122.388 12.9833 1589 96.6721 646.768 442.87
2457 0 123.346 13.6364 1682 95.5095 646.849 442.501
2458 0 123.464 11.8334 1461 98.2211 647.195 443.638
2459 0 123.482 14.5932 1802 92.6604 646.99 444.732
2460 0 122.558 10.7215 1314 99.3798 646.764 442.591
2461 0 122.279 11.9644 1463 97.203 646.42 446.105
2462 0 122.301 13.1561 1609 96.1156 646.368 440.724
2463 0 122.317 12.0098 1469 97.7447 647.24 440.153
2464 0 120.314 10.3978 1251 101.073 646.351 443.224
2465 0 121.486 12.2401 1487 97.2569 646.586 444.639
2466 0 122.336 12.8009 1566 96.5077 646.886 442.981
2467 0 122.248 11.3785 1391 99.2027 647.345 443.698
2468 0 121.22 11.3183 1372 98.7106 647.492 445.835
2469 0 120.404 11.3036 1361 99.9728 647.362 440.968
2470 0 121.355 12.0308 1460 98.4507 647.614 440.547
2471 0 120.374 11.9212 1435 97.5965 647.066 440.025
2472 0 120.285 12.3207 1482 94.9676 647.463 441.551
2473 0 120.378 11.4639 1380 96.7065 647.662 438.401
2474 0 122.418 12.4083 1519 94.7255 647.532 441.52
2475 0 120.379 10.2675 1236 95.4968 647.399 443.905
2476 0 122.244 10.9617 1340 93.5149 648.05 442.737
2477 0 121.273 11.6762 1416 91.5636 647.492 448.023
2478 0 123.245 12.1952 1503 90.4757 647.306 447.465
2479 0 123.23 11.6854 1440 90.8611 647.454 448.418
2480 0 123.374 11.9799 1478 90.8031 647.678 445.983
2481 0 119.086 9.78288 1165 94.1614 647.383 445.912
2482 0 122.226 12.5096 1529 89.3996 646.865 444.779
2483 0 120.225 8.69206 1045 95.8459 647.061 441.172
2484 0 122.2 10.4992 1283 92.4528 647.246 444.525
2485 0 123.208 12.0203 1481 89.9575 646.657 441.646
2486 0 121.15 12.5382 1519 89.1725 646.687 438.188
2487 0 122.242 13.5387 1655 86.6846 647.055 441.329
2488 0 119.285 9.48991 1132 90.2606 646.486 436.801
2489 0 120.192 8.74434 1051 92.4938 646.266 438.135
2490 0 116.231 7.32161 851 96.3784 646.884 427.915
2491 0 116.124 9.20571 1069 93.1216 646.689 432.075
2492 0 119.223 11.1388 1328 89.3456 646.422 437.883
2493 0 116.27 11.8432 1377 88.0421 646.633 440.07
2494 0 118.153 10.7234 1267 88.8193 646.949 440.306
2495 0 119.219 10.7869 1286 88.395 647.183 438.472
2496 0 119.245 11.1199 1326 88.2089 646.48 439.149
2497 0 119.225 9.94759 1186 90.6678 646.465 440.965
2498 0 118.206 7.8507 928 94.3664 646.698 433.242
2499 0 114.327 7.95085 909 94.8603 646.861 431.523
2500 0 107.292 6.79456 729 98.2222 647.006 427.311
2501 0 110.492 8.04585 889 94.9955 647.051 433.539
2502 0 109.168 10.2686 1121 91.4817 647.485 428.118
2503 0 114.35 10.669 1220 90.2656 647.042 432.114
2504 0 115.573 8.79096 1016 92.312 647.073 432.754
2505 0 116.531 10.6839 1245 88.506 646.479 433.649
2506 0 116.345 12.5317 1458 85.4863 646.377 435.757
2507 0 110.245 8.78951 969 93.2301 646.321 428.042
2508 0 113.306 10.3348 1171 89.1793 647.268 430.879
2509 0 114.249 10.232 1169 88.8486 647.133 437.297
2510 0 104.186 9.40624 980 92.6347 646.753 422.499
2511 0 104.139 7.75884 808 95.4035 647.063 427.434
2512 0 108.418 10.1367 1099 90.757 646.918 426.676
2513 0 108.337 10.7904 1169 88.4406 647.118 432
2514 0 113.33 9.36205 1061 89.3685 647.284 433.964
2515 0 107.234 10.1367 1087 89.8445 647.053 429.152
2516 0 111.301 9.09248 1012 90.501 647.448 428.542
2517 0 105.128 11.4432 1203 87.5087 647.277 433.474
2518 0 111.236 9.39448 1045 89.9981 647.222 432.384
2519 0 117.239 8.61492 1010 90.2693 646.937 433.372
2520 0 118.301 10.4733 1239 86.7345 647.038 437.614
2521 0 118.191 11.4984 1359 84.6152 648 438.925
2522 0 118.263 8.66713 1025 88.3356 647.637 438.9
2523 0 110.377 7.83677 865 91.7954 647.689 428.281
2524 0 112.216 9.45501 1061 88.9548 647.119 429.503
2525 0 109.143 10.2159 1115 87.9354 647.176 430.1
2526 0 111.144 7.8187 869 90.809 647.389 426.985
2527 0 115.23 9.01678 1039 88.8431 647.281 427.573
2528 0 112.202 8.7877 986 89.6298 646.77 426.611
2529 1 31.0041 1.6772 52 80.9038 649.462 478.308
2530 0 34.0555 5.49104 187 77.8449 649.604 474.898
2531 0 26.0004 1.07691 28 83 649.179 476.821
2532 0 36.0121 3.49883 126 81.1508 649.5 469.167
2533 0 37.017 7.05081 261 77.7931 649.483 469.996
2534 0 31.0121 3.547 110 80.1 649.482 472.009
2535 0 37.0498 2.99596 111 81.4504 649.856 471.45
2536 0 35.0935 5.01517 176 78.8125 650.341 469.278
2537 1 105.259 8.66437 912 89.9232 647.691 423.863
2538 1 76.1771 10.8169 824 90.4636 646.65 417.523
