time division length width area intensity CMx CMy
0 0 49.0716 13.0218 639 133.867 49.5133 484.238
1 0 51.098 12.1727 622 135.686 49.7814 485.727
2 0 53.0432 13.4042 711 132.768 50.1125 483.086
3 0 56.0437 13.1326 736 132.477 48.9321 482.878
4 0 56.0791 14.2121 797 130.849 50.1205 482.449
5 0 57.0303 14.0627 802 132.596 49.8204 481.354
6 0 57.1082 13.6233 778 135.464 49.4897 482.185
7 0 60.0443 14.0729 845 134.56 50.2379 481.147
8 0 62.0313 13.1063 813 136.679 50.6445 481.369
9 0 64.0411 13.8349 886 135.205 49.8894 479.617
10 0 65.032 12.9936 845 140.041 49.4237 478.327
11 0 67.098 13.7709 924 137.202 49.5087 478.518
12 0 70.0683 13.8008 967 136.382 50.9545 476.502
13 0 73.1125 14.6487 1071 134.064 50.2558 475.502
14 0 75.0739 14.2393 1069 134.545 50.3985 475.952
15 0 77.1144 14.1349 1090 136.315 50.6844 473.569
16 0 78.1819 14.1209 1104 138.465 50.5353 469.077
17 0 83.1618 14.6221 1216 134.902 50.9655 471.836
18 0 84.1024 14.1494 1190 137.075 50.7462 468.881
19 0 88.131 13.6728 1205 136.95 51.1112 467.542
20 0 90.1217 13.9256 1255 138.797 50.0183 464.918
21 1 46.077 12.4791 575 137.598 50.0226 486.527
22 0 50.0376 13.3899 670 126.088 50.1328 484.542
23 0 50.0836 12.7187 637 133.069 50.5181 486.345
24 0 50.0499 13.1269 657 133.971 50.1689 484.997
25 0 53.0543 12.7605 677 134.001 50.7105 484.258
26 0 53.1371 13.8133 734 131.68 51.2698 483.311
27 0 54.1277 13.0063 704 133.673 50.2131 482.956
28 0 57.0381 13.7101 782 131.203 50.7289 481.643
29 0 56.0256 12.7263 713 133.893 51.2006 481.78
30 0 60.0257 13.8107 829 131.136 50.8709 479.841
31 0 61.0446 12.5482 766 134.355 51.0692 479.572
32 0 64.0514 14.8474 951 126.091 51.7224 477.084
33 0 67.1712 12.7585 857 130.863 51.5309 476.935
34 0 68.1375 13.1792 898 128.35 51.3307 476.484
35 0 71.0532 14.5947 1037 124.785 51.2806 474.483
36 0 73.0479 13.9634 1020 126.268 51.1422 474.402
37 0 76.042 13.0849 995 128.95 51.4975 471.908
38 0 77.0633 13.0023 1002 130.215 51.4671 469.928
39 0 80.1089 12.9324 1036 129.227 51.5328 469.2
40 0 82.1446 13.0623 1073 129.842 51.3793 467.817
41 0 85.1302 13.2855 1131 129.244 50.7657 467.015
42 1 43.0196 12.3665 532 127.669 51.3195 486.799
43 0 44.0726 12.5021 551 127.359 51.2232 487.073
44 0 45.0608 12.9159 582 115.407 51.9296 487.515
45 0 44.0363 11.3088 498 121.237 51.3253 487.249
46 0 46.0219 11.6683 537 119.255 52.0577 487.251
47 0 47.0342 11.8637 558 120.599 51.3566 485.708
48 0 49.0218 11.9335 585 119.971 50.7009 485.533
49 0 51.0544 10.7336 548 122.016 50.6277 485.387
50 0 53.0562 12.1758 646 118.178 51.3622 483.52
51 0 55.0696 11.0406 608 121.617 50.847 480.859
52 0 57.0813 11.2997 645 120.174 51.1194 482.2
53 0 60.1074 11.2798 678 120.074 50.7581 481.518
54 0 61.0718 11.7894 720 120.071 51.4014 478.939
55 0 64.0764 11.3614 728 120.499 51.103 478.793
56 0 68.0779 12.2213 832 119.499 51.3894 477.123
57 0 69.1465 12.4229 859 119.935 51.1828 473.866
58 0 71.0756 12.4656 886 121.236 50.9628 475.413
59 0 74.1673 11.5415 856 123.901 50.6519 473.843
60 0 79.0858 13.2388 1047 122.135 50.7689 471.189
61 0 80.1228 12.6056 1010 123.933 50.7663 471.386
62 1 43.0971 11.2537 485 123.004 50.9897 488.167
63 0 43.1377 10.8953 470 128.766 50.5277 487.517
64 0 48.0388 13.1769 633 128.248 50.0932 485.493
65 0 46.033 12.6214 581 125.103 50.074 485.873
66 0 49.071 12.757 626 122.681 51.0591 485.81
67 0 51.1121 13.9693 714 120.707 51.0168 484.577
68 0 52.0611 12.4661 649 125.411 51.0909 484.829
69 0 54.0499 13.21 714 123.866 50.3585 483.992
70 0 56.0476 13.4172 752 123.09 50.9694 484.027
71 0 55.0467 12.9708 714 125.796 50.5658 483.189
72 0 58.0604 12.7798 742 126.784 50.9798 481.394
73 0 60.047 13.3396 801 126.341 50.8202 480.089
74 0 64.0299 13.6811 876 124.482 50.9418 478.919
75 0 66.0516 12.9898 858 126.434 50.4907 478.523
76 0 69.1086 13.4281 928 125.159 50.1412 478.307
77 0 71.0367 14.2884 1015 122.575 50.7222 475.473
78 0 73.0802 14.5046 1060 122.664 50.3528 474.526
79 0 76.0533 14.24 1083 124.214 50.3841 474.235
80 0 78.0905 14.5984 1140 123.604 50.6289 471.697
81 0 80.0639 12.2527 981 130.101 51.052 472.305
82 0 83.0663 14.0009 1163 124.357 51.2709 470.253
83 0 87.0451 14.3719 1251 122.514 50.494 469.749
84 1 48.0995 11.6425 560 132.15 51.4036 486.846
85 0 48.0811 12.2501 589 129.844 50.3192 484.783
86 0 48.0277 11.4934 552 128.143 51.1069 485.996
87 0 48.0301 11.5969 557 126.339 50.9102 487.82
88 0 51.0277 11.4448 584 124.322 50.2483 487.786
89 0 53.0391 12.4436 660 124.733 51.403 485.948
90 0 54.0587 11.654 630 126.252 50.7079 486.025
91 0 54.0257 11.6611 630 129.387 51.2095 483.802
92 0 57.0612 11.882 678 128.198 49.9823 482.674
93 0 60.0381 12.3588 742 125.406 50.6954 482.402
94 0 61.046 12.1711 743 125.642 50.0781 481.616
95 0 64.0537 13.4262 860 121.972 50.5349 479.895
96 0 66.0328 12.8572 849 123.642 50.6337 479.276
97 0 66.0289 11.4041 753 129.007 50.4409 478.805
98 0 69.0525 12.5846 869 126.016 50.3786 476.105
99 0 75.0552 11.0585 830 120.188 49.9289 477.702
100 0 75.1202 12.8993 969 112.884 50.4128 474.368
101 0 79.0469 13.6628 1080 110.893 50.2333 473.309
102 0 83.112 13.2111 1098 112.173 50.5373 472.162
103 0 86.1411 14.0815 1213 109.757 50.8351 470.336
104 1 46.0283 10.6891 492 118.47 50.4085 489.189
105 0 47.0229 12.1217 570 118.065 50.1158 487.279
106 0 49.1005 12.6883 623 117.457 49.9021 484.891
107 0 50.1455 12.2843 616 120.578 49.3198 483.302
108 0 51.0618 12.3772 632 121.169 49.6377 484.509
109 0 53.0678 11.9658 635 122.296 49.5937 483.661
110 0 55.1099 12.9922 716 119.436 49.5698 482.83
111 0 55.1109 11.9759 660 124.885 50.1955 482.079
112 0 60.0997 12.862 773 120.929 50.3402 481.607
113 0 60.1245 12.7901 769 122.902 49.9051 480.899
114 0 62.2108 13.1488 818 122.369 49.8973 479.804
115 0 65.0454 13.1908 858 122.777 50.1527 477.93
116 0 65.064 12.6645 824 125.381 49.8265 477.106
117 0 68.161 12.9986 886 124.034 49.9368 477.261
118 0 71.0782 13.2811 944 124.49 49.9958 475.747
119 0 71.1631 12.9421 921 126.899 49.9077 472.737
120 0 74.1119 13.2232 980 125.51 49.9439 474.412
121 0 75.0622 12.9226 970 128.497 48.6907 472.089
122 0 79.1615 12.784 1012 128.026 50.0198 470.787
123 0 79.0864 12.5812 995 120.607 49.8322 473.641
124 0 82.1753 12.2908 1010 121.151 49.4426 471.455
125 0 84.1173 11.7931 992 123.661 49.2278 469.769
126 0 88.0846 12.7605 1124 119.582 49.3372 469.125
127 1 47.1548 10.6458 502 126.873 48.7809 485.759
128 0 50.1051 12.5935 631 119.439 49.3899 486.648
129 0 51.0277 11.2684 575 124.31 49.3461 483.998
130 0 51.1063 12.2686 627 119.923 49.638 487.447
131 0 51.0646 11.319 578 122.77 49.5208 487.17
132 0 53.0463 11.8953 631 122.385 48.6593 483.588
133 0 54.0861 12.5726 680 120.94 49.1382 482.276
134 0 56.0568 11.6489 653 120.904 49.8392 482.922
135 0 57.0374 12.0973 690 121.175 49.442 480.554
136 0 61.0665 13.5426 827 114.618 49.4438 480.323
137 0 62.1701 12.2889 764 118.555 48.5746 478.183
138 0 63.0603 12.0995 763 119.431 49.1835 477.36
139 0 64.0927 11.343 727 120.442 48.5392 476.752
140 0 68.0551 12.2401 833 115.708 49.4406 475.664
141 0 69.0347 11.936 824 116.757 48.7427 474.976
142 0 72.0748 12.8755 928 113.428 48.8341 471.919
143 0 74.1459 11.1941 830 117.733 49.094 471.598
144 0 78.1255 12.9791 1014 111.41 49.0631 470.112
145 0 81.071 13.223 1072 111.547 48.6642 464.862
146 0 82.0334 12.0195 986 114.263 49.4493 464.557
147 0 85.0863 12.7165 1082 111.461 48.8669 466.556
148 0 87.1085 13.3167 1160 110.579 48.5974 461.397
149 0 88.1031 12.0427 1061 113.37 48.819 455.967
150 0 95.0906 13.2295 1258 109.981 48.3386 457.471
151 0 98.0928 13.2426 1299 109.619 49.622 455.088
152 1 51.0435 11.2845 576 112.604 49.7014 476.469
153 0 52.1137 11.2063 584 111.589 49.8613 473.695
154 0 54.0504 11.1932 605 108.977 49.957 472.602
155 0 56.0616 10.9344 613 107.225 49.9772 481.935
156 0 59.0333 11.6883 690 104.562 49.4232 481.843
157 0 61.0555 10.8426 662 107.03 48.142 480.539
158 0 63.046 11.8326 746 106.04 49.7466 478.877
159 0 66.1951 12.5236 829 105.075 49.8661 477.638
160 0 66.0694 11.276 745 110.63 49.1745 476.071
161 0 69.0313 12.574 868 109.579 49.0323 474.865
162 0 70.1033 12.3104 863 112.773 48.4519 472.584
163 0 72.0521 11.5472 832 115.536 49.1575 474.224
164 0 77.0556 13.367 1030 113.682 48.1806 471.729
165 0 78.194 13.799 1079 118.612 48.4124 471.171
166 0 79.1315 13.0037 1029 123.348 48.9067 468.106
167 0 83.174 14.9085 1240 119.903 48.0218 466.866
168 0 87.1269 13.6353 1188 122.379 48.1221 466.581
169 0 89.2117 13.7874 1230 121.645 48.4041 463.786
170 0 92.1101 13.7553 1267 121.912 48.603 462.925
171 0 96.1094 13.8592 1332 120.806 48.6967 455.489
172 0 97.2231 14.153 1376 121.376 49.1759 454.031
173 1 49.2364 9.9926 492 117.764 49.7907 483.494
174 0 51.1319 11.5779 592 111.417 49.3649 485.235
175 0 51.1505 11.3586 581 120.114 49.1411 483.454
176 0 54.2414 13.0159 706 120.635 48.7875 481.833
177 0 54.0254 12.235 661 119.413 49.3359 481.092
178 0 56.0156 12.7464 714 118.738 49.2465 480.895
179 0 58.1182 12.8703 748 118.162 48.2273 480.92
180 0 60.1202 12.9574 779 118.211 48.6021 479.703
181 0 62.0557 12.1665 755 119.895 49.0927 478.583
182 0 61.0519 12.7105 776 120.278 49.509 477.018
183 0 65.0471 12.9291 841 117.665 49.3686 476.867
184 0 67.1524 13.1045 880 115.786 49.4886 476.607
185 0 68.1412 12.5328 854 116.48 48.8794 476.131
186 0 73.1219 13.2382 968 112.011 49.3461 474.663
187 0 73.0784 12.3976 906 114.45 48.511 473.342
188 0 75.0335 12.3678 928 113.705 48.819 471.37
189 0 79.084 13.2264 1046 110.218 49.588 470.912
190 0 82.0586 12.8689 1056 110.316 49.4186 469.1
191 0 83.1309 12.5465 1043 107.027 49.2004 467.2
192 0 85.1096 12.0198 1023 109.072 48.7722 468.366
193 0 86.0726 11.2463 968 113.013 48.6167 465.708
194 1 46.0601 11.0291 508 101.207 48.7165 488.23
195 0 48.1366 11.592 558 100.427 48.4534 486.453
196 0 46.111 11.429 527 102.92 48.7419 486.156
197 0 48.0388 9.97111 479 104.244 48.4217 487.271
198 0 48.1109 10.9123 525 103.65 48.9276 485.697
199 0 52.055 10.9692 571 103.625 48.4116 482.869
200 0 53.1382 12.0064 638 101.777 48.7978 482.674
201 0 56.0975 12.1396 681 101.308 48.8355 481.916
202 0 57.0481 12.7086 725 100.71 49.2041 480.833
203 0 59.0401 11.5684 683 102.927 49.6881 479.514
204 0 61.0806 11.9187 728 101.669 48.4698 480.165
205 0 61.1121 11.2089 685 103.584 48.5153 479.622
206 0 64.1226 11.6496 747 103.795 48.6934 478.708
207 0 67.0632 12.8685 863 101.72 48.3117 475.848
208 0 68.0964 11.6452 793 104.694 49.6154 477.024
209 0 72.0285 12.6617 912 102.737 48.9068 473.829
210 0 73.0676 12.9606 947 103.678 50.0781 472.189
211 0 77.079 13.2721 1023 101.555 49.5259 473.752
212 0 76.0984 12.3918 943 106.694 49.4899 472.007
213 0 78.1235 11.0594 864 110.608 49.5521 470.473
214 0 85.1088 12.4664 1061 110.133 48.591 468.27
215 0 87.0673 11.5773 1008 112.376 51.2232 466.135
216 0 89.1003 11.8967 1060 111.166 50.9075 465.707
217 0 93.1696 11.9352 1112 111.428 51.009 462.771
218 0 96.0839 11.5108 1106 110.826 49.7993 463.173
219 0 98.078 12.225 1199 108.724 49.9658 458.382
220 0 103.15 12.38 1277 107.807 49.7549 458.75
221 0 104.179 12.5649 1309 113.588 49.7357 459.488
222 0 107.427 12.1199 1302 111.673 49.202 451.632
223 0 112.331 13.3712 1502 108.772 49.7423 449.356
224 0 114.153 12.3255 1407 111.423 50.4577 451.386
225 1 55.0966 12.0515 664 100.166 49.4729 484.886
226 0 56.0417 10.0283 562 103.516 49.8897 485.929
227 0 59.0942 12.2516 724 100.459 49.4047 482.535
228 0 59.055 10.668 630 104.352 50.1619 482.765
229 0 63.1087 12.8984 814 99.957 49.5885 479.869
230 0 64.0421 11.2582 721 102.287 50.4813 481.042
231 0 67.0903 12.8931 865 101.089 49.7491 478.286
232 0 70.0733 12.387 868 101.328 49.9735 477.195
233 0 72.0341 11.5084 829 103.954 50.0519 475.937
234 0 74.1187 12.4935 926 102.208 49.6728 475.45
235 0 79.0416 12.4871 987 102.363 49.3617 474.02
236 1 41.0405 10.916 448 106.217 49.4866 490.629
237 0 43.0866 11.7902 508 103.984 49.5039 490.01
238 0 42.099 13.1832 555 100.697 49.3676 489.868
239 0 45.0605 12.5609 566 99.9753 49.3728 489.329
240 0 45.0501 11.7647 530 102.034 49.7849 489.379
241 0 48.0136 13.3504 641 97.2715 50.3214 489.435
242 0 49.0738 13.1435 645 98.0682 50.2713 488.572
243 0 51.028 14.0119 715 97.1175 49.8909 486.631
244 0 51.1935 12.2476 627 101.722 49.6364 487.171
245 0 52.1795 12.8211 669 101.238 49.7339 484.714
246 0 52.0141 12.0737 628 104.524 49.9443 486.844
247 0 56.0482 13.4349 753 100.248 49.8738 483.676
248 0 57.0541 12.9 736 102.751 49.8954 483.141
249 0 58.057 13.2456 769 102.45 50.3251 482.273
250 0 59.0405 13.1435 776 103.93 49.2848 482.581
251 0 63.1353 13.4315 848 101.769 49.1073 480.915
252 0 63.0589 12.4011 782 105.546 49.3913 479.765
253 0 66.0283 13.7365 907 102.817 49.7519 478.846
254 0 66.0653 13.0023 859 105.977 48.8813 480.196
255 0 70.0937 13.91 975 105.878 48.9169 477.601
256 0 71.0618 13.2983 945 107.964 49.2392 474.487
257 0 75.1661 12.5722 945 117.984 49.0497 474.669
258 0 77.1181 12.9542 999 116.952 48.9059 474.69
259 0 79.0786 12.633 999 118.816 49.7768 472.081
260 1 40.0443 11.2625 451 113.013 49.9889 493.271
261 0 42.0497 11.0108 463 116.937 49.3996 491.581
262 0 44.0465 12.5095 551 114.944 50.2033 490.178
263 0 41.0406 11.7932 484 110.283 49.3223 490.498
264 0 40.0296 11.5664 463 112.441 50.3715 490.775
265 0 42.1128 11.9441 503 110.443 49.2724 489.64
266 0 45.0237 12.238 551 109.356 50.0018 489.817
267 0 45.1161 12.7449 575 109.609 50.0383 488.725
268 0 46.1173 11.8177 545 111.793 50.2972 488.642
269 0 48.0554 11.7156 563 110.957 49.7194 489.242
270 0 50.1117 12.2726 615 111.93 50.6179 485.096
271 0 52.06 11.7173 610 113.025 49.1934 485.779
272 0 54.1392 13.0589 707 109.642 50.2419 484.259
273 0 58.1248 13.0409 758 109.401 50.9776 484.095
274 0 59.072 12.6964 750 110.112 50.676 482.992
275 0 60.0257 12.0782 725 111.662 50.3986 483.561
276 0 62.0485 12.313 764 112.268 50.072 481.788
277 0 63.1023 12.9789 819 112.188 49.0916 480.665
278 0 65.0509 13.1743 857 111.469 49.6534 480.903
279 0 67.0605 13.2865 891 111.793 50.0539 477.178
280 0 69.0647 13.0313 900 113.568 49.9056 476.13
281 0 73.1333 13.578 993 111.876 49.5921 475.542
282 0 75.0412 13.5392 1016 112.331 50.0778 475.138
283 0 80.1432 14.0124 1123 112.242 49.9056 473.402
284 0 80.1101 13.0945 1049 116.295 50.4109 470.485
285 1 40.0618 10.2841 412 115.354 50.165 492.454
286 0 43.0738 11.8401 510 113.453 49.8686 488.21
287 0 43.0371 11.9199 513 111.881 49.8246 488.365
288 0 44.0266 11.1978 493 111.556 50.2434 489.205
289 0 44.0536 11.7584 518 110.145 49.8649 488.367
290 0 45.056 12.2958 554 109.603 49.8664 487.563
291 0 46.0301 11.4273 526 109.901 49.6426 488.538
292 0 49.034 11.9101 584 108.05 49.9777 486.877
293 0 49.0252 9.56651 469 111.953 50.6503 488.768
294 0 53.0449 12.0653 640 106.223 49.1187 485.289
295 0 53.0426 12.6125 669 104.257 48.5157 486.03
296 0 56.1458 11.6304 653 107.17 49.3139 482.49
297 0 56.1102 11.3348 636 108.28 49.0802 482.082
298 0 58.0593 11.316 657 107.181 49.5114 482.037
299 0 61.0506 11.8262 722 105.988 49.8476 480.064
300 0 64.0403 11.8988 762 105.829 50.5276 478.936
301 0 67.0869 13.1173 880 103.382 50.2489 478.033
302 0 70.0996 12.8817 903 105.029 50.3223 474.962
303 0 72.2325 13.3181 962 106.312 49.3108 473.447
304 0 73.0775 12.3157 900 110.864 49.3133 474.103
305 0 75.0633 12.6826 952 110.529 49.6492 473.744
306 0 80.0625 13.452 1077 108.893 49.5348 471.707
307 1 175.316 13.1991 2314 114.801 48.7411 425.904
308 1 84.1419 12.063 1015 113.721 49.5901 468.138
309 0 86.1678 11.9302 1028 114.373 49.7588 469.235
310 0 90.1636 12.7324 1148 112.798 48.7395 465.531
311 1 52.1059 11.9372 622 113.431 49.1431 482.826
312 0 54.0389 14.249 770 108.347 50.4 482.499
313 0 52.0282 11.7436 611 108.547 49.0736 485.097
314 0 53.0611 11.8543 629 108.501 49.8394 483.075
315 0 54.0447 11.361 614 109.308 50.2117 483.106
316 0 58.0368 11.9924 696 105.73 49.5029 484.935
317 0 60.0331 12.2432 735 106.837 49.5728 482.321
318 0 62.0317 12.9934 806 106.354 49.5149 480.696
319 0 68.0636 14.0898 959 101.561 49.8811 476.501
320 0 64.0912 12.1077 776 108.655 50.4227 480.887
321 0 68.1371 13.3994 913 107.921 50.6232 476.221
322 0 72.1024 13.3144 960 107.917 50.0844 476.591
323 0 72.1326 13.6693 986 108.697 50.3864 474.829
324 0 73.1329 12.9217 945 111.452 50.5619 474.295
325 0 79.1506 14.5166 1149 106.135 50.0766 471.608
326 0 80.11 13.6937 1097 109.005 50.1176 470.755
327 0 83.0988 13.514 1123 109.671 50.4978 468.9
328 0 87.1461 12.7831 1114 111.765 50.5269 467.749
329 0 87.273 13.2458 1156 112.792 50.7604 466.328
330 0 92.1299 14.3493 1322 108.394 50.0363 466.182
331 0 94.1832 13.0915 1233 109.967 50.6091 465.572
332 0 95.1497 12.7904 1217 112.272 50.1931 461.296
333 1 51.0685 11.9252 609 108.24 50.7521 485.649
334 0 52.0451 11.9704 623 111.363 50.2103 486.183
335 0 54.0869 12.4799 675 112.908 49.6104 484.036
336 0 55.0935 12.5423 691 101.954 50.3372 487.368
337 0 56.0285 12.922 724 102.289 50.011 485.363
338 0 56.0652 13.3416 748 104.04 50.6417 481.936
339 0 58.0824 13.0332 757 104.573 50.4122 483.781
340 0 60.0705 12.7517 766 105.183 50.0339 483.239
341 0 64.0552 13.2386 848 105.138 50.4033 480.873
342 0 67.1517 13.4323 902 103.909 49.9157 480.759
343 0 68.0781 12.3094 838 107.143 49.8544 481.475
344 0 72.1719 14.0498 1014 104.495 49.7179 476.751
345 0 72.0521 13.2682 956 108.158 50.1036 474.678
346 0 76.1763 14.4927 1104 104.961 50.3397 473.889
347 0 79.1161 14.9401 1182 103.946 50.0871 472.409
348 0 85.0668 16.011 1362 100.427 49.3399 468.45
349 0 84.1304 14.3943 1211 106.702 49.5417 468.582
350 0 85.0515 14.0973 1199 107.294 49.5204 471.706
351 0 89.0419 14.5886 1299 105.818 49.5989 470.058
352 0 90.2366 13.4092 1210 109.409 49.0182 466.759
353 0 94.0867 14.0934 1326 106.095 49.5716 468.189
354 0 97.0827 14.3692 1395 106.705 49.0495 463.234
355 0 98.0531 14.0026 1373 107.487 49.7043 464.207
356 0 102.103 13.6039 1389 109.513 48.725 464.645
357 0 107.268 14.0396 1506 109.281 49.0618 459.756
358 1 58.0681 12.1754 707 114.85 48.6521 481.594
359 0 61.0651 14.5255 887 110.334 49.2063 480.377
360 0 63.2186 13.8883 878 111.479 49.6298 479.589
361 0 64.0914 12.9034 827 114.707 49.1608 480.479
362 0 67.0547 14.0333 941 113.151 49.2349 479.469
363 0 68.0646 14.3393 976 112.759 50.0246 477.84
364 0 71.1192 13.3297 948 115.507 49.4821 477.032
365 0 74.1254 13.747 1019 113.165 50.0893 476.965
366 0 75.0787 13.4526 1010 114.765 49.1594 475.327
367 0 79.1557 14.1872 1123 112.965 49.1888 472.614
368 0 81.0945 15.0072 1217 111.143 48.3607 472.023
369 0 82.2703 14.3308 1179 113.164 49.3478 470.021
370 0 85.0748 13.4823 1147 114.696 50.3112 469.377
371 0 89.0877 13.4923 1202 114.933 48.1364 468.466
372 0 91.0965 13.085 1192 114.963 49.1737 466.232
373 1 48.0225 13.2855 638 109.804 49.4122 487.654
374 0 51.0905 13.5642 693 107.747 49.6768 488.662
375 0 50.1064 12.0144 602 107.156 50.1013 489.708
376 0 53.0829 13.6014 722 103.327 49.3878 486.643
377 0 54.0631 13.0588 706 104.755 49.6062 486.201
378 0 55.0431 12.6083 694 106.901 49.5865 485.112
379 0 57.0345 12.6941 724 106.064 50.1298 486.16
380 0 61.1181 14.0057 856 102.584 49.2313 483.668
381 0 61.1839 13.2224 809 105.335 50.0284 484.005
382 0 64.0847 12.8268 822 106.953 49.837 482.247
383 0 66.1141 13.5221 894 107.05 49.1264 479.614
384 0 66.0609 13.0183 860 110.28 49.4314 480.064
385 0 67.0517 11.9162 799 113.68 48.7697 481.045
386 0 71.0436 12.9357 919 111.775 50.062 478.413
387 0 72.0674 13.0572 941 113.409 49.1084 478.282
388 0 76.0321 13.7442 1045 111.349 49.5167 476.93
389 0 77.0655 12.6256 973 115.319 49.7873 476.614
390 0 80.0854 13.7229 1099 113.12 48.5751 473.622
391 0 83.144 13.0015 1081 113.526 49.2646 474.534
392 0 86.1263 13.7821 1187 113.785 48.9992 470.596
393 0 90.1046 13.6952 1234 113.591 48.3169 469.122
394 0 91.2067 12.0605 1100 116.445 48.39 470.485
395 1 53.0445 12.1785 646 116.749 49.1455 487.638
396 0 53.0473 12.4606 661 116.481 48.8956 487.843
397 0 55.0947 12.3061 678 118.875 48.4041 485.119
398 0 57.1013 12.9069 737 116.491 48.2795 485.64
399 0 57.141 12.4254 710 119.686 48.2394 484.894
400 0 59.1152 11.9766 708 120.366 48.5 483.692
401 0 63.109 13.6431 861 114.609 49.0035 482.228
402 0 62.044 12.2494 760 121.545 49.2829 481.12
403 0 65.0938 12.8891 839 118.616 49.534 482.159
404 0 69.0342 14.3117 988 114.324 49.6559 481.127
405 0 70.0641 11.9177 835 121.489 49.1078 479.175
406 0 72.0875 13.0674 942 119.344 48.4841 477.206
407 0 76.0658 13.2254 1006 116.422 48.2107 476.673
408 0 75.1481 12.6284 949 118.822 48.6691 476.118
409 0 80.0722 13.8625 1110 114.444 49.1667 475.248
410 0 79.1717 12.2392 969 119.709 49.1187 473.956
411 0 83.1154 13.2827 1104 115.895 49.2201 472.302
412 0 86.2861 13.6175 1175 114.032 49.3855 470.739
413 0 88.1396 12.6617 1116 114.772 49.4167 471.103
414 0 92.1581 13.5094 1245 112.359 48.5526 467.176
415 0 94.2374 12.6065 1188 114.154 48.9234 465.84
416 0 97.0873 12.463 1210 113.249 49.3521 464.449
417 0 101.216 13.239 1340 109.925 48.9888 463.269
418 0 105.196 13.2419 1393 102.714 48.5556 461.777
419 0 105.158 10.7077 1126 109.842 48.1456 459.728
420 0 111.291 12.2562 1364 106.47 48.9567 454.818
421 0 115.182 12.0852 1392 106.131 48.2148 457.145
422 1 59.0813 12.8467 759 101.852 49.0066 482.242
423 0 59.1589 11.2409 665 106.889 49.2767 482.611
424 0 64.0288 14.2436 912 100.991 49.4287 479.572
425 0 64.1203 12.8197 822 108.313 48.7129 478.942
426 0 70.1746 13.1529 923 105.824 48.961 478.217
427 0 67.106 12.2493 822 106.219 49.0268 478.088
428 0 68.0751 11.5461 786 108.888 48.8766 476.567
429 0 73.0594 13.0031 950 105.368 48.9105 475.893
430 0 75.0928 12.4246 933 105.451 47.91 475.494
431 0 76.1423 11.4785 874 108.852 48.7014 473.617
432 0 82.2167 13.1725 1083 103.678 48.3472 473.663
433 0 84.0791 12.1433 1021 107.335 49.2782 471.312
434 0 86.0844 12.964 1116 104.885 49.6523 471.703
435 0 87.2115 11.0307 962 111.136 48.8888 470.028
436 0 93.0904 12.6973 1182 109.26 49.2073 465.651
437 0 96.1939 12.2149 1175 108.868 47.9762 466.261
438 1 51.1564 10.9273 559 107.975 49.6154 486.127
439 0 52.1155 12.1845 635 107.239 49.9118 482.101
440 0 56.1214 12.2591 688 107.448 49.5015 483.878
441 0 58.113 12.4413 723 106.823 48.9156 482.303
442 0 60.1519 12.1359 730 107.207 49.1575 482.603
443 0 63.1238 13.2438 836 104.282 49.7584 480.957
444 0 65.098 14.409 938 101.906 49.2559 480.112
445 0 66.0428 11.2351 742 109.739 49.7925 479.365
446 0 68.0774 11.0169 750 110.141 49.6 477.92
447 0 68.1278 11.1115 757 97.9089 48.461 480.765
448 0 70.0897 10.2155 716 99.2109 49.148 479.996
449 0 73.1526 11.7016 856 97.4007 48.9977 478.067
450 0 72.1434 11.0752 799 99.9136 48.7972 478.175
451 0 78.1331 12.3123 962 97.7339 48.6642 474.481
452 0 80.2405 12.7741 1025 98.2595 48.1073 472.142
453 0 86.1519 12.4663 1074 98.9665 48.081 472.885
454 0 88.1165 13.3119 1173 99.561 47.9804 469.12
455 0 90.1978 12.8939 1163 100.577 48.7042 468.802
456 0 94.1367 13.1617 1239 99.5028 48.6909 466.958
457 0 97.167 10.8679 1056 101.536 49.4593 466.66
458 0 101.129 11.9451 1208 99.3568 49.1068 466.829
459 1 160.242 13.0615 2093 103.788 48.785 436.967
460 0 166.302 12.9343 2151 104.176 48.3199 431.84
461 1 61.1437 11.9064 728 99.1923 49.6319 484.283
462 0 62.1243 11.8472 736 101.829 48.3791 482.227
463 0 64.0876 10.9538 702 110.895 47.6766 480.499
464 0 68.2094 13.268 905 105.541 48.147 478.827
465 0 70.1443 13.3154 934 106.296 48.5632 477.315
466 0 72.1927 12.3281 890 107.767 47.6966 477.825
467 0 75.3332 12.5708 947 107.244 48.1964 476.763
468 0 78.1989 13.325 1042 105.308 48.4962 475.832
469 0 80.2126 12.6913 1018 109.119 48.1994 472.708
470 0 83.2117 13.4116 1116 107.192 48.8163 471.013
471 0 86.3219 12.6967 1096 107.88 48.5392 471.543
472 0 89.3983 12.9421 1157 107.952 48.6007 468.516
473 0 92.1905 12.9948 1198 107.904 49.4875 468.23
474 0 94.2774 13.2481 1249 106.942 49.5372 467.783
475 0 97.245 13.1523 1279 107.593 48.4793 464.971
476 1 52.13 12.0468 628 103.486 49.4459 489.492
477 0 53.1141 11.0705 588 106.922 49.4286 487.168
478 0 57.1605 13.1734 753 102.381 49.0664 486.652
479 0 59.2471 14.1779 840 99.5929 49.0607 485.439
480 0 58.1591 12.5862 732 105.56 49.2514 485.676
481 0 63.1746 13.1065 828 101.847 49.4855 484.415
482 0 64.0896 12.5762 806 103.304 48.9442 484.655
483 0 65.1222 12.2078 795 105.528 49.1421 483.174
484 0 65.0665 11.9109 775 106.792 48.6697 481.826
485 0 68.0876 12.8511 875 104.495 48.3714 478.68
486 0 72.2061 12.9767 937 103.091 48.7641 479.629
487 0 74.1351 13.1247 973 102.368 47.9054 478.975
488 0 75.1285 13.2174 993 102.213 47.5639 478.982
489 0 78.0896 12.6905 991 104.346 48.5469 476.299
490 0 81.0826 12.3578 1002 105.539 48.3882 473.438
491 0 82.0827 12.792 1050 109.085 47.3914 468.336
492 0 86.0972 12.9505 1115 106.494 47.9677 472.598
493 0 88.161 11.7966 1040 109.743 48.3904 469.576
494 1 46.0862 10.003 461 106.013 47.5531 490.659
495 0 49.0901 11.9372 586 102.157 47.5068 488.529
496 0 51.109 12.757 652 103.316 48.5399 484.968
497 0 49.0967 10.8765 534 114.813 48.8071 486.543
498 0 53.2838 12.5179 667 109.142 49.1244 485.402
499 0 56.1726 14.224 799 104.553 48.02 483.14
500 0 54.2604 11.5185 625 114.875 48.9152 480.635
501 0 59.3641 12.0443 715 108.017 48.6769 484.358
502 0 58.0479 11.9729 695 107.137 48.9899 483.196
503 0 60.0499 11.174 671 108.794 48.1654 483.711
504 0 63.1019 11.838 747 111.495 48.5408 476.201
505 0 64.1744 11.7181 752 107.723 49.3431 480.823
506 0 68.094 12.2771 836 105.687 48.0359 479.749
507 0 68.094 12.2478 834 134.65 47.0204 479.763
508 0 72.1462 13.043 941 105.739 48.6759 476.554
509 0 74.1366 11.843 878 101.769 48.7107 475.845
510 0 76.1223 11.4421 871 104.226 48.6188 474.916
511 1 40.0443 9.61435 385 100.992 47.9325 496.753
512 0 43.0262 10.1101 435 93.5954 48.0598 493.064
513 0 42.1231 10.1607 428 95.6822 48.243 486.633
514 0 43.0841 10.2358 441 98.8481 49.39 479.737
515 0 47.1122 12.0563 568 89.2377 47.713 483.967
516 0 48.2349 11.7342 566 90.4876 48.0053 483.65
517 0 47.219 11.4361 540 93.1778 48.2926 482.73
518 0 50.0602 12.2253 612 91.719 48.7876 487.848
519 0 53.1343 12.3837 658 94.5957 49.3419 489.687
520 0 55.0485 11.8986 655 94.4244 48.5359 491.472
521 0 56.1221 12.0808 678 95.6357 49.0885 484.883
522 0 57.1231 11.7115 669 96.9193 48.864 486.073
523 0 58.0613 11.7806 684 97.6784 48.8056 487.339
524 0 60.0997 13.2447 796 94.9397 49.0063 485.337
525 0 62.0499 11.2812 700 98.3914 49.0157 484.893
526 0 65.0752 12.8006 833 92.623 48.4874 481.09
527 0 68.1277 11.9041 811 94.6079 48.7953 480.565
528 0 69.0398 11.7324 810 96.1383 48.5926 478.732
529 0 72.112 12.9659 935 93.2246 48.4289 479.361
530 0 73.089 12.6148 922 95.9403 48.3829 474.915
531 0 76.0783 12.3557 940 96.133 48.4181 475.143
532 0 80.1271 12.0933 969 97.6223 48.0537 474.905
533 0 83.1808 12.4308 1034 96.3424 48.4545 470.721
534 0 83.1624 11.3874 947 101.162 47.9989 467.563
535 1 45.1 11.1308 502 91.9681 49.1793 491.663
536 0 46.0091 10.7588 495 96.9636 47.1899 492.451
537 0 49.0443 11.3571 557 96.5961 47.5278 489.702
538 0 49.1018 11.7104 575 96.6852 47.2278 485.635
539 0 52.0954 11.4789 598 97.2458 47.5067 486.324
540 0 52.0301 12.5312 652 94.8543 48.5307 488.845
541 0 53.1167 11.503 611 97.3388 48.7725 487.643
542 0 56.1294 11.8833 667 96.012 48.5562 485.087
543 0 58.0827 11.0704 643 96.9114 48.8942 487.813
544 0 60.0714 12.2188 734 95.8297 49.3992 486.139
545 0 61.1246 11.8283 723 98.5408 48.3126 483.97
546 0 63.1086 11.7258 740 99.3149 49.1554 484.054
547 0 67.0729 12.7473 855 97.5111 48.3766 480.978
548 0 70.0978 12.4255 871 98.093 49.4386 480.273
549 0 71.0567 12.6096 896 99.5134 48.971 479.258
550 0 74.0957 11.4852 851 102.727 48.3866 479.709
551 0 75.0256 11.8226 887 103.955 48.8117 477.365
552 0 77.15 12.6377 975 103.156 48.7723 475.701
553 0 79.0879 11.9487 945 105.309 48.419 474.139
554 0 80.0242 10.6843 855 110.423 48.6117 473.308
555 0 85.1162 12.618 1074 104.655 48.0428 470.125
556 0 85.1709 13.0091 1108 107.776 49.9332 469.98
557 0 85.1479 12.2845 1046 112.149 49.6205 471.162
558 0 86.0511 12.1904 1049 103.921 49.1363 467.391
559 0 88.1839 11.5327 1017 108.061 49.2144 467.916
560 1 48.2347 11.2989 545 106.624 49.2954 485.906
561 0 46.1875 10.479 484 111.446 48.9132 486.529
562 0 47.0751 9.94156 468 112.97 48.7906 487.667
563 0 49.1325 11.1942 550 112.4 47.7218 487.324
564 0 50.0988 12.5552 629 113.552 48.5469 487.758
565 0 49.009 10.8756 533 107.488 48.364 491.816
566 0 50.163 10.3662 520 106.621 49.0962 490.838
567 0 56.05 11.4005 639 100.221 48.7167 487.088
568 0 58.0711 12.9324 751 95.2517 48.5393 485.643
569 0 57.038 12.3251 703 99.2788 48.7482 485.451
570 0 57.0653 12.9325 738 98.4146 48.9201 485.103
571 0 57.151 11.6708 667 101.396 48.3463 485.117
572 0 62.0883 11.9185 740 98.2149 48.3189 486.339
573 0 63.0501 12.5773 793 98.3039 48.0555 485.197
574 0 63.0215 11.5675 729 102.2 48.1962 483.446
575 0 65.1597 10.8349 706 107.142 48.4476 483.059
576 0 66.0742 11.2449 743 107.522 48.8977 481.33
577 0 67.1012 11.6987 785 107.898 48.8395 481.116
578 0 71.1943 12.5151 891 110.481 48.202 476.988
579 0 76.154 12.3959 944 117.627 48.2765 476.793
580 0 72.1142 9.66523 697 117.746 48.2683 476.537
581 1 39.0498 10.6787 417 109.719 49.1727 494.448
582 0 41.0534 10.3767 426 111.016 48.6455 493.157
583 0 44.0537 11.5541 509 103.923 47.112 493.776
584 0 41.0687 10.2268 420 110.024 47.1619 494.681
585 0 43.0718 10.8888 469 110.791 46.9019 491.947
586 0 45.0094 11.9975 540 107.985 47.1833 492.63
587 0 45.0538 11.6971 527 111.911 47.6262 490.666
588 0 46.0583 11.8545 546 112.445 47.8132 490.658
589 0 48.0723 11.9612 575 113.635 48.3896 491.038
590 0 50.0788 12.3006 616 113.774 48.1721 488.606
591 0 50.0675 11.3846 570 117.03 47.5877 490.128
592 0 54.0573 11.7468 635 114.852 47.6236 486.746
593 0 54.0872 11.5924 627 118.745 47.8102 487.464
594 0 55.1015 11.6875 644 119.564 48.0342 486.517
595 0 54.0935 11.7389 635 121.672 48.5008 487.343
596 0 56.0857 12.57 705 120.668 48.305 485.773
597 0 57.0501 11.6389 664 125.065 47.9398 485.852
598 0 60.0363 11.3265 680 123.509 48.2603 486.047
599 0 61.0768 11.2973 690 125.378 48.1348 485.69
600 0 63.065 11.9559 754 123.095 48.1698 484.186
601 0 65.1426 11.4979 749 124.447 48.5501 483.968
602 0 68.1035 13.0243 887 120.791 48.4589 481.724
603 0 70.098 11.7264 822 126.313 48.4793 480.811
604 0 72.047 12.3947 893 124.441 47.9138 481.598
605 0 74.0513 12.2078 904 126.675 47.7035 478.758
606 0 78.0573 12.3499 964 127.043 48.1048 477.893
607 0 82.1868 12.5081 1028 126.85 47.8444 475.93
608 0 84.0889 13.1409 1105 124.939 48.1213 474.405
609 0 85.0279 13.0193 1107 126.715 47.9801 474.202
610 1 47.0177 11.3149 532 131.09 48.0583 493.968
611 0 47.0311 11.2904 531 134.889 48.4689 492.188
612 0 50.0418 12.4696 624 123.47 48.7853 491.101
613 0 51.0543 12.0264 614 122.77 48.8827 490.686
614 0 52.0647 11.4089 594 124.67 47.8098 490.901
615 0 54.1124 12.6404 684 121.626 48.0482 488.354
616 0 54.0578 12.1167 655 123.139 47.8931 488.571
617 0 58.0738 12.6219 733 120.303 47.9618 487.898
618 0 59.0786 12.7288 752 119.997 47.8976 487.485
619 0 60.0445 11.3749 683 125.092 47.0659 484.334
620 0 65.0805 12.5076 814 117.826 47.2961 484.716
621 0 67.066 13.2407 888 115.541 47.7511 484.05
622 0 69.1063 13.3997 926 115.659 47.2387 481.165
623 0 73.1343 12.8941 943 132.641 47.2778 480.284
624 0 77.1207 12.9408 998 130.523 46.1513 479.076
625 0 75.0554 12.4042 931 131.878 47.3802 478.504
626 0 80.0674 12.527 1003 131.343 46.1496 476.302
627 0 84.0826 13.8079 1161 126.07 47.1869 473.739
628 0 87.1552 12.9654 1130 129.812 47.0487 473.042
629 0 89.1282 12.555 1119 132.061 46.8963 472.227
630 1 42.1683 12.0232 507 125.243 48.3511 493.517
631 0 46.143 11.8328 546 114.189 47.3297 494.31
632 0 46.0748 12.2844 566 114.263 47.1714 493.048
633 0 47.0351 12.0336 566 111.281 47.8958 491.995
634 0 49.0696 12.1664 597 110.544 47.6013 491.243
635 0 49.0833 13.3243 654 108.876 47.526 489.35
636 0 52.1169 12.8749 671 107.686 47.073 490.337
637 0 54.0797 13.6465 738 104.472 47.5772 485.879
638 0 55.1212 12.2276 674 108.445 47.9199 487.958
639 0 56.0553 12.8088 718 107.684 47.9345 486.738
640 0 58.0829 12.6371 734 108.255 46.8488 486.571
641 0 58.1202 12.2677 713 109.731 47.338 485.865
642 0 62.1222 12.0247 747 110.331 47.3414 483.527
643 0 66.043 12.6281 834 107.736 47.4856 483.711
644 0 67.1003 12.8613 863 109.07 48.0904 481.085
645 0 67.0466 12.1408 814 113.408 46.8882 479.615
646 0 72.1482 13.2228 954 111.068 47.1792 477.776
647 0 75.2487 14.1929 1068 109.904 48.0431 476.174
648 0 77.1464 13.3253 1028 114.984 47.3006 470.156
649 0 79.1355 14.6458 1159 110.573 47.2537 465.852
650 0 80.1055 12.2463 981 120.915 47.9888 471.832
651 0 86.1355 13.711 1181 120.621 47.3243 472.559
652 0 86.1309 13.3634 1151 122.718 47.0374 471.152
653 0 89.2074 12.3757 1104 124.665 47.4783 469.989
654 1 47.0374 11.8842 559 118.757 47.2111 491.726
655 0 51.1609 11.9622 612 115.716 48.0294 489.444
656 0 51.0653 12.2001 623 114.189 47.4687 489.506
657 0 50.0936 11.4186 572 108.533 47.7867 491.253
658 0 51.0277 10.6413 543 111.849 47.3738 489.162
659 0 52.0592 10.0271 522 111.759 47.5613 490.527
660 0 55.1525 11.1872 617 108.951 47.436 489.391
661 0 55.075 11.4753 632 109.054 46.7563 486.649
662 0 59.0484 11.8547 700 106.719 47.5414 486.12
663 0 59.0308 10.5877 625 109.936 48.2736 485.515
664 0 62.0996 10.9341 679 108.605 48.0383 484.831
665 0 65.1286 11.0858 722 107.183 47.6316 485.186
666 0 67.3006 11.783 793 106.706 48.029 481.749
667 0 69.0736 11.1475 770 108.638 47.9364 480.008
668 0 71.0765 12.17 865 106.247 47.3549 478.696
669 0 72.0914 12.1096 873 106.34 47.4227 479.88
670 0 79.1376 12.4719 987 105.444 48.4347 477.333
671 0 79.0887 12.29 972 106.969 48.5134 474.231
672 0 82.0744 12.3912 1017 106.111 47.8358 473.948
673 0 85.166 12.2467 1043 108.425 47.8926 470.459
674 0 89.183 11.8969 1061 111.402 48.246 471.062
675 0 91.0735 13.0334 1187 111.463 47.7498 468.056
676 0 97.1118 13.4587 1307 108.048 48.811 465.912
677 0 99.2015 12.3587 1226 110.335 48.4144 463.091
678 0 103.111 13.3254 1374 106.511 48.4854 462.533
679 0 108.178 12.2853 1329 107.974 48.8758 461.329
680 1 58.0699 10.4529 607 101.784 49.201 484.339
681 0 62.0871 12.3214 765 98.8654 49.1529 482.634
682 0 65.1337 12.4052 808 99.2624 48.0916 479.766
683 0 69.0575 11.961 826 109.689 49.9939 481.082
684 0 70.0634 10.7046 750 113.477 49.644 478.177
685 0 75.0665 11.4432 859 109.995 48.9546 477.573
686 0 76.0848 12.2101 929 107.876 49.3811 476.127
687 0 76.1082 12.3771 942 109.638 49.0881 473.551
688 0 79.1306 11.9928 949 108.426 49.1433 474.119
689 0 85.2506 11.4486 976 108.138 48.6895 474.317
690 0 83.1222 12.2952 1022 109.192 48.1624 471.81
691 0 87.2246 12.3818 1080 108.264 48.3278 470.129
692 0 88.1237 11.9945 1057 110.666 48.0009 468.853
693 0 91.2091 12.6084 1150 110.245 48.333 465.087
694 0 100.139 11.6937 1171 109.33 49.1392 466.446
695 0 99.2272 12.8392 1274 110.889 48.3234 462.914
696 0 101.268 10.961 1110 115.612 48.827 461.399
697 0 104.211 11.9469 1245 118.14 48.7454 458.067
698 1 55.1384 12.3689 682 114.636 48.8138 481.447
699 0 54.071 11.5959 627 116.368 49.7002 479.4
700 0 57.0268 11.9593 682 116.45 49.456 480.911
701 0 60.0509 13.5219 812 109.679 48.2167 482.966
702 0 62.0557 13.4879 837 109.606 47.4265 481.007
703 0 65.0738 13.7229 893 109.064 48.6741 479.468
704 0 68.0214 13.6428 928 109.435 47.6293 479.434
705 0 65.0573 11.2516 732 116.134 48.2869 482.014
706 0 69.0807 13.144 908 111.781 48.88 476.917
707 0 69.061 11.946 825 115.375 49.303 476.495
708 0 73.0619 12.8795 941 113.353 49.6015 475.413
709 0 74.1392 12.6114 935 115.001 49.3754 474.102
710 0 76.089 12.7351 969 115.347 49.4623 473.099
711 0 80.1481 12.1775 976 116.234 48.8473 470.837
712 0 84.0714 13.1674 1107 113.661 48.7416 468.708
713 0 85.2038 12.6755 1080 115.69 48.7231 467.044
714 0 88.1519 12.3537 1089 116.099 49.1726 466.747
715 0 92.1249 12.5916 1160 115.389 48.7802 463.998
716 0 96.1316 13.6167 1309 112.498 49.0176 462.733
717 1 52.0458 11.6244 605 114.851 49.3455 483
718 0 52.09 9.82915 512 112.494 49.0996 477.652
719 0 57.0661 11.18 638 108.967 49.4483 477.229
720 0 59.0891 12.7604 754 101.902 49.0889 477.325
721 0 61.0612 11.5622 706 104.54 48.9008 476.392
722 0 61.1533 10.4491 639 107.854 49.0423 475.008
723 0 62.0447 9.86386 612 103.072 49.0964 474.542
724 0 69.1219 13.9174 962 93.157 49.1923 473.022
725 0 71.0512 12.6528 899 97.2603 48.8443 473.182
726 0 73.0666 11.031 806 101.931 48.9826 473.524
727 0 76.1073 11.3393 863 103.946 48.2283 471.537
728 0 79.0826 11.8484 937 103.383 49.0096 470.491
729 0 83.1206 11.0803 921 106.067 48.7915 471.87
730 0 85.101 12.5028 1064 111.766 49.1382 471.133
731 1 46.0437 12.1623 560 106.648 48.6732 491.87
732 0 48.0335 11.263 541 107.25 48.1349 490.928
733 0 49.0406 11.7046 574 107.814 48.953 489.918
734 0 51.2165 12.8084 656 106.407 49.4405 488.355
735 0 52.0455 13.1616 685 116.42 49.3212 486.842
736 0 53.0497 13.2894 705 116.899 48.4213 486.128
737 0 57.0948 14.222 812 112.788 49.0123 486.473
738 0 59.035 12.6535 747 117.407 48.9344 486.934
739 0 60.0689 13.035 783 117.017 48.9323 484.06
740 0 63.0581 15.1923 958 110.379 49.4134 482.261
741 0 62.0496 12.4578 773 119.146 48.2393 482.278
742 0 65.038 13.4691 876 115.275 49.5639 481.559
743 0 67.0431 14.0357 941 114.895 49.0638 479.613
744 0 68.0741 13.6763 931 115.679 49.4006 480.049
745 0 72.0648 13.3907 965 115.83 48.9813 479.032
746 0 75.1292 15.4135 1158 110.49 48.494 476.895
747 0 76.1362 13.975 1064 114.017 49.3008 475.708
748 0 79.0601 13.3696 1057 114.878 48.8335 474.842
749 0 80.1644 13.4224 1076 114.135 47.8039 473.842
750 0 87.1924 15.4486 1347 104.759 48.0876 469.96
751 0 86.2157 14.081 1214 109.701 47.9547 471.961
752 0 90.1419 13.8892 1252 109.064 48.3474 469.575
753 0 92.1057 13.5388 1247 109.596 47.7666 468.213
754 0 94.0639 12.4702 1173 112.529 48.4842 465.737
755 0 100.084 13.7984 1381 109.605 48.3838 458.198
756 1 54.1117 10.9588 593 112.806 47.6661 486.121
757 0 57.1453 12.8795 736 112.01 47.5734 484.188
758 0 59.0601 13.1391 776 112.607 48.2938 483.994
759 0 62.1369 13.1645 818 112.677 48.2396 483.741
760 0 63.138 13.5418 855 112.473 48.1041 480.973
761 0 65.0527 13.4199 873 111.872 48.3814 481.699
762 0 65.1837 12.902 841 114.087 48.0321 480.024
763 0 69.1276 12.8313 887 113.848 47.159 479.223
764 0 71.0982 13.2211 940 111.237 47.4191 478.174
765 0 75.1555 12.84 965 110.813 47.8456 476.411
766 0 79.1752 14.2595 1129 106.306 48.442 476.087
767 0 80.0708 13.6754 1095 108.292 48.3297 473.741
768 0 83.0738 13.5542 1126 107.57 47.6625 472.715
769 0 84.1651 13.1646 1108 109.838 47.5523 470.988
770 0 89.0953 13.6259 1214 108.639 47.4728 469.489
771 0 91.113 12.8192 1168 110.628 47.2175 466.584
772 0 94.175 12.1795 1147 111.84 47.2607 466.666
773 0 97.1486 13.0831 1271 109.819 48.0275 463.02
774 1 56.0265 11.209 628 106.626 48.3854 486.311
775 0 56.0227 10.9241 612 108.73 47.1536 486.539
776 0 59.1014 12.5547 742 106.403 47.4555 483.288
777 0 59.0298 12.4852 737 107.436 47.422 481.199
778 0 63.0593 12.9561 817 105.638 47.186 479.63
779 0 64.0681 14.1412 906 103.727 46.8885 479.031
780 0 66.05 12.3694 817 107.251 47.011 478.142
781 0 69.1452 12.6401 874 106.73 46.8192 476.739
782 0 70.0118 10.5696 740 102.751 46.9405 481.181
783 0 72.0255 12.2596 883 99.5606 47.7803 477.116
784 0 74.0353 11.5485 855 100.199 47.2339 476.763
785 0 80.1506 11.6032 930 98.2688 47.0538 475.296
786 0 82.2015 12.5789 1034 96.9468 47.0029 472.518
787 0 85.1454 11.1222 947 100.807 46.943 471.359
788 0 89.0807 12.1014 1078 98.9759 47.0835 469.836
789 0 91.1253 10.8642 990 135.789 47.0515 466.362
790 0 96.1657 14.6206 1406 88.5804 46.6543 465.455
791 0 100.178 14.0749 1410 88.4043 46.1794 463.511
792 0 102.171 14.28 1459 89.5093 46.0603 463.941
793 0 101.105 12.5018 1264 96.7176 45.9201 465.954
794 0 102.101 11.4299 1167 102.208 47.4447 464.757
795 0 102.093 11.4797 1172 99.9957 47.8225 466.699
796 0 101.099 9.75278 986 109.534 48.3671 469.779
797 1 62.0471 11.1045 689 110.533 48.5181 485.27
798 0 63.0702 12.6684 799 107.601 48.2816 483.966
799 0 65.0802 12.062 785 108.962 48.1898 482.673
800 0 69.1048 13.0092 899 106.085 46.4572 481.276
801 0 71.0294 12.2484 870 108.195 48.3563 481.745
802 0 73.0496 13.1418 960 107.069 47.5958 478.376
803 0 76.142 12.3585 941 108.659 47.6344 477.707
804 0 76.1581 12.8942 982 108.003 47.2393 477.4
805 0 81.1347 13.4221 1089 106.863 47.1331 475.482
806 0 81.133 12.2145 991 109.926 47.3259 474.408
807 0 82.0496 11.8221 970 111.539 46.5784 472.351
808 0 88.0919 12.2145 1076 110.293 46.5177 472.542
809 0 92.133 13.4371 1238 105.739 46.9313 472.024
810 0 94.0398 13.9409 1311 105.16 47.3127 469.584
811 0 97.1469 13.8244 1343 107.235 46.8146 467.448
812 0 99.1422 13.052 1294 107.491 46.5162 465.283
813 0 102.065 11.7768 1202 109.559 46.7779 465.831
814 0 106.127 13.7666 1461 105.097 46.0815 462.182
815 1 55.0463 11.6811 643 104.272 47.1695 487.034
816 0 58.0448 10.8537 630 106.319 47.4937 486.108
817 0 60.0672 12.2696 737 105.206 46.7897 484.151
818 0 61.0764 11.9686 731 102.435 46.4692 484.573
819 0 64.0836 11.9375 765 100.605 46.5752 482.935
820 0 67.0957 13.1752 884 97.2195 46.3891 481.321
821 0 70.0212 12.8247 898 97.9109 46.5724 480.815
822 0 72.0776 12.9028 930 98.5667 45.9065 479.274
823 0 74.1437 12.3409 915 100.35 45.0973 475.764
824 0 76.079 13.1837 1003 98.1775 46.4596 475.518
825 0 79.0817 12.329 975 101.464 46.3949 474.937
826 0 84.0379 13.4344 1129 98.8441 45.5314 471.584
827 0 85.0625 12.4262 1057 111.36 46.1249 469.437
828 0 89.063 12.6989 1131 110.797 46.7268 467.704
829 0 91.1376 12.7061 1158 111.496 45.9119 467.13
830 0 96.1239 12.4423 1196 111.288 46.102 464.137
831 0 98.169 12.3053 1208 110.869 46.3667 463.351
832 0 103.14 12.7206 1312 110.169 46.1905 459.24
833 0 107.159 13.0553 1399 109.044 45.7513 458.708
834 0 108.282 12.3382 1336 101.906 46.8046 460.743
835 0 110.233 11.3215 1248 105.981 47.1026 458.995
836 0 113.228 11.6755 1322 101.437 46.146 450.009
837 1 57.0802 9.96843 569 101.555 46.0246 473.817
838 0 63.2071 12.3562 781 94.8092 46.5775 476.143
839 0 63.0599 11.3543 716 97.6913 46.6341 475.384
840 0 66.0382 10.3122 681 100.408 47.0029 472.072
841 0 72.1809 12.2886 887 98.4521 46.8613 476.452
842 0 75.0889 12.8514 965 98.4839 46.343 476.923
843 0 76.2437 12.1977 930 101.211 47.1903 472.284
844 0 81.1051 12.1201 983 100.595 47.3906 473.819
845 0 83.1681 12.0118 999 103.265 47.0951 471.941
846 0 87.081 12.4252 1082 107.314 46.7366 469.489
847 0 93.0747 14.021 1305 106.196 46.3847 468.33
848 0 95.1035 12.9543 1232 111.137 46.8677 465.153
849 0 99.1666 12.8672 1276 109.101 48.0494 463.588
850 0 101.155 13.0789 1323 109.422 47.158 460.751
851 1 55.1299 11.2643 621 104.135 47.2271 486.071
852 0 56.0651 11.4153 640 102.08 47.5875 486.097
853 0 60.0186 12.746 765 103.708 47.6915 483.163
854 0 61.1078 13.1243 802 108.612 48.0399 483.827
855 0 62.0724 12.7915 794 110.052 47.6537 481.8
856 0 64.1911 12.1824 782 111.873 47.1662 480.199
857 0 66.1031 13.7361 908 107.519 47.4637 479.898
858 0 70.1027 13.523 948 106.594 47.6023 479.762
859 0 72.1475 13.2091 953 107.405 47.3054 476.57
860 0 74.1871 12.5898 934 109.074 47.7602 473.669
861 0 78.2132 12.76 998 108.128 47.1062 472.678
862 0 78.2467 12.7801 1000 109.228 47.307 470.577
863 0 81.2269 12.6436 1027 109.546 47.3856 469.201
864 0 83.2187 12.2809 1022 110.119 46.5342 469.84
865 0 88.2405 13.3386 1177 106.929 47.503 466.967
866 1 49.2141 10.2816 506 107.804 47.0751 485.917
867 0 51.214 12.4575 638 103.657 46.884 484.257
868 0 50.2619 10.4453 525 104.771 46.5276 480.781
869 0 48.0504 10.3433 497 99.4064 46.1388 483.235
870 0 51.1672 10.4559 535 100.32 46.1103 480.258
871 0 53.0363 10.5022 557 100.18 46.8797 478.901
872 0 53.0512 10.4239 553 101.749 46.7306 478.796
873 0 57.1681 10.7927 617 99.1961 46.9109 478.799
874 0 56.0444 11.7942 661 98.8003 46.5204 477.52
875 0 59.115 11.8752 702 98.7678 46.6581 477.211
876 0 61.0464 13.2686 810 96.5432 47.4346 475.188
877 0 62.1708 10.9698 682 103.282 47.0176 470.824
878 0 64.0907 11.4213 732 102.514 46.6598 470.255
879 0 68.028 12.7595 868 98.28 46.5127 471.884
880 0 70.0532 12.0052 841 99.9037 46.8288 469.793
881 0 72.1023 12.5932 908 97.0143 46.391 466.128
882 0 77.1317 11.8369 913 98.6824 46.8499 468.668
883 0 77.1195 11.2553 868 100.9 46.7408 467.856
884 0 79.1546 11.9639 947 100.398 47.2682 465.348
885 0 82.0545 12.3454 1013 99.616 47.2813 464.279
886 0 86.0508 12.0394 1036 100.995 47.0637 461.201
887 0 89.1286 12.5773 1121 99.9028 47.5495 461.778
888 0 90.1288 11.4725 1034 103.064 47.5077 460.531
889 0 94.1796 12.2426 1153 101.643 47.013 457.023
890 0 99.0531 11.8522 1174 102.514 46.5945 455.223
891 0 104.188 12.5351 1306 105.9 47.0031 458.622
892 0 107.194 12.6593 1357 105.419 47.3346 456.19
893 1 53.1424 10.199 542 106.98 47.9446 482.186
894 0 59.1253 12.0253 711 105.977 46.5696 482.807
895 0 58.0327 11.3384 658 109.564 47.1793 480.831
896 0 63.1152 12.802 808 105.248 46.8329 480.313
897 0 63.0589 11.7509 741 108.066 47.861 480.333
898 0 67.0889 12.1928 818 106.156 47.9609 477.22
899 0 68.1414 12.3567 842 105.72 47.6188 475.903
900 0 73.0833 13.6693 999 101.864 47.9389 473.25
901 0 75.0921 12.1051 909 104.477 47.6249 475.296
902 0 79.0257 12.8439 1015 102.574 47.6177 472.486
903 0 80.0375 11.9819 959 105.237 47.4035 471.26
904 0 84.1059 12.6864 1067 103.826 47.7732 469.755
905 0 88.136 12.9572 1142 102.426 48.2224 468.187
906 0 92.1692 12.8351 1183 101.944 47.2147 467.889
907 0 95.1114 13.6577 1299 100.189 47.5781 466.041
908 0 96.1262 13.6799 1315 101.081 47.5894 462.827
909 0 100.191 13.3944 1342 102.681 47.8689 462.784
910 0 105.15 13.5806 1428 101.702 46.8151 463.569
911 0 109.127 13.5622 1480 102.33 47.1432 459.671
912 1 53.0389 11.3502 602 103.995 46.5947 483.478
913 0 58.1276 13.0059 756 97.0278 48.4974 482.552
914 0 58.0465 12.2488 711 97.3376 48.3783 484.259
915 0 60.0515 11.64 699 99.8856 48.0243 482.458
916 0 62.2267 12.808 797 96.2472 48.522 480.941
917 0 65.1714 14.3161 933 92.9228 48.0193 479.554
918 0 67.0759 13.9543 936 95.4295 47.5737 478.575
919 0 69.2053 13.4094 928 96.3308 48.2672 478.915
920 0 71.1104 14.0345 998 96.0521 47.7174 477.123
921 0 75.204 13.5099 1016 97.7116 48.8455 474.802
922 0 75.3629 13.4284 1012 99.165 47.4545 473.906
923 0 77.3364 13.7969 1067 101.979 47.6364 472.286
924 0 79.2656 13.7008 1086 105.854 47.5912 468.229
925 0 82.3218 13.2407 1090 107.246 47.7202 466.276
926 0 83.2329 12.5191 1042 109.12 47.9146 462.433
927 0 89.1469 14.4705 1290 103.847 47.6574 460.893
928 0 90.2709 14.6337 1321 104.56 46.704 461.501
929 0 94.3295 13.0182 1228 107.48 47.0643 461.772
930 1 49.2321 11.4559 564 104.39 46.8333 481.764
931 0 51.0276 9.8966 505 111.145 47.0594 477.671
932 0 53.0584 10.5167 558 109.271 47.6111 479.91
933 0 53.0503 10.4429 554 112.036 47.9477 476.917
934 0 63.1147 13.4834 851 109.405 47.9295 481.304
935 0 63.0725 11.4313 721 115.958 47.8655 480.637
936 0 64.1598 12.5156 803 113.465 47.5081 479.487
937 0 67.0907 12.9675 870 114.02 47.2632 476.818
938 0 69.0848 12.9117 892 114.365 47.6794 475.492
939 0 70.2254 12.4314 873 115.506 47.7262 476.16
940 0 73.2902 12.3345 904 114.425 47.5586 474.524
941 0 76.1019 11.9314 908 115.041 47.587 474.631
942 0 77.156 12.222 943 114.613 47.3139 472.487
943 0 79.1355 13.2936 1052 112.333 47.1939 471.168
944 0 83.1262 12.1502 1010 112.723 46.4079 470.673
945 0 87.2001 12.4656 1087 111.73 47.1987 471.435
946 0 89.0518 12.2513 1091 112.711 46.8442 468.652
947 0 93.0899 11.7521 1094 112.303 47.3263 468.561
948 1 48.1052 12.3479 594 108.042 47.8384 485.936
949 0 52.2437 12.0397 629 102.901 47.9889 487.272
950 0 52.1523 12.1375 633 104.054 48.376 483.452
951 0 53.0845 13.3749 710 101.535 48.2648 482.272
952 0 56.1212 12.3126 691 102.624 48.0203 481.098
953 0 58.0721 13.8965 807 99.1834 47.5229 484.051
954 0 59.1264 13.2766 785 101.274 47.6369 483.725
955 0 61.1077 13.1407 803 101.978 47.5529 481.575
956 0 62.1082 11.7376 729 106.322 47.1728 480.79
957 0 64.0858 11.625 745 105.954 46.9383 479.342
958 0 67.1649 12.8936 866 102.71 47.336 479.691
959 0 72.1038 12.7733 921 102.313 46.9902 476.38
960 0 73.1669 13.4487 984 101.35 47.6982 474.393
961 0 74.2831 12.7081 944 103.606 47.7436 474.294
962 0 77.1335 11.6292 897 106.184 47.7425 472.348
963 0 78.1224 12.0708 943 106.214 46.9374 473.304
964 0 78.0346 11.8281 923 110.088 46.6284 471.405
965 0 81.0929 11.7396 952 109.037 47.062 470.374
966 0 87.0774 12.4946 1088 107.679 47.295 468.244
967 0 89.0988 12.5479 1118 109.459 47.6395 462.852
968 0 92.1362 12.1125 1116 109.12 48.2661 465.653
969 1 51.0187 11.5644 590 113.183 48.1153 483.456
970 0 54.0644 12.1707 658 107.84 47.421 484.454
971 0 53.1545 12.586 669 105.507 47.0269 483.671
972 0 56.1076 12.2087 685 102.029 47.1971 480.505
973 0 59.0426 13.2955 785 99.8535 47.1439 480.433
974 0 61.0916 12.5222 765 101.797 47.2641 479.324
975 0 63.0948 13.1548 830 102.614 47.7554 480.948
976 0 65.0875 13.2591 863 103.063 48.2121 477.874
977 0 68.06 12.2833 836 105.441 47.7943 476.367
978 0 70.2747 13.9595 981 102.565 47.8349 476.512
979 0 75.0886 13.6772 1027 110.201 48.519 474.98
980 0 75.1207 13.6314 1024 111.254 48.4697 472.703
981 0 76.1063 12.6271 961 115.76 48.4079 472.07
982 0 77.0907 12.6734 977 115.795 48.3603 472.76
983 0 81.0601 12.8423 1041 114.915 48.2834 471.194
984 0 84.1397 13.7866 1160 112.397 47.9138 471.233
985 0 88.1424 12.7634 1125 114.048 47.8551 469.11
986 0 92.1436 13.9131 1282 109.498 47.4041 468.403
987 0 91.0884 12.4494 1134 114.762 46.8104 466.486
988 0 100.241 12.8191 1285 111.338 47.1556 464.327
989 0 99.1715 13.1086 1300 109.25 47.2962 464.328
990 1 55.0562 10.3167 568 111.562 47.4454 486.174
991 0 58.1044 12.0817 702 109.464 47.7436 481.698
992 0 59.0518 13.2426 782 106.315 48.234 484.1
993 0 62.073 12.6625 786 109.412 48.3117 481.639
994 0 64.0514 12.3651 792 110.078 47.7727 480.991
995 0 66.1196 14.2469 942 105.464 47.8981 478.419
996 0 69.0986 13.4301 928 107.652 47.3933 476.316
997 1 78.0668 10.4654 817 111.344 47.5483 479.208
998 0 77.0531 11.4986 886 110.753 47.4255 477.059
999 0 78.0694 12.7323 994 109.65 48.3199 473.306
1000 0 79.0849 12.5182 990 110.517 47.9465 473.288
1001 0 82.0674 14.6709 1204 104.889 48.4053 472.067
1002 0 83.1217 12.8366 1067 109.979 48.0169 472.174
1003 0 86.148 12.9777 1118 109.792 48.5107 470.659
1004 0 88.1625 14.0763 1241 107.268 48.3666 468.637
1005 0 92.1807 13.5386 1248 108.453 48.2885 466.702
1006 0 96.2512 14.7635 1421 105.563 47.9092 466.005
1007 0 96.108 13.2871 1277 111.357 47.6343 462.591
1008 0 100.155 13.7686 1379 110.305 47.5722 460.214
1009 0 103.103 13.695 1412 109.025 48.0652 461.148
1010 0 105.067 14.1529 1487 107.482 48.694 457.022
1011 0 110.317 12.9627 1430 109.236 48.1503 455.123
1012 0 113.169 13.1927 1493 104.871 48.207 456.524
1013 0 116.199 13.6232 1583 104.769 48.7334 454.071
1014 0 118.264 13.9603 1651 104.789 48.4658 450.842
1015 0 123.102 13.8341 1703 105.714 48.7968 449.308
1016 0 126.195 14.2002 1792 108.063 48.5184 447.381
1017 0 131.15 14.5559 1909 105.797 48.7805 444.969
1018 0 135.203 13.8607 1874 107.68 48.5774 437.52
1019 0 141.13 13.895 1961 106.22 47.7012 427.314
1020 0 144.201 13.9389 2010 106.218 48.6612 423.803
1021 0 151.267 14.7686 2234 107.393 48.1097 427.894
1022 0 155.191 15.0975 2343 109.549 48.079 423.908
1023 0 159.324 14.3544 2287 111.6 48.3236 425.51
1024 0 165.248 14.4934 2395 111.792 48.3273 421.585
1025 0 172.259 15.4883 2668 108.231 48.4089 421.217
1026 1 92.1227 13.5037 1244 104.366 48.1431 463.832
1027 0 94.1405 12.6832 1194 110.086 47.6993 464.97
1028 0 95.0844 12.4626 1185 114.023 47.8211 460.258
1029 0 99.037 14.641 1450 106.926 47.5186 458.304
1030 0 102.187 13.7395 1404 109.747 48.4779 456.745
1031 0 107.123 13.8439 1483 107.622 47.9278 457.995
1032 0 112.152 14.2664 1600 106.517 48.465 454.856
1033 0 116.16 13.9549 1621 107.287 47.6817 452.115
1034 0 118.067 12.7893 1510 110.621 48.3073 446.746
1035 0 122.196 14.0675 1719 106.841 48.6463 445.572
1036 0 125.118 14.2665 1785 106.517 48.3798 443.632
1037 0 127.17 12.4165 1579 111.853 48.3724 435.446
1038 0 133.143 13.8122 1839 108.675 47.4589 438.476
1039 0 137.198 13.7247 1883 109.357 48.9357 434.873
1040 0 142.152 14.4071 2048 108.279 48.7285 432.395
1041 0 150.229 14.7708 2219 106.844 48.4182 431.233
1042 0 153.12 14.4004 2205 109.763 48.4884 426.801
1043 0 158.271 14.7658 2337 110.521 48.0958 426.019
1044 0 164.281 14.1648 2327 112.533 49.226 422.066
1045 0 171.288 13.8831 2378 114.489 48.815 420.87
1046 0 176.258 13.9171 2453 118.7 47.6828 418.552
1047 0 183.35 14.5187 2662 115.786 48.0485 413.987
1048 0 189.234 14.5693 2757 112.354 48.3134 407.389
1049 0 196.309 14.5281 2852 111.473 48.2013 403.348
1050 0 203.276 13.8531 2816 112.719 48.3647 400.749
1051 0 208.507 13.3809 2790 115.003 47.7326 388.501
1052 1 48.0878 7.40313 356 89.382 48.0534 477.239
1053 0 55.0495 11.2989 622 91.6206 48.0547 482.473
1054 0 57.045 11.9379 681 92.4699 47.9868 481.821
1055 0 58.0732 11.7782 684 91.6155 48.0015 479.123
1056 0 60.0811 11.1849 672 94.0565 48.683 482.198
1057 0 63.0592 12.0839 762 93.1877 48.1837 479.58
1058 0 65.0561 11.8052 768 94.1667 47.7409 478.568
1059 0 66.0529 11.3545 750 95.104 48.3013 477.767
1060 0 69.0826 10.8276 748 94.5388 46.7513 476.628
1061 0 70.0722 10.8745 762 95.3793 47.2848 477.543
1062 0 71.0662 10.7083 761 99.8778 47.9264 476.867
1063 1 125.175 13.0138 1629 100.579 48.205 450.222
1064 0 129.183 13.477 1741 99.695 48.2556 445.169
1065 0 132.156 11.8799 1570 102.564 47.8439 445.162
1066 0 138.162 12.2465 1692 103.304 47.3848 443.726
1067 0 142.265 12.4837 1776 103.868 47.2517 439.794
1068 1 53.0725 11.0038 584 97.6164 47.3716 483.144
1069 0 55.0574 13.1862 726 90.8347 47.7273 484.167
1070 0 53.068 10.7032 568 98.7817 48.2201 485.625
1071 0 56.0496 10.9367 613 99.137 48.0865 484.113
1072 0 57.0386 10.3965 593 99.6712 48.2901 483.685
1073 1 81.1086 13.4511 1091 80.7489 48.5628 473.899
1074 0 82.1852 15.7206 1292 76.9334 47.7585 473.501
1075 0 80.2106 15.4344 1238 80.1292 47.8223 470.884
1076 0 78.1125 17.9997 1406 81.2368 47.5036 462.885
1077 0 69.0345 12.3851 855 91.0807 48.3099 455.284
1078 0 72.0737 13.6111 981 89.0153 47.3119 455.769
1079 0 75.0486 11.1528 837 93.9797 48.3441 456.585
1080 0 76.0659 13.7512 1046 90.9245 48.2237 455.343
1081 0 79.0319 13.9184 1100 90.0536 48.5945 455.288
1082 0 81.0746 12.9264 1048 94.2538 48.7042 453.548
1083 0 82.1009 12.777 1049 96.0925 49.5214 453
1084 0 84.0594 12.8362 1079 96.5505 49.2076 451.961
1085 0 86.0579 13.8628 1193 96.461 49.0218 450.601
1086 0 91.0981 14.0398 1279 96.6294 49.2346 448.698
1087 0 90.0776 12.4004 1117 101.146 49.8684 450.661
1088 0 96.1093 13.9841 1344 97.7463 49.5238 449.452
1089 0 97.1086 13.3871 1300 99.5777 49.0731 448.073
1090 0 99.1857 13.3991 1329 100.561 49.3138 447.785
1091 0 103.088 13.1829 1359 102.742 50.0662 446.802
1092 0 106.085 13.2818 1409 103.167 49.2874 445.221
1093 0 109.14 13.1941 1440 112.374 49.5472 442.056
1094 1 57.0961 11.682 667 113.261 50.6507 463.999
1095 0 61.1935 12.8772 788 106.777 49.7843 461.256
1096 0 61.0863 12.5887 769 108.632 49.2809 456.821
1097 0 64.1239 12.6474 811 102.186 49.7275 463.824
1098 0 67.0501 12.5727 843 101.669 49.5397 467.772
1099 0 68.1293 11.8158 805 104.024 50.3217 471.416
1100 0 70.178 12.4255 872 104.911 50.5665 476.29
1101 0 73.0775 12.8357 938 104.529 49.9371 473.451
1102 0 75.0712 12.8545 965 103.57 49.6912 466.141
1103 0 79.0819 14.5166 1148 101.867 49.5462 465.205
1104 0 81.0731 12.8896 1045 116.254 49.0756 469.817
1105 0 84.1397 13.7034 1153 113.713 49.5837 467.172
1106 0 87.0571 13.6692 1190 113.397 50.0445 462.978
1107 0 91.1581 13.6795 1247 111.784 49.2125 459.92
1108 0 94.1769 13.6233 1283 108.418 49.0436 458.938
1109 1 50.1573 13.4377 674 109.396 49.1543 477.593
1110 0 53.0695 13.6613 725 107.255 49.2731 478.857
1111 0 55.0343 13.9913 770 105.825 49.1662 479.151
1112 0 54.0488 12.9883 702 108.718 49.3661 478.503
1113 0 56.0469 13.6493 765 107.575 49.2353 476.38
1114 0 58.1585 13.1021 762 108.48 49.6194 475.197
1115 0 60.0334 12.9595 778 108.113 49.4216 474.337
1116 0 62.1647 14.4455 898 103.996 49.8107 474.115
1117 0 65.081 13.1375 855 98.1368 49.1626 472.325
1118 0 65.0805 13.0761 851 99.0447 49.7908 470.905
1119 0 65.1164 11.7328 764 102.514 49.8874 469.815
1120 0 69.1519 12.4364 860 101.956 48.014 468.684
1121 0 70.1009 12.6817 889 101.999 49.2767 467.625
1122 0 75.1509 14.0517 1056 98.8191 48.9157 463.881
1123 0 76.1938 12.6257 962 100.713 49.3669 465.088
1124 0 79.1206 13.1066 1037 99.7425 49.2729 463.058
1125 0 82.2174 12.248 1007 100.217 49.2761 464.056
1126 0 83.1825 12.2862 1022 100.133 49.2544 462.257
1127 1 48.1045 13.1796 634 100.2 50.0568 478.352
1128 0 51.0837 13.6638 698 99.3739 49.6619 477.789
1129 0 53.1176 12.9524 688 101.469 49.1163 475.846
1130 0 56.1887 12.6182 709 102.323 49.4415 474.316
1131 0 59.1598 14.1988 840 98.0131 49.9024 474.357
1132 0 60.1193 13.4566 809 99.4265 50.3263 475.574
1133 0 63.1641 12.3171 778 103.104 49.117 472.098
1134 0 65.2213 13.2012 861 101.934 49.5726 470.571
1135 0 67.2293 13.7143 922 101.113 49.6009 468.453
1136 0 68.2054 12.7409 869 104.868 49.3003 469.132
1137 0 72.1844 14.1305 1020 100.878 48.8598 467.452
1138 0 74.3034 13.0142 967 104.915 49.4147 466.813
1139 0 77.4252 13.8844 1075 102.258 48.9795 466.04
1140 0 81.2216 14.442 1173 101.66 48.7732 462.258
1141 0 86.2413 13.7753 1188 102.699 49.3123 463.529
1142 0 85.1738 13.0909 1115 107.026 48.9587 463.001
1143 0 90.3499 15.1854 1372 101.678 49.0612 460.552
1144 0 93.3095 14.3608 1340 105.722 48.9015 457.551
1145 0 97.3708 14.1418 1377 107.196 49.3268 456.639
1146 0 99.2842 13.3959 1330 111.18 49.2586 455.174
1147 0 101.322 13.0574 1323 113.808 49.8821 453.885
1148 0 105.286 13.0977 1379 114.291 49.3089 451.707
1149 0 110.382 13.562 1497 113.278 49.2545 450.935
1150 0 113.352 14.5741 1652 113.427 48.9613 446.237
1151 1 159.297 13.0072 2072 114.154 49.3581 427.374
1152 0 167.379 14.7988 2477 110.053 49.8966 425.576
1153 1 122.276 12.341 1509 122.636 49.9954 440.329
1154 0 129.615 14.0261 1818 117.167 49.5028 440.961
1155 0 133.297 13.136 1751 119.508 50.3798 441.877
1156 0 139.496 13.5201 1886 118.756 50.3542 438.975
1157 1 193.36 12.95 2504 117.359 50.2963 413.846
1158 0 201.464 14.6329 2948 113.171 50.2975 410.858
1159 0 208.489 13.9959 2918 115.85 49.5031 406.67
1160 1 74.1149 14.3291 1062 121.528 50.5857 464.807
1161 0 75.2624 14.1106 1062 125.141 49.4492 461.392
1162 0 81.1836 14.264 1158 121.731 49.8912 464.067
1163 0 83.0765 15.251 1267 120.876 49.8469 459.638
1164 0 86.1327 14.408 1241 123.254 49.6527 460.907
1165 0 87.1863 14.0733 1227 126.061 49.7971 458.967
1166 0 94.0836 14.8166 1394 123.205 49.495 458.901
1167 0 95.1764 14.8671 1415 125.638 49.7894 455.449
1168 0 98.1315 13.8182 1356 128.708 49.663 455.036
1169 0 100.14 14.1202 1414 130.31 49.6909 452.55
1170 0 102.183 13.9064 1421 132.688 49.7488 451.061
1171 0 105.273 14.6666 1544 130.602 49.636 451.335
1172 0 110.144 15.3618 1692 129.329 49.9261 450.375
1173 0 112.118 13.9853 1568 135.383 50.3693 447.453
1174 0 115.101 14.3699 1654 134.873 50.0248 446.73
1175 0 119.109 14.5581 1734 135.502 50.7618 444.424
1176 0 123.146 15.4857 1907 132.794 49.2653 441.441
1177 0 128.316 15.1656 1946 133.213 49.5832 440.266
1178 0 130.29 14.6442 1908 135.468 49.8433 437.772
1179 0 134.263 14.7248 1977 135.917 49.3207 435.502
1180 0 136.136 14.2357 1938 137.1 49.3369 433.181
1181 0 142.294 14.3435 2041 135.106 49.3469 432.007
1182 0 149.404 14.578 2178 132.918 49.2397 430.312
1183 0 153.293 14.9322 2289 132.437 49.585 427.835
1184 0 159.206 14.8989 2372 131.353 49.984 425.586
1185 0 164.479 14.5976 2401 132.235 50.0783 422.621
1186 0 172.512 16.1322 2783 127.451 49.9055 421.031
1187 0 175.223 14.3532 2515 134.852 50.0334 417.682
1188 0 182.453 14.7106 2684 132.805 49.8178 413.472
1189 1 122.306 13.6789 1673 138.772 49.5553 442.316
1190 0 129.274 14.1405 1828 136.951 50.1761 444.477
1191 0 132.292 14.3093 1893 137.824 49.7359 440.213
1192 0 137.508 14.2973 1966 137.387 49.3678 436.841
1193 0 142.26 13.8408 1969 137.139 49.8045 435.206
1194 0 147.278 13.8989 2047 136.491 49.49 434.055
1195 0 155.315 14.7185 2286 133.855 49.1829 428.878
1196 1 78.1647 10.2732 803 131.66 49.5131 468.418
1197 0 82.1161 11.4472 940 128.11 49.3213 466.913
1198 0 83.0597 11.3051 939 128.553 49.1949 465.463
1199 0 86.186 12.0785 1041 126.983 48.7051 464.206
1200 0 86.1427 10.9005 939 131.273 49.623 459.135
1201 0 91.3375 11.3097 1033 127.036 50.0552 460.877
1202 1 56.0549 9.99021 560 107.868 49.6107 480.523
1203 0 58.0913 9.38179 545 109.007 48.655 479.89
1204 0 60.0364 9.22774 554 108.484 49.648 478.397
1205 0 60.0932 9.15245 550 110.082 49.7364 476.644
1206 0 65.0349 8.97979 584 119.668 50.8288 476.036
1207 0 66.034 9.93428 656 117.782 50.8704 475.271
1208 0 70.0445 9.97937 699 116.315 51.2632 474.511
1209 0 72.024 10.2466 738 117.034 50.9038 469.37
1210 0 75.0712 10.5233 790 113.213 51.0266 471.13
1211 0 75.0642 8.7525 657 115.294 50.7854 470.333
1212 0 81.0821 10.2735 833 109.316 50.7263 468.119
1213 0 82.0997 8.50185 698 110.729 50.4427 464.423
1214 0 86.0309 8.12499 699 107.295 50.3476 466
1215 0 87.1194 7.98903 696 106.068 50.8333 465.879
1216 0 89.0389 7.54726 672 106.04 50.8571 464.185
1217 1 47.0162 9.5499 449 91.588 50.1047 483.305
1218 0 49.0144 9.46661 464 90.8944 50.8987 484.985
1219 0 51.1205 10.309 527 92.4326 49.7856 484.228
1220 0 50.094 8.46409 424 96.6274 49.1509 484.158
1221 0 51.1811 9.10493 466 95.7446 49.7833 482.813
1222 0 55.0744 10.3496 570 92.9351 49.8263 482.291
1223 0 56.1415 9.88573 555 96.6126 49.4541 480.613
1224 0 57.1766 9.19957 526 99.0437 49.6958 478.817
1225 0 58.1748 9.71211 565 98.4265 49.3381 477.265
1226 0 63.0878 10.1604 641 97.6037 50.0577 477.505
1227 0 63.1601 10.3388 653 98.559 49.5283 474.819
1228 0 64.1642 10.0679 646 100.981 49.3282 474.461
1229 0 68.0767 11.1639 760 99.3237 49.4908 473.695
1230 0 67.2902 10.4473 703 101.785 50.3001 471.434
1231 0 72.1317 11.576 835 98.4216 49.8156 469.309
1232 0 75.0273 10.2229 767 102.654 49.6597 469.27
1233 0 77.194 10.4671 808 103.134 49.7673 470.199
1234 0 77.2897 10.3636 801 103.945 51.1523 470.02
1235 0 77.0849 10.1836 785 106.276 50.2917 469.992
1236 0 77.1392 8.47818 654 111.055 50.708 469.495
1237 0 79.081 7.63774 604 112.924 50.7682 469.682
1238 0 76.1439 8.6284 657 109.641 50.79 469.107
1239 0 78.0523 9.4552 738 109.21 50.9404 466.198
1240 0 80.087 8.55319 685 111.581 50.6715 466.585
1241 1 125.298 11.2372 1408 110.685 50.4737 446.606
1242 0 125.107 10.6948 1338 114.398 49.5673 443.333
1243 1 170.245 9.21611 1569 119.44 50.6259 427.727
1244 0 173.272 9.68999 1679 120.73 50.4395 419.786
1245 0 177.233 8.96559 1589 122.114 49.3052 423.463
1246 0 187.558 10.5781 1984 118.47 49.9466 417.03
1247 0 192.476 9.62716 1853 119.744 49.8408 415.126
1248 0 199.325 10.5054 2094 118.081 48.9188 409.893
1249 0 204.382 10.1036 2065 120.269 49.601 404.537
1250 0 207.422 9.46379 1963 121.664 49.2705 410.541
1251 0 209.398 10.0717 2109 121.516 49.7606 406.064
1252 0 206.401 5.13078 1059 125.111 49.8489 427.461
1253 0 208.403 6.14676 1281 121.236 49.4239 423.03
1254 1 53.0689 7.25472 385 106.164 49.9195 484.301
1255 0 57.032 8.97741 512 104.711 49.7207 477.236
1256 0 60.074 9.53824 573 103.642 49.6736 476.895
1257 0 65.0464 8.7476 569 102.209 49.7803 476.859
1258 0 71.0916 9.46665 673 100.853 49.2526 476.715
1259 0 72.0341 9.93973 716 100.591 50.4036 473.937
1260 1 134.369 8.68504 1167 106.972 50.8809 450.469
1261 1 78.0233 10.4712 817 97.3831 50.2644 473.547
1262 1 41.0296 9.91968 407 100.6 50.1867 488.236
1263 0 43.1149 10.9475 472 97.928 50.1758 488.646
1264 0 43.0329 10.9219 470 96.7681 50.4191 488.668
1265 0 42.0146 10.4726 440 95.8205 50.3318 489.091
1266 0 45.0497 10.1222 456 96.0154 50.057 486.693
1267 0 46.0492 11.1185 512 94.5312 50.248 487.748
1268 0 44.033 7.94859 350 102.866 49.7771 489.823
1269 0 46.0184 9.30062 428 100.68 50.3131 489.402
1270 0 44.0305 9.67511 426 101.434 50.5094 488.683
1271 0 46.0461 9.64251 444 102.583 49.8851 485.836
1272 0 47.0504 10.3294 486 101.379 50.9568 486.093
1273 0 51.0667 10.8877 556 99.0683 51.2194 485.665
1274 0 51.0356 10.8356 553 99.9494 51.4213 485.897
1275 0 52.046 9.51081 495 102.539 51.5172 486.17
1276 0 53.0701 10.4579 555 102.791 51.236 484.068
1277 0 52.0625 10.3145 537 103.501 51.3613 484.045
1278 0 58.122 10.7188 623 102.387 51.4783 481.831
1279 0 60.0914 10.3842 624 102.692 51.7051 480.929
1280 0 63.1218 11.1213 702 102.239 50.3219 478.702
1281 0 64.0463 10.6017 679 102.764 51.0162 480.513
1282 0 67.0754 11.7331 787 103.052 50.7776 477.498
1283 0 69.0256 10.4889 724 104.142 51.1354 479.746
1284 0 71.0601 11.3566 807 104.311 51.575 474.31
1285 0 75.1483 12.309 925 102.366 51.6249 474.321
1286 0 77.0593 12.406 956 101.421 51.4351 474.692
1287 0 79.1229 12.6638 1002 102.778 51.3313 471.191
1288 0 83.0613 11.6902 971 105.689 51.5808 470.795
1289 1 43.06 11.5653 498 110.944 51.8876 487.014
1290 0 43.3586 11.8085 512 111.109 52.1895 481.133
1291 0 46.2275 11.5083 532 113.135 51.765 475.906
1292 0 45.1953 11.0631 500 115.28 52.432 480.252
1293 0 48.3496 13.6919 662 106.051 53.1178 482.87
1294 0 48.2696 12.4716 602 109.907 53.1561 484.032
1295 0 50.2444 13.3547 671 108.41 53.2027 482.68
1296 0 50.2535 11.9196 599 113.124 52.7295 482.379
1297 0 53.2225 13.1148 698 108.587 52.5444 480.547
1298 0 54.2886 13.0783 710 109.383 52.6958 481.501
1299 0 54.1494 14.2014 769 106.971 52.5839 480.563
1300 0 57.2778 14.7526 845 105.186 51.2059 479.35
1301 0 58.1747 13.3735 778 109.176 52.3509 479.518
1302 0 57.1885 13.6041 778 109.785 52.045 479.488
1303 0 59.1904 12.823 759 112.058 52.4018 478.717
1304 0 60.2293 13.9633 841 108.781 52.2283 478.042
1305 0 63.2482 13.1229 830 111.076 52.5313 477.284
1306 0 63.1732 13.3284 842 110.785 52.2708 478.42
1307 0 66.2467 12.5289 830 112.923 52.1506 475.835
1308 0 67.2293 13.2383 890 111.294 52.0753 474.148
1309 0 68.22 13.6031 928 110.46 51.5334 473.962
1310 0 70.1827 12.1255 851 113.371 52.3984 473.966
1311 0 75.1444 12.8286 964 112.011 51.695 472.952
1312 0 77.2153 14.5437 1123 107.632 51.1256 471.673
1313 0 79.1872 13.7522 1089 109.551 51.1901 470.09
1314 0 81.09 13.4419 1090 108.22 51.6468 469.738
1315 1 43.0075 11.1143 478 109.366 50.7803 487.787
1316 0 47.0593 11.9849 564 105.266 52.0177 487.704
1317 0 47.1412 11.2852 532 103.872 51.7105 485.355
1318 0 50.234 12.601 633 109.254 51.5134 482.921
1319 0 47.0733 11.0891 522 106.452 51.3103 486.496
1320 0 47.0539 11.5399 543 105.738 51.1565 486.993
1321 0 50.0264 11.7338 587 105.053 50.6661 485.083
1322 0 49.0367 10.5023 515 106.899 50.9553 485.72
1323 0 52.067 11.7733 613 105.065 50.7145 483.874
1324 0 54.0895 12.128 656 103.585 50.5777 484.363
1325 0 56.064 13.0208 730 101.244 50.7521 484.489
1326 0 56.1127 11.9224 669 104.848 51.0508 483.833
1327 0 58.092 12.7556 741 104.29 50.7841 482.688
1328 0 60.0481 12.7731 767 105.514 50.2973 481.43
1329 0 63.0317 12.5968 794 105.736 50.4295 481.149
1330 0 62.0596 13.342 828 107.318 50.378 478.641
1331 0 64.0366 12.2586 785 109.282 49.7605 479.187
1332 0 67.1265 12.6776 851 108.02 50.4207 476.949
1333 0 70.1191 12.3504 866 108.783 49.8891 476.245
1334 0 69.0674 11.9738 827 111.572 50.2225 476.551
1335 0 74.0828 13.9034 1030 106.327 50.3398 473.453
1336 0 77.2612 13.4997 1043 107.581 49.8869 473.46
1337 0 79.0497 13.2575 1048 109.22 49.7872 471.988
1338 0 80.1 13.2709 1063 108.854 48.6472 473.997
1339 0 82.1065 12.9344 1062 109.298 49.5621 472.348
1340 0 83.0886 11.6984 972 112.636 48.643 470.896
1341 0 88.2831 12.5619 1109 108.869 49.5518 471.244
1342 0 90.1412 13.1682 1187 108.123 49.3951 468.473
1343 1 50.2299 12.2437 615 111.016 49.0163 484.558
1344 0 51.2845 12.3429 633 111.853 49.4976 484.174
1345 0 54.0418 12.5459 678 110.695 49.8702 484.752
1346 0 56.0501 13.5593 760 108.928 49.8605 484.242
1347 0 56.0276 12.7616 715 111.341 49.5916 484.263
1348 0 59.1168 12.7037 751 111.154 49.1332 482.786
1349 0 62.0466 13.3287 827 107.839 49.2092 483.143
1350 0 61.108 12.977 793 111.269 48.7654 482.025
1351 0 62.1682 12.3858 770 111.951 49.0883 481.716
1352 0 64.0937 13.2618 850 110.924 49.0459 478.689
1353 0 66.1111 13.4924 892 109.467 49.5202 479.867
1354 0 68.2893 12.7692 872 111.482 48.7133 478.516
1355 0 71.1257 12.7942 910 112.059 48.9626 477.19
1356 0 73.204 13.3463 977 110.026 48.8751 478.468
1357 0 76.0935 13.0366 992 110.632 48.8589 476.527
1358 0 78.0784 13.3712 1044 110.313 48.2854 474.851
1359 0 81.2931 13.519 1099 109.55 47.9372 472.486
1360 0 82.2499 12.9727 1067 111.817 48.0337 469.851
1361 0 85.2645 13.4405 1146 109.724 48.0131 470.877
1362 0 90.2361 15.6922 1416 102.457 48.2387 469.931
1363 0 88.1795 11.7715 1038 103.404 48.3487 469.714
1364 0 92.1423 11.2652 1038 102.807 48.3988 472.108
1365 1 49.1112 11.6063 570 99.6912 48.114 489.095
1366 0 51.0544 11.0862 566 105.845 47.8304 486.693
1367 0 53.0909 12.6764 673 98.4577 48.0149 486.068
1368 0 54.0537 11.7661 636 96.8852 47.2484 487.594
1369 0 56.0468 12.7929 717 94.9972 48.3361 486.028
1370 0 57.052 12.6551 722 95.0166 47.813 483.677
1371 0 58.0738 12.5185 727 94.9092 47.7442 484.499
1372 0 59.0526 11.7184 692 96.8829 48.3194 484.74
1373 0 62.0605 11.6338 722 96.2355 47.1994 483.924
1374 0 64.0937 11.9825 768 96.181 46.8086 481.926
1375 0 66.0711 12.4109 820 96.7695 47.0232 478.751
1376 0 70.0327 12.3371 864 105.84 47.6007 479.118
1377 0 70.0528 12.4763 874 106.515 48.0789 475.573
1378 0 74.0904 13.47 998 103.267 48.3417 476.318
1379 0 73.2508 12.1637 891 109.157 46.7598 475.559
1380 0 77.0899 12.3103 949 108.06 46.8303 474.311
1381 0 79.0541 12.7381 1007 106.532 46.5164 474.037
1382 0 79.0421 12.0948 956 109.554 46.6266 472.588
1383 0 83.1535 13.2165 1099 106.529 46.6688 471.94
1384 0 86.0812 12.3372 1062 108.662 47.21 467.346
1385 0 89.1371 12.6995 1132 106.907 46.6979 467.824
1386 0 93.1761 13.0828 1219 106.496 47.589 466.817
1387 0 95.1287 12.7406 1212 105.503 47.5322 464.662
1388 1 49.1264 11.1142 546 101.615 48.4945 488.901
1389 0 47.0451 10.7769 507 106.659 47.3945 487.239
1390 0 49.0737 10.5759 519 104.424 48.3854 484.522
1391 0 50.042 11.3105 566 104.714 48.1572 487.505
1392 0 53.2168 11.3498 604 105.048 47.3626 487.533
1393 0 54.1346 12.3211 667 102.672 47.8411 487.166
1394 0 56.112 11.3345 636 105.664 47.5865 486.616
1395 0 59.1231 12.178 720 103.517 47.9556 486.582
1396 0 60.1277 11.8248 711 103.36 47.2208 486.897
1397 0 60.0615 11.7213 704 105 48.4418 484.786
1398 0 61.1895 12.208 747 105.553 47.0054 483.217
1399 0 65.1231 12.914 841 102.799 46.9405 482.556
1400 0 67.1315 12.8852 865 103.121 47.1642 481.092
1401 0 70.1374 13.887 974 100.618 47.3357 481.391
1402 0 70.1302 13.6461 957 103.112 47.7273 479.276
1403 0 73.2753 13.6608 1001 102.845 46.4955 479.028
1404 0 75.1786 13.7938 1037 102.736 46.4465 479.163
1405 0 77.144 12.6646 977 106.861 46.2948 476.984
1406 0 78.2054 12.9275 1011 107.127 46.7052 474.549
1407 0 80.3321 13.4566 1081 105.852 46.6735 473.855
1408 0 81.0974 12.5281 1016 108.609 47.3917 474.692
1409 0 84.2576 13.3044 1121 107.095 47.1008 472.039
1410 0 85.2289 13.364 1139 107.216 47.3424 470.738
1411 0 90.1515 14.9193 1345 102.619 46.855 471.056
1412 0 91.1953 13.8055 1259 105.276 46.8086 469.753
1413 0 89.1303 11.2307 1001 108.116 46.2158 468.902
1414 0 96.2945 14.0195 1350 101.875 46.1696 463.549
1415 1 51.1196 11.1894 572 101.986 46.7832 486.362
1416 0 50.0682 11.005 551 100.811 46.9201 483.595
1417 0 51.0928 10.2167 522 102.356 46.5134 482.975
1418 0 51.1232 11.0909 567 96.1305 45.6526 480.705
1419 0 53.067 10.5527 560 98.5536 46.3161 480.207
1420 0 58.0611 10.5062 610 96.5033 45.9426 481.77
1421 0 59.2376 10.6858 633 97.2164 46.5987 480.724
1422 0 57.0951 9.98334 570 100.621 46.6702 478.261
1423 0 64.0939 10.5782 678 98.2507 46.2596 479.226
1424 0 64.0363 11.8214 757 96.7701 45.9445 476.997
1425 0 65.0491 12.8211 834 95.241 46.2878 477.33
1426 0 68.0982 12.9225 880 95.0864 46.8375 474.71
1427 0 69.1042 11.9964 829 96.5995 47.0603 475.496
1428 0 70.1262 11.0515 775 98.7923 46.4942 474.24
1429 0 74.2019 13.1533 976 94.0902 46.2572 473.357
1430 0 77.0469 12.1095 933 96.4341 46.1468 472.394
1431 0 82.1027 12.119 995 103.806 46.0492 474.475
1432 0 83.0509 13.2208 1098 102.372 45.7222 472.271
1433 0 86.1945 13.2607 1143 102.933 45.6667 470.515
1434 1 46.0097 11.2585 518 98.2066 46.332 495.027
1435 0 46.0316 10.8838 501 98.4072 45.8323 493.585
1436 0 49.2713 12.5022 616 96.3961 46.5666 491.37
1437 0 49.1234 12.6009 619 105.128 47.1906 489.879
1438 0 50.0376 11.991 600 106.437 46.7383 490.438
1439 0 54.0515 12.7841 691 103.689 46.4399 489.279
1440 0 54.0695 13.1312 710 104.43 46.7239 487.527
1441 0 56.0194 12.5492 703 105.034 46.2575 487.403
1442 0 56.0514 12.9167 724 105.128 46.6906 486.188
1443 0 59.115 12.7717 755 104.649 46.4305 486.494
1444 0 59.0269 12.7061 750 105.281 46.756 484.807
1445 0 60.1182 12.4921 751 106.201 46.7257 483.317
1446 0 64.0607 12.7379 816 104.299 46.8811 482.944
1447 0 65.1725 12.0449 785 105.953 46.9694 481.048
1448 0 69.1968 12.5006 865 103.345 46.859 481.644
1449 0 71.0713 13.8452 984 99.8028 46.4868 479.525
1450 0 72.1026 14.0217 1011 99.6548 46.6894 478.986
1451 0 74.2268 13.7147 1018 100.505 47.0422 476.432
1452 0 78.0901 13.6765 1068 98.8315 46.5852 476.793
1453 0 81.1015 14.377 1166 96.8148 47.0703 475.024
1454 0 82.085 12.085 992 99.0091 46.8548 473.641
1455 1 45.05 11.7869 531 94.6045 47.9454 494.081
1456 0 45.0341 11.9465 538 94.9424 47.8253 492.803
1457 0 46.0521 11.335 522 98.9751 47.3065 492.052
1458 0 49.0449 12.4172 609 95.197 47.4138 491.013
1459 0 47.0491 13.3478 628 87.7197 47.215 492.954
1460 0 47.1035 11.2518 530 91.9321 47.0774 490.925
1461 0 49.0577 12.0063 589 90.4839 47.4007 489.874
1462 0 50.0309 12.1925 610 90.541 46.0885 489.451
1463 0 52.1325 11.7969 615 91.0341 46.7772 489.034
1464 0 55.0766 13.3814 737 87.5034 46.0014 488.061
1465 0 56.0246 12.4767 699 89.1631 46.3848 487.333
1466 0 58.0933 11.0684 643 93.168 46.7076 486.53
1467 0 59.1418 12.5968 745 91.0564 46.804 484.479
1468 0 61.0466 12.8918 787 90.8119 46.1055 484.149
1469 0 62.0683 12.8568 798 91.0639 47.1516 483.264
1470 0 66.0423 13.8245 913 89.1654 46.6331 482.193
1471 0 66.0823 13.0746 864 91.2581 45.8067 480.678
1472 0 69.0779 13.8684 958 90.5637 46.477 478.937
1473 0 70.1249 12.8057 898 93.4131 46.7261 480.094
1474 0 72.1436 14.2909 1031 91.6256 46.7245 477.83
1475 0 75.2255 13.3997 1008 93.6359 46.995 478.126
1476 0 78.0971 13.6753 1068 95.4054 46.3633 474.44
1477 0 82.0619 13.9529 1145 93.6655 46.3764 475.333
1478 0 84.0449 12.7075 1068 97.0337 46.2893 471.68
1479 0 86.078 13.3367 1148 95.7343 46.8711 469.211
1480 0 89.1319 14.0915 1256 94.4451 46.9809 469.053
1481 0 93.1426 13.5169 1259 95.1732 46.6442 468.077
1482 1 50.0289 11.4534 573 95.2635 46.4555 489.08
1483 0 52.0237 11.5717 602 96.1844 46.4236 488.042
1484 0 54.0362 11.9364 645 96.631 46.0419 487.025
1485 0 55.0664 13.1296 723 94.4993 46.0456 486.62
1486 0 57.0407 13.8673 791 92.5942 46.7155 487.612
1487 0 59.0517 13.2426 782 94.5192 46.4514 485.48
1488 0 59.0475 12.8371 758 96.0198 46.5818 484.658
1489 0 61.0502 12.4979 763 96.1547 47.2582 485.211
