time division length width area intensity CMx CMy
0 0 32.0218 11.3673 364 135.379 584.31 480.192
1 0 31.1401 9.69812 302 143.421 585.013 479.328
2 0 31.1009 10.9322 340 139.715 584.729 479.429
3 0 34.147 11.2455 384 138.857 585.305 478.714
4 0 33.1565 11.6719 387 139.041 584.997 478.742
5 0 35.1749 11.9972 422 138.666 584.543 478.109
6 0 36.1148 11.8234 427 139.998 583.667 477.651
7 0 36.1148 11.9342 431 149.705 582.696 477.882
8 0 36.1148 11.9065 430 149.202 581.693 477.921
9 0 37.1677 11.1387 414 156.278 583.833 475.787
10 0 40.1765 12.6691 509 151.214 583.764 475.562
11 0 42.1052 12.6113 531 147.789 583.661 476.066
12 0 42.1077 12.3255 519 150.75 583.05 474.767
13 0 44.1196 12.1035 534 149.558 583.064 476.058
14 0 44.1406 13.2531 585 148.911 582.827 474.542
15 0 45.0738 12.3131 555 151.858 582.663 474.937
16 0 46.0996 12.6899 585 150.017 582.732 474.188
17 0 47.0622 12.8341 604 150.478 582.565 474.321
18 0 47.0609 12.4944 588 152.541 581.298 473.954
19 0 50.0602 12.8845 645 149.634 582.516 473.301
20 0 51.0408 13.1267 670 149.798 582.372 472.369
21 0 55.1699 14.265 787 105.944 581.999 471.742
22 0 53.1123 12.7842 679 150.122 581.06 473.175
23 0 54.0379 12.2877 664 151.42 581.203 473.092
24 0 56.1863 12.9747 729 148.894 581.243 471.731
25 0 58.0191 13.3749 776 147.015 581.446 472.286
26 0 62.0342 12.8478 797 144.087 581.203 471.892
27 0 62.1082 13.3638 830 144.983 580.837 468.293
28 0 63.0554 11.6564 735 150.184 581.816 469.249
29 0 66.1042 13.0854 865 143.21 581.066 469.887
30 0 69.2198 13.291 920 141.116 580.658 468.436
31 0 70.0281 12.3093 862 144.178 581.403 467.06
32 0 75.1293 13.4967 1014 137.245 581.481 464.923
33 0 79.1597 13.2264 1047 135.32 580.949 464.268
34 0 81.087 13.0601 1059 134.712 581.077 462.24
35 0 84.1802 13.3404 1123 132.175 581.076 461.094
36 0 87.1783 13.2831 1158 131.086 580.486 459.438
37 0 90.1028 12.8631 1159 131.277 580.769 457.841
38 0 92.2524 12.2707 1132 132.606 580.288 455.146
39 0 96.165 10.8147 1040 132.938 580.593 456.626
40 0 99.1194 11.1482 1105 131.327 581.378 454.403
41 0 103.185 12.1723 1256 127.66 580.527 450.497
42 1 53.0975 11.0551 587 119.99 580.462 477.591
43 0 54.0971 11.6457 630 118.867 581.205 475.795
44 0 55.0856 10.8921 600 129.373 580.782 474.003
45 0 57.1198 12.7276 727 120.484 579.619 473.349
46 0 61.0859 12.8344 784 117.731 579.263 472.411
47 0 64.2468 11.9383 767 121.928 579.952 473.326
48 0 65.0969 10.6918 696 122.782 580.292 469.307
49 0 66.2237 10.6306 704 124.357 579.96 466.906
50 0 71.2895 13.0875 933 117.181 579.466 467.094
51 0 72.1149 11.9531 862 118.585 579.196 463.933
52 0 75.1565 12.0548 906 118.233 579.327 464.223
53 0 79.2662 12.8807 1021 115.716 579.608 462.188
54 0 82.1189 11.3981 936 118.736 579.277 460.515
55 0 85.2615 11.541 984 115.701 578.502 460.392
56 0 89.223 11.0958 990 116.36 578.564 460.417
57 0 91.1801 11.066 1009 117.039 579.116 457.695
58 1 44.1082 8.68319 383 111.264 579.742 481.702
59 0 48.0791 9.94196 478 108.149 579.05 481.839
60 0 49.0795 9.10768 447 113.564 578.483 478.53
61 0 52.2323 11.9275 623 109.637 578.721 477.234
62 0 54.1795 10.4283 565 114.717 579.308 476.478
63 0 56.18 11.1606 627 114.183 579.195 476.01
64 0 57.2017 10.6291 608 112.426 578.656 475.655
65 0 60.1357 11.4242 687 111.338 578.402 474.996
66 0 61.1544 10.8578 664 113.491 579.155 472.822
67 0 65.1683 12.3219 803 110.167 578.512 473.433
68 0 67.1382 11.3795 764 111.562 577.804 472.774
69 0 70.1344 11.4352 802 110.887 578.273 471.233
70 0 71.1803 11.4919 818 112.796 578.359 467.831
71 0 74.1842 11.8084 876 111.006 579.08 466.489
72 0 77.1522 12.0671 931 110.747 578.694 465.907
73 0 79.2051 11.3629 900 110.441 578.839 467.601
74 0 82.1932 12.0083 987 111.979 579.37 464.911
75 0 85.2275 12.1205 1033 110.765 579.108 465.352
76 0 88.1449 12.4227 1095 112.434 578.681 463.028
77 0 92.1265 11.5602 1065 113.039 578.342 462.651
78 0 95.1532 12.5902 1198 112.459 578.245 459.994
79 1 48.0796 10.0042 481 106.343 578.68 482.212
80 0 49.1834 11.5079 566 105.219 578.746 480.193
81 0 52.1422 11.5262 601 106.484 578.699 478.957
82 0 53.1474 11.7033 622 109.286 578.568 481.971
83 0 55.1555 12.9452 714 105.63 579.169 481.854
84 0 57.0548 13.1803 752 105.081 579.146 481.706
85 0 60.0432 14.6061 877 101.893 578.734 479.066
86 0 63.0174 13.6946 863 103.328 577.994 478.944
87 0 64.1197 12.9601 831 106.763 577.708 477.16
88 0 67.0536 11.9904 804 117.024 577.838 476.03
89 0 68.0641 10.6223 723 119.762 578.347 476.22
90 0 71.0952 12.3918 881 117.123 577.508 474.011
91 0 73.0496 13.0733 955 115.748 577.5 472.458
92 0 77.0757 12.7407 982 116.496 577.741 471.049
93 0 79.1241 12.6384 1000 116.748 578.277 469.187
94 0 81.1012 12.0467 977 118.924 577.638 470.079
95 0 83.0777 12.8675 1069 118.587 578.017 467.53
96 0 87.0664 13.0935 1140 117.941 578.168 466.715
97 0 90.0623 12.4469 1121 118.321 577.378 466.765
98 0 92.1792 12.1828 1123 120.598 576.296 462.523
99 0 96.1583 11.6059 1116 118.59 576.951 463.768
100 1 48.0548 10.8418 521 116.808 577.503 486.39
101 0 50.0533 12.187 610 112.134 577.151 484.503
102 0 52.1312 12.5453 654 111.07 577.023 482.427
103 0 51.057 10.9094 557 114.086 577.415 483.47
104 0 53.061 10.9685 582 113.052 577.625 482.622
105 0 57.0208 12.1184 691 109.698 578.001 481.187
106 0 58.1717 12.6694 737 108.494 577.423 479.046
107 0 61.0795 13.1632 804 106.308 577.137 478.851
108 0 63.0482 13.2756 837 106.57 576.596 478.616
109 0 63.0517 12.0853 762 111.537 576.092 479.387
110 0 65.0574 11.8203 769 112.048 576.291 478.016
111 0 69.0774 13.1302 907 109.416 576.002 474.105
112 0 71.1078 12.91 918 111.147 575.89 472.468
113 0 73.1819 12.7627 934 112.012 576.755 471.99
114 0 76.1176 12.2442 932 110.681 577.435 471.726
115 0 78.0757 10.413 813 115.807 576.961 469.154
116 0 82.1528 11.9655 983 112.134 576.761 467.377
117 0 85.2126 11.9231 1016 112.049 577.113 468.435
118 0 88.1335 11.4599 1010 113.549 577.344 466.346
119 0 92.2735 11.8452 1093 113.793 577.64 462.138
120 0 96.1178 11.642 1119 114.259 577.2 460.368
121 0 98.1701 12.1014 1188 113.088 576.859 459.742
122 1 50.0232 10.9349 547 112.495 576.982 483.616
123 0 53.0197 11.392 604 109.242 576.863 482.695
124 0 51.0374 10.5609 539 119.87 576.382 480.518
125 0 54.0903 11.869 642 116.531 576.349 481.246
126 0 56.1365 11.3652 638 117.846 576.196 478.807
127 0 58.0667 13.054 758 112.992 576.4 478.902
128 0 60.0961 11.9475 718 115.113 576.877 476.326
129 0 62.1703 12.7231 791 112.413 576.679 475.085
130 0 63.0464 11.6422 734 110.134 576.101 476.553
131 0 66.0562 11.7476 776 109.131 576.716 474.595
132 0 67.0871 10.4491 701 110.682 576.295 475.986
133 0 69.1378 12.0195 831 108.81 575.475 472.551
134 0 72.0603 12.323 888 107.443 575.568 470.292
135 0 73.0919 12.108 885 108.516 576.011 469.445
136 0 75.0928 11.8387 889 109.349 576.564 470.61
137 0 79.0916 12.062 954 108.338 576.441 471.228
138 0 81.0377 11.5995 940 109.503 576.977 468.503
139 0 84.116 12.352 1039 107.735 577.236 465.946
140 0 88.0836 12.5676 1107 107.014 575.76 466.294
141 0 89.0867 12.1118 1079 110.627 575.921 462.908
142 0 93.1365 12.9165 1203 109.584 575.882 461.431
143 0 95.0942 12.4613 1185 110.453 576.765 460.327
144 0 98.0767 11.5216 1130 112.752 576.475 457.742
145 0 102.11 11.801 1205 109.489 576.714 455.79
146 0 106.291 12.3153 1309 109.533 577.162 453.758
147 1 56.0872 11.4643 643 106.942 577.232 478.048
148 0 59.0642 11.5467 682 106.133 576.569 475.894
149 0 59.0452 11.0593 653 109.896 576.969 476.187
150 0 62.0982 11.0953 689 110.537 577.952 475.563
151 0 66.1103 12.8119 847 106.695 577.639 473.289
152 0 67.0748 12.1059 812 109.272 578.381 472.882
153 0 70.1167 12.793 897 108.033 578.396 470.906
154 0 74.0983 11.8221 876 109.815 578.548 471.896
155 0 73.042 12.0752 882 111.995 578.918 468.931
156 0 77.0789 11.4039 879 113.497 579.202 468.09
157 0 79.0822 11.9875 948 111.793 578.823 464.828
158 0 83.116 12.0795 1004 111.777 578.402 465.185
159 0 85.1337 11.7227 998 114.08 578.085 462.907
160 0 90.2099 12.2049 1101 112.639 577.064 461.482
161 1 44.0168 10.2461 451 108.224 577.714 485.335
162 0 46.0715 10.9829 506 92.7964 577.672 481.955
163 0 45.0397 9.70256 437 96.54 577.698 480.568
164 0 46.0463 11.0758 510 102.708 577.965 482.114
165 0 48.0447 11.635 559 102.737 578.089 481.274
166 0 50.0895 12.9169 647 98.9397 578.675 482.068
167 0 50.0625 11.8851 595 101.583 578.309 482.264
168 0 52.1066 11.0159 574 103.725 578.103 481.65
169 0 54.0596 12.9302 699 99.0672 577.843 480.969
170 0 54.0455 12.36 668 101.644 577.696 478.96
171 0 56.1278 12.2399 687 102.249 577.562 477.466
172 0 56.0335 11.5645 648 104.659 577.852 478.125
173 0 59.0314 12.8576 759 101.468 577.137 477.248
174 0 60.0333 11.6935 702 107.756 577.463 477.332
175 0 61.0441 11.3688 694 109.303 577.867 476.032
176 0 61.043 10.5663 645 112.093 577.806 476.152
177 0 66.0313 12.0246 794 109.688 578.091 473.733
178 0 67.1425 12.5852 845 109.656 578.031 473.252
179 0 70.0835 12.3282 864 111.194 577.637 473.149
180 0 73.0968 12.9007 943 111.402 576.974 472.385
181 0 76.0934 12.8132 975 112.235 577.565 470.554
182 0 77.068 13.2091 1018 113.536 576.952 467.48
183 0 80.1084 12.3832 992 115.223 577.335 467.72
184 1 44.0211 10.3814 457 115.274 578.14 486.225
185 0 45.1063 11.6613 526 109.989 577.981 487.006
186 0 44.0635 12.0962 533 109.448 578.525 484.923
187 0 47.0271 12.5459 590 115.92 576.556 483.876
188 0 46.0261 13.0144 599 115.352 575.988 484.833
189 0 48.0453 12.5507 603 117.746 577.489 483.98
190 0 50.0341 12.5514 628 117.576 577.417 483.148
191 0 50.0506 12.0878 605 120.509 576.823 482.055
192 0 51.092 12.135 620 120.865 577.164 480.685
193 0 53.0663 12.7576 677 118.557 578.266 480.304
194 0 56.0296 13.3144 746 116.599 577.295 479.426
195 0 58.0756 13.8957 807 114.169 577.601 479.587
196 0 55.0622 11.3871 627 114.603 578.167 479.195
197 0 56.0259 12.0837 677 113.164 579.106 478.198
198 0 58.0964 11.567 672 113.394 577.957 479.138
199 0 62.1732 11.6931 727 112.3 577.146 478.308
200 0 65.0291 11.8562 771 111.383 576.682 476.658
201 0 66.1285 12.5513 830 110.516 577.042 474.934
202 0 68.0791 13.2493 902 110.548 577.213 474.02
203 0 71.0635 13.1572 935 110.737 577.425 472.565
204 0 73.0688 12.7414 931 112.959 577.764 470.574
205 0 73.0719 11.2355 821 116.219 577.301 471.671
206 0 79.0844 13.3908 1059 112.415 576.466 468.225
207 0 82.0465 13.2973 1091 110.992 576.798 468.122
208 0 84.0999 12.9965 1093 109.635 577.048 468.627
209 0 86.1196 11.9949 1033 112.928 576.598 464.51
210 0 88.2248 12.1168 1069 112.543 576.653 465.336
211 0 90.0787 11.8896 1071 114.037 576.841 464.242
212 0 92.2359 12.3054 1135 114.445 576.93 459.844
213 0 95.0814 13.094 1245 113.606 576.477 460.828
214 0 98.1857 13.1384 1290 114.442 576.864 460.245
215 0 101.145 12.4672 1261 117.423 577.435 454.638
216 0 106.1 13.7794 1462 113.235 576.345 455.734
217 0 110.227 13.1546 1450 114.678 576.49 453.622
218 0 112.11 12.7465 1429 118.65 576.105 452.253
219 0 117.209 13.2754 1556 119.559 576.787 449.474
220 0 122.227 13.794 1686 119.229 576.645 448.285
221 0 123.397 14.3439 1770 89.0412 576.817 441.908
222 0 129.198 12.1828 1574 116.745 576.867 433.788
223 1 75.2057 10.4247 784 110.809 577.116 464.858
224 0 78.1763 11.1031 868 123.162 577.471 466.878
225 0 83.0944 12.6603 1052 110.584 576.447 469.106
226 0 87.0914 13.3423 1162 109.849 576.159 464.758
227 0 87.197 12.0188 1048 114.531 576.02 465.052
228 0 91.0765 12.3852 1128 113.527 576.576 463.215
229 0 93.1051 12.1046 1127 113.666 576.741 461.699
230 0 99.1289 12.1559 1205 114.444 576.671 460.554
231 0 101.244 12.1192 1227 116.91 576.542 454.328
232 0 104.224 11.1203 1159 123.589 576.43 454.301
233 0 108.158 11.5479 1249 121.34 576.518 452.652
234 1 59.1265 11.3316 670 111.042 576.698 477.19
235 0 61.0996 11.915 728 110.312 576.729 476.746
236 0 61.1041 12.5196 765 109.893 576.684 476.701
237 0 66.044 13.3244 880 106.31 577.834 475.736
238 0 65.0529 11.4676 746 111.909 577.413 474.276
239 0 67.0657 11.8242 793 111.933 578.298 474.469
240 0 70.117 13.2208 927 107.262 578.521 471.565
241 0 72.1768 12.8989 931 108.282 578.053 470.945
242 0 73.0866 12.6836 927 109.545 577.834 468.228
243 0 76.0703 11.7786 896 111.365 577.715 468.347
244 0 79.0551 12.9024 1020 107.904 577.387 466.543
245 0 82.0829 12.5848 1033 108.303 577.895 466.049
246 0 84.0976 12.2001 1026 109.787 577.792 464.035
247 0 88.0735 13.0686 1151 108.363 577.784 462.122
248 0 90.1281 11.6723 1052 119.863 577.761 459.652
249 0 92.1226 11.9732 1103 119.787 577.492 459.488
250 0 99.1238 11.1679 1107 121.106 577.626 457.935
251 1 54.0459 10.7871 583 116.029 577.101 479.23
252 0 54.0587 11.3395 613 112.049 577.918 477.1
253 0 56.0179 10.4966 588 111.25 576.963 476.041
254 0 56.0374 10.6893 599 112.973 576.674 477.601
255 0 58.0311 11.1147 645 111.209 575.761 478.541
256 0 61.0342 11.1577 681 111.737 576.414 476.767
257 0 62.0289 11.672 724 111.224 576.402 474.673
258 0 63.0529 12.1168 764 110.209 576.513 474.957
259 0 67.0436 13.0214 873 107.779 576.553 473.641
260 0 68.0448 12.4624 848 110.192 576.746 472.531
261 0 68.0617 10.5052 715 114.266 576.385 470.576
262 0 74.0448 12.6005 933 108.374 576.214 469.239
263 0 76.1105 11.641 886 111.524 576.691 467.585
264 0 80.0694 11.6899 936 109.433 575.592 470.001
265 0 80.056 12.3788 991 110.519 576.585 466.82
266 0 85.082 12.3293 1049 110.188 577.419 465.432
267 0 87.2028 13.0844 1141 108.069 577.577 462.335
268 0 89.1013 11.6609 1039 111.371 576.907 461.583
269 1 50.0324 9.83363 492 113.185 577.392 481.722
270 0 52.0685 10.5438 549 116.379 576.688 481.546
271 0 54.0391 11.7137 633 113.605 576.883 481.123
272 0 54.1106 11.7907 638 109.26 578.317 481.271
273 0 55.0372 11.8102 650 109.98 578.405 481.557
274 0 57.0932 11.49 656 110.178 577.035 481.532
275 0 58.0481 12.2312 710 110.024 577.046 480.092
276 0 60.0896 11.5161 692 111.598 577.324 478.796
277 0 60.1062 11.7792 708 113.134 577.79 477.075
278 0 64.0782 11.9541 766 112.095 577.316 477.18
279 0 64.0679 11.3161 725 114.545 576.972 476.069
280 0 68.0809 11.9123 811 111.895 576.57 472.959
281 0 71.0789 12.0852 859 110.665 576.872 471.66
282 0 72.0425 12.6314 910 109.431 577.129 472.844
283 0 77.0729 12.9358 997 107.952 576.408 472.107
284 0 78.0852 13.1779 1029 109.546 576.724 469.654
285 0 83.0885 12.8899 1071 109.685 576.367 467.272
286 0 84.0797 12.4049 1043 112.316 577.079 464.751
287 0 86.3722 11.6473 1006 113.407 576.899 466.715
288 0 90.1152 13.4384 1211 109.917 576.418 463.203
289 0 92.1754 11.8361 1091 114.676 577.174 460.885
290 0 98.1952 13.1167 1288 110.383 576.868 460.008
291 0 99.1365 12.165 1206 113.502 577.064 457.976
292 1 52.0594 10.8914 567 110.176 576.984 482.171
293 0 51.0115 11.468 585 107.856 576.745 481.94
294 0 52.0231 11.0143 573 102.681 576.298 481.248
295 0 55.1586 11.7117 646 101.396 577.694 479.54
296 0 58.075 13.9475 810 95.6259 577.435 479.812
297 0 59.0375 11.6028 685 100.147 577.177 478.772
298 0 61.1126 12.027 735 99.9986 578.4 476.618
299 0 63.0819 12.0003 757 99.7424 577.62 477.408
300 0 64.1511 11.2391 721 102.261 578.065 478.139
301 0 67.0939 11.6255 780 101.759 577.951 475.187
302 0 66.0837 11.6519 770 102.486 577.565 475.857
303 0 68.0622 11.8127 804 103.275 577.323 473.792
304 0 73.0702 11.619 849 103.528 577.714 473.608
305 0 75.0585 11.7642 883 103.318 577.991 472.438
306 0 75.0554 11.6181 872 104.635 578.101 472.977
307 0 78.085 12.0126 938 105.664 577.786 470.79
308 0 82.0492 12.8459 1054 104.363 577.849 467.598
309 0 85.1021 13.5367 1152 104.42 578.594 464.622
310 0 87.2028 12.1326 1058 107.693 578.341 465.554
311 0 89.0574 11.2287 1000 109.625 578.42 461.497
312 0 94.075 12.3837 1165 107.674 578.079 462.695
313 0 96.1409 11.3895 1095 108.584 577.798 462.871
314 1 52.0586 11.4102 594 107.111 577.444 481.923
315 0 54.05 11.5634 625 109.589 577.331 481.186
316 0 55.0822 11.9458 658 109.002 576.255 478.578
317 0 58.0399 12.6465 734 109.866 577.755 479.778
318 0 59.059 12.4621 736 112.769 578.671 477.299
319 0 61.0446 12.1714 743 113.139 578.541 476.258
320 0 65.0582 13.6647 889 109.501 575.963 477.75
321 0 66.1376 14.5152 960 109.047 576.049 475.891
322 0 67.1961 13.1555 884 114.945 576.165 473.588
323 0 69.0958 12.7794 883 116.195 575.878 473.874
324 0 69.1669 13.2722 918 116.858 576.205 473.294
325 0 72.0974 12.6218 910 119.801 576.588 472.742
326 0 75.096 14.0487 1055 116.442 576.735 472.364
327 0 77.1174 13.058 1007 118.764 576.979 471.346
328 0 79.0494 13.2196 1045 119.759 577.271 469.693
329 0 81.1128 13.3518 1083 120.489 578.085 467.087
330 0 85.1552 13.6339 1161 118.581 577.372 467.282
331 0 88.1767 14.2895 1260 117.502 577.124 464.995
332 0 88.1114 13.1311 1157 122.086 577.379 462.271
333 0 93.2927 13.3451 1245 119.842 576.891 460.902
334 0 97.1939 13.7354 1335 117.163 576.834 459.757
335 1 51.046 11.7933 602 115.367 578.646 481.781
336 0 52.0399 11.2414 585 116.682 577.809 481.978
337 0 54.0573 12.1538 657 113.059 578.554 480.795
338 0 57.0254 12.5558 716 109.705 577.802 480.394
339 0 58.0899 11.4994 668 115.153 577.385 480.849
340 0 58.0182 11.7549 682 116.613 577.999 478.311
341 0 59.108 10.9799 649 118.644 578.077 477.599
342 0 62.0204 11.7058 726 115.901 577.931 475.784
343 0 64.0318 12.7593 817 113.142 577.624 475.315
344 0 68.0368 12.4785 849 113.126 577.722 475.373
345 0 70.0746 12.4296 871 112.237 577.412 473.914
346 0 72.1487 13.2643 957 110.845 578.405 473.387
347 0 73.0842 12.9577 947 112.59 578.01 471.224
348 0 76.1276 14.0028 1066 109.735 576.946 471.147
349 0 78.0754 13.487 1053 111.942 578.187 469.079
350 0 82.0568 13.515 1109 110.419 577.307 468.805
351 0 80.0634 12.3652 990 108.959 577.346 470.494
352 0 83.0758 12.5428 1042 107.984 578.361 467.428
353 0 85.0975 11.7512 1000 110.131 577.58 464.327
354 0 88.06 10.9471 964 111.848 577.616 465.476
355 0 93.1022 11.7613 1095 108.1 577.899 465.706
356 1 47.0577 11.0503 520 109.238 578.327 484.292
357 0 48.0563 10.5293 506 108.377 577.585 482.087
358 0 47.1367 11.456 540 107.793 578.107 482.441
359 0 51.069 10.476 535 110.877 576.755 482.105
360 0 53.0327 9.95612 528 112.188 576.47 482.453
361 0 54.0249 11.3281 612 109.995 576.799 480.781
362 0 54.0535 10.3601 560 112.709 576.295 480.02
363 0 56.0415 11.5629 648 110.37 576.012 479.707
364 0 58.0458 11.4909 667 111.049 575.568 477.645
365 0 60.1326 11.3915 685 110.266 576.582 479.108
366 0 61.0354 10.7315 655 113.056 576.243 477.486
367 0 63.0417 11.4369 721 111.718 575.933 474.961
368 0 67.0528 10.4097 698 114.042 576.355 474.116
369 0 69.2127 11.7175 811 110.506 576.592 474.94
370 0 70.1818 11.2707 791 113.718 577.947 473.474
371 0 73.1267 13.8116 1010 107.865 577.827 472.678
372 0 75.2053 11.7146 881 113.528 578.375 472.306
373 0 77.1305 12.9262 997 112.253 578.583 468.825
374 0 81.1961 11.8725 964 113.549 577.438 469.081
375 0 82.1472 11.2238 922 116.249 577.184 467.451
376 0 87.2827 12.9579 1131 111.881 576.759 466.602
377 0 90.2739 11.3322 1023 114.735 577.247 467.683
378 0 92.1791 12.1394 1119 113.8 576.983 464.315
379 1 48.0392 9.88775 475 110.787 578.512 485.916
380 0 48.0633 10.8607 522 103.452 577.797 485.148
381 0 47.0892 9.64128 454 94.9714 576.804 480.623
382 0 50.1044 10.3983 521 106.027 576.622 483.818
383 0 52.0584 11.6984 609 103.259 576.644 483.895
384 0 53.0799 11.8689 630 103.475 577.029 482.533
385 0 54.1768 11.4071 618 103.916 577.416 482.901
386 0 57.1476 13.4564 769 98.632 576.85 480.759
387 0 57.1914 12.7117 727 101.304 577.585 479.166
388 0 59.0577 12.0221 710 102.346 576.894 480.12
389 0 63.1186 12.0567 761 99.2589 576.378 478.321
390 0 63.0434 12.3407 778 98.2943 576.653 476.343
391 0 65.0869 11.7535 765 100.174 576.412 476.135
392 0 67.1466 11.7653 790 100.996 576.377 474.665
393 0 71.0668 11.5525 821 99.7466 577.147 474.866
394 0 72.0654 11.0594 797 97.7967 578.226 472.572
395 0 74.0865 11.3111 838 97.5167 577.648 471.823
396 0 78.0498 10.8905 850 98.8529 577.944 469.7
397 0 79.0492 11.5118 910 98.3143 577.635 468.116
398 0 81.1246 11.6734 947 99.2608 578.247 468.646
399 1 42.1228 10.8255 456 101.471 578.116 486.627
400 0 44.1686 10.6637 471 101.958 578.081 486.633
401 0 47.2056 11.7994 557 98.833 578.135 483.732
402 0 47.0818 12.2977 579 99.9102 576.665 484.225
403 0 49.0805 11.4506 562 100.886 577.4 484.673
404 0 51.0621 12.0246 614 100.899 577.241 484.231
405 0 52.1137 12.8757 671 100.028 577.544 483.064
406 0 53.1697 11.642 619 102.278 577.357 483.128
407 0 54.0268 11.4758 620 103.218 577.892 481.339
408 0 56.076 12.6792 711 101.165 577.896 479.892
409 0 59.0379 12.7884 755 100.576 577.407 480.772
410 0 59.0702 12.6121 745 101.53 577.569 478.984
411 0 60.0534 12.3057 739 102.79 577.869 477.873
412 0 63.106 12.6137 796 102.217 577.916 477.293
413 0 64.097 12.9803 832 101.839 578.138 477.026
414 0 69.0383 13.3259 920 100.186 577.449 476.788
415 0 68.087 11.0153 750 105.573 577.572 475.923
416 0 72.1046 12.0103 866 104.046 577.396 472.702
417 0 74.154 12.8247 951 102.362 577.587 472.669
418 0 76.222 11.2566 858 104.889 577.557 474.672
419 0 79.109 12.7672 1010 103.343 577.881 470.498
420 0 82.3289 12.7902 1053 103.184 577.322 470.373
421 1 42.071 10.4347 439 107.351 577.697 488.116
422 0 42.024 11.6838 491 106.509 577.226 486.684
423 0 44.0578 12.2566 540 103.617 577.939 487.106
424 0 46.1999 11.6667 539 105.499 577.902 488.388
425 0 49.0509 12.0487 591 102.812 577.963 487.052
426 0 49.0983 13.0351 640 101.911 577.255 486.445
427 0 50.018 13.895 695 100.567 577.327 484.282
428 0 50.062 11.3859 570 106.496 576.902 484.235
429 0 54.0402 14.0266 758 99.9802 577.661 483.186
430 0 55.0443 12.5717 692 104.077 576.834 481.949
431 0 59.0481 13.9886 826 99.8571 576.87 481.443
432 0 59.0345 11.9591 706 105.452 576.928 480.856
433 0 59.0623 11.8688 701 106.603 577.053 480.85
434 0 61.1068 13.01 795 104.352 576.44 479.278
435 0 63.0758 13.2539 836 103.604 577.063 477.181
436 0 67.2169 13.4936 907 101.894 576.939 479.224
437 0 66.07 10.1256 669 107.749 577.03 476.94
438 0 71.0727 12.6912 902 102.909 576.87 474.457
439 0 72.0556 11.8242 852 104.2 576.716 473.939
440 0 74.1919 11.9285 885 105.003 576.422 471.559
441 0 77.0567 12.5362 966 104.008 576.848 470.301
442 0 79.1307 12.0055 950 106.852 577.266 469.647
443 0 82.144 12.2711 1008 108.147 576.986 467.188
444 0 84.2013 11.9951 1010 110.075 577.27 467.645
445 0 88.0648 13.0586 1150 107.863 577.367 467.905
446 0 89.1807 12.8279 1144 114.23 577.853 465.049
447 0 93.161 12.9668 1208 113.083 577.642 463.299
448 0 95.3209 11.9806 1142 115.319 578.643 460.371
449 1 47.3013 11.4162 540 108.143 578.946 483.972
450 0 47.2095 10.9088 515 111.717 578.194 484.852
451 0 51.1733 12.5847 644 111.307 577.884 482.453
452 0 53.1492 12.6813 674 111.07 577.503 483.182
453 0 54.0364 12.4546 673 113.7 577.615 483.319
454 0 56.0877 13.158 738 112.95 578.321 480.351
455 0 57.0582 12.4785 712 114.131 578.625 480.754
456 0 61.0285 13.5347 826 110.678 578.207 479.056
457 0 62.0314 10.9783 681 116.67 578.2 479.276
458 0 63.0763 11.8269 746 114.488 578.252 479.181
459 0 65.1102 11.8107 769 115.467 577.918 475.817
460 0 68.094 13.0261 887 112.232 577.924 475.268
461 0 69.1277 11.2979 781 116.012 578.156 475.04
462 0 71.0438 11.2466 799 115.431 578.195 474.159
463 0 74.1141 11.5093 853 115.346 577.347 472.816
464 0 76.1703 10.9885 837 115.346 577.403 471.264
465 0 78.2178 12.593 985 112.662 577.432 468.269
466 0 83.1358 12.4615 1036 111.957 577.329 468.213
467 0 84.1634 11.6559 981 113.741 577.138 467.581
468 0 87.14 11.1545 972 113.973 576.965 467.568
469 0 89.1321 12.3973 1105 109.979 576.983 464.299
470 0 92.0865 11.9127 1097 108.801 577.101 462.294
471 0 96.1029 10.9466 1052 109.366 576.798 462.997
472 0 98.1398 11.6976 1148 107.44 577.7 459.753
473 1 49.0323 12.4408 610 101.041 577.933 482.925
474 0 52.0588 11.9096 620 100.421 577.271 482.763
475 0 52.038 10.7806 561 103.36 577.59 483.599
476 0 53.0816 11.3787 604 102.525 577.672 482.088
477 0 55.0335 10.8116 595 103.945 577.168 480.988
478 0 60.0904 12.1151 728 100.038 576.813 481.235
479 0 61.1098 11.3075 691 103.056 577.395 477.624
480 0 63.0805 12.1749 768 102.122 577.12 476.102
481 0 66.0975 12.8447 849 100.641 577.191 476.93
482 0 69.0664 10.8012 746 106.462 577.827 474.016
483 0 70.0451 12.1922 854 103.982 576.671 475.885
484 0 72.16 11.5576 834 106.429 576.736 474.281
485 0 74.0456 11.3714 842 107.546 577.077 471.438
486 0 77.0826 12.5709 969 105.139 577.034 469.594
487 1 42.0307 11.3726 478 107.768 577.172 488.379
488 0 43.3171 11.5428 500 108.136 578.76 484.904
489 0 43.0264 11.2954 486 110.251 576.325 486.214
490 0 45.0191 11.795 531 109.331 576.151 486.418
491 0 46.0825 10.3727 478 113.303 576.282 486.14
492 0 47.0477 12.6255 594 108.269 576.823 485.421
493 0 49.051 12.3545 606 109.056 576.441 484.347
494 0 50.0728 12.0425 603 111.025 576.668 482.184
495 0 52.0662 11.5046 599 112.299 576.743 482.27
496 0 54.111 11.9384 646 111.663 577.138 481.228
497 0 56.0343 12.7779 716 109.388 576.968 480.726
498 0 57.0656 11.3904 650 113.245 577.366 479.64
499 0 59.0419 12.4996 738 111.203 576.969 479.657
500 0 60.0427 11.8749 713 116.513 576.986 478.39
501 0 61.0492 12.3179 752 118.951 577.263 477.735
502 0 62.0926 12.1593 755 121.303 576.845 477.493
503 0 66.0986 12.5721 831 119.241 577.282 475.463
504 0 67.1003 12.6378 848 120.518 576.585 473.236
505 0 68.1376 11.9758 816 123.295 577.957 472.85
506 0 66.0871 10.5467 697 121.663 578.656 474.934
507 0 68.0518 10.8006 735 121.337 578.717 472.789
508 0 73.1726 11.0014 805 120.409 578.861 473.268
509 0 77.1167 11.8003 910 116.895 578.034 473.306
510 0 78.1172 9.9594 778 121.517 577.662 471.378
511 0 80.1281 10.3959 833 121.437 577.405 469.445
512 0 85.1373 10.9588 933 119.532 577.87 467.616
513 0 86.1057 10.882 937 120.205 577.681 468.409
514 1 51.0718 11.2978 577 117.088 576.08 483.657
515 0 51.1065 10.8205 553 116.846 578.203 480.09
516 0 50.0282 10.2342 512 111.375 578.914 477.75
517 0 50.0696 7.6893 385 107.979 577.613 479.904
518 0 50.0696 9.70649 486 109.539 576.671 481.683
519 0 55.0364 10.593 583 116.604 576.525 481.033
520 0 58.0499 11.2834 655 115.16 577.006 479.018
521 0 59.077 11.4765 678 116.615 576.864 478.42
522 0 60.0636 11.6377 699 116.063 576.595 477.943
523 0 63.131 11.1356 703 115.498 576.001 478.319
524 0 65.0598 12.3117 801 114.658 576.533 473.71
525 0 67.0643 11.3473 761 116.97 577.063 474.962
526 0 70.0874 12.1134 849 114.953 576.592 474.426
527 0 72.0439 12.0621 869 116.174 576.685 472.391
528 0 74.0798 12.5945 933 114.836 577.098 471.211
529 0 77.1496 12.3267 951 115.637 577.79 470.339
530 0 79.1005 12.4652 986 115.955 577.08 467.237
531 0 82.0938 11.1702 917 118.36 577.344 466.967
532 0 85.1989 13.2161 1126 113.619 576.724 466.375
533 0 87.0896 11.9991 1045 116.837 576.269 461.212
534 0 91.0838 11.3851 1037 117.356 576.771 463.484
535 0 96.0405 12.4947 1200 115.515 576.97 461.625
536 1 51.046 10.2652 524 117.63 576.38 482.685
537 0 54.0335 12.7328 688 112.557 576.347 479.638
538 0 52.1077 11.0732 577 111.913 577.038 477.09
539 0 54.0976 11.1096 601 112.02 577.373 475.027
540 0 54.0708 12.1877 659 110.175 577.253 473.483
541 0 56.0688 11.8783 666 109.565 578.39 473.962
542 0 57.0946 11.5598 660 110.267 578.644 470.882
543 0 61.1378 10.2228 625 113.23 578.762 471.51
544 0 63.1929 11.1721 706 111.822 578.194 470.554
545 0 67.1045 11.877 797 110.449 578.119 469.181
546 0 71.0706 12.2695 872 109.55 578.026 469.193
547 0 72.0409 13.4229 967 108.84 578.32 465.47
548 0 74.1719 12.0261 892 112.813 578.366 466.192
549 0 80.0302 12.4578 997 110.866 577.69 466.606
550 0 81.0541 11.6836 947 114.792 577.813 461.867
551 0 83.1453 12.1474 1010 114.92 577.895 458.938
552 0 89.1268 11.7249 1045 115.639 577.907 459.08
553 0 91.2269 13.0992 1195 113.26 577.234 456.411
554 0 95.0691 12.4015 1179 109.972 577.028 456.968
555 0 100.09 12.7885 1280 108.547 577.653 460.302
556 0 102.259 11.3242 1158 115.333 577.848 458.855
557 0 108.148 12.5477 1357 111.522 577.445 460.241
558 0 111.186 12.1149 1347 113.774 577.255 455.682
559 1 55.0411 12.2999 677 110.572 577.247 481.774
560 0 55.0151 11.7422 646 113.098 576.817 484.02
561 0 58.0806 11.243 653 113.23 577.919 482.527
562 0 60.0747 12.6176 758 110.669 577.52 480.103
563 0 63.0509 11.3876 718 112.655 576.946 479.844
564 0 64.0546 11.2872 723 112.537 576.992 481.676
565 0 66.03 11.4645 757 112.487 577.386 479.827
566 0 67.1162 12.4262 834 111.95 577.218 477.112
567 0 70.0753 12.2868 861 111.638 576.186 476.662
568 0 73.0904 11.26 823 114.395 576.82 476.4
569 0 76.0702 11.9232 907 113.193 577.041 473.423
570 0 80.1059 12.8705 1031 110.393 576.91 472.667
571 0 83.0978 11.9257 991 113.147 577.054 471.373
572 0 85.1488 13.3296 1135 109.757 576.908 467.359
573 0 88.2059 12.6522 1116 111.812 576.991 467.609
574 0 88.1574 11.3887 1004 115.819 576.803 464.931
575 0 95.1184 12.4266 1182 113.107 576.994 465.061
576 0 98.1688 12.4785 1225 113.163 577.064 464.696
577 0 101.112 12.0857 1222 115.554 577.675 459.192
578 1 56.0525 12.1136 679 112.035 577.1 484.321
579 0 57.0327 11.8002 673 109.81 576.964 482.744
580 0 58.0515 11.6104 674 106.795 577.491 481.628
581 0 59.0985 11.0324 652 115.701 577.247 476.123
582 0 60.0366 10.427 626 116.95 577.131 477.195
583 0 64.097 11.5138 738 114.752 577.358 475.472
584 0 67.1635 11.7177 787 114.044 576.565 473.043
585 0 69.1071 11.5328 797 115.345 576.478 472.494
586 0 70.0466 10.7785 755 118.85 576.411 471.089
587 0 74.0843 10.7715 798 118.833 577.783 470.882
588 0 75.1285 11.4204 858 119.195 577.803 466.601
589 0 79.0247 11.6799 923 119.284 577.712 466.298
590 0 83.1066 11.6958 972 119.013 578.111 467.174
591 0 83.0549 11.6429 967 121.507 577.742 464.537
592 0 88.1105 11.8942 1048 121.386 577.393 463.987
593 1 45.0175 10.8847 490 111.043 576.49 486.812
594 0 45.0199 9.72902 438 116.854 575.918 484.943
595 0 47.0755 10.9186 514 115.998 576.772 483.004
596 0 47.0966 10.7439 506 119.107 576.846 483.99
597 0 49.0194 10.4244 511 123.91 577.362 481.481
598 0 51.0511 11.1261 568 121.782 577.243 481.113
599 0 51.0687 11.3181 578 121.393 576.422 485.585
600 0 53.064 11.0244 585 121.935 576.886 484.692
601 0 55.08 12.3457 680 119.975 577.359 484.022
602 0 58.0332 11.8553 688 119.626 577.459 483.403
603 0 58.0702 11.9683 695 120.599 577.427 482.672
604 0 59.0494 11.5666 683 122.496 577.555 482.228
605 0 63.0764 13.0001 820 118.613 576.116 480.205
606 0 65.0613 12.6957 826 119.82 576.506 480.379
607 0 65.0981 11.6747 760 123.174 576.646 480.466
608 0 68.0289 12.3918 843 122.125 577.362 477.847
609 0 69.0224 12.5177 864 122.35 577.644 477.113
610 0 73.034 12.8023 935 121.381 577.467 476.411
611 0 74.0733 11.9206 883 124.753 576.946 474.037
612 0 77.0495 12.6672 976 118.947 577.725 471.777
613 0 80.119 12.4939 1001 120.154 577.95 471.98
614 0 83.0631 12.0029 997 122.715 577.381 471.465
615 0 86.1205 12.8773 1109 120.555 577.565 469.711
616 0 90.1255 12.5603 1132 121.761 577.34 468.013
617 1 43.1144 11.4579 494 120.285 578.364 489.146
618 0 47.0445 11.7548 553 115.935 577.868 489.271
619 0 47.0248 12.1851 573 118.063 578.258 487.735
620 0 47.0382 12.7131 598 117.316 578.58 486.714
621 0 48.0163 12.35 593 118.981 577.887 486.616
622 0 51.027 12.66 646 118.056 577.625 485.395
623 0 54.0702 12.4283 672 117.557 577.088 484.984
624 0 56.1049 13.5282 759 114.104 577.412 483.667
625 0 55.0599 12.6045 694 118.317 576.879 483.147
626 0 57.0581 11.9002 679 120.003 576.191 483.658
627 0 60.1003 13.0781 786 117.064 576.067 481.414
628 0 59.0361 12.2806 725 121.996 577.014 480.578
629 0 62.0467 13.2642 823 118.204 577.338 478.939
630 0 65.0617 13.4795 877 117.155 577.03 478.949
631 0 68.1045 12.7011 865 119.504 576.68 475.968
632 0 71.0551 13.764 978 116.82 577.162 475.649
633 0 73.0662 12.9608 947 118.676 576.772 475.55
634 0 75.0263 12.7822 959 119.342 577.24 474.24
635 0 78.0671 13.6421 1065 117.837 577.394 473.071
636 0 81.1851 13.0073 1056 118.577 577.492 472.263
637 0 84.0966 13.0445 1097 118.168 577.33 468.535
638 0 87.1378 13.4041 1168 119.046 577.396 465.448
639 0 90.0601 13.0691 1177 118.975 576.61 465.69
640 1 47.0296 11.5885 545 114.255 577.448 487.95
641 0 48.018 11.933 573 112.19 577.314 485.047
642 0 53.0498 12.2526 650 112.409 577.434 486.128
643 0 53.1051 12.5223 665 110.292 577.681 486.111
644 0 54.1046 12.4573 674 111.255 577.335 483.966
645 0 58.0623 11.5221 669 112.821 577.749 483.638
646 0 59.0411 13.0756 772 109.76 577.874 482.551
647 0 61.042 11.6641 712 112.719 578.284 481.751
648 0 61.0487 12.8586 785 112.287 577.873 479.864
649 0 66.1613 12.4393 823 113.203 578.405 479.905
650 0 66.0916 12.8307 848 113.942 577.436 475.4
651 0 72.0697 13.0013 937 112.297 577.619 475.121
652 0 73.038 13.2397 967 114.522 577.327 472.673
653 0 76.0616 13.0289 991 116.058 576.84 473.883
654 0 80.1046 12.4088 994 117.101 577.729 473.224
655 0 83.1064 12.7066 1056 118.2 577.604 470.168
656 0 86.1613 12.8248 1105 119.056 577.452 468.665
657 1 45.0309 11.2367 506 118.172 577.119 488.71
658 0 46.0834 11.783 543 113.258 576.645 488.523
659 0 48.0276 12.1805 585 113.003 577.347 487.692
660 0 49.046 12.1722 597 114.3 576.982 486.518
661 0 50.0608 12.6247 632 114.389 577.46 484.937
662 0 51.0317 11.7966 602 116.96 577.503 485.374
663 0 52.0463 12.1622 633 118.237 577.327 484.063
664 0 55.0446 12.281 676 114.299 576.846 483.714
665 0 56.056 10.9177 612 115.052 576.998 484.887
666 0 59.0097 12.0828 713 113.654 576.926 483.351
667 0 61.018 12.3079 751 114.541 577.296 479.842
668 0 62.0941 11.0155 684 118.61 576.955 478.192
669 0 66.1073 12.7066 840 113.268 576.242 478.311
670 0 68.0451 13.3882 911 114.004 577.155 476.443
671 0 72.083 12.9573 934 114.863 577.002 476.416
672 0 71.0637 11.6515 828 118.97 575.868 475.717
673 0 75.0825 13.5052 1014 117.992 575.95 473.142
674 0 80.1323 12.7789 1024 118.698 575.909 473.302
675 0 81.1211 13.4244 1089 118.613 576.213 471.089
676 0 84.0543 12.7656 1073 118.32 576.212 471.509
677 1 45.0534 11.0536 498 117.41 576.442 488.99
678 0 47.0553 11.2633 530 114.904 576.981 487.496
679 0 49.0751 11.839 581 110.929 576.726 486.91
680 0 51.0993 11.7614 601 113.839 575.874 485.706
681 0 51.0472 11.46 585 115.889 576.562 486.002
682 0 53.0202 11.9954 636 115.58 576.657 484.121
683 0 55.0339 13.3554 735 111.94 576.099 482.88
684 0 57.0861 12.0345 687 112.745 575.926 482.475
685 0 59.0794 12.3732 731 112.213 576.023 481.955
686 0 61.015 12.8493 784 112.165 575.744 480.231
687 0 64.1148 14.1153 905 109.035 575.801 479.776
688 0 67.1512 12.6282 848 111.713 576.757 480.6
689 0 67.0518 13.0944 878 115.975 576.235 476.722
690 0 69.0567 13.9451 963 113.973 576.007 476.367
691 0 72.1273 13.5455 977 115.946 576.249 474.046
692 0 75.0819 13.745 1032 112.706 576.334 472.661
693 0 78.2453 13.381 1047 115.583 575.889 474.025
694 0 81.2243 13.001 1056 117.58 576.141 471.416
695 1 42.0891 9.90756 417 123.326 576.76 489.448
696 0 44.2872 12.5544 556 117.147 577.212 486.962
697 0 44.0631 12.2325 539 111.265 576.759 488.148
698 0 44.048 10.7837 475 115.764 577.461 488.259
699 0 46.0279 12.0796 556 114.358 577.719 486.142
700 0 49.0301 11.1972 549 115.63 577.226 486.424
701 0 48.1082 11.1416 536 116.494 577.442 484.642
702 0 51.0556 11.1251 568 113.989 576.863 485.947
703 0 54.0869 11.6109 628 113.092 576.433 483.57
704 0 54.031 11.9191 644 112.109 576.044 483.453
705 0 57.0713 10.7234 612 114.982 576.222 481.564
706 0 58.1066 9.98166 580 115.543 576.791 480.793
707 0 63.2388 11.5436 730 114.415 575.963 478.227
708 0 63.0672 12.3519 779 114.444 576.542 475.232
709 0 65.0642 11.5886 754 113.808 576.601 476.919
710 0 69.1331 11.5863 801 115.564 576.469 475.558
711 0 70.1062 11.8392 830 115.842 575.787 472.536
712 0 74.0937 13.105 971 112.23 576.244 472.691
713 0 76.1421 12.3059 937 115.2 575.973 469.27
714 0 79.1305 11.4873 909 117.157 576.101 469.217
715 0 81.1328 12.005 974 117.784 576.411 467.24
716 0 85.1895 12.6541 1078 116.094 577.029 465.853
717 1 45.0929 10.7777 486 115.751 576.488 486.405
718 0 46.0436 11.5977 534 113.702 576.071 486.139
719 0 47.0178 11.6552 548 114.633 576.308 485.951
720 0 49.0416 12.1937 598 117.597 578.261 482.661
721 0 48.0374 11.1996 538 113.403 576.967 484.734
722 0 50.0498 11.7483 588 112.573 576.138 484.667
723 0 52.1073 11.0157 574 113.409 575.955 485.112
724 0 54.0916 11.5545 625 113.672 575.802 483.048
725 0 52.0764 11.4255 595 116.345 576.654 481.909
726 0 54.0597 10.4329 564 118.34 576.156 480.681
727 0 57.0696 10.6712 609 118.015 576.09 481.028
728 0 60.0486 12.9562 778 111.361 576.521 480.703
729 0 64.0621 11.3952 730 114.41 576.699 478.81
730 0 65.0632 11.8961 774 113.818 576.379 476.477
731 0 67.0386 11.9633 802 113.64 575.839 475.872
732 0 69.0391 12.645 873 112.275 575.803 474.629
733 0 71.0466 11.7106 832 114.297 575.588 473.383
734 0 73.0228 12.2154 892 114.534 575.637 474.209
735 0 76.0493 12.768 971 114.84 575.614 473.083
736 0 77.1123 12.4364 959 116.96 576.104 469.286
737 0 79.0603 12.3324 975 117.787 575.302 469.774
738 0 85.0588 14.0726 1197 112.672 576.07 469.672
739 0 87.068 13.0013 1132 115.321 575.872 468.167
740 0 89.0434 13.1397 1170 116.523 576.212 466.222
741 0 93.1364 13.0991 1220 116.314 576.807 462.343
742 0 97.0671 13.1455 1276 115.131 576.725 460.494
743 1 48.085 10.8142 520 112.367 575.675 483.385
744 0 51.1345 9.75857 499 118.098 578.256 481.924
745 0 52.0998 10.9981 573 113.773 577.736 484.756
746 0 52.0222 11.8603 617 107.13 577.297 484.441
747 0 51.0518 10.1074 516 111.32 577.804 484.056
748 0 56.0621 10.4527 586 109.949 578.198 482.688
749 0 59.037 11.3488 670 108.555 577.767 481.252
750 0 58.083 11.3975 662 109.924 577.107 480.26
751 0 59.0801 11.3744 672 111.009 577.763 479.882
752 0 62.0386 11.3639 705 111.179 578.545 478.309
753 0 63.0836 10.0026 631 114.935 578.458 478.643
754 0 67.0817 11.568 776 111.101 577.883 477.836
755 0 69.0621 11.7141 809 112.106 578.288 474.553
756 0 71.0793 10.6501 757 113.672 577.97 476.058
757 0 75.0634 10.1381 761 113.911 577.489 476.691
758 0 77.2654 12.3082 951 110.136 576.948 472.198
759 0 80.1273 10.658 854 113.052 577.153 473.365
760 0 83.2235 11.5352 960 111.317 576.892 469.223
761 0 86.2849 11.1028 958 112.096 577.318 467.997
762 0 90.2798 11.985 1082 109.42 576.559 467.793
763 1 50.052 11.1884 560 108.711 577.509 485.564
764 0 51.359 12.9286 664 107.384 576.842 483.218
765 0 50.0206 9.91592 496 109.087 577.54 478.661
766 0 53.1077 11.8062 627 104.976 577.665 479.137
767 0 53.1091 11.4858 610 107.493 578.179 477.867
768 0 54.0316 9.69804 524 110.76 578.62 476.095
769 0 55.018 9.66957 532 112.556 578.045 473.626
770 0 57.0807 10.8443 619 108.561 578.695 475.732
771 0 62.1 10.0805 626 111.661 578.631 472.391
772 0 66.1358 10.8413 717 107.409 577.81 473.326
773 0 68.0696 11.1797 761 109.051 577.97 468.93
774 0 71.0681 10.2859 731 111.166 578.793 469.134
775 0 73.0954 10.3016 753 111.378 578.361 468.311
776 0 76.04 11.0205 838 109.95 577.905 467.041
777 0 77.0517 10.5254 811 111.677 577.843 465.488
778 0 83.1328 11.7884 980 109.211 578.026 464.206
779 0 83.0592 10.1614 844 113.921 577.626 462.049
780 1 41.1751 9.69031 399 97.2456 577.955 484.815
781 0 46.0358 10.7308 494 97.5668 578.883 487.261
782 0 46.0262 11.0806 510 103.986 579.173 487.829
783 0 45.0235 11.4829 517 105.029 579.114 487.942
784 0 47.063 10.879 512 106.041 578.543 485.881
785 0 50.0857 11.9595 599 102.953 578.352 484.733
786 0 52.1194 11.4736 598 104.333 578.582 484.768
787 0 52.0957 11.7476 612 105.114 577.99 483.609
788 0 55.0702 11.9121 656 104.291 577.944 482.877
789 0 56.1313 11.5622 649 105.408 578.099 483.277
790 0 59.0575 12.0899 714 105.057 578.028 481.014
791 0 61.1146 13.1229 802 102.576 577.979 482.484
792 0 62.0837 12.757 792 105.518 578.122 480.903
793 0 63.0747 10.5906 668 108.961 578.192 480.542
794 0 65.1182 12.8382 836 107.677 577.532 477.096
795 0 68.1216 11.8465 807 106.797 577.201 476.344
796 0 71.0887 13.0822 930 101.869 578.097 477.118
797 0 73.1235 12.978 949 102.23 578.08 475.682
798 0 76.1886 13.0597 995 103.104 577.49 474.001
799 0 76.0826 13.5905 1034 108.999 578.117 471.488
800 0 79.1087 13.6142 1077 108.938 577.873 469.978
801 0 83.2117 13.6159 1133 107.963 577.878 469.913
802 0 84.073 12.6676 1065 110.415 578.19 468.909
803 0 85.1452 12.3789 1054 113.149 577.753 468.204
804 0 89.1691 11.6072 1035 114.951 577.905 465.515
805 0 91.1454 12.5623 1145 112.773 577.398 464.765
806 1 49.0249 11.4024 559 110.834 577.991 485.301
807 0 51.1006 11.0762 566 111.208 577.83 485.792
808 0 48.0563 9.30159 447 106.557 577.761 481.289
809 0 52.0687 11.0623 576 112.908 578.248 483.363
810 0 52.0381 11.5492 601 107.403 578.819 483.737
811 0 54.0889 10.7416 581 107.969 578.749 483.346
812 0 56.0806 10.9129 612 107.253 578.119 483.255
813 0 57.0346 9.60821 548 110.834 578.792 481.659
814 0 59.0671 10.5304 622 108.428 578.072 479.572
815 0 61.055 10.9901 671 105.927 578.3 481.581
816 0 62.1241 10.3985 646 107.834 578.063 479.618
817 0 66.079 11.2592 744 105.347 577.395 477.316
818 0 69.1349 12.0634 834 103.36 578.041 477.972
819 0 73.1056 10.9704 802 106.035 578.009 476.035
820 0 72.0906 10.7781 777 106.952 578.308 472.932
821 0 77.0956 10.9215 842 104.777 577.594 474.846
822 0 78.1468 10.749 840 106.599 578.516 470.345
823 0 82.0895 10.72 880 106.05 578.509 471.059
824 0 84.12 9.84308 828 108.258 577.892 466.911
825 0 89.2149 10.357 924 108.782 576.148 463.197
826 0 93.1952 9.90394 923 104.348 577.553 464.935
827 1 49.1155 12.2976 604 97.7384 578.786 486.545
828 0 51.0547 12.1243 619 98.9887 578.302 485.562
829 0 51.0397 11.7164 598 99.4314 578.217 486.261
830 0 54.1898 12.3455 669 97.991 578.034 483.475
831 0 55.0752 12.4739 687 98.2387 577.671 483.713
832 0 56.1322 12.328 692 99.0535 577.344 483.53
833 0 57.1101 11.8018 674 101.089 577.332 482.979
834 0 59.109 11.9779 708 101.27 577.126 481.852
835 0 60.0639 11.8041 709 102.598 576.922 480.798
836 0 62.058 12.2788 762 101.008 577.484 480.591
837 0 66.1353 13.0792 865 98.4012 577.33 477.846
838 0 66.0881 11.6814 772 103.51 577.119 477.957
839 0 68.1113 11.6574 794 103.538 576.594 478.991
840 0 71.1181 11.8113 840 103.01 576.975 478.188
841 0 73.1203 12.5136 915 102.898 576.893 474.063
842 0 75.1119 11.9422 897 105.466 576.757 473.263
843 0 78.0652 11.5416 901 107.133 576.084 471.144
844 0 80.1412 13.027 1044 103.999 576.338 470.343
845 0 85.1517 13.1647 1121 115.289 576.299 469.037
846 0 87.1653 12.0231 1048 116.377 575.337 467.698
847 0 93.1286 12.6277 1176 113.659 575.386 467.787
848 0 93.0878 12.0746 1124 115.921 575.279 466.389
849 1 47.0599 11.3472 534 111.513 575.747 486.64
850 0 48.0935 10.8747 523 103.518 576.927 485.73
851 0 50.1163 11.4334 573 101.15 577.148 486.539
852 0 51.0599 10.9283 558 106.056 575.624 486.735
853 0 52.0666 12.1767 634 104.606 575.793 484.67
854 0 55.0382 11.4648 631 106.122 575.829 483.139
855 0 56.1123 11.6552 654 106.148 576.011 482.261
856 0 60.1188 12.2757 738 103.671 576.168 483.066
857 0 62.0694 11.5194 715 106.218 576.54 481
858 0 64.0654 12.1907 781 105.136 575.999 480.964
859 0 64.0385 12.7267 815 105.066 576.285 479.082
860 0 68.0793 11.5747 788 107.982 575.929 477.421
861 0 70.0705 11.9308 836 107.903 576.124 478.377
862 0 74.0928 12.4709 924 106.781 576.742 476.791
863 0 74.0887 11.3648 842 111.278 576.69 474.656
864 0 75.0779 11.8011 886 112.603 575.553 471.725
865 0 79.0682 12.1414 960 110.815 575.431 472.872
866 0 81.0464 11.4872 931 112.992 575.666 470.849
867 1 46.0364 11.3388 522 115.213 577.295 489.904
868 0 47.0683 10.0705 474 119.897 576.69 487.426
869 0 49.0112 12.0381 590 114.714 575.107 486.637
870 0 52.0666 12.0038 625 102.989 576.694 484.416
871 0 52.0382 11.9335 621 103.634 576.659 484.311
872 0 56.0752 12.1979 684 103.289 576.098 482.728
873 0 56.0604 12.0227 674 106.282 576.493 481.208
874 0 58.0469 10.9394 635 108.677 576.069 480.537
875 0 57.0441 12.0609 688 108.682 575.533 478.735
876 0 61.047 11.8761 725 108.343 575.942 480.203
877 0 63.0859 11.8568 748 109.644 576.037 479.083
878 0 64.0754 14.0928 903 108.915 575.51 478.342
879 0 66.0409 12.7345 841 112.986 575.143 478.65
880 0 70.16 12.8848 904 112.342 575.267 477.145
881 0 72.0961 12.2614 884 114.631 575.109 476.748
882 0 72.1146 12.8268 925 115.71 575.644 475.885
883 0 75.0617 13.2424 994 115.468 575.918 472.734
884 0 77.045 14.0308 1081 114.754 575.92 471.791
885 0 79.14 13.4193 1062 115.926 576.616 473.129
886 0 81.1034 13.3533 1083 117.668 577.016 471.064
887 0 83.1074 13.0915 1088 118.266 577.277 468.837
888 0 86.1252 13.5733 1169 117.41 577.234 467.713
889 0 88.0801 12.8179 1129 119.879 577.071 467.295
890 0 91.1252 13.026 1187 120.43 577.043 466.111
891 0 96.1933 13.2753 1277 119.854 576.028 463.828
892 0 100.113 13.0353 1305 120.791 576.554 464.203
893 0 102.129 13.6103 1390 121.887 575.254 459.794
894 0 106.275 12.5335 1332 124.539 575.134 456.207
895 1 58.0678 11.5899 673 116.666 574.997 480.844
896 0 59.0555 11.7517 694 113.065 577.036 480.852
897 0 60.1302 11.4585 689 115.255 576.806 478.308
898 0 62.1084 12.5587 780 121.179 577.527 478.081
899 0 65.099 12.7498 830 119.46 577.16 478.286
900 0 70.1616 14.1245 991 114.907 577.607 476.909
901 0 70.0436 13.72 961 117.798 577.442 474.745
902 0 73.0812 14.436 1055 115.91 577.72 474.886
903 0 75.1968 14.4022 1083 117.127 577.496 471.627
904 0 79.19 13.0951 1037 119.658 577.955 471.45
905 0 79.1218 12.6893 1004 121.66 576.618 469.768
906 0 84.1506 13.868 1167 118.01 576.975 470.266
907 0 87.1607 13.3432 1163 120.137 577.196 466.718
908 0 91.109 13.632 1242 119.218 577.268 465.416
909 0 93.0813 14.6646 1365 116.958 577.423 462.817
910 0 98.0831 14.4979 1422 116.93 577.104 462.638
911 0 99.1232 14.7392 1461 118.153 577.305 458.595
912 0 102.212 13.7459 1405 120.999 577.054 456.547
913 0 104.119 13.3981 1395 121.021 577.082 457.938
914 1 54.0358 11.3814 615 122.797 577.398 479.439
915 0 59.0251 12.537 740 116.827 577.312 480.3
916 0 58.0586 12.4357 722 113.255 577.008 476.345
917 0 58.092 10.294 598 108.085 576.575 477.453
918 0 61.0881 11.5571 706 105.504 576.592 475.856
919 0 64.1238 12.0392 772 104.525 576.434 475.387
920 0 65.0804 11.1401 725 107.408 576.222 473.381
921 0 67.1616 10.7651 723 107.943 576.22 472.52
922 0 71.0794 12.1554 864 105.134 576.545 472.096
923 0 70.1007 9.84298 690 110.678 576.375 470.407
924 0 74.2041 10.242 760 110.746 576.492 466.761
925 0 75.111 10.3979 781 111.297 575.973 463.849
926 0 79.0921 11.4424 905 109.178 576.422 463.977
927 0 85.1007 11.4688 976 106.591 576.48 466.661
928 0 88.0697 12.5355 1104 105.841 576.317 463.221
929 0 88.1285 10.5187 927 111.597 576.655 461.073
930 0 92.1214 10.6924 985 111.169 577.181 457.872
931 0 95.1479 10.8568 1033 109.936 576.975 458.645
932 0 102.238 10.7983 1104 109.766 576.787 458.169
933 1 56.0442 9.72447 545 104.686 577.123 482.004
934 0 58.1053 11.634 676 109.178 575.599 480.763
935 0 59.043 12.4824 737 108.604 575.653 478.318
936 0 62.2289 12.2772 764 108.864 575.836 479.431
937 0 65.076 13.0309 848 106.216 575.876 477.646
938 0 66.1623 12.4542 824 108.255 575.854 475.478
939 0 69.077 12.5078 864 108.34 575.605 475.49
940 0 72.0569 12.9065 930 107.426 575.847 475.646
941 0 73.0385 12.5276 915 109.404 575.958 473.972
942 0 74.0886 11.1893 829 110.731 577.505 476.591
943 0 77.0372 11.9293 919 111.058 576.522 474.063
944 0 79.0556 11.3591 898 112.121 577.825 471.828
945 0 81.1829 10.9136 886 113.016 577.64 471.002
946 0 84.1701 11.3936 959 112.729 577.478 469.632
947 0 86.0892 11.6275 1001 112.065 577.005 466.811
948 1 46.0155 10.3009 474 113.186 577.703 486.441
949 0 49.0503 12.1508 596 109.371 577.772 486.233
950 0 50.0386 12.1906 610 109.592 576.748 485.503
951 0 53.0365 13.387 710 104.404 578.324 484.427
952 0 54.1907 12.6036 683 106.906 577.073 483.192
953 0 55.0641 12.6943 699 107.538 577.672 482.227
954 0 56.1183 12.8479 721 107.928 577.447 480.064
955 0 60.0856 13.5141 812 105.484 577.267 480.128
956 0 58.0672 12.3822 719 112.181 577.11 479.274
957 0 60.0626 13.2195 794 110.437 578.076 479.224
958 0 63.0739 10.9871 693 113.538 577.586 478.727
959 0 65.0516 11.3448 738 113.07 578.676 478.612
960 0 66.0718 12.3502 816 112.621 578.496 477.494
961 0 68.0828 12.3086 838 114.568 578.486 475.395
962 0 72.1232 13.0332 940 112.556 577.455 475.203
963 0 71.0634 11.6234 826 118.416 578.398 473.93
964 0 75.1271 12.3125 925 117.773 577.564 470.455
965 0 78.0947 12.1903 952 118.818 578.097 469.844
966 0 81.0874 12.5297 1016 116.769 577.829 470.618
967 0 84.0607 13.2523 1114 114.642 577.14 467.797
968 0 87.1067 12.1345 1057 118.967 577.147 466.608
969 0 90.1304 13.0367 1175 116.133 577.306 466.774
970 0 93.041 13.306 1238 116.293 577.048 465.289
971 1 53.0386 11.7839 625 119.835 577.766 484.645
972 0 55.0479 13.8425 762 116.407 578.272 482.663
973 0 56.0407 12.1697 682 122.296 578.402 481.6
974 0 57.0248 12.6436 721 122.069 578.122 480.854
975 0 57.0364 13.0969 747 112 577.157 482.878
976 0 58.0898 10.8453 630 117.679 578.402 482.149
977 0 59.1423 11.819 699 115.658 577.212 480.971
978 0 62.0471 12.3938 769 112.811 576.531 481.13
979 0 64.113 12.166 780 114.191 576.422 479.603
980 0 65.0396 11.2854 734 116.86 576.448 479.161
981 0 68.0355 12.0819 822 115.18 576.281 477.341
982 0 69.0474 11.8035 815 116.39 576.515 476.141
983 0 73.0633 11.7569 859 116.084 577.708 475.711
984 0 75.0903 11.9323 896 115.72 577.417 473.42
985 0 78.143 12.7203 994 114.579 577.499 472.241
986 0 81.1144 12.1803 988 116.102 578.181 470.974
987 0 84.1308 11.4583 964 117.304 578.522 469.413
988 0 87.0925 13.3651 1164 112.96 578.393 467.638
989 0 91.1436 13.2648 1209 113.06 577.644 465.475
990 1 48.1544 11.7539 566 121.724 577.516 485.004
991 0 48.2483 11.3165 546 118.914 576.976 481.332
992 0 50.0554 10.2686 514 112.86 577.695 481.99
993 0 50.1403 10.7698 540 105.667 577.483 480.713
994 0 51.0356 11.2079 572 116.002 576.49 485.364
995 0 54.1095 12.0496 652 113.072 577.15 484.696
996 0 54.0169 11.7556 635 114.145 576.8 482.433
997 0 55.0573 12.8775 709 112.532 577.049 481.26
998 0 57.0418 13.0431 744 112.147 577.109 480.388
999 0 59.0627 10.7513 635 115.131 576.668 482.792
1000 0 61.0544 13.7418 839 108.39 576.912 479.544
1001 0 63.0614 11.9883 756 111.377 577.03 480.636
1002 0 62.053 10.9745 681 116.082 577.16 478.769
1003 0 69.0574 13.887 959 107.924 576.802 477.15
1004 0 69.0654 12.1769 841 112.109 576.547 476.339
1005 0 73.0705 12.3032 899 111.214 576.614 474.583
1006 0 76.0367 12.4282 945 111.501 576.617 472.568
1007 0 78.0558 12.6192 985 112.289 576.096 472.07
1008 0 80.1924 11.248 902 114.723 575.676 472.125
1009 0 85.048 13.3689 1137 111.106 575.843 469.076
1010 1 44.0704 11.7085 516 114.421 575.996 487.868
1011 0 44.1427 10.5114 464 108.345 576.761 480.399
1012 0 43.0419 10.4317 449 109.178 576.167 481.492
1013 0 46.1561 10.6811 493 103.649 576.651 485.961
1014 0 48.0721 11.2539 541 102.963 576.915 483.192
1015 0 50.0313 11.253 563 102.703 576.86 484.627
1016 0 49.0356 11.2979 554 104.356 576.668 481.713
1017 0 52.0517 10.7201 558 104.124 576.129 481.435
1018 0 55.0764 11.5294 635 102.523 576.776 480.306
1019 0 56.0806 11.1268 624 103.362 577.096 479.516
1020 0 59.0914 11.0168 651 103.739 576.677 478.424
1021 0 61.0683 11.9538 730 102.116 576.786 478.151
1022 0 64.0604 11.9106 763 101.564 576.473 476.236
1023 0 65.1152 11.088 722 103.514 576.792 475.407
1024 0 68.0429 11.5956 789 105.223 576.84 478.44
1025 0 70.0884 11.086 777 105.57 576.779 475.528
1026 0 73.0873 12.1499 888 103.859 576.837 474.196
1027 0 76.0925 11.6963 890 105.299 576.54 471.589
1028 0 77.0846 11.3512 875 106.645 576.989 471.36
1029 0 80.1061 11.7344 940 106.471 576.352 469.264
1030 0 83.1979 11.9715 996 106.771 576.006 467.229
1031 0 88.1744 12.566 1108 103.409 576.498 469.357
1032 1 49.0625 12.9019 633 100.427 576.554 486.863
1033 0 49.1261 11.5417 567 107.192 577.79 485.086
1034 0 49.1324 11.3571 558 102.018 577.165 482.323
1035 0 52.034 12.7993 666 94.3393 577.671 480.503
1036 0 52.031 11.7622 612 102.556 576.94 483.817
1037 0 57.0644 13.5286 772 97.807 576.619 482.816
1038 0 58.1583 12.5691 731 100.311 576.399 480.246
1039 0 60.0748 12.8673 773 100.855 576.452 481.352
1040 0 62.0811 12.7575 792 100.861 576.206 480.188
1041 0 63.0372 11.7391 740 103.62 576.618 479.446
1042 0 66.1672 12.2719 812 102.448 576.716 476.897
1043 0 69.1478 12.0611 834 102.255 576.862 477.636
1044 0 71.0464 11.6544 828 103.988 577.471 473.959
1045 0 76.2234 11.9648 912 103.117 576.729 472.8
1046 0 78.1438 11.9651 935 102.708 577.355 472.008
1047 0 81.175 12.8611 1044 101.647 577.486 469.438
1048 0 83.129 11.1153 924 106.057 577.195 469.062
1049 1 43.0776 10.7945 465 105.86 577.348 488.725
1050 0 45.1381 11.5424 521 104.155 577.367 487.697
1051 0 49.1344 13.7175 674 97.4866 577.66 487.509
1052 0 49.0816 12.0412 591 102.893 577.846 486.457
1053 0 50.0624 12.6442 633 101.414 577.545 487.231
1054 0 50.0679 12.1036 606 103.71 577.286 483.81
1055 0 54.148 12.2073 661 102.048 577.215 482.962
1056 0 57.1453 13.0719 747 100.3 577.419 483.541
1057 0 57.0388 12.3775 706 102.429 576.7 481.683
1058 0 59.126 11.1626 660 104.526 576.891 481.3
1059 0 60.0329 12.8763 773 100.543 576.62 481.277
1060 0 64.0555 12.5985 807 100.392 577.159 481.346
1061 0 64.0693 12.3928 794 102.251 577.026 478.618
1062 0 66.0946 11.3474 750 103.22 576.54 478.776
1063 0 69.0963 13.1555 909 100.606 576.556 475.744
1064 0 70.1447 11.9325 837 103.091 577.299 473.889
1065 0 74.0846 12.2698 909 102.351 576.999 475.603
1066 0 77.0561 12.0432 928 102.787 576.92 473.948
1067 0 78.0793 13.1789 1029 102.063 577.71 471.534
1068 0 81.1078 12.7855 1037 102.626 577.289 470.536
1069 0 83.0569 12.5697 1044 102.784 577.775 471.226
1070 0 85.197 12.4417 1060 103.482 577.483 467.351
1071 0 89.0897 11.3144 1008 108.67 576.548 466.534
1072 0 92.0836 12.1194 1116 110.825 576.302 465.384
1073 0 95.0539 12.8559 1222 110.633 577.025 462.704
1074 0 97.1578 12.5569 1220 112.525 576.935 459.385
1075 0 101.205 12.865 1302 111.155 577.117 457.843
1076 0 104.385 13.2586 1384 111.626 576.568 453.733
1077 0 105.282 11.151 1174 116.687 577.046 452.993
1078 0 110.148 12.6648 1395 113.393 576.786 450.649
1079 1 58.1185 12.0788 702 105.877 576.414 481.067
1080 0 60.1053 11.6795 702 104.121 576.709 481.318
1081 0 62.0541 12.1829 756 104.163 576.459 479.806
1082 0 64.0695 13.22 847 102.664 576.706 478.511
1083 0 65.1204 10.2733 669 108.78 576.762 477.928
1084 0 68.1768 12.1302 827 104.534 577.075 476.166
1085 0 72.0854 11.9026 858 105.301 576.255 473.319
1086 0 74.123 11.6023 860 105.68 576.426 474.919
1087 0 75.1981 11.5163 866 107.238 576.686 474.053
1088 0 81.2547 12.3685 1005 105.387 576.118 470.417
1089 0 83.1028 13.0561 1085 104.878 576.17 467.012
1090 0 87.0808 12.2874 1070 106.82 576.477 467.276
1091 0 89.0941 11.8414 1055 108.122 576.679 464.674
1092 0 90.0674 11.4581 1032 111.767 576.885 463.411
1093 0 96.1435 12.3565 1188 107.828 576.487 459.362
1094 0 97.0898 11.6078 1127 111.425 576.291 456.692
1095 0 103.231 11.8279 1221 110.043 575.862 456.887
1096 1 54.1483 10.4528 566 105.168 576.095 481.442
1097 0 55.0258 10.2134 562 111.375 576.402 479.121
1098 0 57.0766 12.3693 706 105.49 576.266 479.99
1099 0 57.0314 12.7649 728 104.514 575.852 479.795
1100 0 61.1261 11.9752 732 104.734 575.686 478.029
1101 0 64.0542 11.8025 756 100.144 576.164 475.552
1102 0 63.1084 11.5357 728 101.203 577.036 475.334
1103 0 68.0813 11.4128 777 101.387 576.578 473.436
1104 0 71.0599 11.8632 843 99.6596 576.906 473.431
1105 0 73.0675 12.5227 915 99.5661 576.986 471.885
1106 0 75.0681 13.3212 1000 98.628 577.267 470.36
1107 0 78.1636 13.9451 1090 98.2578 576.836 468.422
1108 0 81.1994 11.7242 952 102.52 576.422 467.269
1109 0 86.295 14.0912 1216 97.6842 576.981 465.027
1110 0 85.2855 12.1592 1037 102.595 576.716 465.217
1111 0 90.2185 12.381 1117 102.283 576.64 465.671
1112 0 91.1518 12.9454 1180 103.686 576.462 462.627
1113 0 93.1459 12.5931 1173 109.841 575.949 456.915
1114 0 97.2111 12.4883 1214 109.315 576.613 458.354
1115 0 101.417 12.8578 1304 112.619 576.03 458.512
1116 0 102.198 13.0237 1331 112.512 576.232 454.266
1117 1 56.2563 12.2831 691 108.936 575.802 478.135
1118 0 56.1239 10.7263 602 107.314 576.078 475.698
1119 0 61.2553 12.2275 749 105.989 575.86 476.992
1120 0 61.0272 12.2077 745 106.528 576.267 478.086
1121 0 66.0958 11.907 787 87.7078 576.488 477.569
1122 0 64.0449 12.0853 774 107.618 575.735 476.147
1123 0 70.0494 13.1479 921 104.521 575.921 475.635
1124 0 73.1115 13.7051 1002 103.835 575.705 473.295
1125 0 74.1157 12.3995 919 108.547 575.94 471.458
1126 0 78.089 13.4206 1048 106.747 575.834 469.076
1127 0 83.0328 13.5127 1122 105.701 576.49 468.281
1128 0 84.1205 13.338 1122 107.12 577.012 465.744
1129 0 89.1456 13.2929 1185 107.028 577.046 466.308
1130 0 90.1108 13.9162 1254 107.296 576.312 463.049
1131 0 92.1726 12.5525 1157 111.574 576.413 462.649
1132 0 94.1044 11.8698 1117 115.039 576.56 460.703
1133 0 100.155 12.5506 1257 114.022 577.295 460.006
1134 0 103.204 11.6178 1199 118.877 576.49 454.31
1135 0 109.195 12.0335 1314 119.287 575.863 453.817
1136 1 58.1512 10.8338 630 116.016 576.386 475.264
1137 0 61.1211 12.5816 769 113.42 576.432 475.198
1138 0 60.0316 12.4601 748 113.003 576.513 477.114
1139 0 63.0276 11.4712 723 114.697 576.401 477.268
1140 0 64.0606 11.5984 743 115.104 576.307 475.766
1141 0 65.097 10.5228 685 117.753 576.58 474.647
1142 0 70.0819 12.5139 877 112.803 576.888 472.958
1143 0 73.1086 12.2694 897 113.504 577.405 472.563
1144 0 75.1162 12.3142 925 113.255 577.478 471.417
1145 0 79.1012 13.0339 1031 111.933 576.662 470.958
1146 0 79.1011 11.656 922 116.842 576.912 470.361
1147 0 83.0332 12.501 1038 115.487 576.461 467.16
1148 0 85.0846 12.0468 1025 118.284 576.929 465.059
1149 0 90.0398 12.6166 1136 117.151 576.377 464.788
1150 0 92.0834 11.6525 1073 121.291 575.806 462.302
1151 0 93.0774 12.9677 1207 120.94 575.452 460.133
1152 0 98.1284 12.7384 1250 119.698 575.266 458.602
1153 0 98.1642 11.4706 1126 123.123 574.42 451.695
1154 0 103.225 12.0998 1249 121.252 574.507 452.269
1155 0 107.223 11.8817 1274 122.99 574.823 449.563
1156 0 111.235 11.1655 1242 124.134 574.735 447.709
1157 0 115.084 10.3751 1194 125.811 574.784 443.501
1158 0 120.345 12.0072 1445 121.448 575.196 446.202
1159 0 124.226 12.1794 1513 122.649 575.283 443.171
1160 0 125.191 11.4625 1435 125.968 574.681 441.674
1161 1 65.1658 9.83644 641 105.973 574.636 477.304
1162 0 69.1052 9.2323 638 107.759 574.616 475.652
1163 0 70.086 9.48834 665 108.409 574.737 473.535
1164 0 73.1525 9.48704 694 108.679 575.158 470.788
1165 0 77.128 10.0742 777 106.153 575.148 471.705
1166 0 78.1882 9.2725 725 107.862 575.386 469.541
1167 0 81.136 10.2544 832 107.21 574.865 466.188
1168 0 85.1041 10.493 893 106.338 575.626 466.422
1169 0 87.185 10.9078 951 106.028 575.49 462.147
1170 0 89.0994 10.0113 892 108.617 576.098 464.26
1171 0 92.0326 9.22499 849 109.819 575.036 462.027
1172 0 96.2324 9.50823 915 109.213 576.624 461.733
1173 1 51.0651 10.3202 527 104.002 577.402 484.323
1174 0 54.0284 10.7166 579 103.017 577.634 481.8
1175 0 54.0533 10.6191 574 102.638 577.082 480.962
1176 0 58.2015 10.3606 603 102.75 577.284 478.585
1177 0 58.0417 10.5441 612 102.783 575.825 479.763
1178 0 59.2918 11.1314 660 101.92 576.339 478.662
1179 0 61.1362 10.7301 656 102.137 575.989 479.072
1180 0 63.124 11.4061 720 101.825 575.758 474.497
1181 0 65.1247 12.2995 801 100.843 576.333 474.466
1182 0 70.0639 11.2897 791 101.81 576.595 476.033
1183 0 69.1177 9.82382 679 107.501 577.085 473.08
1184 0 73.1491 12.2353 895 102.028 576.857 470.066
1185 0 76.1265 12.8208 976 101.764 576.704 469.323
1186 0 79.218 12.1185 960 104.551 577.383 468.361
1187 0 81.1299 12.4369 1009 103.941 576.921 468.706
1188 0 84.1739 12.8306 1080 103.829 576.314 467.529
1189 0 85.131 11.124 947 108.203 576.764 469.229
1190 0 89.1833 11.0222 983 110.081 576.293 465.37
1191 0 89.1033 10.3812 925 113.104 576.105 465.391
1192 1 48.0174 10.5379 506 112.057 575.628 484.051
1193 0 48.0174 10.4546 502 125.163 574.637 484.183
1194 0 53.0905 12.62 670 106.258 575.394 481.455
1195 0 52.0224 10.0149 521 112.956 576.85 483.739
1196 0 52.0886 10.5589 550 112.871 575.831 483.369
1197 0 56.0336 10.1725 570 113.356 575.319 482.381
1198 0 55.0326 10.4847 577 116.047 575.489 481.055
1199 0 57.0527 11.0074 628 114.689 575.357 481.877
1200 0 58.0768 11.0199 640 115.747 575.319 480.08
1201 0 58.0508 9.25052 537 119.138 574.752 481.611
1202 0 62.0626 10.5539 655 117.589 575.33 479.11
1203 0 62.0428 10.4122 646 118.18 574.943 477.923
1204 0 64.0894 10.7662 690 118.442 576.268 477.272
1205 0 70.0985 11.384 798 115.5 576.94 474.811
1206 0 71.0439 9.89529 703 119.459 577.411 474.589
1207 0 74.087 11.5135 853 116.1 577.272 472.036
1208 0 76.1326 10.1271 771 117.148 577.145 474.637
1209 0 78.1136 10.9072 852 118.391 577.034 468.945
1210 0 83.0708 12.5796 1045 112.869 576.594 468.954
1211 0 83.1651 12.1806 1013 114.159 576.646 466.506
1212 0 85.1909 10.5176 896 117.092 575.869 468.651
1213 0 89.1821 11.2018 999 116.859 576.443 465.687
1214 0 92.2075 11.9947 1106 115.235 576.739 461.901
1215 0 96.1429 11.3477 1091 116.029 576.315 463.059
1216 1 48.067 11.692 562 111.835 578.009 484.278
1217 0 51.1649 11.0818 567 112.612 577.935 484.787
1218 0 53.1116 10.4497 555 114.463 577.793 484.007
1219 0 53.1129 11.1837 594 111.879 577.579 481.365
1220 0 56.0566 11.5954 650 111.189 577.362 481.294
1221 0 57.0554 12.4616 711 109.376 576.92 480.57
1222 0 58.0137 11.7041 679 112.059 576.822 480.09
1223 0 58.0444 11.9736 695 112.328 576.8 479.958
1224 0 61.028 12.1256 740 110.727 576.541 478.676
1225 0 65.0822 11.7851 767 111.952 576.821 477.636
1226 0 66.1825 12.3749 819 110.206 576.606 477.534
1227 0 64.0166 9.9193 635 118.825 577.15 477.307
1228 0 66.0623 10.0208 662 119.316 577.207 477.453
1229 0 70.083 10.7016 750 117.505 577.044 475.663
1230 0 71.1184 11.5582 822 115.916 577.614 473.88
1231 0 73.0857 10.303 753 115.865 577.655 474.708
1232 0 77.0693 10.2116 787 115.846 577.624 473.398
1233 0 78.088 11.0516 863 115.68 576.871 469.598
1234 0 81.0606 11.2385 911 113.178 576.603 472.007
1235 0 82.1315 9.54566 784 119.126 576.671 470.293
1236 0 87.2499 11.9542 1043 113.514 576.757 466.459
1237 0 92.0799 12.8475 1183 110.009 576.232 465.088
1238 0 92.1528 11.1988 1032 115.621 576.131 463.669
1239 0 97.1859 12.3166 1197 113.399 576.028 461.62
1240 0 98.2497 12.5089 1229 114.541 575.8 460.412
1241 0 100.181 11.6988 1172 121.131 575.739 456.003
1242 0 103.276 11.0675 1143 122.122 575.655 457.962
1243 0 107.194 12.1649 1304 120.322 575.501 452.764
1244 1 60.1085 10.4478 628 116.697 576.659 479.296
1245 0 64.1422 11.8954 763 113.671 574.781 478.083
1246 0 64.025 12.0734 773 113.789 575.757 478.539
1247 0 67.1024 12.1158 813 115.183 576.111 478.052
1248 0 66.0823 13.1503 869 113.657 575.49 476.539
1249 0 71.0742 13.4226 954 111.724 576.015 475.368
1250 0 72.1896 12.4672 900 115.76 576.351 475.806
1251 0 74.1421 12.1254 899 117.077 575.843 473.324
1252 0 76.092 12.5769 957 117.17 576.05 471.633
1253 0 80.168 13.7212 1100 114.48 575.651 469.952
1254 0 79.2794 12.828 1017 119.03 575.473 468.39
1255 0 84.1725 13.3298 1122 119.318 576.581 468.308
1256 0 87.2603 13.2936 1160 119.932 576.296 466.101
1257 0 90.1279 13.4032 1208 119.031 575.744 467.434
1258 0 94.1623 12.6271 1189 122.045 575.513 464.384
1259 0 96.2566 13.2562 1276 120.971 575.741 463.324
1260 0 97.4454 12.0888 1178 126.419 574.959 458.989
1261 0 103.425 13.1883 1364 122.89 575.34 459.213
1262 0 103.143 12.4779 1287 126.022 575.521 457.673
1263 1 57.0357 11.8347 675 128.639 576.04 479.938
1264 0 60.1513 12.2192 735 126.743 576.503 478.883
1265 0 61.0564 11.039 674 131.383 577.641 479.561
1266 0 63.0503 13.2593 836 125.635 576.975 477.525
1267 0 64.121 12.4452 798 128.575 577.154 476.702
1268 0 68.078 13.2789 904 124.72 577.506 474.665
1269 0 70.0205 12.6249 884 126.223 577.54 475.018
1270 0 71.0571 12.5814 894 125.932 576.87 473.935
1271 0 75.0348 13.4737 1011 122.514 576.972 472.325
1272 0 75.0507 12.365 928 126.073 577.197 472.709
1273 0 79.0986 12.7689 1010 123.712 577.133 470.53
1274 0 79.0384 12.69 1003 125.607 577.098 468.235
1275 0 82.0644 12.283 1008 126.205 576.648 467.736
1276 0 87.1224 12.2127 1064 125.211 576.735 464.735
1277 0 91.0522 12.707 1157 124.154 576.849 462.054
1278 0 93.1161 12.5327 1167 125.158 577.152 461.054
1279 0 96.0702 11.8976 1143 126.916 577.165 460.661
1280 1 53.0934 11.4703 609 120.829 576.921 482.018
1281 0 54.0446 10.7689 582 123 577.308 481.275
1282 0 57.0564 12.8119 731 117.564 577.174 479.912
1283 0 57.0362 11.9223 680 122.643 577.063 477.428
1284 0 60.0633 12.2204 734 121.763 577.191 478.083
1285 0 62.0724 12.4693 774 121.574 576.873 476.862
1286 0 63.0627 11.7026 738 125.512 577.091 475.618
1287 0 66.1011 13.6306 901 118.997 576.815 474.647
1288 0 69.1085 13.0085 899 121.2 575.668 473.13
1289 0 70.136 11.4634 804 125.944 575.657 473.591
1290 0 70.0656 11.8746 832 124.142 574.192 473.608
1291 0 78.094 13.3813 1045 119.962 574.415 470.83
1292 0 79.0912 12.239 968 123.113 575.36 471.262
1293 0 80.0816 12.712 1018 123.612 575.402 468.874
1294 0 86.1495 13.3373 1149 121.677 574.331 466.158
1295 0 88.0803 13.3855 1179 123.083 574.488 465.347
1296 0 90.0504 12.4597 1122 127.856 574.822 462.573
1297 0 99.1159 12.3593 1225 125.117 574.546 462.825
1298 0 98.065 13.542 1328 123.717 574.288 461.121
1299 0 101.075 11.7042 1183 128.708 573.914 460.751
1300 0 105.108 12.9962 1366 123.837 574.518 457.237
1301 1 60.0512 12.1396 729 121.005 573.96 480.823
1302 0 60.0259 11.8449 711 124.443 573.865 479.582
1303 0 60.1243 12.4575 749 126.147 575.418 476.57
1304 0 63.2047 12.7839 808 125.23 574.563 476.074
1305 0 65.1071 12.1492 791 125.169 575.312 476.282
1306 0 68.0275 11.7893 802 124.909 574.352 475.865
1307 0 67.0461 10.6643 715 128.355 574.638 475.873
1308 0 74.1409 13.0832 970 119.602 574.845 474.485
1309 0 74.0452 12.1817 902 123.192 574.523 471.901
1310 0 75.0479 11.6859 877 124.339 574.983 472.591
1311 0 80.1914 13.156 1055 119.891 574.752 469.974
1312 0 80.0703 11.7896 944 121.562 575.029 470.847
1313 0 84.0604 12.5624 1056 119.113 575.195 466.096
1314 0 87.2216 11.8205 1031 119.786 575.402 466.592
1315 0 91.1075 12.1944 1111 118.949 575.428 464.148
1316 0 94.1198 12.4097 1168 117.751 574.712 463.065
1317 1 49.0849 11.3884 559 112.708 574.608 486.15
1318 0 50.0356 10.3127 516 114.105 574.643 483.843
1319 0 54.0633 11.579 626 107.569 574.751 482.262
1320 0 54.1316 11.6383 630 110.059 573.624 480.121
1321 0 57.0566 11.9355 681 107.383 576.78 481.89
1322 0 58.036 12.9575 752 106.33 577.44 478.495
1323 0 60.0688 12.5523 754 107.126 576.652 476.248
1324 0 59.0622 11.4456 676 111.334 576.552 477.678
1325 0 61.0511 13.415 819 107.137 577.244 476.692
1326 0 65.0336 13.7006 891 106.182 577.62 474.794
1327 0 67.077 11.8371 794 110.209 576.664 473.074
1328 0 68.1121 12.7731 870 109.237 576.66 472.909
1329 0 71.1101 12.6002 896 109.491 575.759 473.057
1330 0 73.0745 13.0688 955 106.786 575.886 473.364
1331 0 76.1309 13.6344 1038 106.514 575.75 473.096
1332 0 78.1989 13.1971 1032 108.599 575.702 470.763
1333 0 80.1078 13.3695 1071 108.771 576.129 468.176
1334 0 83.146 12.9772 1079 109.904 576.358 467.039
1335 0 86.2018 12.7956 1103 109.667 576.087 467.851
1336 0 88.1766 13.4843 1189 108.181 575.573 467.844
1337 0 92.2972 13.164 1215 110.086 575.802 464.071
1338 0 94.3156 14.8332 1399 106.193 575.588 461.643
1339 0 98.3297 13.709 1348 108.292 575.254 458.737
1340 0 100.508 13.5113 1358 109.63 575.674 455.906
1341 0 103.176 13.2299 1365 109.503 576.286 456.142
1342 1 52.0194 10.919 568 110.398 576.967 479.651
1343 0 54.2904 10.8122 587 107.825 575.334 475.513
1344 0 56.0288 9.40587 527 108.861 576.362 475.224
1345 0 59.0566 10.7693 636 105.421 576.61 475.146
1346 0 60.0442 10.1758 611 105.794 576.532 475.247
1347 0 61.0434 10.7137 654 105.466 576.74 476.162
1348 0 63.0806 10.0348 633 107.872 577.313 473.6
1349 0 67.0645 12.063 809 103.658 577.08 470.963
1350 0 70.1459 10.136 711 107.43 576.878 469.921
1351 0 72.0762 11.4878 828 103.994 576.876 470.597
1352 0 74.1328 10.7914 800 106.052 577.109 469.058
1353 0 76.0972 11.0385 840 105.469 577.187 468.421
1354 0 79.081 10.6347 841 106.134 577.126 465.444
1355 0 81.133 11.1668 906 103.986 577.243 465.991
1356 0 86.0984 10.5809 911 104.571 576.857 461.93
1357 0 87.1173 10.285 896 104.193 576.958 463.228
1358 0 92.2014 11.3881 1050 102.169 577.091 461.401
1359 0 96.1314 12.6181 1213 100.116 576.486 455.951
1360 1 49.0445 8.93067 438 96.0023 576.831 485.16
1361 0 50.0552 11.6471 583 93.5506 574.434 480.702
1362 0 53.156 11.8331 629 95.8649 574.526 481.692
1363 0 56.078 12.6609 710 94.8676 574.662 482.742
1364 0 57.1406 12.443 711 95.5457 574.938 480.703
1365 0 59.1948 12.2646 726 96.0317 575.189 481.358
1366 0 59.1927 12.0961 716 97.6173 575.288 479.281
1367 0 63.0694 12.1771 768 96.6354 575.336 479.009
1368 0 63.082 12.1746 768 97.5026 575.336 477.678
1369 0 66.0924 12.1194 801 97.9101 575.518 478.016
1370 0 66.1097 12.3129 814 98.758 575.247 476.966
1371 0 69.1366 11.9618 827 98.5683 575.52 474.255
1372 0 70.2326 12.0315 845 99.3692 574.876 475.151
1373 0 74.2066 12.6269 937 98.8452 574.685 473.689
1374 0 75.2519 11.8535 892 102.373 574.909 471.169
1375 0 78.1329 12.6835 991 101.618 575.261 469.01
1376 0 78.103 11.5489 902 105.537 575.309 469.591
1377 0 82.1039 12.0822 992 106.177 574.513 469.648
1378 0 84.118 11.9832 1008 107.562 575.604 466.276
1379 0 85.1193 12.7468 1085 107.901 576.108 467.184
1380 0 89.2114 12.7786 1140 109.437 575.853 464.569
1381 0 92.1801 11.9874 1105 111.707 575.67 463.748
1382 0 95.207 12.1105 1153 111.665 575.568 462.648
1383 0 99.2042 13.0035 1290 110.204 575.306 460.902
1384 0 101.238 12.683 1284 111.526 574.897 459.71
1385 0 105.207 13.0695 1375 111.262 575.146 456.832
1386 0 109.258 14.5711 1592 108.299 574.808 454.477
1387 0 110.222 12.5293 1381 113.235 575.202 454.234
1388 0 111.19 12.3572 1374 114.965 575.528 450.375
1389 0 119.237 13.9051 1658 111.174 575.536 451.232
1390 0 124.256 13.5446 1683 112.314 576.6 447.774
1391 0 126.341 13.4319 1697 113.887 574.85 444.314
1392 0 130.356 14.0692 1834 112.716 574.632 442.6
1393 0 135.237 13.9089 1881 113.294 574.759 438.897
1394 0 138.213 13.3128 1840 115.72 575.371 437.258
1395 0 144.32 13.1375 1896 115.672 575.227 435.432
1396 0 150.291 13.8597 2083 114.803 574.975 429.74
1397 0 156.265 13.0483 2039 116.554 574.978 429.571
1398 0 161.229 13.2979 2144 117.194 575.259 422.742
1399 0 169.328 13.465 2280 115.342 575.553 427.234
1400 0 174.242 14.0092 2441 116.245 574.795 420.085
1401 1 86.1986 12.1348 1046 110.952 574.979 466.507
1402 0 89.1576 12.4274 1108 110.872 575.014 465.818
1403 0 93.149 13.0007 1211 109.922 575.347 462.198
1404 0 96.1982 12.1208 1166 112.186 575.107 458.051
1405 0 99.0504 11.4285 1132 113.683 575.285 456.649
1406 0 103.216 12.4012 1280 110.139 575.047 456.422
1407 0 107.158 14.138 1515 107.032 575.052 454.182
1408 0 110.224 12.1208 1336 110.963 574.579 452.631
1409 0 113.169 12.7596 1444 109.865 574.895 451.456
1410 0 119.08 12.6386 1505 110.312 575.471 450.027
1411 0 123.203 13.5224 1666 107.71 575.514 446.724
1412 0 127.122 11.6187 1477 112.463 575.804 446.022
1413 0 131.219 12.0638 1583 113.061 576.052 441.824
1414 1 69.087 12.5639 868 105.537 576.597 474.955
1415 0 71.2271 12.8182 913 110.604 575.455 471.798
1416 0 74.0964 13.6714 1013 105.847 575.645 468.713
1417 0 75.0825 12.7193 955 102.466 574.329 468.434
1418 0 78.1589 13.255 1036 101.33 574.246 467.441
1419 0 81.0778 9.57106 776 107.149 574.887 463.687
1420 0 83.11 11.8277 983 103.974 574.77 462.118
1421 0 89.3194 12.6624 1131 101.468 574.271 464.318
1422 0 91.1063 12.0299 1096 103.93 574.299 463.238
1423 0 95.1096 13.4582 1280 100.139 573.862 461.466
1424 0 96.1287 9.75775 938 107.184 575.053 463.474
1425 0 100.172 11.031 1105 106.212 575.762 456.333
1426 1 52.0625 11.3133 589 100.835 575.918 483.84
1427 0 54.1964 11.8089 640 101.87 577.947 478.608
1428 0 55.1234 11.5559 637 100.849 576.65 474.152
1429 0 55.2297 11.1353 615 101.862 576.293 474.611
1430 0 59.1168 11.9932 709 99.2468 576.457 475.564
1431 0 59.1026 12.0469 712 100.983 576.594 472.749
1432 0 59.1346 10.9919 650 103.412 576.934 474.106
1433 0 64.2275 13.0474 838 98.6862 576.48 468.433
1434 0 64.1389 11.4595 735 103.259 576.683 469.144
1435 0 68.1712 11.8818 810 101.542 576.407 466.82
1436 0 69.1636 13.1428 909 100.111 576.095 465.781
1437 0 72.0896 13.1503 948 99.6614 576.562 466.621
1438 0 73.0706 12.2621 896 103.307 576.14 468.259
1439 0 74.0341 11.3866 843 105.013 576.709 468.26
1440 0 78.1233 12.6723 990 102.239 576.467 465.807
1441 0 79.0691 12.0148 950 105.218 576.963 464.758
1442 0 84.0639 12.9544 1089 102.41 576.307 464.343
1443 0 87.2901 12.7964 1117 102.646 575.871 461.65
1444 0 90.0608 14.3903 1296 99.4884 576.019 460.856
1445 0 91.0744 12.7808 1164 103.771 576.728 458.541
1446 0 95.1481 12.4648 1186 104.275 576.906 455.162
1447 0 98.3036 11.6679 1147 106.444 576.016 452.245
1448 1 50.1721 11.5602 580 106.162 576.083 476.914
1449 0 53.2085 11.6147 618 105.301 575.639 476
1450 0 56.1528 12.7687 717 103.028 575.547 477.197
1451 0 56.1422 12.1121 680 105.39 575.526 478.972
1452 0 58.1463 12.0042 698 106.04 576.436 477.249
1453 0 60.1041 11.3969 685 106.799 575.486 475.128
1454 0 62.144 11.6504 724 106.595 575.221 474.496
1455 0 64.1926 12.4781 801 106.154 575.459 473.683
1456 0 66.1159 12.2815 812 107.319 575.502 473.533
1457 0 69.1588 11.6977 809 109.283 576.743 472.141
1458 0 72.1194 13.131 947 107.713 575.738 469.629
1459 0 74.1322 12.5991 934 110.263 575.682 468.853
1460 0 77.2117 12.3297 952 114.099 576.455 467.84
1461 0 80.2776 14.1633 1137 110.221 576.306 466.367
1462 0 83.3195 13.0702 1089 112.722 575.398 465.208
1463 0 86.2963 14.0331 1211 111.007 575.037 463.2
1464 0 88.3447 13.3228 1177 114.073 575.602 460.398
1465 0 91.4994 13.9892 1280 113.391 575.633 460.562
1466 1 44.2111 10.1784 450 113.849 575.669 483.022
1467 0 44.1711 11.1385 492 113.795 575.78 482.217
1468 0 48.1533 12.481 601 109.997 575.591 482.691
1469 0 50.0892 12.5576 629 109.921 575.593 481.933
1470 0 52.0906 12.4783 650 110.118 575.606 482.726
1471 0 53.1703 11.04 587 114.472 575.397 481.31
1472 0 55.095 11.2714 621 114.749 574.94 480.939
1473 0 55.0578 11.4062 628 116.234 575.419 479.814
1474 0 60.1081 12.96 779 111.515 575.086 479.95
1475 0 62.1345 11.8775 738 115.935 575.406 476.993
1476 0 63.0569 12.1795 768 115.617 575.141 476.552
1477 0 67.0762 13.6561 916 112.764 575.468 473.347
1478 0 68.0807 12.779 870 116.475 575.523 473.544
1479 0 70.0828 12.9989 911 116.509 575.499 472.484
1480 0 73.1989 12.951 948 116.772 575.891 473.034
1481 0 76.1111 13.4409 1023 116.189 575.665 470.43
1482 0 79.1188 13.663 1081 116.261 576.031 471.589
1483 0 81.1552 12.7533 1035 120.09 575.933 469.252
1484 0 84.0624 13.2283 1112 119.473 575.231 466.9
1485 0 85.0918 13.08 1113 121.451 575.128 466.334
1486 0 89.0476 13.5209 1204 119.516 576.033 466.1
1487 0 92.0631 14.0121 1290 119.426 575.417 463.184
1488 0 95.081 14.0091 1332 119.782 575.419 461.363
1489 0 97.1895 13.3862 1301 122.67 575.6 461.122
1490 0 102.087 13.5669 1385 122.021 575.209 459.132
1491 1 59.0686 11.0888 655 122.235 575.544 478.789
1492 0 60.0537 10.8403 651 127.899 574.553 478.759
1493 0 64.0861 13.5131 866 121.306 574.794 475.926
1494 0 65.0981 12.4735 812 129.216 574.887 474.777
1495 0 68.1383 13.59 926 125.427 574.553 473.116
1496 0 71.0722 12.4099 882 128.082 574.562 473.014
1497 0 72.1401 12.2401 883 127.698 574.277 471.334
1498 0 74.0991 13.2795 984 125.073 574.548 468.916
1499 0 77.1939 12.5528 969 126.665 574.556 469.645
1500 0 79.1168 12.2351 968 126.36 574.929 468.351
1501 0 83.2244 13.6018 1132 121.819 575.19 467.631
1502 0 86.1252 13.7242 1182 121.471 574.665 463.881
1503 0 86.1541 10.9107 940 110.243 575.833 466.374
1504 0 87.1619 11.1631 973 110.762 575.367 465.708
1505 0 89.075 11.7878 1050 111.457 576.168 462.864
1506 0 91.1354 11.2141 1022 110.711 575.366 464.601
1507 0 90.0989 9.81144 884 120.801 576.295 462.294
1508 0 93.0998 10.376 966 118.706 575.625 461.978
1509 0 94.1264 10.4753 986 120.963 575.799 461.08
1510 0 99.0934 10.9291 1083 118.785 575.818 457.068
1511 1 52.0988 10.1538 529 112.446 576.159 480.985
1512 0 53.0793 9.79667 520 111.562 576.413 482.59
1513 0 57.0922 10.5268 601 109.489 575.943 480.374
1514 0 58.1223 10.5983 616 106.847 576.076 480.951
1515 0 59.0595 11.1752 660 108.785 575.442 479.367
1516 0 60.1137 11.628 699 106.539 575.861 479.057
1517 0 59.0479 11.5161 680 107.675 575.529 479.413
1518 0 63.0516 12.4818 787 104.62 575.625 476.601
1519 0 64.0914 10.2354 656 110.648 575.913 473.843
1520 0 66.1214 11.6755 772 108.278 575.978 473.385
1521 0 65.108 10.1063 658 115.755 576.264 476.743
1522 0 66.06 10.4905 693 115.6 576.403 474.538
1523 0 72.1297 12.8657 928 109.643 575.825 474.036
1524 0 74.0873 12.3368 914 112.535 575.709 472.502
1525 0 72.1178 9.8866 713 118.031 575.978 472.265
1526 0 76.1259 10.7585 819 115.996 575.609 473.156
1527 0 77.0647 11.3152 872 117.32 574.902 470.898
1528 0 82.1454 11.8692 975 116.534 575.204 470.433
1529 0 84.0987 11.8908 1000 117.831 574.937 468.745
1530 0 86.1173 11.554 995 118.943 575.449 466.987
1531 0 88.1153 11.0764 976 120.009 575.328 465.192
1532 0 90.0946 11.499 1036 120.042 575.186 463.658
1533 0 94.0714 12.5437 1180 117.965 575.316 463.398
1534 0 95.1011 11.9978 1141 120.869 575.213 461.468
1535 0 99.132 12.0143 1191 121.193 575.698 460.618
1536 0 102.151 12.2075 1247 122.358 574.759 458.147
1537 0 105.125 12.7943 1345 121.703 575.202 457.348
1538 0 105.128 12.6513 1330 123.163 574.824 455.392
1539 0 110.152 12.7551 1405 122.438 574.838 457.383
1540 0 112.064 12.8141 1436 125.268 574.293 451.9
1541 0 117.15 11.8652 1390 131.742 574.988 451.541
1542 1 66.0528 12.1418 802 122.692 575.943 477.04
1543 0 68.0941 10.7205 730 125.144 575.952 473.932
1544 0 69.1434 10.254 709 125.604 574.508 471.812
1545 0 70.2018 11.3672 798 124.192 573.987 470.044
1546 0 76.1173 12.415 945 118.765 573.996 474.396
1547 0 75.0366 12.4739 936 117.779 573.087 472.657
1548 0 79.0567 12.2697 970 118.552 573.148 471.401
1549 0 80.0614 12.5903 1008 118.836 572.81 469.489
1550 0 83.1845 12.1898 1014 119.642 572.374 470.14
1551 0 85.1094 12.1608 1035 119.245 572.235 468.559
1552 0 90.1181 13.5267 1219 116.221 572.307 465.037
1553 0 92.0829 13.7159 1263 116.025 572.258 463.081
1554 0 95.0889 13.2297 1258 117.198 571.676 462.362
1555 0 97.111 12.9336 1256 118.615 572.525 460.918
1556 0 101.187 13.3811 1354 116.551 573.03 461.224
1557 0 104.073 12.7891 1331 118.08 572.549 456.811
1558 0 105.098 11.6748 1227 122.54 572.819 457.331
1559 1 54.1339 11.1021 601 124.71 572.323 481.113
1560 0 55.1345 12.1521 670 120.591 573.578 480.118
1561 0 57.189 11.1035 635 120.447 573.283 474.728
1562 0 60.2061 12.9887 782 115.73 573.996 475.918
1563 0 60.1524 13.0003 782 116.983 574.387 475.018
1564 0 61.1936 11.7333 718 121.259 573.83 474.471
1565 0 64.1499 11.5978 744 122.88 573.599 473.79
1566 0 65.2048 11.9316 778 123.185 572.766 471.883
1567 0 67.1775 12.7572 857 121.623 573.683 470.282
1568 0 71.2322 12.5365 893 122.849 573.251 470.34
1569 0 71.1875 12.3617 880 124.673 573.885 470.388
1570 0 75.1527 13.1599 989 123.294 573.58 468.495
1571 0 78.1258 12.5183 978 126.042 573.914 473.872
1572 0 82.098 13.5692 1114 124.3 573.852 471.541
1573 0 83.2408 13.7433 1144 124.98 574.185 470.168
1574 0 86.1674 13.7175 1182 125.06 573.75 468.512
1575 0 88.1439 12.4002 1093 129.647 575.06 467.959
1576 0 92.1743 13.7348 1266 125.962 574.81 466.344
1577 0 93.2002 12.7038 1184 129.461 573.811 464.646
1578 0 96.1199 12.5572 1207 130.174 574.366 461.919
1579 1 47.0843 11.2776 531 124.412 575.056 487.478
1580 0 49.2424 12.6923 625 115.968 574.518 486.09
1581 0 52.031 12.8962 671 113.924 574.331 484.918
1582 0 52.0649 11.3512 591 120.166 574.668 485.193
1583 0 53.1769 11.3959 606 121.416 574.229 484.686
1584 0 54.0672 12.7249 688 117.906 574.44 482.327
1585 0 55.0644 12.3855 682 117.815 574.405 482.07
1586 0 58.0734 11.9848 696 118.447 574.404 482.178
1587 0 59.119 11.4684 678 120.035 574.024 480.783
1588 0 61.095 11.6049 709 119.378 574.415 480.11
1589 0 64.0995 13.3074 853 115.059 574.666 478.732
1590 0 64.1014 12.215 783 117.008 574.815 478.53
1591 0 67.1326 12.0657 810 117.386 574.933 475.783
1592 0 70.0987 13.0102 912 113.615 574.656 474.805
1593 0 73.0934 12.573 919 114.071 574.533 474.827
1594 0 76.1155 13.9788 1064 110.278 574.667 470.807
1595 0 80.1497 13.8241 1108 108.888 574.322 470.262
1596 0 82.1901 14.211 1168 107.788 574.024 469.722
1597 0 85.1078 14.088 1199 107.929 574.38 468.183
1598 0 85.0712 13.5534 1153 109.871 574.722 464.998
1599 0 90.1851 13.4834 1216 108.634 574.576 466.037
1600 0 90.1498 13.4332 1211 108.621 574.074 464.302
1601 0 95.1006 12.9863 1235 108.666 574.57 461.789
1602 0 95.1628 12.4418 1184 110.43 574.031 459.969
1603 1 50.0257 10.8344 542 112.998 575.157 483.489
1604 0 52.0258 11.6096 604 111.232 573.416 484.22
1605 0 54.0556 13.0791 707 107.986 573.454 482.008
1606 0 54.0796 13.0363 705 106.037 573.433 481.287
1607 0 57.0921 12.0157 686 108.044 573.63 479.504
1608 0 58.1163 11.6663 678 109.007 572.9 479.805
1609 0 61.1242 12.4337 760 107.616 572.742 478.621
1610 0 64.1086 13.8203 886 104.956 572.714 475.929
1611 0 65.0985 13.1647 857 106.764 573.217 476.471
1612 0 68.0793 13.4843 918 106.057 573.135 477.11
1613 0 69.1178 13.2238 914 107.649 572.581 474.369
1614 0 73.0663 12.7829 934 108.136 573.057 474.199
1615 0 74.1759 13.6163 1010 109.029 572.411 472.356
1616 0 76.1105 11.4307 870 114.754 572.699 473.253
1617 0 78.0865 13.024 1017 111.898 572.798 470.895
1618 0 81.14 11.7575 954 115.117 572.593 469.012
1619 0 84.0856 12.2019 1026 114.952 572.39 467.008
1620 0 86.1062 12.0781 1040 116.362 573.322 463.529
1621 0 89.1153 12.0181 1071 116.752 573.479 461.175
1622 1 46.1352 10.5343 486 116.634 573.488 481.835
1623 0 47.0558 10.6894 503 115.127 574.73 480.67
1624 0 50.0426 12.9889 650 108.686 574.498 485.78
1625 0 49.0307 11.605 569 114.761 574.453 483.856
1626 0 54.0655 13.4467 727 108.287 574.184 483.972
1627 0 54.1007 13.4379 727 109.517 573.619 481.077
1628 0 56.1927 13.0978 736 111.216 574.223 481.088
1629 0 59.1211 12.4998 739 113.311 574.543 480.846
1630 0 61.103 13.3054 813 110.969 573.848 480.894
1631 0 65.2411 13.887 906 110.471 574.009 478.845
1632 0 66.1425 13.4256 888 114.11 573.409 477.278
1633 0 70.2617 15.9973 1124 106.415 573.305 476.415
1634 0 71.17 13.9666 994 113.328 573.637 475.577
1635 0 72.208 13.1564 950 116.356 573.861 474.576
1636 0 75.1536 13.3061 1000 116.202 573.679 473.93
1637 0 79.1269 13.51 1069 115.342 574.692 471.582
1638 0 78.1678 13.2152 1033 118.167 574.232 467.571
1639 0 81.1466 11.7565 954 122.363 573.777 469.985
1640 0 84.1852 12.722 1071 121.608 573.796 466.043
1641 0 87.3144 11.9911 1047 126.972 573.241 469.516
1642 0 89.2591 12.5141 1117 125.786 573.745 468.64
1643 1 47.0693 12.1735 573 123.478 572.853 488.525
1644 0 47.1258 12.2438 577 124.908 573.305 486.745
1645 0 50.1253 12.8279 643 122.816 572.88 485.784
1646 0 51.0734 13.04 666 122.371 573.033 485.234
1647 0 54.11 13.1584 712 121.598 572.635 484.875
1648 0 55.0726 14.2539 785 119.875 572.762 482.707
1649 0 53.1071 12.4089 659 119.835 573.583 482.607
1650 0 57.0584 12.496 713 118.309 573.373 482.126
1651 0 58.1102 11.5642 672 121.585 572.699 481.146
1652 0 60.0899 12.4147 746 119.294 572.438 479.418
1653 0 63.1063 10.8864 687 121.753 572.624 481.041
1654 0 67.0819 12.1344 814 118.695 572.491 478.679
1655 0 68.1167 12.0969 824 119.898 572.585 476.785
1656 0 72.1002 12.3162 888 117.294 572.801 476.42
1657 0 73.1783 10.9869 804 120.453 572.01 475.205
1658 0 75.1336 11.5527 868 120.551 571.937 473.698
1659 1 41.0361 11.8676 487 117.099 572.503 490.138
1660 0 43.0315 12.0377 518 117.164 572.251 488.218
1661 0 44.0161 12.2455 539 109.423 572.228 490.035
1662 0 43.0447 11.1977 482 114.55 572.753 488.27
1663 0 46.1158 12.2518 565 111.531 573.333 488.418
1664 0 48.1331 12.5278 603 111.136 573.491 487.312
1665 0 46.2143 11.8145 546 116.723 572.729 486.689
1666 0 50.0722 12.6817 635 113.339 572.471 485.535
1667 0 49.1024 11.588 569 116.838 572.903 487.482
1668 0 51.1266 11.7943 603 116.541 573.01 486.035
1669 0 52.2021 12.1451 634 117.208 572.948 483.084
1670 0 53.0968 11.3943 605 119.159 572.712 482.387
1671 0 55.1936 12.4833 689 114.132 573.023 483.702
1672 0 57.0767 12.8073 731 114.004 572.911 480.954
1673 0 59.1076 10.8108 639 118.502 572.678 481.46
1674 0 62.1774 12.1748 757 114.034 572.719 480.865
1675 0 63.0813 11.2712 711 116.357 573.001 479.585
1676 0 68.1163 13.0953 892 111.907 573.279 475.146
1677 0 68.087 11.3237 771 116.023 573.257 475.601
1678 0 72.1074 11.5106 830 114.18 573.341 474.871
1679 0 74.0691 11.7998 874 113.981 573.463 471.037
1680 1 39.0081 11.5104 449 115.156 573.087 489.078
1681 0 40.0411 11.9128 477 112.851 572.847 487.388
1682 0 40.0606 11.9569 479 113.906 572.919 486.384
1683 0 44.0865 12.1352 535 109.703 573.213 488.406
1684 0 45.0162 12.0623 543 110.304 572.532 487.772
1685 0 45.0746 12.1576 548 110.6 572.407 486.63
1686 0 47.0444 12.7964 602 109.083 572.078 485.458
1687 0 49.0852 12.3866 608 109.89 571.977 485.252
1688 0 51.154 11.7684 602 111.442 572.641 483.352
1689 0 52.0999 12.668 660 110.047 571.879 482.944
1690 0 51.0824 12.6854 648 112.1 572.349 482.897
1691 0 53.1257 11.7645 625 113.866 572.291 482.797
1692 0 54.1014 11.3676 615 115.758 572.995 481.086
1693 0 54.1029 12.4393 673 113.462 573.339 480.027
1694 0 59.0895 12.0157 710 112.762 572.689 479.887
1695 0 57.1634 12.1406 694 115.336 573.196 478.496
1696 0 60.0988 12.0468 724 114.148 573.17 478.457
1697 0 60.1481 12.17 732 115.179 573.204 479.362
1698 0 63.1343 11.6577 736 115.459 573.44 478.455
1699 0 64.2632 11.2506 723 117.274 573.573 476.461
1700 0 68.0907 11.4259 778 114.932 573.035 477.278
1701 0 70.1479 11.2762 791 115.7 573.71 474.054
1702 0 73.1034 11.559 845 115.212 573.039 472.102
1703 0 74.1426 10.6551 790 117.675 572.727 470.052
1704 0 79.1517 10.9284 865 112.474 573.334 469.099
1705 0 79.1524 9.86704 781 115.589 573.158 464.914
1706 0 84.1477 10.339 870 112.96 572.493 463.545
1707 0 86.1963 10.5225 907 112.526 572.759 461.871
1708 1 45.0319 11.5252 519 108.501 572.399 481.615
1709 0 47.021 11.0802 521 113.401 572.127 483.781
1710 0 49.0916 12.5276 615 110.06 572.273 481.156
1711 0 50.0483 11.9484 598 111.371 571.811 481.824
1712 0 50.0515 12.9267 647 110.017 572.1 480.006
1713 0 54.0854 13.5526 733 106.87 572.213 481.588
1714 0 55.0237 12.9581 713 108.805 572.017 479.37
1715 0 55.0505 12.3341 679 111.551 571.404 479.078
1716 0 58.0482 12.9203 750 109.86 571.08 477.864
1717 0 62.0597 12.9714 805 107.658 571.93 477.117
1718 0 64.0451 13.0065 833 105.794 571.904 476.909
1719 0 63.1094 11.7098 739 110.788 571.877 475.62
1720 0 66.1066 12.616 834 109.299 572.406 473.374
1721 0 69.0611 12.6555 874 108.967 573.158 473.792
1722 0 73.1062 12.1741 890 109.693 573.609 473.075
1723 0 74.0642 12.0301 891 110.881 572.85 470.288
1724 0 78.192 13.2238 1034 108.183 573.157 465.048
1725 0 80.1864 12.658 1015 110.681 573.414 464.441
1726 0 82.0794 12.3295 1012 105.123 573.879 466.49
1727 0 84.2527 11.6435 981 107.301 573.198 466.001
1728 0 87.2234 12.0037 1047 107.846 573.583 460.695
1729 0 92.1177 12.484 1150 106.628 573.975 458.847
1730 0 95.2158 13.1071 1248 105.588 573.724 460.169
1731 0 97.1207 12.3661 1201 108.608 573.378 458.474
1732 0 100.162 11.8607 1188 110.128 574.032 458.418
1733 0 103.138 13.0214 1343 108.173 573.844 456.701
1734 0 106.16 12.858 1365 108.774 573.634 456.387
1735 0 107.162 12.9897 1392 109.463 573.537 456.102
1736 1 56.0973 12.2109 685 110.54 573.94 481.203
1737 0 58.0293 11.477 666 113.375 574.317 481.02
1738 0 60.1084 12.1114 728 113.635 574.034 478.935
1739 0 62.0402 11.3958 707 115.53 573.931 478.591
1740 0 64.0454 12.2257 783 114.271 573.775 478.701
1741 0 67.0439 13.3793 897 112.365 574.368 477.803
1742 0 68.0584 12.7538 868 114.453 573.924 477.457
1743 0 72.1155 13.3259 961 114.173 573.241 475.502
1744 0 72.1141 12.1474 876 120.548 573.855 474.865
1745 0 76.1673 13.2078 1006 115.935 574.245 474.681
1746 0 80.1301 13.1411 1053 116.387 573.845 473.014
1747 0 81.1366 12.8056 1039 119.838 573.702 468.139
1748 0 85.2124 13.836 1179 116.476 573.349 467.972
1749 0 89.2657 12.9053 1152 117.915 573.24 468.526
1750 0 90.2151 12.4924 1127 121.248 573.743 464.212
1751 1 44.1236 10.8559 479 117.029 574.455 486.787
1752 0 47.0955 12.2942 579 113.359 574.333 486.725
1753 0 48.0817 12.6659 609 112.895 574.795 486.995
1754 0 50.0906 12.2777 615 114.758 574.608 484.335
1755 0 51.1606 11.3564 581 117.239 573.924 484.002
1756 0 54.1285 13.2278 716 111.933 574.163 483.616
1757 0 55.1281 12.8428 708 113.812 573.398 482.945
1758 0 58.1242 13.1787 766 111.869 574.043 482.192
1759 0 58.0732 13.173 765 112.992 574.214 480.085
1760 0 61.1335 13.0043 795 113.102 574.374 478.969
1761 0 63.0462 13.3394 841 112.936 574.303 478.962
1762 0 65.0676 13.5551 882 113.027 574.009 477.053
1763 0 67.0954 12.6536 849 116.14 573.749 478.28
1764 0 71.1036 13.192 938 114.417 574.176 474.183
1765 0 73.0936 12.9697 948 113.781 574.74 473.689
1766 0 74.1484 12.9605 961 115.422 574.438 472.725
1767 0 75.1947 12.1019 910 118.846 573.856 472.157
1768 0 79.191 12.4509 986 119.649 573.789 470.199
1769 0 81.1482 13.2104 1072 119.007 573.464 469.869
1770 0 82.1016 12.8012 1051 121.474 573.658 467.892
1771 0 86.1103 12.5304 1079 123.208 574.054 465.794
1772 0 88.1238 12.9931 1145 123.39 574.367 464.783
1773 0 91.06 12.3545 1125 126.888 573.709 463.515
1774 0 96.1248 13.4201 1290 124.571 573.612 461.091
1775 1 51.1605 12.4315 636 121.082 573.686 481.126
1776 0 52.113 11.8972 620 123.281 573.044 482.173
1777 0 54.1322 12.2663 664 112.623 574.089 482.633
1778 0 54.0477 13.4696 728 112.935 574.379 483.299
1779 0 55.1422 13.7282 757 114.147 573.922 482.188
1780 0 58.0853 13.3252 774 115.748 573.872 479.212
1781 0 58.1004 11.8932 691 121.912 573.117 479.081
1782 0 61.069 12.7888 781 119.102 573.95 477.778
1783 0 63.0773 12.7304 803 121.005 573.593 475.103
1784 0 64.2004 12.6167 810 121.915 573.853 473.411
1785 0 65.2336 12.7235 830 124.214 573.906 469.845
1786 0 69.1644 13.0414 902 123.098 573.57 469.677
1787 0 70.2473 12.6268 887 129.692 573.28 472.857
1788 0 71.1052 12.8542 914 130.575 573.429 468.322
1789 0 74.2585 12.241 909 130.427 573.954 468.506
1790 0 76.2956 12.0453 919 132.301 573.538 466.218
1791 0 79.3241 12.4804 990 129.944 573.863 466.171
1792 0 81.2799 12.9675 1054 128.792 574.055 465.577
1793 1 41.036 11.3559 466 123.91 574.026 485.951
1794 0 43.0943 9.81568 423 125.149 573.844 487.825
1795 0 45.0281 11.1264 501 121.756 573.303 486.032
1796 0 47.0851 11.9571 563 120.142 572.922 480.368
1797 0 49.0814 13.8138 678 113.889 574.308 484.134
1798 0 51.0896 12.7815 653 115.652 573.701 483.394
1799 0 52.1442 12.8106 668 115.313 574.704 483.492
1800 0 55.117 11.9745 660 116.338 574.048 480.482
1801 0 56.1155 12.9198 725 114.949 573.85 480.31
1802 0 57.1527 11.3905 651 119.072 573.802 480.637
1803 0 58.1211 12.2503 712 118.125 574.119 477.594
1804 0 60.1839 12.4286 748 116.718 574.904 477.606
1805 0 62.1914 12.5902 783 116.978 574.785 474.451
1806 0 65.0566 11.2364 731 118.799 575.176 475.075
1807 0 65.1388 12.2354 797 117.449 575.163 475.252
1808 0 68.0923 12.0865 823 117.086 575.118 473.966
1809 0 71.0616 11.7644 836 118.316 574.678 472.114
1810 0 74.0747 12.3659 916 116.93 575.143 470.972
1811 0 74.1494 12.4613 924 117.904 575.279 468.92
1812 0 77.0694 12.0541 929 118.153 574.839 467.278
1813 0 78.0891 9.92456 775 123.099 574.504 465.356
1814 0 84.116 10.9729 923 118.91 573.694 464.587
1815 0 85.1745 11.7641 1002 118.303 574.076 462.791
1816 0 89.0788 11.4281 1018 117.925 574.472 462.245
1817 0 90.151 10.2938 928 122.129 574.006 460.256
1818 0 96.2542 12.8202 1234 115.566 574.287 457.22
1819 0 97.1028 11.081 1076 120.252 574.691 455.02
1820 0 101.176 12.4635 1261 117.353 574.544 456.028
1821 1 54.1371 11.046 598 108.5 575.01 481.679
1822 0 56.1351 11.3298 636 107.764 574.998 480.178
1823 0 57.2201 10.8703 622 105.26 574.95 475.36
1824 0 57.0756 11.1256 635 106.176 574.86 478.48
1825 0 61.0569 10.9898 671 105.909 575.481 478.073
1826 0 64.0674 12.3776 793 102.662 575.362 476.444
1827 0 64.1585 11.4872 737 105.824 575.383 474.806
1828 0 63.1253 10.0594 635 109.573 574.424 473.712
1829 0 67.0998 11.4605 769 107.544 574.59 470.628
1830 0 69.097 11.1727 772 108.233 574.648 472.374
1831 0 73.1267 10.1468 742 108.844 575.018 473.024
1832 0 78.2121 11.4305 894 107.265 574.83 470.123
1833 0 78.1294 10.777 842 110.153 574.955 468.266
1834 0 81.1459 11.3376 920 108.758 574.626 467.611
1835 0 82.1006 10.3653 851 112.92 574.482 466.235
1836 0 83.1321 10.333 859 112.653 573.742 468.281
1837 0 88.081 11.2397 990 109.859 574.525 465.9
1838 0 91.0673 10.7503 979 111.16 574.633 463.171
1839 0 93.1883 10.3768 967 113.082 574.366 459.831
1840 0 95.1751 9.43525 898 114.908 574.009 457.504
1841 1 51.0479 10.2061 521 104.743 573.843 482.973
1842 0 52.0678 9.79492 510 106.337 573.771 483.806
1843 0 54.1608 10.7273 581 106.799 574.78 476.091
1844 0 52.166 10.3324 539 100.34 572.928 477.954
1845 0 55.0664 9.53395 525 102.008 573.402 476.474
1846 0 55.1428 8.5596 472 103.29 573.453 476.72
1847 0 57.0844 8.82903 504 103.218 573.327 476.29
1848 0 60.1249 9.53016 573 101.974 574.204 474.262
1849 0 62.0786 9.5202 591 101.596 573.997 473.33
1850 0 65.0337 11.0097 716 98.9553 573.841 471.839
1851 0 66.0499 9.70479 641 103.094 573.016 470.524
1852 0 69.2755 9.31065 645 110.392 572.922 474.747
1853 0 70.2289 9.48328 666 109.003 572.45 475.392
1854 0 70.0854 8.78928 616 110.36 572.677 473.865
1855 0 75.0597 9.35255 702 107.392 573.36 470.766
1856 0 78.0793 10.579 826 106.829 572.943 469.99
1857 0 80.0704 9.79138 784 109.564 572.541 467.472
1858 0 84.2125 10.331 870 108.509 572.715 465.688
1859 0 88.2837 8.97108 792 109.26 572.84 464.431
1860 0 86.3473 9.64708 833 115.563 573.68 463.004
1861 0 87.3391 9.88102 863 117.22 573.355 463.926
1862 1 46.0349 9.40591 433 108.878 574.732 486.319
1863 0 46.0644 9.16109 422 109.609 574.772 484.431
1864 0 49.1469 10.4178 512 106.307 574.965 482.148
1865 0 49.0578 9.11169 447 108.975 575.564 482.978
1866 0 51.0316 10.1506 518 106.402 574.757 481.467
1867 0 53.1508 9.83992 523 106.044 575.151 481.738
1868 0 54.0966 8.11511 439 108.264 575.954 482.948
1869 0 55.0345 5.88721 324 112.451 575.028 482.528
1870 0 60.0594 10.0734 605 103.393 574.493 481.21
1871 0 62.1087 10.0952 627 104.876 574.778 477.215
1872 0 63.1338 9.45611 597 104.114 575.196 478.598
1873 0 64.0701 9.38036 601 105.013 574.784 476.255
1874 0 67.1888 9.42122 633 104.381 574.725 475.371
1875 0 70.1608 10.2764 721 103.218 574.731 474.899
1876 0 71.1433 9.45979 673 105.678 574.477 474.624
1877 0 74.095 8.36763 620 108.84 574.576 469.884
1878 0 77.1496 9.82506 758 105.429 575.347 473.237
1879 0 80.202 9.63817 773 106.078 574.582 469.164
1880 0 83.2187 9.86557 821 108.583 574.725 467.627
1881 0 86.129 10.8442 934 108.528 574.457 469.672
1882 0 87.1206 11.2602 981 108.445 574.758 467.967
1883 0 89.1346 10.4561 932 112.388 574.446 463.953
1884 0 92.0942 10.6847 984 111.644 575.061 464.216
1885 0 90.0967 7.26996 655 118.434 574.985 469.499
1886 0 97.2329 12.7632 1241 107.483 574.475 460.238
1887 0 101.188 11.1377 1127 111.436 574.924 460.266
1888 0 103.15 11.1779 1153 111.5 574.203 458.226
1889 0 107.148 11.6101 1244 110.815 574.129 457.414
1890 1 58.0673 11.3145 657 114.158 574.486 480.79
1891 0 56.1504 10.8281 608 117.276 575.304 479.503
1892 0 61.0974 12.9629 792 110.712 574.326 478.524
1893 0 62.1185 12.2025 758 113.632 574.148 476.559
1894 0 64.0898 12.3421 791 114.138 574.456 475.008
1895 0 68.154 12.6918 865 110.845 575.148 475.333
1896 0 67.1798 11.6702 784 115.478 575.117 472.688
1897 0 72.1686 11.293 815 114.263 574.526 473.35
1898 0 75.3389 11.8664 894 113.647 574.836 471.207
1899 0 75.2247 10.6747 803 117.059 574.715 468.563
1900 0 80.1868 11.9845 961 112.983 574.31 467.973
1901 1 40.2586 10.8548 437 110.46 574.048 487.078
1902 0 42.0771 11.6453 490 101.941 573.957 486.643
1903 0 45.1212 12.4997 564 100.271 573.527 486.08
1904 0 43.0879 10.6526 459 105.845 574.588 484.362
1905 0 46.1237 10.0382 463 107.039 574.611 483.289
1906 0 49.2824 11.2819 556 103.151 574.356 483.214
1907 0 49.2007 11.382 560 105.318 574.096 481.312
1908 0 51.1125 10.9953 562 105.763 574.431 483.012
1909 0 51.181 11.2346 575 105.741 574.736 482.925
1910 0 53.1051 11.0535 587 106.198 574.489 480.922
1911 0 55.0947 9.76501 538 108.701 573.967 482.113
1912 0 57.0723 10.548 602 107.417 573.955 480.508
1913 0 60.056 10.6401 639 108.178 573.471 479.167
1914 0 61.2618 10.9693 672 107.53 574.223 475.263
1915 0 63.1281 10.7242 677 108.095 573.826 475.353
1916 0 65.2278 11.8508 773 106.788 574.428 474.965
1917 0 68.1681 11.2369 766 108.189 574.33 474.26
1918 0 70.1919 11.2406 789 108.189 574.393 474.321
1919 0 73.1322 12.5936 921 106.417 573.789 472.139
1920 0 77.1415 11.965 923 107.793 574.315 471.269
1921 0 79.2163 12.1818 965 108.638 573.755 471.653
1922 0 81.2218 11.4501 930 110.685 573.464 469.094
1923 0 82.1347 13.003 1068 108.316 573.889 469.059
1924 0 86.2173 12.0973 1043 111.235 573.76 465.755
1925 0 90.2565 12.0656 1089 111.152 574.087 463.481
1926 0 90.3184 11.4262 1032 111.478 574.383 465.438
1927 1 47.2267 11.1801 528 106.366 574.907 484.22
1928 0 50.1293 11.1911 561 105.724 575.604 484.451
1929 0 53.1325 12.2147 649 103.062 575.3 482.527
1930 0 51.0768 11.8058 603 107.846 574.859 480.993
1931 0 56.1452 12.1827 684 105.048 575.311 481.047
1932 0 58.1144 12.3549 718 106.652 575.553 481.497
1933 0 60.1469 12.4861 751 107.357 575.023 479.318
1934 0 61.2351 13.0154 797 105.822 575.418 481.025
1935 0 63.1025 12.6461 798 107.237 574.886 476.955
1936 0 65.1478 11.8807 774 109.372 574.992 475.952
1937 0 68.1355 13.0182 887 106.754 574.958 475.285
1938 0 70.096 12.7397 893 108.09 574.597 474.376
1939 0 71.1039 10.9417 778 113.85 574.229 473.604
1940 0 72.091 11.1387 803 112.885 574.584 473.872
1941 0 76.1371 11.7288 893 112.183 574.337 472.91
1942 0 79.0386 11.1844 884 114.598 574.223 471.82
1943 0 81.2378 11.9033 967 114.993 573.997 467.826
1944 0 85.1124 13.8288 1177 111.617 574.261 466.693
1945 0 84.0932 10.8332 911 116.709 574.362 461.924
1946 0 89.2215 12.0262 1073 113.358 574.186 461.2
1947 0 91.195 11.0423 1007 118.107 573.944 459.061
1948 0 94.1678 10.1733 958 121.825 574.042 460.47
1949 0 98.203 11.8225 1161 118.469 573.015 456.11
1950 1 52.113 9.19156 479 113.071 572.271 478.864
1951 0 53.1062 9.75403 518 111.942 573.436 481.668
1952 0 54.0618 11.1354 602 115.977 573.189 481.121
1953 0 59.1124 11.7742 696 108.826 574.44 478.655
1954 0 58.1788 10.8115 629 111.631 573.984 476.598
1955 0 60.139 10.9413 658 112.135 574.058 475.693
1956 0 62.0998 11.6909 726 110.778 574.73 475.379
1957 0 63.1646 9.78397 618 116.539 575.026 473.104
1958 0 67.098 10.8945 731 113.16 575.304 473.012
1959 0 69.1565 11.0763 766 114.024 574.495 471.287
1960 0 71.1183 11.8535 843 111.976 574.27 468.682
1961 0 73.0692 11.277 824 113.576 574.972 468.699
1962 0 76.1361 11.3612 865 112.919 574.508 467.111
1963 0 79.1602 13.0116 1030 109.753 574.516 465.765
1964 0 81.1451 11.9909 973 113.791 574.218 464.443
1965 0 83.091 11.6378 967 114.196 574.731 462.966
1966 0 83.0908 10.5668 878 117.128 575.13 461.197
1967 0 90.0977 11.7761 1061 114.36 574.831 461.909
1968 1 45.029 10.3489 466 117.26 575.545 484.212
1969 0 47.0216 10.9737 516 117.163 575.692 484.275
1970 0 50.2212 10.7723 541 118.307 574.235 481.384
1971 0 52.0689 10.9278 569 116.392 574.51 483.211
1972 0 52.0637 11.9661 623 115.344 573.796 482.135
1973 0 54.1036 11.9216 645 116.059 574.205 482.143
1974 0 56.116 11.7613 660 115.877 573.921 478.327
1975 0 56.0644 11.7008 656 117.956 573.483 479.184
1976 0 59.1039 11.2344 664 118.012 573.132 476.083
1977 0 61.0867 11.5246 704 117.057 573.142 478.466
1978 0 62.0934 12.0947 751 117.112 573.526 474.296
1979 0 65.0904 12.1062 788 116.812 573.84 473.51
1980 0 67.0641 12.1824 817 116.186 574.147 474.778
1981 0 69.0784 12.3628 854 115.605 573.578 472.126
1982 0 72.0234 12.5098 901 114.582 573.691 471.92
1983 0 74.0876 12.1883 903 114.961 573.352 471.314
1984 0 76.1698 12.0258 916 115.833 572.787 470.013
1985 0 79.0911 12.8712 1018 113.821 573.179 468.62
1986 0 81.1673 11.7535 954 112.976 574.157 466.309
1987 0 85.132 12.7567 1086 111.098 574.294 464.232
1988 0 86.1002 11.5215 992 116.943 573.628 464.953
1989 0 90.0632 11.4364 1030 115.462 574.28 462.265
1990 0 92.0528 12.1561 1119 115.185 574.768 458.219
1991 1 51.057 10.2043 521 117.914 574.916 482.676
1992 0 54.0597 11.0618 598 117.201 574.63 481.263
1993 0 56.0887 12.2663 688 117.017 574.552 481.276
1994 0 58.1887 12.1329 706 115.967 574.667 479.513
1995 0 61.0977 11.9153 728 116.666 574.966 478.353
1996 0 62.1176 11.6392 723 117.988 574.38 478.389
1997 0 64.234 12.3455 793 116.155 574.232 477.762
1998 0 64.1536 11.0204 707 120.014 574.86 477.235
1999 0 68.1371 12.8564 876 115.066 575.076 475.177
2000 0 71.1049 12.2354 870 115.423 575.066 474.322
2001 0 71.1145 11.3198 805 118.599 574.877 470.901
2002 0 75.0428 12.3796 929 114.926 575.075 470.719
2003 0 79.202 12.5123 991 112.597 574.942 472.132
2004 0 82.1009 12.1923 1001 114.558 573.928 468.432
2005 0 82.1102 12.1057 994 116.816 574.302 467.349
2006 0 85.1361 11.8634 1010 118.405 573.194 464.561
2007 0 89.1899 11.5484 1030 125.037 573.953 465.286
2008 0 92.358 12.0076 1109 129.229 573.812 461.285
2009 1 46.0658 10.1811 469 128.934 575.755 482.576
2010 0 51.1109 10.8392 554 123.644 575.426 484.103
2011 0 51.1101 11.9154 609 119.7 574.979 481.537
2012 0 51.0308 11.738 599 111.943 575.644 483.055
2013 0 53.1365 11.6116 617 111.896 575.554 479.793
2014 0 54.1161 11.5492 625 112.434 575.498 478.824
2015 0 55.1001 12.0145 662 112.231 575.426 479.074
2016 0 58.0807 11.3635 660 113.239 574.879 475.703
2017 0 60.1526 11.6038 698 113.218 575.606 474.421
2018 0 61.0975 11.6535 712 112.976 575.066 475.843
2019 0 64.0623 12.2069 782 111.073 575.029 476.124
2020 0 64.0954 11.2957 724 114.286 574.431 477.565
2021 0 68.0421 12.4482 847 110.855 574.478 473.248
2022 0 71.1302 11.9499 850 111.528 573.985 472.973
2023 0 71.2364 12.0304 857 112.356 573.9 469.86
2024 0 72.1049 11.1643 805 114.625 574.578 470.022
2025 0 75.3201 11.9623 901 112.734 574.382 470.372
2026 0 79.1223 12.3101 974 111.03 574.21 467.32
2027 0 81.1525 12.6675 1028 110.192 574.001 467.543
2028 0 85.2003 12.7582 1087 109.55 574.27 466.354
2029 0 85.2468 11.2849 962 114.52 574.478 463.415
2030 0 87.1063 11.3654 990 115.227 574.406 461.868
2031 0 93.1875 12.2871 1145 118.355 573.907 462.346
2032 1 51.0829 10.0425 513 113.616 574.156 483.934
2033 0 50.0884 11.3599 569 111.07 574.39 483.717
2034 0 53.0469 11.5558 613 111.457 574.55 479.837
2035 0 57.041 13.3764 763 108.899 575.067 480.861
2036 0 56.0572 12.2018 684 114.526 574.526 478.7
2037 0 59.1182 13.1939 780 110.614 574.178 479.37
2038 0 59.2719 12.6536 750 112.505 574.044 479.065
2039 0 61.2174 13.7053 839 111.938 574.784 476.981
2040 0 61.246 13.209 809 114.832 574.908 475.111
2041 0 65.2312 13.3525 871 113.134 574.938 474.518
2042 0 66.2957 13.3342 884 113.245 574.679 474.061
2043 0 67.1851 11.8181 794 116.254 574.655 475.288
2044 0 69.2338 12.4939 865 116.006 574.123 473.023
2045 0 71.1644 13.4899 960 113.669 573.516 469.626
2046 0 74.2911 12.9625 963 114.73 573.62 470.91
2047 0 77.1784 13.9288 1075 111.98 573.966 470.096
2048 0 78.171 12.9332 1011 111.447 574.057 468.501
2049 0 78.0666 10.6704 833 117.667 575.581 468.748
2050 0 83.1242 12.0903 1005 114.093 574.948 465.39
2051 0 86.1158 12.3438 1063 114.387 575.102 463.272
2052 0 87.1207 10.4108 907 117.905 574.751 467.239
2053 0 91.0977 11.7456 1070 116.023 575.278 462.264
2054 0 94.1634 11.2145 1056 116.501 575.492 463.228
2055 0 97.0867 11.7215 1138 115.662 575.134 462.486
2056 1 51.0887 10.1588 519 114.067 575.335 479.343
2057 0 54.0104 10.0536 543 113.75 574.917 478.888
2058 0 55.0485 11.0448 608 114.438 574.396 478.53
2059 0 57.0906 11.3329 647 113.87 574.518 478.867
2060 0 55.1187 10.5227 580 111.605 574.416 477.998
2061 0 58.1188 10.5474 613 110.003 574.622 481.225
2062 0 62.0912 10.2913 639 111.305 575.017 479.3
2063 0 59.1054 10.0329 593 114.497 574.976 477.369
2064 0 64.1443 10.6011 680 111.25 575.029 477.071
2065 0 65.0754 10.2189 665 112.952 575.125 477.662
2066 0 68.2538 12.3363 842 108.954 574.409 475.808
2067 0 72.0975 11.4706 827 110.108 574.759 474.368
2068 0 72.068 10.9064 786 113.527 574.796 471.375
2069 0 73.0987 9.80866 717 117.331 574.223 470.756
2070 0 75.0901 12.1055 909 113.03 574.315 469.055
2071 0 79.1246 9.8705 781 116.755 573.926 469.475
2072 0 80.1293 10.196 817 117.908 574.846 464.159
2073 0 85.0853 11.1418 948 116.563 574.883 464.546
2074 0 85.1526 11.6497 992 115.527 574.472 465.575
2075 0 91.1538 11.3654 1036 116.827 575.012 462.64
2076 0 92.2097 10.9099 1006 118.089 574.83 461.867
2077 0 96.2237 12.2319 1177 115.36 573.918 459.753
2078 0 98.1819 11.112 1091 118.036 573.233 460.476
2079 0 101.124 11.738 1187 117.363 573.443 458.154
2080 0 104.181 13.0734 1362 113.957 573.617 455.883
2081 0 107.095 11.1396 1193 119.58 573.45 454.092
2082 0 110.099 12.0892 1331 117.481 573.199 453.693
2083 0 114.196 11.1825 1277 118.642 573.637 452.032
2084 1 62.0362 10.7034 664 121.328 574.209 473.324
2085 0 64.0938 12.1229 777 116.888 574.124 473.449
2086 0 63.056 11.0854 699 121.813 573.023 470.454
2087 0 68.148 13.0598 890 115.836 572.044 472.178
2088 0 72.211 13.239 956 114.251 572.294 470.735
2089 0 74.1929 13.2897 986 114.868 572.75 469.496
2090 0 76.0823 13.1437 1000 117.245 573.025 469.894
2091 0 77.2301 12.4822 964 118.981 572.874 469.547
2092 0 78.1645 12.3074 962 121.379 572.905 470.376
2093 0 78.1552 12.1297 948 122.351 572.953 470.037
2094 0 87.1923 13.2351 1154 117.626 573.505 468.192
2095 0 84.2305 12.6557 1066 121.824 573.488 467.182
2096 0 90.1479 12.2909 1108 121.909 573.771 466.157
2097 0 97.2264 10.5115 1022 125.905 573.934 464.533
2098 0 97.2463 12.854 1250 121.21 572.971 461.146
2099 0 96.223 13.0011 1251 121.583 572.832 460.133
2100 0 90.1211 10.2196 921 127.021 571.733 461.77
2101 1 107.136 12.5542 1345 121.267 572.663 454.797
2102 0 110.269 13.585 1498 119.007 572.055 450.583
2103 0 113.165 12.5392 1419 122.214 572.316 444.715
2104 1 59.0203 11.7926 696 122.92 572.042 476.29
2105 0 64.1319 13.5658 870 116.625 572 476.909
2106 0 66.0993 13.4041 886 116.064 572.456 477.174
2107 0 65.191 12.7471 831 119.851 571.953 475.862
2108 0 69.0833 13.462 930 116.174 572.316 474.605
2109 0 72.2021 14.3071 1033 113.726 572.703 473.459
2110 0 73.1128 13.4586 984 118.432 572.511 471.55
2111 0 72.1034 13.023 939 145.949 572.48 470.879
2112 0 82.3061 12.6601 1042 119.752 572.219 471.392
2113 0 80.0749 13.2626 1062 119.819 572.219 468.526
2114 0 82.1246 12.8829 1058 121.375 572.515 467.565
2115 0 83.128 11.9454 993 123.345 572.592 468.265
2116 0 85.0857 12.0819 1028 123.062 572.088 465.842
2117 0 90.0936 11.9209 1074 122.967 572.079 464.641
2118 0 93.1076 12.5017 1164 122.107 572.6 462.009
2119 0 94.2205 12.4177 1170 122.522 572.02 459.132
2120 0 99.2401 12.1524 1206 122.6 572.522 455.307
2121 0 100.247 12.0801 1211 123.628 573.198 453.515
2122 0 106.386 13.3101 1416 118.657 573.221 452.992
2123 1 55.2722 11.9228 659 122.507 573.425 471.724
2124 0 56.1884 11.1767 628 119.005 573.03 470.451
2125 0 58.0857 11.242 653 123.588 574.992 475.443
2126 0 61.0209 12.5367 765 121.867 574.166 474.256
2127 0 63.0772 12.8256 809 119.921 574.53 476.519
2128 0 64.0287 12.3695 792 121.553 574.463 472.946
2129 0 68.0494 12.6967 864 120.038 573.913 471.338
2130 0 69.0507 11.6581 805 122.267 573.67 467.795
2131 0 72.046 13.0333 939 119.349 573.407 467.834
2132 0 75.0803 14.1315 1061 115.558 573.284 468.253
2133 0 76.1014 13.1798 1003 118.431 573.639 466.26
2134 0 79.0467 12.5242 990 119.614 573.44 465.202
2135 0 82.1232 13.2484 1088 117.585 574.02 464.502
2136 0 86.1212 14.7118 1267 112.842 573.796 463.021
2137 0 89.0943 13.177 1174 115.882 573.494 462.901
2138 0 90.1181 12.5058 1127 118.11 574.005 459.888
2139 0 94.1358 13.5868 1279 115.812 573.646 456.159
2140 1 46.0846 9.15708 422 115.763 573.49 480.957
2141 0 49.0901 11.428 561 106.631 572.572 478.23
2142 0 50.149 10.5885 531 107.422 572.661 479.087
2143 0 50.1636 9.13013 458 111.236 572.568 476.535
2144 0 53.1671 9.91215 527 109.065 572.469 476.457
2145 0 56.1642 10.5761 594 114.968 572.549 479.322
2146 0 58.0987 11.5493 671 112.745 572.83 478.057
2147 0 61.2039 11.4535 701 111.85 572.011 477.414
2148 0 63.2273 11.2926 714 111.909 572.312 474.189
2149 0 65.1105 12.7168 828 108.984 572.206 476.162
2150 0 68.259 11.7347 801 110.844 572.335 472.752
2151 0 68.309 12.0482 823 113.906 572.108 471.016
2152 0 68.3482 12.2607 838 112.31 572.239 468.576
2153 0 72.3505 11.5272 834 112.983 572.309 471.028
2154 0 74.3042 11.3991 847 113.745 572.207 468.893
2155 0 75.1438 11.8839 893 113.316 571.976 468.228
2156 0 79.2512 12.3531 979 111.415 572.254 465.417
2157 0 84.3907 12.7147 1073 109.764 572.292 463.624
2158 0 83.3886 11.5963 967 112.447 572.595 458.966
2159 0 87.4466 12.682 1109 109.226 572.552 457.231
2160 0 88.24 10.4374 921 113.512 572.597 458.418
2161 0 90.1244 11.2733 1016 111.481 572.21 458.6
2162 1 51.1962 10.2937 527 108.609 572.038 481.182
2163 0 55.3232 10.8454 600 111.488 572.565 476.802
2164 0 57.2248 12.3024 704 108.379 572.365 477.818
2165 0 58.1828 12.0654 702 109.283 572.028 480.162
2166 0 61.1275 13.0056 795 107.589 571.58 478.386
2167 0 65.1437 13.0941 853 105.777 571.686 477.281
2168 0 64.1088 11.6989 750 109.929 571.428 478.525
2169 0 65.1084 11.4424 745 111.988 571.676 476.591
2170 0 67.1314 12.8256 861 109.88 571.635 472.97
2171 0 72.16 13.1652 950 107.488 571.713 474.045
2172 0 73.0922 12.6963 928 108.616 571.337 473.512
2173 0 75.1432 13.095 984 109.297 571.975 469.2
2174 0 79.2589 12.8818 1021 109.797 572.363 469.336
2175 0 80.3104 12.6136 1013 111.521 572.509 469.274
2176 0 83.1228 13.9553 1160 109.57 572.483 466.647
2177 0 88.2441 13.6553 1205 109.668 572.895 466.514
2178 0 89.215 13.686 1221 111.403 573.048 462.944
2179 0 94.3135 14.7063 1387 108.764 573.098 462.173
2180 0 95.3481 13.7286 1309 112.837 572.888 463.047
2181 0 99.3166 13.5728 1348 114.455 573.104 460.686
2182 1 50.1017 11.8559 594 113.056 573.754 484.042
2183 0 50.0774 9.9446 498 104.094 572.841 479.444
2184 0 53.0942 11.7527 624 102.699 572.777 481.769
2185 0 55.161 11.2579 621 103.224 573.977 481.771
2186 0 56.1481 11.4697 644 104.632 573.744 483.273
2187 0 58.1106 13.4055 779 100.944 573.801 481.481
2188 0 61.0651 12.7733 780 102.2 572.894 479.513
2189 0 63.159 11.8906 751 105.828 572.811 478.537
2190 0 66.103 13.01 860 103.565 573.624 478.216
2191 0 67.1376 11.4541 769 107.592 573.204 477.276
2192 0 68.1524 10.9461 746 110.374 572.894 476.324
2193 0 72.1309 12.9487 934 106.911 572.94 474.875
2194 0 73.1013 10.9711 802 111.863 573.394 475.527
2195 0 74.102 11.2008 830 113.051 573.314 473.817
2196 0 78.1332 11.9155 931 112.994 572.34 469.392
2197 0 81.1981 12.5249 1017 111.561 572.599 470.288
2198 0 83.1372 12.4493 1035 114.364 572.437 466.563
2199 0 86.0966 12.6486 1089 112.913 572.26 470.928
2200 0 88.1024 12.4968 1101 117.196 572.519 465.23
2201 0 93.1048 12.6524 1178 116.399 572.834 463.932
2202 0 95.1042 12.6177 1200 116.921 573.168 463.592
2203 0 98.1166 13.4024 1315 117.456 572.507 458.557
2204 0 102.092 14.1245 1442 116.856 572.705 458.48
2205 0 104.119 12.1111 1261 123.387 572.898 455.926
2206 0 110.161 13.4984 1487 118.715 573.379 452.595
2207 0 114.123 12.3288 1407 122.217 572.996 452.468
2208 1 58.0992 11.5148 669 114.001 573.728 479.115
2209 0 58.2561 10.9001 635 116.043 572.447 475.178
2210 0 59.1338 11.2457 665 115.956 572.63 476.176
2211 0 64.1419 11.4434 734 114.691 572.687 475.703
2212 0 66.0622 13.3511 882 112.514 572.814 477.424
2213 0 67.0504 11.29 757 118.592 572.291 476.884
2214 0 70.0853 12.5419 879 116.896 572.629 473.944
2215 0 72.1015 12.0802 871 117.786 572.714 472.529
2216 0 77.0686 13.2739 1023 114.145 573.254 472.5
2217 0 77.0683 12.7809 985 116.603 573.368 469.37
2218 0 80.0463 13.5547 1085 115.335 573.652 468.417
2219 0 83.1148 13.1144 1090 116.082 573.39 467.525
2220 0 86.2645 12.624 1089 117.224 573.519 465.892
2221 0 89.1334 13.4742 1201 116.129 572.992 463.511
2222 0 91.0861 13.2951 1211 116.571 573.251 463.728
2223 0 94.2415 12.9773 1223 117.254 573.156 461.324
2224 0 96.1181 12.6303 1214 119.728 572.691 461.229
2225 0 99.168 12.9477 1284 120.133 572.664 457.764
2226 0 101.153 13.4648 1362 121.233 573.024 456.136
2227 0 106.104 13.8261 1467 118.44 572.678 454.711
2228 0 109.124 13.086 1428 128.396 573.061 453.196
2229 0 112.239 12.8119 1438 127.259 572.512 453.225
2230 0 117.231 13.2473 1553 125.592 572.514 451.769
2231 0 121.244 12.8419 1557 126.559 572.384 450.308
2232 1 65.0884 10.7546 700 120.556 572.767 477.654
2233 0 68.1721 11.691 797 116.563 573.277 478.102
2234 0 69.2709 12.4295 861 117.991 573.47 474.109
2235 0 69.2774 12.1973 845 122.941 573.398 473.459
2236 0 73.3096 12.0039 880 123.941 572.722 471.191
2237 0 76.1861 13.152 1002 120.654 572.687 470.59
2238 0 79.1235 12.2088 966 117.117 573.894 471.36
2239 0 79.1573 11.8625 939 118.728 573.291 469.596
2240 0 85.1536 13.4698 1147 113.711 572.763 467.482
2241 0 86.2873 11.5892 1000 119.656 571.898 467.623
2242 0 88.1111 11.6217 1024 117.209 573.202 464.636
2243 0 91.0655 12.2329 1114 116.349 573.487 464.06
2244 0 93.1582 13.3322 1242 114.416 573.084 463.213
2245 0 97.1492 12.4654 1211 118.06 572.472 460.264
2246 0 100.208 12.6537 1268 117.362 572.662 460.807
2247 0 102.181 12.3213 1259 120.387 573.204 457.569
2248 0 108.116 12.7826 1382 119.643 573.151 457.92
2249 0 111.179 12.3765 1376 125.818 573.267 452.733
2250 0 114.114 10.84 1237 128.688 572.961 455.454
2251 0 116.192 12.1179 1408 127.661 573.493 448.319
2252 1 65.1051 10.2757 669 116.921 573.511 475.013
2253 0 67.1421 9.815 659 115.977 573.267 476.451
2254 0 70.0453 10.5503 739 116.448 571.483 472.862
2255 0 69.1367 10.66 737 117.087 572.807 475.814
2256 0 72.1236 10.4681 755 118.282 572.695 472.842
2257 0 76.1517 11.372 866 114.597 572.784 474.184
2258 0 77.1607 11.5344 890 116.66 572.579 472.099
2259 0 80.2193 11.2566 903 116.308 572.775 471.297
2260 0 83.1894 11.3716 946 116.167 572.696 471.488
2261 0 86.1465 12.3859 1067 114.07 572.582 469.95
2262 0 90.0484 12.3933 1116 113.365 572.619 470.741
2263 0 92.1639 12.2608 1130 114.744 572.516 468.851
2264 0 94.1061 11.5402 1086 119.282 572.568 467.542
2265 0 100.099 11.4387 1145 118.145 572.394 470.578
2266 0 101.225 10.8372 1097 121.364 571.723 465.052
2267 0 105.236 11.0038 1158 119.786 571.232 466.592
2268 0 108.196 12.4219 1344 117.943 570.481 464.783
2269 0 111.201 11.4927 1278 121.914 569.58 462.084
2270 0 114.306 11.0143 1259 127.476 570.536 459.044
2271 1 64.0888 10.4386 669 115.066 570.827 488.404
2272 0 64.1138 8.59409 551 118.84 570.984 488.151
2273 0 69.0702 10.9164 754 112.833 570.257 485.633
2274 0 69.1467 11.2659 779 112.659 570.021 483.194
2275 0 72.0581 11.5462 832 112.242 569.22 483.945
2276 0 75.0264 12.1157 909 110.699 569.147 482.721
2277 0 78.1114 10.9843 858 112.423 568.956 480.844
2278 0 79.0685 11.4964 909 112.766 568.457 480.603
2279 0 83.065 10.9192 907 114.641 568.532 479.051
2280 0 86.1164 10.6252 915 112.907 568.305 472.038
2281 0 88.111 11.5196 1015 111.319 567.712 471.418
2282 0 93.0664 11.7121 1090 110.598 567.77 472.246
2283 0 94.122 11.6232 1094 110.418 567.58 473.185
2284 0 98.1601 12.3574 1213 110.589 567.455 466.782
2285 0 99.0934 11.4841 1138 113.214 567.806 466.052
2286 0 104.204 11.7654 1226 112.414 567.506 463.492
2287 0 107.2 11.0355 1183 112.974 567.34 464.205
2288 0 111.187 10.8556 1207 114.076 566.104 464.078
2289 1 62.189 9.42288 586 106.725 566.838 490.587
2290 0 64.1656 8.86768 569 107.766 567.692 491.445
2291 0 66.091 10.5763 699 105.435 567.309 491.853
2292 0 67.1214 9.92232 666 105.048 565.664 488.683
2293 0 68.0658 10.3723 706 104.331 566.518 488.263
2294 0 70.0721 9.29043 651 106.194 565.853 487.995
2295 0 72.2585 10.2825 743 104.097 566.888 487.284
2296 0 76.0553 10.9526 833 101.998 568.636 485.717
2297 0 77.1343 9.78812 755 102.8 568.964 488.546
2298 0 81.1556 9.36472 760 104.059 568.442 485.178
2299 0 81.1226 9.68904 786 104.72 568.392 481.72
2300 0 83.1822 9.79777 815 105.118 568.248 480.863
2301 0 86.2159 8.58311 740 102.565 567.876 477.962
2302 0 90.2101 9.48896 856 101.714 567.647 476.206
2303 0 92.1951 8.78571 810 103.264 567.286 474.288
2304 0 98.1994 8.38091 823 103.437 567.017 472.637
2305 0 99.2073 10.342 1026 102.527 567.507 468.767
2306 0 102.291 8.43671 863 105.778 567.484 471.202
2307 0 106.342 10.9646 1166 103.597 566.837 466.545
2308 1 55.1249 9.7778 539 102.696 566.046 485.447
2309 0 56.0574 8.36642 469 106.725 565.608 483.196
2310 0 57.09 8.7581 500 106.594 564.824 494.926
2311 0 59.039 9.63769 569 104.457 564.411 493.193
2312 0 62.0222 11.0928 688 100.981 564.525 491.895
2313 0 62.0472 10.7338 666 102.117 565.071 490.189
2314 0 66.0472 9.82631 649 101.895 564.658 490.755
2315 0 67.124 10.205 685 102.669 565.461 486.444
2316 0 70.0818 8.36166 586 106.181 564.855 485.206
2317 0 75.1393 11.126 836 100.644 564.916 485.757
2318 0 76.086 10.5407 802 102.315 564.951 483.933
2319 0 78.1415 10.8521 848 101.138 565.353 484.967
2320 0 82.2166 10.6061 872 102.538 565.713 482.764
2321 0 84.2267 10.3411 871 103.955 565.285 478.533
2322 0 86.1299 11.1692 962 102.667 565.946 476.472
2323 0 89.1145 10.5931 944 103.896 565.972 476.398
2324 0 93.2258 11.9602 1115 101.013 566.132 475.579
2325 0 96.0835 10.8031 1038 103.416 566.351 474.464
2326 0 100.104 11.4781 1149 102.601 566.82 470.183
2327 0 102.137 10.0747 1029 105.921 566.135 465.885
2328 0 105.162 10.6788 1123 105.64 566.136 463.036
2329 1 56.0551 9.11604 511 105.378 566.579 489.524
2330 0 59.1206 11.282 667 101.384 567.514 484.69
2331 0 61.1425 11.3996 697 101.288 568.346 482.844
2332 0 62.0828 10.3249 641 101.243 568.722 484.012
2333 0 66.2038 10.8302 717 99.9456 568.672 487.144
2334 0 65.1321 10.6553 694 101.601 569.097 481.29
2335 0 69.0551 10.774 744 100.526 568.27 480.731
2336 0 72.2276 11.6161 839 98.2729 568.403 480.269
2337 0 74.0797 11.0017 815 99.2601 568.049 477.367
2338 0 76.0658 10.8064 822 99.753 567.937 476.512
2339 0 80.095 12.4103 994 96.5956 567.778 471.808
2340 0 83.1195 12.3076 1023 97.1584 567.927 472.828
2341 0 84.0704 11.5974 975 99.7446 568.453 474.116
2342 0 87.2168 11.1561 973 100.345 568.278 465.654
2343 0 89.1998 10.4036 928 102.803 568.59 467.067
2344 0 92.1548 13.7703 1269 100.474 568.686 466.396
2345 0 95.2613 13.6257 1298 102.685 568.462 464.703
2346 0 98.1833 13.3729 1313 103.651 569.053 462.579
2347 0 101.243 13.275 1344 104.497 568.521 461.863
2348 0 102.173 13.3793 1367 105.53 568.391 459.599
2349 0 107.082 13.3543 1430 105.625 568.901 460.017
2350 0 109.209 12.5356 1369 108.54 568.875 456.869
2351 0 114.198 14.0108 1600 104.354 568.571 452.773
2352 0 112.136 11.4415 1283 108.719 567.939 443.793
2353 0 118.287 13.6533 1615 103.838 568.95 440.121
2354 0 121.336 12.7002 1541 106.189 569.422 437.742
2355 1 61.0976 10.0168 612 109.131 569.926 466.81
2356 0 65.1616 10.8499 707 107.778 570.228 465.935
2357 0 71.0997 11.955 850 106.368 569.885 469.213
2358 0 70.0988 10.8846 763 109.706 570.474 468.322
2359 0 75.0436 12.0064 901 106.708 571.102 465.487
2360 0 76.1273 11.9405 909 107.696 571.132 465.319
2361 0 82.0757 13.0733 1073 103.165 571.247 463.56
2362 0 84.0669 13.3941 1126 102.914 570.569 461.3
2363 0 85.0519 12.4042 1055 105.218 570.803 460.097
2364 0 89.1144 12.9609 1155 103.754 570.794 460.526
2365 0 90.0661 12.8128 1154 105.746 570.493 457.158
2366 0 96.0909 13.685 1315 101.544 570.6 455.64
2367 0 98.199 13.7476 1350 101.326 570.856 455.295
2368 0 100.283 12.734 1277 104.439 570.78 453.439
2369 0 106.204 13.0974 1391 104.371 570.448 452.697
2370 0 110.234 13.5258 1491 102.879 570.138 450.205
2371 0 113.238 13.3435 1511 103.33 569.794 445.267
2372 0 114.219 12.1171 1384 107.467 570.454 443.105
2373 0 113.287 9.82462 1113 113.603 570.965 440.975
2374 0 117.17 10.2074 1196 110.794 570.946 445.308
2375 1 66.2498 12.2868 814 99.8968 570.878 468.413
2376 0 70.1569 12.5861 883 101.985 570.742 463.877
2377 0 72.2526 11.9996 867 104.621 569.746 462.707
2378 0 74.1313 11.4257 847 105.671 569.948 460.935
2379 0 74.3076 10.941 813 107.411 570.745 459.17
2380 0 80.2655 11.8606 952 105.042 570.037 457.187
2381 0 83.2514 11.195 932 105.652 570.482 459.998
2382 0 86.2179 12.2364 1055 103.814 571.711 459.999
2383 0 87.0921 12.3318 1074 107.037 572.116 464.76
2384 0 90.152 11.5472 1041 108.471 572.663 462.117
2385 0 94.1501 10.7913 1016 109.643 572.296 461.783
2386 0 99.1336 13.043 1293 105.263 572.459 458.931
2387 0 100.182 11.9682 1199 107.967 572.329 459.954
2388 0 104.172 11.8938 1239 109.186 572.283 456.563
2389 0 107.172 10.5718 1133 111.954 572.33 454.75
2390 1 60.1452 10.3084 620 108.273 572.368 477.316
2391 0 62.0812 10.0997 627 104.128 571.673 475.116
2392 0 65.0825 12.0155 782 106.82 571.116 474.766
2393 0 68.052 11.5206 784 107.716 571.918 474.305
2394 0 71.0419 11.6832 830 105.995 572.731 474.417
2395 0 73.0764 12.2064 892 103.917 572.684 474.333
2396 0 74.1724 11.2171 832 108.136 572.995 471.091
2397 0 77.0599 13.2235 1019 102.591 572.462 470.692
2398 0 79.0827 12.6071 997 104.303 572.338 470.574
2399 0 81.0609 12.102 981 105.945 571.523 470.639
2400 0 82.0861 12.0971 993 107.696 572.256 466.924
2401 0 84.0617 12.586 1058 107.157 572.267 465.018
2402 0 88.0945 12.6001 1110 106.329 571.584 465.694
2403 0 92.1536 11.7955 1087 107.38 571.744 466.346
2404 0 94.1127 12.5913 1185 106.921 572.389 462.708
2405 0 97.0701 14.0105 1360 104.361 571.68 459.856
2406 0 101.123 13.182 1333 106.101 571.68 459.128
2407 0 102.192 13.5726 1387 106.375 571.91 458.737
2408 0 104.126 12.9555 1349 106.941 571.915 458.5
2409 0 107.173 13.2682 1422 106.738 572.324 457.154
2410 0 110.15 13.9719 1539 106.272 572.088 453.98
2411 0 108.123 11.7921 1275 112.598 571.424 455.432
2412 0 111.227 11.7957 1312 112.393 571.482 456.915
2413 0 114.232 11.9756 1368 112.5 572.09 450.466
2414 0 120.196 12.4297 1494 109.691 572.141 448.262
2415 0 125.388 12.6248 1583 108.613 571.795 445.793
2416 0 129.334 11.7216 1516 111.309 571.494 443.317
2417 1 75.1818 10.6542 801 106.159 572.031 473.693
2418 0 74.1603 10.6121 787 100.891 571.193 465.907
2419 0 78.18 10.2456 801 100.873 571.34 466.191
2420 0 81.3079 10.1589 826 96.3668 571.493 467.516
2421 0 83.2676 11.0607 921 95.7155 570.998 464.894
2422 0 86.2275 11.6436 1004 94.9751 571.153 461.597
2423 0 90.2803 12.428 1122 92.5972 570.933 462.093
2424 0 93.1686 11.8495 1104 94.6114 570.87 460.531
2425 0 96.196 11.2687 1084 96.0821 570.954 458.712
2426 0 98.2722 10.6643 1048 97.73 571.258 456.189
2427 0 102.192 11.4393 1169 96.7417 571.242 454.027
2428 0 106.434 12.3081 1310 95.3962 570.926 455.719
2429 0 108.505 10.9857 1192 98.5705 570.852 453.382
2430 0 114.39 10.8488 1241 99.1644 571.571 452.417
2431 1 59.2053 10.8267 641 95.0343 572.1 478.817
2432 0 62.191 10.4999 653 96.5835 571.204 476.403
2433 0 63.1624 11.0826 700 95.72 571.086 478.06
2434 0 67.197 12.2178 821 93.8538 571.172 476.513
2435 0 68.153 12.0611 822 95.5803 570.85 474.03
2436 0 71.1764 11.4645 816 96.0294 571.929 471.928
2437 0 71.2555 11.3114 806 98.1638 571.377 471.153
2438 0 76.1458 12.8569 979 94.2697 570.875 473.614
2439 0 77.298 12.4712 964 95.5736 571.115 470.679
2440 0 78.1539 11.8228 924 98.9589 570.908 468.877
2441 0 81.2331 12.0271 977 100.388 570.708 467.507
2442 0 83.1198 11.718 974 105.074 570.598 467.455
2443 0 85.1809 11.6693 994 106.16 570.092 465.217
2444 0 90.145 11.8698 1070 107.421 570.323 463.187
2445 0 91.2853 11.0861 1012 110.052 570.07 460.415
2446 1 48.3091 10.9296 528 102.771 570.831 481.75
2447 0 51.3515 10.6326 546 101.815 570.037 482.698
2448 0 52.256 9.109 476 106.649 570.34 480.597
2449 0 53.2261 11.1599 594 102.614 570.652 481.106
2450 0 56.1215 11.9206 669 100.694 571.369 483.308
2451 0 55.2039 11.7564 649 103.698 571.478 478.934
2452 0 56.2635 10.8241 609 104.703 571.893 480.456
2453 0 58.1805 11.069 644 105.851 571.637 479.918
2454 0 59.0975 12.0479 712 104.346 571.114 477.882
2455 0 63.1385 11.9895 757 103.843 572.075 478.225
2456 0 63.1241 12.1823 769 105.46 571.796 476.745
2457 0 66.0644 11.8067 780 106.085 571.932 475.93
2458 0 67.189 11.4156 767 108.529 572.233 475.203
2459 0 70.139 12.8744 903 106.787 572.006 472.637
2460 0 73.0883 12.2044 892 109.166 571.811 471.923
2461 0 74.1438 13.3929 993 108.239 571.533 470.159
2462 0 76.1273 12.5973 959 111.895 571.749 469.132
2463 0 78.1337 12.453 973 112.928 572.899 468.385
2464 0 81.0722 12.5937 1021 113.346 571.296 466.944
2465 0 83.1459 12.436 1034 112.469 570.827 468.058
2466 0 86.1992 13.724 1183 110.226 570.934 467.117
2467 0 89.1878 12.7932 1141 113.581 572.638 463.332
2468 0 92.1414 13.2731 1223 112.798 572.678 461.434
2469 1 48.0321 11.1384 535 111.389 573.391 483.14
2470 0 50.0778 11.1427 558 112.432 573.624 481.362
2471 0 52.0478 12.2195 636 109.17 573.072 481.399
2472 0 53.0599 12.6461 671 107.092 571.721 482.447
2473 0 55.1413 12.9304 713 105.942 571.533 479.961
2474 0 56.0476 11.7757 660 109.783 572.652 481.179
2475 0 58.0329 14.3539 833 106.963 572.139 478.217
2476 0 59.1152 12.2473 724 111.334 573.24 477.873
2477 0 62.0545 13.0208 808 109.348 572.571 477.167
2478 0 65.1202 12.8532 837 109.612 572.487 475.796
2479 0 67.0745 13.2539 889 109.199 572.595 474.802
2480 0 69.115 14.7291 1018 105.832 572.815 474.599
2481 0 70.0642 12.3458 865 112.984 572.52 474.477
2482 0 72.0901 12.4705 899 112.268 572.093 473.893
2483 0 74.0858 12.526 928 114.087 572.486 472.55
2484 0 75.1365 12.1246 911 115.819 572.434 469.971
2485 0 78.1426 12.6819 991 113.808 571.931 468.292
2486 0 82.1767 12.6678 1041 112.666 572.04 468.354
2487 0 85.0907 12.7629 1086 112.708 572.27 466.61
2488 0 88.1975 12.6194 1113 112.953 571.838 465.623
2489 0 88.2083 11.4955 1014 116.883 571.559 464.018
2490 0 94.1668 12.0425 1134 115.113 572.589 461.34
2491 1 55.0601 11.6963 644 114.488 572.713 479.654
2492 0 54.0297 11.9749 647 115.747 572.054 477.512
2493 0 55.0876 10.8191 596 118.418 572.032 475.733
2494 0 55.1138 11.7212 646 117.119 572.09 474.263
2495 0 56.1094 11.9053 668 116.32 571.852 471.758
2496 0 58.1268 11.6642 678 114.528 571.137 471.586
2497 0 59.082 13.1512 777 111.193 571.091 469.61
2498 0 62.2032 12.1859 758 113.11 571.406 468.97
2499 0 65.1159 12.3165 802 111.44 571.716 470.951
2500 0 66.1106 11.7833 779 114.444 571.851 467.343
2501 0 67.1589 11.2569 756 115.772 571.798 468.962
2502 0 70.1353 12.3333 865 113.22 572.476 466.823
2503 0 73.0659 10.4563 764 116.762 571.801 466.796
2504 0 76.0791 11.2383 855 115.517 571.764 463.108
2505 0 78.165 11.8339 925 115.747 571.168 460.804
2506 0 82.1337 12.297 1010 116.769 571.056 465.106
2507 0 86.1669 12.2321 1054 116.799 571.006 463.557
2508 0 88.1765 13.0874 1154 118.765 571.718 462.716
2509 0 92.1606 12.5108 1153 119.702 571.513 461.223
2510 0 95.2083 12.9505 1233 118.341 571.691 460.543
2511 1 51.0894 11.3135 578 110.554 572.078 481.984
2512 0 52.0383 10.9535 570 112.407 571.66 480.656
2513 0 54.0295 12.0675 652 110.64 572.02 479.534
2514 0 54.107 11.1261 602 114.586 572.91 478.736
2515 0 56.1007 12.0319 675 113.541 572.65 477.201
2516 0 59.0235 12.4357 734 111.307 573.253 477.395
2517 0 60.0742 13.9994 841 107.964 572.913 476.732
2518 0 63.0795 12.4605 786 110.836 572.737 476.24
2519 0 66.125 12.4159 821 111.676 572.322 474.784
2520 0 67.1671 12.9677 871 118.185 571.436 474.246
2521 0 69.1408 12.1636 841 120.981 572.389 471.855
2522 0 72.1578 12.4172 896 119.662 572.047 471.558
2523 0 73.08 12.2332 894 121.113 572.436 469.553
2524 0 74.094 12.2952 911 122 571.714 467.168
2525 0 77.0553 12.8998 994 118.755 571.842 469.047
2526 0 78.043 13.0441 1018 120.982 571.947 464.722
2527 0 81.0903 12.8622 1043 121.521 572.013 464.008
2528 0 85.105 12.6902 1080 121.869 571.488 463.265
2529 0 90.0964 12.1758 1097 122.098 572.361 462.255
2530 0 97.1055 13.9333 1353 116.607 572.424 459.535
2531 0 96.1012 13.132 1262 118.212 571.484 458.568
2532 0 99.1219 12.7116 1260 121.454 572.449 455.613
2533 1 56.0244 10.6025 594 118.337 572.835 477.857
2534 0 55.0358 10.8111 595 118.257 571.884 477.761
2535 0 58.033 13.0788 759 105.656 573.158 476.501
2536 0 60.0376 13.7247 824 104.245 573.64 475.568
2537 0 62.0332 12.6545 785 106.759 572.327 473.02
2538 0 63.0535 13.4489 848 105.377 571.829 474.476
2539 0 65.0338 11.8092 768 108.733 572.371 473.863
2540 0 68.1127 11.4957 783 109.418 572.195 471.471
2541 0 70.0474 12.6343 885 106.515 571.965 468.793
2542 0 70.033 11.8516 830 109.095 572.748 468.767
2543 0 73.0501 13.7714 1006 104.398 573.232 468.67
2544 0 75.121 11.8609 891 108.45 572.947 467.973
2545 0 79.1547 12.0271 952 107.272 572.704 466.178
2546 0 80.1481 11.1544 894 109.945 573.522 463.886
2547 0 86.2266 13.1398 1133 104.176 573.133 462.428
2548 0 88.2143 12.5036 1103 115.915 572.082 462.837
2549 0 96.0989 10.843 1042 118.299 572.589 460.389
2550 0 94.2035 11.9741 1128 117.625 572.136 455.925
2551 0 95.2056 12.2892 1170 117.25 572.185 456.19
2552 0 96.1507 12.6884 1220 115.807 572.684 457.139
2553 0 101.174 12.266 1241 115.821 573.263 454.393
2554 0 106.323 13.2991 1414 113.127 572.896 452.068
2555 0 107.179 12.8756 1380 115.501 573.188 447.932
2556 0 109.124 11.7573 1283 118.44 572.667 443.214
2557 0 115.074 13.4609 1549 113.753 572.661 443.342
2558 0 119.197 11.5859 1381 115.429 572.356 441.45
2559 0 123.233 11.1577 1375 112.516 572.048 441.924
2560 0 127.359 11.0397 1406 112.129 572.245 441.17
2561 0 131.245 12.2138 1603 110.394 572.752 435.124
2562 0 137.311 11.1426 1530 112.353 572.432 432.293
2563 0 142.284 12.3837 1762 109.846 572.698 431.262
2564 0 145.411 10.46 1521 114.237 572.713 428.694
2565 0 153.399 11.1474 1710 111.76 572.375 428.054
2566 0 156.371 11.3448 1774 111.175 572.424 427.996
2567 0 160.3 11.5222 1847 111.43 572.441 423.26
2568 0 164.344 9.52879 1566 115.079 572.126 421.351
2569 0 175.362 12.1748 2135 108.814 572.088 422.734
2570 0 178.29 11.8122 2106 110.72 572.675 416.632
2571 0 185.431 12.8404 2381 108.71 572.869 416.552
2572 0 188.418 12.2016 2299 112.203 572.78 409.608
2573 0 194.262 12.895 2505 110.398 573.007 409.364
2574 0 201.406 12.6908 2556 110.638 572.32 409.345
2575 1 215.436 10.7224 2310 115.648 572.432 403.726
2576 0 213.318 11.3914 2430 114.021 572.476 401.519
2577 0 220.376 12.7146 2802 112.13 572.427 394.26
2578 0 229.374 12.2507 2810 114.381 572.519 393.831
2579 0 237.514 14.2097 3375 111.19 571.983 390.211
2580 0 243.472 13.3239 3244 114.556 571.829 387.322
2581 0 252.455 13.4836 3404 115.048 572.518 379.333
2582 0 252.416 11.7544 2967 118.292 572.793 386.158
2583 1 270.624 14.1451 3828 114.824 572.589 373.34
2584 0 279.567 13.3421 3730 117.998 572.771 368.433
2585 0 286.54 14.0748 4033 117.386 572.172 365.563
2586 0 295.452 14.097 4165 117.881 571.743 362.338
2587 0 307.484 15.4447 4749 115.305 572.01 356.082
2588 0 315.519 14.5918 4604 119.995 572.193 343.668
2589 0 326.378 14.4189 4706 120.637 571.867 342.799
2590 1 340.322 14.9329 5082 120.117 572.156 337.807
2591 0 348.47 15.6168 5442 119.042 572.302 324.441
2592 0 362.538 17.6147 6386 113.364 572.003 321.854
2593 0 373.605 17.6443 6592 113.096 572.241 304.372
2594 0 384.675 17.1028 6579 113.74 572.133 304.545
2595 0 397.001 16.942 6726 114.387 572.291 295.536
