time division length width area intensity CMx CMy
0 0 46.0478 12.183 561 127.702 436.023 467.843
1 0 46.0691 11.3742 524 132.666 436.492 466.49
2 0 46.0199 12.1686 560 130.912 436.234 466.768
3 0 49.0654 11.0872 544 133.278 436.039 466.05
4 0 50.0746 12.2218 612 131.351 436.19 464.279
5 0 51.0181 12.4466 635 129.309 436.685 466.789
6 0 52.0921 11.9212 621 130.718 436.449 465.443
7 0 52.0282 12.3587 643 131.319 435.978 464.572
8 0 55.0402 12.9178 711 131.764 435.308 462.931
9 0 58.0678 13.1915 766 137.728 434.711 462.386
10 0 59.039 13.6181 804 146.843 434.739 464.59
11 0 63.0723 14.3169 903 142.151 434.817 463.238
12 0 65.0733 13.9689 909 141.419 433.948 462.912
13 0 65.1129 13.1157 854 145.879 434.397 461.605
14 0 69.1388 14.3335 991 138.767 434.032 461.918
15 0 70.0656 14.7291 1032 138.421 433.828 459.988
16 0 71.1097 13.5003 960 134.37 434.552 460.561
17 0 75.0798 15.0773 1132 132.635 434.527 459.238
18 1 39.0486 11.9851 468 137.991 434.041 476.874
19 0 40.0918 12.6709 508 135.49 433.843 476.585
20 0 40.0232 12.4678 499 135.784 433.321 475.531
21 0 40.0306 12.8901 516 134.773 433.835 477.124
22 0 44.0671 13.6383 601 128.561 433.313 474.963
23 0 44.0212 13.3799 589 129.625 433.358 476.292
24 0 45.0291 12.8361 578 130.31 432.649 476.215
25 0 46.0579 13.1139 604 130.632 433.3 473.753
26 0 48.031 13.0124 625 129.245 433.184 474.973
27 0 49.0454 14.1298 693 127.436 433.154 472.593
28 0 51.0436 13.1652 672 129.487 433.432 472.085
29 0 52.0227 13.2442 689 129.779 432.907 471.779
30 0 53.0746 13.9238 739 126.71 432.912 471.271
31 0 56.0548 14.4145 808 124.382 432.569 470.271
32 0 58.0448 14.6956 853 124.454 432.737 468.615
33 0 59.1018 13.7221 811 128.734 432.856 468.354
34 0 62.0597 13.7448 853 127.145 433.712 467.831
35 0 64.0813 13.1552 843 129.094 433.353 465.376
36 0 67.0387 14.9764 1004 123.934 433.331 465.015
37 0 67.0982 13.9348 935 128.014 432.672 464.096
38 0 72.1006 14.1192 1018 126.315 432.428 463.017
39 0 73.0995 14.022 1025 126.384 432.007 461.659
40 0 77.057 15.3004 1179 122.163 432.475 459.781
41 0 80.1062 14.2186 1139 124.18 432.804 460.037
42 0 80.122 13.467 1079 127.868 432.605 458.751
43 0 85.1359 14.565 1240 123.004 432.694 456.524
44 0 89.1112 14.308 1275 122.515 432.247 455.503
45 0 91.136 14.0449 1280 123.812 431.852 452.866
46 0 94.1266 13.6943 1289 124.28 432.005 452.825
47 0 95.1149 14.1723 1348 122.594 431.953 446.871
48 1 51.06 11.6725 596 124.569 432.213 469.46
49 0 53.0955 13.8618 736 123.053 431.981 472.719
50 0 54.0582 13.356 722 122.373 431.199 471.647
51 0 57.0653 11.9863 684 126.193 431.079 471.082
52 0 59.0569 13.1907 779 122.748 431.185 470.743
53 0 61.0438 14.3667 877 120.213 431.218 469.073
54 0 63.1675 13.9471 881 121.64 430.927 467.913
55 0 65.0304 13.2861 864 123.042 431 467.512
56 0 67.0753 12.9556 869 124.906 431.216 466.376
57 0 71.1179 14.4689 1029 121.616 430.817 466.064
58 0 74.0881 14.1723 1050 123.87 430.857 462.442
59 0 78.133 14.3473 1121 126.785 431.231 462.045
60 0 79.1095 14.4483 1143 123.036 430.983 462.553
61 0 83.07 14.3975 1196 125.69 430.138 461.352
62 0 87.1259 15.1964 1324 123.403 429.721 459.875
63 0 90.1237 15.4898 1396 122.994 430.391 458.024
64 0 92.1331 14.479 1334 125.969 429.506 454.475
65 0 96.1094 15.3575 1476 122.209 430.231 453.944
66 0 98.1467 14.9674 1469 122.894 430.722 453.381
67 0 102.157 14.4287 1474 125.257 430.066 450.279
68 0 105.139 14.1051 1483 125.228 430.583 450.945
69 0 110.267 13.9933 1543 127.057 430.246 449.534
70 1 57.0665 13.3178 760 123.129 430.633 472.62
71 0 59.09 13.1833 779 122.549 430.52 471.575
72 0 62.1107 13.5404 841 122.756 430.276 471.838
73 0 64.1309 13.7999 885 124.911 431.411 469.238
74 0 68.0618 14.7807 1006 121.227 431.373 469.3
75 0 70.1309 13.8883 974 124.24 431.244 467.265
76 0 71.1867 14.6095 1040 118.412 430.825 468.887
77 0 74.1957 14.2731 1059 118.23 431.088 467.105
78 0 77.1395 13.2876 1025 121.414 430.501 466.772
79 0 77.167 13.2051 1019 122.794 430.22 464.344
80 0 80.2114 14.4867 1162 120.099 429.883 461.238
81 0 85.1816 14.7919 1260 116.06 429.958 462.92
82 0 87.1474 14.114 1230 119.237 429.545 460.629
83 0 90.151 13.2999 1199 122.44 429.969 457.591
84 0 93.1262 13.6267 1269 121.983 430.541 456.996
85 0 96.0649 14.6255 1405 117.047 430.3 456.771
86 0 99.1228 13.9726 1385 120.479 429.73 454.807
87 0 101.081 13.8602 1401 120.836 429.801 453.534
88 0 103.115 13.0631 1347 124.777 429.569 449.815
89 0 111.078 14.3143 1590 120.216 429.639 450.592
90 0 117.106 15.0889 1767 117.544 429.509 447.593
91 0 121.117 14.68 1778 118.093 429.772 445.308
92 0 124.168 14.859 1845 119.51 429.718 441.103
93 1 66.0726 12.9403 855 121.2 430.022 469.878
94 0 68.0408 12.5219 852 122.266 430.513 470.077
95 0 67.0877 12.5209 840 117.176 429.88 469.004
96 0 69.0725 10.8147 747 120.344 429.278 468.829
97 0 74.1504 12.9062 957 114.648 430.017 465.433
98 0 76.151 13.0399 993 114.517 430.111 465.072
99 0 79.1352 12.3081 974 117.247 429.959 463.185
100 0 85.1527 13.9044 1184 112.087 429.519 460.477
101 0 85.0605 13.367 1137 113.771 429.501 462.534
102 0 86.0995 12.2417 1054 118.376 429.468 457.752
103 0 93.1897 13.4135 1250 114.354 428.995 457.36
104 0 93.1419 12.7118 1184 116.995 429.228 454.488
105 0 98.1286 13.2377 1299 118.202 429.652 453.941
106 0 104.132 13.5213 1408 116.009 428.903 450.477
107 0 107.119 13.1723 1411 116.186 428.96 449.66
108 0 108.139 12.9093 1396 118.09 428.711 447.254
109 0 113.156 12.77 1445 116.284 429.081 445.605
110 0 118.291 13.8472 1638 112.789 429.085 440.507
111 1 64.2636 11.7952 758 110.158 429.253 468.423
112 0 66.0969 11.9521 790 109.784 428.896 470.147
113 0 68.0492 12.4028 844 107.609 428.841 469.909
114 0 69.069 12.1618 840 108.731 429.018 466.907
115 0 71.1096 11.2362 799 111.628 429.033 465.989
116 0 74.0699 12.0967 896 108.211 429.229 466.402
117 0 79.0669 11.9646 946 108.907 429.244 464.412
118 0 80.1158 12.3072 986 109.647 429.512 461.923
119 0 82.071 11.7094 961 111.332 429.363 461.601
120 0 85.0919 13.0682 1112 109.254 429.204 460.494
121 0 87.1651 11.8281 1031 111.938 429.169 458.093
122 0 91.1523 12.726 1160 110.089 429.44 455.946
123 0 93.2155 12.455 1161 110.63 429.438 454.425
124 0 96.1425 11.8678 1141 111.842 430.41 453.631
125 0 100.165 12.759 1278 109.52 429.407 451.681
126 0 103.07 12.1956 1257 111.918 429.279 449.286
127 0 108.141 13.6859 1480 111.226 429.221 445.956
128 0 109.2 12.4725 1362 115.42 430.07 446.16
129 0 113.203 12.217 1383 116.093 429.625 444.485
130 1 62.0266 11.6724 724 112.523 430.539 470.373
131 0 64.1007 11.6379 746 114.399 430.729 470.582
132 0 66.0912 12.5887 832 113.036 431.155 469.444
133 0 70.0595 12.9176 905 113.173 430.381 466.758
134 0 68.1256 11.1852 762 110.122 430.05 468.778
135 0 72.1141 11.2877 814 109.762 429.73 468.396
136 0 74.1208 12.8169 950 107.518 429.637 465.462
137 0 77.1289 12.9394 998 107.811 429.038 464.24
138 0 79.0422 12.5503 992 109.185 429.289 462.505
139 0 84.0722 12.6082 1060 107.91 429.304 461.854
140 0 86.0894 11.9062 1025 109.164 429.921 459.952
141 0 90.1749 12.5977 1136 107.406 429.332 457.502
142 0 92.141 11.7971 1087 109.198 429.309 458.161
143 0 96.1214 12.89 1239 105.892 429.629 457.437
144 0 97.1885 12.9336 1257 108.376 429.456 452.21
145 0 102.248 11.9905 1226 110.379 430.213 451.637
146 0 102.239 11.9818 1225 136.06 431.212 451.549
147 0 107.27 11.1867 1200 110.825 429.358 447.002
148 0 114.184 12.5675 1435 106.539 430.137 447.521
149 0 115.395 12.5829 1452 108.287 429.804 446.468
150 0 119.277 12.3326 1471 109.025 430.192 443.651
151 1 59.1545 11.4953 680 113.681 429.859 467.509
152 0 64.1155 12.4619 799 103.041 429.98 470.105
153 0 64.0874 12.0773 774 108.771 430.305 470.43
154 0 64.1259 11.3527 728 113.913 430.633 467.21
155 0 66.0955 12.3306 815 113.087 429.978 465.423
156 0 71.0917 12.5753 894 110.746 430.245 467.161
157 0 71.1248 10.9526 779 117.582 429.936 464.189
158 0 76.1603 13.314 1014 111.115 429.796 464.536
159 0 78.365 12.4545 976 113.931 429.139 463.662
160 0 81.1194 13.7575 1116 111.939 429.391 461.116
161 0 85.1892 12.619 1075 115.093 429.227 459.91
162 0 85.3128 12.3311 1052 117.944 429.32 458.838
163 0 88.1881 12.3713 1091 117.868 428.711 457.6
164 0 92.3861 12.1555 1123 117.899 428.918 456.155
165 0 97.2169 13.3927 1302 114.743 429.45 455.18
166 1 54.2057 12.4157 673 112.33 429.798 475.871
167 0 54.1528 12.3539 669 116.448 430.049 473.649
168 0 56.1705 12.3908 696 113.203 429.907 473.25
169 0 57.0234 12.0301 686 110.729 430.426 472.512
170 0 59.1692 12.8952 763 109.135 431.004 471.789
171 0 61.0646 12.888 787 115.058 430.573 468.379
172 0 63.0378 12.9129 814 115.781 430.598 468.108
173 0 66.0654 11.4886 759 119.962 430.036 466.874
174 0 68.0507 12.2703 835 117.511 430.377 465.504
175 0 70.0657 11.4036 799 119.108 430.2 464.755
176 0 72.1443 12.4196 896 117.886 430.227 463.57
177 0 74.1788 12.3216 914 118.492 430.311 462.728
178 0 76.166 11.8819 905 119.567 430.698 459.896
179 0 79.0734 12.5706 994 118.424 429.739 460.019
180 0 82.1065 12.5081 1027 117.021 429.855 461.551
181 0 86.1763 13.5768 1170 115.297 431.003 458.361
182 0 89.139 13.2938 1185 116.753 429.845 456.349
183 0 92.2735 12.5388 1157 119.151 429.988 455.643
184 0 94.2246 12.1837 1148 121.921 429.715 452.176
185 1 48.0355 11.0335 530 116.258 430.851 476.451
186 0 50.0615 13.0439 653 111.712 430.822 474.551
187 0 51.1722 11.9596 612 107.944 428.778 476.052
188 0 53.0888 12.3567 656 109.759 428.901 475.895
189 0 55.1007 12.6677 698 109.236 429.191 475.176
190 0 56.0845 12.9269 725 110.246 428.452 474.748
191 0 58.1109 13.1645 765 110.559 428.681 474.384
192 0 60.1033 12.7115 764 111.957 428.669 472.738
193 0 62.1532 13.2093 821 112.284 428.945 470.688
194 0 63.0219 13.2652 836 112.614 428.971 468.758
195 0 66.0886 14.2385 941 110.414 428.968 469.545
196 0 68.2175 13.0319 889 111.576 428.632 469.186
197 0 71.1745 13.2351 942 110.504 429.102 467.662
198 0 71.2104 12.428 885 116.428 429.177 464.467
199 0 74.1664 11.7843 874 116.876 429.022 465.557
200 0 78.2546 12.5488 982 115.393 428.762 462.292
201 0 80.2594 12.8957 1035 113.985 428.413 462.474
202 0 81.2448 11.533 937 118.311 428.289 461.226
203 0 85.2911 12.6977 1083 114.857 428.389 460.924
204 0 88.1993 12.5058 1103 115.805 428.769 457.705
205 0 92.2671 12.4963 1153 113.578 429.183 455.191
206 0 94.1824 11.5733 1090 116.363 428.775 455.439
207 0 98.2519 11.725 1152 113.492 428.557 454.614
208 1 50.1398 11.5876 581 110.232 428.979 476.945
209 0 51.1335 12.5358 641 110.468 428.891 474.565
210 0 54.0362 12.8247 693 114.988 429.818 474.261
211 0 53.0632 11.9103 632 110.136 429.446 475.744
212 0 54.1016 11.0348 597 112.427 430.044 474.407
213 0 56.0793 11.7334 658 110.985 429.185 475.026
214 0 58.1102 11.96 695 110.354 429.106 473.832
215 0 59.1107 12.2144 722 109.884 428.845 473.904
216 0 62.0662 12.2933 763 109.959 429.65 472.689
217 0 63.1323 12.3709 781 111.027 428.77 469.763
218 0 63.1291 11.8646 749 144.073 428.748 469.883
219 0 66.1171 12.0997 800 112.656 428.728 468.529
220 0 69.1102 13.2687 917 109.509 429.068 466.794
221 0 73.1143 12.542 917 111.363 429.874 468.371
222 0 75.0392 12.3535 927 110.834 429.166 465.91
223 0 75.1701 10.8288 814 114.973 429.211 465.607
224 0 79.0686 11.6608 922 113.433 430.011 463.231
225 0 79.1718 11.0393 874 116.791 429.833 461.507
226 0 83.0872 11.6143 965 112.849 430.122 462.503
227 0 89.3736 12.2072 1091 111.602 429.555 457.937
228 0 94.1165 14.8752 1400 104.944 429.439 455.274
229 0 94.1599 12.2557 1154 113.546 429.939 453.831
230 1 49.091 10.1444 498 115.422 430.102 476.578
231 0 51.0151 11.7024 597 113.111 430.129 476.866
232 0 53.1659 13.298 707 111.274 429.124 474.928
233 0 54.1596 13.0171 705 112.864 429.576 473.414
234 0 56.174 13.3336 749 110.749 429.708 473.818
235 0 56.0916 12.9788 728 112.361 429.236 471.956
236 0 60.1026 12.3788 744 112.078 429.555 472.848
237 0 61.1147 12.3702 756 112.167 429.224 471.841
238 0 62.133 13.455 836 110.364 429.051 471.411
239 0 64.1094 12.8686 825 111.84 429.162 467.732
240 0 65.0505 12.4519 810 111.394 428.93 467.935
241 0 70.1314 12.4053 870 105.043 428.733 468.67
242 0 71.0794 13.0558 928 105.406 429.287 465.079
243 0 72.0631 12.7805 921 106.788 429.018 465.978
244 0 78.1719 13.1121 1025 105.364 429.144 465.225
245 0 78.1818 12.5477 981 109.29 429.379 463.464
246 0 83.1686 13.8153 1149 107.446 429.231 460.977
247 0 84.1279 13.6102 1145 109.778 428.938 460.994
248 0 88.3486 13.0393 1152 111.816 430.076 454.406
249 1 47.1186 12.9248 609 108.947 430.933 475.486
250 0 49.0417 12.9685 636 106.346 430.371 478.002
251 0 48.0245 12.5977 605 109.704 429.493 477.481
252 0 49.0436 12.4583 611 110.154 428.918 476.707
253 0 49.0343 11.8896 583 111.569 428.739 478.554
254 0 52.0993 11.6892 609 113.323 429.479 475.759
255 0 53.0221 12.0893 641 112.356 429.321 475.281
256 0 58.0382 12.3539 717 108.319 429.385 474.987
257 0 59.0496 12.5996 744 108.331 429.409 474.417
258 0 59.0217 12.7411 752 109.531 429.499 472.366
259 0 63.1077 12.4549 786 109.73 429.532 471.074
260 0 64.1901 12.463 800 110.38 430.336 470.515
261 0 67.1283 12.3197 827 109.618 429.64 470.607
262 0 69.1196 14.5979 1009 105.875 429.647 467.262
263 0 70.0546 13.1183 919 109.991 429.743 465.937
264 0 73.0514 13.4563 983 109.36 429.415 462.646
265 0 76.1253 13.5697 1033 108.599 429.368 463.653
266 0 77.1638 12.6225 974 110.186 429.963 463.452
267 0 83.0499 13.1608 1093 107.164 430.145 462.521
268 1 45.0363 11.0356 497 109.41 430.014 479.404
269 0 46.0734 11.4817 529 112.231 430.832 477.837
270 0 48.0731 11.3785 547 108.898 430.503 475.784
271 0 48.0359 11.9286 573 106.246 430.307 474.41
272 0 47.0862 11.6807 550 109.358 429.696 477.22
273 0 51.0353 11.8937 607 108.736 429.28 476.265
274 0 51.067 12.0234 614 109.555 429.547 476.453
275 0 53.0396 11.1049 589 111.326 429.676 476.414
276 0 54.0386 12.3985 670 111.01 429.522 473.496
277 0 55.0838 11.6913 644 113.228 429.309 474.632
278 0 59.11 12.7051 751 111.326 429.451 473.577
279 0 60.0326 11.3771 683 115.959 430.007 471.877
280 0 63.0406 12.9758 818 111.829 429.9 471.949
281 0 66.0807 12.288 812 113.118 430.252 471.147
282 0 68.0737 14.5137 988 109.732 429.732 467.618
283 0 69.0827 12.2028 843 117.715 429.894 467.816
284 0 71.0981 13.615 968 115.869 430.124 466.362
285 0 75.0937 13.9293 1046 116.005 429.459 464.249
286 0 78.103 12.7012 992 120.974 429.913 463.593
287 0 79.0834 12.9863 1027 121.537 429.486 460.896
288 0 85.1282 13.4855 1148 118.98 430.006 459.999
289 0 88.1721 13.9273 1228 118.132 429.337 457.588
290 1 45.1181 10.8826 491 119.039 429.497 478.458
291 0 47.0126 11.6139 546 118.125 429.833 476.72
292 0 50.0363 12.9906 650 114.2 429.749 475.475
293 0 52.0437 13.2005 687 114.891 429.751 475.665
294 0 51.0264 11.1511 569 120.968 428.763 476.485
295 0 56.1053 13.5816 762 111.597 429.14 474.312
296 0 55.0331 11.9201 656 117.027 429.492 473.585
297 0 57.055 12.8648 734 113.51 429.217 473.854
298 0 58.0963 11.7391 682 81.1921 430.24 474.837
299 0 61.0915 13.7826 842 111.633 429.57 471.232
300 0 61.0838 12.491 763 117.187 429.84 468.761
301 0 62.1334 13.0365 810 118.117 429.674 470.714
302 0 64.1018 13.3538 856 116.864 429.305 469.874
303 0 68.0441 14.5935 993 113.175 428.892 466.695
304 0 68.1437 12.9579 883 117.709 429.239 466.632
305 0 70.0691 13.1013 918 116.036 429.385 466.913
306 0 73.1101 12.406 907 116.989 429.885 463.69
307 0 77.1316 13.3408 1029 113.961 429.042 462.371
308 0 79.1072 12.6158 998 114.178 429.041 463.306
309 0 83.2364 13.9963 1165 110.633 429.785 459.105
310 0 86.1129 12.7275 1096 111.265 428.884 457.401
311 1 45.1011 11.3079 510 108.429 429.322 478.239
312 0 44.0477 11.3967 502 109.044 428.992 477.149
313 0 47.0904 11.5735 545 106.969 429.152 475.927
314 0 47.0292 11.1207 523 108.87 429.128 478.826
315 0 50.0842 12.3592 619 107.144 429.194 476.575
316 0 52.0105 12.7474 663 105.7 428.306 474.335
317 0 52.0515 11.7576 612 109.173 428.866 474.75
318 0 54.0809 11.5568 625 109.49 428.845 474.301
319 0 55.041 11.8821 654 110.012 428.41 472.557
320 0 60.0593 12.7041 763 106.419 428.6 471.512
321 0 62.0243 13.5753 842 104.587 429.056 471.032
322 0 61.044 12.5647 767 109.558 429.027 470.258
323 0 62.103 12.4149 771 110.898 428.524 468.756
324 0 66.0526 12.157 803 112.473 428.391 466.635
325 0 70.0723 13.1578 922 109.48 429.466 466.292
326 0 72.0816 14.0258 1011 107.941 429.912 466.758
327 0 74.0678 12.9341 958 111.306 429.855 464.571
328 0 76.0592 13.3054 1012 110.737 429.574 465.444
329 0 79.1215 11.8425 937 114.824 430.273 463.178
330 0 82.0783 13.1825 1082 112.065 429.831 460.323
331 1 43.0497 10.5227 453 114.163 430.523 479.94
332 0 44.0475 12.1914 537 110.082 430.32 478.339
333 0 44.0441 11.5339 508 106.827 430.368 478.876
334 0 46.0489 12.3999 571 105.897 430.441 479.261
335 0 46.0697 12.4377 573 106.794 430.326 478.604
336 0 46.0885 11.5213 531 109.085 430.188 476.808
337 0 49.0828 12.5298 615 105.826 430.276 477.2
338 0 49.0752 10.7998 530 110.143 430.587 476.364
339 0 51.1311 12.3017 629 106.485 430.402 474.835
340 0 52.0621 11.4094 594 108.85 430.03 475.396
341 0 54.1361 10.7507 582 110.443 429.893 474.95
342 0 55.06 11.8053 650 108.854 430.217 474.006
343 0 58.0983 11.7904 685 107.053 430.756 473.231
344 0 60.1236 12.441 748 104.809 430.463 471.905
345 0 61.0959 12.0957 739 104.995 430.618 469.972
346 0 66.1154 12.4631 824 102.532 430.197 470.518
347 0 66.0388 12.4018 819 101.973 430.06 470.502
348 0 70.1967 12.465 875 101.056 430.082 469.658
349 0 72.1149 12.383 893 102.609 430.503 466.178
350 0 74.1358 11.8431 878 104.403 430.579 464.574
351 0 76.169 11.4482 872 105.44 429.787 463.731
352 0 78.1263 11.7886 921 104.349 429.68 462.578
353 0 81.1548 12.3714 1004 103.518 429.895 461.176
354 0 84.1952 11.6396 980 105.1 429.692 459.526
355 0 86.2126 11.5644 997 106.161 429.947 456.476
356 1 47.0713 10.1548 478 103.554 429.588 478.586
357 0 49.0743 10.0664 494 104.018 430.134 477.634
358 0 49.1152 10.9131 536 103.728 430.724 475.948
359 0 53.0653 12.5883 668 97.2919 430.895 475.942
360 0 54.0993 11.6637 631 101.17 430.572 475.033
361 0 56.0822 12.1607 682 101.532 431.604 473.101
362 0 57.0338 11.0987 633 104.436 431.404 472.351
363 0 58.0757 11.8983 691 103.745 431.718 471.082
364 0 63.0749 12.7785 806 102.699 431.485 471.764
365 0 65.0402 13.1611 856 102.505 430.936 469.313
366 0 67.0855 14.0865 945 101.055 431.406 466.515
367 0 67.1129 13.0377 875 104.437 431.303 466.731
368 0 70.1547 13.6698 959 101.942 430.7 467.497
369 0 70.0682 11.8171 828 107.051 431.401 464.976
370 0 74.0805 12.4189 920 104.81 431.334 465.14
371 0 77.1548 13.2591 1023 103.383 431.896 462.978
372 0 80.1061 12.3461 989 104.225 431.294 463.777
373 0 82.1287 12.5413 1030 104.898 431.279 459.344
374 0 84.1512 12.6201 1062 103.897 430.992 457.103
375 1 44.0514 10.5786 466 105.472 431.856 477.624
376 0 46.1783 10.6327 491 102.878 431.328 476.98
377 0 45.2613 8.52827 386 103.56 430.306 473.474
378 0 45.0155 9.37454 422 101.841 429.171 472.666
379 0 47.1324 10.6084 500 99.406 430.842 472.16
380 0 51.0883 11.6465 595 96.6605 430.272 471.005
381 0 50.0934 11.0993 556 98.036 429.964 470.142
382 0 53.1599 11.7758 626 103.369 430.922 475.343
383 0 54.1138 12.6585 685 101.639 430.953 472.543
384 0 59.2302 13.2027 782 98.5486 430.514 472.496
385 0 58.1359 12.1096 704 101.369 430.409 471.44
386 0 60.2108 12.7386 767 99.6063 430.28 471.259
387 0 61.0806 12.5081 764 94.7971 430.516 471.301
388 0 62.134 11.6201 722 96.3061 430.766 469.704
389 0 65.109 12.8861 839 94.5352 430.163 469.044
390 0 66.1874 11.4523 758 97.6003 429.992 465.606
391 0 69.1036 11.3742 786 97.3257 430.003 467.718
392 0 72.1328 12.6433 912 96.6535 430.195 465.164
393 0 72.0873 10.9173 787 100.972 430.515 463.713
394 0 76.127 13.3593 1017 96.6008 429.898 460.64
395 0 79.0545 13.2314 1046 96.7505 429.987 460.984
396 0 82.0537 13.0037 1067 97.5886 430.001 460.826
397 0 87.233 13.8021 1204 94.6952 430.727 459.843
398 0 87.0886 13.4116 1168 96.6721 430.702 458.562
399 1 47.0775 12.3626 582 93.8763 430.433 479.921
400 0 47.0434 10.5435 496 97.3669 430.887 478.288
401 0 49.0661 12.4526 611 93.3355 430.16 475.579
402 0 49.0928 12.568 617 97.3517 431.049 477.355
403 0 51.0784 12.2752 627 97.0845 430.797 477.474
404 0 54.1014 11.6448 630 97.7175 430.59 476.843
405 0 55.0661 13.3476 735 95.8517 430.484 475.52
406 0 56.0763 13.125 736 97.019 430.458 474.423
407 0 58.1044 12.7013 738 98.248 431.054 474.297
408 0 62.1062 12.849 798 96.6767 431.336 474.08
409 0 64.188 13.1489 844 95.7251 430.54 472.686
410 0 64.0395 12.3205 789 99.3004 430.877 470.792
411 0 68.1005 13.4213 914 97.1477 430.972 468.909
412 0 69.0912 13.6631 944 98.4693 430.578 467.319
413 0 73.1164 13.4033 980 97.901 430.727 467.63
414 0 74.1551 13.3099 987 100.281 430.995 464.927
415 0 77.1449 13.6756 1055 99.4123 431.575 463.046
416 0 80.3738 13.4745 1083 100.547 431.343 459.394
417 0 83.2752 12.4647 1038 102.474 430.903 458.752
418 1 40.1699 10.8539 436 100.337 431.142 480.404
419 0 42.1694 12.8529 542 95.9557 431.843 480.561
420 0 46.0979 12.4301 573 94.7051 431.216 480.719
421 0 43.1516 11.0077 475 101.341 430.966 480.034
422 0 44.0453 11.6471 513 100.992 430.928 479.3
423 0 49.1249 12.743 626 97.4904 431.494 478.283
424 0 47.084 12.191 574 100.756 430.533 477.38
425 0 51.0501 13.2419 676 97.9571 430.327 475.487
426 0 51.0538 12.7904 653 99.389 430.741 477.217
427 0 52.0843 12.5182 652 100.471 430.834 475.623
428 0 54.152 12.8158 694 99.7464 430.504 475.02
429 0 58.1372 12.9005 750 98.292 430.172 474.419
430 0 58.0334 12.9925 754 100.383 430.386 471.125
431 0 63.1364 13.7163 866 97.2933 431.164 472.543
432 0 63.1391 12.8922 814 100.316 430.661 471.071
433 0 64.1031 13.2287 848 100.693 430.485 469.218
434 0 68.0969 11.8361 806 102.287 430.383 470.074
435 0 70.1419 13.6865 960 101.086 430.517 466.061
436 0 71.0674 12.0449 856 104.867 430.792 467.3
437 0 73.0785 12.0282 879 104.846 429.666 464.454
438 0 79.1165 14.2827 1130 100.558 429.029 463.157
439 0 79.1208 12.007 950 105.767 429.424 461.4
440 1 39.0346 10.9134 426 101.336 429.585 482.913
441 0 42.0708 11.5282 485 100.299 430.171 480.913
442 0 44.0484 11.5782 510 99.4333 429.988 481.473
443 0 45.0277 12.9698 584 99.4829 430.44 479.382
444 0 44.1514 12.4571 550 98.0145 430.129 479.455
445 0 45.0907 11.998 541 99.9612 430.436 477.527
446 0 48.0523 11.5291 554 99.2022 430.749 479.59
447 0 47.0767 12.0229 566 99.2774 430.569 478.186
448 0 52.0638 12.9457 674 96.5549 430.844 477.2
449 0 53.0718 12.7563 677 97.4815 429.811 474.694
450 0 54.0999 12.2181 661 99.6127 430.064 475.179
451 0 56.0461 12.8466 720 98.6278 431.163 473.374
452 0 56.0389 12.3129 690 100.541 431.593 472.651
453 0 60.0574 12.2716 737 99.8765 431.444 471.943
454 0 59.1286 11.7033 692 102.199 431.259 470.941
455 0 63.0607 13.0192 821 99.3691 431.445 471.049
456 0 66.0637 13.8351 914 98.0525 430.722 467.879
457 0 68.0945 13.5841 925 100.24 430.859 466.934
458 0 71.0391 12.7254 904 101.3 430.705 467.749
459 0 73.0724 12.8229 937 102.331 430.775 466.471
460 0 75.1057 12.8885 968 102.023 430.88 465.947
461 0 77.115 14.5886 1125 100.268 430.352 462.004
462 0 79.1338 12.7506 1009 104.258 430.49 462.163
463 0 82.1544 12.2331 1005 106.327 430.362 460.349
464 1 44.0248 11.7888 519 103.929 431.53 479.291
465 0 45.1031 12.6377 570 102.084 431.286 478.514
466 0 43.0232 11.3892 490 100.067 430.8 481.959
467 0 46.0564 12.159 560 99.2089 431.007 480.314
468 0 46.0125 11.1492 513 102.043 430.799 479.546
469 0 49.0911 12.0592 592 100.571 430.302 477.978
470 0 51.0555 11.7715 601 100.631 430.414 477.236
471 0 52.0463 11.9509 622 99.9871 430.68 476.67
472 0 53.0384 11.1994 594 101.946 430.759 475.609
473 0 53.0707 10.8158 574 103.291 431.003 473.862
474 0 59.0605 13.0205 769 97.0598 430.982 474.278
475 0 61.0383 12.3529 754 98.6552 431.095 472.748
476 0 60.0859 11.4003 685 102.034 431.251 472.512
477 0 61.0335 11.0104 672 104.012 431.082 470.704
478 0 65.2866 11.7176 765 101.779 431.617 469.108
479 0 69.0802 11.9571 826 100.565 431.397 470.212
480 0 72.2353 14.1482 1022 97.3072 430.763 467.915
481 0 74.0771 12.9055 956 105.789 429.703 465.533
482 0 77.0448 12.7199 980 105.115 430.831 465.633
483 0 79.2503 13.5772 1076 105.577 430.62 462.692
484 0 83.1104 13.4279 1116 104.064 431.08 463.34
485 0 82.0522 13.0039 1067 105.74 430.792 462.403
486 0 86.1002 12.9733 1117 104.059 431.233 461.575
487 0 88.1456 12.7289 1122 105.365 431.494 456.042
488 0 93.2915 12.6592 1181 104.161 431.185 456.814
489 0 96.0744 12.8858 1238 101.067 430.577 458.214
490 0 97.1554 11.075 1076 104.133 430.288 451.885
491 0 103.153 12.3409 1273 101.874 430.596 449.454
492 0 105.241 10.4712 1102 105.053 431.326 450.966
493 1 55.0707 10.8588 598 98.8913 431.316 475.249
494 0 58.0802 11.8801 690 98.658 430.981 473.287
495 0 61.1012 12.7984 782 96.9041 431.027 471.977
496 0 64.097 12.4031 795 97.8969 431.733 470.874
497 0 65.2143 13.4326 876 98.4509 431.96 470.522
498 0 66.0678 12.0482 796 101.976 431.856 468.314
499 0 70.1839 13.3791 939 100.002 431.652 466.989
500 0 71.2036 12.7943 911 104.78 431.891 466.003
501 0 73.0874 12.314 900 109.271 431.32 464
502 0 78.121 13.6967 1070 106.718 430.734 463.024
503 0 80.1385 12.3287 988 109.826 431.403 463.029
504 0 79.1522 12.7476 1009 144.055 431.378 462.787
505 0 86.0954 12.5907 1084 108.241 431.505 461.814
506 0 90.0637 12.8576 1158 108.582 431.461 458.832
507 0 91.0892 12.1859 1110 109.701 431.673 459.774
508 1 49.1347 11.6415 572 109.876 431.948 479.694
509 0 51.0863 12.7627 652 107.548 432.535 476.405
510 0 53.1019 13.314 707 103.488 431.4 477.417
511 0 54.1231 13.0813 708 103.071 431.153 475.66
512 0 54.0905 10.6488 576 108.712 431.747 477.035
513 0 58.1102 12.786 743 102.943 431.685 475.672
514 0 58.0445 11.9908 696 107.302 431.428 472.971
515 0 58.1262 11.5266 670 109.009 431.494 473.043
516 0 61.1262 12.1879 745 107.954 431.144 471.122
517 0 65.1402 11.9128 776 108.196 431.162 472.061
518 0 66.128 11.9465 790 114.227 431.13 469.191
519 0 70.2605 13.393 941 110.91 431.586 468.769
520 0 71.1243 12.2743 873 112.803 431.14 466.79
521 0 73.1441 12.4549 911 111.081 430.491 467.463
522 0 77.1032 13.0085 1003 110.72 431.167 461.8
523 0 81.0364 12.5623 1018 109.681 430.781 464.307
524 0 81.1028 12.1697 987 112.486 431.634 460.339
525 1 41.0722 9.78765 402 110.383 431.55 482.532
526 0 44.0563 11.0086 485 107.497 431.047 480.711
527 0 47.0503 10.8395 510 108.067 431.127 481.514
528 0 48.0585 11.5068 553 106.738 431.096 480.15
529 0 48.2543 11.3979 550 103.189 431.558 480.364
530 0 49.2133 11.5822 570 104.589 431.444 478.926
531 0 51.1037 11.4278 584 105.428 431.945 477.997
532 0 50.1031 10.6381 533 108.872 431.197 479.381
533 0 52.0895 9.77165 509 111.004 431.633 479.387
534 0 51.0234 9.36825 478 112.515 430.816 478.866
535 0 55.089 10.3106 568 111.449 429.856 475.38
536 0 58.047 11.663 677 108.756 430.015 475.044
537 0 59.0565 11.8023 697 108.684 430.214 473.581
538 0 60.0195 10.8965 654 111.402 431.373 473.506
539 0 63.0768 12.1281 765 109.451 430.793 471.937
540 0 64.0656 10.817 693 113.446 431.133 471.235
541 0 69.0575 13.0036 898 107.905 430.882 469.159
542 0 72.076 12.8337 925 109.197 431.01 468.316
543 0 74.0626 11.8818 880 111.978 431.031 468.999
544 0 76.0392 12.099 920 113.326 431.048 467.213
545 0 79.0339 14.0699 1112 110.096 431.17 465.469
546 0 81.1277 13.5959 1103 112.356 431.001 463.683
547 0 85.1467 13.4709 1147 112.386 430.602 460.857
548 0 89.0794 13.9988 1247 110.085 431.184 461.174
549 1 46.0201 10.0174 461 114.557 431.284 482.709
550 0 48.1149 11.8051 568 111.824 431.157 479.989
551 0 51.0262 11.6215 593 112.273 431.288 478.079
552 0 53.0843 12.5649 667 112.517 430.706 478.135
553 0 55.1095 13.8452 763 107.938 429.784 476.801
554 0 55.1174 11.8474 653 114.533 429.881 476.119
555 0 57.0403 12.7103 725 112.654 430.022 475.622
556 0 59.0423 13.8037 815 109.508 429.951 475.606
557 0 61.1421 12.9371 791 112.329 430.091 473.75
558 0 60.09 12.1817 732 116.393 430.133 474.283
559 0 65.1364 13.5715 884 112.129 430.243 472.497
560 0 67.1178 13.2901 892 113.239 429.831 471.935
561 0 68.05 13.9162 947 113.76 430.266 468.267
562 0 72.1347 13.5996 981 113.91 430.02 469.011
563 0 72.0876 12.0964 872 118.844 429.997 468.089
564 0 77.139 14.1822 1094 112.098 430.29 468.2
565 0 78.1192 13.2234 1033 115.173 430.404 466.093
566 0 81.1706 13.2314 1074 114.422 430.566 464.697
567 0 84.1071 12.9597 1090 113.646 430.195 463.044
568 0 85.0722 11.9075 1013 116.578 429.897 462.021
569 0 89.1319 12.9247 1152 119.594 429.937 458.94
570 0 92.0765 11.7945 1086 124.424 429.455 458.093
571 1 47.1795 11.6152 548 119.19 429.796 478.328
572 0 50.3673 11.8728 598 112.216 431.114 476.637
573 0 50.0756 13.0203 652 110.077 431.817 476.399
574 0 52.0767 13.4225 699 109.508 431.68 474.858
575 0 53.1142 12.3319 655 111.327 431.179 476.444
576 0 53.1142 12.3319 655 135.06 430.179 476.444
577 0 56.2077 11.582 651 114.163 431.598 473.375
578 0 60.2776 12.4922 753 114.722 430.927 472.503
579 0 63.1322 11.9432 754 116.07 430.317 470.503
580 0 63.1441 12.321 778 114.761 430.88 471.263
581 0 63.192 11.7736 744 116.644 430.672 468.517
582 0 67.1332 11.1569 749 113.885 430.049 468.3
583 0 70.1613 12.8418 901 110.563 430.293 465.842
584 0 71.2675 11.9971 855 110.285 429.736 466.342
585 0 74.1279 10.8596 805 111.175 430.527 465.643
586 0 76.1447 10.7558 819 112.206 430.36 461.828
587 0 80.076 11.8512 949 105.983 430.614 461.582
588 0 85.2096 12.4047 1057 103.008 430.776 461.777
589 0 87.0642 12.6114 1098 103.391 430.628 457.923
590 1 45.0669 9.82983 443 104.379 431.379 480.625
591 0 45.0288 11.4149 514 102.823 431.019 478.253
592 0 49.0781 11.4104 560 101.654 430.893 478.887
593 0 50.0827 11.0417 553 102.91 431.224 478.526
594 0 52.1751 10.9631 572 103.851 430.556 476.072
595 0 53.0454 12.0086 637 102.749 431.237 475.25
596 0 55.03 11.8481 652 103.133 430.933 475.609
597 0 55.1975 11.6853 645 104.902 431.482 475.071
598 0 58.0508 13.3848 777 102.821 429.09 473.439
599 0 57.0456 12.0605 688 109.432 429.173 472.9
600 0 60.0905 12.8972 775 107.043 429.53 472.481
601 0 63.064 12.2098 770 108.956 429.947 471.248
602 0 65.0686 13.309 866 106.283 429.44 471.182
603 0 66.1242 12.8697 851 108.605 429.361 469.723
604 0 67.09 13.1614 883 109.219 429.862 467.649
605 0 68.1183 13.0215 887 109.886 429.647 467.821
606 0 72.0609 12.7947 922 109.847 429.734 467.355
607 0 77.1472 13.5974 1049 107.026 430.025 465.09
608 0 80.0861 13.3856 1072 108.399 429.947 464.353
609 0 84.0712 14.3212 1204 105.903 429.512 462.62
610 0 85.055 14.2731 1214 106.742 429.998 459.726
611 0 89.0869 12.9312 1152 117.117 430.285 458.924
612 0 91.1534 12.3747 1128 119.291 430.613 455.129
613 0 95.1473 12.055 1147 117.484 430.965 458.582
614 1 51.0329 11.8551 605 110.246 431.96 478.686
615 0 53.0276 11.4091 605 112.565 431.759 478.921
616 0 53.0185 11.5809 614 109.235 430.878 477.831
617 0 55.0425 14.7341 811 106.143 431.519 475.745
618 0 58.0461 13.1447 763 107.759 431.08 475.803
619 0 60.2089 12.4234 748 110.346 431.618 473.662
620 0 62.1047 13.5256 840 107.582 432.064 472.031
621 0 63.1705 12.9016 815 109.433 431.804 473.323
622 0 63.1238 12.4517 786 113.242 431.641 471.557
623 0 67.1247 12.082 811 113.007 430.94 470.176
624 0 69.0728 14.0576 971 107.805 430.755 471.862
625 0 70.2127 12.1915 856 114.457 430.651 469.667
626 0 71.0323 12.3746 879 114.712 430.266 469.241
627 0 74.0725 12.6903 940 113.873 430.495 467.369
628 0 76.1049 12.6667 964 116.001 429.963 465.979
629 0 81.1791 13.7843 1119 113.178 430.189 464.389
630 0 82.0984 12.5216 1028 118.674 429.862 463.408
631 0 82.2206 12.807 1053 118.535 429.899 462.309
632 1 46.0381 11.4687 528 120.919 430.301 478.964
633 0 48.0768 11.9184 573 118.983 430.729 479.255
634 0 50.0999 11.7565 589 118.501 430.81 479.097
635 0 51.0672 11.103 567 118.102 430.608 479
636 0 50.0488 12.2481 613 117.403 430.737 478.104
637 0 52.1293 10.6082 553 120.911 431.074 479.664
638 0 52.1074 10.8046 563 123.087 431.437 477.183
639 0 56.1332 11.9893 673 120.211 430.557 475.462
640 0 58.0762 12.0876 702 118.573 429.574 476.37
641 0 61.0478 11.9742 731 119.502 430.624 474.896
642 0 61.094 12.3253 753 121.424 429.826 472.511
643 0 64.0903 12.8257 822 119.616 430.288 470.4
644 0 67.1981 11.7265 788 121.082 429.985 472.286
645 0 69.1 11.9248 824 121.606 430.296 470.193
646 0 72.2339 12.1134 875 120.775 430.528 468.902
647 0 73.1144 11.9949 877 122.316 430.203 467.016
648 0 75.1259 13.0847 983 120.271 430.045 464.672
649 0 78.081 12.9097 1008 120.325 429.96 463.659
650 1 39.0528 9.96086 389 121.722 430.458 477.758
651 0 39.0201 9.84109 384 124.331 430.458 479.271
652 0 44.0893 11.4313 504 125.075 430.639 482.298
653 0 46.1275 13.1375 606 121.898 430.073 480.644
654 0 45.0625 12.5382 565 116.294 430.358 482.062
655 0 46.0392 11.8377 545 118.969 430.45 481.747
656 0 47.0602 12.4946 588 118.298 430.874 481.429
657 0 49.1084 11.831 581 118.556 430.289 481.022
658 0 51.0567 12.7897 653 115.652 430.438 480.443
659 0 52.0522 12.3722 644 117.356 430.262 479.506
660 0 52.0458 11.3362 590 121.032 430.636 478.164
661 0 54.0424 12.3237 666 121.425 429.976 477.826
662 0 55.0424 11.4094 628 123.416 429.1 477.368
663 0 58.025 12.2706 712 119.466 429.763 476.097
664 0 61.1068 12.4536 761 116.235 430.536 474.8
665 0 63.066 11.8923 750 118.581 430.151 473.104
666 0 66.0359 12.1752 804 117.159 430.024 472.699
667 0 68.1262 12.8438 875 117.482 429.15 470.145
668 0 70.0786 12.5859 882 119.104 428.989 467.615
669 0 72.0664 12.877 928 120.361 429.115 468.062
670 0 76.069 12.5149 952 122.122 428.859 466.626
671 1 39.0539 11.5994 453 123.614 427.578 483.276
672 0 40.0239 10.6186 425 125.454 427.647 484.748
673 0 42.0696 11.8851 500 120.654 428.65 483.966
674 0 40.0253 11.6926 468 120.209 428.628 485.004
675 0 41.067 11.7369 482 122.537 428.888 484.344
676 0 45.0797 12.1784 549 119.162 428.832 483.319
677 0 46.1095 12.2751 566 121.484 428.88 481.673
678 0 47.1256 12.3924 584 121.45 428.964 480.646
679 0 49.0506 12.64 620 121.25 428.692 482.361
680 0 49.0992 13.3811 657 122.247 428.218 479.542
681 0 52.037 13.2598 690 121.31 428.091 480.371
682 0 53.063 12.6453 671 124.368 428.683 479.636
683 0 54.2483 12.535 680 125.318 428.335 479.443
684 0 55.2112 12.7691 705 124.861 429.313 477.987
685 0 56.0248 12.0482 675 130.428 428.539 479.08
686 0 58.1197 12.7495 741 130.305 428.7 476.232
687 0 59.1188 12.2634 725 132.738 428.574 476.494
688 0 61.1575 12.6558 774 132.151 428.442 475.314
689 0 63.0673 13.1605 830 130.341 428.435 474.61
690 0 65.3234 13.5021 882 129.68 428.622 473.181
691 0 68.1666 13.0416 889 130.848 429.087 472.757
692 0 68.1817 11.3374 773 136.88 428.858 472.021
693 0 71.0693 12.1712 865 135.369 428.748 469.669
694 0 73.1535 12.918 945 133.232 428.614 469.729
695 0 78.1115 13.788 1077 128.863 428.423 468.499
696 0 78.1908 12.5462 981 133.97 429.088 467.426
697 0 80.1683 13.0351 1045 132.918 429.489 464.7
698 1 44.0972 11.3613 501 133.014 429.613 483.501
699 0 44.0285 11.538 508 135.526 429.717 482.175
700 0 46.0995 12.6249 582 131.617 430.259 481.771
701 0 47.0504 13.4962 635 129.225 430.354 480.578
702 0 46.0433 12.119 558 126.538 429.645 482.237
703 0 47.0503 11.7534 553 127.327 429.94 481.844
704 0 50.0145 13.816 691 121.729 429.394 480.188
705 0 51.0454 11.5387 589 126.508 429.859 479.689
706 0 52.0736 12.5207 652 128.206 429.383 479.362
707 0 54.0559 13.3196 720 125.997 428.404 478.989
708 0 53.0553 13.7781 731 129.041 428.49 475.651
709 0 56.0153 12.5323 702 128.712 428.91 478.252
710 0 57.0563 13.6532 779 125.571 429.469 477.171
711 0 59.0409 13.4652 795 128.15 428.707 475.831
712 0 61.0508 14.2832 872 126.978 428.974 472.408
713 0 64.0715 13.4537 862 128.561 428.901 472.607
714 0 64.0222 13.4172 859 129.82 429.441 471.863
715 0 68.1163 13.1099 893 130.18 428.997 470.564
716 0 69.0628 13.799 953 129.665 429.098 470.292
717 0 72.1498 13.8739 1001 130.116 429.56 468.696
718 0 73.1345 13.6051 995 131.599 429.667 468.56
719 0 78.1547 13.3965 1047 130.731 429.499 467.474
720 0 79.2283 13.0256 1032 134.598 429.491 465.416
721 0 85.1153 14.0045 1192 128.772 429.665 465.055
722 0 87.1659 13.5604 1182 131.2 428.968 463.162
723 1 46.0397 11.9679 551 130.739 428.615 479.664
724 0 45.0529 11.1203 501 128.814 428.812 478.525
725 0 46.1342 11.5316 532 125.291 429.417 475.438
726 0 47.0556 11.8158 556 125.84 429.653 482.273
727 0 50.0303 12.8722 644 122.817 429.248 480.638
728 0 50.025 12.5937 630 125.505 429.1 480.124
729 0 53.0573 12.9106 685 125.064 429.225 478.028
730 0 54.0472 11.9525 646 128.308 429.163 478.2
731 0 56.0185 12.7101 712 125.57 429.778 477.506
732 0 60.1449 12.9022 776 122.982 430.059 476.786
733 0 61.1113 13.0254 796 123.156 430.445 474.082
734 0 63.0709 12.3988 782 127.636 428.822 472.881
735 0 66.0858 14.4963 958 119.951 428.695 472.977
736 0 67.0453 12.6183 846 127.279 429.271 471.755
737 0 70.0572 12.8324 899 125.903 429.089 470.44
738 0 71.0494 13.2162 939 126.424 428.72 469.313
739 0 75.0881 13.9037 1044 124.45 428.632 467.064
740 0 77.043 14.2907 1101 124.278 428.853 466.994
741 0 80.096 13.5088 1082 128.313 428.464 465.351
742 0 82.06 13.1002 1075 128.989 428.523 466.479
743 0 86.0526 14.2122 1223 125.544 428.718 463.319
744 0 88.1089 13.3698 1178 130.026 428.886 461.722
745 0 91.1349 14.4072 1313 126.248 428.251 461.085
746 1 50.0558 11.4073 571 131.627 427.687 480.144
747 0 52.1226 12.72 663 130.584 429.109 479.063
748 0 53.0938 12.1295 644 131.376 428.107 476.371
749 0 53.059 11.8547 629 125.987 430.102 477.948
750 0 56.041 12.7764 716 122.802 430.115 477.596
751 0 58.0403 13.0599 758 122.718 430.183 476.691
752 0 59.1419 13.1041 775 123.96 430.173 474.289
753 0 62.098 13.3338 828 122.12 430.371 474.188
754 0 64.1295 11.7575 754 126.013 430.582 474.702
755 0 67.0329 13.7246 920 122.049 430.427 471.105
756 0 71.0707 12.5931 895 123.751 430.437 471.669
757 0 73.1395 14.2331 1041 119.693 430.212 467.935
758 0 75.1707 13.0902 984 122.904 430.239 467.454
759 0 78.2035 14.1937 1110 118.237 430.347 468.461
760 0 80.1572 13.8228 1108 122.029 429.413 464.109
761 0 82.1283 13.0284 1070 124.265 429.336 462.617
762 0 86.2396 13.4161 1157 121.662 429.489 463.108
763 0 90.1602 12.9104 1164 123.148 429.177 460.771
764 0 92.0917 13.9752 1287 121.65 429.831 458.673
765 0 96.1344 14.4901 1393 131.189 429.214 456.912
766 0 99.1968 13.4984 1339 134.563 429.313 456.196
767 0 102.193 13.7974 1410 134.17 428.847 454.565
768 0 105.246 13.6538 1437 133.928 429.32 454.251
769 0 108.167 13.0723 1414 134.03 429.184 452.921
770 0 110.18 13.9681 1539 134.17 430.281 449.559
771 0 116.225 14.8764 1729 129.941 430.063 447.986
772 1 58.1434 12.2112 710 121.603 430.554 473.007
773 0 63.0651 12.606 795 123.499 430.574 475.125
774 0 65.1592 13.6895 892 121.715 430.299 473.984
775 0 67.1025 12.846 862 133.977 430.19 471.53
776 0 68.1415 12.9143 880 133.856 429.948 472.173
777 0 70.1627 11.8581 832 136.369 430.542 471.566
778 0 74.0767 13.756 1019 130.348 430.242 469.267
779 0 76.0971 13.0885 996 133.686 430.015 468.766
780 0 79.1842 12.9445 1025 135.359 429.813 465.78
781 0 81.1074 13.2417 1074 136.24 429.22 463.886
782 0 82.1214 13.4557 1105 136.071 428.943 463.929
783 0 87.1236 13.1308 1144 136.67 429.205 462.42
784 0 89.1806 12.8391 1145 137.102 429.645 462.079
785 1 45.1378 11.1658 504 133.833 430.675 482.448
786 0 44.0162 10.4734 461 139.386 430.534 482.328
787 0 47.0683 12.7049 598 123.722 429.55 481.455
788 0 48.0283 13.0964 629 120.2 429.738 480.614
789 0 48.0596 11.8811 571 124.888 428.799 480.345
790 0 49.0557 11.6806 573 124.368 429.56 480.634
791 0 53.0257 12.692 673 119.773 429.094 480.447
792 0 52.0464 12.5849 655 122.42 429.766 479.644
793 0 55.0599 12.9859 715 119.892 430.129 478.308
794 0 54.0558 13.2086 714 122.899 429.849 476.115
795 0 57.1025 13.502 771 121.392 429.817 475.601
796 0 60.1388 13.2693 798 120.313 429.568 475.461
797 0 60.1314 13.72 825 120.659 429.592 473.17
798 0 63.1537 12.8259 810 123.586 429.53 473.621
799 0 64.0645 14.064 901 122.441 429.786 471.877
800 0 67.0993 13.8154 927 123.066 429.63 471.131
801 0 69.0564 13.3514 922 125.578 429.621 469.15
802 0 69.1002 12.5181 865 130.62 429.187 467.657
803 0 73.0993 13.8031 1009 126.949 429.865 467.593
804 0 76.0997 13.4823 1026 127.855 429.632 466.07
805 0 79.0674 14.494 1146 129.762 428.872 465.153
806 0 82.0954 13.7523 1129 132.043 429.069 464.313
807 0 84.1776 14.6595 1234 126.41 429.772 463.154
808 0 86.1694 14.8661 1281 125.459 429.243 462.493
809 0 88.101 13.2689 1169 131.305 429.228 458.885
810 0 92.0873 14.6274 1347 126.687 429.452 459.434
811 0 95.0655 14.0114 1332 129.342 430.017 457.788
812 0 99.1223 13.2059 1309 131.113 429.129 456.499
813 1 53.0118 12.9782 688 127.443 430.305 477.988
814 0 55.0778 12.0375 663 128.468 430.195 477.009
815 0 57.1014 13.0995 748 125.107 430.155 476.205
816 0 58.1407 12.8997 750 124.869 429.929 476.152
817 0 60.0704 12.5519 754 126.668 430.202 474.507
818 0 62.1266 12.8447 798 126.716 429.883 472.878
819 0 64.0635 12.5813 806 126.3 430.187 473.695
820 0 64.0635 12.5813 806 153.149 430.182 473.787
821 0 68.1053 12.7009 865 126.696 430.246 470.039
822 0 68.0722 12.7805 870 128.037 429.778 469.286
823 0 73.1583 13.5596 992 124.008 429.681 468.83
824 0 73.1401 12.5513 918 128.135 429.889 467.869
825 0 77.0555 13.4319 1035 125.11 429.847 466.094
826 0 78.1605 13.7665 1076 124.94 429.875 463.283
827 0 82.0869 13.2664 1089 125.124 429.365 465.328
828 0 85.1576 13.0229 1109 125.154 429.971 464.29
829 0 87.0965 13.2267 1152 124.899 429.555 459.993
830 0 89.1436 11.846 1056 128.25 429.78 458.866
831 0 94.0666 12.725 1197 124.025 428.974 458.842
832 1 50.0187 11.3758 569 126.334 429.575 478.172
833 0 50.1091 12.1535 609 125.049 429.406 477.442
834 0 50.0769 11.682 585 122.65 429.342 479.585
835 0 51.0395 11.2854 576 125.184 428.599 477.661
836 0 53.0635 13.1164 696 118.974 429.217 476.559
837 0 55.0721 11.6938 644 121.542 428.873 475.905
838 0 59.1992 11.8752 703 120.339 428.881 473.59
839 0 58.2168 11.4228 665 122.005 428.986 472.365
840 0 62.0815 12.6769 787 117.808 428.995 471.726
841 0 64.1535 11.5348 740 119.97 428.616 472.419
842 0 64.0517 11.8186 757 120.697 428.345 470.363
843 0 68.1142 11.4367 779 121.53 427.601 470.167
844 0 70.1587 12.0441 845 119.553 427.811 467.787
845 0 74.1487 13.0683 969 115.849 428.405 466.511
846 0 76.116 11.6795 889 120.866 428.063 465.33
847 0 79.202 12.3356 977 118.794 427.561 464.361
848 0 80.0836 12.2872 984 119.34 427.228 461.718
849 0 86.0873 12.7197 1095 115.143 428.03 459.446
850 1 46.0274 11.6235 535 115.639 427.273 478.94
851 0 47.1023 10.8063 509 112.658 428.035 479.405
852 0 48.2638 12.2659 592 108.75 428.804 477.539
853 0 48.0747 10.7957 519 113.287 429.062 479.426
854 0 50.0881 10.5414 528 113.513 430.256 476.894
855 0 51.0295 10.8369 553 114.864 428.949 478.447
856 0 52.0623 9.50784 495 116.602 428.782 478.422
857 0 55.0321 11.1935 616 116.5 428.821 473.638
858 0 57.1479 12.6514 723 116.072 428.508 472.544
859 0 59.1302 10.9081 645 119.853 428.056 471.752
860 0 59.1456 11.0744 655 121.649 428.406 470.652
861 0 63.1694 12.047 761 120.627 428.3 469.968
862 0 67.1462 13.21 887 117.989 427.988 467.9
863 0 66.099 12.0274 795 122.448 427.755 467.426
864 0 72.2366 12.7913 924 120.174 427.81 467.17
865 0 74.1445 12.2329 907 122.218 427.939 466.294
866 0 75.2892 12.3391 929 123.292 428.2 463.149
867 0 80.1593 12.5251 1004 121.658 428.011 462.825
868 0 84.3666 12.4694 1052 120.474 428.101 463.128
869 0 88.2952 14.1684 1251 118.177 427.667 460.867
870 0 90.3763 12.5586 1135 123.131 427.932 459.385
871 1 46.0641 11.5057 530 118.304 427.63 477.506
872 0 48.1578 10.9847 529 115.474 427.991 472.223
873 0 50.2026 10.6369 534 116.045 428.594 472.586
874 0 51.1203 10.0938 516 118.496 429.791 480.151
875 0 53.1143 12.539 666 114.074 430.323 477.317
876 0 53.0827 11.0017 584 119.418 430.202 477.305
877 0 55.1336 11.6082 640 118.148 429.489 476.363
878 0 57.0417 12.2893 701 116.769 429.245 475.934
879 0 59.0373 12.2634 724 116.51 429.008 475.707
880 0 62.0611 12.0043 745 120.426 428.129 474.679
881 0 62.0862 13.0786 812 119.372 427.991 472.308
882 0 64.1333 13.3316 855 118.785 427.461 473.226
883 0 66.1213 13.5811 898 119.042 427.608 471.533
884 0 69.1318 12.9463 895 121.668 428.02 470.753
885 0 69.1406 11.6863 808 126.312 427.923 470.849
886 0 73.1918 13.8813 1016 120.495 428.403 468.824
887 0 74.1703 12.9432 960 124.028 428.392 467.222
888 0 77.1403 11.8874 917 124.772 428.378 466.544
889 0 80.125 12.4431 997 123.848 428.315 465.226
890 0 82.1313 14.0507 1154 121.593 428.624 461.563
891 0 86.2324 12.9766 1119 123.66 428.847 462.168
892 1 46.1138 11.7535 542 126.085 430.144 479.672
893 0 46.1647 11.8489 547 126.517 430.413 478.435
894 0 50.0606 12.6646 634 121.995 428.992 479.427
895 0 51.167 12.3712 633 123.959 429.983 477.125
896 0 52.115 12.6451 659 118.962 429.774 477.138
897 0 52.0922 11.614 605 122.955 430.364 475.301
898 0 55.0918 12.6516 697 118.461 430.109 475.451
899 0 56.1335 12.8444 721 119.596 428.35 474.381
900 0 60.1237 13.2726 798 117.837 428.427 474.315
901 0 60.0967 14.1272 849 117.221 428.552 472.886
902 0 60.0489 12.5231 752 122.293 428.371 471.735
903 0 63.0438 12.7848 806 121.517 428.202 471.19
904 0 65.0721 13.4927 878 119.203 428.513 470.198
905 0 64.0792 12.5314 803 138.163 429.535 469.067
906 0 69.1313 12.3244 852 123.291 427.991 468.232
907 0 72.1123 11.8704 856 124.56 428.154 466.555
908 0 75.1874 12.2627 922 123.93 427.759 464.903
909 0 77.1417 13.6243 1051 120.731 427.955 462.865
910 0 78.1015 12.4581 973 124.135 427.313 462.066
911 0 82.062 13.0511 1071 120.484 427.462 459.887
912 0 84.0246 12.5439 1054 121.038 427.765 460.412
913 0 86.1205 12.2967 1059 120.653 427.675 457.484
914 0 91.1299 12.773 1164 119.63 428.155 455.687
915 0 93.1398 13.4099 1249 118.288 428.173 453.367
916 0 96.0347 12.8704 1236 119.473 428.074 454.481
917 1 53.0259 11.5604 613 120.003 427.962 474.992
918 0 55.043 12.4993 688 117.562 428.169 473.657
919 0 57.1027 12.5038 714 119.993 429.436 470.787
920 0 60.0747 12.6343 759 116.514 429.756 471.152
921 0 60.0434 11.9414 717 117.438 428.946 472.021
922 0 62.1294 11.6209 722 118.522 428.022 468.814
923 0 65.1383 12.082 787 116.926 427.488 468.557
924 0 66.0943 12.6032 833 116.879 427.951 469.535
925 0 69.1251 12.6872 877 116.673 427.995 467.595
926 0 73.0889 12.7242 930 116.453 428.024 465.815
927 0 74.1001 12.942 959 117.468 427.383 464.544
928 0 76.1211 13.4522 1024 117.55 427.477 461.12
929 0 77.1562 11.6646 900 121.606 428.139 462.247
930 0 81.1317 13.0898 1062 115.256 428.298 461.901
931 0 83.1774 12.3952 1031 116.885 427.759 458.992
932 0 87.0903 12.5043 1089 116.346 428.635 456.721
933 0 92.0931 12.4114 1143 115.076 429.495 456.64
934 0 95.1104 11.9335 1135 114.999 429.412 455.742
935 0 100.167 12.4692 1249 113.975 429.388 451.483
936 1 53.0907 10.7552 571 113.858 430.825 473.783
937 0 56.0895 11.8917 667 110.969 429.514 474.133
938 0 58.0867 12.0165 698 110.215 429.183 472.706
939 0 60.1026 11.7799 708 110.881 428.593 472.355
940 0 62.0396 12.0246 746 111.15 429.993 471.584
941 0 66.118 12.3567 817 109.324 429.699 471.187
942 0 68.1301 11.5955 790 110.861 429.504 469.696
943 0 70.0495 12.2627 859 109.308 429.348 467.07
944 0 70.085 10.9867 770 113.239 429.1 465.758
945 0 74.116 12.4669 924 108.997 428.84 463.65
946 0 78.0839 12.3969 968 108.474 428.939 462.423
947 0 79.1985 11.7805 933 109.755 428.728 461.958
948 0 84.0798 14.2246 1196 103.524 428.984 458.862
949 0 85.0675 12.7428 1084 107.004 428.886 459.774
950 0 89.0851 12.0334 1072 108.552 428.441 458.067
951 0 91.1176 11.8418 1079 109.121 428.598 457.255
952 0 93.0221 10.7609 1001 111.207 428.508 454.372
953 0 96.0857 10.3137 991 111.058 428.314 454.826
954 0 98.12 10.742 1054 112.237 428.22 451.977
955 0 103.158 11.8266 1220 110.132 428.13 447.836
956 0 107.153 12.0108 1287 108.426 428.535 451.646
957 1 57.0592 10.7257 612 111.42 428.462 474.222
958 0 58.0984 10.9125 634 109.826 428.005 472.226
959 0 58.0908 12.601 732 107.721 428.893 470.107
960 0 64.1373 12.8162 822 111.631 429.134 469.695
961 0 66.1657 13.2093 874 111.239 430.006 468.49
962 0 65.2531 11.5397 753 116.456 429.741 466.991
963 0 70.112 12.7796 896 113.201 429.683 467.949
964 0 70.1832 13.2795 932 113.18 429.941 463.921
965 0 71.2075 11.1365 793 119.269 429.803 463.204
966 0 76.1552 13.3412 1016 112.387 429.563 461.557
967 0 78.2005 13.7467 1075 112.028 428.942 460.7
968 0 80.1374 13.2772 1064 113.37 429.159 462.293
969 0 84.1044 13.2335 1113 113.459 429.039 459.962
970 0 84.1592 12.9635 1091 115.167 429.321 458.12
971 0 86.1701 12.3477 1064 116.646 428.711 456.778
972 0 91.3613 13.3317 1218 114.982 428.276 452.683
973 0 95.1335 13.0028 1237 116.849 428.855 452.193
974 0 97.2146 13.5268 1315 116.275 428.659 448.775
975 0 101.346 13.5773 1376 116.44 429.29 448.65
976 1 52.1294 11.4139 595 114.254 429.603 473.267
977 0 54.0916 11.9797 648 113.113 429.847 474.009
978 0 55.1082 11.7587 648 112.258 429.856 472.472
979 0 58.1092 12.2356 711 110.97 429.02 472.25
980 0 59.054 12.8357 758 114.29 428.732 470.951
981 0 61.1081 13.0588 798 112.935 430.342 470.678
982 0 61.0783 11.9683 731 117.22 430.293 467.97
983 0 64.1255 12.5691 806 115.653 429.768 466.743
984 0 66.1374 13.5476 896 113.05 429.848 467.728
985 0 66.0941 12.7999 846 115.709 429.8 465.617
986 0 71.1263 14.3688 1022 111.473 429.689 463.533
987 0 75.2481 14.1 1061 112.595 429.609 463.83
988 0 75.2754 13.4971 1016 114.62 430.178 463.45
989 0 79.1056 14.449 1143 113.046 429.548 461.192
990 0 81.1287 12.9917 1054 117.936 428.738 459.655
991 0 84.1304 14.4419 1215 115.184 428.333 457.562
992 0 88.117 14.424 1271 115.6 428.43 457.603
993 0 88.1174 13.8565 1221 116.116 428.69 458.457
994 0 89.2085 14.0682 1255 118.04 428.989 456.738
995 0 93.1262 14.0884 1312 117.915 429.163 452.069
996 0 95.1335 13.9488 1327 116.411 428.817 452.164
997 0 96.1071 12.2051 1173 118.592 429.286 446.486
998 0 100.153 13.0201 1304 116.373 429.195 446.837
999 0 105.167 13.3027 1399 114.683 429.028 445.52
1000 0 108.245 13.6265 1475 113.487 429.599 441.964
1001 1 59.0413 12.0932 714 113.245 430.347 472.819
1002 0 57.0751 11.2659 643 115.904 428.611 471.998
1003 0 62.1316 12.9886 807 111.95 429.05 472.532
1004 0 65.1249 13.3897 872 111.287 428.665 468.5
1005 0 66.0451 12.2492 809 113.445 428.387 469.391
1006 0 69.0871 13.0849 904 111.593 428.395 468.6
1007 0 72.1101 13.3823 965 111.065 428.862 465.872
1008 0 74.1439 13.4873 1000 111.417 428.479 464.716
1009 0 77.1289 13.1987 1018 111.47 427.895 464.576
1010 0 81.0676 15.3082 1241 105.531 428.789 462.777
1011 0 82.1599 13.2425 1088 111.832 428.46 461.149
1012 0 83.1791 12.7797 1063 113.069 428.451 459.847
1013 0 89.1341 11.9595 1066 114.473 428.812 459.544
1014 0 91.0653 13.7484 1252 110.539 428.742 457.067
1015 0 94.1016 13.6767 1287 110.348 428.495 454.685
1016 0 97.2249 12.6922 1234 112.566 428.363 452.838
1017 0 101.279 13.29 1346 110.427 428.6 454.412
1018 1 53.0794 10.927 580 116.864 428.983 476.445
1019 0 53.0542 11.5919 615 118.145 428.524 474.872
1020 0 58.0535 12.2473 711 117.065 427.833 471.928
1021 0 60.1363 12.4051 746 106.046 430.016 473.488
1022 0 63.0475 12.5937 794 104.516 429.918 471.703
1023 0 62.0746 11.3251 703 109.232 430.256 468.755
1024 0 65.0808 12.8763 838 105.008 429.551 468.105
1025 0 69.043 11.4421 790 106.637 429.158 468.529
1026 0 70.1318 13.6457 957 102.144 429.302 467.112
1027 0 73.1325 11.8962 870 106.12 429.189 464.307
1028 0 74.0443 10.9259 809 108.237 429.422 462.749
1029 0 76.1077 12.64 962 105.58 429.215 461.713
1030 0 81.0912 12.4428 1009 105.675 429.5 462.183
1031 0 82.0769 13.8772 1139 103.884 429.658 462.212
1032 0 85.1255 13.1101 1116 105.778 429.556 459.909
1033 0 87.1608 13.1022 1142 106.269 429.391 459.764
1034 0 90.0966 13.6964 1234 104.993 428.718 454.34
1035 0 92.0795 13.2603 1221 107.088 428.949 454.805
1036 0 95.1037 13.3433 1269 106.388 429.414 455.668
1037 0 99.0986 12.7045 1259 108.481 429.263 452.565
1038 0 101.167 12.9489 1310 106.642 428.969 451.126
1039 0 107.135 13.7303 1471 107.997 429.529 449.158
1040 0 108.148 13.389 1448 109.797 428.494 445.147
1041 0 110.166 11.9819 1320 113.366 428.495 444.895
1042 1 61.2482 12.2453 750 106.584 429.079 472.987
1043 0 61.2115 11.0927 679 109.882 428.779 471.624
1044 0 63.2742 11.7584 744 108.066 428.969 472.224
1045 0 66.1094 12.6457 836 105.586 429.77 469.226
1046 0 69.1471 12.5963 871 105.186 429.785 467.437
1047 0 70.1219 13.4765 945 104.492 429.752 465.699
1048 0 72.132 13.0732 943 105.736 428.77 465.04
1049 0 75.2868 13.3622 1006 104.246 427.66 464.22
1050 0 76.1393 13.1864 1004 105.679 427.698 465.997
1051 0 79.1116 12.8553 1017 106.632 428.435 460.24
1052 0 81.1671 13.7617 1117 103.403 428.056 463.291
1053 0 84.2303 12.7745 1076 105.824 428.499 461.612
1054 0 84.2081 11.9703 1008 108.699 428.416 458.935
1055 0 90.1452 13.8776 1251 104.411 428.052 457.652
1056 0 94.2111 13.0982 1234 105.986 428.438 455.431
1057 0 93.2109 11.6832 1089 109.526 427.753 451.229
1058 0 99.244 12.958 1286 104.921 428.235 453.224
1059 0 102.192 12.0949 1236 106.338 428.247 451.531
1060 0 106.17 12.3387 1310 107.302 427.786 448.905
1061 1 56.0518 11.4002 639 102.715 427.577 474.535
1062 0 55.0562 12.0422 663 102.91 428.342 472.348
1063 0 58.0401 12.4914 725 101.916 428.583 471.179
1064 0 60.0686 12.6189 758 97.3113 430.917 470.84
1065 0 62.2277 11.7954 734 100.119 430.475 470.653
1066 0 62.0807 11.3884 707 101.407 430.419 467.581
1067 0 66.0317 12.0548 796 99.3781 430.862 469.559
1068 0 68.0839 11.3977 776 100.519 429.968 465.762
1069 0 72.0478 13.6437 983 94.174 429.533 468.44
1070 0 72.1875 12.0658 871 98.2239 429.962 465.33
1071 0 75.2029 11.9144 896 98.7768 429.766 464.346
1072 0 78.1123 12.7765 998 97.3106 429.849 463.417
1073 0 83.1841 12.8991 1073 96.1901 430.092 461.362
1074 0 85.245 13.1269 1119 97.5684 429.408 459.426
1075 0 86.1931 12.5764 1084 99.0185 429.136 459.292
1076 0 90.2227 12.8682 1161 98.6064 429.501 458.557
1077 1 46.0799 12.4132 572 97.7203 430.234 478.759
1078 0 47.0506 12.9223 608 99.8618 429.595 478.398
1079 0 48.0333 11.9917 576 104.08 430.266 476.194
1080 0 48.0524 11.425 549 102.916 430.65 476.942
1081 0 50.1551 13.2788 666 99.0255 430.384 478.044
1082 0 51.0868 12.4103 634 97.8596 430.199 477.399
1083 0 53.0487 13.0446 692 97.1864 429.51 474.747
1084 0 55.0649 11.8769 654 99.4679 430.291 473.433
1085 0 57.0914 12.5238 715 98.4755 429.568 472.89
1086 0 60.0512 13.272 797 96.5772 430.003 473.586
1087 0 61.0887 12.932 790 98.2481 429.939 473.576
1088 0 63.0913 11.6973 738 101.61 429.61 471.153
1089 0 64.0648 12.4249 796 101.401 429.936 471.023
1090 0 66.1203 12.8856 852 102.153 429.668 469.025
1091 0 67.0669 12.7932 858 103.388 430.395 467.758
1092 0 69.096 13.3727 924 103.143 430.106 467.184
1093 0 73.0657 12.5367 916 104.723 429.598 467.008
1094 0 73.1541 13 951 105.251 429.579 464.239
1095 0 77.0744 13.5454 1044 102.921 429.005 462.677
1096 0 78.2171 12.9384 1012 105.283 429.01 463.286
1097 0 82.1748 13.52 1111 104.649 429.168 461.463
1098 0 82.1742 13.4836 1108 105.872 429.321 461.041
1099 0 85.1302 12.9801 1105 107.704 429.231 460.702
1100 0 88.1147 12.9036 1137 107.887 428.993 457.75
1101 0 90.1965 12.6834 1144 108.852 428.628 456.631
1102 0 90.0996 12.8635 1159 109.683 428.804 454.697
1103 0 94.1557 12.8404 1209 111.29 429.002 455.218
1104 0 96.1697 14.0377 1350 112.341 429.526 450.859
1105 0 101.266 14.9507 1514 109.269 429.273 450.214
1106 0 103.331 12.7165 1314 111.486 429.249 447.667
1107 0 107.353 13.0131 1397 111.228 428.84 444.742
1108 1 55.1599 11.7839 650 107.622 429.075 472.529
1109 0 55.2297 11.0448 610 110.833 428.769 471.039
1110 0 59.3083 12.3592 733 108.001 428.887 471.072
1111 0 61.0952 13.8309 845 105.415 429.254 470.918
1112 0 63.1702 12.9016 815 108.212 428.899 467.623
1113 0 64.1377 13.5957 872 107.417 428.532 469.852
1114 0 66.2709 12.2829 814 111.297 428.95 467.857
1115 0 69.1644 12.9257 894 109.996 428.593 466.603
1116 0 73.1658 13.5719 993 109.034 428.347 463.385
1117 0 75.2191 13.3211 1002 109.954 429.221 463.682
1118 0 75.1945 13.5515 1019 111.116 429.321 462.6
1119 0 79.0986 12.7942 1012 112.547 429.269 461.593
1120 0 82.1251 12.4931 1026 114.537 429.883 458.285
1121 0 84.106 13.1144 1103 114.464 429.158 457.844
1122 0 86.1148 12.402 1068 115.524 429.013 455.848
1123 0 90.2134 12.8806 1162 113.297 429.037 455.568
1124 1 46.1096 10.0196 462 117.212 430.115 475.017
1125 0 48.1528 10.2798 495 114.525 430.291 473.083
1126 0 53.1729 11.3968 606 110.908 430.071 471.721
1127 0 55.0532 12.0974 666 110.563 430.452 474.608
1128 0 55.0292 12.3571 680 111.412 430.231 473.274
1129 0 57.0375 11.6239 663 112.273 430.315 474.282
1130 0 59.0795 11.8146 698 110.718 430.358 473.158
1131 0 61.0515 12.8089 782 109.428 430.455 469.964
1132 0 63.0382 11.8817 749 110.283 430.761 469.756
1133 0 65.0801 12.4923 813 110.039 431.1 468.043
1134 0 65.0975 11.9667 779 111.865 430.371 467.969
1135 0 67.1139 12.9183 867 109.524 430.49 466.313
1136 0 69.097 12.1424 839 111.658 430.234 464.884
1137 0 73.1083 11.8454 866 111.458 430.244 463.831
1138 0 74.1256 12.3169 913 112.858 429.895 460.63
1139 0 75.0838 12.0532 905 112.604 430.304 462.88
1140 0 78.0625 12.5668 981 113.062 430.374 459.146
1141 0 79.1692 12.8712 1019 115.047 429.801 453.405
1142 0 82.0836 12.9746 1065 114.7 429.121 453.246
1143 0 84.1723 12.32 1037 117.107 429.679 452.341
1144 0 87.2065 12.9463 1129 116.583 429.065 449.812
1145 0 89.1014 12.4016 1105 118.978 429.435 449.173
1146 0 93.2259 12.8612 1199 118.812 429.366 447.255
1147 0 94.1242 13.3866 1260 119.14 428.717 444.117
1148 0 97.1492 13.5873 1320 119.717 428.135 443.678
1149 0 101.16 12.673 1282 122.004 427.588 444.55
1150 0 105.154 12.9429 1361 121.724 427.587 440.744
1151 0 108.274 13.7152 1485 119.352 427.257 439.934
1152 0 113.213 12.8078 1450 122.865 428.132 435.572
1153 0 117.148 13.5725 1590 120.873 428.002 433.186
1154 1 62.0655 9.84444 611 123.524 428.89 464.226
1155 0 68.0679 12.0027 817 117.477 428.335 465.201
1156 0 69.0414 11.848 818 118.918 427.649 463.963
1157 0 71.0774 12.1136 861 118.645 428.491 461.72
1158 0 75.1294 14.4684 1087 111.515 427.706 460.274
1159 0 76.1739 12.7078 968 118.059 427.636 461.7
1160 0 77.1068 12.0612 930 122.089 427.286 459.271
1161 0 80.0973 13.0591 1046 121.102 427.881 456.791
1162 0 85.2203 13.0955 1116 118.999 428.37 456.842
1163 0 89.0878 13.3913 1193 117.871 428.168 454.662
1164 0 87.1422 12.0148 1047 122.47 428.453 454.044
1165 0 91.1604 12.3738 1128 122.148 428.307 451.435
1166 0 96.2346 12.3968 1193 121.423 428.86 451.336
1167 0 99.2265 12.5974 1250 121.035 428.037 448.106
1168 1 51.0906 10.0801 515 113.087 428.829 472.256
1169 0 54.1355 11.1941 606 112.578 427.244 472.63
1170 0 54.0504 10.4717 566 111.88 428.666 474.042
1171 0 55.0387 11.9007 655 119.646 428.762 474.527
1172 0 59.1152 12.4672 737 117.019 429.764 472.681
1173 0 59.1119 11.0468 653 122.282 428.972 472.265
1174 0 62.0337 11.6388 722 120.353 429.609 471.68
1175 0 66.1505 12.7134 841 118.081 427.996 469.118
1176 0 66.0797 11.7585 777 122.18 427.405 470.387
1177 0 70.1219 12.9774 910 119.534 427.519 466.652
1178 0 72.1046 12.26 884 121.664 427.464 466.743
1179 0 74.1195 13.0735 969 121.08 427.729 464.595
1180 0 76.0729 12.2645 933 123.713 428.481 463.71
1181 0 80.1541 12.9501 1038 120.424 428.541 462.347
1182 0 82.1074 11.0221 905 124.098 428.509 460.927
1183 0 87.1966 12.3055 1073 120.254 428.005 459.284
1184 0 90.221 12.7021 1146 118.497 428.591 458.271
1185 0 92.1216 13.4388 1238 118.261 428.737 455.204
1186 0 96.1177 13.0673 1256 118.223 428.692 453.147
1187 0 100.299 12.373 1241 119.205 428.649 452.003
1188 0 104.158 12.5099 1303 127.121 427.45 450.218
1189 0 108.228 12.8524 1391 125.573 427.221 447.782
1190 1 55.134 11.1184 613 123.279 427.703 475.184
1191 0 57.0646 12.1266 692 117.866 429.705 470.275
1192 0 60.0999 12.0633 725 119.132 428.469 470.738
1193 0 61.0981 12.4717 762 116.776 429.558 471.327
1194 0 64.1222 12.7413 817 115.378 429.288 469.955
1195 0 63.1327 12.3391 779 119.67 428.893 467.022
1196 0 68.0893 12.6452 861 116.391 429.311 468.199
1197 0 70.1358 13.2315 928 115.333 429.044 466.012
1198 0 72.1505 12.6818 915 117.694 429.713 463.761
1199 0 75.1389 13.4285 1009 114.881 429.715 464.221
1200 0 76.1297 11.4935 875 120.947 429.576 462.357
1201 0 80.1965 13.5417 1086 115.396 429.347 461.06
1202 0 81.194 12.2176 992 118.811 428.963 459.985
1203 0 85.1301 13.45 1145 113.377 428.726 458.204
1204 0 87.1363 12.5321 1092 116.405 428.395 456.377
1205 0 89.1786 12.4694 1112 116.255 427.813 457.921
1206 0 92.1769 12.0963 1115 117.787 428.513 456.447
1207 0 96.3293 13.4123 1292 114.998 428.409 453.631
1208 0 98.2491 13.2927 1306 115.543 428.015 451.054
1209 0 102.332 12.3226 1261 117.738 427.738 451.278
1210 1 54.3064 11.9139 647 120.498 428.054 472.728
1211 0 52.113 10.5348 549 120.379 427.625 472.505
1212 0 57.302 11.6575 668 115.997 427.796 472.266
1213 0 59.2084 13.8325 819 108.156 427.675 473.357
1214 0 60.2317 13.0828 788 111.008 427.105 471.528
1215 0 61.2182 12.6106 772 111.361 427.13 472.275
1216 0 62.2579 12.1109 754 112.619 427.622 470.407
1217 0 66.1088 12.6912 839 110.664 427.546 470.01
1218 0 69.1255 13.5406 936 107.306 427.567 468.34
1219 0 71.23 13.8706 988 106.376 427.333 467.163
1220 0 74.2748 13.4366 998 107.308 428.3 466.244
1221 0 75.1477 13.1208 986 108.163 428.261 464.914
1222 0 79.2838 13.6346 1081 106.504 427.815 464.503
1223 0 79.2022 11.8179 936 111.568 427.704 462.332
1224 0 83.1564 12.9755 1079 107.461 427.626 461.356
1225 0 87.1731 12.9283 1127 108.132 427.611 456.879
1226 0 90.2126 13.1689 1188 107.516 427.631 457.672
1227 1 47.2304 11.6662 551 115.189 428.412 476.915
1228 0 46.4564 10.8058 502 118.305 428.217 473.6
1229 0 51.3708 13.5875 698 111.272 427.351 472.477
1230 0 54.2529 11.6307 631 116.615 427.211 475.979
1231 0 53.208 13.1747 701 113.414 426.954 474.792
1232 0 53.1625 11.7188 623 117.693 426.881 475.53
1233 0 55.1618 11.149 615 119.911 427.198 473.898
1234 0 56.1785 11.8017 663 117.952 427.05 473.176
1235 0 60.1341 12.2559 737 117.071 427.338 473.267
1236 0 64.2486 13.9925 899 110.606 426.724 471.319
1237 0 66.1862 12.9634 858 111.993 426.224 471.403
1238 0 66.2127 13.7738 912 111.857 426.235 468.49
1239 0 69.1867 12.5024 865 115.141 426.532 467.843
1240 0 73.1984 12.1587 890 114.44 426.119 467.035
1241 0 74.1033 13.3058 986 111.488 426.017 467.857
1242 0 76.3174 13.1163 1001 112.264 426.209 466.022
1243 0 80.2265 13.5367 1086 111.372 426.151 464.35
1244 1 37.1068 10.6449 395 116.719 426.428 482.59
1245 0 39.0094 11.6126 453 111.102 427.472 484.517
1246 0 40.1189 11.0173 442 110.19 426.857 480.156
1247 0 40.0779 12.2262 490 105.612 428.81 484.163
1248 0 40.0765 12.1518 487 108.507 428.694 482
1249 0 45.017 12.5508 565 104.393 429.281 482.324
1250 0 45.0669 11.8712 535 106.83 428.465 481.68
1251 0 47.0288 12.7369 599 104.858 428.19 480.591
1252 0 47.0307 13.1616 619 105.178 429.061 480.501
1253 0 49.0882 13.4248 659 104.944 428.49 478.54
1254 0 51.0676 12.6303 645 106.504 428.975 479.126
1255 0 52.1346 13.2542 691 105.631 429.498 478.41
1256 0 54.1026 12.6611 685 107.318 429.539 478.653
1257 0 56.0207 13.6021 762 105.105 429.071 477.617
1258 0 57.0645 13.2482 756 106.245 428.909 477.097
1259 0 59.0691 13.6958 809 104.852 428.566 476.693
1260 0 59.0532 13.1407 776 108.619 428.942 473.548
1261 0 62.0418 12.8945 800 109.156 429.642 473.548
1262 0 64.0948 14.541 932 105.509 429.126 471.671
1263 0 65.0558 13.8189 899 107.696 429.092 472.545
1264 0 67.1185 13.8263 928 108.585 428.892 469.853
1265 0 69.2166 14.2885 989 108.049 429.612 469.533
1266 0 70.0548 14.2317 997 109.102 428.708 467.68
1267 0 75.0845 14.4504 1085 107.797 429.286 467.1
1268 0 77.0631 14.4816 1116 107.37 429.091 465.053
1269 0 80.1825 13.8684 1112 108.871 429.278 463.241
1270 1 44.0188 12.5401 552 114.571 428.576 481.373
1271 0 44.082 12.2272 539 117.069 427.976 480.475
1272 0 47.1093 12.4604 587 108.632 427.201 476.175
1273 0 47.0295 10.9506 515 102.817 428.217 477.517
1274 0 47.0112 12.4438 585 102.173 428.868 477.111
1275 0 49.0284 12.5233 614 103.111 428.29 474.368
1276 0 52.054 11.9683 623 102.748 428.271 475.427
1277 0 55.0371 13.0094 716 99.8198 428.64 473.025
1278 0 53.1144 11.5976 616 104.744 427.904 472.963
1279 0 58.0351 13.6297 791 99.7826 428.021 471.169
1280 0 58.0748 14.1025 819 100.161 428.274 470.615
1281 0 62.0502 13.5697 842 100.88 427.901 468.955
1282 0 62.0573 13.0686 811 102.514 428.411 467.89
1283 0 64.0508 13.9889 896 100.612 428.938 467.991
1284 0 66.0539 12.4444 822 104.483 428.9 466.953
1285 0 69.0811 13.4914 932 102.418 428.634 466.194
1286 0 70.078 13.0997 918 103.969 428.402 465.985
1287 0 73.1007 13.1599 962 103.471 428.488 463.562
1288 0 73.1435 12.7421 932 106.077 427.881 461.905
1289 0 76.1783 12.8252 977 105.969 428.341 459.146
1290 0 78.1808 14.0827 1101 102.91 428.403 460.045
1291 0 82.2346 13.9844 1150 102.27 428.262 458.959
1292 0 85.2259 14.6317 1247 101.767 428.108 455.784
1293 0 87.1462 14.0224 1222 103.377 428.169 455.92
1294 0 89.1719 14.2534 1271 103.526 427.919 455.293
1295 0 93.1504 14.643 1364 104.897 427.963 452.636
1296 1 48.0221 10.7242 515 106.01 428.546 475.437
1297 0 51.0804 12.0398 615 103.376 428.319 474.049
1298 0 51.0991 12.5638 642 106.561 428.498 471.899
1299 0 54.1001 13.6414 738 98.9512 428.005 472.949
1300 0 56.1221 13.3459 749 98.8585 427.877 472.744
1301 0 58.1231 13.437 781 98.6338 428.055 470.385
1302 0 60.1642 12.7983 770 100.731 428.035 470.187
1303 0 61.0467 12.8099 782 101.6 428.207 468.143
1304 0 65.0914 11.8449 771 102.728 427.875 468.689
1305 0 64.0956 12.0445 772 104.277 427.592 466.339
1306 0 68.1276 13.3426 909 101.868 428.252 464.785
1307 0 70.0778 12.3006 862 104.559 427.474 465.66
1308 0 74.3042 12.7045 944 103.676 427.802 463.856
1309 0 77.0483 13.1346 1012 105.478 428.602 463.417
1310 0 79.1442 12.8752 1019 106.416 427.909 463.118
1311 0 82.0641 12.5999 1034 109.45 427.763 456.597
1312 0 85.138 12.2507 1043 109.598 427.983 458.487
1313 0 90.1879 13.5051 1218 106.031 427.306 458.201
1314 0 90.133 12.537 1130 110.527 427.33 456.361
1315 1 50.0896 11.3996 571 105.037 426.872 478.096
1316 0 51.1206 12.1282 620 105.455 427.585 476.405
1317 0 53.2171 12.7215 677 105.833 427.492 473.322
1318 0 55.075 12.4739 687 106.007 427.52 473.894
1319 0 57.0531 13.5838 775 106.252 427.935 473.055
1320 0 59.0519 13.5643 801 105.577 427.024 473.072
1321 0 61.1141 13.2048 807 106.403 427.703 473.244
1322 0 62.2625 12.3188 767 109.098 427.566 471.601
1323 0 66.2084 13.7596 911 104.932 427.143 468.651
1324 0 68.1019 13.7001 933 105.583 427.623 468.267
1325 0 69.1443 13.5369 936 107.214 427.478 465.543
1326 0 73.2224 12.9742 950 106.869 427.379 466.694
1327 0 75.1322 13.4829 1013 105.121 427.662 465.821
1328 0 79.232 13.9085 1102 103.945 427.425 463.468
1329 0 79.2285 13.7577 1090 104.879 427.53 462.322
1330 0 84.0891 13.8187 1162 103.709 427.576 460.823
1331 0 86.2062 12.3657 1066 107.746 427.216 460.326
1332 0 89.1414 14.2021 1266 103.96 427.062 457.816
1333 0 92.1296 14.9138 1374 102.059 426.934 457.018
1334 0 96.3213 14.7008 1416 102.451 426.931 453.962
1335 0 100.259 12.9864 1302 106.502 426.973 453.194
1336 0 103.184 14.2852 1474 103.911 426.7 450.252
1337 0 107.507 14.5759 1567 103.396 427.255 449.038
1338 1 54.3427 12.7892 695 110.876 427.488 472.252
1339 0 57.2203 13.6839 783 109.162 427.252 471.37
1340 0 58.2163 13.2437 771 111.136 428.241 474.16
1341 0 62.2305 12.8072 797 112.312 427.794 471.711
1342 0 61.2925 13.0195 798 113.277 428.044 471.467
1343 0 65.2508 13.088 854 113.915 428.335 469.6
1344 0 67.0687 13.27 890 111.543 427.809 468.462
1345 0 70.1464 14.6265 1026 108.456 427.966 467.395
1346 0 73.1657 12.9159 945 112.492 428.097 466.12
1347 0 76.1178 14.6089 1112 108.492 427.637 464.906
1348 0 77.1041 13.2937 1025 112.719 428.129 464.357
1349 0 77.1041 13.3456 1029 158.794 429.134 464.384
1350 0 83.0987 12.2986 1022 114.915 428.565 459.653
1351 0 86.2079 12.5859 1085 113.041 428.414 461.052
1352 1 45.0251 11.7934 531 104.503 428.599 482.07
1353 0 47.2518 12.3593 584 104.418 429.779 477.902
1354 0 47.2122 11.5648 546 107.676 428.973 477.211
1355 0 49.1178 11.9916 589 107.078 428.284 478.686
1356 0 49.095 12.5471 616 107.36 428.662 477.084
1357 0 52.1009 12.0343 627 106.801 428.777 477.786
1358 0 55.1089 12.5025 689 106.075 429.017 476.197
1359 0 56.132 12.8091 719 105.905 428.519 475.83
1360 0 57.1283 13.1984 754 105.979 428.501 474.548
1361 0 59.1058 12.6722 749 105.705 427.745 474.435
1362 0 59.0908 12.0323 711 107.762 428.422 473.911
1363 0 60.0388 11.9423 717 108.675 428.19 472.734
1364 0 64.0339 11.9624 766 107.538 428.269 472.021
1365 0 63.0681 11.0515 697 110.307 428.334 471.247
1366 0 69.0939 13.185 911 104.639 428.568 470.103
1367 0 69.1018 12.8217 886 107.806 428.789 468.248
1368 0 74.1202 12.871 954 107.221 428.356 468.047
1369 0 76.1409 13.5932 1035 107.106 428.643 465.066
1370 0 76.112 12.9677 987 107.545 428.123 464.266
1371 1 42.0642 9.98474 420 108.176 429.207 482.888
1372 0 44.1247 10.765 475 104.962 429.291 478.56
1373 0 45.1579 10.9172 493 107.568 429.168 478.16
1374 0 47.0536 12.4114 584 104.918 428.502 479.599
1375 0 50.1468 12.7027 637 103.598 428.344 479.385
1376 0 49.0857 12.5291 615 105.145 429.281 478.128
1377 0 50.0914 12.6369 633 104.573 428.692 479.011
1378 0 53.0357 14.3488 761 100.248 428.723 478.515
1379 0 53.1381 13.719 729 103.811 428.957 476.988
1380 0 55.1638 13.469 743 102.919 429.349 477.128
1381 0 57.1582 12.6141 721 106.689 429.055 472.939
1382 0 60.1596 13.2813 799 104.697 429.273 474.635
1383 0 59.243 12.6766 751 107.515 428.237 473.904
1384 0 63.1347 13.194 833 106.267 428.352 471.493
1385 0 64.1741 13.3699 858 106.186 428.564 472.512
1386 0 68.1925 13.6819 933 104.062 428.998 471.647
1387 0 68.1886 14.3866 981 102.96 428.853 469.17
1388 0 71.2729 13.4132 956 105.501 429.062 467.791
1389 0 73.1718 12.9968 951 106.479 428.743 465.803
1390 0 76.2161 14.0784 1073 103.842 429.821 465.161
1391 0 77.2374 13.0766 1010 105.356 428.747 464.645
1392 0 81.0719 12.4334 1008 105.99 428.693 464.049
1393 0 83.1324 12.4861 1038 106.954 428.585 461.686
1394 0 85.1269 12.9336 1101 107.157 428.429 461.074
1395 0 89.0528 13.127 1169 105.31 427.897 460.026
1396 0 91.1909 12.2819 1120 107.575 427.764 460.041
1397 0 95.3422 13.8134 1317 104.156 428.002 456.767
1398 1 51.0261 11.3667 580 109.614 428.053 477.731
1399 0 54.0165 11.9408 645 108.036 428.377 476.552
1400 0 55.0737 12.2563 675 109.799 428.384 475.57
1401 0 56.0176 12.6032 706 102.448 428.511 476.252
1402 0 57.0714 13.1589 751 102.093 428.634 473.611
1403 0 58.0605 11.5397 670 106.561 428.394 474.967
1404 0 62.1236 13.5214 840 101.073 428.264 473.21
1405 0 63.0358 12.4056 782 104.169 427.756 471.666
1406 0 65.1252 12.9904 846 103.2 427.563 470.822
1407 0 66.0537 13.0954 865 104.047 427.771 469.702
1408 0 68.097 12.7759 870 103.743 427.56 470.369
1409 0 69.1812 11.2025 775 108.726 427.697 467.586
1410 0 72.1307 12.9071 931 105.287 427.613 466.182
1411 0 74.1027 13.2789 984 104.557 427.888 463.962
1412 0 78.0923 12.2163 954 106.618 427.624 463.314
1413 0 81.1064 12.7857 1037 99.4793 427.297 458.453
1414 0 85.1779 12.6911 1081 99.2858 427.158 459.87
1415 0 87.1092 12.2375 1066 100.427 427.654 458.318
1416 0 90.083 13.4099 1208 98.4396 426.972 453.993
1417 0 94.1342 12.3653 1164 102.267 427.504 455.555
1418 0 94.1783 11.2128 1056 105.828 426.738 452.723
1419 0 99.1613 12.5049 1240 103.801 426.898 451.821
1420 1 50.116 10.5755 530 102.634 426.794 471.226
1421 0 53.0334 12.445 660 102.139 427.077 476.359
1422 0 55.0489 11.8985 655 103.467 426.893 473.959
1423 0 53.0452 11.8201 627 104.314 427.041 474.415
1424 0 56.0596 12.7186 713 103.346 428.248 472.755
1425 0 59.1031 12.6051 745 103.687 428.566 470.694
1426 0 61.1125 12.3706 756 104.187 429.497 471.136
1427 0 64.0425 11.7266 751 104.735 429.125 470.755
1428 0 66.0986 11.1349 736 106.23 428.749 467.633
1429 0 68.0596 11.7397 799 100.562 428.637 466.37
1430 0 71.137 11.8504 843 100.096 428.42 464.775
1431 0 72.2084 11.2868 815 101.798 428.691 463.739
1432 0 76.2232 13.3293 1016 97.9222 428.353 460.224
1433 0 77.2925 11.877 918 101.28 428.07 460.556
1434 0 81.2551 11.5316 937 101.911 427.967 456.625
1435 0 83.3783 12.5092 1043 99.0431 427.947 456.165
1436 1 41.1639 10.3003 424 100.12 429.125 478.078
1437 0 45.0869 11.8882 536 98.0802 428.571 476.093
1438 0 45.1502 12.3144 556 97.7158 428.379 476.511
1439 0 47.1363 12.1987 575 97.8887 428.579 476.073
1440 0 47.0876 10.7672 507 100.968 428.128 476.574
1441 0 49.0961 12.3431 606 98.4373 428.109 475.523
1442 0 50.0628 12.8039 641 98.6864 428.579 475.799
1443 0 51.0706 11.7093 598 102.395 428.388 475.856
1444 0 53.0848 13.1676 699 99.6896 428.393 474.971
1445 0 55.13 13.5679 748 98.6791 428.31 475.329
1446 0 56.0495 12.489 700 102.041 427.84 472.647
1447 0 57.1588 11.1444 637 106.159 428.185 473.782
1448 0 60.3415 13.639 823 101.817 428.587 470.469
1449 0 64.1194 14.5978 936 99.0972 428.597 470.801
1450 0 63.2215 13.0019 822 107.457 428.071 467.684
1451 0 66.2108 12.0524 798 109.935 427.813 467.371
1452 0 66.2143 12.0367 797 149.802 427.824 467.287
1453 0 69.1265 12.0359 832 110.273 428.261 467.953
1454 0 73.2078 12.8128 938 107.184 427.499 466.807
1455 0 75.314 13.0653 984 107.412 427.621 463.401
1456 0 77.2752 13.7172 1060 106.416 427.495 461.815
1457 0 80.5733 12.8703 1037 106.738 427.514 462.02
1458 0 81.3107 12.1017 984 109.954 427.418 457.07
1459 0 85.2096 12.3578 1053 108.778 427.444 457.132
1460 0 86.3521 12.7617 1102 108.97 427.228 454.263
1461 0 90.2317 12.4347 1122 108.684 427.986 452.89
1462 0 93.572 13.2946 1244 106.281 427.293 451.487
1463 0 97.2998 13.3916 1303 106.069 427.505 449.084
1464 1 48.3612 11.1039 537 104.406 428.138 474.508
1465 0 49.2588 12.2009 601 102.531 428.619 473.183
1466 0 51.2448 13.094 671 100.051 428.341 474.331
1467 0 52.3452 12.494 654 100.954 427.853 474.511
1468 0 55.2545 12.4696 689 101.403 427.385 474.392
1469 0 54.1367 12.2652 664 83.6145 428.217 472.733
1470 0 57.1007 12.189 696 102.432 428.086 474.205
1471 0 60.132 12.3728 744 104.129 428.23 469.172
1472 0 62.1092 13.1864 819 103.595 427.786 467.917
1473 0 65.0957 12.7044 827 105.339 427.983 465.669
1474 0 69.2854 13.899 963 101.465 427.526 466.322
1475 0 70.055 13.7035 960 104.481 427.299 463.634
1476 0 72.3296 13.6597 988 105.984 427.616 463.505
1477 0 74.1996 12.709 943 108.103 427.685 459.637
1478 0 78.4673 12.8589 1009 106.966 427.819 458.563
1479 0 81.4416 12.598 1026 106.874 427.771 459.291
1480 0 82.4298 14.0605 1159 105.027 427.503 457.964
1481 0 85.3849 13.8081 1179 105.9 426.869 454.416
1482 0 87.3969 13.1698 1151 107.966 426.797 454.595
1483 0 94.286 13.6924 1291 105.36 426.72 452.056
1484 0 95.3882 12.6011 1202 108.149 426.621 452.544
1485 0 98.2795 12.5967 1238 109.17 427.044 447.289
1486 1 48.0493 10.9679 527 108.829 428.269 474.638
1487 0 49.2439 11.9203 587 108.012 428.554 474.405
1488 0 50.0422 12.5894 630 106.184 427.886 477.108
1489 0 54.0819 12.592 681 105.744 428.856 474.805
1490 0 56.1084 13.7769 773 104.801 428.67 474.106
1491 0 56.1974 12.9365 727 108.898 428.744 470.626
1492 0 59.1815 13.1291 777 110.427 427.973 470.153
1493 0 58.1716 11.9646 696 115.07 428.559 468.306
1494 0 64.3092 12.8597 827 112.167 428.597 468.409
1495 0 64.3106 13.4659 866 112.256 427.999 467.255
1496 0 68.4839 13.6236 933 111.525 427.938 467.176
1497 0 71.3323 13.2338 944 113.394 428.046 465.111
1498 0 73.4114 14.7252 1081 109.937 428.015 464.495
1499 0 73.4651 12.8088 941 116.945 428.023 463.789
1500 0 77.2665 13.3952 1035 115.374 427.832 462.355
1501 0 80.3864 14.5671 1171 112.719 427.372 461.18
1502 0 82.4567 13.6678 1127 115.557 427.64 460.272
1503 0 85.1977 13.2398 1128 110.14 427.678 458.043
1504 0 87.0464 13.9236 1212 110.827 427.785 456.895
1505 0 89.095 14.3442 1278 110.301 427.908 459.201
1506 0 90.2864 14.8527 1341 110.715 427.336 455.919
1507 1 48.1671 12.2698 591 112.926 428.58 477.665
1508 0 48.0157 12.121 582 115.497 427.514 477.77
1509 0 46.0924 10.6308 490 122.965 426.151 478.833
1510 0 49.0529 11.6405 571 119.569 427.294 478.373
1511 0 49.0273 11.8098 579 119.216 427.623 477.38
1512 0 54.0917 12.6637 685 114.041 427.42 476.526
1513 0 55.0486 12.8432 707 113.314 427.311 474.177
1514 0 56.0578 11.6487 653 115.168 428.53 473.504
1515 0 58.1556 11.9335 694 113.533 428.082 471.771
1516 0 60.1224 13.406 806 109.12 427.939 473.17
1517 0 63.1171 12.8808 813 111.203 427.803 471.333
1518 0 64.1632 12.25 786 111.775 428.008 468.707
1519 0 65.1737 12.0294 784 114.704 427.592 468.157
1520 0 67.1058 12.9199 867 114.904 427.728 467.517
1521 0 68.1269 13.5923 926 117.35 427.748 465.344
1522 0 70.1069 12.2527 859 123.637 427.702 466.084
1523 0 73.0815 12.1782 890 127.325 427.349 467.136
1524 0 74.0986 12.7803 947 129.145 427.398 464.086
1525 1 38.0563 11.5093 438 121.769 428.756 484.991
1526 0 41.1163 11.2851 464 121.879 428.504 483.938
1527 0 40.106 11.5943 465 122.606 427.974 481.224
1528 0 41.0133 11.8254 485 123.598 425.957 482.105
1529 0 41.0199 10.7996 443 128.402 426.67 484.054
1530 0 42.0722 11.8843 500 127.38 426.754 483.478
1531 0 44.0225 13.425 591 124.325 426.212 482.017
1532 0 45.0794 12.7775 576 128.106 426.069 481.698
1533 0 45.0464 11.2773 508 132.28 426.169 482.327
1534 0 48.0662 11.4842 552 132.489 426.688 480.415
1535 0 46.0644 10.7241 494 137.872 426.644 479.935
1536 0 51.072 12.2768 627 131.467 425.869 479.238
1537 0 51.0491 12.8504 656 131.261 426.107 478.921
1538 0 53.0335 12.5958 668 131.943 426.478 477.582
1539 0 54.0982 12.1261 656 133.611 426.27 477.309
1540 0 55.0743 12.1835 671 134.098 427.692 475.447
1541 0 58.0423 12.1291 704 132.028 427.381 476.709
1542 0 60.0941 13.2792 798 129.421 427.445 474.118
1543 0 62.1095 11.9627 743 133.529 427.594 473.042
1544 0 65.1454 13.5236 881 129.426 426.561 472.883
1545 0 65.1116 12.4248 809 133.393 426.936 470.706
1546 0 69.081 12.7821 883 131.525 427.084 470.159
1547 0 70.1253 13.2762 931 136.294 426.083 470.346
1548 0 73.1362 13.5774 993 135.305 425.566 468.169
1549 0 74.19 12.3871 919 140.639 425.48 466.581
1550 0 78.2437 13.2023 1033 136.991 424.967 465.987
1551 0 78.2081 12.5562 982 139.582 425.998 461.926
1552 0 84.1774 14.2912 1203 132.219 426.14 461.766
1553 0 85.122 13.792 1174 134.472 425.925 460.946
1554 1 48.1268 12.384 596 136.73 425.869 478.537
1555 0 51.0831 12.372 632 135.297 425.486 477.922
1556 0 51.0473 12.4003 633 127.136 424.431 478.397
1557 0 53.0329 12.596 668 125.814 425.024 479.198
1558 0 54.0327 12.8996 697 126.166 424.762 476.921
1559 0 57.0778 13.0699 746 125.57 425.374 476.353
1560 0 55.0332 12.1745 670 132 425.781 476.272
1561 0 59.1608 12.4407 736 129.183 425.404 475.417
1562 0 60.0703 12.7184 764 130.241 425.031 472.935
1563 0 62.1035 12.3987 770 130.448 424.983 473.604
1564 0 63.0388 12.5002 788 130.964 424.799 473.235
1565 0 67.0215 13.6076 912 127.594 425.146 470.492
1566 0 68.0743 12.266 835 131.831 424.726 470.412
1567 0 71.0527 12.8918 916 129.511 425.428 469.638
1568 0 71.0525 12.9622 921 148.846 426.435 469.554
1569 0 75.0967 13.2363 994 129.803 424.318 467.434
1570 0 79.1726 12.6685 1003 132.722 424.39 464.881
1571 0 81.0883 12.5172 1015 133.068 424.721 465.73
1572 0 85.0529 15.167 1290 127.065 424.585 462.878
1573 0 87.1051 13.8339 1205 131.475 424.424 460.843
1574 0 91.1605 13.3611 1218 133.102 424.884 458.434
1575 0 94.1798 13.9945 1318 128.953 425.185 458.634
1576 1 46.0292 11.8403 545 132.822 424.589 478.358
1577 0 50.087 12.4583 624 128.322 424.559 478.963
1578 0 52.0181 11.9189 620 129.553 424.568 478.684
1579 0 54.0989 12.4956 676 128.985 423.879 477.438
1580 0 54.0348 14.2686 771 124.624 424.543 476.875
1581 0 55.0614 12.7131 700 129.379 423.944 475.644
1582 0 57.0758 12.2118 697 130.082 425.076 475.608
1583 0 58.0441 13.5587 787 124.638 423.994 475.919
1584 0 60.1358 13.5028 812 124.762 423.878 473.369
1585 0 60.1358 13.5028 812 154.51 422.869 473.441
1586 0 64.1667 13.1221 842 126.19 424.754 471.042
1587 0 64.131 12.8019 821 127.571 424.492 470.443
1588 0 67.0833 13.9379 935 123.358 424.368 469.064
1589 0 70.0633 13.1881 924 124.497 424.793 469.13
1590 0 70.1142 13.421 941 125.502 424.49 467.078
1591 0 72.0751 13.1529 948 126.297 424.122 465.519
1592 0 75.1108 13.5 1014 124.247 424.847 464.594
1593 0 78.0824 13.8444 1081 123.208 424.735 461.818
1594 0 81.0991 13.2554 1075 124.371 424.716 461.392
1595 0 81.1509 13.0374 1058 125.746 424.922 460.545
1596 0 87.0751 14.0913 1227 121.336 424.341 458.617
1597 0 88.1022 12.4288 1095 125.342 424.713 457.961
1598 0 92.2003 13.1344 1211 124.021 425.216 455.199
1599 0 95.1956 13.1203 1249 122.676 425.793 453.01
1600 1 49.1725 11.3071 556 120.626 426.973 475.381
1601 0 51.0693 12.062 616 113.817 426.864 477.127
1602 0 54.0412 12.62 682 110.704 426.694 474.465
1603 0 54.0988 11.9966 649 115.849 424.888 473.801
1604 0 57.0444 13.2353 755 111.893 425.352 472.78
1605 0 59.0663 12.4944 738 113.267 425.236 472.699
1606 0 59.0867 11.9824 708 116.058 425.123 471.641
1607 0 60.0804 11.8175 710 114.61 425.273 470.185
1608 0 68.1056 14.0811 959 106.914 425.433 470.755
1609 0 68.0456 13.5791 924 108.946 425.003 468.913
1610 0 70.0732 12.5298 878 112.269 424.934 468.117
1611 0 71.1229 12.7526 907 113.06 424.663 466.87
1612 0 74.1003 12.9689 961 112.8 424.117 464.367
1613 0 78.2033 13.7718 1077 109.895 424.657 464.815
1614 0 79.2266 14.9445 1184 107.921 424.853 462.68
1615 0 82.2157 14.6079 1201 108.489 424.075 462.998
1616 0 82.2157 14.7052 1209 146.814 423.074 463.002
1617 0 89.145 14.9644 1334 107.062 424.801 461.394
1618 0 89.3615 14.4246 1289 110.112 424.77 458.024
1619 0 93.3486 14.5691 1360 109.322 424.651 456.251
1620 0 96.4068 14.1899 1368 108.863 425.446 455.027
1621 0 98.2493 13.883 1364 109.641 425.372 453.935
1622 0 100.225 13.4896 1352 109.354 424.652 452.608
1623 0 102.151 12.9807 1326 110.768 425.152 450.219
1624 0 107.1 12.5677 1346 109.643 424.426 448.194
1625 1 58.064 12.1073 703 111.377 423.989 472.403
1626 0 60.0953 13.1458 790 108.599 424.446 471.681
1627 0 60.0953 13.1791 792 148.653 425.453 471.548
1628 0 65.1699 12.9968 847 107.203 424.569 468.305
1629 0 64.0912 11.7645 754 109.845 424.712 463.972
1630 0 67.1512 12.6282 848 106.848 424.259 464.899
1631 0 67.2174 12.3629 831 108.803 424.377 463.664
1632 0 69.218 12.4823 864 108.447 424.174 461.236
1633 0 72.1982 12.3687 893 108.421 424.788 458.502
1634 0 75.071 12.1085 909 108.356 424.95 460.297
1635 0 77.1355 11.9919 925 108.703 425.301 456.291
1636 0 81.1599 12.7896 1038 106.408 425.228 456.36
1637 0 83.1163 12.8013 1064 107.011 425.468 452.101
1638 0 85.2123 11.4185 973 105.479 425.304 451.222
1639 0 88.335 11.762 1039 104.948 424.834 449.247
1640 0 90.273 11.5317 1041 106.338 425.587 448.006
1641 0 94.1679 11.5114 1084 105.245 426.367 446.772
1642 0 98.1237 10.2626 1007 107.263 426.734 446.133
1643 0 102.281 11.0676 1132 105.838 426.522 442.337
1644 0 105.239 11.0511 1163 104.518 426.126 444.131
1645 0 110.211 11.8772 1309 102.775 425.208 443.662
1646 0 115.187 11.8937 1370 103.65 425.4 441.294
1647 1 60.2721 10.6849 644 104.295 425.839 467.301
1648 0 62.1542 14.6571 911 94.5818 425.677 466.013
1649 0 66.125 12.2344 809 101.511 426.192 465.969
1650 0 68.1631 13.8785 946 98.056 426.105 464.42
1651 0 71.1737 13.0385 928 98.7295 425.078 463.879
1652 0 72.1997 11.8976 859 101.694 425.413 460.973
1653 0 75.2287 12.2161 919 99.8128 425.406 461.621
1654 0 78.1472 12.2845 960 100.108 425.371 458.123
1655 0 81.1529 12.6551 1027 99.8432 425.839 458.141
1656 0 83.3511 12.8133 1068 99.9176 425.949 456.76
1657 0 88.2655 13.8219 1220 98.3893 425.594 454.05
1658 0 90.1873 11.2765 1017 104.556 425.122 454.22
1659 0 95.1669 12.5149 1191 102.518 425.127 452.172
1660 0 97.1719 13.152 1278 101.854 425.359 450.527
1661 0 100.2 14.4411 1447 100.296 425.868 447.616
1662 1 51.0155 9.84015 502 105.833 426.908 471.187
1663 0 52.0172 11.65 606 98.3779 426.663 469.802
1664 0 51.0686 10.1824 520 102.158 426.133 466.548
1665 0 54.0518 10.6009 573 96.1867 425.649 467.25
1666 0 55.0721 9.93243 547 98.841 425.645 466.638
1667 0 59.1262 11.2979 668 95.7665 426.073 465.359
1668 0 62.1166 9.88464 614 97.3322 426.075 467.067
1669 0 61.0797 9.87235 603 99.3201 425.668 464.915
1670 0 63.0975 10.2223 645 99.6698 426.025 461.901
1671 0 67.1623 10.0354 674 98.1484 425.684 464.832
1672 0 71.2575 10.7497 766 96.9556 425.04 461.573
1673 0 72.0862 10.5707 762 99.189 425.215 460.44
1674 0 73.1042 9.53433 697 101.587 425.799 457.858
1675 0 78.2571 11.2833 883 97.6421 425.839 457.965
1676 0 81.317 11.3629 924 98.355 425.485 453.848
1677 0 83.1641 11.0264 917 100.902 425.15 454.586
1678 0 87.4717 12.8041 1120 97.7768 425.379 452.151
1679 0 88.1419 11.4361 1008 101.274 425.253 451.157
1680 0 94.424 12.8251 1211 98.6474 425.55 449.789
1681 1 50.2534 10.1685 511 100.616 425.716 470.523
1682 0 52.2561 11.0226 576 102.484 425.668 471.587
1683 0 54.0145 11.7746 636 111.225 427.066 473.675
1684 0 59.0453 12.7529 753 108.777 426.708 475.142
1685 0 59.0592 12.5298 740 111.976 426.753 472.585
1686 0 59.0696 13.2725 784 112.23 426.138 472.81
1687 0 63.0363 12.8973 813 110.914 426.768 473.114
1688 0 65.042 13.3914 871 110.611 426.845 472.09
1689 0 69.0749 12.2476 846 111.41 426.383 469.835
1690 0 70.039 13.6781 958 109.894 426.11 469.565
1691 0 71.1376 13.1014 932 112.672 425.839 468.247
1692 0 76.1336 13.8966 1058 110.468 426.534 467.341
1693 0 75.1881 12.3823 931 116.604 425.832 466.155
1694 0 79.1027 12.882 1019 115.001 425.711 462.758
1695 0 83.1321 13.2801 1104 113.802 426.093 462.571
1696 0 85.1775 13.2195 1126 114.743 426.456 462.093
1697 0 86.0852 12.8826 1109 118.589 426.551 457.872
1698 0 91.0848 14.6676 1336 113.417 426.543 457.954
1699 1 46.0165 11.974 551 118.971 427.221 480.096
1700 0 45.0291 10.793 486 121.132 426.665 477.772
1701 0 46.0243 9.88607 455 120.031 427.174 476.182
1702 0 46.0947 9.43709 435 109.503 425.14 473.582
1703 0 47.1162 8.70189 410 112.602 424.744 472.09
1704 0 49.0817 9.10726 447 107.655 424.49 473.828
1705 0 52.1322 10.5501 550 104.978 424.835 472.093
1706 0 52.0999 9.76969 509 107.194 425.031 475.407
1707 0 54.0998 11.9224 645 105.073 425.315 472.733
1708 0 56.0553 11.3816 638 106.608 425.114 472.329
1709 0 57.0885 10.4925 599 108.83 424.942 468.816
1710 0 58.1305 10.1668 591 109.349 425.019 468.904
1711 0 64.1566 10.7705 691 107.556 424.609 469.395
1712 0 66.1135 11.2988 747 105.226 425.443 467.3
1713 0 65.0622 10.4669 681 108.891 425.421 466.325
1714 0 68.1358 10.9487 746 108.129 425.202 464.33
1715 0 71.1586 11.0317 785 106.131 425.166 466.32
1716 0 68.1886 9.81103 669 112.154 425.218 461.378
1717 0 74.1949 10.4994 779 109.659 424.976 461.146
1718 0 76.1795 11.3154 862 109.787 424.51 458.175
1719 0 78.2027 9.82063 768 112.66 425.16 458.262
1720 0 80.1363 10.8815 872 112.194 424.642 453.229
1721 0 84.1011 11.8072 993 108.583 425.615 456.485
1722 0 87.1001 11.1137 968 112.373 425.776 453.201
1723 1 41.1316 9.79782 403 109.375 425.921 474.747
1724 0 41.0619 8.66984 356 110.966 425.935 474.093
1725 0 47.1286 11.1822 527 108.152 425.731 472.057
1726 0 46.0107 12.0624 555 116.2 426.339 474.795
1727 0 50.0626 12.3246 617 120.358 425.337 477.992
1728 0 50.0734 13.2006 661 120.628 425.048 476.204
1729 0 52.0792 12.8266 668 121.446 425.084 475.692
1730 0 55.1808 13.7729 760 118.172 425.929 475.629
1731 0 53.2068 12.348 657 125.228 425.782 474.3
1732 0 58.1875 13.7315 799 120.014 425.055 474.025
1733 0 59.1335 13.2074 781 122.923 425.462 472.438
1734 0 59.1335 13.1228 776 139.769 425.466 472.29
1735 0 63.1947 12.9441 818 125.962 425.163 469.907
1736 0 65.1891 13.9901 912 123.873 424.64 469.276
1737 0 68.1514 13.5727 925 125.132 425.139 469.285
1738 0 68.1272 14.1794 966 125.149 425.005 469.146
1739 0 72.1126 14.5051 1046 122.448 425.028 469.75
1740 0 75.1969 14.0963 1060 125.016 424.702 466.255
1741 0 77.1001 13.8391 1067 126.785 425.017 465.515
1742 0 80.1517 16.1693 1296 120.06 425.079 463.775
1743 0 80.1517 16.2192 1300 162.807 425.078 463.758
1744 0 84.129 13.4318 1130 128.658 425.137 462.366
1745 0 87.2152 15.1694 1323 123.279 424.617 459.924
1746 0 91.2162 14.8987 1359 122.6 424.519 458.669
1747 0 92.2224 13.9446 1286 126.991 424.485 458.58
1748 0 97.2396 14.9013 1449 122.931 424.489 457.462
1749 0 97.1082 15.1172 1468 123.599 425.341 455.792
1750 1 52.078 13.2109 688 124.923 425.276 477.317
1751 0 54.1449 13.6486 739 117.104 425.147 475.992
1752 0 56.0529 14.8431 832 113.024 425.391 475.089
1753 0 55.0764 14.2892 787 117.079 425.804 474.202
1754 0 57.0408 13.7446 784 117.541 425.935 474.11
1755 0 60.0616 14.2187 854 115.076 425.915 472.917
1756 0 62.0438 13.3454 828 116.907 426.28 471.572
1757 0 65.098 14.8545 967 111.66 425.926 470.717
1758 0 64.1162 14.1618 908 115.062 425.761 469.827
1759 0 69.0704 13.6672 944 114.012 425.576 469.847
1760 0 70.1109 13.3788 938 114.678 425.729 467.332
1761 0 73.0967 13.3932 979 113.972 426.114 465.02
1762 0 75.1477 14.3584 1079 110.767 425.499 464.206
1763 0 78.199 14.4375 1129 110.252 425.326 462.134
1764 0 81.085 13.64 1106 111.592 425.879 462.428
1765 0 82.1755 13.4347 1104 113.053 425.208 459.065
1766 0 85.1216 14.2385 1212 110.714 424.867 456.258
1767 0 89.1347 14.3603 1280 109.127 425.2 456.198
1768 0 92.1026 13.6261 1255 110.547 425.367 453.019
1769 0 93.2667 13.0808 1220 112.745 425.019 449.579
1770 1 50.0635 12.2844 615 113.826 425.325 471.436
1771 0 50.0755 11.5426 578 111.284 425.49 469.401
1772 0 51.0462 10.8137 552 101.638 425.013 470.009
1773 0 52.0636 11.9085 620 99.5016 424.963 470.269
1774 0 55.0623 10.9331 602 101.146 425.091 468.347
1775 0 58.1164 11.6662 678 98.1313 425.176 470.382
1776 0 60.0327 11.9601 718 97.5599 424.614 466.599
1777 0 62.0874 10.7268 666 100.673 425.087 466.734
1778 0 64.1186 13.2099 847 95.8028 424.995 466.321
1779 0 67.0991 11.9823 804 98.3507 424.618 464.892
1780 0 69.0631 13.3501 922 96.4328 424.818 462.978
1781 0 73.0881 12.4507 910 96.6956 424.516 463.842
1782 0 72.1273 11.4381 825 100.901 425.027 461.861
1783 0 78.1144 13.2498 1035 97.17 425.17 458.987
1784 0 80.0777 12.5004 1001 98.8961 424.897 460.309
1785 0 83.1374 13.0627 1086 99.2357 424.682 458.705
1786 0 86.1599 13.0803 1127 99.2094 425.669 455.783
1787 0 88.1277 12.4025 1093 99.645 424.525 454.02
1788 0 90.2544 12.0105 1084 101.154 425.077 451.877
1789 0 94.1639 14.0075 1319 96.3275 425.004 446.379
1790 0 98.2447 13.6801 1344 97.0432 425.22 448.233
1791 1 50.1593 11.922 598 98.306 425.082 474.946
1792 0 49.224 12.9815 639 100.491 424.085 474.291
1793 0 52.0755 12.5779 655 100.945 424.125 474.328
1794 0 53.167 13.2977 707 104.153 426.013 474.771
1795 0 56.1031 13.4752 756 104.337 426.242 474.156
1796 0 58.1141 13.9209 809 104.507 426.341 472.125
1797 0 60.1141 12.8755 774 109.663 426.257 471.406
1798 0 62.0722 13.6937 850 108.188 426.16 471.401
1799 0 63.1533 13.2535 837 110.155 426.577 468.937
1800 0 66.1335 13.6693 904 108.746 426.138 468.529
1801 0 67.0725 13.9998 939 109.134 426.209 466.92
1802 0 70.1726 13.5095 948 110.955 426.199 465.267
1803 0 72.1577 13.7477 992 111.767 426.076 464.888
1804 0 73.1121 13.4861 986 113.171 425.971 464.58
1805 0 78.1331 14.5649 1138 110.635 425.076 459.016
1806 0 77.2736 14.0151 1083 114.498 425.343 456.351
1807 0 81.1467 14.5539 1181 113.002 424.733 453.293
1808 0 81.0679 13.3962 1086 114.652 426.392 459.176
1809 0 86.3074 14.3557 1239 112.41 425.812 456.707
1810 0 88.1255 14.7971 1304 111.553 426.512 456.011
1811 0 89.1625 13.5819 1211 115.873 426.35 452.63
1812 0 94.2673 14.5331 1370 111.953 425.814 450.875
1813 0 97.1751 14.5922 1418 112.448 425.401 448.305
1814 0 101.092 14.749 1491 111.902 425.812 449.687
1815 0 103.183 14.7214 1519 112.843 425.935 445.504
1816 1 55.1882 11.0893 612 115.672 426.417 473.557
1817 0 57.0729 10.653 608 108.363 426.714 471.883
1818 0 59.0576 11.057 653 104.331 425.764 469.322
1819 0 61.1319 11.1235 680 105.053 425.46 468.285
1820 0 64.0357 11.4155 731 104.96 425.252 465.837
1821 0 65.122 12.3153 802 102.438 425.666 466.057
1822 0 67.0923 12.3263 827 103.628 425.643 463.713
1823 0 69.1153 12.3417 853 103.996 425.587 462.569
1824 0 73.0943 12.7917 935 102.103 425.782 463.317
1825 0 74.1349 12.5986 934 103.211 425.952 461.748
1826 0 79.1065 12.8814 1019 102.559 425.806 461.177
1827 0 80.1315 13.2033 1058 103.563 426.451 461.226
1828 0 82.0758 11.8914 976 107.112 426.428 462.296
1829 0 85.066 12.6137 1073 107.031 426.15 460.514
1830 0 89.164 12.9873 1158 105.702 425.868 458.697
1831 0 91.195 12.9393 1180 107.288 425.538 456.159
1832 0 93.245 13.2125 1232 108.317 425.061 449.926
1833 1 51.1651 11.2772 577 102.903 425.166 475.742
1834 0 54.1727 11.7587 637 103.783 425.639 473.188
1835 0 54.2421 12.6839 688 108.424 425.238 470.789
1836 0 56.1871 13.2593 745 106.897 425.867 473.683
1837 0 57.0452 12.9196 737 109.005 425.868 474.537
1838 0 60.1929 12.7424 767 115.705 426.132 472.767
1839 0 61.2848 11.9279 731 119.588 426.127 470.622
1840 0 63.2503 12.3161 779 118.751 426.064 469.964
1841 0 66.2528 13.0561 865 116.851 425.661 469.894
1842 0 68.3086 12.4582 851 119.904 425.645 468.609
1843 0 69.3271 12.2463 849 122.609 425.364 466.647
1844 0 71.1126 12.67 901 115.739 425.392 467.304
1845 0 72.1276 11.7292 846 113.047 426.467 463.751
1846 0 76.0769 12.3428 939 111.723 426.53 464.066
1847 0 77.1057 11.5945 894 115.56 426.463 462.488
1848 0 80.0958 12.7098 1018 113.373 426.365 460.332
1849 0 84.1741 12.7355 1072 113.912 426.11 461.285
1850 0 87.1065 12.9841 1131 112.975 425.565 460.185
1851 0 89.1024 12.3678 1102 116.821 425.711 458.551
1852 0 92.2593 12.2698 1132 118.19 425.783 455.065
1853 0 97.1866 12.7178 1236 120.415 425.617 455.808
1854 1 50.1022 11.756 589 112.295 426.097 476.655
1855 0 51.1716 10.9436 560 115.339 425.773 475.725
1856 0 52.1965 12.2805 641 113.914 425.387 474.769
1857 0 53.0258 10.5986 562 117.244 424.463 477.817
1858 0 54.1254 10.5496 571 118.214 426.224 477.694
1859 0 55.1645 11.0035 607 118.362 426.066 471.959
1860 0 59.2411 11.3266 671 115.399 425.639 473.331
1861 0 60.0857 11.1341 669 116.921 426.241 473.164
1862 0 62.072 10.0851 626 119.278 426.259 473.176
1863 0 65.2113 11.4397 746 114.524 425.811 467.174
1864 0 66.2127 11.1761 740 116.451 425.296 465.722
1865 0 69.2594 12.2871 851 115.669 425.993 465.659
1866 0 70.1589 10.7043 751 119.119 425.804 466.278
1867 0 72.1978 11.0253 796 119.172 425.47 464.481
1868 0 75.2181 11.4334 860 119.44 425.503 461.741
1869 0 76.1403 11.2161 854 120.823 425.849 462.975
1870 0 78.2224 11.838 926 119.811 425.248 462.456
1871 0 79.2012 10.9342 866 123.13 425.554 456.068
1872 0 84.1578 12.1082 1019 117.836 424.715 455.978
1873 0 86.3273 12.1167 1046 119.49 425.163 453.095
1874 0 91.3534 13.1358 1200 116.314 424.485 453.008
1875 0 93.366 12.4349 1161 118.453 424.925 450.255
1876 0 92.3894 10.5099 971 123.457 424.999 452.687
1877 0 97.2829 11.9857 1166 120.205 425.029 448.966
1878 0 100.278 11.897 1193 120.318 425.461 448.989
1879 1 51.1565 10.9859 562 119.114 425.612 472.605
1880 0 54.1959 11.2555 610 117.252 425.672 472.569
1881 0 55.1263 10.7934 595 116.933 426.118 472.291
1882 0 59.156 12.2557 725 112.749 425.97 470.923
1883 0 59.1198 12.2632 725 113.923 425.979 471.451
1884 0 63.1585 12.1916 770 113.865 426.523 470.821
1885 0 67.1861 12.0561 810 113.874 425.798 470.036
1886 0 68.2686 13.6373 931 110.776 426.166 469.098
1887 0 70.1894 12.2811 862 115.219 426.3 468.769
1888 0 74.162 12.8098 950 114.357 425.872 465.931
1889 0 76.1839 13.0605 995 115.262 425.859 464.418
1890 0 78.1938 12.6481 989 118.046 425.254 463.371
1891 0 79.1016 11.8455 937 120.674 425.761 461.458
1892 0 82.2349 11.528 948 121.059 426.247 459.494
1893 0 86.1682 11.4311 985 120.686 426.439 459.551
1894 1 46.2246 11.5956 536 110.877 426.297 478.009
1895 0 45.3124 10.7917 489 115.057 426.219 477.699
1896 0 45.2203 11.1897 506 115.48 426.389 475.648
1897 0 48.1043 12.265 590 111.549 425.886 475
1898 0 49.1607 12.7134 625 110.44 426.558 476.592
1899 0 50.1796 11.4788 576 116.609 426.476 478.521
1900 0 52.1568 11.8872 620 113.794 426.603 473.955
1901 0 55.2402 12.6357 698 110.736 426.201 475.368
1902 0 57.1679 12.5945 720 111.543 426.276 474.188
1903 0 58.1888 12.322 717 107.054 426.074 470.895
1904 0 59.1336 12.142 718 108.201 425.823 469.185
1905 0 62.0709 11.6963 726 110.036 424.862 468.664
1906 0 63.1293 11.3418 716 110.43 425.385 468.716
1907 0 65.2642 13.1925 861 104.639 425.518 462.865
1908 0 67.3059 12.6586 852 106.596 425.862 462.123
1909 0 67.2468 12.4616 838 108.947 425.311 461.168
1910 0 69.1638 12.4921 864 109.683 425.264 461.144
1911 0 73.3125 12.6036 924 109.513 425.787 459.659
1912 0 74.3158 12.4603 926 111.091 425.489 460.135
1913 0 76.3167 13.1426 1003 109.623 425.136 458.133
1914 0 78.2331 12.0537 943 113.953 425.626 456.964
1915 0 84.2705 13.0413 1099 111.005 425.517 456.187
1916 0 84.3516 12.2819 1036 115.412 425.767 454.509
1917 1 47.27 10.091 477 121.025 425.528 473.673
1918 0 48.0823 12.2914 591 120.778 424.648 475.518
1919 0 50.1393 11.3484 569 122.381 425.121 468.738
1920 0 54.0717 12.3725 669 106.419 426.39 472.634
1921 0 56.0406 12.3303 691 107.686 426.342 473.093
1922 0 56.1925 12.9021 725 107.75 426.008 469.905
1923 0 57.1 12.7145 726 109.258 426.57 471.143
1924 0 58.0155 11.2556 653 113.954 425.717 469.381
1925 0 61.12 12.1564 743 112.057 426 468.587
1926 0 61.1443 10.8923 666 116.083 425.847 465.961
1927 0 66.0897 12.1804 805 111.999 426.333 466.898
1928 0 68.0535 11.8289 805 113.672 426.045 464.258
1929 0 69.0614 11.7287 810 114.181 425.872 464.007
1930 0 71.0724 13.2682 943 111.406 426.165 462.174
1931 0 76.1843 12.706 968 112.429 426.092 459.956
1932 0 76.1301 12.2422 932 116.425 425.491 458.733
1933 0 78.2148 11.4812 898 116.633 425.521 458.728
1934 0 82.0809 12.6339 1037 115.707 426.034 457.036
1935 0 85.2229 11.7691 1003 119.538 425.356 454.047
1936 0 86.1061 12.0897 1041 118.981 424.771 451.975
1937 0 93.2333 11.8091 1101 120.273 424.847 449.897
1938 1 45.0478 10.0338 452 129.374 425.9 474.135
1939 0 48.1347 10.4498 503 125.92 425.173 473.676
1940 0 49.1169 10.4038 511 125.374 425.378 469.93
1941 0 53.0911 11.3955 605 123.912 424.904 470.792
1942 0 54.1939 10.6654 578 124.519 425.645 469.441
1943 0 54.1273 10.697 579 126.071 425.432 469.584
1944 0 58.1352 11.5421 671 124.128 425.712 469.654
1945 0 56.1814 11.9435 671 122.687 425.776 467.076
1946 0 61.138 10.8934 666 126.089 425.977 466.071
1947 0 62.2057 11.1405 693 125.473 425.879 465.457
1948 0 63.1116 10.2992 650 128.675 425.654 464.355
1949 0 67.1647 11.2708 757 125.103 425.073 465.053
1950 0 71.1268 12.2317 870 121.59 424.787 463.462
1951 0 73.1834 11.7376 859 124.156 424.938 460.467
1952 0 74.1812 12.6177 936 122.132 424.818 459.513
1953 0 77.2389 11.8852 918 125.191 424.717 459.016
1954 0 78.0729 11.3356 885 126.385 424.385 457.756
1955 0 83.1579 11.4601 953 124.625 424.847 454.816
1956 0 85.0894 11.5408 982 125.491 424.404 452.788
1957 0 90.0899 13.1091 1181 120.802 424.682 452.836
1958 0 92.1307 11.2992 1041 125.491 424.958 450.742
1959 1 51.0585 10.4782 535 115.899 425.437 471.052
1960 0 53.0219 11.1841 593 115.032 424.75 472.793
1961 0 56.0806 12.2681 688 115.036 424.887 472.924
1962 0 57.0775 11.2303 641 117.033 425.192 471.303
1963 0 61.0731 12.1821 744 113.796 425.19 471.011
1964 0 61.065 12.8879 787 113.511 425.18 470.139
1965 0 63.1361 11.9741 756 114.534 425.644 469.032
1966 0 66.0924 11.8924 786 114.35 425.207 468.354
1967 0 68.0472 12.6824 863 111.432 425.616 467.532
1968 0 70.0695 12.7588 894 111.983 425.876 465.23
1969 0 73.0713 12.4536 910 112.599 426.086 464.289
1970 0 77.1349 12.6402 975 111.909 425.593 464.634
1971 0 78.1258 13.6575 1067 110.757 425.629 461.746
1972 0 80.1138 12.5946 1009 114.895 425.893 461.707
1973 0 84.0661 11.4672 964 117.926 425.891 461.724
1974 0 86.0869 12.2667 1056 117.072 425.631 460.248
1975 0 90.0943 11.8986 1072 118.405 425.687 458.205
1976 0 94.0932 12.4876 1175 116.696 425.888 456.546
1977 0 97.1791 13.151 1278 112.919 424.778 451.988
1978 0 98.2709 11.9466 1174 117.148 424.352 449.835
1979 0 104.193 12.5056 1303 115.16 424.561 452.926
1980 1 52.129 11.2605 587 112.981 424.419 477.746
1981 0 55.0767 11.9833 660 112.764 424.486 474.479
1982 0 58.0205 12.1853 707 110.69 425.604 475.297
1983 0 60.0371 12.8254 770 108.834 425.296 474.453
1984 0 58.0259 11.5638 671 113.133 426.833 473.353
1985 0 61.0692 11.9864 732 111.926 427.243 472.664
1986 0 64.0758 12.7193 815 109.627 427.034 470.733
1987 0 64.0192 11.0748 709 114.901 426.932 470.99
1988 0 69.0553 12.9461 894 109.697 426.324 468.246
1989 0 71.054 12.1879 866 111.072 426.985 466.791
1990 0 72.0815 12.9159 931 110.75 426.953 464.739
1991 0 76.2562 12.5236 955 110.712 427.483 465.842
1992 0 78.0336 12.7253 993 112.027 426.696 463.491
1993 0 84.1217 14.0154 1179 107.869 426.65 461.089
1994 0 86.0806 12.8019 1102 112.309 427.091 460.469
1995 0 88.1931 12.3479 1089 113.414 427.281 458.39
1996 0 88.2171 12.3446 1089 143.364 427.259 458.394
1997 0 95.0914 12.6089 1199 113.351 426.799 456.741
1998 0 98.2424 11.5123 1131 116.901 426.86 455.825
1999 1 51.0508 12.086 617 118.256 427.327 475.715
2000 0 52.1038 12.2832 640 118.219 426.773 475.555
2001 0 54.0388 11.7878 637 119.016 426.984 475.642
2002 0 55.0612 12.5315 690 117.507 426.832 474.951
2003 0 56.0734 12.448 698 118.668 426.86 472.828
2004 0 58.139 12.4873 726 116.909 426.829 473.266
2005 0 58.0671 12.3995 720 118.228 427.31 472.882
2006 0 61.0731 12.1166 740 118.592 427.278 472.318
2007 0 63.1298 13.1 827 115.907 426.682 470.579
2008 0 67.1446 13.1805 885 114.282 426.947 469.583
2009 0 68.1951 13.0655 891 115.632 427.048 467.627
2010 0 69.1814 12.7057 879 116.455 426.726 465.772
2011 0 71.1761 12.6728 902 115.978 426.585 468.422
2012 0 74.294 14.5234 1079 111.31 426.392 466.554
2013 0 76.3204 12.4999 954 116.659 426.223 464.323
2014 0 79.4215 12.8303 1019 115.944 426.371 461.927
2015 0 80.2851 13.5268 1086 115.036 425.785 460.244
2016 0 84.2839 13.9647 1177 112.924 425.363 459.059
2017 0 85.3816 13.0005 1110 116.231 426.248 456.523
2018 0 89.3893 13.7265 1227 114.079 426.175 455.187
2019 0 89.3418 13.5995 1215 114.239 426.071 454.097
2020 0 96.4088 13.9925 1349 111.455 425.481 452.695
2021 0 98.3354 13.3319 1311 112.999 425.611 450.762
2022 0 99.311 12.7579 1267 115.008 425.32 450.526
2023 0 102.404 12.7436 1305 110.15 425.887 449.59
2024 1 57.2509 12.6112 722 108.632 426.13 469.256
2025 0 57.3287 11.1462 639 106.972 426.02 471.319
2026 0 61.1186 11.6331 711 103.205 426.156 472.174
2027 0 62.1146 12.7667 793 94.9874 426.924 467.946
2028 0 65.1781 11.8598 773 96.3273 426.938 467.736
2029 0 68.1849 12.4368 848 95.7677 426.685 466.821
2030 0 70.1324 11.7635 825 98.1079 426.572 466.864
2031 0 72.1436 11.3939 822 97.8321 426.655 465.854
2032 0 74.1353 11.2497 834 100.281 426.4 464.859
2033 0 77.3015 12.1602 940 98.2234 427.287 462.649
2034 0 79.0476 11.4614 906 99.2616 426.272 464.845
2035 0 83.1221 11.2605 936 100.247 425.732 461.671
2036 0 84.13 12.659 1065 97.8789 426.177 457.76
2037 0 88.0605 12.7072 1119 98.6568 425.84 459.318
2038 0 92.1443 12.7626 1176 98.75 426.315 457.728
2039 0 94.0585 12.0563 1134 100.729 426.375 455.454
2040 0 96.048 11.5463 1109 103.034 426.541 455.851
2041 0 100.125 11.5056 1152 103.003 426.721 455.687
2042 1 50.0866 11.3204 567 102.307 427.536 478.543
2043 0 52.1447 12.2544 639 100.718 426.57 476.186
2044 0 54.0848 13.257 717 98.8285 426.331 475.017
2045 0 56.1039 12.6551 710 99.7817 426.739 475.838
2046 0 57.0857 12.4024 708 102.387 426.946 474.253
2047 0 58.1115 11.8909 691 104.249 426.556 472.123
2048 0 60.0613 12.3207 740 102.516 426.345 473.38
2049 0 64.0685 12.4242 796 103.838 425.93 471.475
2050 0 67.0537 13.3326 894 100.843 426.535 468.55
2051 0 68.0707 12.8249 873 103.838 426.669 467.921
2052 0 69.0899 12.3896 856 105.766 426.564 468.158
2053 0 73.0271 13.4881 985 103.261 426.679 466.85
2054 0 75.0832 12.879 967 105.956 426.671 465.535
2055 0 79.1506 13.2785 1051 104.721 426.049 463.934
2056 0 80.122 12.9802 1040 106.708 425.715 463.238
2057 0 82.0534 12.1628 998 109.176 425.221 461.607
2058 0 86.1511 13.7433 1184 104.771 425.766 460.509
2059 0 91.26 13.4561 1228 105.305 425.565 458.038
2060 1 45.0536 12.3409 556 109.989 425.27 478.268
2061 0 47.077 11.8742 559 110.426 425.381 480.027
2062 0 49.0775 12.6942 623 110.665 425.926 477.944
2063 0 48.0181 12.9118 620 106.105 426 478.242
2064 0 50.0167 12.9357 647 104.403 426.238 477.739
2065 0 50.0147 12.2764 614 107.777 426.365 478.792
2066 0 52.086 13.2857 692 106.366 426.085 477.199
2067 0 52.0214 11.7836 613 111.489 426.651 477.093
2068 0 56.0384 12.0632 676 110.938 425.794 474.142
2069 0 58.0729 12.8976 749 108.959 425.463 473.834
2070 0 60.0846 12.8652 773 109.709 425.625 471.06
2071 0 60.0522 11.5067 691 113.928 425.459 472.282
2072 0 64.1311 13.6127 873 106.487 426.211 469.923
2073 0 66.1069 12.0411 796 110.773 425.607 469.382
2074 0 66.1164 11.9184 788 113.687 425.212 470.001
2075 0 71.1051 13.1777 937 112.757 425.146 468.383
2076 0 72.0551 12.8929 929 115.726 425.957 467.107
2077 0 75.1166 12.4473 935 117.624 425.359 466.295
2078 0 77.2327 13.0644 1009 116.614 424.764 465.472
2079 0 82.2838 13.8909 1143 114.662 425.283 463.342
2080 0 80.1342 13.3276 1068 118.91 425.325 461.72
2081 0 86.1731 14.262 1229 115.476 424.912 461.364
2082 0 87.2056 13.084 1141 119.685 424.984 461.158
2083 0 90.2437 13.1976 1191 123.532 425.151 459.776
2084 0 91.2281 12.2331 1116 124.305 424.781 456.54
2085 1 46.2529 13.1235 607 120.201 425.344 478.15
2086 0 47.064 12.4724 587 120.257 425.845 478.256
2087 0 50.0851 12.339 618 121.615 426.204 478.595
2088 0 49.06 11.0477 542 123.076 425.262 473.756
2089 0 51.0309 12.855 656 119.306 424.523 474.207
2090 0 54.0838 11.741 635 122.214 424.696 473.839
2091 0 55.044 12.0631 664 120.88 425.018 473.667
2092 0 56.1172 11.868 666 122.923 424.979 470.68
2093 0 59.1099 12.5698 743 121.117 425.394 468.46
2094 0 60.0896 12.5146 752 126.872 424.902 469.763
2095 0 63.0557 11.7991 744 124.714 425.085 469.137
2096 0 65.0801 12.8303 835 122.943 425.302 468.096
2097 0 66.1707 13.571 898 122.997 425.7 466.682
2098 0 66.1431 12.6846 839 128.174 425.013 465.508
2099 0 70.1389 12.9315 907 127.076 425.221 465.793
2100 0 72.2004 13.5456 978 127.222 424.307 461.462
2101 0 74.1346 13.6508 1012 128.034 424.307 461.092
2102 0 77.1591 13.6471 1053 128.632 424.676 459.176
2103 0 78.2417 13.241 1036 131.481 424.592 459.755
2104 0 81.1431 13.7658 1117 131.007 424.63 461.788
2105 0 85.1754 13.7129 1168 130.566 424.598 459.543
2106 0 87.2881 13.7132 1197 131.05 424.177 456.42
2107 0 89.2202 13.1136 1170 133.597 423.889 455.844
2108 0 92.2289 13.4556 1241 131.952 424.265 453.874
2109 1 50.2151 12.088 607 130.301 424.751 474.115
2110 0 51.1071 11.6618 596 130.977 424.129 474.733
2111 0 54.1731 13.42 727 125.341 424.466 474.56
2112 0 55.1279 13.2601 731 123.762 425.884 475.741
2113 0 57.1152 12.8337 733 125.263 425.364 473.69
2114 0 60.0512 13.6883 822 123.026 426.269 471.82
2115 0 60.0945 12.6634 761 125.886 426.105 471.951
2116 0 60.0945 12.6301 759 153.534 427.087 472.069
2117 0 66.0721 13.1372 868 122.895 425.849 470.356
2118 0 68.1028 14.0963 960 121.124 425.868 469.391
2119 0 70.1271 14.2313 998 122.58 425.011 465.914
2120 0 73.2099 13.113 960 125.865 425.552 465.315
2121 0 74.114 14.0055 1038 124.772 425.638 465.556
2122 0 76.0946 12.7473 970 127.854 425.501 464.024
2123 0 80.1146 13.7927 1105 125.071 425.588 461.769
2124 0 83.0714 13.2416 1100 124.988 425.615 460.703
2125 0 87.1918 14.2903 1246 120.665 425.082 458.21
2126 0 88.1541 13.1588 1160 123.076 425.339 457.991
2127 0 92.103 12.8877 1187 123.464 424.547 456.737
2128 1 49.0912 11.2444 552 120.915 424.763 479.543
2129 0 47.135 10.8624 512 124.539 424.072 476.432
2130 0 51.1827 12.6996 650 118.235 424.009 473.354
2131 0 51.0573 12.2607 626 121.22 424.871 471.281
2132 0 55.0585 13.3676 736 114.526 423.438 473.202
2133 0 56.0276 13.8325 775 112.475 424.608 474.594
2134 0 58.0398 13.4391 780 112.636 425.695 472.009
2135 0 58.0537 13.143 763 114.111 425.675 470.798
2136 0 62.0916 13.7378 853 111.016 425.423 471.366
2137 0 61.0721 12.7554 779 115.697 425.566 471.37
2138 0 66.1065 13.1152 867 112.584 425.087 469.687
2139 0 66.0826 12.7719 844 114.262 425.088 467.981
2140 0 70.1788 14.2493 1000 108.925 424.886 466.807
2141 0 71.1049 12.8964 917 113.412 424.955 465.402
2142 0 72.213 12.9755 937 113.192 424.747 465.658
2143 0 75.0831 13.0122 977 113.137 424.963 463.524
2144 0 78.24 13.3819 1047 111.326 424.518 463.833
2145 0 81.142 13.347 1083 111.627 424.483 461.006
2146 0 84.1768 12.9371 1089 112.471 424.237 460.691
2147 0 84.4297 12.1995 1030 114.777 424.211 459.289
2148 0 88.1688 12.7369 1123 112.703 424.573 457.477
2149 0 91.2253 13.1762 1202 112.052 424.404 457.134
2150 0 96.1682 14.0379 1350 108.994 423.727 454.376
2151 0 96.1682 14.1003 1356 123.336 423.693 454.363
2152 1 54.0602 14.1324 764 107.589 426.077 471.979
2153 0 52.0216 11.8605 617 117.154 425.292 473.807
2154 0 56.0389 13.2765 744 112.147 425.399 472.849
2155 0 57.0523 12.3921 707 114.574 425.173 470.276
2156 0 60.0726 13.5503 814 110.9 425.79 471.525
2157 0 59.1026 12.4868 738 115.293 425.93 469.18
2158 0 62.1493 12.8561 799 114.389 425.75 469.364
2159 0 65.0918 12.9048 840 113.929 425.421 466.618
2160 0 66.0352 12.357 816 116.186 425.801 466.849
2161 0 71.0983 14.1775 1008 110.825 425.432 466.488
2162 0 72.0487 13.6852 986 113.565 425.673 465.873
2163 0 75.0679 13.5211 1015 114.16 425.352 463.681
2164 0 80.0615 14.1516 1133 112.177 424.998 462.774
2165 0 81.1089 14.2401 1155 113.525 424.687 462.384
2166 0 84.1629 15.1729 1277 111.298 424.721 461.123
2167 0 87.0897 14.3071 1246 113.907 424.843 459.275
2168 0 87.084 13.5846 1183 117.478 424.727 459.28
2169 0 91.2991 15.2466 1392 112.931 424.116 456.634
2170 0 92.1789 13.604 1254 117.435 424.687 456.177
2171 0 97.1668 14.5111 1410 114.657 424.477 454.107
2172 1 52.1911 11.5729 604 110.018 425.075 474.536
2173 0 53.1756 11.2834 600 106.76 424.84 471.103
2174 0 54.0228 10.6251 574 106.202 424.998 473.814
2175 0 55.1409 12.4227 685 113.555 425.326 474.587
2176 0 57.1319 11.7097 669 115.006 425.725 473.964
2177 0 60.0233 12.2786 737 111.33 426.109 475.834
2178 0 63.0987 11.8703 749 113.899 425.542 472.649
2179 0 66.081 11.2286 742 113.609 425.485 473.536
2180 0 67.0851 11.8953 798 113.008 425.754 468.734
2181 0 72.0834 11.3896 821 111.437 425.392 470.512
2182 0 74.1052 12.2259 906 106.194 424.67 464.359
2183 0 77.0672 12.249 944 107.18 424.487 464.868
2184 0 78.121 12.327 963 109.058 424.618 461.82
2185 0 84.1563 12.0252 1012 107.719 424.324 459.659
2186 1 43.1499 9.80303 423 113.392 423.076 479.293
2187 0 46.0425 11.5763 533 114.64 422.912 477.396
2188 0 50.1059 12.8328 643 110.785 422.712 477.373
2189 0 49.0973 12.5873 618 112.888 423.356 478.691
2190 0 51.0571 12.8679 657 112.151 423.72 479.616
2191 0 53.1296 13.5329 719 111.769 423.381 476.213
2192 0 52.0459 12.489 650 119.065 423.092 475.385
2193 0 54.0384 12.8427 694 119.545 423.264 476.476
2194 0 56.0966 13.1915 740 118.277 424.009 475.57
2195 0 59.0547 12.988 767 117.887 424.089 474.6
2196 0 57.0391 11.2905 644 127.349 424.149 475.405
2197 0 60.0581 12.9375 777 122.992 423.95 473.906
2198 0 62.0772 11.9368 741 126.026 423.269 473.499
2199 0 64.0372 12.3522 791 126.174 423.215 472.163
2200 0 65.0724 11.5256 750 128.455 423.349 472.529
2201 0 67.0907 12.6247 847 128.244 423.116 468.988
2202 0 70.1153 12.8503 901 126.346 422.964 469.194
2203 0 70.219 11.749 825 130.12 422.73 469.539
2204 0 74.1177 12.8714 954 127.427 423.309 466.994
2205 0 77.2077 12.3822 956 128.771 423.929 464.589
2206 0 80.1025 13.4952 1081 126.218 423.722 465.054
2207 0 83.2284 13.0124 1083 128.201 423.89 462.471
2208 0 86.2014 12.32 1062 129.545 424.208 462.11
2209 0 88.1727 13.2921 1172 127.02 423.559 459.937
2210 0 90.1365 11.8931 1072 130.649 423.593 459.703
2211 1 50.0397 12.3902 620 128.785 423.332 478.482
2212 0 51.0468 12.2633 626 128.805 423.925 479.158
2213 0 52.1252 13.1223 684 132.069 423.667 474.811
2214 0 54.0659 12.8732 696 123.644 423.766 476.401
2215 0 56.0325 13.6349 764 121.042 423.267 476.004
2216 0 58.0588 13.5035 784 121.402 424.417 475.203
2217 0 58.13 12.1624 707 125.004 424.591 472.939
2218 0 61.0758 12.4599 761 123.57 424.518 470.884
2219 0 64.1318 13.6905 878 119.221 423.995 470.132
2220 0 66.1774 13.0558 864 121.801 424.315 470.157
2221 0 68.0903 13.3646 910 121.025 424.191 467.67
2222 0 70.1645 13.4969 947 119.24 423.756 466.849
2223 0 71.0264 13.1219 932 121.694 423.864 465.006
2224 0 75.1487 14.0787 1058 118.031 423.636 463.095
2225 0 78.0744 12.6418 987 121.081 424.543 465.109
2226 0 78.0604 12.8362 1002 122.05 424.565 461.845
2227 0 78.0604 12.7978 999 127.174 423.569 461.91
2228 0 84.1117 12.6261 1062 119.569 423.95 460.282
2229 0 86.1519 12.1762 1049 118.831 423.974 455.451
2230 0 91.1981 12.1055 1104 116.404 423.539 456.783
2231 0 91.0622 12.475 1136 118.413 424.324 453.882
2232 1 49.0654 11.7394 576 121.668 423.929 476.96
2233 0 50.1886 12.0944 607 119.331 424.381 474.186
2234 0 53.0417 11.2176 595 119.166 425.18 472.104
2235 0 55.1263 14.2037 783 111.829 425.225 471.124
2236 0 56.1344 12.2741 689 117.235 425.123 473.771
2237 0 56.0854 12.2313 686 117.915 424.309 472.765
2238 0 59.0966 12.3019 727 117.11 424.039 471.254
2239 0 61.1824 14.0563 860 112.335 424.87 470.984
2240 0 63.202 12.7844 808 115.796 424.564 467.521
2241 0 64.1282 12.3035 789 118.209 424.402 467.147
2242 0 67.1394 14.2241 955 113.714 424.429 465.114
2243 0 69.1728 12.9964 899 117.221 424.127 461.642
2244 0 72.246 13.2464 957 115.597 424.592 458.646
2245 0 76.3975 13.4167 1025 114.263 424.073 457.514
2246 0 76.2643 13.899 1060 114.794 424.457 456.475
2247 0 79.1497 12.9122 1022 117.561 424.47 458.32
2248 0 82.2916 13.3671 1100 117.059 424.295 456.747
2249 0 84.2211 12.7996 1078 119.237 423.953 452.04
2250 1 45.2056 12.5206 566 119.74 424.458 474.127
2251 0 45.1693 12.0879 546 121.628 424.557 473.112
2252 0 45.1141 11.3047 510 121.586 425.149 473.712
2253 0 47.1094 12.7575 601 118.058 424.201 473.647
2254 0 48.1392 12.1107 583 113.551 424.346 470.419
2255 0 50.0577 12.8652 644 113.14 424.747 471.253
2256 0 51.0398 12.7156 649 116.419 424.949 469.795
2257 0 54.0577 14.281 772 112.354 423.535 469.637
2258 0 54.0713 13.1678 712 117.177 424.093 471.131
2259 0 58.0781 13.4646 782 115.785 424.419 471.633
2260 0 58.0809 13.5328 786 117.267 424.322 470.748
2261 0 61.1524 13.9324 852 115.141 423.742 472.626
2262 0 61.0858 13.6202 832 117.172 423.637 472.377
2263 0 65.0196 15.1493 985 113.107 423.099 470.687
2264 0 67.0876 14.9357 1002 115.267 422.892 470.533
2265 0 67.0813 13.0737 877 122.055 422.154 471.333
2266 0 68.0735 12.0311 819 125.375 422.006 471.179
2267 0 70.0983 12.7393 893 124.744 422.017 470.826
2268 0 73.0484 13.183 963 122.98 421.402 470.539
2269 0 76.1122 13.7429 1046 122.163 421.342 469.797
2270 0 77.0465 13.732 1058 122.78 420.585 468.195
2271 0 81.1506 14.3683 1166 120.787 420.539 468.309
2272 0 80.1006 13.3208 1067 125.702 420.5 463.67
2273 0 85.0787 12.7411 1084 126.756 420.693 463.072
2274 0 87.0904 13.1243 1143 125.178 419.795 461.441
2275 0 92.1317 14.6421 1349 120.743 419.606 458.815
2276 0 94.1177 14.3119 1347 121.739 419.754 457.748
2277 0 95.1321 12.141 1155 127.681 419.54 458.654
2278 0 101.102 13.5209 1367 122.998 419.408 455.271
2279 0 103.106 13.4425 1386 123.869 418.551 454.797
2280 0 108.116 12.4126 1342 125.421 418.414 449.251
2281 1 58.0278 11.8564 688 126.275 417.719 471.48
2282 0 62.0653 12.084 750 126.339 418.381 476.212
2283 0 63.1071 12.5659 793 124.387 418.784 472.12
2284 0 69.1077 12.9653 896 120.532 418.186 470.532
2285 0 72.0709 13.5977 980 120.28 418.404 468.819
2286 0 72.1191 13.2559 956 121.45 419.062 467.157
2287 0 76.1111 13.7825 1049 116.922 418.442 466.083
2288 0 78.0775 13.192 1030 118.46 417.589 467.015
2289 0 80.191 12.146 974 122.21 417.965 465.64
2290 0 87.2052 13.6001 1186 117.096 418.498 466.594
2291 0 90.1828 13.8607 1250 118.35 418.503 464.14
2292 0 92.1481 13.717 1264 120.121 418.104 460.411
2293 0 96.0998 13.7461 1321 119.512 418.256 460.925
2294 0 98.1726 13.9346 1368 119.774 418.692 460.037
2295 0 101.12 12.8956 1304 122.827 418.443 454.33
2296 1 53.0753 10.3815 551 111.359 419.241 483.59
2297 0 54.072 10.6895 578 110.472 419.235 481.069
2298 0 57.0275 10.7317 612 109.882 418.471 478.624
2299 0 60.1071 11.7457 706 107.028 418.024 478.756
2300 0 64.1073 11.6055 744 107.718 418.711 475.547
2301 0 64.074 11.5179 738 108.211 418.745 473.522
2302 0 71.1889 14.8057 1054 108.409 419.949 479.558
2303 0 71.109 13.9504 992 112.708 419.226 477.942
2304 0 74.1046 13.4809 999 113.64 419.223 476.576
2305 0 77.1476 13.4029 1034 114.16 419.686 476.098
2306 0 79.0452 14.245 1126 113.409 419.287 474.918
2307 0 81.0955 12.9724 1052 116.293 419.178 474.931
2308 0 85.0948 14.1254 1202 114.114 418.705 471.26
2309 0 88.096 14.6999 1295 113.081 418.68 469.802
2310 0 90.1 12.7414 1148 119.482 418.527 468.976
2311 0 91.1505 14.0317 1279 116.312 418.554 466.389
2312 0 94.1081 14.1646 1333 115.974 418.355 467.959
2313 0 96.1694 13.3098 1280 118.904 418.434 465.436
2314 0 101.114 13.5194 1367 117.421 418.887 465.149
2315 0 103.13 13.0224 1343 118.825 418.649 461.107
2316 0 109.077 14.2101 1550 114.846 418.73 457.237
2317 0 110.192 13.5945 1498 116.302 418.144 457.945
2318 0 112.139 13.1355 1473 118.631 418.422 453.37
2319 0 121.236 13.2469 1606 116.1 418.296 453.151
2320 1 66.3534 10.7153 711 120.751 417.664 477.191
2321 0 67.3108 10.4292 702 122.775 417.536 473.876
2322 0 70.0795 12.2432 858 115.634 416.798 474.286
2323 0 73.0968 12.9828 949 113.963 417.424 470.349
2324 0 73.1306 11.6641 853 119.463 417.821 470.154
2325 0 78.1923 13.5819 1062 111.069 417.069 471.184
2326 0 79.228 13.4422 1065 113.712 417.209 470.84
2327 0 82.1908 12.8847 1059 116.524 417.218 467.524
2328 0 85.1677 13.127 1118 116.987 417.49 464.917
2329 0 86.1789 13.5532 1168 116.891 417.376 465.431
2330 0 88.239 12.0808 1066 122.826 417.505 462.808
2331 0 90.1641 11.7674 1061 120.96 419.769 465.291
2332 0 94.1053 11.5296 1085 118.769 418.234 463.561
2333 0 98.1043 12.1096 1188 116.626 418.588 461.819
2334 0 102.14 12.7375 1301 114.649 418.259 459.836
2335 0 103.139 12.1874 1257 117.389 417.827 456.385
2336 0 110.203 12.1866 1343 116.182 418.668 456.564
2337 0 113.468 14.0921 1599 116.533 419.705 448.918
2338 1 61.3828 12.6094 774 112.46 420.035 476.252
2339 0 61.3578 11.9463 733 114.986 420.045 475.146
2340 0 63.205 13.1952 834 113.448 418.99 474.053
2341 0 64.3333 12.2332 787 116.797 419.33 470.72
2342 0 67.2642 11.9231 802 115.608 420.113 472.182
2343 0 68.3285 11.7813 805 116.381 420.076 471.261
2344 0 71.054 12.0612 857 116.011 419.07 471.31
2345 0 73.1466 13.6575 999 112.721 418.672 467.442
2346 0 74.1644 13.1465 975 114.833 418.617 465.476
2347 0 76.2252 12.4893 952 116.886 418.806 464.695
2348 0 76.1178 12.2048 929 119.237 418.334 463.513
2349 0 79.1472 12.761 1010 118.132 418.518 460.661
2350 0 82.1888 12.4469 1023 117.612 419.409 461.061
2351 0 86.1081 13.7037 1180 114.728 419.891 460.197
2352 0 88.2132 14.9751 1321 112.011 419.784 457.763
2353 0 87.2235 12.4393 1085 120.303 419.508 453.852
2354 0 91.2012 12.9275 1179 118.671 420.258 456.566
2355 0 92.161 12.8471 1184 119.948 420.255 451.554
2356 0 95.0794 11.401 1084 118.715 420.864 454.756
2357 0 100.11 12.0068 1202 116.408 420.413 453.765
2358 0 101.081 12.1684 1230 117.794 420.193 446.855
2359 0 102.107 10.1854 1040 122.918 420.903 445.551
2360 0 108.117 11.4875 1242 120.305 420.787 442.059
2361 1 60.0476 8.65979 520 120.438 421.723 470.585
2362 0 64.1082 12.0577 773 112.044 422.863 468.869
2363 0 63.2475 11.0834 701 115.161 422.97 466.248
2364 0 69.3555 13.4957 936 109.66 423.019 464.975
2365 0 69.2559 11.2626 780 116.096 422.745 463.896
2366 0 69.2559 11.3492 786 135.296 422.747 463.971
2367 0 76.2902 11.6267 887 114.634 423.105 462.643
2368 0 76.2972 11.8746 906 114.227 422.864 462.167
2369 0 79.1852 12.376 980 113.716 422.618 459.877
2370 0 83.3558 12.9085 1076 110.986 422.924 460.568
2371 0 87.1895 13.3846 1167 110.56 423.117 459.697
2372 0 89.237 13.2344 1181 110.701 422.951 459.578
2373 0 88.2506 12.1699 1074 115.05 423.084 457.667
2374 0 92.3729 12.9475 1196 113.098 423.234 455.431
2375 0 95.2762 13.3087 1268 111.582 423.299 452.811
2376 0 99.2948 14.0189 1392 109.572 423.24 450.009
2377 0 100.28 13.0934 1313 111.327 422.891 452.298
2378 0 105.406 12.8171 1351 111.78 423.619 447.338
2379 1 58.2619 10.264 598 111.311 423.232 471.197
2380 0 60.1573 10.3562 623 105.587 422.78 470.183
2381 0 61.1878 12.0449 737 101.772 422.159 469.229
2382 0 62.2474 11.2615 701 104.058 422.92 467.641
2383 0 66.1907 11.8899 787 101.957 422.524 468.085
2384 0 67.1133 12.2927 825 101.895 422.899 467.264
2385 0 69.1777 12.4173 859 101.822 422.544 467.396
2386 0 72.2214 12.3232 890 102.384 422.412 464.819
2387 0 73.2932 11.338 831 104.404 422.856 466.657
2388 0 77.1388 13.0933 1010 100.699 422.664 463.703
2389 0 78.2378 11.7079 916 104.246 422.447 463.477
2390 0 81.217 13.3593 1085 101.696 424.247 460.641
2391 0 83.1662 12.5532 1044 103.998 424.58 458.891
2392 0 86.1171 12.7501 1098 104.234 424.341 457.004
2393 0 89.1794 10.8209 965 108.027 423.264 455.348
2394 0 89.1794 10.8545 968 126.915 422.255 455.31
2395 0 96.1357 12.2847 1181 104.421 423.599 455.941
2396 0 99.2814 14.0711 1397 101.209 423.084 453.218
2397 0 99.2814 12.3084 1222 107.758 423.621 452.764
2398 0 102.269 13.5525 1386 107.121 423.359 449.829
2399 0 109.212 13.4235 1466 105.271 423.372 449.609
2400 0 110.214 13.2923 1465 107.001 423.196 445.881
2401 0 113.167 12.159 1376 110.201 423.679 445.567
2402 0 118.268 12.2349 1447 109.762 423.871 442.915
2403 1 62.0662 11.7455 729 108.66 424.658 471.243
2404 0 63.1404 10.0886 637 112.485 421.276 468.793
2405 0 67.0585 11.1992 751 111.372 421.635 468.377
2406 0 69.0716 12.4074 857 109.348 421.608 469.008
2407 0 72.1601 12.6386 912 111.65 422.341 465.144
2408 0 74.2381 13.4298 997 109.804 422.236 464.033
2409 0 76.204 11.6004 884 114.041 421.974 463.654
2410 0 80.1477 12.8388 1029 109.521 422.583 463.395
2411 0 82.2195 12.6247 1038 110.02 422.293 462.867
2412 0 82.1984 11.9102 979 112.499 422.687 460.203
2413 0 87.1193 12.9133 1125 109.522 422.558 459.64
2414 0 90.2965 13.1677 1189 108.401 422.091 459.6
2415 0 93.2749 13.9802 1304 106.882 422.033 457.357
2416 0 96.3025 14.6102 1407 105.823 422.337 453.606
2417 0 99.5342 13.8646 1380 106.724 422.245 453.266
2418 0 102.557 14.5383 1491 104.144 422.506 451.278
2419 0 104.401 13.8409 1445 106.639 423.314 451.372
2420 0 107.336 13.0618 1402 105.449 423.384 447.777
2421 0 110.122 12.477 1374 99.7132 424.188 450.217
2422 0 116.14 13.0274 1513 97.3232 424.25 448.992
2423 0 117.086 12.0766 1414 100.254 423.825 446.75
2424 1 64.0532 10.8972 698 101.255 424.655 473.13
2425 0 68.0442 13.0062 885 99.6814 423.965 467.45
2426 0 68.1321 13.0482 889 100.246 425.227 468.813
2427 0 71.1045 12.7699 908 100.478 424.873 467.41
2428 0 72.1233 12.8253 925 100.719 425.043 466.65
2429 0 71.1094 12.6706 901 103.05 424.942 464.275
2430 0 75.1238 13.7773 1035 100.136 424.463 463.323
2431 0 75.1113 13.0606 981 102.429 424.745 463.908
2432 0 80.1318 13.6775 1096 100.412 424.003 460.794
2433 0 81.0788 13.5547 1099 101.73 424.246 460.582
2434 0 81.0474 11.8079 957 106.409 424.231 459.897
2435 0 84.2005 12.2565 1032 105.426 423.625 459.112
2436 0 88.1767 14.1421 1247 101.079 424.203 455.877
2437 0 89.0973 12.5481 1118 106.914 424.17 453.795
2438 0 94.115 12.9522 1219 105.276 424.172 456.283
2439 0 96.084 13.9461 1340 104.458 423.979 452.561
2440 1 51.0288 11.4249 583 108.659 424.59 472.259
2441 0 51.0368 10.7373 548 110.757 425.004 473.976
2442 0 52.0942 10.9993 573 107.545 423.19 465.792
2443 0 55.0411 11.5005 633 110.673 424.498 469.259
2444 0 57.0558 12.1285 692 109.127 424.405 473.981
2445 0 60.0915 12.1315 729 107.785 423.955 472.937
2446 0 60.1196 12.6082 758 108.58 423.991 470.199
2447 0 63.1269 13.0689 825 107.023 423.862 468.842
2448 0 64.102 11.8405 759 110.233 424.013 467.875
2449 0 66.0815 12.3938 819 108.548 423.786 470.316
2450 0 67.1643 12.8193 861 109.203 423.757 465.92
2451 0 71.1641 13.1527 936 107.706 423.719 466.145
2452 0 71.0812 13.4213 954 109.242 423.231 465.492
2453 0 75.0764 13.9325 1046 107.051 423.708 464.591
2454 0 78.0492 15.0802 1177 103.483 423.634 464.123
2455 0 81.087 13.393 1086 108.036 424.255 462.595
2456 0 84.092 15.1976 1278 103.379 423.526 461.891
2457 0 86.07 14.0002 1205 106.586 423.596 459.693
2458 0 88.1814 13.4836 1189 108.047 424.227 456.545
2459 0 92.0681 14.0983 1298 105.814 423.289 455.935
2460 0 96.0889 14.2576 1370 106.645 422.842 454.268
2461 0 98.1502 13.4182 1317 108.433 423.473 450.468
2462 1 48.1385 10.3036 496 114.837 424.361 474.345
2463 0 48.1472 10.2187 492 145.709 424.352 474.327
2464 0 54.1031 12.2359 662 112.645 424.396 473.656
2465 0 57.107 12.5379 716 111.035 423.633 474.522
2466 0 56.1425 11.8092 663 115.388 423.13 471.603
2467 0 59.1678 12.7941 757 112.61 423.252 470.548
2468 0 62.0771 13.0644 811 111.762 422.926 468.49
2469 0 59.1564 12.8811 762 115.091 423.543 467.877
2470 0 64.1056 14.3201 918 110.594 423.492 467.844
2471 0 64.079 12.2973 788 115.425 423.352 465.925
2472 0 67.0436 13.3346 894 112.579 423.148 463.705
2473 0 71.1145 13.8931 988 110.282 423.262 464.039
2474 0 73.1227 14.5372 1063 109.554 422.896 464.514
2475 0 74.1034 14.021 1039 112.267 422.772 461.545
2476 0 77.0673 13.5206 1042 113.351 423.344 461.466
2477 0 79.1301 13.3451 1056 114.952 423.211 460.158
2478 0 80.0675 12.8641 1030 116.83 423.116 459.832
2479 0 83.0822 13.0955 1088 116.192 423.558 458.094
2480 0 85.3913 13.7836 1177 116.469 423.994 454.233
2481 0 89.3068 14.2318 1271 115.488 423.665 454.991
2482 0 89.3877 14.521 1298 115.961 423.73 453.659
2483 0 92.3606 12.8951 1191 118.206 423.909 450.95
2484 0 94.1298 12.1428 1143 116.325 423.734 450.682
2485 0 99.3043 11.9632 1188 116.495 423.737 449.484
2486 0 100.176 11.3999 1142 120.129 424.086 447.053
2487 0 104.199 13.1096 1366 116.312 423.789 446.443
2488 0 108.213 13.1038 1418 117.546 424.017 443.665
2489 1 61.2252 9.99588 612 116.016 424.258 466.176
2490 0 63.2365 11.6072 734 117.124 423.861 465.676
2491 0 67.2432 12.5961 847 114.447 424.805 464.727
2492 0 68.121 12.3016 838 121.092 425.61 462.854
2493 0 73.1262 12.4989 914 120.14 425.328 462.033
2494 0 73.1611 12.3836 906 122.13 424.607 461.768
2495 0 75.1138 13.2998 999 121.697 424.681 460.205
2496 0 78.2089 12.6584 990 125.103 424.268 458.525
2497 0 80.1523 13.8611 1111 123.561 424.308 455.423
2498 0 82.1649 13.3512 1097 125.82 424.767 457.596
2499 0 87.1557 12.7702 1113 126.908 424.446 457.799
2500 0 88.0968 13.1446 1158 127.453 424.841 456.558
2501 0 90.0956 13.4191 1209 128.764 425.269 454.414
2502 0 94.0823 14.3172 1347 126.336 424.264 453.195
2503 0 94.0883 13.6255 1282 129.82 424.35 451.234
2504 0 97.104 12.4609 1210 129.43 424.56 451.842
2505 0 99.1922 13.3075 1320 130.358 424.546 449.037
2506 0 104.214 13.693 1427 130.755 424.715 446.352
2507 0 107.153 13.5414 1451 131.447 424.383 445.226
2508 1 63.0918 11.9033 751 128.712 425.162 469.196
2509 0 65.239 12.4159 810 125.202 425.01 468.972
2510 0 66.063 12.8211 847 121.405 425.423 467.999
2511 0 66.1213 12.3258 815 124.418 425.405 465.729
2512 0 71.0914 12.9833 923 121.092 425.039 464.534
2513 0 71.0905 11.4924 817 125.759 424.881 463.12
2514 0 75.1991 13.6438 1026 119.234 425.355 463.466
2515 0 75.0872 12.1991 916 125.592 425.118 460.874
2516 0 79.0816 12.8981 1020 123.408 424.581 459.282
2517 0 82.1634 13.3271 1095 122.237 424.21 460.867
2518 0 83.1956 13.0776 1088 124.374 424.735 457.481
2519 0 86.3144 12.8252 1107 126.268 424.696 456.072
2520 0 89.153 12.5851 1122 126.496 424.879 454.813
2521 0 93.1219 13.3159 1240 123.772 424.081 452.631
2522 0 95.1909 13.0895 1246 125.621 424.537 449.82
2523 0 96.1627 12.6868 1220 128.36 424.514 447.725
2524 0 101.133 12.7456 1289 129.615 425.101 445.573
2525 0 107.094 13.1754 1411 126.901 424.662 443.6
2526 1 58.0515 11.2314 652 129.325 425.531 466.518
2527 0 59.073 10.9864 649 127.344 425.616 466.815
2528 0 61.0577 11.2844 689 128.164 425.515 465.559
2529 0 64.0819 10.9235 700 117.159 425.844 465.71
2530 0 65.0789 11.2786 734 116.39 425.105 465.173
2531 0 68.0497 12.1823 829 113.554 425.005 462.496
2532 0 71.0894 11.7036 832 111.044 425.412 461.722
2533 0 71.0494 11.0064 782 114.006 424.857 459.21
2534 0 73.0707 11.8378 865 114.558 425.725 459.43
2535 0 77.169 11.8441 914 113.573 425.231 458.536
2536 0 80.12 12.5312 1004 111.301 424.851 459.877
2537 0 80.1258 11.8189 947 114.86 425.287 457.549
2538 0 84.1499 12.965 1091 111.752 424.934 458.19
2539 0 86.1289 12.8993 1111 112.632 424.899 453.593
2540 0 89.1039 12.3339 1099 114.388 424.971 453.044
2541 0 90.1062 12.5186 1128 114.967 424.782 452.153
2542 0 92.1237 12.0924 1114 116.417 425.196 447.48
2543 0 97.1718 12.4625 1211 114.171 424.779 448.614
2544 0 97.1404 12.4562 1210 114.94 425.028 444.43
2545 0 101.205 12.8057 1296 114.355 425.077 443.663
2546 0 105.14 13.8577 1457 111.638 425.565 443.711
2547 0 107.133 12.0504 1291 116.647 425.63 442.738
2548 0 109.158 12.5598 1371 117.099 425.858 441.972
2549 1 61.1411 9.24093 565 116.444 425.005 466.347
2550 0 63.0864 10.3667 654 119.09 424.026 462.047
2551 0 65.0788 10.0186 652 115.452 425.184 456.957
2552 0 67.1916 11.5788 778 111.977 424.878 454.317
2553 0 70.2101 10.4971 737 115.582 424.554 453.598
2554 0 72.2558 12.1374 877 112.228 424.497 450.518
2555 0 76.2204 12.5688 958 110.119 425.02 451.697
2556 0 78.2759 11.7916 923 112.534 423.574 449.327
2557 0 82.2144 11.9079 979 111.185 423.798 447.716
2558 0 82.189 11.2424 924 113.203 424.18 445.135
2559 0 87.1523 11.7151 1021 110.16 423.765 449.257
2560 0 89.2938 11.6581 1041 111.222 424.231 445.962
2561 0 94.3395 12.667 1195 108.248 424.604 443.953
2562 0 96.3601 12.007 1157 108.026 423.723 445.271
2563 0 98.232 12.5621 1234 108.641 423.502 443.414
2564 0 99.2629 11.6559 1157 111.469 423.508 441.69
2565 0 103.149 12.1088 1249 110.39 424.757 444.606
2566 0 107.158 12.6728 1358 107.976 424.314 445.787
2567 0 110.423 14.5079 1602 103.682 423.511 437.443
2568 0 112.411 12.9969 1461 108.108 423.083 434.089
2569 0 116.331 14.0203 1631 104.801 423.487 433.028
2570 0 121.388 12.4724 1514 107.282 423.637 431.513
2571 0 126.247 12.5627 1586 106.526 423.634 431.136
2572 0 130.352 12.1747 1587 106.87 423.773 429.79
2573 0 134.318 13.5574 1821 104.922 423.801 424.302
2574 0 138.376 12.2276 1692 107.594 423.949 424.94
2575 1 71.1293 11.1065 790 99.5089 424.418 455.62
2576 0 74.1937 11.4565 850 101.851 423.986 454.4
2577 0 77.2285 11.0581 854 97.4098 424.124 453.463
2578 0 77.1028 10.0904 778 100.528 424.699 451.156
2579 0 80.0981 11.2987 905 97.4055 424.158 450.356
2580 0 81.1198 9.98524 810 101.584 424.681 447.546
2581 0 82.1125 11.2285 922 100.603 424.154 445.706
2582 0 82.0712 12.4526 1022 99.092 424.448 443.803
2583 0 90.0992 11.9979 1081 98.913 425.13 450.014
2584 0 91.1459 10.2583 935 102.386 425.502 450.675
2585 0 94.1656 12.5524 1182 99.0533 425.166 449.25
2586 0 97.0936 10.6186 1031 101.941 424.409 448.481
2587 0 99.1168 12.2684 1216 100.22 425.007 444.451
2588 0 103.164 12.1167 1250 101.211 425.221 442.782
2589 0 106.294 11.3929 1211 103.353 425.249 442.132
2590 0 107.177 10.4593 1121 105.942 424.946 437.417
2591 0 111.17 12.1255 1348 103.154 424.473 438.081
2592 0 115.107 11.3547 1307 104.41 423.59 438.526
2593 0 119.115 11.1741 1331 104.491 424.007 436.772
2594 0 124.169 11.9434 1483 103.748 424.075 436.145
2595 0 130.192 11.3063 1472 105.092 424.325 433.844
2596 1 69.0698 11.3508 784 99.648 424.005 461.258
2597 0 71.0832 12.2673 872 98.7431 423.865 459.398
2598 0 76.0487 12.5051 951 98.3039 423.331 459.65
2599 0 75.2399 11.882 894 101.149 423.167 455.538
2600 0 79.1603 12.7842 1012 98.7174 423.447 457.283
2601 0 81.1483 12.3108 999 100.854 423.697 453.638
2602 0 83.0685 12.9532 1076 100.064 422.821 453.661
2603 0 87.0676 12.6224 1099 100.71 423.328 453.229
2604 0 89.1131 12.7815 1139 101.482 422.938 450.267
2605 0 93.1541 13.1717 1227 99.8517 423.348 449.29
2606 0 95.1768 12.8918 1227 101.765 423.394 448.405
2607 0 96.0817 12.7496 1225 102.496 423.507 446.756
2608 0 102.051 13.4344 1371 100.377 423.525 447.759
2609 0 102.146 11.5814 1183 106.061 424.057 445.794
2610 0 107.254 12.531 1344 103.905 423.959 446.06
2611 0 110.17 12.7984 1410 103.973 423.862 443.724
2612 0 114.152 12.0979 1381 104.686 424.091 444.29
2613 0 118.099 13.5226 1597 102.131 423.899 441.125
2614 0 120.125 12.7284 1529 104.531 424.266 438.88
2615 0 125.219 13.7758 1725 101.71 424.374 436.379
2616 0 127.212 12.8761 1638 105.321 424.052 432.007
2617 0 133.157 11.7831 1569 106.489 423.567 434.83
2618 1 75.1668 10.4701 787 105.658 424.355 463.166
2619 0 77.1063 11.0367 851 105.532 424.837 457.656
2620 0 81.1912 12.5383 1018 102.115 424.574 458.112
2621 0 80.087 12.2617 982 104.415 425.611 457.336
2622 0 84.1775 13.3646 1125 101.54 425.265 458.77
2623 0 87.0583 12.5893 1096 103.345 425.244 458.273
2624 0 89.1515 12.3946 1105 105.047 424.271 455.341
2625 0 94.2764 13.9165 1312 100.76 423.678 453.271
2626 0 94.2899 14.1266 1332 101.899 423.789 450.742
2627 0 99.2373 13.4627 1336 103.93 423.852 450.201
2628 0 101.171 13.6995 1386 102.679 424.19 446.061
2629 0 96.07 11.6998 1124 104.359 424.389 440.915
2630 0 103.089 13.4156 1383 101.239 424.036 440.654
2631 0 108.084 13.6098 1471 102.075 423.793 441.867
2632 0 110.175 13.0883 1442 104.596 423.61 441.54
2633 0 113.224 12.9478 1466 105.525 422.975 440.347
2634 0 117.225 12.9665 1520 106.279 423.078 433.805
2635 0 117.272 11.7079 1373 110.48 422.794 435.095
2636 0 124.231 11.5269 1432 110.163 422.84 431.837
2637 0 129.12 11.3538 1466 111.317 422.593 429.086
2638 1 70.0731 10.2607 719 105.491 423.036 458.771
2639 0 72.1817 11.9144 860 102.223 421.877 459.74
2640 0 77.2814 10.727 829 102.616 422.188 459.062
2641 0 78.0607 11.5423 901 101.149 423.366 458.33
2642 0 79.1252 10.793 854 104.094 423.22 457.504
2643 0 85.0575 12.4622 1060 99.316 422.674 456.91
2644 0 85.1493 11.1921 953 102.44 422.571 452.422
2645 0 86.0833 10.7919 929 103.243 421.801 453.279
2646 0 89.1393 10.0293 894 104.326 421.917 452.677
2647 0 94.1417 12.5555 1182 99.8629 422.014 451.514
2648 0 97.2672 13.2522 1289 107.24 421.211 454.906
2649 0 101.239 13.2854 1345 106.953 421.683 451.779
2650 0 104.246 12.4993 1303 109.275 421.624 448.307
2651 0 109.27 14.3223 1565 103.754 422.311 447.794
2652 0 112.276 14.402 1617 104.285 421.631 444.544
2653 0 116.29 13.3718 1555 106.436 421.559 444.458
2654 1 62.1792 11.3543 706 109.171 421.805 467.663
2655 0 64.1967 10.7482 690 105.82 421.69 464.623
2656 0 65.1793 11.3686 741 104.787 421.355 463.555
2657 0 66.0715 12.4108 820 94.6427 421.967 465.174
2658 0 68.08 11.8096 804 96.551 422.494 463.8
2659 0 71.0657 11.3698 808 98.6955 422.786 459.314
2660 0 73.045 11.1575 815 98.9387 422.242 458.589
2661 0 75.1153 10.9698 824 98.693 422.33 459.028
2662 0 78.1072 11.1769 873 98.7446 422.895 454.514
2663 0 81.0838 11.6546 945 98.1143 422.563 453.952
2664 0 83.0667 12.0626 1002 97.9711 422.3 454.881
2665 0 87.1111 12.2717 1069 97.247 422.683 454.722
2666 0 87.1276 12.3612 1077 99.2173 421.947 450.519
2667 0 93.0502 12.8963 1200 104.545 422.37 457.401
2668 0 96.1045 12.3511 1187 106.713 422.858 454.43
2669 0 97.1191 11.5631 1123 109.837 422.777 452.463
2670 0 101.199 12.678 1283 107.981 423.242 452.952
2671 0 101.165 11.9013 1204 109.92 422.926 451.605
2672 1 58.0298 11.4424 664 105.2 423.986 476.313
2673 0 59.0755 11.1044 656 109.5 421.977 474.845
2674 0 59.2459 12.1021 717 114.584 422.353 468.008
2675 0 63.1343 12.4972 789 113.039 422.981 469.523
2676 0 65.0931 11.1993 729 115.62 423.61 470.705
2677 0 68.0719 12.1783 829 113.03 423.214 468.709
2678 0 70.1331 11.9915 841 113.184 423.411 468.234
2679 0 75.143 12.2832 923 112.753 423.174 466.776
2680 0 73.3099 11.7037 858 116.732 422.634 465.492
2681 0 79.2416 13.3516 1058 111.632 422.442 464.634
2682 0 83.2759 11.8642 988 115.546 422.883 463.522
2683 0 82.1516 12.6595 1040 114.422 422.061 463.387
2684 0 85.2121 13.0615 1113 114.415 422.599 461.139
2685 0 87.2429 13.3306 1163 114.003 422.216 458.835
2686 0 89.1564 14.5699 1299 113.024 421.906 457.32
2687 0 88.2913 13.2856 1173 117.702 421.67 457.246
2688 0 93.2932 14.5455 1357 114.458 422.046 454.703
2689 0 95.2097 12.7403 1213 120.434 421.876 452.373
2690 0 98.2004 13.1873 1295 118.95 422.384 454.403
2691 0 101.254 14.3797 1456 116.998 422.212 452.508
2692 0 101.204 13.705 1387 119.676 422.891 452.284
2693 0 105.241 14.2625 1501 119.561 422.219 448.272
2694 0 106.106 13.675 1451 121.842 422.417 448.068
2695 0 111.206 13.7493 1529 122.171 422.091 444.566
2696 0 113.111 13.6062 1539 122.802 421.942 444.699
2697 0 120.224 14.3482 1725 119.149 422.316 443.515
2698 0 120.156 12.6669 1522 124.848 422.409 441.279
2699 0 127.134 12.6638 1610 116.6 422.809 437.837
2700 1 72.0353 10.4116 750 114.668 423.192 468.004
2701 0 73.0673 11.4141 834 114.423 422.35 466.353
2702 0 78.0845 12.3328 963 111.795 422.259 463.654
2703 0 80.084 12.8365 1028 110.598 421.946 463.505
2704 0 81.0691 12.2365 992 113.143 422.441 460.546
2705 0 88.2064 13.4117 1183 106.101 421.673 455.851
2706 0 87.129 12.7397 1110 110.639 422.033 456.867
2707 0 88.1738 12.6228 1113 111.349 422.082 455.026
2708 0 92.08 13.2928 1224 109.176 422.083 456.66
2709 0 96.2102 13.5225 1301 109.148 421.979 453.21
2710 0 97.1384 11.3755 1105 113.871 421.919 452.524
2711 0 100.074 12.8005 1281 109.715 422.329 449.403
2712 0 101.084 12.1384 1227 107.284 423.295 446.072
2713 0 105.116 12.6432 1329 106.615 423.035 442.371
2714 0 106.126 11.2319 1192 111.464 422.745 439.574
2715 0 111.136 13.092 1455 107.933 422.608 437.185
2716 0 114.249 13.3918 1530 107.066 422.668 435.929
2717 0 119.153 12.3539 1472 109.056 423.792 435.02
2718 1 63.0958 10.175 642 105.994 423.712 461.875
2719 0 65.2077 10.0448 655 111.737 422.594 456.247
2720 0 67.0681 9.81093 658 105.789 423.511 459.208
2721 0 70.0922 10.3578 726 104.263 423.431 458.802
2722 0 72.1844 11.1936 808 102.298 423.167 459.226
2723 0 76.1399 11.3081 861 101.111 423.071 457.889
2724 0 78.0816 10.9885 858 102.033 423.678 457.748
2725 0 80.1511 11.5282 924 101.042 423.512 456.193
2726 0 83.1192 10.7196 891 101.309 423.828 451.236
2727 0 86.1212 11.3677 979 100.279 423.22 451.216
2728 0 88.2121 11.8011 1041 100.048 422.856 453.184
2729 0 90.1049 12.3301 1111 99.4536 422.611 449.018
2730 0 94.1369 11.3027 1064 101.222 423.728 450.07
2731 0 96.1582 11.3771 1094 101.78 423.378 445.557
2732 0 99.1569 12.0819 1198 100.233 422.684 441.673
2733 0 99.1053 11.4626 1136 102.728 422.78 442.964
2734 0 98.0525 9.49492 931 108.153 423.311 441.28
2735 0 104.144 10.8696 1132 106.521 422.932 439.017
2736 0 105.099 10.8755 1143 108.734 422.984 433.452
2737 0 116.197 10.7404 1248 107.202 422.643 437.262
2738 1 67.085 9.8979 664 107.092 423.498 460.221
2739 0 69.0458 10.8913 752 108.319 424.339 458.926
2740 0 73.0644 11.4009 833 105.215 423.875 456.157
2741 0 75.0937 12.0782 907 104.789 424.039 458.947
2742 0 77.0805 11.5334 889 105.441 423.713 458.49
2743 0 83.0548 12.6543 1051 103.317 423.74 455.66
2744 0 83.1047 12.1052 1006 106.24 423.976 454.471
2745 0 87.0758 12.357 1076 106.743 424.147 451.833
2746 0 88.1616 11.1046 979 110.604 424.257 449.533
2747 0 91.1124 11.9852 1092 110.005 424.217 447.386
2748 0 95.1338 12.0882 1150 109.926 423.96 447.025
2749 0 98.1839 12.5071 1228 108.847 423.672 447.177
2750 0 102.364 12.1332 1242 109.719 424.304 443.848
2751 0 106.11 14.3531 1523 104.001 423.963 444.568
2752 0 111.109 11.8352 1315 109.84 424.459 441.871
2753 0 111.22 13.0282 1449 111.328 423.763 439.152
2754 1 59.0775 11.9842 708 105.627 424.145 467.388
2755 0 63.1445 11.7667 743 107.743 423.572 463.894
2756 0 65.0765 11.7093 762 106.713 423.224 462.312
2757 0 67.1167 11.7109 786 100.074 424.475 463.156
2758 0 68.0841 12.1761 829 98.4596 424.491 462.21
2759 0 71.1068 11.5179 819 100.156 424.451 461.695
2760 0 73.0651 11.9893 876 98.6986 423.944 460.686
2761 0 76.0685 12.4756 949 97.9547 424.276 459.778
2762 0 78.0466 12.2235 954 99.3574 424.45 460.616
2763 0 82.0639 13.4164 1101 101.869 423.652 462.355
2764 0 85.0927 12.3395 1050 103.766 423.45 460.88
2765 0 88.1478 12.8874 1136 103.166 423.787 456.977
2766 0 89.1494 12.3052 1097 104.789 423.619 458.101
2767 0 93.0986 13.1796 1227 102.997 423.296 454.717
2768 0 93.097 13.1368 1223 123.486 423.283 454.667
2769 0 101.126 12.7267 1287 106.878 423.317 453.143
2770 0 102.163 13.1066 1339 106.698 423.206 452.033
2771 0 110.137 13.8827 1529 102.589 424.179 446.757
2772 1 58.1014 11.5143 669 106.688 424.422 475.302
2773 0 59.1025 10.9471 647 110.133 423.688 472.513
2774 0 62.1083 12.9934 807 105.04 423.679 471.004
2775 0 61.1424 11.2524 688 108.562 424.356 471.371
2776 0 62.113 12.0587 749 107.303 424.338 468.312
2777 0 67.0766 13.1939 885 103.98 423.554 467.114
2778 0 70.0487 13.0338 913 103.272 424.212 468.575
2779 0 71.1493 13.5771 966 102.578 423.858 465.708
2780 0 72.1767 12.7881 923 105.557 424.05 465.092
2781 0 75.0815 13.4521 1010 104.017 423.76 463.796
2782 0 77.0808 13.4015 1033 105.037 423.86 462.845
2783 0 80.09 12.9729 1039 105.795 423.734 459.965
2784 0 85.058 14.3784 1223 102.63 423.439 461.869
2785 0 85.1297 13.9082 1184 105.595 423.699 458.097
2786 0 88.065 13.2629 1168 107.635 423.183 460.306
2787 0 91.1436 15.9199 1451 102.464 423.754 456.688
2788 0 93.1437 13.7315 1279 108.312 423.56 455.014
2789 0 96.0999 14.4433 1388 106.684 423.637 453.535
2790 0 98.1624 14.5677 1430 106.929 423.88 450.813
2791 0 102.14 15.2634 1559 104.631 422.978 450.689
2792 1 53.1993 12.5378 667 110.634 423.661 469.196
2793 0 56.2525 11.8395 666 107.164 422.452 470.006
2794 0 57.121 13.9879 799 103.133 423.045 474.869
2795 0 57.0375 12.1324 692 106.379 424.075 476.123
2796 0 60.1186 12.8579 773 102.862 423.624 467.534
2797 0 61.0869 11.6555 712 105.053 423.111 469.976
2798 0 64.136 12.4579 799 109.214 422.773 473.314
2799 0 67.117 12.724 854 109.475 423.076 472.115
2800 0 69.0789 13.6655 944 110.974 422.698 470.962
2801 0 70.0504 13.8043 967 112.518 422.337 468.616
2802 0 74.0745 14.1749 1050 113.176 422.688 464.712
2803 0 76.1315 13.7919 1050 114.589 422.683 466.139
2804 0 79.0468 13.8905 1098 113.785 422.432 465.932
2805 0 83.1714 14.1756 1179 113.71 422.045 462.299
2806 0 84.0817 14.4621 1216 114.085 422.01 461.419
2807 0 86.0876 13.3353 1148 117.56 422.386 459.673
2808 0 89.05 13.8911 1237 116.483 422.74 459.144
2809 0 92.0851 13.6613 1258 117.014 422.428 457.372
2810 0 94.0848 14.0618 1323 116.518 422.212 456.497
2811 0 96.1038 13.3397 1282 118.712 421.752 453.175
2812 0 100.119 13.3542 1337 116.489 422.159 454.553
2813 0 103.147 14.0867 1453 114.793 422.382 451.579
2814 0 107.126 13.6942 1467 115.491 422.119 448.998
2815 1 64.0426 13.085 838 116.442 422.406 469.226
2816 0 66.0687 13.3043 879 116.422 422.465 468.861
2817 0 68.1182 13.0655 890 117.209 421.991 467.826
2818 0 71.1022 14.219 1011 112.22 422.287 468.651
2819 0 73.0928 14.0233 1025 113.735 421.786 465.691
2820 0 74.0825 14.4299 1069 113.074 422.181 465.46
2821 0 77.0648 14.1829 1093 112.811 421.901 464.568
2822 0 80.1177 14.2291 1140 113.167 422.16 462.171
2823 0 83.0751 14.1799 1178 112.506 422.39 461.28
2824 0 84.1018 14.4587 1216 113.448 421.858 458.498
2825 0 87.2362 14.1111 1231 113.804 421.769 457.474
2826 0 88.2733 14.2852 1261 113.404 422.036 452.695
2827 0 92.3112 13.422 1239 115.203 422.294 450.447
2828 0 96.1991 15.1769 1460 110.656 422.475 449.615
2829 0 99.158 13.8668 1375 113.74 422.247 447.944
2830 0 103.143 13.8448 1428 113.453 422.239 446.011
2831 0 107.238 13.8477 1485 112.299 422.69 445.572
2832 1 59.0729 11.3758 672 112.051 422.21 468.68
2833 0 61.0862 11.0991 678 110.454 422.568 467.742
2834 0 64.1293 11.6328 746 107.812 422.433 466.788
2835 0 67.0569 12.7205 853 101.77 422.884 465.88
2836 0 69.176 13.1404 909 102.227 422.714 462.923
2837 0 72.1349 12.0469 869 105.293 422.857 459.663
2838 0 73.1102 11.7084 856 106.402 422.235 460.513
2839 0 74.1002 12.2132 905 107.193 422.439 458.523
2840 0 79.2822 12.2222 969 106.375 422.388 458.777
2841 0 81.2265 13.0992 1064 105.254 422.34 454.825
2842 0 84.1094 12.1152 1019 108.788 422.195 453.684
2843 0 86.1968 12.0886 1042 110.012 422.198 455.319
2844 0 89.2904 11.8378 1057 113.547 422.105 452.248
2845 0 95.4972 13.7282 1311 107.864 421.328 450.978
2846 0 97.2374 13.6984 1332 109.597 421.679 450.05
2847 0 101.458 13.8382 1404 110.198 422.152 448.904
2848 0 105.536 13.891 1466 111.531 422.055 447.072
2849 1 57.3109 12.8771 738 114.808 421.363 472.721
2850 0 57.3434 10.9167 626 110.355 421.546 472.204
2851 0 60.1003 12.6455 760 105.817 421.667 473.736
2852 0 61.066 12.0853 738 106.123 422.164 475.553
2853 0 64.0348 13.0866 838 103.174 422.236 474.971
2854 0 67.0828 12.9989 872 103.912 421.975 472.2
2855 0 69.085 13.3314 921 103.144 421.689 473.783
2856 0 70.1049 14.0646 986 103.89 422.09 468.693
2857 0 73.0779 13.7798 1007 105.199 422.311 470.243
2858 0 73.1114 12.5015 914 109.396 421.835 470.189
2859 0 76.1725 13.5088 1029 107.568 422.19 468.157
2860 0 79.153 13.1012 1037 108.786 421.608 464.702
2861 0 82.0782 13.3531 1096 109.125 421.262 465.035
2862 0 83.2631 13.6675 1138 108.675 421.437 459.311
2863 0 89.2873 14.9629 1336 103.972 422.05 460.025
2864 0 88.2889 13.9089 1228 109.17 421.48 459.604
2865 0 93.1054 13.7049 1276 109.825 421.425 458.276
2866 0 95.3747 13.4627 1284 110.702 421.273 455.03
2867 0 97.0735 13.4228 1303 115.474 421.613 455.182
2868 0 99.1074 12.4007 1229 118.66 421.631 454.243
2869 0 104.275 13.8 1439 115.101 422.114 451.4
2870 0 109.213 14.7784 1614 112.037 421.132 452.032
2871 1 59.1403 12.259 725 113.206 422.099 474.303
2872 0 60.1785 12.8783 775 113.286 420.435 470.115
2873 0 62.1712 13.5272 841 111.678 420.706 468.759
2874 0 64.1374 12.6291 810 114.421 421.14 468.235
2875 0 66.233 12.3956 821 115.77 421.234 467.346
2876 0 69.2634 13.0805 906 114.965 421.258 467.224
2877 0 72.2244 13.6796 988 114.775 421.791 465.005
2878 0 75.3919 12.8661 970 115.739 421.157 465.293
2879 0 76.2651 13.0859 998 116.371 420.87 464.06
2880 0 79.237 13.4533 1066 116.525 421.425 461.045
2881 0 81.2595 13.1062 1065 118.066 420.976 460.846
2882 0 85.3619 13.5072 1153 116.245 420.954 458.603
2883 0 88.2928 14.1574 1250 114.942 421.646 458.758
2884 0 90.2644 14.3357 1294 114.787 421.078 458.07
2885 0 91.2835 13.9017 1269 118.1 421.463 453.868
2886 0 96.3155 14.3902 1386 116.333 421.209 452.608
2887 0 99.2246 13.6559 1355 119.195 421.096 451.677
2888 0 103.189 14.769 1524 116.026 420.482 450.178
2889 0 107.256 13.7987 1480 118.894 421.226 449.824
2890 0 108.253 13.3299 1443 120.744 421.287 448.249
2891 1 61.0838 11.8362 723 117.68 420.927 471.959
2892 0 61.284 12.9561 794 117.931 421.04 471.413
2893 0 64.2033 13.9557 896 121.183 421.528 469.515
2894 0 69.2268 14.1419 979 118.909 421.043 469.656
2895 0 70.1621 13.5828 953 121.495 421.237 466.535
2896 0 73.3037 15.0606 1104 117.105 420.907 466.2
2897 0 73.2977 12.7153 932 124.502 421.12 462.659
2898 0 77.1112 12.683 978 122.195 421.388 463.783
2899 0 80.2101 13.8761 1113 117.785 421.176 463.005
2900 0 83.1846 13.8487 1152 118.371 421.466 458.771
2901 0 85.1068 13.2892 1131 120.849 421.292 457.378
2902 0 87.2025 13.2221 1153 114.287 421.422 458.592
2903 0 91.1282 12.9159 1177 114.546 421.899 456.602
2904 0 94.1723 13.0293 1227 114.017 421.559 455.615
2905 0 97.1509 13.2166 1284 115.326 421.231 453.048
2906 0 101.119 13.3308 1348 115.133 421.388 450.926
2907 0 102.217 13.3343 1363 115.7 421.55 447.913
2908 0 106.229 12.1718 1293 117.217 421.291 448.587
2909 0 111.222 12.5514 1396 116.444 421.253 445.58
2910 1 62.1435 9.88036 614 116.116 421.42 470.077
2911 0 64.0472 12.4127 795 111.382 421.535 466.669
2912 0 66.1353 11.1892 740 115.37 421.604 467.261
2913 0 69.1752 12.2154 845 111.657 421.622 465.37
2914 0 72.0709 12.5016 901 109.023 421.311 466.034
2915 0 72.0958 11.1518 804 112.823 421.792 463.91
2916 0 78.0743 12.4753 974 108.554 421.997 463.993
2917 0 81.1367 14.1243 1146 105.032 421.828 460.331
2918 0 83.1275 12.6192 1049 109.131 422.022 460.084
2919 0 84.0742 12.5722 1057 110.132 421.669 457.546
2920 0 88.0838 13.1239 1156 107.518 421.282 455.885
2921 0 89.2295 13.4148 1197 109.308 421.429 455.155
2922 0 94.0569 12.9815 1221 109.205 421.576 455.887
2923 0 97.2022 13.6417 1326 108.326 422.175 453.555
2924 0 99.2015 12.8123 1271 111.394 421.987 452.744
2925 0 102.093 13.3701 1365 112.445 421.961 451.766
2926 0 104.187 13.5333 1410 112.404 421.325 446.565
2927 0 110.14 14.9083 1642 107.862 421.432 446.202
2928 0 114.31 13.6384 1559 110.759 421.179 445.329
2929 0 115.184 13.2744 1529 112.939 421.209 445.608
2930 0 119.115 13.6927 1631 112.894 421.627 440.866
2931 0 123.209 12.702 1565 114.712 421.114 438.794
2932 1 68.0435 11.9335 812 109.809 420.772 467.064
2933 0 71.0494 11.485 816 114.07 420.902 464.268
2934 0 73.0684 12.7415 931 117.348 421.179 462.595
2935 0 76.1195 12.8614 979 106.806 422.46 461.319
2936 0 77.1827 13.0599 1008 107.315 422.648 458.95
2937 0 83.2042 12.7998 1065 105.474 422.413 456.687
2938 0 85.1512 12.3662 1053 107.03 422.125 455.698
2939 0 86.1029 12.2063 1051 107.419 422.406 457.029
2940 0 91.1576 13.7674 1255 103.826 422.75 453.151
2941 0 94.1572 12.4685 1174 106.568 422.589 455.623
2942 0 99.1162 13.3177 1320 101.961 422.052 450.092
2943 0 100.186 13.7146 1374 101.945 421.764 450.344
2944 0 102.15 11.5027 1175 107.885 422.243 449.871
2945 0 105.141 12.1171 1274 107.053 422.312 447.221
2946 0 110.115 13.5313 1490 102.677 422.315 448.879
2947 0 112.162 11.9024 1335 108.625 422.057 441.673
2948 0 117.251 12.6055 1478 107.072 422.099 442.558
2949 0 119.16 11.623 1385 110.716 421.196 438.427
2950 0 124.342 12.6586 1574 109.412 420.946 442.835
2951 0 129.143 13.4037 1731 107.17 421.501 432.427
2952 1 72.1336 11.1044 801 103.361 421.438 465.095
2953 0 74.0859 11.1897 829 103.808 421.204 465.388
2954 0 76.1123 12.5341 954 100.198 421.759 460.58
2955 0 76.0875 10.7902 821 111.033 420.884 464.425
2956 0 79.0632 12.2687 970 107.398 420.951 463.774
2957 0 83.0779 12.2415 1017 107.386 420.679 461.833
2958 0 88.1183 12.835 1131 106.073 421.184 460.767
2959 0 90.1179 13.094 1180 106.871 421.313 456.039
2960 0 92.1475 11.4382 1054 110.022 421.601 456.826
2961 0 96.1822 13.2457 1274 105.651 421.897 453.784
2962 0 99.1895 11.967 1187 108.885 422.072 452.823
2963 0 103.192 13.2472 1367 87.4279 422.056 450.658
2964 0 105.152 12.0492 1267 108.936 421.133 450.729
2965 0 107.173 12.3912 1328 109.573 421.362 444.642
2966 0 113.203 12.3583 1399 109.242 420.973 445.688
2967 0 115.141 11.8637 1366 111.015 421.406 443.364
2968 0 120.213 10.7975 1298 113.453 421.172 442.606
2969 0 123.101 12.1283 1493 111.315 421.291 440.402
2970 1 68.0544 11.3586 773 110.613 420.753 468.462
2971 0 71.09 11.9004 846 108.204 420.673 468.345
2972 0 74.0742 13.2435 981 106.2 420.337 467.218
2973 0 76.1283 12.3213 938 109.421 419.88 463.955
2974 0 79.1396 13.0782 1035 107.794 419.87 463.156
2975 0 81.0893 12.85 1042 109.913 419.306 464.121
2976 0 84.1117 13.9576 1174 108.29 419.921 462.039
2977 0 85.1824 13.8996 1184 109.756 419.942 460.841
2978 0 88.0964 12.5771 1108 114.352 419.716 458.432
2979 0 91.121 12.3462 1125 115.796 419.686 458.298
2980 0 93.1467 13.9994 1304 113.964 420.002 455.874
2981 0 97.1244 13.4673 1308 115.286 420.035 456.458
2982 0 99.0713 13.4348 1331 117.514 419.905 453.389
2983 0 103.096 13.8706 1430 117.133 420.157 452.065
2984 0 102.058 12.6987 1296 122.381 419.931 449.705
2985 0 108.115 14.2256 1538 117.869 420.075 449.644
2986 0 107.076 12.2343 1310 125.287 420.433 448.545
2987 0 114.085 12.5696 1434 124.165 419.579 448.693
2988 0 115.174 12.4768 1437 124.914 419.516 447.654
2989 0 118.128 12.3595 1460 126.064 419.734 444.934
2990 0 125.19 12.9723 1624 123.087 419.58 443.979
2991 0 127.166 14.2255 1809 119.715 420.15 440.847
2992 1 72.1891 11.1928 808 124.127 419.937 469.214
2993 0 75.0377 11.7408 881 123.641 419.435 464.014
2994 0 76.0327 10.8374 824 117.101 420.218 459.517
2995 0 79.136 12.5607 994 105.296 420.486 459.967
2996 0 79.0773 11.7859 932 108.418 420.634 455.926
2997 0 85.2841 12.0538 1028 105.858 421.348 457.339
2998 0 84.1056 11.3191 952 109.339 421.234 453.712
2999 0 89.0548 11.6894 1041 107.597 421.08 454.64
3000 0 92.1633 12.326 1136 105.783 420.901 450.526
3001 0 97.091 12.4831 1212 104.877 421.237 451.897
3002 0 96.0548 11.8786 1141 108.575 420.813 446.365
3003 0 100.089 12.369 1238 107.323 421.212 447.53
3004 0 104.12 11.8614 1235 108.177 420.926 448.316
3005 0 107.148 12.2541 1313 106.985 421.484 443.675
3006 0 108.165 11.501 1244 108.929 421.289 442.909
3007 0 114.164 12.8237 1464 106.042 421.177 442.258
3008 0 117.304 12.7787 1499 108.342 420.422 438.889
3009 0 118.25 12.3975 1466 109.429 420.941 437.431
3010 0 124.196 12.118 1505 110.187 420.551 435.581
3011 0 127.164 10.9229 1389 111.949 420.947 432.892
3012 1 69.1125 7.82781 541 107.399 421.501 465.75
3013 0 73.1287 9.49011 694 105.311 422.337 462.571
3014 0 76.0979 11.183 851 103.391 421.656 460.28
3015 0 76.121 9.94469 757 106.951 421.391 459.602
3016 0 79.1134 11.1359 881 104.958 421.312 458.9
3017 0 82.1408 12.1012 994 103.421 421.255 457.272
3018 0 86.1852 12.2179 1053 102.322 421.703 458.023
3019 0 89.1034 12.132 1081 103.543 421.541 456.053
3020 0 89.199 11.3006 1008 106.359 421.352 454.01
3021 0 92.1353 11.1792 1030 106.657 421.157 452.952
3022 0 97.2191 11.4586 1114 105.862 421.005 453.306
3023 0 100.208 12.015 1204 106.181 420.599 450.072
3024 0 104.038 12.1494 1264 106.186 420.74 448.628
3025 0 109.22 12.6625 1383 105.012 420.74 447.085
3026 1 59.0971 10.2035 603 108.401 419.826 470.007
3027 0 62.1043 11.1909 695 107.111 420.338 467.007
3028 0 64.1748 12.8088 822 104.184 420.989 467.168
3029 0 65.1356 11.6987 762 107.028 420.689 468.091
3030 0 67.13 11.1426 748 107.455 420.556 469.103
3031 0 70.2211 11.7344 824 106.248 420.603 468.61
3032 0 71.2677 12.432 886 106.916 420.703 466.492
3033 0 71.2406 11.8191 842 109.213 421.138 464.86
3034 0 77.0799 12.8698 992 104.512 420.913 465.858
3035 0 79.0793 12.1144 958 106.332 421.305 464.309
3036 0 83.1158 12.5608 1044 106.385 420.773 463.488
3037 0 84.1526 12.4417 1047 107.103 421.465 461.852
3038 0 87.1893 13.1094 1143 106.068 421.363 460.821
3039 0 88.1284 12.391 1092 108.084 422.767 460.15
3040 0 92.2197 13.2727 1224 106.731 422.513 457.47
3041 0 96.1385 14.1047 1356 104.997 422.403 456.862
3042 0 99.1081 12.5721 1246 109.255 422.437 456.071
3043 0 99.1395 11.4082 1131 112.856 422.993 453.653
3044 0 106.229 13.1697 1399 108.693 422.533 451.371
3045 0 107.363 13.0212 1398 110.358 422.298 446.122
3046 0 112.201 12.7271 1428 104.005 422.191 448.173
3047 1 59.0939 9.83181 581 115.246 422.103 471.862
3048 0 62.1745 11.7572 731 112.152 422.254 471.706
3049 0 64.0608 11.333 726 100.28 423.49 472.923
3050 0 63.0683 10.4331 658 106.271 423.789 471.895
3051 0 63.083 11.144 703 109.727 423.377 472.095
3052 0 62.1304 10.1078 628 114.266 423.107 470.382
3053 0 66.0763 12.1072 800 107.918 423.746 469.983
3054 0 67.0586 11.7807 790 107.632 423.557 471.742
3055 0 68.1126 10.1156 689 107.869 423.511 467.787
3056 0 72.1167 11.5091 830 106.171 423.052 467.586
3057 0 75.0509 12.2051 916 102.651 423.741 463.87
3058 0 79.1341 12.2703 971 97.0906 423.043 464.306
3059 0 80.1466 10.9674 879 102.738 422.73 461.785
3060 0 83.1156 11.7307 975 97.0174 422.353 460.608
3061 0 86.1417 12.1196 1044 99.1025 422.661 459.573
3062 0 88.0908 12.0103 1058 99.5983 422.097 456.453
3063 0 89.114 11.4909 1024 101.216 421.832 457.576
3064 0 94.2146 12.514 1179 97.3681 421.907 454.948
3065 0 95.1613 11.7695 1120 100.287 421.716 452.786
3066 0 99.1953 11.6437 1155 101.977 421.519 449.686
3067 0 100.243 10.3349 1036 106.052 421.442 449.291
3068 1 56.2105 9.82023 552 106.781 421.998 471.795
3069 0 56.0818 10.3777 582 108.483 422.646 471.838
3070 0 59.159 11.3254 670 106.531 422.728 472.537
3071 0 59.114 10.7081 633 109 423.245 471.491
3072 0 62.1109 11.6727 725 107.481 423.183 470.337
3073 0 63.1141 11.091 700 110.089 423.064 468.961
3074 0 64.0465 11.1638 715 111.931 422.643 468.867
3075 0 65.0237 10.4423 679 115.432 423.054 466.216
3076 0 66.0679 10.5952 700 118.266 422.939 464.886
3077 0 66.0727 9.91332 655 120.786 422.498 465.391
3078 0 72.0895 11.1251 802 118.374 422.387 464.388
3079 0 72.0764 10.4611 754 120.627 422.472 465.069
3080 0 73.0559 10.9779 802 120.833 422.823 462.333
3081 0 77.1454 11.757 907 118.913 422.278 461.805
3082 0 77.1075 9.68777 747 124.34 422.952 460.194
3083 0 80.0786 10.5022 841 122.56 422.473 459.38
3084 0 84.0961 11.5582 972 121.02 422.904 457.499
3085 0 88.107 12.5529 1106 118.151 422.65 456.808
3086 0 89.0933 12.167 1084 120.473 422.996 453.601
3087 0 94.1119 13.0908 1232 117.265 422.222 454.429
3088 0 96.1174 12.5368 1205 119.593 422.354 453.329
3089 0 99.1545 11.8099 1171 121.651 422.455 451.325
3090 0 99.2229 12.1948 1210 121.764 422.726 448.188
3091 1 55.1526 10.0992 557 116.208 422.208 473.086
3092 0 57.2021 11.3457 649 114.903 422.418 471.516
3093 0 58.0328 10.6492 618 115.825 422.862 473.175
3094 0 60.0885 11.6828 702 115.423 422.087 470.02
3095 0 61.0994 10.7039 654 114.245 422.59 469.893
3096 0 64.0534 12.0212 770 113.383 423.127 468.223
3097 0 65.1264 11.2397 732 115.885 423.378 466.459
3098 0 66.1964 10.3933 688 117.888 422.891 466.422
3099 0 70.2953 11.9496 840 114.023 422.538 463.993
3100 0 71.1189 12.3315 877 115.562 422.909 463.344
3101 0 73.118 11.8028 863 117.601 422.618 462.803
3102 0 76.1227 11.5077 876 118.705 422.433 460.368
3103 0 79.2251 11.9407 946 118.66 422.364 461.237
3104 0 80.1423 11.1926 897 120.512 422.495 457.373
3105 0 85.27 11.7157 999 118.33 422.552 457.233
3106 0 88.2217 13.0353 1150 115.323 422.483 456.754
3107 0 91.1601 12.9333 1179 114.967 422.423 457.124
3108 0 94.4501 13.0651 1234 114.716 422.403 454.807
3109 0 96.253 12.4879 1202 116.616 421.909 453.596
3110 0 97.1762 12.1017 1176 117.739 422.291 453.891
3111 0 101.282 13.0427 1321 115.344 421.763 449.486
3112 0 105.194 12.995 1367 114.973 422.187 448.607
3113 0 111.133 13.1824 1465 113.251 422.014 449.646
3114 0 111.171 12.3593 1374 115.59 422.767 446.098
3115 0 116.311 12.8105 1490 115.016 422.106 437.94
3116 1 66.3303 11.5784 768 109.359 422.103 466.053
3117 0 69.0963 11.1294 769 112.114 421.99 465.168
3118 0 73.099 13.4202 981 106.699 421.546 462.854
3119 0 74.1103 12.1171 898 109.899 421.643 461.675
3120 0 77.1543 13.8553 1069 106.866 422.777 462.162
3121 0 81.205 13.9277 1131 105.871 422.74 460.48
3122 0 82.1522 12.5986 1035 110.071 422.406 460.478
3123 0 86.1441 12.7809 1101 109.459 422.753 460.536
3124 0 90.1577 13.8646 1250 107.721 422.797 456.518
3125 0 91.2281 13.8883 1267 109.818 422.266 452.728
3126 0 94.2203 14.1583 1334 109.454 422.459 449.453
3127 0 98.35 14.0722 1384 109.291 422.48 447.491
3128 0 102.319 13.0767 1338 110.765 422.383 449.2
3129 0 106.202 13.9452 1481 108.513 422.081 445.354
3130 0 108.598 13.1402 1427 110.533 422.167 444.66
3131 0 114.208 13.8606 1583 107.551 422.507 443.67
3132 0 118.584 13.1974 1565 109.304 422.328 439.301
3133 0 122.409 14.2555 1745 107.58 422.146 437.08
3134 1 68.2438 11.8985 812 109.041 423.096 467.488
3135 0 72.1227 13.7405 991 104.333 423.684 466.812
3136 0 75.1166 14.4176 1083 105.409 423.09 458.876
3137 0 78.2906 13.0922 1025 108.084 422.73 458.472
3138 0 80.22 13.5876 1090 108.716 423.289 459.275
3139 0 82.2706 12.7628 1050 110.514 422.844 459.146
3140 0 86.3902 14.2609 1232 107.338 423.067 455.971
3141 0 90.3682 13.2901 1201 109.668 423.355 454.801
3142 0 90.5527 12.8544 1164 111.681 423.299 453.825
3143 0 94.3701 13.3623 1261 111.096 422.914 453.883
3144 0 100.375 12.8518 1290 110.502 423.331 453.186
3145 0 102.329 14.2579 1459 109.098 423.633 450.855
3146 0 108.168 15.9845 1729 104.366 423.136 447.892
3147 0 110.178 15.2481 1680 105.878 422.789 446.742
3148 1 57.1061 13.3261 761 101.834 423.399 475.756
3149 0 57.0893 11.7185 669 106.661 422.825 475.386
3150 0 62.0489 13.6022 844 102.905 423.437 473.701
3151 0 63.0366 13.3415 841 105.195 423.234 473.118
3152 0 66.1938 15.0921 999 102.169 423.434 470.551
3153 0 66.3384 13.5065 896 106.44 422.758 470.19
3154 0 68.4019 13.4499 920 106.24 423.1 470.825
3155 0 69.1446 12.0761 835 110.908 422.765 467.659
3156 0 74.1945 14.2463 1057 106.341 423.035 465.315
3157 0 77.3489 12.7345 985 108.742 422.981 466.45
3158 0 80.1284 13.391 1073 107.747 423.102 465.003
3159 0 80.1374 12.9278 1036 109.177 423.464 464.511
3160 0 81.1782 11.8874 965 112.999 422.801 463.445
3161 0 86.2721 12.0317 1038 112.805 422.759 460.231
3162 0 90.1687 13.8629 1250 108.186 422.832 461.108
3163 0 93.2475 12.5902 1174 110.819 423.319 461.474
3164 0 98.18 13.1799 1294 110.319 423.071 458.058
3165 0 99.0934 12.685 1257 112.706 423.053 457.291
3166 0 102.196 12.7206 1300 112.931 422.8 455.604
3167 0 106.111 13.4387 1426 112.018 422.856 454.45
3168 0 110.095 13.2613 1460 112.262 423.014 452.301
3169 1 61.0769 12.2632 749 110.159 423.204 475.756
3170 0 63.1082 12.3914 782 111.824 423.91 475.423
3171 0 66.1358 13.5932 899 109.756 422.99 473.171
3172 0 66.1585 14.1327 935 110.171 423.464 470.784
3173 0 70.2547 13.7642 967 109.616 423.125 471.903
3174 0 71.0744 13.1834 937 112.432 423.361 469.204
3175 0 75.0565 14.1227 1060 108.971 423.331 469.337
3176 0 78.1848 13.1739 1030 111.517 423.825 467.185
3177 0 76.1706 12.6689 965 114.281 423.062 464.391
3178 0 84.368 15.219 1284 106.753 422.739 464.72
3179 0 85.126 13.9323 1186 110.645 422.584 463.427
3180 0 90.2004 14.5565 1313 109.043 422.738 461.131
3181 0 91.1312 14.0237 1278 110.976 421.685 461.273
3182 0 93.2802 14.033 1309 111.376 422.167 459.6
3183 0 99.307 15.4873 1538 107.261 422.252 458.839
3184 0 100.224 14.4677 1450 111.559 422.341 455.336
3185 0 102.15 15.066 1539 111.517 422.051 452.278
3186 0 105.224 13.0958 1378 116.172 421.832 450.755
3187 0 111.143 14.0449 1561 113.945 421.426 450.301
3188 0 111.355 13.5692 1511 116.218 421.371 448.946
3189 0 116.34 14.449 1681 114.391 421.88 446.224
3190 0 121.35 14.9897 1819 112.792 421.815 444.427
3191 0 129.151 16.3684 2114 108.108 421.644 440.383
3192 0 129.248 13.9886 1808 115.329 421.626 441.415
3193 0 133.158 13.8632 1846 117.054 421.388 436.022
3194 0 138.158 13.9116 1922 117.633 421.354 432.712
3195 0 147.322 14.75 2173 114.795 421.771 432.108
3196 0 152.193 15.1058 2299 114.907 421.19 429.401
3197 0 157.284 14.3753 2261 117.482 421.164 428.677
3198 1 85.0951 13.2793 1130 118.631 421.485 461.14
3199 0 87.0774 12.8966 1123 121.533 421.96 460.024
3200 0 93.2122 15.5344 1448 115.212 421.958 457.375
3201 0 93.0694 13.8391 1288 121.214 421.773 455.522
3202 0 96.2411 14.6923 1414 119.397 421.409 454.05
3203 0 100.158 15.1761 1520 118.568 421.179 451.68
3204 0 105.181 15.1073 1589 118.457 421.49 450.222
3205 0 106.106 14.4195 1530 120.988 421.517 449.981
3206 0 109.174 13.8678 1514 123.375 421.661 446.669
3207 0 114.269 14.9646 1710 120.505 420.999 444.399
3208 0 115.19 14.4023 1659 122.588 421.915 442.528
3209 0 123.142 14.5767 1795 121.75 421.592 441.358
3210 0 125.105 14.6516 1833 121.997 421.346 439.96
3211 0 128.156 14.3341 1837 123.867 421.475 437.419
3212 0 135.32 16.2134 2194 118.423 421.522 435.846
3213 0 138.175 14.1343 1953 125.03 421.204 431.893
3214 0 142.265 14.2621 2029 124.647 420.859 428.958
3215 0 148.262 14.4339 2140 124.746 420.699 428.083
3216 0 155.307 14.3522 2229 124.062 420.881 425.332
3217 1 86.2114 12.7245 1097 124.391 421.488 458.995
3218 0 89.1623 13.4025 1195 125.705 421.244 454.167
3219 0 94.1264 14.863 1399 120.756 421.534 452.564
3220 0 95.1487 14.2514 1356 123.584 421.887 452.515
3221 0 98.2494 14.3105 1406 125.008 421.248 452.059
3222 0 102.233 14.3496 1467 127.575 421.49 448.545
3223 0 107.262 14.2362 1527 127.65 421.361 447.886
3224 0 109.266 13.911 1520 128.763 421.972 445.865
3225 0 113.084 13.9012 1572 127.125 422.127 445.045
3226 0 116.175 13.1095 1523 129.13 421.895 442.821
3227 0 122.191 14.731 1800 125.005 422.303 439.116
3228 0 125.138 13.4891 1688 128.168 421.335 434.95
3229 0 124.136 13.5899 1687 168.232 420.336 434.867
3230 1 66.0354 12.3419 815 128.831 422.384 461.611
3231 0 71.1243 12.8929 917 126.109 422.016 461.771
3232 0 73.0956 14.0774 1029 123.098 422.168 459.117
3233 0 77.0882 14.1007 1087 123.193 422.119 457.884
3234 0 81.1871 12.9577 1052 124.537 422.085 458.153
3235 0 82.1634 13.4853 1108 123.725 422.073 458.608
3236 0 84.1826 13.8271 1164 124.215 422.084 454.009
3237 0 86.0762 13.5578 1167 125.388 422.608 452.924
3238 0 89.102 13.9503 1243 123.238 422.315 453.289
3239 0 93.1244 14.1638 1319 123.441 422.568 450.704
3240 0 95.2495 13.6799 1303 125.289 422.49 450.803
3241 0 98.1607 13.6918 1344 126.02 422.391 446.58
3242 0 100.176 13.4563 1348 127.166 422.131 445.584
3243 0 103.15 14.2122 1466 127.334 421.481 444.457
3244 0 109.154 15.5835 1701 123.885 421.909 441.495
3245 0 109.15 15.6391 1707 140.978 421.912 441.361
3246 0 116.23 13.8174 1606 128.808 422.091 437.638
3247 0 121.251 14.136 1714 127.412 421.9 435.966
3248 1 65.0238 11.4881 747 131.07 422.08 462.214
3249 0 67.1484 11.7799 791 131.707 421.812 460.42
3250 0 70.1212 11.637 816 132.688 421.62 455.391
3251 0 73.1629 12.233 895 130.206 422.091 457.192
3252 0 77.2975 12.9629 1002 126.348 422.504 459.495
3253 0 79.1339 12.9401 1024 129.193 422.333 456.414
3254 0 82.0609 12.771 1048 130.699 422.3 455.173
3255 0 84.2326 12.228 1030 132.493 422.083 454.62
3256 0 89.0955 13.2218 1178 131.202 422.075 452.886
3257 0 91.1013 14.4345 1315 130.548 421.836 452.973
3258 0 93.1147 13.1773 1227 134.926 422.222 453.037
3259 0 96.1974 13.8569 1333 132.898 422.544 451.833
3260 0 99.1803 14.7005 1458 131.272 422.244 450.487
3261 0 101.187 14.3596 1453 133.55 421.928 446.593
3262 0 104.091 14.5834 1518 132.264 421.729 444.762
3263 0 107.297 14.3154 1536 134.958 421.994 442.183
3264 0 110.285 13.5104 1490 139.34 421.859 438.775
3265 0 115.353 14.4599 1668 137.026 422.236 436.811
3266 0 119.339 14.2703 1703 137.552 421.808 434.369
3267 0 122.461 14.5026 1776 137.443 421.983 431.701
3268 0 126.366 14.6163 1847 138.259 421.755 430.232
3269 0 129.436 13.9837 1810 139.031 422.35 425.831
3270 0 135.346 14.7326 1994 136.544 421.943 425.028
3271 1 76.2779 11.1566 851 136.866 422.703 456.684
3272 0 79.3578 12.702 1008 135.535 422.621 454.912
3273 0 81.2131 13.6554 1109 132.261 422.659 454.113
3274 0 83.2674 12.9462 1078 135.27 422.853 452.386
3275 0 85.4049 12.5403 1071 136.46 422.368 451.678
3276 0 85.3058 13.0823 1116 137.56 422.685 447.819
3277 0 89.5788 13.0053 1165 135.893 422.817 449.119
3278 0 91.3287 13.4459 1228 135.044 422.832 446.493
3279 0 93.3227 13.1801 1230 137.159 423.27 444.802
3280 0 99.4194 14.0315 1395 132.47 422.579 445.634
3281 0 99.3343 14.5166 1442 133.617 422.929 441.648
3282 0 103.19 13.9742 1442 134.338 423.074 438.714
3283 0 103.394 13.289 1374 138.052 423.151 439.076
3284 0 107.402 12.9048 1386 138.302 422.953 436.782
3285 0 112.183 13.9326 1563 135.42 422.997 433.654
3286 0 118.305 13.4229 1588 135.84 422.88 431.706
3287 1 54.2146 11.1409 604 121.565 423.439 464.275
3288 0 57.1304 11.8851 679 119.822 422.951 466.443
3289 0 61.3708 12.1393 745 122.315 422.934 467.934
3290 0 63.4259 9.82249 623 128.496 422.862 467.27
3291 0 65.4223 9.09476 595 131.432 422.691 465.462
3292 0 68.156 11.9432 814 120.865 423.456 464.537
3293 0 69.1602 11.6541 806 121.568 423.391 464.566
3294 0 70.1161 10.7964 757 123.738 423.816 461.469
3295 0 74.125 11.1838 829 120.592 423.432 463.182
3296 0 77.203 11.0877 856 120.181 423.661 463.702
3297 0 77.2591 11.4161 882 121.67 423.99 460.819
3298 0 80.3142 11.841 951 120.515 423.918 459.743
3299 0 80.4143 11.0677 890 125.542 424.155 458.13
3300 0 82.4606 11.3024 932 126.322 424.107 460.645
3301 0 85.2277 11.5103 981 127.353 424.726 455.855
3302 0 89.3378 11.4733 1025 126.739 424.045 453.891
3303 0 93.4684 12.5497 1173 123.397 424.558 451.917
3304 0 92.3358 10.7109 989 128.215 424.75 451.316
3305 0 94.4684 12.1099 1144 125.073 424.489 450.513
3306 0 99.3778 11.8437 1177 125.298 423.982 448.997
3307 0 101.301 11.4116 1156 126.035 424.349 448.948
3308 0 104.328 11.1571 1164 127.239 424.624 444.82
3309 0 108.572 11.467 1245 125.777 424.729 442.506
3310 0 111.469 11.7701 1312 125.527 424.286 437.624
3311 0 116.186 12.2992 1429 124.118 423.725 435.148
3312 1 64.1344 11.4915 737 123.085 423.322 462.172
3313 0 65.0815 12.0311 783 124.613 422.971 460.92
3314 0 66.1223 10.904 721 125.012 423.297 461.033
3315 0 68.1138 11.3046 770 124.083 422.677 460.023
3316 0 70.0681 12.2881 861 120.29 422.834 459.53
3317 0 71.1462 11.5958 825 124.044 422.707 456.476
3318 0 73.1016 11.8739 868 123.119 423.508 454.262
3319 0 75.1878 11.2651 847 123.554 422.785 456.848
3320 0 76.1589 10.6751 813 127 422.941 451.244
3321 0 76.1497 11.7663 896 125.951 423.001 447.527
3322 0 82.2513 11.4041 938 124.648 423.235 448.136
3323 0 84.2532 11.4417 964 125.102 422.793 444.104
3324 0 85.1584 10.8269 922 127.764 422.894 445.682
3325 0 88.2857 10.534 930 130.129 422.72 438.604
3326 0 90.2068 11.518 1039 128.271 422.786 438.481
3327 0 97.3071 12.1471 1182 124.995 422.678 439.371
3328 0 102.326 12.6067 1290 122.623 423.143 441.953
3329 0 103.154 12.176 1256 125.841 422.865 439.291
3330 0 109.392 12.926 1414 123.01 422.258 438.086
3331 0 110.298 12.7019 1401 124.338 422.197 437.104
3332 0 116.26 11.9474 1389 127.139 422.206 433.839
3333 1 69.2261 9.67844 670 120.97 421.939 458.143
3334 0 71.1581 10.3432 736 122.029 421.609 455.772
3335 0 73.0511 11.4577 837 117.699 422.928 459.341
3336 0 75.1429 11.9373 897 117.033 424.352 458.409
3337 0 78.056 12.5551 980 115.904 423.857 458.797
3338 0 80.1101 12.0834 968 118.012 423.33 457.188
3339 0 81.133 12.5473 1018 118.484 423.511 453.217
3340 0 81.0817 12.2222 991 120.587 423.465 452.745
3341 0 86.0588 13.7348 1182 117.063 423.131 451.989
3342 0 87.1542 12.323 1074 123.112 423.139 450.507
3343 0 87.1388 11.7169 1021 126.245 423.623 450.446
3344 0 93.1523 12.7318 1186 123.082 423.359 449.796
3345 0 95.1659 11.6849 1112 128.401 423.237 446.554
3346 0 97.2639 11.8749 1155 127.852 423.413 445.945
3347 0 100.147 12.5216 1254 127.153 422.89 443.417
3348 0 102.172 13.1543 1344 126.147 422.476 442.245
3349 0 105.208 12.1474 1278 128.9 423.026 439.829
3350 0 106.161 12.2644 1302 129.379 422.998 436.634
3351 0 111.152 13.45 1495 125.532 423.221 438.237
3352 0 115.085 12.1997 1404 129.309 422.916 435.943
3353 0 118.161 12.4322 1469 128.41 422.187 429.709
3354 0 122.21 13.7386 1679 124.083 421.987 432.061
3355 0 122.123 11.0135 1345 133.5 422.166 428.681
3356 0 123.231 10.6466 1312 135.221 422.045 421.109
3357 0 129.231 11.4988 1486 130.783 422.537 424.443
3358 0 131.199 12.3095 1615 129.251 421.833 423.054
3359 1 77.1382 10.1117 780 127.254 419.994 450.064
3360 0 83.2603 10.1849 848 125.328 421.505 449.601
3361 0 86.1819 11.5918 999 121.657 421.474 450.976
3362 0 88.1639 10.8434 956 123.758 420.933 453.464
3363 0 90.17 11.2676 1016 123.324 420.883 452.957
3364 0 93.1616 12.6447 1178 120.262 420.902 449.593
3365 0 95.1826 11.7248 1116 121.969 420.958 451.865
3366 0 99.2689 12.9648 1287 118.218 420.749 449.514
3367 0 99.1801 12.3311 1223 121.104 420.433 446.321
3368 0 101.279 12.0361 1219 122.061 420.684 446.443
3369 0 105.162 12.5615 1321 119.754 420.055 444.912
3370 0 108.21 12.4296 1345 120.652 420.487 437.03
3371 0 111.236 12.5679 1398 121.774 420.723 435.504
3372 0 114.2 13.6165 1555 118.283 420.993 436.15
3373 0 117.382 13.6052 1597 117.73 421.008 431.53
3374 0 121.295 13.3806 1623 117.906 420.919 430.956
3375 0 124.44 12.721 1583 119.684 421.061 426.597
3376 0 128.349 12.692 1629 120.189 420.77 425.781
3377 1 72.0966 9.26535 668 118.581 420.07 456.232
3378 0 74.2067 10.053 746 116.753 422.639 452.151
3379 0 79.1448 11.4474 906 116.397 423.68 456.872
3380 0 83.1322 11.8005 981 114.646 423.522 456.084
3381 0 85.1331 11.6289 990 115.186 423.289 455.079
3382 0 87.1111 11.3878 992 117.397 423.327 450.194
3383 0 88.2016 11.5871 1022 116.935 423.24 451.31
3384 0 93.2909 12.5093 1167 113.001 422.971 449.024
3385 0 94.269 11.6475 1098 116.409 423.481 444.73
3386 0 96.1862 12.5694 1209 114.342 423.95 446.22
3387 0 95.3314 10.3114 983 120.996 423.267 440.817
3388 0 98.1858 11.2847 1108 99.1255 423.047 439.53
3389 0 103.187 10.8444 1119 117.824 422.757 438.126
3390 0 105.181 11.3804 1197 116.818 422.667 435.003
3391 0 109.103 11.6588 1272 115.386 422.605 440.28
3392 0 109.265 11.3394 1239 116.734 423.284 434.354
3393 0 115.085 11.826 1361 113.819 423.476 437.308
3394 0 117.175 12.1101 1419 114.459 423.803 431.703
3395 0 119.16 10.5656 1259 111.969 423.812 434.008
3396 0 122.13 9.95657 1216 113.111 423.86 431.941
3397 0 128.134 10.77 1380 112.804 423.356 426.53
3398 0 134.17 11.2022 1503 110.546 423.419 429.246
3399 0 136.161 11.1339 1516 112.613 423.216 419.823
3400 0 141.164 10.0875 1424 115.107 423.144 420.921
3401 0 140.095 10.9997 1541 114.48 422.899 417.933
3402 1 82.1128 10.376 852 111.986 423.135 450.291
3403 0 85.2108 11.2896 962 110.502 422.977 445.412
3404 0 88.2445 11.2755 995 110.312 423.24 444.436
3405 0 88.4391 11.1037 982 111.713 423.201 444.477
3406 0 90.2093 10.9634 989 113.047 423.018 442.251
3407 0 93.0884 11.6771 1087 108.844 423.156 444.484
3408 0 97.0913 11.7621 1142 109.376 423.105 441.835
3409 0 101.098 11.6124 1174 109.83 423.33 440.282
3410 0 99.1315 11.9034 1180 111.718 423.544 438.871
3411 0 104.154 11.3966 1187 113.955 423.035 435.799
3412 0 103.356 11.7361 1213 114.443 422.758 433.728
3413 0 105.262 11.1342 1172 116.742 422.88 427.827
3414 0 111.302 12.1741 1355 113.505 422.999 428.634
3415 0 116.355 12.797 1489 111.725 422.923 427.747
3416 0 116.149 11.425 1327 115.859 422.851 425.592
3417 0 123.222 11.4833 1415 113.707 422.842 425.753
3418 0 126.174 11.0324 1392 114.608 422.869 421.665
3419 0 129.226 10.2766 1328 115.361 423.04 419.904
3420 1 77.2016 11.9557 923 105.352 423.036 449.453
3421 0 80.2563 11.0022 883 108.318 423.446 444.33
3422 0 80.1403 11.3426 909 105.077 423.704 441.762
3423 0 84.2596 12.6158 1063 103.228 422.833 447.552
3424 0 92.2012 12.5703 1159 102.205 422.498 446.518
3425 0 91.1571 13.1531 1199 102.62 422.606 445.245
3426 0 96.207 12.7433 1226 103.551 422.476 443.069
3427 0 100.201 12.5249 1255 103.872 422.767 442.191
3428 0 102.235 12.3734 1265 105.197 422.474 440.095
3429 0 104.248 13.0075 1356 104.879 422.448 438.947
3430 0 109.298 13.0103 1422 104.759 422.75 436.64
3431 0 112.24 12.9455 1453 106.113 422.776 434.096
3432 0 112.229 12.4834 1401 108.749 423.004 431.17
3433 0 114.278 15.1823 1735 103.015 422.342 429.52
3434 0 120.206 13.427 1614 107.327 422.659 431.284
3435 0 123.211 12.5882 1551 110.247 422.926 428.189
3436 0 127.214 11.5082 1464 113.554 423.437 427.865
3437 0 129.258 11.3339 1465 115.153 423.367 425.078
3438 0 136.267 11.0151 1501 114.636 422.674 425.818
3439 1 80.1094 10.4357 836 106.622 422.287 455.554
3440 0 82.2093 11.9086 979 104.255 422.341 452.87
3441 0 80.1186 10.2598 822 104.825 421.839 447.943
3442 0 85.1637 10.6383 906 104.498 422.076 448.918
3443 0 88.1222 10.3493 912 105.673 422.418 448.901
3444 0 92.1909 11.9101 1098 102.618 422.349 449.155
3445 0 95.2781 11.4507 1091 105.341 422.295 446.25
3446 0 97.1894 11.6679 1134 106.026 422.499 444.525
3447 0 101.151 12.2193 1236 104.743 422.066 444.053
3448 0 103.152 11.9823 1236 107.765 421.817 440.573
3449 0 106.254 11.4348 1215 109.926 421.955 440.684
3450 0 111.24 11.9831 1333 109.324 421.506 438.419
3451 0 113.252 11.6466 1319 111.801 421.745 434.917
3452 0 119.413 12.5698 1501 109.563 422.677 436.236
3453 0 121.19 12.8476 1557 110.976 422.437 431.298
3454 0 121.226 10.7155 1299 117.286 421.903 429.702
3455 0 125.237 12.105 1516 114.87 421.699 430.34
3456 0 131.233 11.2167 1472 115.309 421.505 427.177
3457 0 133.205 10.5627 1407 116.705 421.497 420.484
3458 1 79.0631 9.81494 776 109.302 422.338 449.226
3459 0 79.1081 11.1493 882 111.868 422.094 450.447
3460 0 83.1756 10.2554 853 105.091 421.792 449.892
3461 0 86.2199 11.6214 1002 103.062 420.914 449.746
3462 0 89.3528 11.7959 1054 103.394 420.834 447.568
3463 0 89.2768 11.0555 987 106.533 420.755 445.933
3464 0 96.1849 11.062 1064 106.13 420.945 444.957
3465 0 99.3098 12.1841 1210 104.831 420.696 440.132
3466 0 100.286 11.6367 1167 106.991 420.846 436.446
3467 0 101.175 10.892 1102 109.708 420.913 435.68
3468 0 103.096 12.6678 1306 106.337 420.417 437.887
3469 0 106.18 11.6029 1232 110.776 420.377 433.435
3470 0 109.098 11.146 1216 111.342 420.387 430.91
3471 0 118.216 14.7357 1742 112.52 421.943 441.607
3472 0 121.168 13.3038 1612 115.73 422.1 439.776
3473 0 125.377 14.1414 1773 113.068 422.002 438.228
3474 1 71.0907 10.3952 739 122.617 423.176 458.922
3475 0 70.0832 11.9429 837 116.632 421.387 452.355
3476 0 74.0909 10.5141 779 110.123 422.303 450.991
3477 0 71.1436 9.88143 703 110.34 422.154 452.195
3478 0 72.1007 11.262 812 108.568 422.175 453.261
3479 0 78.1001 11.3444 886 107.429 422.337 451.798
3480 0 78.1548 11.4005 891 108.018 422.033 449.756
3481 0 81.0774 11.3595 921 108.389 422.269 447.808
3482 0 81.0684 10.7317 870 111.271 421.817 441.61
3483 0 83.0971 10.0605 836 114.181 421.77 441.666
3484 0 86.0734 11.7342 1010 110.409 421.989 439.532
3485 0 84.0842 11.3101 951 113.921 422.046 438.461
3486 0 89.0805 11.5401 1028 113.35 421.759 435.157
3487 0 98.1775 12.6709 1244 113.996 421.675 441.333
3488 0 102.223 12.2087 1248 123.088 421.887 441.976
3489 0 106.304 12.7747 1358 121.387 421.627 439.04
3490 0 111.233 13.1616 1464 118.539 421.405 438.546
3491 0 117.181 12.6812 1486 118.357 422.039 442.37
3492 1 67.036 9.99462 670 120.193 422.524 464.751
3493 0 71.1533 12.2271 870 113.624 421.101 460.538
3494 0 71.1487 12.1857 867 114.558 420.627 462.63
3495 0 74.114 12.4538 923 113.961 420.866 460.501
3496 0 76.1392 11.2557 857 117.247 421.463 462.562
3497 0 77.2216 12.2116 943 116.738 421.105 460.05
3498 0 78.2539 11.5905 907 118.225 420.906 458.427
3499 0 83.0852 12.8182 1065 114.339 420.956 459.022
3500 0 83.1067 12.0327 1000 118.938 421.407 456.371
3501 0 89.1724 12.8179 1143 116.746 421.106 454.977
3502 0 90.1932 12.9056 1164 118.1 421.638 455.564
3503 0 93.2037 12.2849 1145 121.578 421.052 453.013
3504 0 96.371 12.4207 1197 122.955 421.023 449.854
3505 0 99.1755 13.5517 1344 119.592 421.191 448.106
3506 0 103.314 13.8414 1430 118.774 421.078 448.399
3507 0 105.217 14.3038 1505 118.783 421.634 446.33
3508 0 105.161 12.1719 1280 126.898 421.333 445.097
3509 0 110.266 12.8961 1422 124.293 421.761 444.191
3510 1 63.2916 10.5385 667 126.274 420.831 466.019
3511 0 64.1093 9.81136 629 124.064 421.431 464.706
3512 0 61.0977 10.3114 630 120.765 422.027 457.968
3513 0 66.2173 9.37821 621 120.071 421.192 459.227
3514 0 66.2264 10.902 722 117.539 421.723 453.604
3515 0 70.0988 8.43096 591 122.97 421.958 455.408
3516 0 74.1888 10.5407 782 119.343 422.862 455.458
3517 0 77.386 11.1519 863 118.801 422.486 453.127
3518 0 78.2752 9.81153 768 123.823 421.648 451.186
3519 0 83.1926 11.263 937 119.519 422.266 451.969
3520 0 85.1983 11.3852 970 120.863 422.913 452.338
3521 0 88.2055 11.5866 1022 120.906 422.826 450.679
3522 0 90.2126 11.1625 1007 122.203 422.633 449.409
3523 0 92.3721 11.0315 1019 124.053 422.618 446.993
3524 0 96.198 11.705 1126 123.36 422.133 442.223
3525 0 100.252 12.0596 1209 121.571 422.572 445.026
3526 0 103.233 12.5445 1295 124.959 421.781 444.27
3527 0 107.141 12.8242 1374 123.886 422.066 444.332
3528 0 109.17 12.6317 1379 125.376 422.336 442.464
3529 0 112.259 12.5068 1404 125.546 422.833 440.982
3530 0 114.229 11.5295 1317 129.08 422.867 438.771
3531 0 117.153 13.1111 1536 124.98 422.665 436.073
3532 0 122.16 12.2217 1493 125.883 422.168 431.43
3533 0 125.188 11.8702 1486 118.922 422.701 433.758
3534 0 131.319 11.3845 1495 118.72 422.655 433.997
3535 0 131.304 10.4414 1371 124.061 422.674 424.374
3536 0 138.422 11.725 1623 127.88 422.243 424.36
3537 0 140.378 11.7896 1655 129.92 422.369 425.608
3538 1 76.1895 8.07197 615 122.309 422.987 447.395
3539 0 80.2984 9.55187 767 119.37 422.911 444.712
3540 0 83.1561 9.83692 818 117.097 423.55 447.808
3541 0 87.1353 9.732 848 118.344 423.454 444.531
3542 0 90.1907 9.95668 898 117.491 424.019 446.423
3543 0 93.1797 9.55144 890 118.47 423.973 445.599
3544 0 95.0884 10.1064 961 119.17 423.267 444.955
3545 0 100.127 10.6165 1063 117.898 422.868 447.891
3546 0 105.111 11.5782 1217 117.27 422.996 445.598
3547 0 107.174 10.6183 1138 121.473 421.934 442.792
3548 0 110.32 11.0588 1220 120.154 422.123 439.26
3549 0 112.371 11.5777 1301 120.742 421.726 435.559
3550 0 115.42 11.8957 1373 119.687 421.79 436.29
3551 0 118.314 10.5313 1246 123.409 421.989 431.854
3552 0 124.532 11.7078 1458 120.34 421.972 432.03
3553 0 127.328 11.0109 1402 123.152 421.292 430.039
3554 0 132.38 12.0411 1594 120.338 421.555 429.22
3555 0 138.433 12.0492 1668 119.507 421.947 428.747
3556 1 81.2436 10.7085 870 111.824 421.999 455.998
3557 0 83.1321 9.98411 830 116.104 422.023 456.235
3558 0 84.1634 11.0262 928 114.651 422.796 452.857
3559 0 83.1611 10.8103 899 116.867 423.051 443.486
3560 0 88.2225 10.0315 885 116.38 422.503 445.999
3561 0 91.2699 9.8499 899 116.6 422.626 444.739
3562 0 93.3151 10.9307 1020 115.945 422.686 443.163
3563 0 97.3734 12.0567 1174 113.481 422.503 443.418
3564 0 102.258 10.9722 1122 115.225 422.903 446.804
3565 0 104.207 12.2257 1274 114.739 423.552 446.61
3566 0 108.192 11.7384 1270 115.143 423.815 446.347
3567 0 110.279 12.3324 1360 115.115 423.468 442.074
3568 0 113.199 11.8464 1341 117.257 423.025 443.186
3569 0 113.24 10.7382 1216 121.134 423.455 441.442
3570 0 119.161 12.6804 1511 116.737 421.955 437.39
3571 1 71.0727 10.9888 781 110.543 421.932 465.458
3572 0 71.2053 10.5751 753 114.417 421.422 461.717
3573 0 72.1156 12.6048 909 111.098 421.494 459.812
3574 0 75.058 11.8308 888 113.794 421.619 460.476
3575 0 75.1309 12.0057 902 111.112 423.847 460.235
3576 0 79.1453 14.0627 1113 105.36 424.273 459.096
3577 0 81.2559 12.8606 1045 107.6 424.091 461.87
3578 0 82.1546 12.9634 1065 107.86 423.544 460.837
3579 0 84.1408 12.7049 1069 109.976 423.724 459.557
3580 0 87.1662 13.3997 1168 107.807 423.814 457.741
3581 0 88.1586 12.1939 1075 112.19 423.38 455.872
3582 0 89.0881 12.4933 1113 112.879 423.9 453.984
3583 0 93.2323 12.9569 1208 110.578 423.412 454.73
3584 0 93.1705 12.0639 1124 113.234 423.927 454.456
3585 0 96.1386 12.7628 1227 113.425 423.65 449.758
3586 0 99.2143 13.2037 1310 113.147 423.335 449.968
3587 0 101.204 12.7168 1287 114.168 423.231 450.279
3588 0 104.096 13.0745 1361 110.45 422.791 447.698
3589 0 105.214 11.2913 1188 113.375 423.293 448.736
3590 0 110.228 12.6103 1390 111.594 422.799 445.24
3591 0 112.219 11.0409 1239 114.148 422.867 443.312
3592 0 118.068 12.5775 1485 113.407 422.331 440.708
3593 0 118.235 12.1538 1437 115.336 422.55 439.177
3594 0 123.165 13.5184 1665 114.007 422.545 436.417
3595 0 127.293 11.1082 1414 118.696 423.197 434.436
3596 1 70.2712 10.7014 752 119.193 423.109 461.997
3597 0 73.1796 11.2053 820 109.34 423.217 459.227
3598 0 76.2222 11.6501 888 107.45 423.994 458.382
3599 0 76.1049 11.8915 905 110.642 424.651 459.28
3600 0 80.1798 12.5094 1003 108.475 424.168 459.027
3601 0 82.1185 13.1517 1080 107.032 424.691 457.593
3602 0 82.1948 11.4241 939 113.141 424.722 455.204
3603 0 88.1524 13.1023 1155 107.911 424.261 453.345
3604 0 89.1518 12.2488 1092 110.66 424.796 453.785
3605 0 91.2245 12.6063 1150 111 424.642 452.217
3606 0 93.1298 12.4987 1164 112.54 424.186 452.225
3607 0 95.081 13.1782 1253 112.702 424.374 451.18
3608 0 99.109 12.9353 1282 112.976 423.743 449.285
3609 0 100.296 13.2707 1331 113.601 424.014 445.606
3610 0 103.242 12.9114 1333 116.036 423.377 444.79
3611 0 105.195 13.6413 1435 115.973 423.557 442.77
3612 0 109.163 14.1714 1547 116.084 423.324 442.853
3613 0 113.198 14.3996 1630 111.98 423.27 440.042
3614 0 116.33 12.8428 1494 114.878 423.527 440.198
3615 0 120.214 13.3346 1603 114.049 423.841 434.245
3616 0 121.228 12.7858 1550 114.908 423.659 435.777
3617 1 71.237 11.1459 794 106.271 422.777 462.599
3618 0 75.0604 11.231 843 106.238 423.116 460.874
3619 0 77.1327 12.2646 946 106.735 424.315 457.543
3620 0 81.1812 12.2073 991 105.507 425.036 460.606
3621 0 83.1444 11.7987 981 107.377 424.846 459.077
3622 0 84.1889 12.5076 1053 107.735 424.385 457.226
3623 0 86.1654 13.4044 1155 106.081 425.074 456.755
3624 0 90.1225 13.2486 1194 107.099 425.304 454.262
3625 0 92.0697 14.3804 1324 104.677 424.975 452.666
3626 0 94.1609 12.5211 1179 110.831 424.9 450.374
3627 0 99.1234 13.0343 1292 110.319 424.567 452.052
3628 0 99.1796 13.0773 1297 111.159 424.73 451.214
3629 0 104.148 12.3478 1286 110.797 424.974 449.737
3630 0 106.248 13.3085 1414 109.632 423.836 439.853
3631 0 109.264 12.7398 1392 111.383 424.117 436.971
3632 0 113.345 13.1281 1488 109.902 423.882 436.2
3633 0 118.204 13.629 1611 107.648 424.243 440.174
3634 0 122.232 13.5234 1653 107.95 423.652 439.142
3635 0 126.329 13.8053 1744 107.327 423.792 436.239
3636 1 70.0432 11.2216 786 101.186 424.87 468.426
3637 0 70.0418 11.3504 795 138.126 425.877 468.356
3638 0 73.1047 11.9828 876 106.002 423.356 461.167
3639 0 77.118 11.5019 887 102.591 423.953 461.796
3640 0 78.0932 11.7552 918 102.261 424.167 462.304
3641 0 84.1202 13.3143 1120 98.1393 424.117 460.378
3642 0 85.1141 12.7593 1086 100.431 424.256 458.669
3643 0 87.084 12.7922 1114 100.854 424.069 456.872
3644 0 88.0982 12.7017 1119 102.177 423.771 455.339
3645 0 90.17 11.7001 1055 106.553 423.454 453.515
3646 0 94.092 11.7651 1107 106.21 423.864 453.26
3647 0 97.2429 12.114 1178 105.941 423.84 453.923
3648 0 96.1852 11.8729 1142 107.941 423.828 449.703
3649 0 103.163 12.5142 1291 105.376 423.503 453.254
3650 0 108.305 12.8342 1390 104.568 423.223 448.51
3651 0 109.118 12.1612 1327 106.213 424.017 443.723
3652 0 115.254 12.8151 1477 105.083 423.476 444.376
3653 0 121.115 12.5914 1525 105.995 422.905 443.209
3654 1 71.0782 10.7909 767 104.837 423.94 466.411
3655 0 68.1938 10.0596 686 107.296 423.324 455.542
3656 0 71.0994 11.7019 832 103.334 423.877 456.284
3657 0 75.1384 11.0729 832 104.02 424.117 458.21
3658 0 77.095 11.7777 908 103.119 423.727 459.15
3659 0 76.0774 10.1344 771 108.366 423.76 452.768
3660 0 82.1193 10.6187 872 106.618 423.565 453.281
3661 0 84.1886 10.6546 897 107.398 423.785 453.96
3662 0 90.2514 12.0331 1086 103.786 423.396 453.523
3663 0 89.1146 10.0994 900 110.207 423.004 448.811
3664 0 93.1927 11.0953 1034 108.108 422.932 448.582
3665 0 98.247 11.7052 1150 107.701 423.175 448.923
3666 0 97.4146 11.5075 1121 110.107 422.73 446.311
3667 0 100.178 11.2899 1131 111.418 423.209 446.055
3668 0 105.171 12.2847 1292 109.209 422.338 445.629
3669 0 109.33 12.7961 1399 107.989 421.594 443.751
3670 0 109.289 10.9435 1196 108.854 422.59 444.288
3671 0 116.176 12.593 1463 105.799 422.72 442.981
3672 0 118.258 11.1282 1316 110.481 422.85 441.643
3673 0 122.262 12.0479 1473 107.735 422.1 440.354
3674 0 127.178 11.4092 1451 109.012 422.331 435.687
3675 0 134.541 11.6322 1565 108.232 422.399 436.302
3676 1 75.1294 10.595 796 107.531 422.226 463.747
3677 0 77.0883 11.2598 868 110.532 422.356 459.501
3678 0 77.0883 11.2079 864 133.188 422.353 459.47
3679 0 83.1428 11.4983 956 110.629 421.115 458.953
3680 0 87.2776 11.4577 1000 111.279 421.617 458.594
3681 0 90.2289 11.5927 1046 110.649 421.391 459.52
3682 0 89.1817 10.5403 940 115.026 421.314 457.05
3683 0 94.3171 11.5144 1086 112.239 421.232 455.888
3684 0 97.3748 13.7304 1337 108.351 421.165 450.765
3685 0 102.26 13.3093 1361 108.403 420.793 451.575
3686 0 103.304 12.9714 1340 110.796 421.206 447.778
3687 0 105.408 11.9062 1255 113.897 421.386 445.775
3688 0 109.431 12.1173 1326 113.559 421.719 443.549
3689 0 112.301 14.0159 1574 109.273 420.839 442.688
3690 0 113.392 11.9232 1352 115.312 421.252 440.455
3691 0 119.414 12.7958 1528 111.683 421.143 440.992
3692 0 121.398 13.0974 1590 111.93 420.985 436.664
3693 0 127.379 13.8249 1761 109.514 420.584 439.694
3694 0 130.419 13.3723 1744 111.263 421.013 434.456
3695 0 134.388 13.9298 1872 110.084 420.816 431.029
3696 0 138.405 11.6542 1613 115.718 420.634 428.527
3697 0 143.632 13.3397 1916 111.568 420.916 427.344
3698 1 84.3056 11.743 990 105.222 421.662 463.948
3699 0 86.2702 12.6347 1090 105.588 421.599 458.616
3700 0 91.5241 12.128 1110 105.44 421.067 456.848
3701 0 92.2867 12.0061 1108 106.748 420.863 454.97
3702 0 95.3692 12.1213 1156 106.685 420.444 456.088
3703 0 101.301 13.3563 1353 103.738 420.293 452.811
3704 0 103.258 13.4034 1384 104.228 420.665 452.431
3705 0 104.277 12.8696 1342 106.514 420.727 450.208
3706 0 107.297 12.3955 1330 107.332 420.986 451.091
3707 0 109.237 11.617 1269 109.904 421.542 447.515
3708 0 112.165 11.9556 1341 109.543 422.119 441.964
3709 0 119.353 13.6654 1631 103.903 421.468 445.819
3711 0 122.263 13.0211 1592 105.703 420.995 443.569
3712 0 125.547 13.246 1663 105.405 421.405 441.669
3713 0 127.398 11.9703 1525 107.868 421.381 440.736
3714 0 133.289 12.169 1622 107.053 420.79 437.692
3715 0 135.328 11.9783 1621 107.806 421.024 433.661
3716 0 142.444 13.2473 1887 102.255 420.765 431.768
3717 1 86.2163 11.9699 1032 102.302 420.694 459.644
3718 0 86.2219 12.0155 1036 101.634 420.537 457.751
3719 0 87.3117 11.625 1015 102.194 420.781 455.322
3720 0 93.2978 12.6798 1183 98.3085 420.374 455.753
3721 0 95.2499 13.1024 1248 98.5938 420.744 451.06
3722 0 99.1803 12.321 1222 99.1015 420.822 450.012
3723 0 99.167 11.6168 1152 100.438 420.729 449.271
3724 0 104.281 12.965 1352 97.4734 421.05 445.78
3725 0 107.223 13.0289 1397 98.0372 421.329 449.031
3726 0 111.156 10.4898 1166 103.473 421.77 440.138
3727 0 114.118 11.751 1341 100.231 422.179 442.908
3728 1 60.0291 10.7448 645 99.0744 422.712 466.555
3729 0 66.1219 11.9174 788 94.1041 421.65 465.694
3730 0 67.0979 11.4609 769 96.2887 421.612 466.596
3731 0 66.0395 10.4634 691 97.9682 421.944 465.187
3732 0 68.0611 10.3143 702 99.2778 422.419 463.5
3733 0 72.054 11.6718 841 95.8549 422.696 462.9
3734 0 73.099 12.1479 888 95.6543 423.018 462.458
3735 0 75.0999 12.237 919 95.0544 423.323 459.533
3736 0 78.1045 12.176 951 95.3575 423.157 457.639
3737 0 83.1784 13.0322 1084 92.8072 422.483 457.179
3738 0 83.0752 11.4715 953 97.3945 422.775 456.782
3739 0 85.1657 12.4933 1064 96.4408 422.442 452.929
3740 0 88.2536 12.3621 1091 95.9899 422.526 453.335
3741 0 93.2111 13.9254 1298 92.9183 422.653 451.876
3742 0 95.152 13.0738 1244 96.119 422.441 450.256
3743 0 97.2382 13.2561 1289 97.3103 422.394 447.95
3744 0 101.3 13.0404 1321 99.8615 422.332 447.31
3745 0 102.36 12.8273 1313 101.781 422.595 445.768
3746 0 107.199 14.5243 1557 98.5421 423.183 443.825
3747 0 107.155 11.5907 1242 105.697 422.832 440.928
3748 0 115.193 14.2457 1641 99.6917 421.299 439.328
3749 0 114.159 11.9833 1368 106.26 422.053 436.382
3750 0 118.253 11.6783 1381 106.877 422.843 439.575
3751 1 70.1147 11.4241 801 104.323 422.722 465.064
3752 0 72.083 11.348 818 102.476 422.194 462.188
3753 0 74.0935 12.7541 945 101.174 422.192 460.466
3754 0 76.0373 13.2961 1011 101.584 422.236 458.433
3755 0 80.188 12.9072 1035 101.926 422.243 458.025
3756 0 81.0914 12.2084 990 104.373 421.974 459.44
3757 0 85.0612 13.2963 1131 101.538 422.171 458.318
3758 0 85.1294 11.8291 1007 106.571 421.993 454.64
3759 0 88.1167 12.4608 1098 105.814 422.533 453.329
3760 0 93.172 13.577 1265 104.009 422.387 451.263
3761 0 95.2191 13.9153 1325 104.367 422.563 451.891
3762 0 95.2556 11.8943 1133 110.595 423.409 449.92
3763 0 101.139 12.7152 1286 108.941 423.063 448.83
3764 0 105.088 13.0938 1376 108.571 423.262 448.417
3765 0 106.142 12.9638 1376 109.87 422.986 447.239
3766 0 109.191 12.6842 1385 111.585 423.18 445.598
3767 0 112.177 12.1148 1359 114.288 422.62 442.089
3768 0 114.126 12.1708 1389 114.802 422.888 442.759
3769 0 119.149 11.8842 1416 115.888 423.023 439.73
3770 0 123.21 13.6597 1683 111.693 423.058 437.595
3771 0 127.217 11.956 1521 114.052 422.957 439.205
3772 0 134.16 12.6565 1698 110.977 422.916 437.918
3773 0 136.205 12.0553 1642 114.145 423.357 433.977
3774 0 141.223 12.4909 1764 112.663 422.975 433.237
3775 0 146.208 13.1251 1919 112.338 423.244 429.498
3776 0 151.195 13.1156 1983 112.947 423.126 429.011
3777 0 157.245 12.7953 2012 114.732 423.179 423.278
3778 1 88.0637 12.173 1072 113.665 422.826 457.249
3779 0 91.0454 13.4658 1226 112.234 423.05 450.202
3780 0 96.1666 13.0087 1251 114.205 422.636 452.122
3781 0 96.138 14.0631 1352 113.451 423.232 450.99
3782 0 98.2554 13.8008 1356 118.235 422.682 449.531
3783 0 101.212 13.8619 1403 119.602 422.614 446.644
3784 0 105.162 13.541 1424 117.51 422.426 447.716
3785 0 109.195 14.6252 1597 115.654 422.674 445.218
3786 0 111.204 14.2082 1580 118.987 422.499 443.685
3787 0 114.216 13.9122 1589 119.76 422.596 440.905
3788 0 118.126 14.4253 1704 118.148 423.242 441.072
3789 0 119.139 13.5136 1610 122.173 422.617 437.981
3790 0 123.126 13.4415 1655 117.404 422.485 436.236
3791 0 127.117 13.4994 1716 116.751 422.52 437.677
3792 0 132.134 12.4344 1643 118.11 423.122 435.411
3793 0 139.135 15.2514 2122 111.149 422.669 429.65
3794 0 141.114 14.1163 1992 115.298 423.104 426.352
3795 0 148.187 13.6112 2017 115.795 423.637 427.686
3796 1 88.056 11.6517 1026 116.996 423.818 454.324
3797 0 89.0942 13.1658 1173 115.994 423.731 453.386
3798 0 92.1427 13.9023 1281 114.802 423.554 451.432
3799 0 96.3441 14.0745 1356 114.695 422.808 447.381
3800 0 99.1462 13.5557 1344 116.325 423.913 445.888
3801 0 100.145 13.5503 1357 115.546 423.469 444.783
3802 0 105.163 14.2446 1498 114.572 423.479 443.316
3803 0 105.14 13.5058 1420 117.761 423.237 440.208
3804 0 108.181 13.1724 1425 118.667 423.671 440.093
3805 0 114.148 14.1308 1613 116.001 423.583 434.106
3806 0 117.286 12.866 1509 118.926 422.186 432.315
3807 0 121.293 13.4962 1637 117.164 422.955 433.677
3808 0 125.281 14.695 1841 115.099 422.356 432.94
3809 0 128.324 14.6815 1884 115.428 422.318 430.352
3810 0 131.24 14.0582 1845 115.851 422.495 426.205
3811 0 135.433 13.9183 1885 117.968 422.687 423.523
3812 0 141.236 14.451 2041 116.112 422.194 424.465
3813 0 143.253 14.443 2069 116.967 422.207 421.864
3814 0 150.242 14.5764 2190 115.806 422.79 420.016
3815 0 156.19 15.0265 2347 114.68 423.044 415.879
3816 0 162.369 14.9844 2433 115.049 423.471 413.631
3817 0 164.33 13.7893 2266 118.468 422.465 409.107
3818 0 173.335 14.8268 2570 114.135 422.558 409.181
3819 0 177.289 14.0167 2485 116.832 422.419 406.161
3820 0 183.33 13.7675 2524 116.869 422.489 403.817
3821 0 191.24 15.6871 3000 111.519 422.789 399.034
3822 0 194.402 13.611 2646 117.812 422.937 395.198
3823 0 203.322 14.8533 3020 114.895 422.224 392.746
3824 0 209.411 15.5006 3246 112.875 422.804 392.574
3825 0 215.384 13.6825 2947 118.442 422.65 388.336
3826 0 223.3 15.7098 3508 113.301 422.379 387.966
3827 0 231.337 15.2289 3523 113.403 422.41 383.139
3828 1 166.302 12.327 2050 117.913 422.782 420.299
3829 0 172.408 13.5203 2331 116.66 422.858 412.472
3830 0 178.293 13.3993 2389 117.818 422.633 408.248
3831 0 181.194 12.9695 2350 119.222 422.941 403.356
3832 0 188.291 12.4648 2347 119.083 422.296 403.237
3833 0 195.367 11.6857 2283 120.778 422.537 397.482
3834 0 202.268 12.9531 2620 118.671 422.124 394.229
3835 0 210.308 12.9905 2732 116.854 421.892 391.747
3836 0 217.312 13.3725 2906 116.727 421.885 380.947
3837 0 226.37 13.9197 3151 115.479 422.013 383.712
3838 0 234.44 13.7263 3218 115.78 422.313 379.629
3839 1 61.1102 11.6838 714 104.929 423.867 468.258
3840 0 64.2187 13.3606 858 101.576 422.681 469.886
3841 0 61.0279 10.1593 620 103.303 422.673 468.15
3842 0 65.0803 11.0479 719 100.349 422.376 468.317
3843 0 67.1112 11.548 775 101.293 422.223 465.702
3844 0 68.1511 9.53763 650 104.926 422.306 467.551
3845 0 70.0723 9.74708 683 104.52 422.799 465.406
3846 0 73.0573 12.3465 902 99.9368 422.69 464.259
3847 0 74.0617 10.6263 787 104.098 422.534 463.161
3848 0 78.125 10.2272 799 102.891 422.594 463.514
3849 0 79.0745 10.4079 823 102.247 421.976 459.016
3850 0 87.2122 14.4475 1260 90.7056 422.352 451.59
3851 0 89.3483 13.9118 1243 92.5543 422.499 451.331
3852 0 87.0846 10.9319 952 102.278 423.141 459.18
3853 0 90.0767 11.6234 1047 101.664 423.271 456.345
3854 1 110.161 12.2457 1349 95.4299 423.485 448.984
3855 0 112.279 16.7262 1878 84.9707 423.806 443.381
3856 0 110.406 16.1494 1783 89.5205 422.315 440.05
3857 0 110.227 17.0284 1877 92.6937 422.587 439.783
3858 0 115.392 18.7534 2164 89.3396 423.153 440.009
3859 0 116.297 18.7193 2177 93.1511 423.086 434.953
3860 0 110.221 13.4457 1482 110.831 422.937 431.463
3861 0 116.342 13.0822 1522 111.813 423.172 429.026
3862 0 119.298 13.9315 1662 109.549 423.215 427.873
3863 0 120.337 13.6117 1638 111.791 422.876 426.891
3864 0 124.226 13.7008 1702 111.848 423.365 425.463
3865 1 70.1874 12.4524 874 105.783 423.844 454.176
3866 0 72.1213 12.4096 895 107.128 423.797 454.072
3867 0 75.0763 13.0933 983 106.256 423.584 454.663
3868 0 77.0899 12.7643 984 107.818 423.783 455.752
3869 0 79.0947 13.5028 1068 107.274 423.81 457.489
3870 0 80.1055 13.0453 1045 109.789 423.44 457.483
3871 0 84.1153 13.6123 1145 108.437 423.437 458.121
3872 0 85.1332 13.6727 1164 108.363 424.07 460.69
3873 0 86.1781 13.3909 1154 111.246 423.834 459.511
3874 0 88.139 12.7526 1124 113.584 423.419 456.403
3875 0 91.1224 14.0361 1279 110.968 423.31 454.974
3876 0 93.1014 14.1029 1313 112.816 423.321 452.653
3877 0 96.0901 12.6028 1211 116.319 423.804 453.491
3878 0 99.0905 13.7854 1366 114.242 423.777 451.33
3879 0 103.161 14.1817 1463 114.135 423.763 451.78
3880 0 105.146 13.9331 1465 115.418 423.941 451.137
3881 0 108.084 13.9429 1507 116.567 423.307 447.012
3882 0 110.114 13.6132 1499 119.104 423.372 446.532
3883 0 113.14 13.3286 1508 120.92 423.47 445.717
3884 0 120.187 14.7354 1771 116.342 423.175 444.75
3885 0 121.07 14.3388 1736 120.923 423.381 441.097
3886 0 126.167 14.6155 1844 118.415 423.31 440.369
3887 0 128.206 12.4409 1595 123.697 423.68 440.683
3888 0 134.107 13.5489 1817 119.299 422.474 437.975
3889 0 139.118 14.0888 1960 118.586 422.155 434.485
3890 0 143.26 12.5785 1802 124.372 421.987 428.664
3891 0 149.189 13.2717 1980 121.607 421.734 430.307
3892 0 153.251 13.1549 2016 123 421.715 427.122
3893 1 89.0956 13.6932 1220 116.409 421.148 456.41
3894 0 91.0843 14.031 1278 116.444 422.172 454.854
3895 0 90.183 12.0089 1083 119.77 421.932 449.368
3896 0 94.09 12.6687 1192 118.443 422.188 449.247
3897 0 98.1283 13.6862 1343 116.272 422.662 448.248
3898 0 98.0754 12.2763 1204 120.924 422.826 446.821
3899 0 103.114 13.005 1341 118.623 422.172 446.26
3900 0 105.138 13.6488 1435 119.031 421.923 442.867
3901 0 106.092 12.8851 1367 121.372 421.981 441.007
3902 0 109.128 12.8107 1398 120.968 422.353 439.448
3903 0 113.131 12.9319 1463 120.684 422.049 436.56
3904 0 118.167 13.921 1645 117.478 422.194 437.385
3905 0 121.279 12.6815 1538 118.33 422.1 437.178
3906 0 125.206 12.7151 1592 117.767 422.023 437.558
3907 0 130.244 13.0448 1699 115.477 421.522 433.491
3908 0 134.097 13.4007 1797 114.712 422.042 429.666
3909 1 79.1991 10.8966 863 115.171 422.249 458.768
3910 0 84.0841 11.6431 979 113.198 422.271 458.221
3911 0 86.024 10.8807 936 116.424 422.982 454.372
3912 0 86.1565 10.1908 878 118.541 421.953 453.071
3913 0 92.0599 11.2427 1035 116.682 421.673 452.968
3914 0 94.099 13.2733 1249 111.6 422.721 450.902
3915 0 99.1899 12.5315 1243 117.946 422.513 452.369
3916 0 100.093 12.5383 1255 114.357 422.462 446.073
3917 0 104.182 12.219 1273 115.204 421.626 447.64
3918 0 106.087 12.3012 1305 114.867 421.578 445.474
3919 0 113.158 13.3707 1513 112.104 421.262 444.145
3920 0 115.147 13.2179 1522 112.788 421.198 441.463
3921 0 118.077 11.9753 1414 110.164 421.539 441.552
3922 1 67.0825 10.3008 691 109.815 422.172 466.081
3923 0 70.0448 12.4492 872 108.573 422.327 469.013
3924 0 73.0653 12.8105 936 107.705 421.828 466.691
3925 0 72.055 10.6863 770 113.773 421.944 467.809
3926 0 75.1135 11.3162 850 112.965 421.944 466.908
3927 0 77.089 11.2857 870 114.52 421.561 463.502
3928 0 81.0774 12.1859 988 112.385 421.211 464.253
3929 0 83.1609 13.0951 1089 110.13 421.324 461.002
3930 0 84.14 12.4911 1051 111.852 420.708 457.896
3931 0 89.1003 13.0078 1159 109.674 421.085 459.789
3932 0 91.099 11.2295 1023 113.506 420.552 452.376
3933 0 91.1302 11.5439 1052 114.175 420.492 448.513
3934 0 95.1846 11.1047 1057 115.836 420.8 449.765
3935 0 97.1359 10.7272 1042 118.798 420.273 452.814
3936 0 102.131 13.1008 1338 112.879 421.276 452.572
3937 0 103.083 12.3395 1272 116.036 420.935 449.505
3938 0 107.087 13.1388 1407 115.66 420.961 449.14
3939 0 109.115 12.638 1379 117.935 420.358 448.104
3940 0 112.131 13.5199 1516 116.475 421.024 447.073
3941 0 116.188 14.0721 1635 115.365 420.731 439.269
3942 0 119.232 12.9831 1548 118.863 421.421 440.22
3943 0 122.226 13.0169 1591 119.841 421.36 436.389
3944 0 126.193 13.7488 1735 118.261 421.317 434.499
3945 0 130.394 12.5619 1638 121.72 421.532 432.649
