time division length width area intensity CMx CMy
0 0 41.0243 12.3341 506 133.524 360.213 470.617
1 0 40.0989 11.721 470 137.311 360.606 469.74
2 0 44.1332 12.7568 563 128.218 360.437 470.446
3 0 44.0655 11.8233 521 131.466 360.186 470.05
4 0 44.1239 12.5782 555 130.196 360.353 468.786
5 0 44.1168 11.6282 513 133.175 360.52 471.386
6 0 46.0522 12.5293 577 130.903 360.362 468.397
7 0 47.1433 11.6241 548 132.527 359.566 469.319
8 0 47.037 12.5008 588 131.849 358.879 468.139
9 0 50.0753 12.2416 613 129.188 358.739 468.44
10 0 49.0567 12.19 598 132.06 358.582 468.045
11 0 51.0798 12.4707 637 131.237 359.058 467.581
12 0 52.0222 13.5519 705 127.455 358.081 467.888
13 0 56.0654 12.753 715 120.741 359.162 464.512
14 0 54.0473 12.2485 662 131.906 358.576 464.795
15 0 57.0663 12.6344 721 131.852 358.105 465.857
16 0 58.1352 12.7806 743 130.845 358.509 466.404
17 0 60.0915 12.897 775 130.615 358.604 465.552
18 0 61.055 13.0374 796 129.795 358.358 465.886
19 0 63.1535 12.525 791 131.808 358.152 464.6
20 0 64.1695 12.6072 809 131.137 357.26 464.245
21 0 67.105 13.8142 927 127.923 357.689 465.485
22 0 70.0913 14.0816 987 126.102 357.218 463.373
23 0 72.1062 14.3538 1035 127 357.427 461.263
24 0 73.0852 13.6827 1000 129.729 356.674 461.084
25 0 76.0988 13.7322 1045 130.502 357.239 458.663
26 0 79.1024 15.3472 1214 126.596 357.133 457.283
27 0 82.0813 13.8278 1135 133.135 357.292 457.404
28 0 83.1611 13.5159 1124 133.67 357.634 456.492
29 0 87.172 12.9973 1133 135.06 356.756 456.961
30 0 90.2607 13.2173 1193 135.992 357.206 452.746
31 0 93.1556 14.084 1312 133.692 356.625 450.504
32 1 45.0902 12.7522 575 136.259 357.468 475.703
33 0 48.0734 12.5849 605 136.896 357.218 473.081
34 0 49.0737 12.2265 600 138.812 358.277 473.01
35 0 52.0668 15.5185 808 127.4 357.517 472.093
36 0 51.0455 13.5957 694 130.2 357.536 474.255
37 0 53.0326 14.0291 744 130.05 356.95 471.3
38 0 55.0488 13.3881 737 131.148 356.639 471.099
39 0 59.1703 13.1992 781 130.114 356.297 470.629
40 0 59.1781 12.7919 757 132.826 356.874 469.111
41 0 62.1839 13.9103 865 129.161 357.044 467.849
42 0 64.0933 13.73 880 129.691 356.836 466.641
43 0 67.0871 14.2054 953 127.002 356.931 465.632
44 0 68.1369 14.1333 963 127.845 356.481 465.58
45 0 70.086 14.2111 996 128.907 356.101 464.034
46 0 73.1022 13.8436 1012 131.454 356.283 463.63
47 0 77.1335 14.3647 1108 128.495 356.36 462.338
48 0 77.1389 14.0137 1081 131.007 356.331 460.888
49 0 80.093 14.0087 1122 132.683 355.762 457.839
50 0 85.1714 15.3573 1308 126.839 355.298 457.963
51 0 86.282 13.8036 1191 132.028 355.147 457.367
52 0 88.0909 14.0083 1234 132.36 355.31 455.64
53 0 92.0935 13.9315 1283 131.708 355.239 454.853
54 0 97.2234 15.017 1460 125.311 354.731 453.478
55 1 47.025 13.0782 615 115.003 355.06 475.476
56 0 48.0971 12.7866 615 125.886 355.367 474.003
57 0 49.0277 11.9728 587 123.54 355.121 474.281
58 0 51.1158 12.3054 629 121.41 355.541 477.205
59 0 54.0622 13.4475 727 120.21 355.564 473.787
60 0 54.0341 13.2139 714 121.517 355.654 473.029
61 0 58.0987 13.5115 785 119.572 354.754 472.056
62 0 61.1253 14.2658 872 117.88 354.339 471.064
63 0 61.0537 12.9394 790 123.885 354.985 469.768
64 0 65.1223 13.6052 886 120.567 354.244 468.118
65 0 68.1337 13.9138 948 120.426 354.844 466.887
66 0 70.0585 13.8884 973 121.065 355.281 465.888
67 0 73.0413 14.5397 1062 120.022 354.605 464.126
68 0 76.0635 13.9883 1064 122.014 355.21 463.704
69 0 77.0863 13.3617 1030 125.911 354.927 461.689
70 0 80.1637 13.2728 1064 127.026 355.137 461.328
71 0 83.0315 13.9104 1155 126.966 355.039 459.654
72 1 43.044 10.9655 472 124.896 355.121 481.278
73 0 43.0721 12.1424 523 125.839 355.419 479.696
74 0 43.1876 12.7583 551 127.209 354.265 474.174
75 0 45.1112 12.6354 570 127.063 355.104 476.282
76 0 46.0498 12.5299 577 125.083 356.036 478.579
77 0 47.0352 11.2469 529 128.624 356.238 477.777
78 0 50.0767 12.6206 632 124.008 355.437 477.392
79 0 50.051 11.6082 581 127.434 355.151 477.225
80 0 52.0621 11.9665 623 126.65 354.676 475.307
81 0 53.1238 13.2333 703 122.933 354.871 474.633
82 0 55.1371 12.478 688 124.522 354.167 473.257
83 0 59.1148 12.9071 763 122.653 354.337 473.313
84 0 60.2514 12.9789 782 123.385 354.951 472.238
85 0 62.0809 13.4985 838 122.638 354.638 470.124
86 0 66.1475 14.4979 959 119.666 353.998 469.05
87 0 68.2755 13.7678 940 123.205 353.783 467.494
88 0 69.403 13.9331 967 124.971 353.717 466.076
89 0 72.2882 13.4462 972 127.968 353.826 463.889
90 0 75.4417 14.0241 1058 126.56 353.432 462.536
91 0 78.3566 14.3957 1128 123.182 353.863 462.735
92 0 80.198 13.7161 1100 121.65 353.778 462.18
93 0 83.1055 13.6333 1133 122.372 353.77 460.696
94 0 85.2215 13.4473 1146 124.223 353.997 460.628
95 0 88.2166 13.0474 1151 125.374 353.824 458.835
96 0 91.2756 13.2127 1206 125.281 353.245 457.997
97 0 93.2742 12.8331 1197 126.549 353.877 455.637
98 0 97.2582 13.7058 1333 124.712 353.821 453.298
99 0 99.3471 13.1861 1310 125.603 353.747 453.839
100 0 102.387 13.4979 1382 126.213 353.386 451.02
101 1 56.0862 11.9815 672 123.113 353.943 474.521
102 0 58.1461 12.3482 718 121.547 353.994 473.567
103 0 58.0523 12.282 713 116.394 353.907 473.519
104 0 60.1245 13.1727 792 115.051 354.042 472.649
105 0 62.1901 13.1693 819 116.249 354.622 470.835
106 0 65.0729 13.2621 863 114.177 353.781 468.716
107 0 69.1426 12.7128 879 117.449 354.147 469.1
108 0 70.0463 12.8915 903 121.474 353.813 466.443
109 0 73.1236 13.3473 976 118.615 354.413 467.031
110 0 74.1061 12.5901 933 121.953 354.179 464.344
111 0 78.1027 12.6756 990 121.883 353.963 461.971
112 0 81.1339 12.9786 1053 120.098 354.012 460.896
113 0 85.1686 13.0917 1115 117.248 354.151 460.048
114 0 85.1297 12.2284 1041 118.243 354.165 458.546
115 0 88.1226 12.2897 1083 116.488 353.663 457.688
116 0 90.1951 12.5284 1130 117.233 352.86 456.864
117 0 95.2033 12.447 1185 116.874 352.971 454.312
118 0 96.1327 12.2747 1180 118.631 353.277 453.917
119 0 100.288 12.4741 1251 117.278 353.16 453.145
120 0 103.247 12.9301 1335 117.103 353.04 450.625
121 1 53.1527 11.7586 625 116.952 353.963 472.624
122 0 55.092 12.6879 699 114.86 352.617 472.552
123 0 53.1397 11.5544 614 111.726 353.409 472.534
124 0 56.0749 10.7535 603 112.769 354.264 472.395
125 0 59.022 11.6397 687 109.303 353.148 472.633
126 0 62.0551 10.7646 668 111.027 352.982 472.168
127 0 63.1949 12.3586 781 111.187 352.595 472.256
128 0 65.1353 13.1572 857 112.081 353.357 469.133
129 0 69.1691 12.0719 835 114.759 352.925 468.078
130 0 71.1018 13.3189 947 115.706 353.097 465.154
131 0 75.1214 12.3001 924 116.516 353.461 464.916
132 0 77.1131 12.9161 996 115.688 353.707 464.293
133 0 81.2513 13.1444 1068 114.473 353.19 461.955
134 0 83.1635 13.5997 1131 112.065 353.471 461.487
135 0 85.1245 13.4274 1143 112.665 353.609 460.241
136 0 88.1495 12.3767 1091 113.821 354.899 459.887
137 1 44.0517 11.2141 494 109.725 355.158 479.551
138 0 46.0361 11.2086 516 106.676 353.8 478.845
139 0 45.0676 10.7172 483 110.236 353.787 478.692
140 0 49.0878 13.0786 642 104.607 354.076 477.519
141 0 50.0321 12.532 627 105.196 353.289 477.348
142 0 50.0527 12.7665 639 106.197 353.07 475.698
143 0 52.1052 11.8606 618 107.212 353.223 475.479
144 0 55.0304 12.1206 667 105.81 353.055 475.582
145 0 54.0316 12.7148 687 107.015 354.111 472.339
146 0 55.0984 11.5793 638 109.788 353.296 474.759
147 0 56.0394 11.5098 645 110.378 353.446 473.557
148 0 58.0354 11.9065 691 110.11 354.036 470.961
149 0 60.0577 11.822 710 109.349 353.884 472.731
150 0 62.1102 12.0753 750 108.673 354.099 472.733
151 0 63.1428 11.3077 714 110.987 353.632 471.066
152 0 67.1055 13.5309 908 106.512 353.441 470.578
153 0 70.1071 13.3225 934 109.337 353.519 466.478
154 0 70.1039 12.3388 865 113.539 353.949 466.909
155 0 74.1258 13.4366 996 111.801 353.167 465.492
156 0 74.1183 13.0737 969 114.844 353.803 464.283
157 0 78.1812 12.0617 943 117.263 353.569 461.341
158 0 80.1062 13.17 1055 114.458 353.444 462.371
159 0 83.2462 12.433 1035 116.948 353.1 459.494
160 0 86.0512 12.5855 1083 114.585 353.005 457.349
161 1 43.0423 11.3609 489 111.112 352.98 478.957
162 0 45.0162 12.2623 552 108.94 353.221 476.69
163 0 43.0668 11.7492 506 109.417 353.111 479.249
164 0 46.035 11.4478 527 109.408 352.575 477.328
165 0 50.0446 11.9094 596 106.631 352.779 477.656
166 0 48.0281 11.4308 549 110.831 353.042 476.337
167 0 52.056 12.0063 625 107.827 353.869 475.957
168 0 55.0365 12.9369 712 105.629 353.006 474.374
169 0 55.0494 12.0074 661 109.623 353.463 471.517
170 0 57.0781 13.6304 778 105.757 353.468 472.015
171 0 59.0401 13.296 785 105.558 352.868 470.754
172 0 59.1711 12.0667 714 108.811 352.797 470.898
173 0 64.1304 12.1939 782 109.754 352.568 467.648
174 0 68.0375 14.5361 989 104.427 352.733 465.572
175 0 69.1114 13.5289 935 108.609 352.847 465.799
176 0 71.1846 12.1094 862 113.541 352.573 462.261
177 0 75.1429 13.0418 980 110.965 352.759 463.623
178 1 43.011 11.1134 478 113.41 353.013 479.071
179 0 42.1524 11.1737 471 114.057 353.015 479.299
180 0 43.0301 12.0613 519 107.108 354.164 480.595
181 0 44.0178 11.041 486 109.101 355.368 478.311
182 0 44.0069 11.271 496 110.397 354.224 478.688
183 0 46.0607 11.1809 515 110.283 353.816 478.652
184 0 46.0337 11.3178 521 112.61 354.234 477.595
185 0 47.0515 10.3078 485 116.559 354.419 474.678
186 0 51.0495 11.146 569 112.466 354.631 476.924
187 0 52.0782 11.9052 620 114.09 354.532 472.735
188 0 53.0262 11.5792 614 113.673 354.463 474.849
189 0 56.1269 12.062 677 112.433 354.821 472.83
190 0 57.083 12.2979 702 112.973 353.932 471.625
191 0 59.0813 12.7959 756 112.196 354.321 469.126
192 0 62.1249 12.5715 781 111.471 354.261 470.122
193 0 63.133 12.4816 788 113.363 354.358 467.316
194 0 66.1232 11.2669 745 116.391 354.392 468.8
195 0 70.1645 12.2427 859 115.327 354.277 466.667
196 0 71.1647 12.3235 877 115.608 353.75 465.373
197 0 75.1298 12.4718 937 114.678 354.263 465.07
198 0 75.0952 12.1179 910 117.408 354.177 462.297
199 0 81.0879 12.5173 1015 114.09 353.989 462.86
200 0 82.0687 12.5626 1031 115.467 353.5 458.883
201 0 85.1365 13.2376 1127 113.243 353.081 457.87
202 1 46.0728 11.026 508 114.726 353.685 477.333
203 0 51.0282 12.1697 621 110.683 353.604 476.169
204 0 51.0274 12.1111 618 113.536 354.172 475.947
205 0 51.087 12.743 651 116.399 352.24 473.608
206 0 49.0742 11.1668 548 112.15 353.617 476.051
207 0 51.0556 12.1045 618 109.642 353.144 474.906
208 0 53.0728 12.3981 658 108.336 353.321 472.339
209 0 55.1224 12.0641 665 112.884 353.713 473.553
210 0 58.0593 12.625 733 110.793 354.038 471.764
211 0 58.1301 11.6979 680 113.975 353.728 472.535
212 0 61.0836 12.18 744 112.883 353.673 470.699
213 0 61.1616 12.5405 767 113.408 353.044 470.033
214 0 65.147 12.7558 831 111.401 352.671 469.134
215 0 68.1597 13.6444 930 110.605 352.656 465.934
216 0 71.1663 12.9977 925 113.001 353.507 464.964
217 0 75.0932 13.5032 1014 110.806 353.169 464.328
218 0 77.1388 14.3378 1106 110.376 353.551 463.392
219 0 76.1026 12.5751 957 118.316 352.797 461.211
220 0 81.0515 13.621 1104 118.887 353.796 459.113
221 0 84.1301 13.3246 1121 121.255 354.182 459.74
222 0 88.0415 14.6863 1293 115.967 353.395 459.46
223 0 91.0819 13.7019 1248 119.76 353.357 455.667
224 1 49.1163 12.5213 615 116.956 354.528 477.896
225 0 47.0574 12.2829 578 119.441 352.462 475.304
226 0 46.1116 11.7107 540 117.902 353.269 478.454
227 0 49.0584 12.7807 627 115.455 352.705 477.464
228 0 49.0648 10.8632 533 121.707 352.857 477.039
229 0 52.0812 12.4805 650 117.735 353.777 476.426
230 0 54.1433 11.8944 644 120.152 354.179 474.123
231 0 55.0284 11.1397 613 121.958 352.687 474.302
232 0 56.0493 12.3106 690 118.822 352.762 473.888
233 0 61.0741 12.5094 764 117.421 354.414 472.318
234 0 62.1208 13.184 819 117.005 354.753 471.36
235 0 64.0878 13.0446 836 117.248 354.211 469.91
236 0 64.0849 12.936 829 120.501 354.466 468.334
237 0 67.1466 12.2568 823 123.062 354.03 465.871
238 0 71.118 13.5549 964 119.548 353.758 464.935
239 0 73.088 13.9831 1022 119.115 353.587 462.845
240 0 77.1021 13.7221 1058 118.474 353.493 464.207
241 0 78.1888 13.5825 1062 120.216 353.079 461.252
242 0 82.1661 14.349 1179 117.807 353.819 459.85
243 0 85.1672 13.6672 1164 118.925 353.413 457.192
244 0 87.1413 13.197 1150 121.349 353.33 455.959
245 0 90.2267 13.455 1214 121.045 353.716 454.527
246 1 44.0328 10.8556 478 120.126 354.695 477.918
247 0 44.194 10.2276 452 120.086 352.325 475.385
248 0 47.1107 12.6511 596 112.559 352.849 475.515
249 0 50.1149 13.2097 662 107.568 354.863 476.375
250 0 50.0791 12.1408 608 111.258 354.602 475.822
251 0 51.1023 12.4065 634 111.901 354.558 474.011
252 0 53.1355 12.0635 641 112.318 353.849 474.423
253 0 54.1511 12.6313 684 112.276 353.532 472.212
254 0 56.0921 11.7664 660 114.35 354.285 473.264
255 0 56.18 11.4098 641 116.538 354.192 472.429
256 0 59.1161 11.9595 707 113.909 354.395 472.7
257 0 62.086 12.1767 756 114.025 354.156 470.668
258 0 61.0531 11.4982 702 116.238 354.275 468.983
259 0 67.0841 13.0881 878 112.657 353.542 468.396
260 0 68.119 12.4488 848 115.843 354.129 467.33
261 0 69.0898 12.0423 832 120.001 354.216 465.549
262 0 73.1271 12.9501 947 118.476 354.026 464.182
263 0 73.0555 13.3871 978 120.102 354.089 460.519
264 0 78.1363 13.8732 1084 116.312 353.901 461.982
265 0 79.1088 12.5523 993 121.018 353.77 460.183
266 0 82.135 12.7717 1049 120.805 354.476 460.092
267 0 88.1095 13.4946 1189 117.534 354.733 459.519
268 0 89.1162 13.2299 1179 119.684 354.858 456.269
269 1 44.0332 10.6511 469 117.343 355.092 479.742
270 0 47.1111 12.0566 568 113.107 354.634 477.979
271 0 47.2231 12.1763 575 114.529 354.84 475.003
272 0 49.0587 13.6367 669 110.921 354.623 477.256
273 0 50.0454 12.6485 633 112.912 353.875 477.52
274 0 52.0558 12.1984 635 113.578 354.039 477.836
275 0 53.068 11.6078 616 116.437 354.287 476.232
276 0 54.0579 12.1721 658 115.17 353.98 475.005
277 0 57.114 13.5694 775 112.649 353.692 473.537
278 0 57.1104 12.5021 714 117.447 353.751 472.42
279 0 60.1586 13.8135 831 114.881 353.858 471.187
280 0 61.0494 13.1533 803 117.357 353.71 470.265
281 0 64.1463 13.516 867 115.325 354.055 470.082
282 0 66.0611 13.1091 866 117.686 353.717 469.673
283 0 66.0716 13.7729 910 118.166 353.944 468.023
284 0 68.0867 14.2612 971 118.377 354.342 465.988
285 0 70.0241 13.5382 948 119.915 353.653 466.736
286 0 73.1267 13.4151 981 125.209 354.328 464.172
287 0 75.0923 14.3956 1081 122.376 353.466 464.66
288 0 76.2501 13.4295 1024 126.782 353.996 462.217
289 0 78.0701 13.0652 1020 128.273 353.999 462.328
290 0 80.0711 13.463 1078 127.475 353.996 461.249
291 0 82.0811 13.0602 1072 129.026 354.199 461.435
292 0 84.1082 12.7812 1075 131.273 353.857 458.317
293 0 89.2139 13.5069 1205 128.846 354.192 459.604
294 0 91.0771 14.7348 1342 126.712 354.092 456.338
295 0 94.1605 14.6346 1378 127.186 354.085 454.875
296 0 95.1603 13.3984 1275 132.675 354.466 453.371
297 0 97.1002 12.4099 1205 136.078 353.963 452.41
298 0 105.393 14.7069 1550 91.551 354.357 453.433
299 0 105.148 13.4667 1416 132.739 354.254 449.706
300 0 108.194 14.3354 1551 131.459 354.526 444.573
301 0 112.086 13.6859 1534 131.096 354.604 446.156
302 0 115.2 13.125 1512 131.475 353.98 441.514
303 0 119.176 12.5612 1497 131.916 353.46 441.269
304 1 66.1505 12.6076 834 125.446 353.047 463.685
305 0 69.0741 13.3335 921 124.79 353 463.617
306 0 71.1322 12.4557 886 127.144 353.667 464.985
307 0 73.0552 12.6206 922 128.957 353.698 461.357
308 0 76.0996 12.2602 933 128.574 353.591 462.584
309 0 79.0787 12.4939 988 128.751 354.015 460.364
310 0 83.0804 13.3967 1113 125.559 353.025 458.994
311 0 85.0691 12.6838 1079 127.117 353.57 457.694
312 0 88.0913 14.065 1239 123.781 353.287 454.961
313 0 90.0489 12.5821 1133 127.202 353.111 456.195
314 0 94.0838 12.9991 1223 127.17 352.713 452.609
315 0 96.0618 12.8355 1233 128.049 352.732 451.661
316 0 99.1831 12.7542 1265 127.464 351.944 449.013
317 0 100.099 11.9581 1197 130.014 352.444 449.743
318 0 106.129 14.0866 1495 123.817 352.567 446.425
319 0 110.152 14.2349 1568 122.083 352.386 444.779
320 0 113.135 13.3823 1514 124.162 352.693 442.491
321 1 57.0706 10.0752 575 121.515 353.379 472.097
322 0 59.1249 12.6343 747 117.317 354.286 468.855
323 0 63.0494 13.1008 826 117.9 353.659 469.852
324 0 64.0801 11.1423 714 118.591 353.444 469.116
325 0 64.1033 11.7311 752 118.18 353.648 467.215
326 0 66.0882 10.8491 717 122.23 353.781 467.092
327 0 70.1509 11.6036 814 120.543 353.951 466.511
328 0 75.1292 12.3521 928 119.158 353.492 463.691
329 0 77.1101 11.8921 917 120.654 354.254 463.76
330 0 78.1178 12.5452 980 120.631 353.633 461.553
331 0 80.1372 12.3538 990 120.924 353.994 460.512
332 0 85.0859 12.9281 1100 119.397 353.741 458.915
333 0 87.0686 12.3581 1076 122.077 352.928 456.449
334 0 90.1159 13.2163 1191 120.888 353.076 456.46
335 0 94.1542 13.5204 1273 120.96 353.046 452.878
336 0 95.233 12.5377 1194 125.795 353.318 449.875
337 0 99.1882 13.792 1368 121.804 353.861 449.438
338 1 54.1193 10.1812 551 118.167 353.599 475.281
339 0 55.0535 11.2981 622 117.08 353.183 473.58
340 0 56.1118 11.2454 631 118.038 353.616 473.78
341 0 57.1173 11.4151 652 117.275 353.868 473.138
342 0 59.1242 12.0594 713 115.942 354.137 472.388
343 0 62.0654 11.5846 719 117.412 354.69 471.017
344 0 64.1274 12.1633 780 115.524 354.532 471.544
345 0 65.0951 10.7842 702 120.511 354.856 467.805
346 0 69.1304 12.2522 847 115.405 354.098 468.779
347 0 71.1164 11.8397 842 116.593 354.289 467.905
348 0 72.1226 12.7977 923 115.252 353.982 466.223
349 0 74.1114 12.3193 913 117.436 354.883 463.141
350 0 76.1699 12.3671 942 117.953 354.983 463.05
351 0 79.1449 12.5087 990 118.509 354.222 460.437
352 0 81.1649 12.3206 1000 117.926 354.061 462.826
353 0 83.2348 13.0114 1083 117.437 354.275 459.588
354 0 85.1278 11.8645 1010 121.1 354.018 457.827
355 0 85.131 11.4295 973 124.453 354.3 456.145
356 0 91.2573 13.4345 1226 117.957 353.285 456.131
357 0 92.2819 12.3426 1139 121.97 353.507 455.205
358 0 97.3127 13.174 1282 119.63 353.786 451.833
359 0 99.3426 13.0659 1298 121.154 354.212 450.859
360 0 101.348 13.5079 1369 121.245 353.926 447.791
361 0 104.237 12.6827 1322 122.631 353.715 445.119
362 0 108.232 13.314 1441 118.85 353.473 440.991
363 1 58.1321 10.6998 622 115.082 353.791 469.132
364 0 58.0383 12.733 739 111.497 354.074 470.694
365 0 59.0602 10.7179 633 113.551 355.079 470.359
366 0 64.1327 12.4897 801 108.888 355.604 468.762
367 0 67.1264 13.2288 888 106.467 355.458 468.571
368 0 65.1446 11.7278 764 114.27 355.206 466.278
369 0 68.1746 12.3506 842 114.563 355.563 466.306
370 0 72.1214 11.8134 852 115.66 355.523 465.214
371 0 74.0994 12.9556 960 117.677 355.499 461.858
372 0 79.1159 12.7029 1005 116.962 355.112 463.008
373 0 80.0981 11.6232 931 120.325 354.284 462.074
374 0 85.1133 12.0428 1025 118.944 354.397 459.346
375 0 85.1784 11.9631 1019 120.389 354.545 458.235
376 0 89.0932 12.1109 1079 118.947 354.889 458.852
377 0 92.1971 11.7249 1081 121.008 354.415 455.344
378 0 97.171 11.8142 1148 119.945 354.007 454.905
379 0 100.215 12.0042 1203 119.695 354.881 451.437
380 1 53.1153 11.0703 588 114.078 354.974 475.291
381 0 53.0502 11.7248 622 108.912 354.675 472.09
382 0 54.0957 11.1469 603 105.816 355.483 469.163
383 0 56.216 11.2601 633 109.164 355.861 474.376
384 0 55.0855 9.3491 515 112.371 354.744 474.86
385 0 57.0719 11.3716 649 108.129 354.727 473.826
386 0 61.15 11.4309 699 108.416 355.076 471.07
387 0 62.1767 12.3197 766 106.559 355.565 470.608
388 0 64.0915 11.39 730 108.203 355.349 467.925
389 0 68.1626 12.6609 863 107.593 354.473 469.138
390 0 71.115 12.7399 906 107.746 354.446 469.034
391 0 71.1335 13.7488 978 107.898 354.194 465.234
392 0 73.264 13.1852 966 111.014 354.571 464.926
393 0 75.161 12.7726 960 114.145 354.88 463.436
394 0 76.2078 13.1745 1004 113.697 354.124 464.002
395 0 80.3496 12.0598 969 116.461 354.058 461.918
396 0 82.1577 12.2569 1007 112.445 354.456 460.133
397 0 84.2772 12.1267 1022 113.327 354.865 460.225
398 0 88.2684 12.0995 1068 113.734 354.807 458.602
399 0 92.2235 13.2721 1224 111.603 354.646 455.672
400 0 92.2254 13.2393 1221 113.811 354.529 454.601
401 1 48.0798 11.5017 553 109.222 354.526 478.119
402 0 51.0529 11.5371 589 108.932 354.17 478.151
403 0 51.0693 11.7487 600 110.305 353.542 476.233
404 0 53.0693 12.8511 682 111.881 353.742 476.809
405 0 53.114 12.652 672 114.155 353.71 474.368
406 0 55.0872 11.8902 655 115.514 353.579 473.576
407 0 56.0817 11.8755 666 116.643 354.267 472.563
408 0 58.1101 11.5987 674 116.067 354.536 473.289
409 0 60.1199 13.0406 784 112.827 353.876 471.758
410 0 61.0592 11.4643 700 117.65 354.157 470.129
411 0 63.1396 12.4645 787 114.934 354.441 470.272
412 0 63.0804 13.5858 857 114.079 354.012 466.718
413 0 68.1068 13.1705 897 112.146 354.339 469.093
414 0 70.1533 12.601 884 114.077 355.414 468.508
415 0 70.1446 12.574 882 115.122 355.548 466.7
416 0 75.1649 13.6633 1027 111.438 355.564 466.074
417 0 76.1533 11.8839 905 115.464 355.148 466.262
418 0 77.1249 12.9011 995 113.969 354.289 464.568
419 0 79.177 13.2993 1053 114.474 355.06 460.553
420 0 82.1185 13.785 1132 112.325 354.966 461.177
421 0 85.1216 12.8405 1093 114.672 354.878 459.088
422 0 87.1543 13.39 1167 113.243 354.99 458.165
423 0 90.1582 12.8552 1159 113.487 355.464 459.429
424 0 91.1486 13.0117 1186 114.48 354.381 456.698
425 0 96.1694 13.289 1278 112.761 353.606 456.84
426 0 96.2758 13.7106 1320 114.04 353.934 453.145
427 0 99.2031 12.0964 1200 117.182 353.873 450.81
428 1 52.1476 11.4866 599 110.194 353.282 468.292
429 0 53.2017 13.1199 698 107.688 353.022 467.838
430 0 54.037 13.1947 713 111.144 354.961 472.763
431 0 54.0498 12.5625 679 112.804 355.234 474.315
432 0 53.1581 10.7603 572 118.393 354.823 472.766
433 0 56.0717 11.4318 641 114.905 355.012 474.357
434 0 57.0518 11.9716 683 114.839 354.735 473.499
435 0 62.0608 12.4716 774 112.574 355.052 472.364
436 0 63.0667 12.0666 761 114.788 354.997 470.058
437 0 65.1122 12.9469 843 113.622 354.456 468.988
438 0 67.1477 12.5693 844 116.647 353.921 467.522
439 0 71.1366 13.7341 977 113.03 354.452 465.461
440 0 71.1483 12.2561 872 119.165 354.962 467.003
441 0 74.1 13.9001 1030 116.572 354.706 463.454
442 0 75.1316 13.1103 985 120.397 354.316 462.322
443 0 79.1352 13.6475 1080 118.904 354.796 464.739
444 0 80.1734 13.2214 1060 123.353 354.708 461.762
445 0 85.1278 14.073 1198 120.341 354.941 460.526
446 0 86.1224 12.9351 1114 123.952 355.003 459.288
447 0 88.1744 13.4279 1184 122.34 354.682 458.041
448 0 93.0885 13.6752 1273 121.546 354.994 457.619
449 0 94.132 13.8848 1307 124.52 354.663 453.292
450 0 101.224 15.6682 1586 117.677 354.576 452.856
451 0 103.178 15.3908 1588 119.567 354.926 450.846
452 1 52.0652 12.0426 627 119.904 355.691 476.622
453 0 54.176 12.1456 658 120.822 354.506 472.272
454 0 56.0821 12.6065 707 115.587 353.771 473.044
455 0 57.0233 13.0648 745 115.145 355.419 473.227
456 0 60.1009 13.7768 828 112.529 355.784 472.826
457 0 62.0982 14.0906 875 112.272 356.014 470.43
458 0 63.0373 12.5164 789 115.563 355.607 471.242
459 0 66.0915 11.9531 790 115.781 355.891 469.42
460 0 69.1095 13.153 909 112.658 355.948 469.648
461 0 70.049 12.634 885 120.895 355.529 467.568
462 0 75.0533 12.7909 960 120.085 355.74 465.234
463 0 77.0758 12.9353 997 120.402 355.617 464.132
464 0 79.0511 13.4343 1062 120.768 356.178 461.735
465 0 81.0233 14.3416 1162 119.156 356.435 461.008
466 0 85.0992 13.3021 1132 122.102 355.71 459.365
467 0 87.059 13.4047 1167 121.426 355.998 459.584
468 0 90.1253 12.1054 1091 124.482 355.875 458.35
469 0 92.0646 13.0778 1204 123.181 356.288 456.184
470 0 95.1195 12.2688 1167 124.748 355.93 454.448
471 0 99.0717 12.4253 1231 123.975 355.799 452.98
472 0 102.117 12.7305 1300 123.861 355.352 451.184
473 0 104.215 11.9752 1248 125.233 355.404 452.27
474 1 57.0564 10.9891 627 119.432 355.976 476.386
475 0 59.138 11.9889 709 117.822 355.817 474.413
476 0 62.069 13.4206 833 111.993 356.395 473.204
477 0 60.0422 11.8916 714 118.045 355.842 473.62
478 0 63.0277 13.264 836 115.263 356.468 470.196
479 0 66.063 13.366 883 116.262 356.41 467.973
480 0 69.1027 13.1254 907 116.589 356.082 466.552
481 0 71.0526 13.8207 982 115.648 355.576 466.105
482 0 74.1007 13.3737 991 115.807 355.779 465.208
483 0 77.0797 13.1941 1017 116.488 355.072 463.566
484 0 78.1248 11.9936 937 119.185 355.635 464.753
485 0 80.0984 13.5334 1084 118.119 355.948 461.108
486 0 84.0987 13.0323 1096 118.936 356.061 460.671
487 0 86.074 12.466 1073 121.198 356.454 460.547
488 0 89.156 13.5044 1204 119.545 356.097 457.606
489 0 90.0858 12.6213 1137 122.777 355.74 456.19
490 0 95.1922 14.434 1374 118.447 355.353 453.942
491 0 98.1043 13.7507 1349 119.474 355.563 456.503
492 0 100.094 14.7162 1473 118.373 356.059 453.269
493 0 103.145 13.2241 1364 122.525 355.368 452.187
494 0 106.13 13.361 1418 123.551 354.386 447.362
495 0 108.183 13.1999 1428 124.035 354.643 448.112
496 1 59.102 9.37363 554 124.653 356.274 473.496
497 0 59.0155 11.5563 682 120.191 356.723 466.579
498 0 63.0744 12.3981 782 118.182 356.528 468.446
499 0 65.1306 12.4058 808 124.116 355.422 470.215
500 0 68.0841 13.1749 897 124.868 355.73 468.164
501 0 69.1946 13.6282 943 126.438 355.002 468.085
502 0 72.2189 13.2237 955 128.927 354.779 465.385
503 0 75.1548 12.9998 977 127.54 355.365 466.913
504 0 77.268 13.6667 1056 126.088 354.938 464.126
505 0 78.1548 12.7183 994 128.732 355.067 464.127
506 0 82.2822 15.2038 1251 119.595 354.882 463.947
507 0 85.2297 13.6572 1164 124.147 355.007 461.965
508 0 87.1549 13.7227 1196 124.371 354.781 461.457
509 0 89.3211 13.7817 1231 123.708 355.452 460.501
510 0 92.145 13.7935 1271 122.961 354.647 457.411
511 0 91.2331 11.4432 1044 127.893 354.306 454.275
512 0 95.1789 12.3557 1176 123.343 354.521 454.935
513 0 100.213 12.204 1223 124.717 354.556 452.269
514 1 52.1883 10.5388 550 118.885 354.256 479.102
515 0 54.0877 11.5183 623 115.819 354.398 476.427
516 0 54.1227 12.0652 653 113.818 353.55 474.133
517 0 59.1087 12.7392 753 119.891 354.223 474.91
518 0 59.1108 13.314 787 120.991 354.488 472.722
519 0 61.1442 13.1329 803 120.635 354.863 473.486
520 0 63.1945 13.6088 860 119.509 354.601 470.186
521 0 63.2993 12.1012 766 124.026 353.961 468.901
522 0 67.3212 12.8637 866 120.716 354.401 468.256
523 0 69.3886 13.7198 952 117.36 354.178 468.43
524 0 70.1445 12.7166 892 117.052 354.776 467.543
525 0 73.1213 12.3767 905 116.625 354.157 467.581
526 0 74.0984 11.8221 876 118.123 354.056 466.646
527 0 76.131 12.045 917 118.498 354.6 462.484
528 0 78.1608 11.8218 924 116.923 354.734 464.525
529 0 84.0896 11.7732 990 117.333 355.166 461.663
530 0 82.1374 11.4321 939 120.532 354.801 460.802
531 1 43.0695 9.98385 430 116.374 355.986 480.326
532 0 46.0902 10.5662 487 115.63 355.152 480.002
533 0 46.102 11.1492 514 117.298 355.541 478.465
534 0 48.0986 11.8091 568 120.72 354.15 474.695
535 0 51.0321 13.0506 666 115.842 355.842 477.751
536 0 51.0257 12.9151 659 118.487 355.748 476.747
537 0 51.0187 12.0544 615 120.709 355.603 475.628
538 0 53.0371 12.0482 639 121.746 355.825 474.623
539 0 57.0412 13.7269 783 115.147 355.487 474.71
540 0 58.0541 12.4539 723 118.631 355.81 473.918
541 0 58.0789 12.483 725 120.117 355.034 471.034
542 0 60.0762 11.9681 719 120.926 355.2 470.944
543 0 61.1119 12.1089 740 120.457 355.539 469.964
544 0 64.0506 12.3808 793 119.551 355.735 469.004
545 0 65.0287 12.1792 792 119.758 355.706 466.552
546 0 68.0472 12.6383 860 118.344 355.555 466.498
547 0 73.0574 12.278 897 116.375 355.099 467.01
548 0 73.106 12.092 884 116.044 355.95 466.083
549 0 76.092 12.774 972 115.3 355.521 463.862
550 0 78.1144 12.3025 961 116.689 355.276 463.493
551 0 81.1496 11.9656 971 116.349 355.652 462.304
552 0 83.1828 11.625 967 119.01 354.362 459.818
553 1 40.0346 10.6408 426 110.7 355.272 480.343
554 0 41.1492 10.3769 427 112.733 355.66 478.766
555 0 45.0249 12.904 581 106.387 355.84 478.525
556 0 47.0189 11.2721 530 111.347 355.645 479.702
557 0 47.0171 11.9106 560 111.812 355.604 477.079
558 0 49.0338 11.3391 556 112.772 355.721 478.065
559 0 51.0986 11.4093 583 110.681 355.921 477.136
560 0 51.0787 11.7074 598 107.241 355.595 477.022
561 0 52.0559 12.0447 627 106.611 355.892 476.402
562 0 55.1274 12.2806 677 105.736 355.749 476.752
563 0 55.1497 11.7317 647 107.864 355.782 473.705
564 0 56.1119 12.2612 688 107.205 355.91 474.593
565 0 57.1107 11.3639 649 108.307 356.176 474.066
566 0 60.0898 11.4329 687 107.428 356.151 471.914
567 0 63.0662 12.1777 768 105.689 355.77 473.401
568 0 66.1415 12.4884 826 104.224 355.433 472.205
569 0 66.1018 13.3884 885 106.308 354.979 468.481
570 0 67.1005 12.0118 806 111.567 354.638 467.675
571 0 73.1397 13.358 977 108.649 355.268 468.148
572 0 74.1509 12.1374 900 112.556 355.224 465.203
573 0 77.1155 12.7341 982 111.109 355.531 465.175
574 0 77.0768 10.6906 824 116.811 355.488 464.586
575 0 83.1138 12.8859 1071 111.078 354.975 462.736
576 0 85.145 12.05 1026 112.896 355.065 461.666
577 0 85.1213 12.8405 1093 112.973 355.46 460.186
578 1 46.0563 10.5306 485 117.46 355.843 477.567
579 0 49.0466 12.4372 610 113.343 355.049 477.559
580 0 50.0354 13.2906 665 110.496 355.75 476.411
581 0 53.0186 13.3161 706 111.484 353.474 478.292
582 0 56.0228 12.602 706 113.052 355.197 476.387
583 0 56.0637 12.7533 715 116.01 355.207 474.573
584 0 56.0141 12.354 692 118.46 354.5 474.714
585 0 57.0487 13.0765 746 117.681 354.897 472.723
586 0 59.0406 13.2959 785 116.946 354.264 472.118
587 0 61.064 12.5606 767 117.855 353.511 471.778
588 0 62.0619 13.551 841 115.939 353.535 470.899
589 0 66.1888 13.7939 913 114.113 353.645 469.304
590 0 66.0938 13.0875 865 117.342 353.549 468.609
591 0 70.0807 13.2419 928 116.54 353.676 466.664
592 0 73.1442 13.3572 977 114.558 353.748 467.803
593 0 75.2009 12.3137 926 117.344 354.087 464.776
594 0 79.2359 13.7564 1090 113.539 353.873 464.629
595 0 81.1402 14.0991 1144 112.966 354.473 463.585
596 0 82.2119 13.6112 1119 114.905 354.725 462.345
597 0 87.0642 12.8411 1118 114.435 355.224 461.123
598 0 90.308 12.557 1134 115.135 354.467 459.153
599 1 44.0442 11.5566 509 114.22 355.589 480.208
600 0 44.0384 11.7397 517 117.679 355.853 479.077
601 0 47.0396 12.9465 609 114.484 355.322 478.805
602 0 50.0464 12.8281 642 115.005 355.231 478.796
603 0 51.0144 12.0554 615 119.436 355.107 476.629
604 0 51.1248 12.3423 631 115 354.596 477.325
605 0 54.133 12.2661 664 113.547 354.376 479.08
606 0 53.058 12.5335 665 116.03 353.865 477.215
607 0 55.1207 12.6994 700 116.094 354.14 474.869
608 0 58.0739 12.243 711 117.232 353.987 476.291
609 0 59.0583 13.5798 802 115.204 353.759 474.5
610 0 61.1475 13.3775 818 116.614 353.984 474.199
611 0 62.0734 13.4035 832 116.952 353.814 473.434
612 0 65.0868 12.153 791 119.254 353.74 472.59
613 0 65.033 12.2861 799 119.909 354.247 470.441
614 0 67.0671 12.644 848 122.422 354.38 469.335
615 0 71.0537 13.3702 950 122.769 353.919 469.375
616 0 72.0773 12.4588 898 125.637 353.99 467.046
617 0 75.0538 14.6295 1098 122.24 354.04 467.654
618 0 79.0476 13.6121 1076 125.034 353.908 464.049
619 0 81.102 13.6865 1110 124.785 354.372 464.055
620 0 84.0262 14.5669 1224 123.953 355.392 462.662
621 0 86.0381 14.8306 1276 121.892 355.122 461.241
622 0 89.0553 14.5528 1296 122.925 354.823 460.235
623 0 90.0826 13.1546 1185 126.941 353.938 459.219
624 0 93.0956 12.804 1192 126.383 353.728 457.311
625 1 50.0509 11.5283 577 125.307 353.884 479.18
626 0 52.0132 12.6506 658 121.805 353.789 478.388
627 0 52.0419 11.0488 575 125.974 354.536 476.637
628 0 55.0078 12.5619 691 122.326 353.437 475.873
629 0 54.0589 12.1349 656 120.018 353.832 477.526
630 0 56.0652 12.4141 696 120.516 353.672 476.043
631 0 57.0204 11.8729 677 122.276 353.811 474.588
632 0 60.2149 12.3557 744 120.63 354.017 472.374
633 0 61.0786 12.443 760 119.654 354.17 473.211
634 0 64.0451 12.9909 832 118.163 354.587 471.962
635 0 66.0974 12.179 805 121.432 354.024 470.383
636 0 69.1265 12.2818 849 122.191 353.9 468.489
637 0 71.0534 12.6806 901 122.948 353.639 467.473
638 0 72.0795 12.8469 926 124.43 354.712 465.555
639 0 74.1287 12.9774 962 124.227 354.157 464.617
640 0 77.0774 12.1047 933 125.049 352.973 463.584
641 0 79.0827 12.468 986 124.412 353.875 462.238
642 0 83.0862 12.9504 1076 121.953 353.375 460.461
643 0 84.0453 13.3142 1119 120.802 352.995 458.267
644 0 86.135 12.3295 1062 123.789 352.711 459.628
645 1 45.0531 10.3433 466 121.886 352.886 481.472
646 0 48.089 11.7906 567 120.388 353.365 478.023
647 0 47.0165 10.8047 508 114.998 352.734 479.734
648 0 50.0406 10.4915 525 115.834 353.09 479.425
649 0 50.0742 11.3831 570 116.474 352.877 476.858
650 0 51.0334 12.0313 614 115.088 352.795 475.58
651 0 51.0445 10.8729 555 117.796 352.827 476.966
652 0 53.0166 10.9777 582 117.741 353.292 475.581
653 0 56.0386 11.2244 629 117.022 352.897 473.544
654 0 58.0284 11.6839 678 113.718 353.512 475.878
655 0 59.0347 11.1968 661 116.815 353.782 472.753
656 0 61.0191 11.5374 704 113.93 353.801 474.151
657 0 63.1147 12.7704 806 111.279 353.435 472.228
658 0 65.026 12.5642 817 116.419 353.53 469.715
659 0 69.0846 12.2458 846 116.509 353.476 471.268
660 0 70.026 12.2098 855 118.401 353.518 467.471
661 0 73.0482 12.6492 924 118.552 353.192 465.322
662 0 75.0835 11.96 898 119.182 352.855 465.772
663 0 78.113 13.25 1035 117.239 353.295 462.438
664 0 82.0559 12.5524 1030 115.602 353.533 461.457
665 0 83.0862 11.5543 960 117.688 353.704 463.285
666 0 85.1073 11.6089 988 118.365 353.767 462.306
667 0 89.1316 13.6427 1216 115.351 353.743 457.17
668 0 92.0856 12.4558 1147 117.74 353.282 455.697
669 0 93.1359 12.5086 1165 120.694 353.034 454.356
670 0 97.1628 12.7621 1240 119.035 352.834 454.151
671 0 100.156 13.6288 1365 117.783 352.519 450.79
672 0 104.232 13.8921 1448 116.131 353.613 449.653
673 0 109.335 13.1614 1439 115.482 353.892 450.309
674 0 110.139 12.2754 1352 118.028 353.676 440.857
675 0 114.266 12.4359 1421 116.897 353.975 440.629
676 0 119.187 12.9125 1539 115.486 353.908 441.54
677 1 59.0775 10.3254 610 112.959 354.444 473.246
678 0 62.0822 11.5814 719 106.26 354.442 471.616
679 0 64.084 11.9843 768 111.391 352.266 470.996
680 0 63.0887 10.7943 681 115.408 351.89 469.035
681 0 69.1135 13.0076 899 109.858 351.861 467.774
682 0 71.1024 12.2359 870 111.361 352.554 467.052
683 0 73.1613 12.0556 882 111.368 352.125 467.306
684 0 75.0475 12.632 948 111.041 353.218 465.835
685 0 77.1145 11.8784 916 111.978 352.742 465.114
686 0 80.152 12.1644 975 111.953 352.71 461.544
687 0 84.0529 11.9805 1007 111.817 352.41 462.989
688 0 87.0925 13.1699 1147 107.857 352.28 461.045
689 0 90.0925 12.5871 1134 108.277 352.171 458.913
690 0 90.1186 10.9411 986 114.023 352.604 456.084
691 1 50.1374 11.4884 576 108.212 353.531 479.571
692 0 47.0975 10.1704 479 102.121 353.833 471.453
693 0 50.0879 10.0024 501 102.641 353.319 472.028
694 0 54.059 12.1349 656 109.062 354.602 475.684
695 0 56.0825 11.6436 653 109.671 354.323 474.858
696 0 58.0404 11.6298 675 109.056 355.287 474.996
697 0 59.0656 14.0691 831 104.649 355.561 472.298
698 0 60.031 13.3764 803 107.098 355.428 471.172
699 0 63.1066 11.9163 752 109.59 355.37 472.507
700 0 64.0578 12.2546 785 109.138 355.118 470.757
701 0 66.1576 11.79 780 110.173 354.938 470.433
702 0 67.1422 12.9576 870 107.748 354.58 468.502
703 0 70.0542 12.2905 861 109.089 354.706 468.397
704 0 71.0517 11.9209 847 111.318 354.185 464.628
705 0 73.0188 11.6408 850 111.758 353.971 466.245
706 0 75.2019 12.1805 916 111.91 354.402 463.616
707 0 79.1038 12.8186 1014 110.409 353.755 462.248
708 0 80.2793 11.4475 919 114.677 353.764 461.053
709 0 84.123 12.5649 1057 111.326 353.802 461.165
710 0 85.2107 12.205 1040 113.884 353.951 458.535
711 0 89.146 12.8329 1144 112.093 353.776 458.36
712 0 91.1631 12.2857 1120 114.326 354.005 455.062
713 0 93.1129 11.5881 1079 117.14 353.795 454.643
714 0 96.0874 12.166 1169 115.328 354.322 451.603
715 0 98.0644 11.7678 1154 115.534 353.521 452.907
716 1 52.0684 11.4273 595 111.62 352.77 474.681
717 0 51.1442 11.4969 588 111.91 353.658 472.758
718 0 54.0717 12.7793 691 109.815 353.475 471.721
719 0 54.0241 12.0687 652 110.13 353.548 475.768
720 0 54.0457 12.0269 650 111.458 353.702 475.203
721 0 59.0269 12.5875 743 108.692 353.791 472.464
722 0 61.0551 12.1366 741 108.059 353.328 474.503
723 0 61.0369 12.2713 749 108.599 353.212 472.049
724 0 66.0622 12.1552 803 108.963 352.833 472.39
725 0 68.0429 12.5803 856 110.29 352.812 470.598
726 0 70.0897 12.912 905 111.183 352.961 467.535
727 0 72.065 13.9457 1005 109.236 352.762 467.078
728 0 72.095 12.7193 917 113.241 352.556 466.738
729 0 78.2293 13.5755 1062 109.475 352.782 466.035
730 0 77.138 13.3008 1026 110.684 352.728 465.643
731 0 80.1133 12.6321 1012 112.239 353.15 463.306
732 0 84.0683 12.9538 1089 111.122 353.355 462.865
733 0 87.112 13.7869 1201 109.132 353.131 461.244
734 0 87.1463 13.8158 1204 110.351 353.081 460.682
735 0 90.1584 13.5872 1225 110.651 352.472 458.375
736 0 93.1398 13.1523 1225 111.713 353.433 458.42
737 0 96.1121 13.0993 1259 111.238 353.245 458.666
738 0 99.2004 13.1854 1308 112.596 353.159 456.171
739 0 102.121 15.2564 1558 108.843 353.163 453.447
740 0 104.074 12.9331 1346 112.413 353.367 455.643
741 0 108.216 12.4936 1352 111.385 353.843 450.962
742 1 62.1495 13.0009 808 105.226 353.714 475.658
743 0 63.0473 13.3709 843 106.282 353.643 471.993
744 0 65.1716 12.7663 832 107.69 353.874 473.214
745 0 68.0532 12.1082 824 107.354 352.857 473.445
746 0 70.066 12.3312 864 108.906 352.534 469.433
747 0 74.0416 13.1143 971 107.955 352.571 468.416
748 0 76.0804 12.6445 962 109.421 352.419 468.201
749 0 79.0946 13.2499 1048 108.663 352.831 466.899
750 0 80.0655 12.8395 1028 115.896 352.904 463.526
751 0 85.1268 13.1334 1118 113.907 352.931 464.237
752 0 84.0856 13.6884 1151 115.176 353.029 459.391
753 0 89.0604 13.5638 1208 115.302 353.222 460.183
754 0 92.0838 14.1827 1306 115.114 353.528 458.364
755 0 96.2125 13.9691 1344 116.522 353.377 456.55
756 1 48.1003 12.4324 598 116.199 354.395 480.99
757 0 51.1348 12.9853 664 115.845 355.039 477.095
758 0 52.0424 13.4313 699 116.627 354.034 478.189
759 0 53.1732 13.1269 698 117.42 353.966 477.845
760 0 53.1163 12.482 663 114.109 353.389 478.848
761 0 53.2083 12.7048 676 114.493 353.395 478.052
762 0 57.2336 12.4402 712 112.841 353.646 478.18
763 0 59.1086 13.9235 823 110.084 353.401 476.372
764 0 60.0794 12.9662 779 112.439 354.144 476.384
765 0 60.1543 13.0664 786 112.948 353.921 475.766
766 0 64.118 13.5064 866 110.837 354.085 473.6
767 0 65.0767 13.3688 870 111.1 353.595 472.63
768 0 66.053 13.1258 867 111.84 354.07 471.935
769 0 68.0446 13.2119 899 114.317 353.657 470.526
770 0 73.1479 14.0947 1031 110.876 354.236 469.119
771 0 75.1115 13.3668 1004 113.042 354.094 468.708
772 0 76.1367 13.7253 1045 113.242 354.349 467.3
773 0 80.1356 13.3524 1070 114.02 354.222 466.726
774 0 82.174 14.4571 1188 113.21 354.046 463.009
775 0 85.102 13.1724 1121 116.293 354.19 465.243
776 1 45.1109 12.8794 581 111.506 354.353 483.033
777 0 48.1335 11.7797 567 112.917 355.007 482.762
778 0 48.0835 12.9566 623 108.812 354.482 481.656
779 0 51.1885 12.7763 654 109.774 354.321 481.37
780 0 50.0682 13.4017 671 109.125 354.255 480.49
781 0 53.0663 12.5315 665 111.444 353.75 480.28
782 0 53.1014 12.3725 657 110.07 353.521 481.108
783 0 55.056 12.8233 706 109.853 353.671 478.533
784 0 57.1274 11.9382 682 111.355 354.116 478.12
785 0 61.2161 13.8526 848 104.754 354.226 477.916
786 0 62.0499 13.328 827 108.018 354.097 473.937
787 0 66.0766 13.1211 867 107.123 353.784 473.044
788 0 68.0927 12.7179 866 107.55 353.669 473.816
789 0 71.0527 14.2289 1011 104.188 353.349 471.668
790 0 73.2097 13.072 957 106.405 354.024 471.122
791 0 76.1091 14.177 1079 104.886 353.374 468.158
792 0 78.1452 14.2555 1114 105.559 353.383 466.808
793 0 80.1574 13.0119 1043 108.25 354.049 466.405
794 0 86.0571 13.6537 1175 105.84 353.808 462.146
795 0 87.1152 13.2468 1154 107.169 353.678 463.419
796 0 90.1927 13.2051 1191 109.861 353.51 460.235
797 0 93.1699 13.3627 1245 109.944 353.566 458.481
798 0 95.0844 13.9455 1326 110.611 353.517 457.035
799 0 97.1872 13.4483 1307 112.422 353.88 457.575
800 1 53.0622 12.9094 685 110.415 352.988 479.162
801 0 56.0728 14.3563 805 109.467 353.312 476.518
802 0 56.0888 13.6213 764 109.921 353.079 477.522
803 0 57.1025 12.7665 729 113.08 353.771 477.324
804 0 61.1022 13.5511 828 110.402 353.54 477.11
805 0 61.2083 12.1225 742 114.016 352.945 477.66
806 0 63.1093 12.8824 813 116.058 353.018 473.769
807 0 66.1754 13.6002 900 115.149 353.482 473.143
808 0 68.2513 13.2012 901 117.998 352.896 471.225
809 0 70.0824 13.0133 912 121.069 352.729 469.177
810 0 74.2805 13.4356 998 120.593 352.893 468.904
811 0 76.1784 13.5209 1030 121.399 353.25 466.896
812 0 77.2992 12.5228 968 125.596 352.422 465.557
813 0 81.2534 12.8856 1047 125.46 353.088 463.413
814 0 85.2332 13.8444 1180 123.054 352.997 460.503
815 1 40.1675 12.423 499 120.347 353.07 482.066
816 0 41.1037 11.2399 462 122.903 352.905 482.403
817 0 44.1453 12.9346 571 118.76 353.242 481.897
818 0 46.0313 12.1005 557 121.038 353.899 483.438
819 0 47.1591 12.3412 582 123.313 354.428 483.065
820 0 48.0951 12.9119 621 121.2 353.804 481.554
821 0 48.0151 13.0167 625 123.021 354.232 480.989
822 0 48.0662 12.0875 581 126.031 353.788 480.821
823 0 53.0811 13.583 721 120.478 353.753 479.381
824 0 52.0515 13.3137 693 123.167 353.841 479.362
825 0 56.0437 13.2218 741 121.409 353.723 477.409
826 0 58.0966 13.6497 793 120.832 353.847 477.274
827 0 59.163 12.1867 721 124.877 353.291 477.463
828 0 61.1611 13.4236 821 124.058 353.871 474.294
829 0 61.1665 12.2616 750 127.859 353.368 472.863
830 0 64.0955 13.1054 840 125.544 353.548 471.948
831 0 66.1219 12.7189 841 126.025 352.798 473.18
832 0 69.0809 13.8388 956 123.452 352.668 470.431
833 0 70.0772 12.7003 890 126.347 352.944 467.678
834 0 71.0516 12.4698 886 128.401 352.879 468.058
835 0 74.0642 12.5432 929 129.736 352.433 467.405
836 0 75.0885 12.3854 930 128.715 353.296 466.017
837 0 79.0335 13.0451 1031 126.102 353.07 465.609
838 0 81.1098 13.1427 1066 127.027 352.944 464.052
839 1 40.0344 12.3644 495 124.505 353.071 484.305
840 0 45.1312 11.3225 511 124.748 354.509 482.708
841 0 44.0256 12.9243 569 124.907 353.708 482.12
842 0 45.0043 12.0655 543 118.02 352.527 479.538
843 0 48.0124 11.3721 546 118.121 352.566 480.029
844 0 47.0364 10.2261 481 121.557 352.846 479.071
845 0 50.0257 12.2137 611 117.097 353.264 478.787
846 0 49.0408 11.7657 577 119.688 353.147 477.135
847 0 52.0557 11.9872 624 119.237 352.708 476.889
848 0 56.1256 14.129 793 121.187 352.409 477.944
849 0 56.0491 12.7388 714 125.731 353.069 476.947
850 0 60.0875 14.0295 843 120.275 352.372 476.318
851 0 61.0656 13.985 854 121.071 353.089 475.904
852 0 61.0741 12.1983 745 126.391 353.554 474.635
853 0 65.0916 12.8127 834 124.802 353.638 473.777
854 0 67.1537 13.5212 908 122.889 353.49 472.76
855 0 70.1153 13.3352 935 120.98 353.406 468.427
856 0 72.1201 14.1015 1017 122.708 353.504 468.739
857 0 75.1082 13.1677 989 124.104 353.447 468.804
858 0 76.0911 13.5233 1029 125.09 353.554 465.371
859 0 79.0638 13.116 1037 125.566 353.249 464.647
860 0 82.1203 14.4179 1184 123.7 353.633 461.09
861 0 85.0537 13.662 1162 125.093 353.33 461.761
862 1 43.0197 11.9713 515 121.959 353.419 483.047
863 0 44.0878 11.8854 524 122.502 353.321 483.109
864 0 44.0751 11.7527 518 121.488 352.99 484.322
865 0 46.107 11.9288 550 120.482 352.989 482.604
866 0 46.1194 11.9256 550 121.673 353.176 480.964
867 0 50.0602 12.6448 633 118.385 352.956 480.188
868 0 51.0912 11.2348 574 121.772 352.81 478.662
869 0 53.0615 12.6269 670 119.055 352.448 478.345
870 0 55.1112 12.0665 665 121.463 352.992 476.352
871 0 55.1655 12.1634 671 121.662 353.067 476.605
872 0 60.0697 13.3012 799 118.249 352.857 475.229
873 0 61.1615 12.2953 752 122.062 353.016 474.914
874 0 61.0631 11.4799 701 125.949 352.752 472.672
875 0 64.0726 12.5795 806 124.627 353.474 472.457
876 0 68.1201 13.9606 951 121.443 353.408 470.832
877 0 71.1098 14.119 1004 121.799 353.269 469.234
878 0 72.135 13.1697 950 124.753 352.993 469.225
879 0 76.1724 12.603 960 125.931 352.852 468.325
880 0 79.2612 13.424 1064 125.348 352.973 464.815
881 0 80.1558 12.6254 1012 126.347 352.834 465.731
882 0 84.0742 12.5841 1058 127.516 352.486 462.546
883 0 86.1263 12.9113 1112 125.645 352.479 462.75
884 0 89.1062 11.8174 1053 129.04 352.866 461.268
885 0 95.0714 13.1375 1249 127.68 352.717 458.13
886 0 96.1837 12.8504 1236 131.366 352.93 456.712
887 1 48.0622 13.5449 651 126.78 352.906 480.26
888 0 49.0303 13.2367 649 129.858 352.931 478.448
889 0 52.076 13.6531 711 126.743 352.705 477.647
890 0 54.1252 13.5057 731 127.617 352.966 477.622
891 0 54.0613 13.3552 722 129.269 353.427 477.14
892 0 56.0732 12.7334 714 132.636 353.066 476.13
893 0 59.0907 13.657 807 128.737 353.487 476.447
894 0 60.1393 13.2858 799 132.591 353.672 473.524
895 0 63.2194 13.8723 877 130.615 353.109 473.855
896 0 66.2087 14.3486 950 129.895 352.919 472.643
897 0 69.0802 14.1719 979 130.723 353.738 469.627
898 0 71.0644 14.5361 1033 129.141 352.964 470.635
899 0 73.1678 14.4462 1057 131.366 352.995 468.542
900 0 75.0786 13.8655 1041 135.124 352.899 467.353
901 0 77.1667 13.9438 1076 135.329 353.275 467.054
902 0 80.1142 14.8663 1191 132.668 353.097 465.978
903 0 82.1078 14.2252 1168 136.021 352.824 463.424
904 0 87.1467 14.16 1234 133.593 353.378 463.21
905 1 41.034 13.5254 555 131.595 352.541 482.822
906 0 45.0458 12.787 576 132.764 352.946 484.406
907 0 42.0617 13.0523 549 135.384 352.605 482.47
908 0 45.0131 13.6182 613 131.168 352.897 482.388
909 0 47.0191 13.7178 645 131.688 353.167 481.54
910 0 50.014 14.6959 735 126.536 352.548 481.682
911 0 50.022 14.5136 726 128.357 352.762 480.872
912 0 51.0419 13.6554 697 131.121 353.132 479.05
913 0 55.0247 14.7388 811 126.677 352.85 477.588
914 0 55.0194 13.5952 748 132.003 353.354 477.746
915 0 58.0359 15.163 880 126.865 353.298 476.205
916 0 59.0532 15.359 907 126.067 353.16 475.996
917 0 60.1082 13.9249 837 129.996 352.983 475.682
918 0 64.056 14.7371 944 127.907 353.097 471.286
919 0 66.0468 15.6556 1034 125.675 353.162 472.552
920 0 66.0552 14.4576 955 130.402 353.409 470.557
921 0 69.1179 14.5838 1008 129.078 353.54 470.15
922 0 71.0783 15.1804 1079 127.733 352.992 467.28
923 0 75.1292 14.8411 1115 123.327 352.237 466.156
924 0 74.1178 14.0047 1038 128.87 352.789 463.984
925 0 77.0987 14.3063 1103 126.79 352.694 462.547
926 0 79.0884 13.6303 1078 127.931 352.758 461.776
927 0 84.1076 15.3375 1290 122.04 352.14 459.541
928 0 87.1144 14.9918 1306 121.827 352.321 457.193
929 0 90.071 14.9438 1346 122.877 352.847 457.065
930 0 93.0638 14.5169 1351 121.14 352.955 457.053
931 1 50.0206 12.155 608 117.324 352.864 477.949
932 0 52.0511 12.2188 636 117.448 353.715 476.63
933 0 53.0689 13.4165 712 115.105 353.749 475.317
934 0 55.0333 12.6469 696 118.364 353.855 477.405
935 0 55.1028 11.1428 614 118.498 353.881 476.205
936 0 59.1626 12.6262 747 115.487 354.04 474.68
937 0 63.0433 14.2442 898 113.369 354.006 472.677
938 0 64.0548 13.0826 838 117.193 354.317 471.605
939 0 65.0842 13.3519 869 117.247 353.634 471.371
940 0 67.116 13.1712 884 119.273 354.117 470.235
941 0 70.1525 14.2832 1002 123.18 353.697 467.752
942 0 72.1327 13.1563 949 126.151 353.547 468.129
943 0 77.0917 13.7888 1063 123.254 353.334 465.262
944 0 78.0944 13.4837 1053 124.702 353.239 463.267
945 0 82.0948 13.4966 1108 124.029 352.955 460.875
946 0 83.1468 13.5664 1128 124.331 353.04 461.863
947 0 87.1901 13.8892 1211 123.229 352.827 457.665
948 1 42.0145 12.4005 521 123.82 353.215 481.392
949 0 45.013 12.2187 550 121.716 352.869 480.849
950 0 45.1148 12.036 543 118.142 353.179 480.606
951 0 47.0294 12.6729 596 115.742 353.606 479.238
952 0 50.0339 13.9505 698 111.159 353.696 478.123
953 0 52.025 14.8967 775 109.737 353.392 477.815
954 0 54.0407 11.9725 647 116.72 353.233 476.691
955 0 54.0556 11.8397 640 117.905 353.181 476.758
956 0 57.0702 13.0892 747 115.971 353.621 473.988
957 0 60.0656 12.8027 769 116.949 353.941 472.466
958 0 60.053 13.3882 804 115.07 353.323 472.683
959 0 64.0764 14.3579 920 113.515 354.024 470.838
960 0 66.0619 14.0928 931 114.537 353.55 472.012
961 0 70.083 13.8122 968 115.342 353.822 470.623
962 0 71.0576 13.5242 961 116.003 353.631 469.697
963 0 75.1045 14.1003 1059 114.348 354.09 469.915
964 0 79.0529 14.6611 1159 122.061 353.719 465.999
965 0 81.093 15.0568 1221 121.726 353.66 464.113
966 0 84.1122 14.0289 1180 120.247 353.652 461.396
967 0 87.0997 14.4662 1260 119.068 352.912 461.558
968 0 89.0553 13.5983 1211 122.251 353.118 460.396
969 1 43.0102 12.0204 517 125.882 353.228 481.24
970 0 48.0773 12.9583 623 120.604 354.17 479.884
971 0 49.0446 13.6202 668 120.129 353.073 479.579
972 0 51.0446 14.36 733 124.445 352.629 478.872
973 0 53.0342 14.3304 760 124.697 353.184 477.482
974 0 54.0419 13.4525 727 127.602 353.241 477.088
975 0 55.1044 13.6831 754 128.845 353.793 475.645
976 0 58.0349 14.4913 841 124.778 353.732 475.961
977 0 58.0575 13.8656 805 128.98 353.902 474.615
978 0 62.043 14.9735 929 125.763 354.073 472.946
979 0 64.033 14.6487 938 126.841 353.546 472.547
980 0 67.0802 14.7137 987 127.809 353.747 471.086
981 0 68.1111 15.416 1050 126.787 353.4 469.073
982 0 71.041 13.8652 985 131.535 353.582 468.848
983 0 73.149 14.3132 1047 131.2 353.104 467.584
984 0 74.037 15.06 1115 130.769 353.014 464.785
985 0 78.1143 14.9396 1167 129.278 352.978 464.328
986 0 81.1438 14.7639 1198 129.967 352.984 462.459
987 0 84.1644 14.9469 1258 131.766 352.966 459.324
988 0 87.109 14.3269 1248 132.966 353.643 459.543
989 0 90.1093 15.3702 1385 128.417 353.278 458.648
990 1 47.0284 13.0347 613 125.861 353.555 478.956
991 0 51.0517 12.791 653 124.469 353.17 480.096
992 0 51.0462 12.9295 660 125.238 353.603 478.461
993 0 52.0487 12.5267 652 129.577 353.406 477.502
994 0 55.0799 13.2898 732 125.408 353.608 476.283
995 0 57.1355 13.7043 783 124.13 354.092 475.255
996 0 57.1503 13.1583 752 126.363 353.684 474.312
997 0 60.112 12.8427 772 125.873 354.066 474.051
998 0 62.1011 13.8967 863 124.174 354.014 471.217
999 0 63.2864 13.6996 867 125.796 353.941 469.679
1000 0 65.1134 13.1156 854 125.559 353.922 470.452
1001 0 70.2346 14.0102 984 124.077 354.094 468.187
1002 0 71.0871 14.0813 1001 124.043 353.759 468.586
1003 0 74.1702 14.3858 1067 124.764 354.285 463.228
1004 0 76.14 13.5408 1031 127.531 353.831 461.245
1005 0 80.0834 13.8855 1112 126.027 353.691 462.879
1006 0 80.1627 14.0839 1129 127.372 353.594 460.562
1007 0 83.0824 14.2509 1184 125.899 353.946 461.165
1008 0 84.2643 13.9561 1176 127.818 353.597 458.994
1009 0 88.1024 12.8373 1131 129.757 352.954 456.752
1010 0 93.0806 14.6647 1365 124.171 353.715 455.485
1011 0 93.078 13.7197 1277 127.796 353.404 454.893
1012 0 96.1073 13.0999 1259 128.751 353.216 450.314
1013 0 102.139 12.9529 1323 127.063 353.449 454.374
1014 0 106.112 13.3915 1421 126.738 353.203 449.521
1015 1 55.2877 11.9737 662 120.657 353.106 474.955
1016 0 58.0919 11.74 682 122.345 352.996 472.311
1017 0 59.0904 12.0155 710 124.417 353.308 472.382
1018 0 64.1367 13.1126 841 120.737 353.458 471.736
1019 0 65.0452 12.868 837 122.799 353.067 469.296
1020 0 66.113 13.0232 861 123.741 352.46 465.979
1021 0 70.2115 13.3027 934 121.555 353.147 465.635
1022 0 71.2293 12.4668 888 123.605 353.042 464.238
1023 0 74.1331 12.9497 960 122.365 353.458 462.744
1024 0 74.3017 11.0226 819 128.241 353.037 462.451
1025 0 80.1769 12.0858 969 123.776 352.736 461.553
1026 0 82.1817 11.6814 960 124.591 352.676 460.484
1027 0 86.1664 12.4178 1070 124.04 352.275 457.223
1028 0 87.1072 12.8233 1117 124.707 352.481 454.639
1029 0 91.1549 12.6488 1153 123.652 352.278 456.267
1030 0 97.1146 12.3874 1203 125.287 352.653 453.28
1031 1 50.0778 11.4222 572 120.823 353.663 476.156
1032 0 53.1337 12.2145 649 117.659 353.51 476.522
1033 0 53.1188 11.5025 611 122.383 353.051 473.072
1034 0 55.0326 11.5204 634 122.549 352.722 473.461
1035 0 59.0202 11.6062 685 122.098 352.994 471.834
1036 0 61.1186 11.584 708 122.021 353.428 469.859
1037 0 62.0384 9.92934 616 126.195 353.292 469.442
1038 0 66.067 11.6851 772 120.751 353.17 469.003
1039 0 68.0566 13.3418 908 118.051 353.736 467.284
1040 0 70.0541 11.848 830 121.908 352.849 465.518
1041 0 74.1034 12.6985 941 119.628 353.464 463.971
1042 0 76.1246 12.6503 963 120.708 353.422 461.396
1043 0 78.1927 11.817 924 123.471 353.271 461.281
1044 0 81.0672 11.8544 961 123.532 353.677 460.737
1045 0 86.0467 12.3654 1064 120.936 353.777 461.076
1046 0 86.1194 12.2969 1059 122.439 353.649 457.433
1047 0 91.1428 12.1677 1109 122.684 353.588 457.1
1048 0 94.1108 12.9103 1215 122.119 352.849 455.426
1049 0 98.1396 13.8171 1356 120.633 353.136 453.978
1050 1 52.1674 11.7123 611 118.681 353.45 478.624
1051 0 54.1016 12.0699 653 124.703 353.277 462.397
1052 0 56.0665 13.2521 743 121.908 352.113 463.098
1053 0 57.204 13.4081 767 124.227 353.218 472.099
1054 0 58.0791 13.0856 760 125.97 353.176 471.192
1055 0 61.1567 13.7679 842 122.926 352.526 469.305
1056 0 63.1782 14.1188 892 121.621 352.934 467.684
1057 0 63.1886 12.3915 783 126.197 352.453 467.065
1058 0 67.1376 13.3606 897 121.654 353.036 465.949
1059 0 69.1022 12.1414 839 124.007 352.957 466.665
1060 0 71.2669 13.1197 935 121.868 352.506 464.019
1061 0 72.2005 13.5456 978 121.01 352.521 461.682
1062 0 76.09 14.1411 1076 118.282 353.226 461.692
1063 0 77.3083 12.7283 984 123.674 353.292 458.754
1064 0 81.1395 13.865 1125 119.995 353.682 458.985
1065 0 83.1065 12.9833 1079 122.374 353.105 457.419
1066 0 86.1316 13.4213 1156 120.965 353.127 453.631
1067 0 88.142 13.3308 1175 122.383 353.549 451.632
1068 0 90.0986 13.4852 1215 119.341 352.951 453.289
1069 0 94.1879 12.56 1183 120.788 352.445 452.598
1070 0 98.1882 14.4518 1419 116.989 352.954 448.765
1071 1 49.0466 10.5206 516 122.932 352.688 472.798
1072 0 50.0865 10.402 521 121.532 353.447 471.964
1073 0 53.0755 12.209 648 116.554 354.52 474.958
1074 0 54.0854 11.5928 627 120.941 353.807 472.915
1075 0 57.1445 12.1971 697 119.251 353.719 472.601
1076 0 58.1422 11.6095 675 121.652 354.028 471.369
1077 0 59.0315 11.7056 691 122.596 353.821 471.072
1078 0 62.0623 12.4391 772 120.417 353.758 468.873
1079 0 65.1649 11.141 726 125.631 354.056 467.012
1080 0 68.1522 12.0172 819 123.728 354.556 465.936
1081 0 71.1686 13.4188 955 119.114 353.962 466.288
1082 0 74.1304 13.4628 998 118.964 353.742 464.854
1083 0 76.1322 13.4503 1024 119.998 352.91 462.487
1084 0 76.1017 12.3913 943 123.826 353.512 460.292
1085 0 78.3049 12.6557 991 123.287 352.742 458.064
1086 0 83.1563 14.3224 1191 119.164 353.184 451.833
1087 0 86.1383 13.2345 1140 122.157 353.014 453.042
1088 0 88.1896 12.6886 1119 125.206 352.788 450.948
1089 0 93.115 13.7464 1280 121.848 353.158 449.161
1090 1 45.0688 9.87379 445 126.112 352.8 474.548
1091 0 48.0571 11.736 564 123.199 352.775 475.098
1092 0 51.1901 11.5843 593 124.083 353.266 475.612
1093 0 53.1744 12.8257 682 122.947 352.657 474.743
1094 0 55.1901 12.611 696 123.105 352.614 474.483
1095 0 56.2334 13.1594 740 122.664 352.053 473.826
1096 0 58.2223 13.2252 770 122.847 352.257 473.775
1097 0 59.307 12.9158 766 125.369 352.628 471.567
1098 0 60.1306 12.8886 775 115.63 352.572 473.532
1099 0 61.2237 12.1685 745 117.635 352.383 472.591
1100 0 64.1037 11.9962 769 117.931 352.346 472.104
1101 0 66.0908 11.6809 772 119.738 352.049 471.222
1102 0 67.1988 12.902 867 115.683 352.338 472.584
1103 0 68.0942 12.5708 856 121.512 352.431 467.963
1104 0 70.1132 11.9521 838 123.623 352.858 467.471
1105 0 74.2113 13.3538 991 120.78 352.715 466.379
1106 0 75.0726 11.9484 897 125 352.785 467.24
1107 0 78.0495 13.4018 1046 122.163 352.493 463.196
1108 0 81.1444 13.2233 1073 123.103 352.728 462.06
1109 0 83.0996 13.4297 1116 123.288 352.185 460.918
1110 0 84.2252 11.9086 1003 127.177 353.127 458.956
1111 0 90.144 13.6781 1233 122.27 353.225 458.818
1112 0 92.2063 13.9145 1283 125.549 352.861 457.429
1113 0 94.2911 13.575 1280 129.834 352.527 455.934
1114 0 98.3458 14.022 1379 128.308 352.872 453.96
1115 1 51.1883 10.647 545 127.934 353.708 477.035
1116 0 54.016 11.33 612 124.343 353.191 477.533
1117 0 54.0824 10.2991 557 119.479 353.686 472.214
1118 0 57.0946 12.2078 697 112.617 352.917 471.363
1119 0 58.0839 11.294 656 115.357 352.851 470.215
1120 0 60.0818 11.4677 689 115.363 353.308 468.983
1121 0 61.1977 11.2586 689 115.203 352.543 469.569
1122 0 66.098 12.3907 819 111.729 352.454 468.114
1123 0 68.1184 12.904 879 112.479 352.338 469.45
1124 0 70.0906 13.3684 937 112.385 352.553 467.124
1125 0 70.0521 11.9625 838 115.575 353.168 468.228
1126 0 73.0398 11.5553 844 117.336 352.896 467.835
1127 0 74.1665 12.2023 905 116.654 353.17 462.059
1128 0 75.1592 10.6973 804 119.637 353.022 460.384
1129 0 81.1123 12.908 1047 113.777 352.796 459.692
1130 0 83.1288 11.1875 930 117.733 352.842 458.987
1131 0 87.1507 13.4594 1173 118.896 353.529 461.21
1132 0 89.1616 12.5951 1123 121.321 353.033 458.531
1133 0 93.2369 12.7632 1190 121.929 354.071 455.12
1134 1 50.1488 11.2266 563 115.384 354.588 478.817
1135 0 52.0991 12.2267 637 112.741 354.571 476.724
1136 0 52.0997 12.2266 637 114.538 354.619 476.121
1137 0 51.106 11.2316 574 122.76 353.561 473.97
1138 0 54.2056 12.7293 690 117.926 353.538 475.222
1139 0 57.2608 12.3645 708 118.325 353.842 473.113
1140 0 59.155 14.0309 830 113.524 353.936 473.154
1141 0 59.3331 13.0787 776 116.794 353.595 472.097
1142 0 60.2758 11.5635 697 120.868 353.45 471.397
1143 0 64.2558 12.3413 793 118.241 353.922 469.179
1144 0 68.4139 13.8422 947 113.296 353.276 468.998
1145 0 68.317 12.5152 855 117.83 353.76 465.968
1146 0 70.2792 12.7349 895 116.588 353.599 466.726
1147 0 72.3454 12.2745 888 116.858 353.092 467.166
1148 0 73.3605 13.127 963 117.108 352.174 462.287
1149 0 76.3869 12.6592 967 117.62 351.796 462.201
1150 0 79.3968 12.4312 987 116.529 351.709 462.204
1151 0 83.695 12.8801 1078 115.498 351.32 459.512
1152 0 85.3206 12.5761 1073 115.895 352.155 458.927
1153 0 87.1346 10.6617 929 110.158 352.144 457.39
1154 0 87.1314 10.2833 896 111.827 351.773 455.577
1155 0 94.1265 9.97594 939 112.48 351.557 452.878
1156 1 48.067 10.3605 498 102.791 351.285 477.343
1157 0 49.0863 11.0214 541 104.135 353.673 476.954
1158 0 53.0754 11.7569 624 101.019 353.546 474.994
1159 0 51.1209 10.1915 521 107.937 353.152 475.342
1160 0 55.0693 11.5854 638 104.176 352.65 472.379
1161 0 57.1926 11.2077 641 104.897 353.367 473.832
1162 0 59.1281 10.1306 599 107.048 353.279 473.639
1163 0 62.24 11.1504 694 105.359 352.973 471.673
1164 0 63.3296 11.9533 757 102.968 353.305 471.357
1165 0 66.164 11.6378 770 103.145 353.081 470.465
1166 0 67.0831 11.5528 775 104.591 353.537 466.316
1167 0 71.1337 11.5979 825 103.13 352.318 464.133
1168 0 73.2067 10.7504 787 105.018 352.659 463.253
1169 0 77.1603 12.1565 938 102.194 351.586 462.028
1170 0 78.139 11.3004 883 104.353 352.699 460.525
1171 0 81.1068 10.9485 888 105.407 352.64 460.149
1172 0 82.0931 10.1348 832 106.745 352.877 459.709
1173 0 87.1508 12.312 1073 103.441 352.709 455.153
1174 0 91.1808 12.7878 1166 104.958 352.741 455.346
1175 1 45.05 12.3641 557 102.183 353.553 477.592
1176 0 46.091 10.9132 503 107 352.519 478.895
1177 0 47.027 11.2276 528 107.89 353.411 475.65
1178 0 49.0532 10.9269 536 108.563 353.446 475.66
1179 0 51.0219 11.9948 612 107.673 353.479 473.016
1180 0 52.2152 10.9164 570 110.082 353.732 474.347
1181 0 54.1346 11.4345 619 108.42 353.376 473.889
1182 0 56.2252 12.0942 680 106.585 352.824 472.234
1183 0 56.0958 11.7299 658 108.699 352.976 471.328
1184 0 58.095 11.3951 662 109.737 352.601 470.634
1185 0 59.0391 9.79012 578 113.178 352.824 471.066
1186 0 61.085 11.8523 724 108.146 353.079 468.309
1187 0 66.1922 12.5846 833 106.679 353.439 465.212
1188 0 69.1268 12.3975 857 109.074 353.231 467.554
1189 0 71.2009 12.6262 899 109.462 352.92 465.398
1190 0 71.0492 12.5265 890 111.244 353.119 464.526
1191 0 73.1522 11.9477 874 113.111 353.661 463.545
1192 0 76.0483 12.7682 971 112.365 353.669 462.378
1193 0 77.0735 12.2091 941 114.804 353.505 458.577
1194 0 83.107 12.7065 1056 111.181 353.333 460.797
1195 0 85.0833 12.4584 1060 113.518 353.007 459.095
1196 0 88.1459 12.6949 1119 112.391 353.292 457.468
1197 0 92.2451 12.5752 1160 112.851 352.819 456.208
1198 1 50.061 11.3262 567 113.362 353.945 477.945
1199 0 50.0174 9.7766 489 119.658 353.855 475.119
1200 0 51.0474 11.793 602 116.955 354.397 473.714
1201 0 54.0831 10.7427 581 116.604 353.874 474.738
1202 0 57.1653 11.0732 633 110.961 353.523 471.542
1203 0 58.1858 12.2882 715 108.134 352.983 472.378
1204 0 63.1486 12.6369 798 106.639 352.441 471.078
1205 0 63.1198 11.3594 717 109.997 352.943 470.872
1206 0 67.18 12.3251 828 108.162 353.402 468.912
1207 0 69.2069 13.4958 934 107.442 353.269 465.383
1208 0 71.1497 13.0851 931 108.458 353.105 466.309
1209 0 74.1626 12.2973 912 110.545 352.968 465.34
1210 0 76.2383 12.7102 969 109.619 352.918 462.393
1211 0 79.1396 12.5348 992 111.335 352.692 462.489
1212 0 80.1481 13.1881 1057 110.465 352.468 460.275
1213 0 82.1923 12.5073 1028 113.687 353.121 459.899
1214 0 85.1666 12.9041 1099 114.196 352.122 457.17
1215 0 90.2431 13.7739 1243 112.039 352.098 456.412
1216 0 91.1936 11.9307 1088 118.966 352.561 454.222
1217 0 95.1711 12.1676 1158 117.75 352.697 455.465
1218 0 98.2333 12.6434 1242 117.106 352.548 451.158
1219 0 103.356 13.1778 1362 116.932 351.811 452.941
1220 1 56.197 11.7622 661 117.278 352.762 474.392
1221 0 56.2162 11.349 638 113.958 352.52 471.298
1222 0 61.1294 12.1218 741 111.555 351.988 467.679
1223 0 59.2441 11.8662 703 115.094 352.145 470.384
1224 0 64.2171 12.8003 822 110.392 351.591 469.596
1225 0 66.1443 13.017 861 111.879 351.433 468.689
1226 0 70.0671 12.9447 907 113.015 351.324 468.456
1227 0 72.0808 13.6791 986 112.369 351.995 467.512
1228 0 74.078 13.9043 1030 112.451 351.67 465.88
1229 0 75.1043 13.3148 1000 116.593 350.869 462.274
1230 0 80.0811 13.9234 1115 113.621 351.064 463.438
1231 0 81.0862 13.9111 1128 114.235 350.642 461.961
1232 0 84.0322 13.4472 1130 114.567 350.745 461.011
1233 0 84.0692 13.7268 1154 117.042 351.066 459.789
1234 0 88.0773 12.9999 1145 118.507 350.987 458.967
1235 0 93.1205 13.8208 1287 116.939 351.372 457.186
1236 0 96.1514 14.1548 1361 115.457 350.654 455.012
1237 1 47.053 10.4775 493 119.112 350.014 480.702
1238 0 48.0545 10.9875 528 118.735 350.301 479.544
1239 0 49.0705 12.37 607 114.829 350.565 477.733
1240 0 51.0195 12.4266 634 113.169 350.148 477.899
1241 0 52.0682 13.2903 692 112.51 350.337 477.13
1242 0 55.1394 12.8402 708 113.158 350.299 476.136
1243 0 55.0345 12.0106 661 118.501 350.446 474.172
1244 0 57.0666 12.1437 693 116.058 350.685 475.602
1245 0 59.1723 14.0099 829 112.52 350.952 471.752
1246 0 60.1051 13.7426 826 114.487 351.075 471.864
1247 0 62.0801 13.1121 814 115.048 350.842 473.136
1248 0 64.1274 13.8318 887 113.284 350.815 471.351
1249 0 67.0401 13.216 886 115.362 351.319 470.336
1250 0 68.1964 13.8717 946 117.13 350.508 469.001
1251 0 70.0736 13.5715 951 119.51 349.886 465.856
1252 0 73.0448 13.9366 1018 119.469 350.911 465.487
1253 0 74.0715 13.9055 1030 120.934 350.293 463.86
1254 0 76.0246 12.8643 978 126.071 350.71 464.293
1255 0 78.031 13.6869 1068 124.858 351.41 460.713
1256 0 81.0626 13.0516 1058 126.641 351.324 460.679
1257 0 85.0405 14.6283 1244 121.78 350.998 458.976
1258 0 86.1235 13.9915 1205 125.349 350.834 457.177
1259 0 90.0852 13.9757 1259 123.857 350.791 455.644
1260 0 91.0818 13.4824 1228 126.311 350.898 454.108
1261 0 95.0693 13.6427 1297 126.095 351.645 452.286
1262 1 55.0647 13.3479 735 119.272 351.578 473.401
1263 0 56.033 11.8145 662 125.366 351.69 474.186
1264 0 56.2233 11.7389 660 123.712 351.818 471.479
1265 0 60.0987 14.0768 846 117.533 352.168 471.767
1266 0 61.0898 12.7354 778 121.473 351.951 471.272
1267 0 62.468 13.7831 861 118.38 352.611 471.094
1268 0 63.2993 13.1439 832 119.712 352.493 470.008
1269 0 65.111 13.1929 859 119.482 352.74 470.352
1270 0 67.0968 11.5505 775 113.64 352.33 467.76
1271 0 70.0644 10.9471 767 115.725 352.467 466.468
1272 0 73.1003 12.5991 921 112.643 351.608 464.222
1273 0 75.1004 13.7416 1032 110.07 352.036 462.467
1274 0 74.0688 12.6909 940 114.097 352.871 462.374
1275 0 79.1664 12.2148 967 115.737 352.119 460.321
1276 0 82.0475 12.1271 995 115.185 351.934 461.069
1277 0 83.1927 12.441 1035 116.321 352.097 459.008
1278 0 86.0744 12.1523 1046 117.093 351.278 457.624
1279 0 89.1408 11.8689 1058 117.657 351.399 458.412
1280 0 91.1393 12.5961 1148 118.054 351.834 454.609
1281 0 93.1288 11.3499 1057 121.63 351.379 454.81
1282 0 98.1842 12.2321 1201 120.113 352.051 452.722
1283 1 51.0728 10.9647 560 110.02 353.116 476.434
1284 0 53.1466 12.4561 662 109.393 353.113 475.237
1285 0 56.2141 12.2389 688 108.712 352.945 476.358
1286 0 57.2117 11.8158 676 111.547 352.72 474.809
1287 0 59.1374 12.175 720 110.449 352.781 473.481
1288 0 59.1834 12.3683 732 111.836 352.343 472.458
1289 0 60.1421 12.0548 725 113.379 352.686 472.41
1290 0 63.0678 12.0981 763 112.718 352.836 470.982
1291 0 63.0913 12.1728 768 113.406 352.74 470.216
1292 0 67.0714 13.2843 891 110.792 352.663 468.296
1293 0 69.2609 11.3484 786 114.676 352.716 468.001
1294 0 71.1495 12.3824 881 114.532 352.465 465.448
1295 0 72.1022 11.4837 828 116.388 352.159 464.431
1296 0 75.0566 12.1642 913 115.125 352.479 462.357
1297 0 78.1111 11.8165 923 114.48 352.627 461.285
1298 0 80.1411 11.1553 894 115.223 352.309 461.94
1299 0 84.2159 12.4205 1046 111.909 352.596 457.496
1300 0 87.1936 11.1017 968 113.821 352.49 457.081
1301 0 89.1958 11.8952 1061 113.003 352.596 455.979
1302 0 92.0617 12.6654 1166 110.913 352.444 456.867
1303 0 94.0607 10.6952 1006 115.819 352.567 453.895
1304 0 98.2615 12.6499 1243 112.954 352.553 452.164
1305 1 51.0533 11.6937 597 105.739 353.166 475.069
1306 0 52.0494 11.7581 612 108.415 353.76 472.92
1307 0 53.0758 10.8336 575 107.372 352.791 473.65
1308 0 54.0871 11.4445 619 104.622 352.317 470.178
1309 0 56.2309 10.8659 611 108.682 353.111 471.162
1310 0 57.1706 10.8447 620 109.36 352.376 469.408
1311 0 61.1843 10.7381 657 109.076 352.338 468.425
1312 0 59.1491 10.0086 592 112.703 352.449 466.363
1313 0 65.1684 11.9076 776 107.055 351.818 466.474
1314 0 66.1351 11.2043 741 109.193 351.722 465.302
1315 0 67.1085 11.7869 791 108.925 351.468 466.341
1316 0 69.2354 11.5837 802 110.01 352.339 465.504
1317 0 72.1425 12.1842 879 109.065 352.273 465.274
1318 0 72.0896 11.5551 833 111.802 352.031 462.797
1319 0 77.1341 12.2384 944 111.14 352.396 461.033
1320 0 79.2014 12.0705 956 111.297 351.724 460.545
1321 0 80.2631 11.861 952 112.217 352.503 460.904
1322 0 84.1661 11.6318 979 112.359 352.302 455.654
1323 0 86.2026 12.9114 1113 109.719 351.994 455.725
1324 0 90.217 13.2348 1194 109.467 352.42 454.348
1325 0 93.2545 12.9109 1204 111.072 352.182 452.894
1326 0 97.2516 13.5628 1319 110.161 352.125 451.331
1327 0 100.331 13.8243 1387 110.199 352.306 447.982
1328 0 103.319 13.0179 1345 112.645 352.356 447.703
1329 1 55.0941 11.8706 654 108.514 352.471 471.85
1330 0 57.2013 12.2899 703 107.826 352.414 472.386
1331 0 60.1606 12.5498 755 110.543 351.26 471.154
1332 0 62.1331 12.8756 800 103.432 352.232 471.469
1333 0 63.1786 11.8395 748 105.222 351.884 472.58
1334 0 66.1497 12.9857 859 102.881 351.909 470.827
1335 0 69.1455 12.5388 867 109.99 351.707 468.973
1336 0 71.2838 12.822 914 109.312 351.356 467.944
1337 0 73.1406 12.6879 928 111.374 351.659 466.321
1338 0 73.2286 11.4709 840 115.461 352.169 465.599
1339 0 76.1465 12.8437 978 107.623 352.57 461.948
1340 0 79.1619 12.1397 961 110.094 352.848 461.279
1341 0 82.0761 14.3891 1181 106.232 352.346 462.045
1342 0 84.1785 13.3169 1121 110.783 352.423 460.144
1343 0 87.1281 13.417 1169 110.508 352.764 460.809
1344 0 88.1103 12.246 1079 115.349 352.35 455.099
1345 0 93.2036 13.3686 1246 112.126 352.592 456.371
1346 0 95.1409 13.8742 1320 112.68 352.486 453.205
1347 0 98.1405 13.7762 1352 112.367 352.157 453.544
1348 0 100.225 12.0728 1210 117.997 352.588 452.554
1349 0 103.181 13.801 1424 114.838 352.421 450.242
1350 0 109.233 13.3751 1461 116.404 352.302 441.415
1351 0 112.213 13.207 1482 117.214 352.144 442.825
1352 0 116.377 14.1609 1648 114.256 352.321 441.55
1353 0 121.316 12.249 1486 116.795 352.689 442.052
1354 1 64.1739 11.7337 753 111.457 351.944 467.649
1355 0 67.1798 12.0572 810 111.253 351.206 466.988
1356 0 68.1586 12.9111 880 106.862 352.407 466.925
1357 0 71.118 12.7534 907 107.781 352.474 466.592
1358 0 74.1092 13.3317 988 107.443 352.719 465.78
1359 0 74.2076 12.5324 930 110.871 352.252 463.042
1360 0 77.1421 13.4298 1036 107.658 352.227 464.641
1361 0 82.1996 13.3334 1096 107.522 351.377 461.292
1362 0 84.1247 13.5632 1141 108.809 351.836 460.073
1363 0 86.1518 13.2441 1141 110.058 351.437 458.312
1364 0 92.1702 13.2689 1223 107.521 351.469 458.375
1365 0 92.1148 12.7667 1176 110.668 351.332 457.217
1366 0 97.2493 13.4397 1307 109.82 351.716 454.869
1367 0 99.1864 13.0361 1293 113.479 352.466 450.055
1368 0 103.322 13.4338 1388 110.73 351.699 452.701
1369 0 108.243 13.3681 1447 110.652 351.879 448.841
1370 1 54.0395 11.7507 635 104.356 351.602 475.88
1371 0 57.138 12.076 690 103.38 352.523 469.874
1372 0 58.1711 11.8959 692 102.603 352.364 472.043
1373 0 61.1159 12.2881 751 101.583 352.397 470.642
1374 0 64.1074 12.3855 794 103.793 351.947 470.448
1375 0 64.0897 12.6697 812 103.781 351.89 468.339
1376 0 68.0979 14.1267 962 100.077 351.993 469.447
1377 0 68.126 11.8604 808 105.839 352.105 469.957
1378 0 71.136 11.5835 824 105.161 352.289 464.098
1379 0 73.09 11.4653 838 108.064 352.445 463.292
1380 0 77.192 13.0065 1004 104.363 352.615 461.516
1381 0 80.1555 13.0122 1043 105.648 352.937 461.875
1382 0 84.1975 12.245 1031 107.038 352.996 461.102
1383 0 86.1436 13.0131 1121 107.11 351.939 459.691
1384 0 88.1357 12.5488 1106 108.741 352.212 456.046
1385 0 90.1883 11.0214 994 112.186 352.338 454.688
1386 1 48.1003 11.3929 548 102.316 353.662 476.553
1387 0 49.0253 13.0137 638 98.7978 352.089 478.931
1388 0 51.0527 11.7526 600 101.943 352.38 479.295
1389 0 52.0275 10.3984 541 103.887 351.867 478.723
1390 0 53.0714 12.1346 644 102.085 353.362 476.217
1391 0 55.1348 11.0275 608 103.479 351.962 476.78
1392 0 56.0548 10.6325 596 104.581 351.862 475.077
1393 0 59.0383 11.0437 652 103.428 351.865 474.494
1394 0 61.1432 11.0724 677 104.465 351.866 472.276
1395 0 62.054 10.7326 666 104.613 351.425 472.33
1396 0 67.0995 11.6096 779 102.882 351.487 468.099
1397 0 69.1518 12.4364 860 101.073 351.863 466.727
1398 0 71.1417 11.8215 841 102.508 351.287 466.436
1399 0 72.2837 12.2296 884 102.296 351.439 463.926
1400 0 73.1102 10.7919 789 105.525 351.43 465.175
1401 0 78.1138 12.7506 996 101.098 351.667 463.991
1402 0 80.2314 11.2923 906 104.244 352.011 463.162
1403 0 83.3429 11.9986 1000 103.698 351.826 459.629
1404 0 87.1103 11.5027 1002 105.974 351.087 457.345
1405 0 88.1963 10.9302 964 107.426 350.905 457.1
1406 0 92.3393 11.7285 1083 106.059 350.506 454.898
1407 1 46.1348 11.8349 546 99.7582 351.443 478.082
1408 0 50.1826 13.4708 676 99.1198 351.146 473.225
1409 0 48.0705 10.8798 523 102.273 351.759 474.514
1410 0 51.2426 11.4163 585 100.224 351.19 472.566
1411 0 52.1134 10.1317 528 104.892 351.913 475.254
1412 0 55.086 12.2717 676 100.558 351.507 473.281
1413 0 56.0961 11.4268 641 102.789 351.601 472.36
1414 0 56.1677 10.2016 573 105.169 351.445 472.342
1415 0 59.1346 12.7675 755 99.5179 351.734 468.743
1416 0 63.3692 11.1095 704 102.446 351.788 469.27
1417 0 63.2359 11.3859 720 103.568 351.714 468.657
1418 0 68.2383 12.515 854 100.267 350.774 467.123
1419 0 68.1194 11.6707 795 103.987 351.499 463.728
1420 0 67.167 10.258 689 107.958 351.817 463.682
1421 0 74.0984 12.5374 929 103.108 351.925 463.25
1422 0 77.1161 12.0986 933 103.204 351.526 462.011
1423 0 78.1221 11.1748 873 102.435 351.505 458.135
1424 0 82.2031 12.1042 995 100.51 351.925 458.263
1425 0 84.1731 11.7615 990 104.488 352.229 458.971
1426 0 86.1907 12.0431 1038 104.944 353.115 455.35
1427 0 88.227 11.5384 1018 106.424 352.779 454.086
1428 0 89.297 11.501 1027 106.54 352.038 453.072
1429 0 93.1694 10.2823 958 108.349 352.263 451.208
1430 0 96.2467 12.0627 1161 103.923 351.883 450.056
1431 0 99.0671 11.9818 1187 104.237 352.233 445.745
1432 0 103.134 10.2197 1054 112.235 352.568 444.229
1433 0 107.399 10.7077 1150 111.21 352.255 443.41
1434 1 58.1614 10.2817 598 103.15 352.493 468.314
1435 0 60.2887 10.9142 658 102.552 352.643 468.714
1436 0 63.1594 12.3497 780 102.581 352.653 464.997
1437 0 64.1162 11.3232 726 102.018 352.572 467.07
1438 0 64.1809 12.309 790 102.152 352.33 464.135
1439 0 68.1804 12.5256 854 101.385 352.262 462.097
1440 0 71.1101 12.4033 882 101.231 352.001 462.758
1441 0 72.2016 11.1493 805 106.235 351.877 459.251
1442 0 75.2179 12.5768 946 102.566 352.126 461.296
1443 0 79.1697 12.53 992 102.298 352.191 459.111
1444 0 82.1832 12.3505 1015 103.292 352.711 458.667
1445 0 84.12 11.3409 954 105.125 352.453 457.213
1446 0 87.2636 12.5596 1096 102.376 352.274 455.213
1447 0 90.1221 11.8617 1069 103.456 352.671 456.028
1448 0 92.1881 12.3335 1137 103.749 353.154 451.538
1449 0 96.1672 12.6238 1214 103.656 353.229 450.401
1450 0 98.1884 11.8242 1161 106.438 353.023 447.363
1451 0 103.21 11.9756 1236 105.514 352.719 448.231
1452 0 103.21 12.024 1241 134.037 352.72 448.251
1453 0 105.227 10.9003 1147 109.929 353.045 443.256
1454 0 110.255 12.3622 1363 106.865 352.662 442.372
1455 0 115.141 11.6118 1337 108.194 352.874 440.467
1456 0 119.169 12.0501 1436 106.476 352.773 439.742
1457 0 124.244 12.6364 1570 104.994 352.696 436.599
1458 1 65.0747 12.5702 818 103.435 353.034 463.141
1459 0 69.23 13.0724 905 101.883 353.063 466.487
1460 0 68.0943 12.2184 832 105.173 352.432 465.96
1461 0 71.1253 13.5676 965 102.237 353.124 463.352
1462 0 71.1226 13.54 963 122.124 354.126 463.367
1463 0 77.0642 13.7807 1062 102.632 352.774 462.813
1464 0 79.1673 13.5283 1071 104.824 352.274 458.147
1465 0 82.2017 12.8465 1056 107.323 352.768 458.92
1466 0 85.2559 14.1926 1210 105.9 352.565 458.123
1467 0 88.3191 14.1193 1247 109.639 351.497 455.01
1468 0 93.3272 14.6474 1367 107.489 351.086 455.248
1469 0 97.6318 14.7903 1444 88.9578 352.147 453.616
1470 0 98.5049 14.6592 1444 108.007 351.832 451.824
1471 0 100.581 13.7899 1387 110.311 352.39 448.976
1472 0 104.449 14.3419 1498 108.411 352.002 446.698
1473 0 107.405 13.3513 1434 110.04 351.954 445.28
1474 1 58.3675 12.6783 740 112.782 352.18 470.246
1475 0 59.2112 11.8559 702 115.231 351.86 470.788
1476 0 62.3868 12.8232 800 114.396 352.178 468.615
1477 0 64.3335 12.6373 813 114.069 352.33 469.605
1478 0 68.5403 13.8896 952 109.636 352.499 467.748
1479 0 69.509 14.9765 1041 108.495 352.618 466.89
1480 0 70.3025 14.2954 1005 111.61 352.444 464.478
1481 0 73.4157 13.6483 1002 112.626 351.834 464.302
1482 0 76.4559 14.492 1108 111.089 351.785 463.199
1483 0 78.434 14.2668 1119 111.921 351.735 461.655
1484 0 80.4268 13.0802 1052 113.389 351.459 460.253
1485 0 83.46 13.7191 1145 111.365 351.945 459.441
1486 0 84.3702 13.5711 1145 112.102 351.73 457.038
1487 0 86.3622 13.7213 1185 111.296 351.352 457.054
1488 0 89.2237 13.5614 1210 112.499 350.931 454.174
1489 0 94.2239 13.8712 1307 111.084 351.627 453.945
1490 0 96.1908 14.9806 1441 109.416 351.341 451.437
1491 0 99.308 14.5205 1442 110.344 351.601 453.847
1492 0 99.1351 13.4564 1334 117.295 350.768 449.28
1493 0 105.306 13.3136 1402 115.651 351.521 450.522
1494 0 108.232 12.8797 1394 117.644 351.453 448.103
1495 0 108.214 12.734 1378 118.109 351.117 442.201
1496 0 113.243 12.0714 1367 117.917 351.098 441.516
1497 1 62.2968 12.3762 771 110.291 351.127 468.084
1498 0 65.2257 13.1543 858 106.184 351.11 464.487
1499 0 66.2578 11.4552 759 112.59 351.257 467.37
1500 0 70.2402 12.0729 848 110.752 350.825 464.117
1501 0 73.2259 12.2498 897 109.503 350.503 464.317
1502 0 77.2294 12.1974 942 109.675 351.04 461.946
1503 0 78.0666 11.9129 930 103.775 351.484 461.741
1504 0 82.1754 12.6193 1037 103.161 351.472 461.307
1505 0 79.1083 11.7181 927 107.999 351.617 460.998
1506 0 82.1568 13.0239 1070 105.826 350.881 459.242
1507 0 83.1223 12.6079 1048 111.096 351.468 458.631
1508 0 84.1334 11.7314 987 114.977 351.274 456.764
1509 0 86.2519 12.336 1064 114.396 351.001 457.002
1510 0 89.1979 11.8276 1055 114.068 351.39 454.805
1511 0 92.1127 11.3991 1050 112.587 351.634 454.506
1512 0 95.1432 11.6982 1113 110.715 351.636 455.094
1513 1 51.0658 12.0041 613 101.703 351.964 475.711
1514 0 54.1051 12.1985 660 106.492 351.247 474.289
1515 0 57.1284 12.9533 740 102.935 350.953 472.899
1516 0 54.0694 12.41 671 102.999 351.714 475.501
1517 0 57.1169 11.1701 638 105.603 351.575 474.049
1518 0 59.1362 12.3613 731 104.034 351.837 473.748
1519 0 59.0619 12.089 714 105.903 351.615 474.532
1520 0 61.1218 12.7123 777 106.583 351.588 471.929
1521 0 63.0827 13.1732 831 107.085 351.623 472.491
1522 0 66.1862 11.9813 793 111.023 351.48 471.88
1523 0 65.1386 11.7749 767 114.737 351.184 471.207
1524 0 69.1871 13.7742 953 110.956 351.204 469.148
1525 0 70.0607 12.9602 908 114.438 351.545 469.183
1526 0 74.1034 13.6971 1015 112.738 351.431 468.716
1527 0 73.0818 13.3138 973 116.839 350.825 467.56
1528 0 76.0809 13.2228 1006 118.55 350.43 467.581
1529 0 78.1033 14.3144 1118 117.213 350.845 466.866
1530 0 80.0866 13.5104 1082 120.075 350.944 464.789
1531 0 81.0345 13.34 1081 122.624 351.49 464.241
1532 0 85.1092 13.8645 1180 121.825 351.225 462.846
1533 0 88.1091 13.6081 1199 124.161 351.241 462.435
1534 1 46.0955 11.346 523 126.293 351.83 481.526
1535 0 48.0531 13.2145 635 122.143 351.847 480.101
1536 0 50.1257 12.6881 636 123.187 350.766 480.788
1537 0 51.042 13.1656 672 122.487 351.24 480.531
1538 0 54.1097 13.0845 708 121.915 351.732 480.168
1539 0 54.0798 13.0733 707 123.963 351.396 479.221
1540 0 57.0379 13.4823 769 121.664 351.243 478.302
1541 0 58.0519 13.6774 794 121.87 350.97 477.662
1542 0 59.033 13.9075 821 120.877 351.027 477.46
1543 0 61.1251 12.7934 782 123.669 351.165 476.613
1544 0 62.1575 13.7554 855 122.375 350.159 475.385
1545 0 66.0983 13.8128 913 121.313 350.547 473.585
1546 0 66.0529 13.686 904 123.772 350.79 472.48
1547 0 70.1049 13.7366 963 122.071 350.988 470.448
1548 0 72.1736 14.0772 1016 121.377 350.555 471.006
1549 0 76.0945 14.85 1130 119.112 350.586 468.704
1550 0 77.1601 14.4634 1116 120.452 349.84 468.759
1551 0 79.2353 13.706 1086 123.263 350.127 466.96
1552 0 82.2391 13.4607 1107 124.407 349.937 464.884
1553 0 87.538 13.377 1171 122.701 349.778 462.355
1554 0 88.3804 13.1477 1162 123.833 349.753 459.467
1555 0 93.3143 13.2884 1240 122.315 349.772 460.051
1556 1 49.2183 12.089 595 120.185 349.632 480.924
1557 0 50.2673 11.4388 575 126.584 349.972 476.717
1558 0 51.0709 12.9232 660 118.617 350.014 477.289
1559 0 55.042 13.7713 758 114.383 350.521 475.941
1560 0 55.1394 12.8765 710 116.92 350.282 475.389
1561 0 57.1071 13.9387 796 115.108 350.127 473.984
1562 0 57.03 11.9235 680 120.579 350.272 474.559
1563 0 60.0635 13.5523 814 116.776 350.158 472.743
1564 0 63.1044 13.4539 849 117.57 350.207 471.948
1565 0 64.0749 13.0316 835 119.15 350.455 470.486
1566 0 65.0533 12.4667 811 121.292 349.914 468.565
1567 0 70.1806 12.9666 910 117.46 350.575 468.565
1568 0 71.0516 14.1728 1007 115.156 350.504 467.719
1569 0 72.1164 13.2702 957 118.446 349.649 466.014
1570 0 75.1059 13.5142 1015 116.935 349.688 466.43
1571 0 77.1057 13.9289 1074 117.845 349.984 463.156
1572 0 81.1996 13.6084 1105 117.874 349.91 464.834
1573 0 82.172 12.7659 1049 121.26 349.578 463.194
1574 0 85.0825 13.7161 1167 120.219 349.927 461.357
1575 0 88.1179 13.743 1211 118.986 350.118 461.542
1576 0 89.1293 13.1046 1168 120.994 350.3 460.253
1577 0 93.2846 13.6893 1277 119.109 350.042 458.942
1578 0 96.1509 15.2053 1462 116.008 350.213 456.606
1579 0 99.1473 14.7659 1464 117.081 349.471 455.002
1580 0 104.317 14.1013 1471 118.203 349.936 453.264
1581 0 109.27 14.0843 1539 117.734 349.493 449.589
1582 0 111.27 14.6221 1627 116.519 350.345 449.76
1583 0 114.241 14.2156 1624 118.401 349.597 445.361
1584 0 120.236 14.0557 1690 118.328 349.394 443.718
1585 0 120.235 13.9976 1683 153.578 348.373 443.633
1586 0 129.292 15.7473 2036 115.169 349.654 439.855
1587 0 133.335 15.4273 2057 117.077 349.492 436.56
1588 0 137.43 15.1423 2081 118.716 349.132 435.731
1589 0 142.325 15.8159 2251 117.378 349.544 434.358
1590 0 145.141 15.3024 2221 120.52 348.787 426.135
1591 0 151.133 14.9537 2260 121.545 348.677 425.924
1592 0 154.152 14.6997 2266 123.195 349.351 425.749
1593 0 160.174 15.6892 2513 120.23 349.195 423.159
1594 0 167.191 16.4243 2746 118.228 349.605 421.95
1595 0 170.297 15.6432 2664 121.072 349.763 417.962
1596 0 175.22 15.278 2677 122.878 349.076 415.644
1597 0 183.178 16.1264 2954 119.728 349.292 412.27
1598 0 188.247 15.7718 2969 120.975 349.644 409.053
1599 0 194.308 14.9299 2901 122.424 349.395 409.324
1600 0 201.393 14.9608 3013 123.292 349.846 403.215
1601 0 209.421 14.7215 3083 123.82 349.622 400.913
1602 1 162.421 13.4897 2191 123.759 349.674 424.656
1603 0 168.327 16.058 2703 119.424 349.002 419.58
1604 0 172.326 14.2346 2453 129.536 349.36 411.228
1605 0 177.445 14.1001 2502 127.369 349.25 414.236
1606 0 186.357 15.4864 2886 124.856 349.131 406.011
1607 0 193.409 15.5473 3007 124.647 349.344 402.711
1608 0 201.431 15.1317 3048 124.373 349.273 402.213
1609 0 207.386 14.5043 3008 124.145 349.105 397.301
1610 0 216.452 15.232 3297 125.617 348.982 393.953
1611 0 224.406 15.5165 3482 125.175 348.758 391.214
1612 0 230.494 13.8181 3185 128.31 348.215 391.219
1613 0 240.551 13.9555 3357 125.617 348.585 384.31
1614 0 249.516 14.7766 3687 123.999 348.745 380.821
1615 0 256.557 13.4434 3449 127.566 347.962 380.81
1616 0 256.548 13.4283 3445 164.863 346.96 380.579
1617 1 231.339 11.3599 2628 125.879 348.736 406.841
1618 0 231.55 12.4465 2882 124.746 348.595 400.661
1619 0 228.465 13.4594 3075 125.078 348.281 389.184
1620 0 235.34 13.6526 3213 123.476 349.014 388.471
1621 0 242.446 13.6154 3301 123.522 348.979 383.964
1622 0 254.607 14.8857 3790 119.706 348.582 374.561
1623 0 264.765 14.1333 3742 120.309 348.878 370.742
1624 0 273.596 14.6749 4015 119.168 348.557 363.755
1625 0 282.633 13.7634 3890 121.892 348.196 362.365
1626 1 269.589 12.048 3248 125.695 348.788 377.693
1627 0 269.592 12.0553 3250 166.99 348.781 377.394
1628 0 268.662 11.8402 3181 128.218 348.527 377.197
1629 0 266.459 13.4205 3576 125.881 348.504 371.72
1630 0 275.61 14.8507 4093 123.24 347.937 363.646
1631 0 286.422 14.5659 4172 124.011 348.151 355.836
1632 1 309.553 10.0629 3115 126.184 348.087 379.868
1633 0 308.384 15.5585 4798 119.323 348.529 342.445
1634 0 316.431 15.7854 4995 118.547 348.782 338.132
1635 0 326.705 15.941 5208 117.705 349.071 331.278
1636 0 337.852 16.5605 5595 116.245 348.906 323.3
1637 0 349.531 15.4092 5386 119.408 349.007 315.977
1638 0 362.745 16.841 6109 116.039 348.446 307.975
1639 0 375.779 16.0919 6047 118.362 347.822 298.621
1640 0 387.958 15.2439 5914 121.733 348.442 294.433
1641 0 399.744 15.6575 6259 121.524 348.715 287.959
1642 1 68.2087 7.78493 531 121.367 351.092 471.019
1643 0 70.2236 9.44126 663 112.929 349.885 471.268
1644 0 68.3286 18.8208 1286 90.3608 349.963 460.348
1645 0 69.2382 16.0172 1109 98.6907 349.146 464.705
1646 0 70.1496 16.5789 1163 98.4033 349.451 461.348
1647 0 72.4141 16.8613 1221 97.8288 349.6 462.645
1648 0 79.2151 23.6066 1870 84.8337 349.02 457.686
1649 0 76.0904 15.5999 1187 101.285 349.471 458.292
1650 0 79.2431 14.7899 1172 101.055 349.368 458.061
1651 0 84.3252 15.7486 1328 96.5211 348.486 454.804
1652 0 85.2453 15.1915 1295 98.4471 348.999 453.649
1653 0 91.2486 16.5044 1506 94.1574 348.959 453.469
1654 0 93.3148 15.646 1460 96.3808 348.923 449.129
1655 1 49.1221 13.1713 647 103.15 349.555 473.026
1656 0 51.2195 13.0614 669 102.321 349.546 472.746
1657 0 54.2091 13.245 718 101.834 349.022 471.525
1658 0 55.267 13.679 756 100.786 348.419 471.053
1659 0 57.1205 13.0076 743 102.013 348.126 469.45
1660 0 57.2719 14.3002 819 100.972 348.172 466.911
1661 0 61.2542 13.1746 807 102.323 349.102 467.815
1662 0 61.2972 13.1491 806 102.203 348.883 467.012
1663 0 62.1217 13.876 862 100.892 349.042 466.87
1664 0 65.2297 13.8281 902 101.19 348.548 464.799
1665 0 66.3433 13.9276 924 102.565 348.682 465.522
1666 0 69.2854 13.2207 916 103.619 348.672 461.187
1667 0 69.3298 12.491 866 106.1 349.048 461.193
1668 0 70.2728 13.3764 940 104.728 348.887 459.577
1669 0 75.4062 13.288 1002 103.998 348.681 460.335
1670 0 75.1551 13.399 1007 105.114 349.017 459.634
1671 0 78.12 13.172 1029 104.698 348.724 458.807
1672 0 81.1336 13.5949 1103 104.558 348.242 456.209
1673 0 84.2304 13.1781 1110 105.784 348.546 455.45
1674 0 88.2487 13.7906 1217 104.146 349.391 452.039
1675 0 90.257 13.0849 1181 106.979 349.64 451.694
1676 0 93.1785 13.4258 1251 106.226 349.504 449.293
1677 0 98.3113 13.7116 1348 104.822 349.189 447.727
1678 0 100.196 13.3439 1337 104.706 349.459 447.356
1679 1 51.0966 11.1358 569 108.334 349.167 467.895
1680 0 55.086 12.6348 696 103.828 349.681 467.45
1681 0 58.0401 13.9386 809 102.195 349.251 470.596
1682 0 58.0933 13.8915 807 105.372 348.953 472.312
1683 0 58.051 12.9714 753 108.612 349.037 472.116
1684 0 60.0594 13.3035 799 107.869 348.811 470.862
1685 0 63.0641 12.1305 765 108.844 348.818 471.438
1686 0 63.0583 13.5272 853 108.624 348.897 467.174
1687 0 67.0637 12.6298 847 107.408 349.275 464.64
1688 0 69.1754 13.6176 942 105.587 349.031 462.489
1689 0 69.1055 12.6618 875 108.07 348.763 460.944
1690 0 71.043 12.0068 853 110.423 348.374 458.059
1691 0 72.0728 12.3348 889 110.928 348.222 456.516
1692 0 77.0911 12.6604 976 109.054 349.082 455.58
1693 0 77.036 13.3314 1027 109.058 348.457 453.645
1694 0 80.1799 12.235 981 110.735 348.277 454.367
1695 0 83.071 12.1222 1007 110.709 348.815 453.782
1696 0 87.0585 13.0027 1132 107.743 349.314 453.565
1697 0 88.1734 13.6549 1204 108.151 349.333 450.302
1698 0 92.1103 13.321 1227 108.667 349.288 447.954
1699 0 95.2316 13.4409 1280 108.023 349.54 446.598
1700 0 100.16 13.3686 1339 106.02 348.979 446.226
1701 1 49.072 9.98533 490 104.69 349.569 468.106
1702 0 54.1601 11.983 649 97.5177 349.525 468.055
1703 0 57.0789 12.1236 692 98.617 349.061 469.968
1704 0 61.1258 12.597 770 97.3623 348.465 472.765
1705 0 61.1096 10.7675 658 102.22 348.623 470.654
1706 0 65.0445 13.4216 873 96.6632 348.612 469.65
1707 0 65.152 12.3097 802 100.241 348.863 468.709
1708 0 68.0503 12.7112 865 98.2301 348.708 469.301
1709 0 72.1742 12.5945 909 98.802 349.325 468.131
1710 0 74.1366 12.2477 908 99.9769 349.163 466.209
1711 0 76.0964 12.8127 975 103.657 348.808 463.284
1712 0 80.1098 12.7575 1022 102.962 349.383 462.448
1713 0 80.0929 12.2483 981 104.866 349.504 460.607
1714 0 84.2096 12.4333 1047 103.757 349.112 458.445
1715 0 85.2167 11.7348 1000 105.573 349.211 458.803
1716 0 88.1097 11.8602 1045 106.761 349.313 456.855
1717 0 91.1101 12.644 1152 105.199 348.937 457.114
1718 0 93.0992 12.4061 1155 106.933 348.772 455.341
1719 0 94.1155 12.0172 1131 108.882 349.093 453.602
1720 0 98.1385 12.248 1202 107.968 348.297 452.8
1721 0 101.11 13.0749 1322 107.37 349.113 450.651
1722 0 105.115 12.063 1268 110.633 349.188 446.944
1723 0 106.223 10.6756 1134 115.519 349.405 441.699
1724 0 111.232 13.3685 1487 109.666 349.303 431.71
1725 0 115.244 12.877 1484 111.903 349.035 430.976
1726 0 119.269 13.4067 1599 111.475 348.77 434.293
1727 0 122.315 13.596 1663 112.215 348.734 433.055
1728 0 124.259 12.1198 1506 115.903 348.796 430.463
1729 0 131.142 13.779 1807 112.246 348.678 427.549
1730 0 134.18 12.9752 1741 115.05 348.761 427.426
1731 0 138.158 13.3688 1847 116.045 348.825 428.234
1732 0 144.44 13.4866 1948 116.578 348.08 424.575
1733 0 148.452 13.0008 1930 118.549 348.72 422.623
1734 0 148.452 13.0951 1944 150.222 348.721 422.598
1735 1 158.402 12.4936 1979 122.596 348.793 416.806
1736 0 165.41 13.2156 2186 122.557 348.253 412.578
1737 1 92.1755 11.9012 1097 114.996 349.814 454
1738 0 93.2217 12.304 1147 115.752 349.138 448.44
1739 0 99.1924 12.3497 1225 114.362 349.111 452.723
1740 0 101.254 11.6637 1181 117.359 348.876 450.158
1741 0 107.165 13.4185 1438 114.031 349.374 448.878
1742 0 110.208 12.8756 1419 115.216 349.647 446.623
1743 0 110.204 12.8308 1414 137.719 350.634 446.654
1744 0 118.172 12.2448 1447 117.542 349.374 441.397
1745 0 125.11 13.3722 1673 112.543 348.972 441.765
1746 1 67.1421 11.0512 742 106.406 349.891 467.683
1747 0 69.1364 11.6292 804 105.852 349.927 468.714
1748 0 72.049 12.3943 893 105.166 349.613 466.819
1749 0 76.1281 12.1112 922 111.456 350.234 463.653
1750 0 79.0759 13.0128 1029 107.984 350.015 464.297
1751 0 81.0315 12.5877 1020 108.935 349.839 462.361
1752 0 82.1397 11.6022 953 112.11 350.009 459.977
1753 0 86.1952 12.4601 1074 109.238 350.249 459.529
1754 0 89.1126 12.6918 1131 108.346 350.42 457.268
1755 0 90.2238 12.8569 1160 109.013 349.497 454.958
1756 0 94.239 12.2773 1157 108.666 350.012 457.237
1757 0 96.1948 12.0797 1162 109.386 349.629 455.236
1758 0 99.2158 13.5765 1347 106.201 349.504 451.294
1759 0 101.19 11.9775 1212 111.254 349.104 448.812
1760 1 53.1041 10.7713 572 109.467 350.343 473.385
1761 0 56.3553 11.2146 632 104.93 350.521 473.88
1762 0 56.0615 10.8096 606 104.856 347.457 471.117
1763 0 57.1284 11.0978 634 102.248 347.74 473.918
1764 0 58.1817 9.6422 561 102.624 348.337 472.283
1765 0 61.1039 10.343 632 100.926 347.75 473.282
1766 0 61.0802 11.313 691 98.8394 347.43 472.679
1767 0 64.1585 10.5832 679 100.775 347.635 471.536
1768 0 65.1014 10.0305 653 103.113 347.781 470.236
1769 0 68.1678 11.6477 794 100.723 347.821 468.003
1770 0 69.1003 10.8104 747 104.107 347.333 466.039
1771 0 74.0841 11.9594 886 102.208 347.615 465.299
1772 0 75.1125 11.0101 827 105.161 347.822 464.631
1773 0 77.082 11.4813 885 106.203 347.912 463.795
1774 0 79.2133 11.5637 916 108.014 348.134 461.585
1775 0 80.114 11.3838 912 108.843 348.319 460.527
1776 0 84.1339 12.0998 1018 107.694 347.896 459.838
1777 0 86.1065 12.2523 1055 108.353 348.589 458.394
1778 0 89.3785 12.6988 1135 107.891 348.665 455.569
1779 0 92.1768 12.3458 1138 110.921 348.284 455.402
1780 0 95.2703 13.362 1273 110.101 348.358 454.002
1781 0 99.1339 13.2649 1315 111.425 348.372 448.868
1782 0 103.261 11.4661 1184 117.057 348.666 449.524
1783 1 52.0462 11.0094 573 109.403 348.494 476.576
1784 0 54.2478 11.1341 604 112.142 348.013 474.871
1785 0 57.1094 11.907 680 110.19 347.897 469.413
1786 0 57.0827 10.1782 581 105.184 349.515 475.404
1787 0 59.0928 11.8119 698 102.073 348.477 473.04
1788 0 61.034 11.3871 695 103.971 348.812 472.196
1789 0 61.0567 9.81056 599 106.157 348.756 472.848
1790 0 67.047 10.336 693 104.043 349.095 472.481
1791 0 69.0609 10.9179 754 103.139 349.302 470.451
1792 0 68.0492 10.6541 725 106.061 348.683 469.178
1793 0 71.1013 10.3655 737 106.967 348.742 469.054
1794 0 74.0374 11.8184 875 106.224 348.663 464.43
1795 0 77.0685 11.7688 907 106.375 348.892 465.348
1796 0 79.1341 11.4363 905 107.663 348.952 463.486
1797 0 81.1015 11.3685 922 109.226 348.774 461.443
1798 0 84.0449 12.1007 1017 107.619 348.705 461.052
1799 0 88.093 11.4538 1009 108.836 349.105 459.108
1800 1 47.0348 11.5234 542 105.17 348.592 478.491
1801 0 46.2257 10.081 466 108.253 348.691 477.813
1802 0 48.2327 11.4031 550 105.684 348.705 476.296
1803 0 47.1336 10.5445 497 112.65 348.899 476.728
1804 0 49.0788 10.4729 514 112.179 349.161 476.333
1805 0 52.0343 10.7237 558 111.692 348.878 476.26
1806 0 53.073 10.608 563 111.936 348.906 476.204
1807 0 54.0733 10.3933 562 113.354 348.292 475.856
1808 0 56.0976 10.8204 607 111.418 348.926 476.13
1809 0 56.0997 9.83962 552 114.824 348.563 474.857
1810 0 59.0794 10.9344 646 112.515 349.365 473.649
1811 0 59.1341 9.80822 580 116.543 348.867 473.619
1812 0 63.1123 11.2022 707 111.448 348.321 472.639
1813 0 66.0469 11.613 767 110.936 347.993 468.593
1814 0 68.1435 11.2703 768 113.272 348.72 468.276
1815 0 69.1402 11.4116 789 113.503 348.49 468.338
1816 0 72.1753 11.3058 816 113.833 348.402 467.169
1817 0 73.1078 11.8318 865 113.612 348.662 465.743
1818 0 76.0828 12.815 975 111.52 348.724 462.404
1819 0 79.1471 11.2828 893 113.925 348.496 464.333
1820 0 82.0793 12.5123 1027 111.436 348.284 461.445
1821 0 84.1938 11.1053 935 113.866 348.822 463.528
1822 0 84.2042 10.6527 897 114.923 348.971 462.893
1823 0 88.1852 10.0697 888 113.998 348.88 463.606
1824 0 91.158 11.0577 1008 112.511 349.156 461.056
1825 1 52.0466 11.2015 583 111.501 349.59 477.852
1826 0 55.1665 11.0937 612 114.886 350.194 475.99
1827 0 55.044 11.4272 629 104.054 351.369 472.385
1828 0 55.1346 10.7918 595 108.955 351.269 466.978
1829 0 55.1846 11.0176 608 108.151 349.248 468.01
1830 0 58.1879 9.91614 577 110.818 349.785 468.289
1831 0 62.1747 11.725 729 106.192 349.679 468.11
1832 0 63.1072 11.837 747 105.714 349.732 466.932
1833 0 66.1723 12.9964 860 103.036 349.792 465.348
1834 0 67.2065 12.3649 831 104.622 349.913 462.846
1835 0 70.2128 12.1203 851 104.309 349.544 463.645
1836 0 70.1647 12.1286 851 105.37 349.81 461.464
1837 0 73.1667 11.672 854 106.703 349.761 461.405
1838 0 75.2128 12.0059 903 106.243 350.116 460.612
1839 0 75.2092 9.94559 748 112.354 350.183 458.747
1840 0 78.181 11.0641 865 109.96 350.242 459.194
1841 0 82.1761 11.7674 967 108.888 349.967 457.724
1842 0 83.1619 12.4095 1032 109.146 349.753 454.8
1843 0 84.1988 10.8078 910 113.37 349.615 454.43
1844 0 89.1029 11.2342 1001 111.712 349.322 454.203
1845 0 90.1479 12.0469 1086 110.671 349.339 452.485
1846 0 97.1288 11.737 1140 108.57 349.284 455.226
1847 0 99.169 12.6451 1254 107.506 349.195 451.868
1848 0 100.204 10.9976 1102 113.172 349.013 452.586
1849 1 55.1286 11.1557 615 105.959 348.745 473.795
1850 0 56.2471 10.9872 618 108.115 348.987 470.756
1851 0 58.1698 11.604 675 106.738 349.044 472.372
1852 0 62.1736 11.307 703 105.535 350.156 471.933
1853 0 62.1088 12.8645 799 104.666 349.628 469.648
1854 0 64.1506 11.5042 738 108.678 349.271 468.623
1855 0 68.2679 12.9929 887 108.968 349.401 468.072
1856 0 70.133 12.3052 863 110.19 349.277 467.333
1857 0 71.2669 11.6043 827 110.903 349.301 466.948
1858 0 75.2349 12.441 936 108.958 349.686 464.347
1859 0 78.2131 11.3536 888 110.144 349.688 464.056
1860 0 81.1416 11.7326 952 109.188 349.145 461.825
1861 0 83.2116 11.669 971 110.27 349.61 461.064
1862 0 86.1212 11.3213 975 111.859 349.866 457.09
1863 0 87.2101 11.2602 982 112.406 349.682 457.977
1864 0 94.2904 11.804 1113 111.137 349.571 456.435
1865 0 93.2526 10.6914 997 115.354 350.226 454.516
1866 0 94.2659 11.213 1057 115.022 349.889 454.02
1867 1 54.2614 12.1265 658 107.438 350.184 475.298
1868 0 54.1166 11.9742 648 110.779 350.009 475.245
1869 0 56.1671 13.1394 738 111.473 350.405 472.405
1870 0 57.2055 12.796 732 106.24 350.191 473.855
1871 0 58.1841 12.8557 748 106.317 351.361 473.93
1872 0 61.1181 14.0547 859 102.199 350.38 471.057
1873 0 61.1643 12.4909 764 107.304 351.048 470.902
1874 0 63.108 12.645 798 106.722 350.107 470.208
1875 0 67.0614 12.5706 843 110.872 350.735 469.911
1876 0 70.0641 13.3735 937 108.144 350.747 468.744
1877 0 70.023 13.2242 926 110.764 351.042 466.361
1878 0 70.0714 13.2294 927 112.184 351.342 465.899
1879 0 75.1136 13.2599 996 111.015 351.128 465.206
1880 0 75.0377 12.8868 967 113.7 350.715 462.357
1881 0 81.1551 14.1334 1147 109.14 350.673 462.625
1882 0 84.2359 13.9608 1176 109.304 350.469 461.701
1883 0 85.1098 13.7587 1171 111.249 350.326 460.901
1884 0 90.1399 14.8658 1340 108.475 351.025 458.256
1885 0 91.1106 13.3135 1213 113.133 350.413 457.485
1886 0 96.1611 14.2261 1368 110.096 349.903 457.169
1887 0 98.2661 14.6337 1438 109.572 349.796 454.531
1888 1 50.1155 11.9723 600 112.507 350.538 477.605
1889 0 49.1333 10.6038 521 102.334 350.37 473.981
1890 0 50.1238 9.69599 486 104.574 349.554 472.844
1891 0 53.0486 11.8005 626 97.8051 348.791 474.097
1892 0 55.1467 10.9345 603 97.0862 349.962 475.018
1893 0 55.182 11.1268 614 97.8111 350.036 473.705
1894 0 57.1428 11.8125 675 103.766 348.36 475.136
1895 0 59.0368 13.0935 773 101.035 348.49 475.516
1896 0 60.0596 12.2545 736 101.822 348.668 474.158
1897 0 62.0849 12.1447 754 100.729 348.191 472.675
1898 0 66.1115 12.6151 834 99.8118 348.914 470.543
1899 0 67.1392 13.405 900 98.3178 349.123 470.578
1900 0 69.1065 11.996 829 102.568 348.987 468.525
1901 0 73.063 12.5508 917 100.23 348.959 467.362
1902 0 76.1223 12.2172 930 98.9108 350.02 466.36
1903 0 78.2023 10.9588 857 100.385 350.055 466.431
1904 0 81.1972 11.0472 897 99.5953 349.914 465.042
1905 0 83.1915 12.4772 1038 96.5511 348.795 460.355
1906 0 85.2412 10.7929 920 100.235 349.548 461.466
1907 0 90.1702 11.9219 1075 99.4633 349.895 459.097
1908 0 92.1115 11.6272 1071 100.246 350.105 458.309
1909 0 95.1736 12.0412 1146 99.7661 349.503 454.459
1910 0 96.3117 12.0027 1156 99.7647 349.363 452.678
1911 1 50.1485 10.5487 529 98.5425 350.679 477.399
1912 0 51.0259 12.2683 626 96.9026 349.463 478.08
1913 0 55.1235 12.4085 684 97.5015 348.898 476.912
1914 0 54.0468 11.12 601 99.4143 349.86 477.313
1915 0 55.1249 11.7007 645 100.605 350.291 473.009
1916 0 58.1556 10.919 635 99.9118 350.493 475.38
1917 0 62.1553 12.3722 769 96.7022 350.198 473.289
1918 0 63.179 10.8739 687 100.207 350.019 471.993
1919 0 66.2334 11.6406 771 98.8508 350.093 469.291
1920 0 67.1363 11.7373 788 98.7678 349.907 467.863
1921 0 71.1222 11.9794 852 98.0364 349.788 467.877
1922 0 73.0951 12.3127 900 97.6467 349.669 465.956
1923 0 76.1427 13.0413 993 96.707 350.168 465.621
1924 0 75.1644 12.5857 946 100.439 349.353 461.746
1925 0 80.123 12.5307 1004 98.997 349.843 462.735
1926 0 82.1437 12.1981 1002 99.1078 349.687 459.935
1927 0 86.1473 12.8269 1105 98.4145 350.195 458.23
1928 0 89.2232 12.3062 1098 98.9654 349.781 459.944
1929 0 91.1422 12.3653 1127 100.965 349.55 455.364
1930 1 49.0788 11.4714 563 98.4334 351.071 480.121
1931 0 51.1204 11.8935 608 100.605 350.054 477.232
1932 0 51.1806 11.6841 598 102.697 350.237 477.08
1933 0 52.1913 12.1859 636 103.898 350.173 476.107
1934 0 53.1834 12.3911 659 102.995 350.935 475.926
1935 0 54.0979 12.8101 693 103.836 350.186 473.358
1936 0 57.1989 12.1331 694 102.61 349.903 474.337
1937 0 58.1232 12.181 708 105.462 349.706 472.175
1938 0 59.2009 12.1789 721 106.806 349.757 472.768
1939 0 61.088 10.6076 648 110.128 349.67 473.366
1940 0 64.116 12.6022 808 105.819 350.028 469.5
1941 0 67.076 12.2995 825 106.939 349.892 469.901
1942 0 69.229 12.8992 893 106.996 350.265 467.989
1943 0 70.1102 12.0667 846 110.069 350.413 467.83
1944 0 75.1215 13.2851 998 107.626 350.535 464.922
1945 0 78.1831 11.9079 931 110.981 350.508 463.449
1946 0 81.1538 12.9507 1051 109.563 350.724 462.726
1947 0 83.1212 13.739 1142 109.364 350.573 460.919
1948 0 86.1511 12.4549 1073 112.973 350.39 460.02
1949 1 48.0127 12.58 604 108.442 350.755 479.993
1950 0 48.0175 11.8915 571 111.571 350.559 478.448
1951 0 50.0385 12.5703 629 110.107 350.644 478.194
1952 0 50.0575 12.0062 601 113.346 350.28 476.106
1953 0 53.0632 12.0988 642 117.942 350.528 476.35
1954 0 54.0163 12.0519 651 118.925 350.244 474.826
1955 0 56.0563 12.5588 704 117.771 350.722 474.214
1956 0 57.0504 12.7782 729 117.892 350.606 474.436
1957 0 58.1241 11.9056 692 121.107 350.91 471.718
1958 0 60.0327 12.3433 741 119.424 351.101 471.511
1959 0 62.0356 13.3955 831 118.901 350.764 469.107
1960 0 65.0869 12.7829 832 117.946 350.262 470.544
1961 0 68.031 12.5972 857 118.518 350.516 468.657
1962 0 72.0825 13.11 945 116.15 350.946 467.25
1963 0 71.1217 12.4997 889 120.162 350.812 465.914
1964 0 74.0604 13.462 997 117.451 350.584 464.17
1965 0 78.0498 12.902 1007 118.108 350.843 463.412
1966 0 81.1266 14.6684 1190 114.033 350.189 461.789
1967 0 82.1312 12.614 1036 119.732 350.379 459.36
1968 0 83.191 11.8282 984 122.468 350.571 457.757
1969 0 89.1859 12.8271 1144 118.127 350.767 456.427
1970 1 49.156 11.1482 548 115.891 350.962 476.85
1971 0 50.1684 10.5445 529 117.327 351.076 476.338
1972 0 53.2224 13.359 711 109.387 351.191 474.422
1973 0 52.047 11.797 614 113.66 351.205 472.992
1974 0 55.2188 12.6044 696 112.648 350.677 473.408
1975 0 58.2432 12.1903 710 111.463 350.414 474.913
1976 0 59.3684 12.6667 752 112.496 350.52 471.057
1977 0 61.2604 12.3408 756 112.607 350.434 471.44
1978 0 63.2963 13.7449 870 109.415 349.934 470.613
1979 0 65.3016 12.8021 836 111.172 349.24 470.083
1980 0 66.2003 12.4924 827 112.134 349.629 469.1
1981 0 70.3462 13.1493 925 109.794 349.458 467.302
1982 0 72.3761 13.1811 954 109.137 350.135 466.366
1983 0 70.3789 12.8448 904 143.162 351.201 467.437
1984 0 75.2178 12.63 950 110.123 349.736 462.911
1985 0 79.1896 13.133 1040 104.151 350.243 461.968
1986 0 79.176 11.3166 896 108.701 350.329 462.644
1987 0 83.1936 13.2582 1103 105.254 349.844 460.234
1988 0 83.1279 12.8597 1069 106.41 349.388 459.721
1989 0 88.1325 12.5152 1103 106.306 349.957 455.518
1990 0 88.1338 12.5264 1104 145.431 350.962 455.565
1991 0 94.1767 12.5933 1186 105.516 350.529 454.499
1992 0 97.1356 12.6009 1224 105.996 349.506 454.097
1993 0 99.1598 12.021 1192 108.56 349.528 452.105
1994 0 103.183 12.5311 1293 108.319 349.999 449.198
1995 0 106.165 13.0268 1383 107.962 350.343 448.915
1996 1 53.0833 10.7944 573 103.194 349.682 475.476
1997 0 56.0764 10.4144 584 105.041 350.024 474.89
1998 0 58.1014 11.4111 663 104.33 348.91 474.415
1999 0 59.105 11.3188 669 103.665 349.007 473.472
2000 0 61.0458 11.7944 720 101.979 348.557 473.869
2001 0 63.0457 11.8644 748 103.428 348.89 471.767
2002 0 64.0707 11.8307 758 104.844 348.941 469.774
2003 0 66.0585 11.1568 737 104.959 348.889 469.323
2004 0 70.0744 11.6733 818 103.48 348.856 467.765
2005 0 72.0814 12.1252 874 103.572 349.629 468.963
2006 0 73.1073 12.7347 931 105.456 349.322 464.496
2007 0 78.0622 12.2595 957 106.136 348.752 464.656
2008 0 79.2598 13.0709 1036 105.462 349.095 462.758
2009 0 81.0253 12.6504 1025 107.787 349.22 460.027
2010 0 86.2024 14.0831 1214 109.022 349.109 459.994
2011 0 88.1844 12.7687 1126 112.681 349.111 459.706
2012 0 92.1968 12.9506 1194 111.632 349.334 458.647
2013 0 94.2684 13.4403 1267 111.875 349.169 453.854
2014 1 52.034 12.1267 631 110.719 349.284 476.254
2015 0 53.0658 12.5882 668 111.719 348.695 474.765
2016 0 53.1074 11.5238 612 105.779 349.394 468.985
2017 0 54.127 12.4152 672 103.03 350.36 469.914
2018 0 57.1699 10.7574 615 105.434 350.551 470.163
2019 0 58.1152 11.8386 688 104.289 350.462 467.391
2020 0 59.1123 11.2498 665 105.998 350.048 467.191
2021 0 62.0774 11.3729 706 103.847 350.007 467.85
2022 0 64.1584 11.5495 741 114.914 348.992 470.337
2023 0 64.1614 11.9542 767 114.455 349.339 469.725
2024 0 66.2559 12.9649 859 112.611 349.74 467.361
2025 0 70.1383 13.2025 926 111.275 349.739 466.066
2026 0 74.2689 13.2761 986 108.284 349.591 465.19
2027 0 76.1278 14.4888 1103 105.928 350.093 462.472
2028 0 78.195 12.8653 1006 109.031 350.089 464.211
2029 0 81.1312 13.0036 1055 109.188 349.814 461.544
2030 0 83.1945 11.6354 968 111.837 349.715 459.645
2031 1 43.0647 11.7265 505 107.463 349.158 479.861
2032 0 46.0454 11.1629 514 107.463 349.084 478.903
2033 0 48.1892 12.1189 584 106.3 350.224 477.152
2034 0 51.058 11.3596 580 106.545 349.562 476.859
2035 0 51.106 12.2295 625 109.088 349.054 471.906
2036 0 51.0958 13.0343 666 104.099 350.357 476.318
2037 0 54.2206 13.3897 726 102.123 349.946 476.635
2038 0 54.1861 11.6266 630 107.483 350.538 475.217
2039 0 58.1697 12.1885 709 106.477 350.463 474.23
2040 0 58.2148 12.1103 705 107.991 350.647 473.289
2041 0 59.1873 12.6378 748 107.568 350.606 471.909
2042 0 61.2869 12.5965 772 107.755 351.127 470.917
2043 0 65.0692 12.4022 807 107.203 350.414 469.632
2044 0 66.1484 11.9731 792 109.35 349.861 467.943
2045 0 70.097 12.5826 882 106.286 350.229 468.692
2046 0 72.1155 12.1888 879 107.724 350.529 467.358
2047 0 75.1597 12.8659 967 106.377 350.187 464.77
2048 0 77.2356 12.7791 987 106.983 349.969 463.795
2049 0 80.1321 12.417 995 109.897 349.47 462.714
2050 0 83.1984 13.7022 1140 107.052 350.124 460.888
2051 0 86.1816 12.5085 1078 110.26 350.043 460.329
2052 1 44.024 11.4483 504 112 350.897 479.944
2053 0 46.083 11.8265 545 110.11 351.033 479.846
2054 0 50.0499 12.8072 641 107.721 351.061 478.594
2055 0 51.0384 13.8131 705 111.431 350.599 475.749
2056 0 52.1542 12.3288 643 115.306 350.243 475.35
2057 0 54.0754 12.9079 698 113.779 349.726 475.546
2058 0 55.0328 14.0098 771 112.061 350.634 474.549
2059 0 56.0661 13.4484 754 114.378 350.523 472.45
2060 0 58.0483 12.6446 734 115.827 349.593 472.792
2061 0 58.0551 12.6604 735 116.597 349.837 471.267
2062 0 62.0452 13.3934 831 113.513 350.288 470.3
2063 0 65.0355 14.0539 914 111.286 350.015 468.837
2064 0 65.1658 11.8927 775 116.79 350.24 467.11
2065 0 69.0745 14.0862 973 110.933 350.215 467.161
2066 0 69.126 12.3687 855 116.145 350.061 465.487
2067 0 73.1086 12.9396 946 113.955 350.618 466.22
2068 0 73.0422 12.1984 891 117.332 349.961 462.742
2069 0 78.0821 13.3577 1043 113.735 349.572 463.649
2070 0 78.083 12.3586 965 117.858 349.885 461.491
2071 0 82.2099 13.502 1110 115.026 349.708 459.037
2072 0 85.3092 13.5742 1158 111.909 349.876 459.479
2073 0 87.2238 12.4851 1089 114.347 349.454 457.845
2074 0 92.2391 14.2673 1316 109.511 348.831 456.91
2075 1 49.1773 12.2821 604 117.323 348.896 474.546
2076 0 51.2428 12.7238 652 116.299 349.586 473.951
2077 0 50.0498 12.1479 608 108.135 348.587 478.094
2078 0 54.0525 12.5619 679 107.333 347.997 476.346
2079 0 53.0367 11.954 634 110.215 348.5 476.185
2080 0 55.0264 12.6121 694 109.182 348.647 474.31
2081 0 55.1233 12.1183 668 112.049 348.147 474.079
2082 0 59.0667 11.8849 702 112.194 348.61 473.444
2083 0 61.108 12.4043 758 110.996 348.718 471.35
2084 0 63.0613 13.701 864 110.547 348.465 469.903
2085 0 64.0608 12.1447 778 112.222 348.578 470.71
2086 0 66.0526 11.612 767 114.472 349.083 470.236
2087 0 68.0539 12.1668 828 114.572 349.312 468.565
2088 0 71.0729 12.7053 903 113.505 349.113 465.454
2089 0 73.0729 13.1923 964 113.96 348.33 464.822
2090 0 76.111 13.8745 1056 115.066 348.439 464.693
2091 0 78.1027 12.5988 984 118.985 348.712 462.805
2092 0 80.072 12.6511 1013 118.477 349.263 457.394
2093 0 84.1267 13.2895 1118 116.473 349.558 457.101
2094 0 84.0775 12.2863 1033 123.328 348.899 458.199
2095 0 89.1363 12.3519 1101 122.416 348.906 457.406
2096 0 91.0734 12.737 1160 125.215 348.997 457.753
2097 1 47.0151 10.2733 483 125.865 349.072 479.203
2098 0 47.0682 10.8141 509 127.354 347.972 477.084
2099 0 50.0473 11.4891 575 132.511 348.381 475.661
2100 0 52.0122 12.1702 633 124.97 347.46 471.798
2101 0 53.0998 12.4859 663 130.259 347.867 475.145
2102 0 56.118 12.9549 727 129.879 348.442 474.022
2103 0 58.1094 14.249 828 126.331 348.164 472.444
2104 0 59.0539 13.1913 779 129.715 348.425 471.861
2105 0 61.144 13.1166 802 129.883 350.16 470.349
2106 0 64.0483 12.9433 829 132.397 349.721 467.766
2107 0 68.0525 13.8716 944 127.756 349.427 468.523
2108 0 68.1308 13.5475 923 131.142 349.608 466.084
2109 0 72.1085 13.1607 949 131.467 350.168 465.788
2110 0 73.097 12.9828 949 133.474 349.631 464.359
2111 0 76.0576 13.9237 1059 130.559 350.056 462.465
2112 0 80.0601 12.9902 1040 132.696 349.996 461.222
2113 0 83.0759 13.602 1130 131.273 349.382 459.024
2114 0 86.0671 13.2803 1143 132.524 350.34 458.808
2115 1 44.047 10.9656 483 133.356 350.654 477.863
2116 0 47.1117 11.7168 552 132.79 350.592 477.379
2117 0 47.0988 11.5927 546 132.434 350.099 475.026
2118 0 49.1074 12.7883 628 129.653 350.032 475.29
2119 0 51.0931 12.2521 626 131.492 347.28 473.934
2120 0 53.0651 13.229 702 127.95 347.805 474.288
2121 0 54.0403 12.6757 685 130.32 348.126 474.784
2122 0 56.0436 13.0969 734 129.287 347.861 472.719
2123 0 58.0823 12.7578 741 130.001 347.911 472.83
2124 0 58.1164 13.06 759 130.682 348.142 470.256
2125 0 60.0365 12.6923 762 124.134 348.142 471.192
2126 0 59.1272 11.619 687 128.837 348.377 471.808
2127 0 62.062 11.4402 710 128.203 348.176 471.148
2128 0 66.0493 13.4899 891 122.348 348.409 469.337
2129 0 69.1152 14.3673 993 121.657 348.097 465.352
2130 0 71.1112 13.2469 942 124.679 348.315 467.378
2131 0 73.1768 13.0233 953 126.194 347.988 465.428
2132 0 76.2718 13.5437 1033 126.627 348.392 463.069
2133 0 80.1906 14.6027 1171 126.566 348.855 463.334
2134 0 81.1584 15.1063 1226 125.608 348.932 462.589
2135 0 84.2239 14.5446 1225 127.329 348.989 460.02
2136 0 85.2367 13.4566 1147 130.244 348.743 457.995
2137 0 88.1638 13.5997 1199 128.611 349.033 458.3
2138 0 92.1207 14.4267 1329 125.015 348.689 457.976
2139 1 47.0844 10.8316 510 128.22 348.38 480.42
2140 0 49.1147 11.5851 569 131.13 348.302 478.163
2141 0 50.0331 11.8322 592 131.796 347.679 477.301
2142 0 52.0714 12.5981 656 126.28 349.23 476.573
2143 0 51.1734 12.6042 645 131.442 349.009 474.405
2144 0 54.1365 12.8194 694 129.398 348.478 474.03
2145 0 56.1272 12.3648 694 130.297 348.477 473.265
2146 0 58.1097 13.4229 780 127.626 348.445 471.505
2147 0 60.0944 12.5469 754 129.525 348.328 470.818
2148 0 62.1806 13.2517 824 125.742 348.734 472.375
2149 0 60.0884 12.5648 755 125.93 348.844 468.985
2150 0 65.1071 13.1629 857 122.369 348.249 469.783
2151 0 63.0912 12.5533 792 148.713 347.306 468.552
2152 0 68.0784 13.7929 939 122.39 349.246 466.431
2153 0 69.0702 12.1326 838 127.984 348.827 467.902
2154 0 72.138 13.0444 941 126.979 348.658 464.475
2155 0 76.1273 13.2016 1005 125.916 348.486 465.074
2156 0 78.1685 14.392 1125 124.734 349.057 462.731
2157 0 80.0988 13.6956 1097 128.151 349.267 461.031
2158 0 85.0929 14.443 1229 125.753 349.304 460.984
2159 0 86.1512 14.2888 1231 132.378 348.69 459.833
2160 0 89.0779 14.3582 1279 132.285 349.082 456.876
2161 0 95.1583 13.8191 1315 133.393 348.805 456.398
2162 1 49.0199 11.4035 559 135.689 349.921 477.626
2163 0 53.0466 13.4033 711 131.167 349.551 474.941
2164 0 53.0456 13.5167 717 130.533 349.384 474.602
2165 0 54.1249 13.5058 731 129.57 348.286 474.584
2166 0 56.0949 13.2098 741 130.271 348.808 474.266
2167 0 59.1109 13.5677 802 128.874 348.888 473.646
2168 0 58.1324 13.7445 799 130.792 348.787 471.419
2169 0 61.0858 13.5547 828 130.917 348.575 471.912
2170 0 62.0734 13.6935 850 131.394 349.32 468.939
2171 0 65.06 13.941 907 129.741 349.545 470.742
2172 0 66.0946 13.3294 881 133.491 349.355 468.539
2173 0 69.1686 14.1683 980 132.039 349.523 466.544
2174 0 70.1099 13.7784 966 135.039 349.181 465.792
2175 0 72.1108 12.9523 934 136.73 348.796 464.865
2176 0 77.0941 14.6963 1133 128.987 348.949 464.489
2177 0 79.1222 14.762 1168 128.942 348.906 462.393
2178 0 80.0972 13.8457 1109 131.647 348.331 461.936
2179 0 82.1335 13.5876 1116 133.129 347.918 457.398
2180 0 84.1419 12.4195 1045 130.087 349.053 453.859
2181 0 87.1241 12.8667 1121 126.696 348.776 453.384
2182 1 42.067 9.84145 414 114.937 347.797 475.585
2183 0 42.1791 11.3089 477 112.688 348.434 475.918
2184 0 44.1112 10.0881 445 113.982 348.917 476.101
2185 0 47.0497 10.4783 493 112.298 348.905 475.732
2186 0 48.0448 11.3436 545 110.527 348.057 475.196
2187 0 50.0575 12.3857 620 120.442 347.432 476.61
2188 0 52.0926 13.0729 681 117.885 347.276 476.968
2189 0 53.1171 12.1618 646 121.714 347.59 474.251
2190 0 56.1854 12.1918 685 122.016 347.493 473.968
2191 0 57.165 12.9975 743 119.728 347.456 474.248
2192 0 60.2109 13.2036 795 119.191 347.239 472.942
2193 0 60.0576 13.1041 787 121.05 347.597 471.423
2194 0 63.1396 13.5097 853 119.516 348.302 469.317
2195 0 65.1561 12.7386 830 121.867 347.982 469.271
2196 0 67.0583 12.1983 818 124.355 348.172 468.907
2197 0 68.2484 12.4838 852 126.548 348.1 466.743
2198 0 73.1095 12.7343 931 128.156 347.807 466.037
2199 0 74.1645 11.9464 886 130.415 347.528 465.96
2200 0 78.2021 13.4779 1054 127.057 347.874 462.978
2201 0 80.179 12.497 1002 130.449 347.443 461.725
2202 0 83.0816 12.8548 1068 128.384 347.316 461.552
2203 1 44.0414 11.4438 504 124.899 347.004 480.558
2204 0 44.014 11.6099 511 127.258 347.495 479.299
2205 0 46.0527 12.0514 555 124.24 349.89 478.337
2206 0 48.1443 11.0294 531 126.015 348.77 477.58
2207 0 47.0508 12.6459 595 116.38 348.81 478.61
2208 0 49.0409 11.1743 548 120.036 348.684 479.943
2209 0 51.0508 12.2035 623 120.037 347.958 477.889
2210 0 51.0497 12.1842 622 124.604 347.561 476.531
2211 0 53.0658 12.9839 689 123.202 347.653 475.351
2212 0 56.0413 14.2752 800 119.744 348.08 473.134
2213 0 57.0108 13.2431 755 123.714 348.113 474.166
2214 0 58.0158 13.1171 761 124.677 347.696 472.573
2215 0 61.0948 12.898 788 124.034 347.171 470.912
2216 0 62.1495 13.6928 851 122.684 347.902 470.743
2217 0 64.0583 13.7219 879 122.997 347.836 470.576
2218 0 66.069 13.1075 866 127.579 348.346 469.32
2219 0 68.079 13.1759 897 131.109 347.817 466.909
2220 0 74.0884 14.2667 1057 127.992 348.245 465.728
2221 0 75.1467 14.5715 1095 129.673 348.012 464.282
2222 0 77.1247 15.0795 1163 131.122 347.791 462.808
2223 0 80.0723 12.9258 1035 137.344 348.165 463.054
2224 0 84.1048 13.8042 1161 133.398 347.22 463.654
2225 0 86.1312 14.2109 1224 135.317 348.341 458.453
2226 0 88.1145 14.5947 1286 135.226 348.314 458.804
2227 0 90.1202 14.6471 1320 132.28 348.08 458.426
2228 0 94.1867 14.0572 1324 134.267 347.529 456.998
2229 0 99.0982 14.7329 1460 130.645 347.05 454.813
2230 1 51.2659 11.7427 602 136.417 348.457 474.942
2231 0 52.1851 12.4557 650 125.202 348.174 471.691
2232 0 55.0714 11.7121 645 125.454 347.878 472.237
2233 0 56.058 12.1481 681 123.386 347.64 471.455
2234 0 57.0983 12.7674 729 121.956 348.23 469.864
2235 0 60.0742 12.9007 775 121.125 348.226 468.514
2236 0 60.1271 12.2574 737 124.669 348.465 468.171
2237 0 65.2084 12.8971 841 116.967 348.496 468.636
2238 0 66.0578 11.6867 772 121.545 348.06 467.775
2239 0 67.0649 11.8393 794 120.605 348.851 467.835
2240 0 72.1333 13.5444 977 114.678 348.686 467.07
2241 0 70.2246 12.0471 846 121.641 348.447 464.58
2242 0 74.1235 12.4792 925 119.577 348.576 466.742
2243 0 77.0885 12.2976 948 121.749 348.244 462.623
2244 0 77.1266 12.7194 981 124.379 348.362 459.537
2245 0 80.1349 13.1778 1056 122.343 347.882 459.263
2246 0 83.1321 12.6666 1053 122.358 348.377 457.75
2247 0 86.135 13.5601 1168 122.755 348.197 456.8
2248 0 88.0831 12.7266 1121 125.005 347.935 453.672
2249 0 90.116 12.5505 1131 125.889 348.199 454.63
2250 1 47.0791 11.0028 518 117.612 348.577 478.025
2251 0 50.0375 12.1309 607 125.288 347.916 478.181
2252 0 50.0901 12.6771 635 123.546 348.838 477.698
2253 0 50.1597 12.2409 614 125.741 349.396 476.756
2254 0 53.1189 11.9355 634 125.407 349.467 477.279
2255 0 55.1513 12.4929 689 123.746 349.597 476.295
2256 0 57.1296 12.6554 723 123.534 349.95 475
2257 0 58.2235 12.8471 748 122.9 348.306 473.381
2258 0 62.1597 13.0631 812 120.113 349.049 475.568
2259 0 62.0832 12.9665 805 122.245 349.303 475.696
2260 0 64.1457 13.9526 895 120.989 349.208 474.056
2261 0 67.1285 13.5859 912 122.553 348.686 475.626
2262 0 69.153 13.4629 931 125.836 348.506 474.015
2263 0 73.1896 13.7041 1003 124.25 347.997 474.653
2264 0 74.0932 13.753 1019 127.855 347.784 473.455
2265 0 75.1645 14.3552 1079 126.706 346.981 472.659
2266 0 79.1095 13.8163 1093 125.245 346.771 473.053
2267 0 82.0876 13.9363 1144 125.385 346.726 472.709
2268 0 84.1532 13.5705 1142 126.314 346.305 474.052
2269 0 88.1673 13.6785 1206 126.977 346.058 473.685
2270 0 90.167 14.0628 1268 132.112 345.059 471.554
2271 0 94.1347 14.4686 1362 130.771 344.941 468.21
2272 0 96.189 13.9309 1340 133.492 344.821 467.163
2273 0 97.1714 13.2446 1287 137.059 344.996 466.134
2274 0 101.14 14.4355 1460 132.129 344.111 465.056
2275 0 105.342 13.4799 1420 135.357 343.918 464.624
2276 0 107.16 13.4566 1442 134.939 344.056 461.218
2277 0 113.081 13.4859 1525 133.142 343.79 460.37
2278 1 60.0447 13.1236 788 130.681 344.6 483.992
2279 0 62.0457 13.3934 831 131.542 343.804 483.828
2280 0 64.1081 14.1012 904 130.711 343.54 481.28
2281 0 67.189 13.2165 888 127.14 342.957 479.569
2282 0 70.2118 14.0717 988 127.943 343.669 479.371
2283 0 74.2082 13.5969 1009 129.746 343.578 477.887
2284 0 72.1112 13.8675 1000 130.237 342.974 476.742
2285 0 79.1274 14.1544 1120 129.023 343.105 473.647
2286 0 81.1142 13.5858 1102 129.856 343.76 471.998
2287 0 84.1032 13.7331 1155 130.814 343.114 470.462
2288 0 87.1529 14.182 1236 128.964 342.074 470.157
2289 0 91.1326 13.3651 1218 130.157 342.624 470.048
2290 0 92.1959 13.6449 1258 130.059 343.291 471.214
2291 0 96.1912 13.7227 1320 129.732 343.184 467.554
2292 0 96.1758 13.0178 1252 131.094 342.962 469.55
2293 0 101.175 12.6216 1277 131.168 343.157 466.787
2294 0 107.213 13.0861 1403 128.801 343.404 463.187
2295 0 110.134 12.3849 1364 128.685 342.953 461.057
2296 1 54.2416 9.8264 533 121.227 343.792 483.019
2297 0 55.0727 10.8765 599 119.459 343.581 481.154
2298 0 60.1996 11.412 687 118.352 343.253 481.812
2299 0 63.2002 12.0411 761 127.012 342.882 484.397
2300 0 65.1638 12.7218 829 124.11 343.475 482.878
2301 0 69.209 11.6459 806 125.994 343.164 482.2
2302 0 72.201 13.0469 942 122.058 343.514 480.789
2303 0 75.3257 12.0012 904 125.509 342.884 479.521
2304 0 75.1989 12.0613 907 127.422 342.716 475.764
2305 0 79.2294 12.3439 978 126.096 343.425 477.953
2306 0 80.1941 12.7815 1025 127.401 342.696 475.281
2307 0 83.1429 13.3264 1108 126.394 342.56 474.82
2308 0 86.0621 13.7807 1186 124.621 343.344 472.83
2309 0 88.0621 13.4905 1188 127.938 342.904 471.162
2310 0 93.0705 14.4192 1342 124.76 342.896 470.951
2311 0 93.2234 13.6017 1268 130.788 342.923 467.852
2312 0 97.2188 14.6679 1426 126.671 342.649 469.048
2313 0 102.151 14.4982 1481 127.528 342.831 465.232
2314 0 103.16 13.4548 1388 131.583 343.293 464.395
2315 0 108.066 14.3986 1556 128.592 343.083 461.245
2316 0 110.16 13.3079 1466 131.733 343.111 459.568
2317 0 112.234 13.3115 1494 133.074 342.649 459.403
2318 1 61.1887 12.2245 748 129.718 343.261 484.723
2319 0 62.1621 11.6631 725 131.79 343.034 484.258
2320 0 66.1576 13.1504 870 127.408 343.413 481.11
2321 0 68.2301 12.9122 881 126.537 342.501 481.309
2322 0 69.2583 12.374 857 129.109 342.896 480.366
2323 0 73.1634 14.0371 1027 124.591 343.199 477.278
2324 0 76.1796 13.5863 1035 125.784 343.593 475.998
2325 0 78.3632 13.8203 1083 125.453 342.78 474.712
2326 0 79.1654 13.2002 1045 128.557 343.015 473.876
2327 0 83.202 13.7617 1145 125.743 342.914 470.334
2328 0 86.2524 14.2837 1232 124.291 343.153 469.087
2329 0 90.1578 14.6188 1318 123.039 342.983 468.035
2330 0 91.2108 13.9676 1274 126.144 342.955 467.169
2331 0 93.2274 13.8586 1292 126.683 343.742 466.69
2332 0 96.1414 13.761 1323 124.932 343.116 464.303
2333 0 99.1751 13.3199 1321 125.164 343.505 461.706
2334 0 104.167 14.16 1475 121.273 343.378 460.125
2335 0 106.293 13.4628 1431 120.409 342.913 460.537
2336 0 105.226 12.3259 1297 124.965 343.538 458.268
2337 0 112.229 13.9002 1560 119.715 343.885 456.492
2338 0 115.267 13.2909 1532 121.633 343.592 450.757
2339 0 119.257 12.5108 1492 123.608 343.709 451.327
2340 1 65.272 11.3372 740 121.385 344.608 474.381
2341 0 64.1124 12.2285 784 115.358 344.19 468.35
2342 0 69.1766 12.7211 880 103.466 344.13 468.477
2343 0 73.1447 11.8669 868 109.396 344.18 470.362
2344 0 69.1441 9.47297 655 118.698 344.756 467.681
2345 0 76.153 11.5951 883 112.237 344.436 467.408
2346 0 77.158 11.1589 861 114.245 344.095 465.304
2347 0 80.1316 11.6184 931 113.391 344.295 464.547
2348 0 83.1416 12.2081 1015 112.723 343.782 464.155
2349 0 85.1478 11.3215 964 115.945 343.78 461.373
2350 0 88.126 11.1318 981 115.494 344.703 461.457
2351 0 93.1449 12.5181 1166 113.128 344.968 458.973
2352 0 94.1831 11.8599 1117 117.459 344.915 458.332
2353 0 98.1957 12.8315 1260 115.532 344.171 457.721
2354 0 100.157 12.9197 1294 116.454 345.113 454.62
2355 0 102.178 12.0183 1228 119.861 345.235 452.254
2356 0 106.286 12.2406 1301 118.649 345.732 450.273
2357 0 109.22 11.8751 1297 119.534 345.181 450.855
2358 0 114.291 13.8506 1583 114.289 345.812 448.198
2359 0 117.206 12.1922 1429 115.748 346.735 443.796
2360 0 122.268 11.4667 1402 117.891 346.531 442.812
2361 0 126.137 11.7095 1477 116.575 346.102 443.844
2362 1 64.083 11.766 754 110.077 346.115 471.556
2363 0 66.1246 12.3403 816 109.539 346.261 471.211
2364 0 68.1582 10.461 713 116.773 346.489 463.834
2365 0 71.1768 11.928 849 113.227 346.463 465.205
2366 0 71.1768 12.0545 858 138.871 346.431 465.224
2367 0 77.1265 12.5897 971 113.534 346.557 460.086
2368 0 80.1776 11.4621 919 113.93 346.456 461.258
2369 0 82.3134 12.5739 1035 113.715 346.337 459.335
2370 0 83.2167 11.6443 969 117.699 346.509 459.576
2371 0 86.2603 13.0419 1125 114.514 347.093 460.498
2372 0 89.2388 12.629 1127 117.402 346.966 457.391
2373 0 92.0947 12.6609 1166 117.177 346.505 456.263
2374 0 93.1151 11.6093 1081 120.487 346.851 454.738
2375 0 98.0839 13.4986 1324 115.255 347.208 453.609
2376 0 101.203 12.9345 1309 117.128 347.232 451.435
2377 0 105.288 13.3063 1401 116.382 347.16 448.946
2378 0 107.297 13.2156 1418 116.941 347.956 447.091
2379 0 110.251 13.5509 1494 116.533 348.084 444.922
2380 0 113.31 12.5232 1419 118.589 348.003 440.92
2381 0 118.39 13.6414 1615 115.282 347.217 441.054
2382 0 122.287 13.5419 1656 114.773 347.694 438.69
2383 0 126.391 12.6037 1593 116.818 347.627 438.908
2384 0 129.268 12.5398 1621 117.442 347.872 437.229
2385 0 134.261 12.4384 1670 118.475 347.511 435.795
2386 1 69.1895 12.155 841 110.989 347.666 466.736
2387 0 72.0687 12.1412 875 109.296 347.542 465.745
2388 0 72.1191 11.3978 822 114.471 348.506 464.045
2389 0 75.1694 13.6625 1027 110.747 347.515 462.132
2390 0 77.1616 13.6078 1050 111.794 347.828 461.249
2391 0 82.2013 12.7857 1051 114.297 348.02 458.519
2392 0 84.241 13.5207 1139 114.164 347.718 458.593
2393 0 84.1833 11.962 1007 121.051 346.77 456.551
2394 0 84.1833 11.9858 1009 144.592 346.768 456.511
2395 0 90.0932 13.2751 1196 121.403 347.216 456.518
2396 0 92.2449 13.41 1237 123.314 346.9 455.708
2397 0 95.3852 12.9265 1233 126.183 347.5 454.756
2398 0 99.2324 14.6021 1449 123.791 347.146 452.364
2399 0 103.231 13.6684 1411 123.193 347.011 451.752
2400 0 104.199 13.2823 1384 127.355 346.984 446.664
2401 0 109.272 12.8212 1401 127.815 347.41 445.901
2402 0 113.222 12.5064 1416 128.26 347.706 445.96
2403 0 117.235 13.0422 1529 127.031 347.449 441.384
2404 1 63.158 11.4475 723 118.29 347.277 469.212
2405 0 66.2651 10.292 682 126.504 347.396 468.072
2406 0 68.2311 11.4024 778 116 347.262 465.068
2407 0 69.1087 10.7078 740 121.48 347.643 466.654
2408 0 73.2065 11.2012 820 121.143 347.911 465.834
2409 0 77.1495 11.8731 916 119.616 347.362 462.897
2410 0 78.1773 11.3076 884 121.305 347.919 463.195
2411 0 82.2287 11.7234 964 120.24 347.449 460.65
2412 0 84.138 11.6 976 120.981 347.899 460.539
2413 0 87.1722 11.2765 983 122.767 347.76 456.843
2414 0 90.2249 12.1142 1093 121.37 347.349 453.425
2415 0 92.2882 11.3666 1049 123.192 347.265 452.79
2416 0 96.3558 13.1699 1269 118.491 347.403 450.749
2417 0 101.291 11.8174 1197 119.525 347.123 450.101
2418 1 53.25 10.6667 568 111.917 348.423 475.53
2419 0 55.1091 11.069 610 112.413 348.902 473.795
2420 0 57.1132 10.9257 624 114.38 348.202 473.325
2421 0 59.0816 12.5081 739 112.437 348.909 474.198
2422 0 61.0646 12.2821 750 111.508 349.008 474.764
2423 0 62.1048 11.9153 740 113.205 348.724 473.054
2424 0 65.0286 10.6722 694 115.641 348.8 472.607
2425 0 66.1927 12.3428 817 111.422 348.311 471.596
2426 0 70.1676 12.7552 895 110.77 348.603 468.221
2427 0 73.2273 12.1676 891 111.974 348.093 466.31
2428 0 73.3224 12.2064 895 112.404 348.452 466.688
2429 0 75.1245 11.9269 896 113.292 348.468 466.334
2430 0 77.181 12.5419 968 112.358 348.04 465.693
2431 0 80.142 12.1534 974 114.091 348.328 462.75
2432 0 82.2113 11.8354 973 114.545 347.578 460.282
2433 0 84.2862 11.6508 982 115.234 347.674 460.829
2434 0 87.3484 10.773 941 117.454 347.395 458.83
2435 0 88.2352 10.88 960 116.402 346.957 460.941
2436 0 93.2755 12.6936 1184 111.177 347.517 458.093
2437 0 96.3278 12.3121 1186 111.706 347.31 455.288
2438 1 50.2201 10.2947 517 116.043 347.17 474.077
2439 0 50.0587 9.66864 484 113.498 347.415 471.151
2440 0 51.042 9.95259 508 111.941 347.195 470.726
2441 0 53.1859 10.2283 544 115.346 348.237 467.73
2442 0 53.1659 10.6271 565 114.133 347.901 467.664
2443 0 53.0893 10.3411 549 116.333 348 467.158
2444 0 57.0943 10.8592 620 114.981 347.7 467.621
2445 0 61.1566 10.2033 624 115.207 347.314 467.957
2446 0 61.1551 10.7268 656 116.45 347.515 465.043
2447 0 61.0721 11.7893 720 114.544 347.476 465.882
2448 0 66.111 11.3294 749 113.156 347.761 465.907
2449 0 69.0806 10.799 746 114.63 347.544 463.751
2450 0 71.0553 11.681 830 112.095 347.613 464.214
2451 0 73.0684 12.4541 910 111.367 347.474 463.154
2452 0 73.0902 11.5884 847 114.963 347.148 461.014
2453 0 77.3052 12.4701 964 112.482 347.429 460.005
2454 0 79.2461 11.4958 911 114.145 347.569 460.411
2455 0 81.0675 12.1504 985 112.213 348.615 457.491
2456 0 81.0683 11.0401 895 113.297 348.037 455.283
2457 0 87.1438 11.8425 1032 110.442 347.825 455.255
2458 0 90.1867 11.2988 1019 111.441 347.688 453.995
2459 0 92.1108 10.4439 962 117.46 346.872 448.365
2460 0 95.1816 10.6743 1016 117.277 347.151 451.828
2461 0 100.149 11.7925 1181 113.84 346.997 448.691
2462 1 53.0692 10.4392 554 105.657 347.007 471.861
2463 0 52.1186 8.82602 460 109.943 347.798 472.322
2464 0 55.1666 11.1118 613 108.3 347.693 470.653
2465 0 57.1009 12.3291 704 103.089 348.599 468.935
2466 0 59.152 11.5465 683 105.031 348.266 471.741
2467 0 59.072 11.3929 673 114.082 347.883 471.574
2468 0 62.1837 12.5596 781 109.627 348.469 470.493
2469 0 65.0834 12 781 110.766 348.181 470.739
2470 0 66.1348 11.5068 761 111.783 348.29 472.577
2471 0 67.0956 12.7877 858 109.547 348.825 466.583
2472 0 70.0806 12.186 854 111.169 348.304 465.29
2473 0 75.251 13.8736 1044 106.607 348.717 464.719
2474 0 75.114 12.8738 967 111.07 348.235 465.539
2475 0 80.1945 12.6692 1016 110.892 347.912 464.481
2476 0 80.1051 12.8082 1026 112.861 348.364 461.722
2477 0 81.1226 12.8817 1045 112.968 347.692 458.079
2478 0 83.1902 12.826 1067 115.004 347.36 453.802
2479 0 86.1239 13.0626 1125 114.098 347.777 455.235
2480 0 90.1542 12.9445 1167 114.913 347.729 451.518
2481 0 93.2003 12.5429 1169 117.24 347.527 451.59
2482 0 96.1505 13.4269 1291 117.686 347.861 451.528
2483 0 99.167 13.9563 1384 117.288 348.017 451.423
2484 0 100.13 13.9518 1397 119.518 346.871 447.379
2485 0 103.274 13.682 1413 119.772 346.735 445.074
2486 0 110.233 14.8866 1641 114.498 346.996 445.416
2487 0 112.204 13.7072 1538 116.294 346.709 443.549
2488 0 116.09 14.2734 1657 114.403 347.128 442.381
2489 0 118.175 13.2092 1561 117.277 346.926 438.352
2490 1 66.0824 11.6521 770 112.382 347.538 470.127
2491 0 68.1449 12.6202 860 116.717 347.887 469.349
2492 0 72.144 13.2235 954 108.072 348.99 467.6
2493 0 73.1029 12.2704 897 110.895 348.943 466.252
2494 0 75.1252 12.6722 952 111.61 348.199 464.504
2495 0 77.0768 13.7266 1058 110.395 348.072 462.368
2496 0 79.1331 13.4963 1068 112.062 348.13 464.127
2497 0 83.1296 13.3647 1111 114.592 348.162 459.906
2498 0 87.1722 14.1788 1236 113.65 348.494 459.942
2499 0 87.1236 13.1882 1149 117.466 347.793 459.266
2500 0 90.2291 13.0557 1178 117.801 348.25 458.217
2501 0 91.1322 11.5985 1057 122.789 348.735 455.928
2502 0 95.1145 14.1514 1346 116.802 347.879 453.948
2503 0 98.1364 13.7666 1351 118.649 348.033 450.591
2504 0 103.256 13.2099 1364 118.919 348.395 449.167
2505 0 104.184 13.8888 1447 118.905 348.46 449.079
2506 0 110.117 13.0952 1442 121.033 348.741 446.672
2507 1 59.1001 11.1844 661 116.054 348.946 472.351
2508 0 62.1344 12.65 786 112.452 348.977 469.788
2509 0 63.1446 12.2101 771 119.686 347.892 467.392
2510 0 66.0732 13.9996 925 113.763 347.445 468.086
2511 0 68.0996 13.8474 943 114.775 347.39 467.61
2512 0 71.2706 13.54 965 116.955 347.344 465.214
2513 0 74.2119 13.2863 986 119.255 347.367 464.027
2514 0 76.1369 13.2393 1008 119.417 348.071 464.607
2515 0 79.2958 12.7119 1008 120.69 347.826 462.925
2516 0 81.2252 13.284 1079 120.267 347.61 460.024
2517 0 83.3315 12.1083 1009 122.42 347.192 461.175
2518 0 86.2357 13.3819 1154 119.703 347.863 457.986
2519 0 90.2276 12.8896 1163 119.281 348.052 458.585
2520 0 93.21 13.2496 1235 117.765 348.268 453.633
2521 0 94.1604 13.0416 1228 117.397 347.742 454.889
2522 0 96.3053 12.0139 1157 118.903 348.071 451.617
2523 0 99.227 13.4842 1338 115.114 348.081 451.143
2524 0 102.137 12.7378 1301 116.518 348.685 450.29
2525 1 56.1744 10.9659 616 113.443 348.946 472.557
2526 0 56.1572 12.0376 676 111.309 349.083 471.82
2527 0 59.2532 12.455 738 109.294 349.262 469.951
2528 0 61.1098 11.553 706 111.241 348.858 469.586
2529 0 61.1044 10.8503 663 113.24 349.528 469.516
2530 0 64.0773 10.6278 681 112.808 348.932 469.383
2531 0 66.2382 11.6247 770 112.522 348.932 465.704
2532 0 70.2262 12.3031 864 110.251 349.484 465.097
2533 0 72.2196 12.0189 868 112.435 348.909 461.962
2534 0 76.163 13.0378 993 109.482 349.821 462.2
2535 0 77.1314 12.1611 938 112.97 349.335 459.298
2536 0 79.2559 11.0907 879 113.788 349.012 457.481
2537 0 84.2207 12.206 1028 109.803 349.443 458.292
2538 0 86.1291 13.085 1127 106.34 348.91 455.6
2539 0 89.1571 11.777 1050 109.202 348.988 455.03
2540 0 91.098 11.3833 1037 110.046 348.569 451
2541 0 94.1458 11.3441 1068 111.289 348.289 450.083
2542 0 96.0562 11.7119 1125 110.736 348.367 447.429
2543 0 100.155 12.6105 1263 110.886 348.594 450.622
2544 1 54.0658 10.8571 587 109.702 349.671 471.901
2545 0 57.1403 12.5656 718 105.304 348.873 471.27
2546 0 55.1348 11.1001 612 117.722 348.02 469.425
2547 0 56.0332 12.3855 694 114.64 347.974 471.118
2548 0 60.1174 10.9785 660 117.436 348.283 470.342
2549 0 61.0934 12.5382 766 114.702 347.79 469.373
2550 0 64.0828 12.4214 796 115.31 347.876 466.842
2551 0 67.1558 12.2998 826 117.511 347.925 465.746
2552 0 69.1055 13.3709 924 115.236 348.373 465.63
2553 0 71.1377 12.3563 879 118.147 348.174 464.238
2554 0 72.1381 13.2385 955 118.001 348.193 463.075
2555 0 73.1392 12.9479 947 120.414 348.884 461.965
2556 0 79.1177 13.8022 1092 117.665 347.481 460.701
2557 0 80.1847 13.4315 1077 118.543 347.731 460.338
2558 0 83.1484 12.7122 1057 121.433 348.166 459.558
2559 0 85.2303 12.3196 1050 122.293 347.621 458.729
2560 0 89.1531 13.5385 1207 119.129 348.157 456.517
2561 0 90.157 12.4339 1121 123.63 348.507 453.279
2562 0 95.3313 13.815 1317 117.042 347.651 453.547
2563 0 96.1992 13.1602 1266 120.865 347.515 450.051
2564 0 102.137 14.6078 1492 115.887 347.391 450.483
2565 1 55.1235 12.3722 682 118.891 348.034 473.309
2566 0 55.142 11.7152 646 117.132 347.974 473.461
2567 0 58.1636 13.7887 802 110.171 347.813 471.188
2568 0 58.099 11.8247 687 114.911 347.559 472.479
2569 0 60.046 11.1415 669 116.175 347.937 471.882
2570 0 61.0433 12.1389 741 114.13 348.204 470.78
2571 0 64.048 12.0691 773 114.38 348.252 468.1
2572 0 66.1031 12.1174 801 114.15 348.318 467.305
2573 0 68.0718 11.5026 783 117.276 348.724 465.966
2574 0 70.0931 12.6403 886 114.068 348.997 466.454
2575 0 74.1002 12.5506 930 112.989 348.839 462.371
2576 0 77.1034 13.6051 1049 110.614 348.151 462.636
2577 0 79.0506 12.6122 997 111.253 348.41 460.677
2578 0 80.0964 12.2103 978 114.086 348.487 460.004
2579 0 84.0698 13.4174 1128 109.988 348.154 459.239
2580 0 86.122 12.0178 1035 114.382 348.5 457.266
2581 0 88.1229 13.084 1153 113.58 348.051 453.971
2582 0 90.0928 12.9311 1165 113.923 348.145 454.145
2583 0 93.1154 13.349 1243 113.287 348.374 452.208
2584 0 96.0965 13.0494 1254 113.107 348.619 453.75
2585 0 100.144 13.5405 1356 111.282 348.724 452.445
2586 1 55.1544 12.184 672 112.906 349.034 472.29
2587 0 55.326 12.0739 668 114.193 349.299 466.242
2588 0 56.0645 12.5748 705 115.485 349.481 468.792
2589 0 59.0993 12.7751 755 116.131 349.397 469.509
2590 0 59.0904 12.3032 727 117.908 349.195 470.254
2591 0 61.0937 13.1601 804 116.898 349.157 469.124
2592 0 66.0724 13.803 912 115.657 349.05 467.286
2593 0 66.1239 13.0664 864 118.515 349.527 466.722
2594 0 68.1668 13.3789 912 119.357 349.386 463.88
2595 0 70.2138 14.3562 1008 117.558 349.556 464.038
2596 0 73.1577 13.6691 1000 119.014 349.42 462.208
2597 0 75.2049 13.5762 1021 120.976 349.445 458.289
2598 0 77.1066 13.6823 1055 120.827 349.296 458.649
2599 0 80.2494 14.4176 1157 119.361 349.047 456.539
2600 0 84.2939 13.9037 1172 120.437 349.465 455.119
2601 0 86.1923 15.0826 1300 118.202 349.495 453.002
2602 0 89.2412 13.4803 1203 123.146 348.687 451.805
2603 0 91.3494 13.5633 1239 124.664 349.056 448.831
2604 0 93.2672 13.7991 1287 124.976 348.595 446.828
2605 0 97.2922 13.9374 1356 124.42 348.848 444.618
2606 0 101.243 14.6775 1486 123.166 348.884 444.443
2607 0 103.239 13.2508 1368 126.811 348.931 444.018
2608 0 106.336 13.1094 1394 127.509 348.784 442.012
2609 1 56.1148 12.1002 679 123.333 349.533 467.517
2610 0 59.0583 12.9364 764 119.204 349.3 468.919
2611 0 62.0916 12.9003 801 120.836 348.458 467.428
2612 0 63.0601 13.1303 828 121.514 348.588 466.498
2613 0 65.1873 12.9627 845 121.524 348.46 466.6
2614 0 67.0781 13.611 913 121.598 349.414 464.413
2615 0 68.2596 12.3206 841 124.599 349.732 464.786
2616 0 72.1032 13.4668 971 122.166 349.475 462.432
2617 0 74.1754 14.587 1082 120.136 349.012 460.486
2618 0 77.0832 12.8822 993 123.777 349.513 460.045
2619 0 79.1608 13.6936 1084 121.181 349.432 458.807
2620 0 83.1462 12.8569 1069 122.105 349.254 458.471
2621 0 83.1489 13.3375 1109 123.026 349.055 456.845
2622 0 87.1324 13.6459 1189 121.819 348.958 456.357
2623 0 90.2191 14.0214 1265 120.984 349.248 455.982
2624 0 92.1701 13.4968 1244 122.828 348.651 455.652
2625 0 95.1906 12.7008 1209 124.81 348.542 453.95
2626 0 98.1799 14.4429 1418 121.908 348.611 450.788
2627 0 100.18 12.9367 1296 126.561 348.7 449.686
2628 0 104.32 14.3789 1500 122.615 348.867 448.615
2629 0 112.234 13.8906 1559 119.657 348.505 441.334
2630 0 112.234 13.9173 1562 149.859 349.481 441.168
2631 0 119.121 14.4727 1724 122.03 346.796 442.237
2632 1 62.0754 11.6149 721 115.003 346.817 471.957
2633 0 63.2412 12.0175 760 111.58 347.549 466.558
2634 0 66.1823 13.1002 867 119.012 347.907 469.225
2635 0 70.2125 13.5446 951 118.195 347.528 467.639
2636 0 73.168 13.9269 1019 116.11 347.653 467.863
2637 0 76.0769 13.3023 1012 117.117 347.192 465.211
2638 0 77.1564 12.7403 983 118.544 347.611 464.216
2639 0 79.0746 13.1521 1040 113.534 346.537 465.019
2640 0 82.0868 12.2066 1002 115.557 346.756 462.032
2641 0 85.0915 13.7617 1171 111.603 346.938 459.761
2642 0 89.1095 13.8257 1232 110.685 346.713 458.966
2643 0 89.074 13.4719 1200 111.392 346.203 457.008
2644 0 91.0521 12.2567 1116 113.607 346.271 457.289
2645 0 97.1222 13.8691 1347 108.854 345.864 455.897
2646 0 99.1183 12.2883 1218 112.92 346.338 453.968
2647 0 100.106 12.2071 1222 114.59 346.74 454.133
2648 0 104.168 11.6447 1213 116.671 346.499 451.073
2649 0 104.129 12.3405 1285 117.167 346.464 445.794
2650 0 109.098 12.0625 1316 117.086 346.405 449.298
2651 0 113.129 11.8096 1336 118.006 346.819 445.615
2652 0 119.239 13.4771 1607 115.058 346.098 443.057
2653 0 121.159 12.4794 1512 119.086 345.92 441.735
2654 0 126.18 12.9893 1639 118.747 346.142 439.088
2655 1 63.0393 11.8339 746 118.539 346.8 467.835
2656 0 67.1688 12.5951 846 117.531 346.664 467.216
2657 0 68.1998 11.7302 800 119.995 345.425 467.698
2658 0 68.1007 10.7341 731 124.386 345.804 463.586
2659 0 73.1434 11.9355 873 120.499 346.344 465.121
2660 0 75.1953 12.288 924 118.366 345.921 464.653
2661 0 79.0717 13.102 1036 116.554 345.945 461.073
2662 0 81.131 13.0406 1058 116.79 346.502 459.959
2663 0 80.0954 11.6112 930 117.302 346.449 458.458
2664 0 84.1781 11.939 1005 116.142 346.457 458.735
2665 0 89.2328 12.1928 1088 114.854 346.888 458.976
2666 0 90.1407 11.9591 1078 117.309 345.078 456.87
2667 0 92.0768 11.9031 1096 118.07 344.843 455.062
2668 0 96.0839 12.5203 1203 116.545 345.156 449.98
2669 0 100.06 11.6531 1166 117.565 345.148 449.714
2670 0 104.183 11.8541 1235 116.951 345.552 449.249
2671 0 109.207 11.1073 1213 114.697 345.89 451.922
2672 1 62.0565 10.7322 666 114.357 346.82 471.532
2673 0 64.1095 12.2135 783 111.856 346.33 469.642
2674 0 67.0702 11.3016 758 112.067 348.289 471.503
2675 0 69.1009 11.7799 814 112.972 347.612 466.71
2676 0 72.0349 11.9525 861 111.808 347.963 468.573
2677 0 74.1033 11.1736 828 114.612 347.628 466.2
2678 0 76.0511 12.3864 942 113.574 347.816 464.505
2679 0 76.0994 11.2485 856 117.672 347.957 463.963
2680 0 82.111 12.7876 1050 113.399 347.447 463.775
2681 0 85.148 13.7173 1168 113.86 347.119 462.194
2682 0 86.1528 13.4877 1162 116.352 347.444 461.655
2683 0 88.1193 13.1413 1158 118.346 346.81 458.92
2684 0 92.1721 13.2903 1225 118.583 347.447 458.469
2685 0 93.1764 13.4583 1254 119.115 347.075 457.722
2686 0 95.1746 14.3105 1362 117.532 346.805 457.494
2687 0 99.1467 14.7458 1462 117.171 346.476 455.397
2688 0 99.0828 12.8176 1270 124.331 347.025 453.012
2689 0 102.164 12.9106 1319 124.961 346.867 450.048
2690 0 107.211 13.9445 1495 121.177 347.035 450.076
2691 0 108.159 12.8052 1385 125.769 346.864 449.439
2692 0 110.286 12.7033 1401 127.211 347.259 446.27
2693 0 116.377 13.6625 1590 122.749 346.586 446.713
2694 1 64.1917 10.64 683 113.807 347.274 469.372
2695 0 67.1414 11.4832 771 116.611 346.63 470.578
2696 0 67.2524 12.1929 820 119.617 346.638 468.654
2697 0 71.1992 12.3316 878 119.506 347.244 466.866
2698 0 73.2316 12.0849 885 121.64 347.026 465.947
2699 0 76.389 12.2662 937 119.755 346.956 465.815
2700 0 79.3069 13.1388 1042 118.078 346.869 463.779
2701 0 80.5092 13.5637 1092 118.482 346.466 460.625
2702 0 83.3256 12.5172 1043 120.337 346.919 459.803
2703 0 85.4073 12.3175 1052 126.74 346.125 456.682
2704 0 88.5325 12.8766 1140 127.346 346.647 452.415
2705 0 92.46 14.0385 1298 120.353 346.405 452.042
2706 0 94.0576 12.1415 1142 118.75 346.187 453.23
2707 0 96.1577 11.5331 1109 120.617 346.078 451.967
2708 0 101.126 12.608 1275 119.142 346.591 450.318
2709 1 111.24 8.87267 987 126.45 346.99 448.244
2710 1 56.2042 10.96 616 113.151 347.292 471.521
2711 0 56.2311 10.777 606 114.18 347.388 470.203
2712 0 60.0507 11.6901 702 111.558 346.444 471.865
2713 0 58.092 10.8277 629 114.836 346.577 471.82
2714 0 62.1334 11.5397 717 112.768 346.325 472.063
2715 0 64.089 10.9535 702 113.783 346.803 467.68
2716 0 63.047 9.5643 603 117.473 346.317 469.476
2717 0 69.0763 12.0302 831 112.254 347.679 466.857
2718 0 70.1013 11.6403 816 114.244 347.229 464.417
2719 0 72.0602 12.2675 884 114.355 346.772 464.817
2720 0 72.0885 10.1403 731 120.027 347.074 463.508
2721 0 78.0568 10.6461 831 119.11 346.921 462.599
2722 0 79.1018 12.1236 959 118.309 346.537 461.499
2723 0 81.0809 11.6057 941 119.417 346.51 462.553
2724 0 85.0292 13.2307 1125 118.297 346.886 457.422
2725 0 88.0964 11.9301 1051 121.544 346.419 458.062
2726 0 91.0751 12.8685 1172 119.724 346.964 455.845
2727 0 96.3099 13.2281 1274 119.073 346.97 454.506
2728 0 97.289 12.5194 1218 122.97 346.788 451.298
2729 0 96.3882 11.8272 1140 126.907 346.613 449.977
2730 0 103.38 13.4165 1387 121.978 347.796 449.921
2731 0 105.311 11.7272 1235 129.049 347.339 445.015
2732 0 107.284 11.9216 1279 128.815 346.856 444.742
2733 1 56.3846 10.3929 586 123.608 347.578 470.804
2734 0 58.1786 12.8398 747 117.489 347.009 472.534
2735 0 59.0862 12.2702 725 122.241 346.614 470.421
2736 0 61.0686 11.9538 730 121.877 346.386 469.57
2737 0 63.0794 12.8092 808 119.235 346.035 471.394
2738 0 65.0221 11.1962 728 124.301 346.135 470.1
2739 0 69.0463 12.8754 889 120.189 346.91 469.423
2740 0 69.0725 11.8716 820 124.51 346.606 468.259
2741 0 72.1039 12.7316 918 122.344 346.839 469.113
2742 0 72.0953 12.3725 892 126.667 346.531 465.202
2743 0 74.0615 13.5563 1004 122.743 346.73 466.758
2744 0 76.1271 12.9652 987 126.71 346.979 463.303
2745 0 77.1024 12.4121 957 129.344 347.404 463.048
2746 0 83.236 13.8281 1151 124.02 347.825 462.46
2747 0 82.1186 12.5794 1033 129.157 347.569 461.841
2748 0 88.1945 13.2548 1169 127.18 347.452 458.768
2749 0 90.346 13.072 1181 129.019 347.042 456.13
2750 0 92.3249 12.521 1156 129.321 347.606 458.321
2751 0 95.2808 13.329 1270 128.545 347.204 454.233
2752 1 52.091 12.1134 631 125.303 347.62 476.271
2753 0 53.0812 12.4338 660 124.183 347.45 477.048
2754 0 57.1332 12.6196 721 127.714 348.465 463.76
2755 0 58.0687 13.1913 766 128.441 347.362 472.841
2756 0 57.1198 11.5722 661 125.49 347.868 474.601
2757 0 58.0752 12.5182 727 123.249 348.776 473.224
2758 0 61.0617 12.3645 755 121.295 348.743 473.433
2759 0 61.0816 13.0154 795 122.332 348.57 471.025
2760 0 64.1724 12.5755 807 121.986 348.098 470.744
2761 0 66.0573 12.2621 810 122.505 348.37 469.859
2762 0 68.1896 11.8346 807 119.898 347.348 469.439
2763 0 70.0766 12.0725 846 119.577 346.491 468.83
2764 0 73.0925 13.2435 968 117.485 346.246 465.699
2765 0 74.0875 12.2963 911 119.957 346.807 463.555
2766 0 78.057 11.94 932 119.987 346.697 463.88
2767 0 81.1413 13.5443 1099 116.062 346.409 463.751
2768 0 81.1154 13.5609 1100 151.295 346.38 463.695
2769 0 88.1358 13.9444 1229 116.073 346.474 459.497
2770 0 89.1366 13.5971 1212 116.809 346.272 459.175
2771 0 93.0892 13.1702 1226 117.429 347.033 456.923
2772 0 95.1474 12.5174 1191 119.275 346.788 455.254
2773 0 99.0588 12.6995 1258 117.575 346.649 455.275
2774 1 54.0886 12.6274 683 111.499 348.129 475.728
2775 0 57.1623 12.4383 711 111.028 348.363 476.944
2776 0 57.1696 13.3638 764 111.08 348.175 473.347
2777 0 58.1923 13.2148 769 112.268 347.964 474.88
2778 0 59.0754 13.542 800 112.478 348.405 473.658
2779 0 62.0945 12.5132 777 113.153 347.779 474.472
2780 0 63.1968 10.9499 692 118.137 347.968 472.702
2781 0 67.0853 13.2369 888 112.261 347.795 469.961
2782 0 67.1648 13.1319 882 113.836 347.827 469.39
2783 0 73.2123 13.6999 1003 114.073 347.745 466.732
2784 0 74.237 13.8206 1026 114.671 347.362 464.249
2785 0 76.1379 12.5693 957 117.905 347.76 462.62
2786 0 80.1515 13.2749 1064 115.226 347.296 462.992
2787 0 82.2878 13.307 1095 116.143 347.788 460.705
2788 0 85.1485 13.2827 1131 114.509 347.638 461.479
2789 0 84.1938 12.7919 1077 117.454 347.272 457.667
2790 0 91.1472 13.8018 1258 109.773 347.936 457.763
2791 0 92.1447 12.578 1159 111.998 347.18 458.789
2792 0 96.1364 13.408 1289 110.5 347.327 456.044
2793 0 98.2292 12.99 1276 112.798 346.48 450.886
2794 0 104.258 13.5625 1414 110.044 347.092 450.94
2795 0 106.39 13.1779 1402 111.275 347.146 450.03
2796 1 60.102 12.4289 747 108.189 347.17 468.005
2797 0 60.1244 12.7735 768 108.073 346.797 470.256
2798 0 62.2341 12.5333 780 113.563 347.749 470.892
2799 0 65.268 13.5135 882 110.3 348.014 468.817
2800 0 68.1506 11.7534 801 113.469 347.794 468.885
2801 0 70.1988 12.9347 908 110.508 347.731 467.816
2802 0 72.1956 12.9648 936 111.017 348.093 467.96
2803 0 74.2345 12.8377 953 111.924 348.064 465.961
2804 0 75.1739 12.7172 956 113.077 347.717 463.967
2805 0 80.1254 14.5272 1164 108.252 347.302 462.797
2806 0 82.2515 12.8873 1060 111.391 347.357 463.497
2807 0 85.1754 12.3158 1049 113.416 347.41 460.497
2808 0 88.1889 13.5164 1192 109.997 347.907 460.239
2809 0 91.1481 13.9882 1275 108.267 347.499 459.758
2810 0 94.1793 13.5699 1278 110.43 347.312 457.12
2811 0 95.1318 13.2027 1256 112.075 346.714 455.9
2812 0 101.304 13.7211 1390 109.441 347.108 454.147
2813 0 102.228 14.7513 1508 109.202 347.056 450.019
2814 0 106.214 14.0377 1491 109.484 346.562 450.38
2815 0 109.089 13.7594 1501 105.326 346.382 450.464
2816 0 112.089 13.3019 1491 105.619 346.974 448.222
2817 1 63.1043 12.6299 797 102.906 346.206 472.541
2818 0 65.1698 12.9508 844 101.491 347.758 471.076
2819 0 67.2365 12.1809 819 104.415 346.181 470.366
2820 0 70.1087 13.365 937 105.358 345.654 468.587
2821 0 73.0402 12.8559 939 106.998 345.492 467.529
2822 0 73.1213 13.0468 954 108.092 345.855 464.737
2823 0 77.0229 12.2171 941 111.124 345.738 466.348
2824 0 81.0794 12.8639 1043 109.104 345.191 465.098
2825 0 82.0953 14.4223 1184 107.204 345.245 463.566
2826 0 84.0596 13.1573 1106 110.57 345.366 462.942
2827 0 86.049 13.7015 1179 110.291 345.522 459.136
2828 0 92.0793 13.4775 1241 108.857 345.865 458.698
2829 0 96.2961 15.7327 1515 103.989 346.118 457.611
2830 0 99.2356 15.1155 1500 105.272 346.175 458.105
2831 0 102.126 14.6094 1492 106.751 346.492 455.955
2832 0 104.233 14.41 1502 105.586 347.109 455.526
2833 0 106.207 12.6828 1347 109.886 346.863 453.912
2834 0 111.227 13.0994 1457 107.157 346.768 452.836
2835 0 113.14 13.5496 1533 105.563 346.973 446.78
2836 0 116.106 13.6083 1580 105.508 346.156 443.02
2837 0 120.2 12.4708 1499 106.551 346.46 440.564
2838 0 124.34 13.3666 1662 104.741 346.222 437.288
2839 0 128.161 13.5142 1732 105.837 346.496 437.06
2840 0 133.188 12.6738 1688 106.98 346.654 436.149
2841 1 70.0879 11.8137 828 102.078 347.548 463.717
2842 0 74.1495 11.9353 885 99.9299 347.421 466.854
2843 0 76.1575 12.3035 937 100.569 347.418 463.928
2844 0 78.1267 12.1341 948 101.759 347.34 461.649
2845 0 81.0926 13.1578 1067 98.7929 346.555 462.511
2846 0 84.0774 13.214 1111 98.495 346.713 461.69
2847 0 87.1187 13.1889 1149 99.094 347.139 457.305
2848 0 88.1127 12.7904 1127 101.085 347.034 455.563
2849 0 92.1813 12.4429 1147 100.376 346.405 458.662
2850 0 95.1819 12.1136 1153 101.726 346.297 453.644
2851 0 99.1601 13.7454 1363 98.7689 344.883 452.251
2852 0 103.192 12.9952 1341 100.509 344.923 450.99
2853 0 105.105 11.6836 1228 102.556 345.186 449.618
2854 0 110.338 13.5674 1497 98.507 345.539 449.721
2855 0 115.155 13.3125 1533 98.8695 345.603 448.04
2856 1 61.0709 10.889 665 96.7338 345.777 474.722
2857 0 62.1176 10.9953 683 96.5959 346.387 473.113
2858 0 65.1271 12.3297 803 95.1332 345.839 472.014
2859 0 67.1471 11.244 755 97.5166 346.152 469.478
2860 0 71.1294 12.5124 890 95.0202 345.356 466.946
2861 0 76.277 11.904 908 94.9681 345.242 468.623
2862 0 77.2281 11.9257 921 95.9946 345.16 466.316
2863 0 80.1385 12.7904 1025 93.6312 345.898 466.094
2864 0 83.1563 12.9275 1075 95.3702 345.048 463.359
2865 0 86.337 12.4165 1072 96.5382 344.989 461.271
2866 0 88.2283 11.6063 1024 98.8301 345.168 458.211
2867 0 92.2062 13.8169 1274 94.3878 345.547 459.786
2868 0 96.3116 13.394 1290 96.5713 345.826 457.498
2869 0 98.3364 14.308 1407 95.2644 346.375 454.78
2870 0 101.235 13.276 1344 97.0379 345.392 455.21
2871 0 104.348 12.6787 1323 98.9486 346.047 450.297
2872 0 109.323 13.2818 1452 97.2466 345.475 451.813
2873 1 58.2202 10.7007 623 97.6404 346.183 474.928
2874 0 59.2211 10.2497 607 99.5914 346.638 474.924
2875 0 65.243 13.0436 851 96.5264 346.541 472.724
2876 0 66.1462 12.9259 855 100.973 346.966 471.553
2877 0 65.1616 13.5049 880 102.116 347.077 470.688
2878 0 68.2809 13.1515 898 103.324 346.445 468.944
2879 0 72.1798 13.4109 968 102.245 346.054 468.764
2880 0 76.5103 14.2857 1093 104.719 346.122 465.99
2881 0 78.3649 15.6958 1230 102.624 345.762 465.183
2882 0 80.1152 11.808 946 106.079 345.428 464.773
2883 0 82.2283 12.5991 1036 102.736 346.352 461.174
2884 0 86.213 11.9124 1027 103.718 345.806 460.542
2885 0 85.1556 11.9428 1017 105.196 346.159 459.572
2886 0 89.2737 11.5712 1033 106.322 345.905 459.524
2887 0 92.2074 12.2441 1129 105.764 345.81 458.136
2888 0 95.2091 13.7067 1305 105.25 345.073 455.257
2889 0 96.2894 12.1509 1170 109.038 345.914 454.604
2890 0 100.185 12.0876 1211 108.894 345.377 454.339
2891 0 104.251 13.4004 1397 106.576 344.696 448.331
2892 0 109.265 13.1789 1440 107.089 344.972 449.01
2893 0 111.417 12.5295 1396 109.758 345.58 448.639
2894 0 114.209 12.8536 1468 109.522 344.958 445.245
2895 0 119.214 12.8173 1528 108.886 345.623 448.327
2896 0 122.26 12.5798 1538 110.151 345.505 445.696
2897 0 127.321 12.8573 1637 110.533 345.659 442.122
2898 0 131.376 13.4423 1766 110.436 346.002 440.037
2899 0 136.274 13.7297 1871 111.105 345.756 435.334
2900 0 140.376 13.5208 1898 110.333 346.093 436.285
2901 0 146.355 14.5331 2127 109.447 345.807 429.99
2902 0 150.245 14.5961 2193 107.698 345.195 430.27
2903 0 155.226 14.0505 2181 110.021 345.53 423.701
2904 1 79.1574 10.8013 855 109.972 346.243 463.874
2905 0 85.2952 13.1778 1124 105.998 345.666 459.286
2906 0 89.3249 13.4901 1205 105.109 345.565 459.113
2907 0 89.3295 13.0192 1163 107.528 345.782 455.98
2908 0 91.2539 12.8981 1177 107.494 345.613 456.87
2909 0 97.2973 12.1689 1184 107.861 345.696 456.858
2910 0 100.406 14.1127 1417 104.699 345.634 453.606
2911 0 102.355 13.7658 1409 106.219 345.591 451.253
2912 0 106.401 13.0544 1389 108.197 345.466 448.975
2913 0 110.28 14.1004 1555 107.127 345.89 444.634
2914 1 54.1681 12.5904 682 103.067 346.044 474.437
2915 0 57.0368 12.0449 687 103.713 346.745 470.057
2916 0 57.0808 12.7363 727 104.765 346.228 472.527
2917 0 61.1445 12.7076 777 108.516 347.393 472.021
2918 0 63.229 13.1585 832 106.567 347.629 472.293
2919 0 65.2863 13.4485 878 107.426 347.335 469.117
2920 0 67.0911 13.0122 873 108.849 346.479 468.381
2921 0 69.2222 13.305 921 108.695 346.84 469.118
2922 0 75.0747 12.4276 933 111.241 346.917 466.683
2923 0 75.0721 13.174 989 110.7 347.392 465.708
2924 0 76.1938 13.3344 1016 111.568 346.979 463.585
2925 0 79.1657 13.0865 1036 112.832 346.628 462.085
2926 0 82.2329 13.4618 1107 112.571 346.294 460.847
2927 0 85.3047 13.7273 1171 112.819 346.24 458.67
2928 0 87.2852 13.4387 1173 114.505 345.98 456.978
2929 0 90.3604 15.5489 1405 109.148 345.511 456.944
2930 0 90.3389 13.3387 1205 115.939 345.68 455.695
2931 0 94.2913 14.4764 1365 113.404 345.703 454.182
2932 0 98.3009 15.3407 1508 108.525 346.176 453.741
2933 0 100.189 15.1713 1520 108.891 346.269 453.807
2934 0 102.132 14.5694 1488 112.647 346.462 450.641
2935 0 105.18 14.2423 1498 113.888 346.416 448.93
2936 0 107.194 14.9355 1601 113.279 346.415 445.654
2937 0 113.289 15.253 1728 110.541 345.946 445.777
2938 0 117.27 15.1701 1779 110.669 345.831 444.713
2939 0 119.27 13.5827 1620 114.846 346.064 442.27
2940 0 124.221 14.9089 1852 111.406 346.482 441.454
2941 0 128.218 15.2475 1955 111.191 346.462 436.821
2942 0 131.334 14.3451 1884 114.232 346.689 435.511
2943 0 136.237 14.2179 1937 113.82 346.328 435.785
2944 0 139.23 13.2371 1843 117.594 346.683 431.367
2945 0 147.335 14.5451 2143 112.589 346.691 430.812
2946 0 151.277 14.4503 2186 113.562 346.616 426.704
2947 0 155.308 13.5794 2109 116.56 346.417 422.588
2948 0 161.342 14.1191 2278 114.515 346.423 418.818
2949 0 165.21 13.9459 2304 115.529 345.557 419.34
2950 0 170.206 13.5248 2302 116.655 345.603 416.965
2951 1 89.0544 12.9696 1155 114.281 346.982 458.107
2952 0 90.0792 12.3336 1111 116.914 345.675 451.364
2953 0 92.1983 12.8636 1186 115.466 345.914 453.093
2954 0 97.1589 13.092 1272 114.847 346.216 449.797
2955 0 97.3705 12.3035 1198 121.535 346.114 454.501
2956 0 103.188 13.6837 1412 117.312 346.36 452.464
2957 0 106.302 13.5745 1443 117.985 346.045 449.393
2958 0 109.218 12.7451 1392 120.927 346.389 447.785
2959 0 114.176 14.2061 1622 116.052 346.419 447.264
2960 0 116.203 12.8654 1495 119.798 346.97 442.817
2961 0 122.175 12.9814 1586 117.626 347.109 440.591
2962 0 126.376 13.7606 1739 106.903 346.752 440.655
2963 0 125.71 12.0198 1511 92.1568 346.377 435.369
2964 1 52.1352 11.3934 594 107.857 345.013 472.529
2965 0 53.18 10.6995 569 112.336 345.204 469.866
2966 0 51.0991 11.8202 604 111.811 344.856 468.343
2967 0 57.1304 11.605 663 110.084 345.382 465.694
2968 0 59.0872 10.5607 624 112.349 344.707 463.486
2969 0 61.1421 13.0025 795 106.282 344.925 464.411
2970 0 63.1742 12.5368 792 108.918 345.039 465.374
2971 0 64.1813 11.9661 768 112.385 344.777 465.014
2972 0 64.0623 11.161 715 115.471 344.796 464.917
2973 0 69.2273 12.1484 841 110.757 345.933 465.364
2974 0 71.2217 12.6366 900 111.23 345.886 463.722
2975 0 73.1976 12.4458 911 112.267 345.319 465.267
2976 0 76.1254 12.8078 975 113.881 345.829 464.917
2977 0 76.1491 13.5655 1033 114.89 346.032 465.152
2978 0 78.1392 13.3736 1045 115.667 345.6 462.956
2979 0 82.1273 15.0133 1233 111.928 345.385 462.964
2980 0 82.2068 13.7945 1134 116.869 345.742 461.462
2981 0 89.1314 15.9203 1419 109.35 345.912 461.268
2982 0 88.1177 13.0621 1151 119.636 345.896 458.089
2983 0 92.2439 14.7327 1359 116.712 345.154 456.561
2984 0 93.3875 13.2566 1238 121.958 344.895 457.409
2985 1 53.1733 12.6567 673 116.316 344.975 474.796
2986 0 54.3411 11.8511 644 118.455 345.227 474.88
2987 0 55.2762 12.8265 709 119.597 343.91 471.794
2988 0 57.1857 13.4474 769 124.88 344.554 473.941
2989 0 61.1929 13.6454 835 123.098 344.641 473.683
2990 0 57.075 12.9479 739 129.085 345.051 472.587
2991 0 63.087 13.9965 883 124.479 344.836 469.889
2992 0 65.19 14.3273 934 123.549 344.181 469.212
2993 0 66.3469 13.8514 919 127.568 343.971 465.953
2994 0 67.1773 15.1093 1015 125.609 343.941 465.25
2995 0 69.2041 13.5686 939 130.931 343.704 462.407
2996 0 71.2336 14.7402 1050 127.904 343.844 462.539
2997 0 73.3153 14.008 1027 130.056 344.598 461.903
2998 0 75.2686 13.671 1029 131.538 344.355 462.109
2999 0 78.3666 14.8788 1166 127.678 344.426 461.938
3000 0 79.3284 14.5219 1152 129.036 344.266 462.552
3001 0 82.1387 14.439 1186 130.302 344.863 459.816
3002 0 84.2904 15.0314 1267 130.028 344.351 460.969
3003 0 86.1568 14.9843 1291 132.566 344.21 452.901
3004 0 89.2924 15.2533 1362 131.731 343.918 453.318
3005 0 91.2707 14.572 1330 134.775 344.477 451.425
3006 0 93.2901 14.3531 1339 135.922 344.361 451.76
3007 0 96.4691 15.1655 1463 134.329 344.088 448.228
3008 0 98.2566 15.2763 1501 135.631 343.33 447.026
3009 0 101.196 14.7437 1492 137.592 343.893 444.488
3010 0 106.22 16.3152 1733 132.771 343.586 444.999
3011 0 105.095 15.31 1609 137.221 344.161 445.094
3012 0 110.087 15.5877 1716 136.507 344.357 441.672
3013 0 115.175 16.1146 1856 134.183 344.841 442.012
3014 0 119.114 15.523 1849 136.917 344.41 442.803
3015 0 119.202 15.7463 1877 138.319 344.336 440.415
3016 0 125.22 16.3073 2042 135.929 344.572 440.4
3017 0 127.228 14.5252 1848 143.207 345.177 438.654
3018 0 129.112 14.4371 1864 144.637 345.48 433.72
3019 0 133.173 14.9805 1995 142.731 345.224 433.52
3020 0 139.232 15.7076 2187 139.74 345.102 431.317
3021 0 144.326 16.2341 2343 137.488 344.407 427.397
3022 0 148.195 15.3918 2281 139.626 344.854 427.651
3023 0 150.381 15.0418 2262 142.116 344.429 422.421
3024 0 157.376 14.9514 2353 141.477 344.701 422.292
3025 0 160.248 14.7022 2356 141.855 344.867 420.702
3026 0 169.3 15.818 2678 136.452 344.554 416.152
3027 1 96.1326 11.765 1131 140.208 345.279 449.809
3028 0 99.0944 12.2005 1209 139.074 346.079 448.873
3029 0 100.04 13.5845 1359 135.189 345.131 442.686
3030 0 101.198 11.7196 1186 141.746 344.824 438.755
3031 0 107.064 12.5346 1342 137.905 344.814 440.084
3032 0 111.118 12.9862 1443 138.258 344.764 437.534
3033 0 116.215 13.062 1518 137.272 344.846 437.909
3034 0 121.259 13.5989 1649 136.31 345.142 434.953
3035 0 123.092 12.8603 1583 138.207 344.915 433.68
3036 0 125.211 12.7066 1591 140.27 344.347 425.671
3037 0 132.309 12.4104 1642 140.358 345.181 421.978
3038 0 139.296 13.1375 1830 138.75 345.328 426.633
3039 1 81.1683 11.2975 917 130.542 346.038 459.862
3040 0 86.0796 11.9657 1030 128.39 345.525 459.651
3041 0 87.1108 11.9388 1040 125.867 345.337 460.877
3042 0 91.0692 12.7595 1162 124.397 345.421 456.632
3043 0 91.0859 11.9338 1087 127.264 345.936 454.707
3044 0 94.2192 11.3353 1068 128.683 345.668 451.96
3045 0 98.2916 12.3815 1217 124.775 345.836 450.069
3046 0 100.147 11.0238 1104 120.479 345.831 449.739
3047 0 102.102 11.2535 1149 125.351 346.279 449.04
3048 0 103.114 11.6182 1198 129.343 346.392 446.745
3049 0 105.16 13.1323 1381 114.838 346.458 448.799
3050 0 105.196 12.4435 1309 125.133 346.855 447.336
3051 0 105.083 10.6773 1122 132.341 346.546 446.767
3052 0 107.133 11.229 1203 132.929 346.21 441.042
3053 0 109.055 12.0031 1309 130.038 347.006 442.204
3054 0 109.103 12.1537 1326 130.426 346.621 440.327
3055 0 113.132 11.6855 1322 130.026 346.196 440.236
3056 0 117.115 13.6532 1599 122.173 345.877 440.702
3057 0 121.155 11.5885 1404 126.252 347.109 437.9
3058 0 125.216 12.4425 1558 122.488 346.253 433.534
3059 0 130.286 10.2236 1332 124.056 346.004 435.826
3060 0 135.355 10.9416 1481 123.623 345.695 426.878
3061 0 139.36 10.4406 1455 122.515 346.017 427.34
3062 0 144.22 9.71434 1401 122.217 345.821 429.319
3063 1 82.1336 8.75403 719 113.401 346.805 456.725
3064 0 82.1506 9.47041 778 114.221 346.811 455.645
3065 0 87.1283 11.3052 985 109.931 344.843 453.694
3066 0 88.2883 10.6356 939 122.548 345.906 453.526
3067 0 90.2085 10.3094 930 125.625 345.757 453.662
3068 0 93.2303 11.1552 1040 124.656 345.719 451.463
3069 0 94.2139 11.0387 1040 125.533 346.57 450.838
3070 0 98.3304 11.0952 1091 125.836 346.416 448.454
3071 0 100.293 11.3168 1135 125.296 346.493 448.272
3072 0 102.083 11.4514 1169 125.283 345.152 449.482
3073 0 102.132 9.74228 995 132.177 345.369 444.063
3074 0 104.114 10.4597 1089 132.006 344.888 443.436
3075 1 59.1835 8.58347 508 126.874 345.632 468.937
3076 0 62.224 10.5908 659 123.733 345.27 467.328
3077 0 63.2001 10.2057 645 127.474 344.895 465.952
3078 0 63.2424 11.9382 755 125.326 344.946 466.458
3079 0 67.234 11.1104 747 127.821 345.142 461.946
3080 0 68.2472 10.6671 728 129.556 345.42 465.887
3081 0 72.158 12.2093 881 129.491 344.974 462.946
3082 0 71.2763 11.4203 814 129.115 345.618 461.944
3083 0 73.1025 11.3676 831 130.377 345.203 460.923
3084 0 77.1617 12.1044 934 128.225 345.647 460.999
3085 0 80.3397 12.472 1002 127.132 345.469 459.49
3086 0 82.2566 12.85 1057 124.805 345.956 459.101
3087 0 85.2352 11.9552 1019 125.915 345.144 461.063
3088 0 85.3269 13.3604 1140 125.266 345.288 455.711
3089 0 90.2999 11.9048 1075 128.568 345.429 455.427
3090 0 93.1135 12.9197 1203 124.311 345.887 454.631
3091 0 96.1426 12.4607 1198 126.126 345.087 452.84
3092 0 98.116 11.4966 1128 131.181 344.992 451.138
3093 1 55.0629 11.9136 656 130.078 345.181 471.93
3094 0 56.0277 12.4581 698 129.302 344.766 470.06
3095 0 57.061 12.6707 723 128.799 345.127 468.983
3096 0 62.0579 13.713 851 123.109 347.58 469.524
3097 0 62.0429 13.7002 850 124.842 347.771 468.471
3098 0 64.0862 14.2464 913 122.53 347.267 466.498
3099 0 66.162 12.5752 832 126.208 346.374 466.239
3100 0 66.0883 14.1629 936 125.006 346.748 465.147
3101 0 69.2478 14.5131 1005 123.02 346.577 465.267
3102 0 70.2736 13.3194 936 129.497 346.088 461.024
3103 0 71.1768 12.8553 915 132.72 346.086 459.988
3104 0 75.231 12.9069 971 129.337 346.324 461.452
3105 0 77.136 13.7809 1063 127.638 346.404 457.124
3106 0 81.0878 14.0958 1143 126.604 346.352 455.884
3107 0 83.0884 14.8998 1238 124.002 346.367 455.369
3108 0 84.1324 13.7403 1156 129.274 346.311 454.318
3109 0 88.1506 14.2824 1259 127.222 345.88 449.855
3110 0 91.1441 14.1424 1289 128.029 346.319 448.998
3111 0 94.1885 13.8127 1301 128.308 345.947 449.149
3112 0 96.1363 13.8969 1336 128.826 346.317 448.017
3113 0 98.3311 14.2071 1397 128.075 346.064 446.284
3114 0 102.145 15.6542 1599 123.206 346.87 444.152
3115 0 105.278 14.1056 1485 128.139 346.601 441.682
3116 0 106.146 13.8677 1472 129.091 346.267 442.672
3117 0 110.241 14.2688 1573 127.652 346.137 440.022
3118 0 114.163 14.3391 1637 125.837 345.772 440.678
3119 0 119.232 13.7714 1642 126.197 345.825 436.566
3120 1 67.0658 12.0628 809 127.152 346.435 462.812
3121 0 69.0893 13.1279 907 124.455 346.107 460.23
3122 0 73.0336 13.9936 1022 122.909 346.853 460.794
3123 0 76.1066 13.4811 1026 122.82 347.411 462.856
3124 0 78.0569 13.8617 1082 122.012 347.749 460.786
3125 0 79.073 13.9744 1105 121.417 347.483 459.174
3126 0 84.1259 13.5155 1137 120.671 347.634 457.651
3127 0 87.0517 15.1864 1322 115.309 347.774 457.253
3128 0 88.0614 13.7291 1209 119.342 347.654 456.877
3129 0 91.1031 13.8305 1260 117.607 347.294 457.108
3130 0 94.1327 14.4371 1359 117.312 347.215 452.104
3131 0 97.1158 15.2395 1480 114.149 347.691 451.697
3132 0 99.1182 14.1145 1399 116.826 347.528 451.432
3133 0 101.202 13.7844 1395 119.257 347.209 448.884
3134 0 104.111 14.5614 1516 117.455 347.654 446.976
3135 0 106.119 13.1079 1391 122.091 348.254 445.007
3136 0 110.08 14.3078 1575 118.611 347.627 442.239
3137 0 114.115 14.4678 1651 116.725 347.254 437.032
3138 0 117.082 13.7596 1611 118.567 347.886 439.812
3139 0 121.124 13.771 1668 118.887 347.251 437.361
3140 0 125.115 13.4436 1682 119.637 347.731 434.439
3141 0 131.206 13.6198 1787 117.566 348.063 433.595
3142 1 75.0585 13.1364 986 116.668 348.333 461.436
3143 0 77.0467 13.044 1005 116.079 348.15 460.168
3144 0 78.0563 12.9138 1008 117.101 348.591 461.195
3145 0 82.1301 13.5151 1110 115.919 348.696 459.008
3146 0 85.0657 13.1193 1116 115.542 347.794 458.16
3147 0 87.1204 13.5904 1184 115.443 347.519 455.823
3148 0 90.0596 12.6916 1143 117.018 347.92 457.125
3149 0 91.0275 12.4797 1136 118.786 347.235 454.78
3150 0 94.0438 12.6749 1192 118.551 347.364 453.503
3151 0 98.1097 14.0761 1381 114.834 347.038 452.391
3152 0 99.1859 12.4614 1236 120.36 347.369 447.841
3153 0 104.109 12.7942 1332 119.231 346.676 446.659
3154 0 108.159 14.2845 1545 115.137 347.009 446.481
3155 0 111.086 13.8362 1537 117.77 346.805 446.07
3156 0 112.164 13.9884 1569 119.147 346.725 441.854
3157 0 118.065 13.6451 1611 118.926 346.757 440.639
3158 0 121.184 13.1618 1595 120.27 346.587 438.598
3159 0 124.201 13.0353 1619 121.61 346.812 435.321
3160 0 128.288 13.8517 1777 119.014 345.844 432.083
3161 0 132.226 12.8492 1699 121.736 345.819 425.946
3162 0 138.366 12.5103 1731 121.07 345.95 429.426
3163 1 77.2162 10.5289 813 120.162 345.863 458.105
3164 0 83.1793 12.8037 1065 114.755 345.907 453.444
3165 0 84.0764 12.9287 1087 116.495 345.825 455.705
3166 0 88.1422 12.8429 1132 115.423 345.641 456.405
3167 0 90.2097 13.2358 1194 115.151 346.298 455.616
3168 0 93.0691 14.269 1328 109.577 346.767 453.959
3169 0 92.1563 12.1099 1116 116.746 346.876 448.863
3170 0 98.1321 13.3595 1311 113.45 347.4 447.416
3171 0 98.1414 11.5548 1134 119.243 346.37 446.784
3172 0 103.182 12.7639 1317 115.629 346.916 444.399
3173 0 105.154 13.3709 1406 114.706 346.602 443.675
3174 0 106.094 12.5361 1330 118.358 346.854 439.474
3175 0 109.118 12.9218 1410 117.759 346.878 435.581
3176 0 117.158 14.203 1664 112.541 347.279 437.697
3177 0 120.128 13.5688 1630 114.219 346.65 436.306
3178 0 124.108 13.3432 1656 114.563 346.274 434.677
3179 0 127.227 12.2615 1560 116.935 346.098 431.415
3180 0 132.389 12.1007 1602 116.496 346.164 431.609
3181 1 78.2017 11.4831 898 111.155 344.835 460.672
3182 0 79.2709 12.2365 970 110.616 345.27 457.493
3183 0 83.0455 12.6075 1047 113.847 344.771 460.671
3184 0 85.064 12.6846 1079 115.047 344.968 458.732
3185 0 90.2836 13.2693 1198 112.575 344.846 457.888
3186 0 91.138 13.0352 1188 113.886 344.71 457.953
3187 0 94.1503 14.0839 1326 112.494 344.385 455.239
3188 0 97.1005 14.0576 1365 113.174 344.247 453.807
3189 0 101.108 14.5093 1467 112.001 344.937 452.487
3190 0 104.126 14.3096 1490 113.303 344.839 451.177
3191 0 106.113 14.9463 1586 111.979 344.722 449.252
3192 0 110.165 15.6221 1721 110.694 344.741 446.052
3193 0 111.086 15.4024 1711 112.653 344.552 444.341
3194 0 114.234 14.7242 1682 115.298 344.982 445.619
3195 0 116.166 14.0488 1632 116.742 345.02 443.4
3196 0 118.316 13.4554 1592 119.107 344.606 443.4
3197 0 125.341 14.664 1838 116.254 344.872 439.782
3198 0 127.389 13.3606 1702 119.657 344.819 435.364
3199 0 132.55 13.5949 1802 115.128 345.42 432.221
3200 1 75.2913 10.9176 822 109.502 345.652 461.252
3201 0 77.1112 11.6326 897 111.146 345.309 465.76
3202 0 80.1031 12.3091 986 111.686 344.936 463.64
3203 0 85.1458 12.5902 1072 107.28 345.169 461.517
3204 0 85.1827 12.256 1044 109.56 345.505 459.368
3205 0 89.1484 12.0361 1073 110.138 345.352 457.777
3206 0 92.246 11.968 1104 110.707 345.514 455.601
3207 0 96.1787 13.267 1276 107.371 344.839 454.721
3208 0 96.2334 12.6152 1214 110.04 345.909 451.832
3209 0 100.15 14.0589 1408 106.879 345.553 452.226
3210 0 101.109 12.4815 1262 111.072 345.43 450.269
3211 0 104.181 13.5149 1408 109.296 345.602 447.968
3212 0 108.28 13.539 1466 108.377 345.726 449.16
3213 0 111.189 13.4366 1494 109.763 345.104 445.574
3214 0 113.231 12.9558 1467 110.403 345.207 446.506
3215 0 117.165 13.2634 1554 115.541 344.573 442.538
3216 0 122.211 14.2622 1743 117.171 344.618 440.581
3217 0 125.191 14.386 1801 114.675 345.173 438.582
3218 0 128.251 13.0057 1668 119.107 344.974 436.383
3219 0 133.241 13.0816 1743 120.345 345.186 432.173
3220 0 137.649 14.1955 1954 113.303 345.693 427.488
3221 1 75.2904 11.2498 847 110.947 345.653 466.972
3222 0 77.1879 12.5667 970 108.481 346.06 466.105
3223 0 78.0517 11.6589 910 114.702 345.184 463.085
3224 0 81.1244 12.524 1016 112.062 345.692 462.192
3225 0 83.1532 12.6874 1055 111.453 346.351 461.684
3226 0 86.1577 12.8717 1109 110.387 346.096 459.791
3227 0 88.3466 12.3944 1095 112.558 346.374 457.433
3228 0 91.3629 12.9593 1184 110.98 345.3 454.741
3229 0 91.3629 12.9921 1187 135.042 344.295 454.784
3230 0 95.2863 12.0584 1149 114.601 345.687 451.179
3231 0 100.42 13.5729 1363 111.031 345.345 449.291
3232 0 103.311 13.5319 1398 111.468 345.465 447.605
3233 0 105.411 13.7557 1450 112.156 345.724 447.137
3234 0 108.604 13.9682 1517 111.635 345.549 444.08
3235 0 113.446 13.5659 1539 112.685 345.471 442.148
3236 0 115.466 13.4152 1549 113.157 345.695 441.28
3237 0 121.274 14.7105 1784 109.523 346.187 438.335
3238 0 126.539 14.1538 1791 110.272 345.966 435.688
3239 1 69.4944 11.1088 772 106.281 346.332 465.106
3240 0 72.3723 11.6896 846 106.108 346.268 463.474
3241 0 73.1459 11.2925 826 107.407 346.28 466.162
3242 0 74.1008 10.8771 806 110.1 345.948 461.891
3243 0 80.1723 11.7871 945 108.424 345.332 462.102
3244 0 79.1505 12.2425 969 110.557 345.822 461.389
3245 0 79.1505 12.3309 976 124.752 346.83 461.367
3246 0 87.1911 13.1894 1150 108.772 345.937 455.913
3247 0 88.1364 9.88241 871 116.765 345.289 457.016
3248 0 91.1159 12.9286 1178 112.077 345.73 454.796
3249 0 94.235 12.1292 1143 116.121 345.63 451.264
3250 0 98.2739 12.9434 1272 114.711 345.534 450.804
3251 0 101.182 12.9569 1311 114.97 346.173 446.29
3252 0 103.178 12.1828 1257 117.135 346.566 445.596
3253 0 107.146 14.6716 1572 111.676 346.61 442.781
3254 0 108.416 12.2953 1333 118.239 346.652 438.672
3255 0 112.168 12.1692 1365 118.144 346.445 439.842
3256 0 118.294 12.4436 1472 116.668 346.435 437.774
3257 0 123.339 13.1427 1621 115.086 346.155 432.909
3258 0 128.35 13.7826 1769 113.101 346.634 431.859
3259 0 130.364 12.4421 1622 116.751 347.104 430.296
3260 0 137.217 12.3527 1695 116.735 346.855 430.784
3261 0 141.489 11.5839 1639 119.121 346.698 428.264
3262 0 146.204 11.4703 1677 120.458 346.373 426.424
3263 1 79.0763 11.0779 876 116.756 346.446 457.337
3264 0 84.086 11.5715 973 115.919 345.803 458.844
3265 0 84.1684 12.5106 1053 116.461 346.881 455.364
3266 0 88.1483 11.5147 1015 118.355 346.335 455.139
3267 0 92.1979 12.4515 1148 115.444 346.595 454.85
3268 0 95.146 11.8555 1128 117.92 346.371 452.933
3269 0 99.1412 13.2538 1314 112.713 347.065 453.384
3270 0 104.133 13.2427 1379 113.46 346.616 448.973
3271 0 105.207 12.6133 1327 114.92 346.968 450.132
3272 0 109.156 13.1463 1435 111.538 346.638 449.463
3273 0 112.113 13.1385 1473 112.695 346.707 445.719
3274 0 115.232 12.2883 1416 114.317 346.891 443.594
3275 0 119.218 13.513 1611 112.459 346.712 443.932
3276 0 124.252 13.215 1642 116.971 346.893 437.412
3277 0 126.235 12.9362 1633 118.032 347.151 435.397
3278 0 131.232 13.5942 1784 116.635 346.817 433.243
3279 0 136.178 13.967 1902 115.207 347.168 431.511
3280 0 139.179 12.6671 1763 118.449 346.393 429.72
3281 1 79.1091 11.3514 898 109.728 347.451 462.894
3282 0 84.1652 13.1171 1104 107.212 346.93 457.645
3283 0 84.1052 12.5676 1057 110.851 347.606 456.184
3284 0 89.1869 12.6588 1129 109.656 347.789 454.781
3285 0 92.3515 12.355 1141 110.287 347.881 450.603
3286 0 94.363 12.187 1150 111.041 347.821 448.886
3287 0 96.3802 11.5169 1110 113.009 347.486 448.158
3288 0 99.1538 12.879 1277 110.942 347.549 445.361
3289 0 103.325 13.3946 1384 109.328 347.136 445.421
3290 0 106.385 13.6673 1454 109.577 347.304 442.962
3291 0 109.341 12.8497 1405 111.742 347.216 440.515
3292 0 111.488 10.9518 1221 115.339 347.413 441.056
3293 0 117.315 12.786 1500 110.433 347.054 441.084
3294 0 120.328 12.441 1497 111.982 347.36 436.813
3295 0 124.26 13.3349 1657 110.276 347.271 434.628
3296 0 128.309 12.5556 1611 110.953 347.462 435.922
3297 0 132.213 12.495 1652 111.618 347.758 433.976
3298 0 139.284 12.7581 1777 112.013 347.535 430.441
3299 0 142.232 12.2195 1738 115.355 347.765 426.758
3300 1 79.165 11.4318 905 109.443 347.95 460.39
3301 0 82.176 12.6679 1041 106.826 348.442 459.162
3302 0 82.2585 10.0537 827 114.044 347.719 456.036
3303 0 87.1262 12.6254 1100 109.308 348.326 453.812
3304 0 90.1128 11.8851 1071 111.256 348.65 454.514
3305 0 89.1106 11.2781 1005 113.153 348.316 452.981
3306 0 94.1408 12.4282 1170 110.815 347.462 449.931
3307 0 98.1455 11.4116 1120 113.242 348.032 449.584
3308 0 101.169 11.5154 1165 112.787 348.52 446.551
3309 0 103.234 12.399 1280 111.472 348.639 444.791
3310 0 105.333 11.0602 1165 114.561 348.495 445.443
3311 0 107.181 10.3004 1104 116.382 348 442.432
3312 0 111.198 11.52 1281 113.746 348.272 441.987
3313 0 115.189 11.4681 1321 114.264 348.064 437.936
3314 0 120.22 12.186 1465 112.565 348.309 437.488
3315 0 124.239 13.2407 1645 111.433 347.671 433.879
3316 0 127.355 12.8696 1639 112.749 347.785 433.739
3317 0 133.583 13.37 1786 111.993 347.541 431.516
3318 0 134.353 11.5814 1556 117.515 348.086 427.474
3319 0 140.461 12.3522 1735 116.663 347.366 424.112
3320 0 144.406 13.9952 2021 112.9 347.615 421.448
3321 0 148.417 14.0078 2079 112.997 347.442 420.947
3322 0 151.314 13.3762 2024 115.325 347.481 418.987
3323 0 156.524 13.1481 2058 116.599 346.984 415.791
3324 0 161.537 12.9506 2092 117.547 347.073 416.415
3325 0 164.586 13.1968 2172 116.478 346.917 412.842
3326 0 170.49 13.819 2356 116.801 346.983 406.868
3327 0 174.531 12.7828 2231 119.232 346.881 409.238
3328 1 102.403 11.4547 1173 113.469 347.85 448.718
3329 0 106.388 11.8434 1260 115.271 347.294 444.725
3330 0 108.228 11.7345 1270 117.864 346.747 442.539
3331 0 112.112 13.4063 1503 114.092 346.978 442.347
3332 0 116.273 12.7115 1478 115.509 346.739 441.572
3333 0 118.294 12.4604 1474 116.975 347.447 439.703
3334 0 122.311 12.272 1501 118.216 347.421 435.406
3335 0 127.541 11.9961 1530 117.737 348.171 434.57
3336 0 132.356 12.3757 1638 116.662 348.123 432.666
3337 0 137.416 12.2548 1684 118.005 347.579 429.179
3338 0 141.421 13.0815 1850 118.629 347.082 423.553
3339 1 80.1309 11.3939 913 116.066 346.968 456.332
3340 0 82.1128 11.8983 977 115.287 346.536 457.844
3341 0 86.0834 11.6399 1002 117.55 346.191 455.919
3342 0 89.2132 12.7111 1134 116.131 345.982 455.707
3343 0 91.1385 11.9927 1093 119.79 346.624 454.463
3344 0 93.148 13.2155 1231 117.865 346.202 452.468
3345 0 96.1297 12.067 1160 120.702 346.034 454.364
3346 0 100.081 13.5591 1357 117.769 346.3 450.76
3347 0 103.106 13.6461 1407 118.664 346.018 448.071
3348 0 102.101 12.3799 1264 150.857 344.953 450.757
3349 0 110.088 13.8889 1529 119.012 346.222 446.958
3350 0 111.085 13.3141 1479 122.792 346.22 443.563
3351 0 113.286 12.976 1470 126.542 347.929 438.555
3352 0 117.211 13.2582 1554 125.992 347.547 437.357
3353 0 122.241 14.6105 1786 122.462 347.414 436.679
3354 0 125.37 13.4322 1684 126.803 347.311 435.59
3355 0 126.208 13.0657 1649 129.07 347.296 434.497
3356 0 130.263 13.8259 1801 127.771 347.171 431.732
3357 0 133.337 12.9671 1729 129.687 347.67 432.486
3358 0 139.242 14.4137 2007 125.499 347.05 432.254
3359 0 142.225 13.5349 1925 129.151 346.156 428.955
3360 0 147.194 13.2886 1956 130.576 346.458 425.004
3361 0 150.224 14.0124 2105 128.876 346.196 423.533
3362 0 154.179 13.854 2136 129.716 346.838 421.742
3363 0 159.32 13.3129 2121 132.682 346.737 418.825
3364 0 165.305 14.1194 2334 131.108 346.597 416.395
3365 0 169.231 14.1936 2402 129.93 346.597 415.749
3366 0 174.116 13.6576 2378 132.931 346.362 409.99
3367 0 180.218 15.2149 2742 128.727 345.745 409.821
3368 0 185.302 14.7813 2739 130.586 346.002 406.757
3369 0 190.347 14.3212 2726 131.416 345.485 408.324
3370 0 193.151 13.9528 2695 134.604 345.564 399.971
3371 0 199.187 14.1576 2820 134.851 345.476 400.602
3372 0 205.241 14.1785 2910 133.34 345.648 396.777
3373 0 213.18 14.7528 3145 130.619 345.581 394.361
3374 0 215.188 14.2944 3076 131.352 345.481 392.161
3375 0 224.237 13.9897 3137 131.406 345.666 383.399
3376 0 234.251 13.6605 3200 131.068 345.425 381.809
3377 0 241.322 13.5213 3263 131.085 345.077 379.693
3378 1 58.1684 10.4524 608 110.095 345.74 468.53
3379 0 61.1973 10.9319 669 107.634 346.133 471.17
3380 0 62.0524 11.2002 695 108.656 347.583 469.272
3381 0 63.0479 10.7696 679 110.283 347.23 465.895
3382 0 65.0352 10.01 651 112.677 347.433 465.441
3383 0 68.0377 11.9052 810 107.467 347.699 464.584
3384 0 68.0498 9.87513 672 114.052 347.512 462.933
3385 0 69.0822 9.88678 683 110.772 346.981 464.671
3386 0 73.1597 11.2494 823 107.403 347.304 464.696
3387 0 75.0802 10.2157 767 108.385 346.889 465.215
3388 0 77.0788 9.9768 769 90.7633 346.694 460.93
3389 0 76.0705 10.2405 779 111.377 345.981 459.638
3390 0 80.1035 10.9983 881 107.93 345.054 459.85
3391 1 12.0208 3.74352 45 98.8222 344.956 492.8
3392 0 15.0108 5.7292 86 96.2442 346.372 491.384
3393 0 16.003 6.3738 102 94.7549 346.471 491.99
3394 0 13.0012 6.6917 87 92.9885 347.069 493.839
3395 0 11.0008 3.0907 34 97.8824 347 494.206
3396 0 11.003 4.45331 49 96.4898 346.796 493.184
3397 0 13.0008 7.0765 92 93.3478 346.457 493.641
3398 0 13.0092 5.22707 68 98.1029 345.971 491.147
3399 1 105.268 11.2475 1184 106.34 346.16 452.481
3400 0 107.135 11.6302 1246 106.92 346.241 448.844
3401 0 111.159 11.434 1271 110.006 347.097 445.732
3402 1 69.1338 10.5158 727 108.318 348.124 465.486
3403 0 71.2563 12.5603 895 103.072 347.994 462.646
3404 0 72.2501 12.7059 918 106.395 347.15 464.385
3405 0 74.2112 12.451 924 109.456 347.788 463.264
3406 0 76.2236 11.5581 881 112.487 347.451 460.69
3407 0 77.0987 13.1909 1017 109.565 347.505 461.023
3408 0 80.3847 12.0048 965 111.461 346.909 461.755
3409 0 82.2442 12.9006 1061 110.718 347.035 459.091
3410 0 83.2059 11.7179 975 114.677 347.375 456.46
3411 0 86.2541 12.4748 1076 112.992 347.019 457.348
3412 0 88.2434 12.3635 1091 114.445 347.013 455.317
3413 0 92.1469 13.7064 1263 110.354 347.112 455.439
3414 0 92.2405 12.836 1184 114.121 347.257 452.043
3415 0 94.1458 13.734 1293 113.323 347.241 450.312
3416 0 96.2853 12.0268 1158 116.628 346.979 450.15
3417 0 100.268 13.0052 1304 113.616 346.99 450.713
3418 0 102.166 13.204 1349 114.589 346.909 446.931
3419 0 105.095 13.2452 1392 116.8 347.062 444.343
3420 0 107.278 12.4164 1332 117.622 347.131 445.05
3421 0 111.119 12.3201 1369 119.362 347.24 442.715
3422 0 115.162 13.6764 1575 115.937 347.538 440.906
3423 0 117.14 12.8393 1504 119.401 346.892 439.631
3424 0 120.165 14.2055 1707 115.414 346.491 437.626
3425 0 122.242 12.2217 1494 116.914 346.509 431.6
3426 1 67.2053 9.62722 647 107.175 347.264 457.542
3427 0 69.1799 8.16711 565 112.313 347.485 454.152
3428 0 77.1844 12.2175 943 114.191 347.124 460.64
3429 0 79.1235 12.5247 991 113.632 347.769 462.013
3430 0 78.1801 12.9317 1011 115.39 348.004 459.643
3431 0 81.1228 13.5474 1099 112.721 347.915 461.758
3432 0 84.2225 13.9037 1171 113.956 347.86 456.606
3433 0 86.1512 12.5477 1081 117.385 347.374 456.99
3434 0 88.1831 13.5514 1195 115.222 347.485 454.824
3435 0 90.2762 12.5393 1132 117.79 347.844 456.164
3436 0 95.1656 14.0597 1338 114.714 348.126 453.061
3437 0 96.2044 13.2738 1277 116.828 348.168 453.443
3438 0 98.2479 13.2725 1304 116.934 347.367 451.952
3439 0 102.241 13.742 1405 114.996 347.168 451.532
3440 0 105.346 13.5173 1424 113.763 346.456 447.717
3441 0 106.355 13.3234 1417 110.217 345.853 448.753
3442 0 110.319 12.8445 1417 110.305 345.965 445.179
3443 0 112.078 11.7508 1317 111.431 346.132 442.553
3444 0 116.409 12.2499 1426 109.25 346.412 444.042
3445 0 120.265 12.9131 1553 109.722 346.717 437.616
3446 1 70.2112 10.5254 739 104.912 346.64 467.962
3447 0 73.1336 11.8687 868 104.965 346.361 461.279
3448 0 75.1822 12.4764 938 107.015 345.053 462.056
3449 0 76.107 12.7584 971 106.23 345.08 461.136
3450 0 80.0598 13.4649 1078 101.464 344.798 460.207
3451 0 81.0984 11.9978 973 103.806 344.992 462.704
3452 0 84.0505 12.3616 1039 103.656 345.844 459.634
3453 0 86.1173 12.3901 1067 103.796 345.89 458.158
3454 0 89.0895 13.6829 1219 100.58 345.422 457.262
3455 0 92.1695 12.9327 1192 101.638 345.612 456.308
3456 0 95.1629 13.6713 1301 99.631 345.346 456.12
3457 0 98.1933 12.4754 1225 103.059 345.526 453.142
3458 0 99.1896 12.6223 1252 104.01 345.081 449.299
3459 0 105.217 13.7716 1449 100.586 345.169 452.311
3460 0 107.319 13.9025 1492 102.009 345.334 447.371
3461 0 108.306 12.9633 1404 105.642 344.709 444.462
3462 0 112.494 12.3295 1387 106.403 344.601 447.849
3463 0 116.344 12.3943 1442 107.255 344.873 443.673
3464 0 120.524 12.2548 1477 108.218 345.114 441.308
3465 0 123.354 13.3032 1641 106.406 344.949 439.622
3466 0 128.237 12.9681 1663 106.867 344.958 435.353
3467 0 132.337 14.1306 1870 104.441 344.67 433.313
3468 0 138.36 14.4622 2001 103.375 344.609 430.275
3469 0 140.353 14.7414 2069 103.246 344.822 430.019
3470 0 145.328 13.4936 1961 105.721 344.227 420.685
3471 0 151.419 13.816 2092 105.517 345.115 421.635
3472 0 153.31 13.2934 2038 106.102 345.601 421.067
3473 1 86.3716 11.9368 1031 108.613 345.527 449.956
3474 0 90.2673 13.4711 1216 104.748 345.787 450.776
3475 0 92.1009 13.3875 1233 105.629 346.182 448.074
3476 0 94.1615 12.7334 1199 107.753 346.644 448.817
3477 0 98.2344 13.6205 1338 105.911 345.655 445.876
3478 0 100.329 13.5255 1357 107.203 345.99 444.196
3479 0 103.229 13.4361 1387 108.402 345.978 444.218
3480 0 106.163 13.8842 1474 108.605 345.712 440.364
3481 0 107.279 12.9662 1391 111.48 346.139 436.848
3482 0 113.275 13.3834 1516 110.075 345.776 438.734
3483 0 118.187 13.4786 1593 110.413 345.657 436.404
3484 0 119.329 14.2631 1702 110.637 345.863 432.624
3485 0 122.341 12.3181 1507 116.89 346.003 431.601
3486 0 127.348 11.7866 1501 117.52 345.788 431.771
3487 0 132.293 13.6893 1811 113.32 345.334 430.338
3488 0 137.37 13.0815 1797 116.218 346.12 427.838
3489 0 141.336 13.0469 1844 117.197 345.569 424.704
3490 0 146.345 12.9762 1899 117.73 345.254 422.722
3491 1 86.0979 12.509 1077 112.773 345.762 455.577
3492 0 87.0379 12.5463 1092 119.787 346.537 458.717
3493 0 91.0787 13.7573 1253 117.569 347.473 457.097
3494 0 92.0628 12.9042 1188 121.772 347.05 452.342
3495 0 97.0895 13.7708 1337 117.568 347.179 456.244
3496 0 99.0229 13.815 1368 118.466 347.548 452.171
3497 0 101.061 14.3873 1454 118.769 347.106 449.053
3498 0 105.076 13.6853 1438 119.953 346.539 449.456
3499 0 108.202 13.7151 1484 119.651 346.499 450.191
3500 0 108.094 14.5892 1577 119.263 347.143 445.091
3501 0 112.114 14.0036 1570 120.285 346.769 445.099
3502 0 116.091 14.0149 1627 118.807 347.401 446.829
3503 0 120.069 15.3911 1848 115.864 346.662 442.928
3504 0 121.177 14.8874 1804 118.818 346.333 440.95
3505 0 125.155 13.6071 1703 117.816 346.496 440.427
3506 0 130.127 14.3783 1871 116.113 346.513 437.818
3507 0 134.109 15.4576 2073 114.716 346.878 435.2
3508 0 137.119 15.6943 2152 114.257 346.655 430.244
3509 0 141.156 13.4177 1894 118.669 346.609 430.527
3510 1 77.0381 12.02 926 116.107 345.36 459.503
3511 0 81.0904 12.4429 1009 113.296 345.891 459.115
3512 0 85.132 13.8491 1179 109.508 346.755 458.93
3513 0 85.2049 13.5438 1154 113.153 345.718 456.699
3514 0 90.1032 14.0284 1264 111.72 346.407 455.629
3515 0 93.156 14.202 1323 111.85 346.521 454.28
3516 0 95.1542 13.9458 1327 116.832 347.392 452.524
3517 0 97.2619 13.3865 1302 119.802 346.798 452.949
3518 0 100.151 12.6509 1267 121.698 346.283 450.815
3519 0 104.229 13.6335 1421 118.476 346.53 450.61
3520 0 107.243 13.7724 1477 119.516 347.067 447.618
3521 0 107.197 13.2933 1425 120.54 346.979 443.665
3522 0 113.275 14.2132 1610 117.26 346.784 440.853
3523 0 115.119 14.4198 1660 117.408 346.888 441.628
3524 0 119.165 14.4421 1721 116.625 346.592 440.859
3525 0 124.142 14.8298 1841 115.63 346.866 439.115
3526 0 129.342 14.4036 1863 117.084 346.231 437.609
3527 0 132.131 14.8564 1963 116.282 346.237 435.131
3528 0 135.182 13.3524 1805 120.837 346.531 427.159
3529 0 140.352 13.1527 1846 120.679 346.809 428.614
3530 0 145.243 14.5618 2115 116.975 347.144 430.283
3531 0 147.266 14.3006 2106 118.664 346.697 425.379
3532 0 151.213 13.3653 2021 120.638 346.422 423.243
3533 0 158.254 14.6094 2312 117.387 346.92 421.25
3534 0 162.185 13.5154 2192 121.37 346.741 416.802
3535 0 166.364 14.1376 2352 120.205 346.748 415.728
3536 0 173.217 15.1775 2629 117.897 346.684 414.809
3537 1 99.1782 12.3112 1221 120.103 347.275 446.026
3538 0 106.197 14.1059 1498 114.523 347.807 447.447
3539 0 110.133 14.537 1601 118.27 347.417 443.974
3540 0 112.213 14.428 1619 119.132 346.902 438.973
3541 0 116.171 13.5231 1571 119.313 346.868 439.6
3542 0 119.099 12.0908 1440 123.805 347.2 435.561
3543 0 123.164 14.022 1727 120.218 347.203 432.375
3544 0 129.243 13.1999 1706 121.501 346.85 431.188
3545 0 132.347 13.3135 1762 121.33 346.662 425.757
3546 0 136.258 13.724 1870 123.579 346.965 422.544
3547 0 141.236 13.9483 1970 122.744 346.496 423.142
3548 0 147.29 13.599 2003 123.871 346.998 417.645
3549 0 151.346 14.1001 2134 122.067 346.643 417.336
3550 0 157.306 14.85 2336 119.661 346.826 417.234
3551 0 162.226 14.3072 2321 120.958 346.889 414.559
3552 0 164.659 13.5188 2226 122.19 346.716 413.384
3553 0 170.349 13.9772 2381 122.089 346.022 409.491
3554 0 177.498 13.2621 2354 123.37 346.431 407.061
3555 0 183.623 14.3391 2633 120.831 346.824 405.329
3556 0 188.457 14.7195 2774 119.827 346.771 406.157
3557 0 193.502 14.0205 2713 122.209 346.687 399.914
3558 0 202.413 15.7302 3184 117.042 346.87 396.028
3559 0 208.67 14.5109 3028 120.535 346.778 395.352
3560 0 212.702 14.7859 3145 120.213 346.303 389.477
3561 1 58.5034 11.76 688 105.924 347.109 469.589
3562 0 58.5675 11.4056 668 107.898 346.921 467.15
3563 0 59.3769 10.846 644 106.755 346.443 463.543
3564 0 60.1284 11.542 694 102.997 347.791 469.261
3565 0 61.1594 10.7097 655 105.383 347.856 469.962
3566 0 65.1269 10.2569 668 104.636 347.713 470.687
3567 0 66.1143 12.1003 800 103.336 347.825 468.096
3568 0 69.1372 11.7303 811 103.646 346.951 465.772
3569 0 72.1391 11.8244 853 102.666 347.596 466.719
3570 0 71.2061 10.8839 775 106.534 347.827 464.597
3571 0 75.1399 13.6279 1024 105.909 348.568 462.97
3572 0 78.2639 12.1129 948 108.105 348.274 462.966
3573 0 79.1647 11.3813 901 110.94 348.077 460.972
3574 0 78.1318 10.8919 851 113.9 347.461 457.66
3575 0 83.186 11.5043 957 111.393 347.449 459.521
3576 0 84.1243 11.7802 991 113.017 348.02 456.021
3577 0 88.2499 12.8839 1137 109.697 347.849 456.952
3578 0 89.1792 12.6823 1131 111.778 347.256 453.557
3579 0 92.2076 12.3417 1138 112.865 347.518 453.154
3580 0 96.0931 12.3734 1189 112.516 347.778 452.22
3581 0 98.2919 12.5443 1233 114.569 347.165 447.38
3582 0 101.282 12.322 1248 115.562 347.858 448.578
3583 0 103.38 13.1553 1360 116.446 347.101 447.467
3584 0 106.338 13.4948 1435 115.789 347.519 443.433
3585 0 109.335 12.1278 1326 119.803 347.157 443.112
3586 0 112.307 12.5014 1404 122.443 346.781 437.753
3587 0 118.21 12.3002 1454 121.904 346.921 439.801
3588 0 121.131 13.0355 1579 119.74 346.886 438.491
3589 1 71.2224 9.08422 647 110.713 346.609 462.291
3590 0 72.055 9.38172 676 110.453 346.395 463.695
3591 0 75.0501 11.8721 891 112.281 345.811 461.997
3592 0 77.2034 11.6057 896 114.386 345.706 460.001
3593 0 79.1163 12.3615 978 114.829 346.269 456.565
3594 0 80.1822 11.1745 896 119.28 346.152 455.443
3595 0 86.1379 13.3971 1154 117.136 346.005 454.486
3596 0 89.0976 12.9521 1154 118.27 345.564 455.573
3597 0 90.215 13.6563 1232 117.583 346.45 453.779
3598 0 93.2336 13.1069 1222 119.897 346.469 452.821
3599 0 94.2366 13.5616 1278 120.623 347.055 449.452
3600 0 97.231 13.3291 1296 122.098 346.581 449.194
3601 0 99.2867 13.0632 1297 123.971 347.166 447.985
3602 0 102.313 12.1979 1248 126.4 347.502 447.595
3603 0 107.331 15.6152 1676 117.557 347.345 444.352
3604 1 60.1432 10.9572 659 118.194 349.024 469.719
3605 0 63.2135 10.9945 695 116.708 347.555 466.803
3606 0 65.1639 10.9877 716 117.212 347.587 468.659
3607 0 66.1042 12.0265 795 120.658 349.04 467.521
3608 0 67.0543 12.9746 870 120.685 348.759 465.749
3609 0 69.1336 11.268 779 125.422 349.368 467.327
3610 0 70.0713 12.4016 869 126.456 348.277 462.023
3611 0 72.0713 11.5719 834 128.094 348.153 464.294
3612 0 76.1473 12.5152 953 130.348 347.87 460.704
3613 0 78.1495 13.0263 1018 121.843 347.717 460.933
3614 0 81.126 14.0522 1140 120.778 348.054 458.666
3615 0 83.0952 13.1777 1095 123.162 348.248 458.164
3616 0 86.1671 14.2398 1227 120.986 347.869 457.567
3617 0 87.1217 13.1655 1147 124.346 347.772 455.971
3618 0 89.1164 13.3758 1192 123.873 347.775 454.918
3619 0 93.1403 14.7197 1371 120.799 348.059 452.786
3620 0 94.171 14.1232 1330 124.235 348.533 450.037
3621 0 97.155 13.3601 1298 126.126 348.349 448.43
3622 0 100.206 13.8814 1391 125.679 347.948 448.884
3623 0 103.116 14.5952 1505 123.588 348.579 447.083
3624 0 105.251 14.8313 1561 124.034 348.768 446.611
3625 0 108.184 13.8376 1497 126.039 348.148 444.493
3626 0 111.15 15.0157 1669 123.337 348.111 441.935
3627 0 115.146 13.3136 1533 126.96 348.145 443.476
3628 0 119.137 13.4383 1601 126.63 348.077 438.098
3629 0 123.183 12.9482 1595 126.225 348.118 439.097
3630 0 128.302 13.0396 1673 125.732 347.211 434.362
3631 0 133.172 14.1396 1883 122.218 347.481 433.122
3632 1 73.145 9.81611 718 116.377 348.077 456.568
3633 0 75.0695 10.5902 795 117.872 348.453 453.39
3634 0 77.0821 12.3245 950 113.665 347.729 451.058
3635 0 76.2572 10.0974 770 119.492 347.318 450.397
3636 0 83.1514 11.7256 975 114.182 347.928 449.932
3637 0 83.1514 11.7376 976 128.549 348.915 450.085
3638 0 87.0608 10.8545 945 117.735 347.081 448.269
3639 0 92.1205 11.93 1099 114.523 347.385 447.762
3640 0 93.1371 11.6495 1085 115.796 347.399 447.569
3641 0 94.191 11.3068 1065 113.335 347.671 446.791
3642 0 97.2378 12.238 1190 111.961 348.066 447.024
3643 0 97.2768 11.6883 1137 115.207 347.869 442.187
3644 0 103.181 13.3067 1373 112.439 347.476 443.592
3645 0 106.121 11.5245 1223 118.524 347.067 439.863
3646 0 104.377 11.1328 1162 121.076 347.454 435.972
3647 0 112.316 12.6429 1420 117.115 347.52 436.628
3648 0 113.199 11.6167 1315 122.076 347.679 434.54
3649 0 120.142 12.6434 1519 125.926 347.187 435.382
3650 0 124.158 11.6787 1450 128.746 347.146 435.264
3651 0 127.267 13.2635 1688 126.146 347.838 433.852
3652 0 129.191 12.0442 1556 131.223 347.359 427.665
3653 0 134.136 12.3158 1652 131.327 346.584 425.312
3654 0 139.248 13.2354 1843 127.612 347.198 423.646
3655 0 143.242 12.0635 1728 132.679 346.746 419.78
3656 0 147.265 13.5062 1989 128.799 347.317 424.688
3657 0 153.169 13.7952 2113 130.557 347.244 417.993
3658 0 157.34 13.4994 2124 132.451 346.925 416.989
3659 0 163.13 13.5352 2208 132.862 346.808 416.683
3660 0 168.172 13.1413 2210 134.719 346.543 417.118
3661 0 171.194 13.2364 2266 137.457 346.774 412.912
3662 0 176.173 14.0884 2482 136.82 346.31 410.226
3663 0 183.305 14.0476 2575 137.918 346.036 405.979
3664 0 187.261 14.2689 2672 138.722 346.083 404.241
3665 0 194.338 14.6704 2851 139.313 346.393 401.482
3666 0 199.253 14.3235 2854 141.36 346.072 397.294
3667 0 206.381 14.0662 2903 142.034 346.517 395.82
3668 0 215.432 14.58 3141 140.831 345.711 389.276
3669 0 223.466 14.0648 3143 140.787 345.712 387.073
3670 0 229.528 14.6213 3356 140.857 346.158 380.703
3671 0 236.549 14.2169 3363 140.745 346.322 373.465
3672 1 170.41 11.3843 1940 137.382 347.031 421.559
3673 0 177.238 12.723 2255 139.139 346.237 417.494
3674 0 183.12 12.7949 2343 137.292 346.572 411.251
3675 0 190.178 13.0667 2485 136.612 346.23 405.544
3676 0 195.204 13.1964 2576 138.054 345.597 403.529
3677 0 202.307 12.5107 2531 140.944 345.475 399.166
3678 0 202.28 12.5321 2535 146.431 346.468 399.346
3679 1 211.246 12.928 2731 143.762 344.742 391.777
3680 0 220.343 14.069 3100 142.022 345.062 391.866
3681 0 227.189 13.8563 3148 144.025 344.805 388.797
3682 0 232.289 13.1044 3044 147.426 344.843 383.565
3683 0 238.302 13.613 3244 145.682 344.646 383.852
3684 0 244.406 12.5733 3073 150.719 345.051 377.718
3685 0 252.394 13.7206 3463 148.209 345.004 372.76
3686 0 260.292 13.3388 3472 149.677 345.399 370.985
3687 0 271.304 14.4893 3931 145.828 345.459 365.167
3688 0 279.376 14.1959 3966 147.294 345.893 357.445
3689 0 287.266 12.8487 3691 150.761 344.97 353.079
3690 1 266.284 6.04243 1609 141.765 345.999 426.568
3691 0 265.427 5.4403 1444 144.243 345.873 419.362
3692 0 267.256 6.30857 1686 137.842 345.647 425.004
3693 0 265.32 10.1199 2685 142.401 344.984 385.717
3694 0 266.546 13.8851 3701 136.731 345.605 371.999
3695 0 275.278 13.7316 3780 136.73 345.349 365.089
3696 0 282.585 12.7962 3616 141.553 345.095 360.386
3697 0 292.52 13.3906 3917 141.01 345.227 353.262
3698 1 313.367 22.4242 7027 113.054 344.888 325.571
3699 0 313.509 16.4365 5153 133.11 344.989 333.086
3700 0 321.692 13.6808 4401 141.323 344.877 338.511
3701 0 329.629 13.5121 4454 142.517 344.262 337.38
3702 0 337.786 16.0723 5429 135.218 343.814 322.318
3703 0 347.787 17.896 6224 129.048 343.966 325.966
3704 0 355.58 16.0667 5713 135.953 344.256 311.277
3705 0 366.622 16.1283 5913 135.543 344.355 310.652
3706 0 377.687 16.008 6046 136.846 344.33 304.818
3707 0 389.887 16.9023 6590 134.499 344.653 295.533
3708 0 400.009 16.3221 6529 138.75 345.25 286.493
3709 0 415.074 16.3947 6805 137.673 344.752 286.748
3710 0 403.018 17.885 7208 132.852 344.802 264.613
