time division length width area intensity CMx CMy
0 0 38.0241 12.834 488 158.203 587.986 472.512
1 0 40.0092 12.1472 486 158.716 588.284 472.049
2 0 41.048 12.3027 505 158.657 587.97 471.846
3 0 42.0703 12.1939 513 159.308 587.99 470.795
4 0 44.0445 13.6453 601 153.253 588.088 469.789
5 0 46.041 13.0536 601 153.463 588.486 471.18
6 0 47.0548 12.9211 608 153.898 588.199 469.367
7 0 48.0478 13.4241 645 152.098 587.884 468.67
8 0 49.0962 12.8727 632 155.522 587.141 467.943
9 0 51.042 13.4203 685 151.74 586.996 467.799
10 0 52.0706 15.0949 786 146.739 586.651 466.756
11 0 55.101 14.174 781 147.069 586.803 467.163
12 0 57.0663 14.2291 812 147.041 585.952 465.914
13 0 56.0736 13.2861 745 152.648 586.324 465.83
14 0 60.0748 14.5319 873 144.463 585.832 465.956
15 0 61.071 13.8527 846 149.227 585.702 464.126
16 0 63.3106 14.0893 892 148.385 586.348 463.148
17 0 67.0587 14.0474 942 147.671 586.425 463.684
18 0 67.0916 14.6367 982 150.416 586.01 462.477
19 0 69.12 15.4225 1066 145.456 585.499 460.925
20 0 72.2017 15.3182 1106 145.748 584.584 460.17
21 0 74.2302 14.455 1073 148.855 585.326 460.704
22 0 76.3266 13.3636 1020 149.357 584.709 458.228
23 0 78.117 12.3405 964 151.229 584.796 457.759
24 1 38.1658 10.7688 411 143.732 584.762 476.384
25 0 41.1408 10.5734 435 143.333 585.462 476.034
26 0 43.0494 12.3114 530 139.66 585.376 475.362
27 0 42.1067 12.7058 535 145.432 584.856 477.355
28 0 45.0302 12.8358 578 143.412 584.798 475.696
29 0 47.0347 13.6708 643 140.439 584.283 474.798
30 0 50.0111 13.437 672 138.716 584.188 474.701
31 0 51.0232 14.3464 732 136.977 583.656 473.187
32 0 52.0408 13.3357 694 140.735 584.063 474.218
33 0 53.0235 13.8052 732 139.576 584.44 472.374
34 0 57.0949 13.8892 793 136.346 585.415 470.712
35 0 59.0602 13.41 792 137.027 585.163 470.431
36 0 60.0555 14.8696 893 133.357 584.84 470.151
37 0 62.0705 14.4352 896 135.42 584.465 467.658
38 0 63.0611 13.4314 847 139.354 584.296 466.708
39 0 66.0643 14.1529 935 136.789 583.892 466.908
40 0 69.1261 14.7701 1021 135.211 584.279 465.786
41 0 71.0963 13.5028 960 139.749 584.486 465.143
42 0 73.0453 14.5663 1064 137.984 583.968 462.926
43 0 77.115 14.1218 1089 138.431 584.022 462.302
44 0 80.1385 13.9384 1117 138.69 583.499 461.46
45 0 82.1059 13.9454 1145 139.276 583.319 458.89
46 0 85.1122 13.2531 1128 142.609 583.48 457.254
47 0 90.0634 14.6008 1315 135.198 583.491 457.776
48 1 45.0102 12.5305 564 141.092 583.727 478.594
49 0 47.0267 12.8012 602 138.575 583.063 477.643
50 0 48.0484 13.4656 647 138.128 582.583 476.906
51 0 49.0405 13.5602 665 135.305 582.577 475.857
52 0 52.0291 14.1651 737 132.583 582.906 474.943
53 0 50.0323 12.6118 631 140.578 582.924 475.263
54 0 51.0418 12.813 654 139.87 582.593 474.865
55 0 56.0622 13.4137 752 134.09 582.368 473.93
56 0 56.0291 14.2961 801 132.569 583.141 471.94
57 0 58.0232 12.1503 705 137.687 582.738 473.475
58 0 61.0852 14.5534 889 130.607 582.497 470.439
59 0 63.049 13.5926 857 133.305 582.783 471.078
60 0 62.0356 12.6701 786 135.756 582.785 470.322
61 0 69.0935 13.9955 967 128.229 582.09 469.718
62 0 69.0609 14.1469 977 130.184 581.694 467.667
63 0 72.0534 14.2394 1026 130.142 582.576 466.674
64 0 73.0929 13.2845 971 134.214 582.006 465.04
65 0 76.037 13.1909 1003 134.426 582.245 464.716
66 0 77.0689 12.4304 958 137.473 582.88 464.496
67 0 82.132 14.5254 1193 130.822 582.213 462.394
68 0 84.0811 15.045 1265 129.379 582.701 459.098
69 0 86.0946 13.1948 1136 133.28 582.469 460.965
70 0 89.0429 12.9825 1156 133.289 582.476 459.804
71 1 48.0484 12.2585 589 133.261 582.632 478.149
72 0 48.0611 11.6934 562 134.932 582.365 478.05
73 0 50.0794 12.8995 646 130.872 582.746 476.359
74 0 49.1147 12.7864 628 131.252 582.707 476.303
75 0 51.0346 12.6973 648 129.12 582.654 476.733
76 0 52.0522 12.6027 656 130.744 582.899 477.073
77 0 54.0663 13.095 708 128.463 583.246 475.08
78 0 59.1011 12.9778 767 127.033 582.618 474.995
79 0 61.033 13.4681 822 125.1 582.307 473.348
80 0 64.1557 13.3737 858 124.728 582.056 471.859
81 0 64.0825 13.1237 841 126.493 582.38 469.315
82 0 65.0955 12.9809 845 126.723 581.946 469.182
83 0 69.1294 13.9304 963 122.908 582.262 468.461
84 0 72.0935 13.8431 998 123.557 582.78 465.515
85 0 73.1042 13.3508 976 125.904 582.323 464.99
86 0 76.1313 12.8068 975 127.029 581.732 465.102
87 0 78.2081 12.8887 1008 127.709 581.467 462.799
88 0 82.0983 14.6653 1204 122.775 581.471 461.718
89 0 85.1408 12.9433 1102 127.244 581.42 460.866
90 0 87.1674 12.998 1133 127.628 581.036 457.897
91 1 41.1316 11.0377 454 125.828 581.863 480.866
92 0 43.0456 11.3136 487 119.735 582.101 481.058
93 0 44.0263 12.5152 551 118.152 580.327 478.835
94 0 46.0324 12.7736 588 120.412 581.446 481.192
95 0 44.0324 11.6732 514 122.3 582.356 480.296
96 0 45.1042 11.3737 513 122.842 581.745 481.076
97 0 48.0531 11.3832 547 122.644 582.431 479.366
98 0 50.0597 12.0456 603 120.743 582.519 478.668
99 0 52.0531 12.9867 676 118.722 582.396 477.321
100 0 53.0545 12.1385 644 120.831 581.921 476.694
101 0 55.1112 12.375 682 120.531 581.977 475.71
102 0 54.061 12.2269 661 123.183 581.893 475.764
103 0 56.0842 12.4456 698 123.272 581.408 473.893
104 0 60.1082 12.7437 766 121.57 581.812 473.696
105 0 63.1172 13.7522 868 118.863 582.402 472.097
106 0 64.1129 12.7899 820 122.146 581.543 471.289
107 0 66.0744 13.3789 884 121.221 581.727 469.361
108 0 67.0793 13.3275 894 122.603 581.352 469.702
109 0 68.0703 12.5752 856 124.527 581.563 469.888
110 0 71.1367 12.9188 919 123.547 581.447 468.177
111 0 73.1298 13.9888 1023 121.965 581.232 464.456
112 0 76.0554 11.9781 911 126.203 581.412 465.543
113 0 77.14 12.3023 949 125.849 581.506 464.482
114 0 78.1306 12.3255 963 126.206 581.569 462.205
115 0 83.0796 12.8551 1068 123.073 581.61 460.636
116 0 85.1428 13.0017 1107 122.257 581.515 458.795
117 0 88.2104 12.8443 1133 122.281 581.597 457.216
118 1 46.03 10.8842 501 122.561 582.311 478.595
119 0 45.0163 11.6402 524 121.489 582.101 477.792
120 0 45.099 11.0424 498 118.197 581.647 479.861
121 0 46.0288 11.4276 526 115.297 581.395 479.312
122 0 47.0489 11.775 554 115.536 581.57 478.374
123 0 50.112 11.2747 565 116.48 581.379 477.011
124 0 54.0809 11.8341 640 113.758 582.203 476.167
125 0 52.0336 11.3965 593 117.229 581.329 475.521
126 0 55.063 12.0407 663 115.688 581.104 474.244
127 0 57.1029 12.101 691 116.732 581.11 473
128 0 60.0663 13.1521 790 114.61 581.88 472.094
129 0 61.047 12.3348 753 117.193 581.704 472.483
130 0 65.1351 13.71 893 114.826 581.869 470.77
131 0 65.0278 12.5331 815 119.007 581.985 470.282
132 0 67.0475 13.0206 873 118.78 581.844 468.488
133 0 70.0352 12.5937 882 118.773 581.138 466.729
134 0 72.0463 12.8251 924 119.069 581.815 466.357
135 0 74.0441 13.3029 985 119.098 581.684 465.564
136 0 76.0401 12.8879 980 120.694 581.687 464.644
137 0 79.1334 13.5594 1073 119.959 581.309 462.915
138 0 80.1823 13.3072 1067 122.153 581.518 459.618
139 0 84.0487 12.4928 1050 123.747 581.499 461.094
140 0 86.0775 13.2903 1144 122.392 581.999 458.062
141 0 91.0801 13.4936 1229 120.004 581.251 457.413
142 0 95.0753 12.8214 1219 121.265 581.105 455.091
143 0 97.097 12.8016 1243 122.381 581.216 452.468
144 1 50.0532 11.5677 579 118.026 580.718 476.857
145 0 51.0573 12.3978 633 116.798 581.651 477.074
146 0 51.0573 12.4762 637 144.882 582.618 477.025
147 0 55.122 11.8102 651 124.02 581.587 474.178
148 0 57.1735 11.7537 672 123.856 582.092 473.473
149 0 60.1192 12.7913 769 119.983 581.904 473.216
150 0 61.1222 13.6775 836 117.909 582.011 472.078
151 0 62.1173 12.9916 807 119.437 581.579 471.256
152 0 65.1775 12.8265 836 118.852 581.501 469.535
153 0 67.1279 12.4985 839 119.524 581.698 467.809
154 0 69.2009 13.9883 968 116.085 582.882 466.074
155 0 71.1472 12.7904 910 118.832 581.776 465.362
156 0 72.1319 12.3385 890 119.747 582.115 462.873
157 0 76.1075 11.7203 892 112.492 581.689 464.586
158 0 79.2574 13.4372 1065 109.311 581.475 464.119
159 0 79.1962 11.4652 908 115.453 581.048 459.602
160 0 83.1183 11.8506 985 113.011 581.232 461.843
161 0 84.1336 12.0998 1018 114.744 581.086 456.64
162 0 89.1326 12.846 1145 112.738 581.249 455.521
163 0 90.1005 12.6969 1144 114.014 580.604 454.199
164 0 95.215 13.6323 1298 111.58 580.888 453.221
165 0 98.241 14.0166 1377 111.45 581.205 451.614
166 0 101.233 13.2367 1340 113.181 581.347 450.949
167 0 103.199 13.1881 1361 115.454 581.995 445.95
168 0 109.249 12.8239 1401 115.927 581.588 443.941
169 0 112.372 11.9247 1340 116.437 581.999 445.049
170 0 117.207 13.1306 1539 114.093 581.691 441.898
171 1 59.0371 11.3319 669 110.244 580.692 468.734
172 0 62.173 11.7736 732 109.404 581.205 468.612
173 0 66.0978 11.1653 738 114.462 580.591 470.313
174 0 66.1107 11.6623 771 114.249 580.764 467.888
175 0 70.0672 11.4033 799 114.09 580.956 466.548
176 0 72.1277 11.036 796 117.207 581.214 463.774
177 0 74.1006 11.7543 871 116.227 581.414 463.55
178 0 79.1248 10.9574 867 117.439 581.868 462.189
179 0 80.1745 11.5498 926 119.017 580.869 459.991
180 0 82.1795 12.3632 1016 116.764 581.106 459.785
181 0 85.1695 12.3166 1049 117.754 582.223 457.526
182 0 89.2049 12.2863 1096 117.962 581.214 455.583
183 0 91.1546 12.1442 1107 122.013 581.369 452.463
184 0 93.2319 11.9701 1116 122.97 581.335 455.028
185 0 98.1655 12.1326 1191 123.669 581.71 451.741
186 0 100.141 12.8419 1286 123.429 581.789 449.411
187 0 102.139 11.6605 1191 127.349 581.774 446.616
188 0 107.151 12.6737 1358 122.94 581.853 449.85
189 0 107.109 11.3716 1218 128.096 582.056 447.164
190 0 114.137 12.9757 1481 122.734 581.269 446.375
191 0 119.289 12.2978 1467 125.949 581.614 439.247
192 0 122.184 11.6709 1426 126.269 581.527 438.274
193 0 126.199 11.3788 1436 126.162 581.755 439.016
194 1 61.0462 11.5486 705 114.787 581.932 471.221
195 0 63.1353 12.8296 810 112.249 581.417 469.072
196 0 66.0586 12.0045 793 114.927 581.131 469.346
197 0 67.1071 12.7557 856 113.197 581.488 467.38
198 0 69.1302 11.8761 821 115.436 581.423 467.164
199 0 70.1528 11.4464 803 115.792 581.801 466.665
200 0 74.1363 11.344 841 116.145 581.295 463.743
201 0 75.1052 12.103 909 115.183 580.383 461.655
202 0 78.1756 11.359 888 115.98 580.292 461.952
203 0 80.0815 11.3884 912 115.617 580.003 460.463
204 0 83.1625 11.1108 924 116.861 580.736 457.233
205 0 88.0661 13.5466 1193 111.403 579.794 455.593
206 0 90.0567 12.2367 1102 114.968 579.761 454.731
207 0 94.1212 13.302 1252 110.78 579.597 454.874
208 0 96.1502 12.3661 1189 113.955 579.556 451.241
209 0 101.052 12.7063 1284 113.595 579.794 450.9
210 0 102.206 11.741 1200 116.162 580.175 449.392
211 0 107.074 13.3646 1431 112.204 579.883 447.542
212 0 109.189 12.2723 1340 115.278 580.255 444.628
213 0 111.124 11.8067 1312 117.399 579.647 444.316
214 0 116.179 12.6959 1475 114.612 580.07 441.037
215 0 119.192 12.5092 1491 116.415 579.906 439.618
216 0 126.231 13.9189 1757 112.813 580.638 436.679
217 0 128.231 13.3509 1712 114.939 580.158 434.878
218 0 131.199 14.0779 1847 114.7 580.123 432.361
219 0 134.31 12.2925 1651 120.409 579.403 429.629
220 0 139.182 12.9614 1804 118.634 579.968 429.259
221 0 144.309 13.4503 1941 119.393 580.39 426.621
222 0 149.34 13.3387 1992 119.132 579.526 421.844
223 0 154.312 12.4034 1914 120.057 579.577 419.843
224 1 83.2007 10.5408 877 117.821 580.54 457.025
225 0 86.12 12.6219 1087 113.236 579.598 455.58
226 0 88.159 11.2297 990 110.453 579.986 456.348
227 0 90.0948 12.0984 1090 108.898 579.664 454.292
228 0 93.0737 12.1624 1132 107.859 579.594 454.451
229 0 97.1075 12.5016 1214 107.547 579.938 453.723
230 0 100.188 12.4466 1247 108.582 579.908 449.852
231 0 103.187 11.7747 1215 111.488 579.833 446.872
232 0 105.247 11.8578 1248 112.457 580.007 445.62
233 0 108.131 12.0039 1298 113.602 580.402 443.662
234 0 114.119 11.3828 1299 116.668 581.097 440.266
235 0 116.077 12.0437 1398 114.624 580.936 442.259
236 0 121.207 11.9217 1445 117.633 581.675 434.61
237 0 124.259 11.7577 1461 118.296 581.366 430.912
238 0 131.284 13.8173 1814 113.379 581.262 429.662
239 0 134.227 13.3505 1792 115.077 581.297 428.536
240 0 139.315 13.0352 1816 115.515 581.101 427.407
241 0 145.309 13.0824 1901 115.478 580.71 424.542
242 0 151.274 12.6591 1915 117.219 581.172 421.523
243 0 157.313 13.0377 2051 115.513 580.955 418.992
244 0 161.313 13.2041 2130 115.342 579.925 418.444
245 1 84.1128 10.9377 920 112.763 579.905 456.803
246 0 87.0663 11.6004 1010 112.272 581.639 453.762
247 0 85.1991 9.50714 810 114.358 581.342 454.047
248 0 91.1693 10.1131 922 110.817 581.934 456.675
249 0 93.171 11.6238 1083 108.919 581.828 451.741
250 0 95.2276 11.6038 1105 108.272 582.464 452.319
251 0 100.4 10.7071 1075 109.952 581.602 447.536
252 0 105.23 11.6412 1225 104.822 580.921 443.937
253 0 109.171 9.26984 1012 109.124 580.948 446.444
254 1 50.0653 10.726 537 100.566 582.412 473.006
255 0 50.1276 10.8523 544 102.915 582.088 471.092
256 0 51.0367 9.13068 466 99.5494 580.403 472.64
257 0 51.0336 9.40558 480 101.606 581.852 472.125
258 0 53.07 8.83738 469 102.742 582.266 471.93
259 0 54.0332 8.64283 467 102.193 582.201 475.597
260 0 56.0344 10.5292 590 101.063 581.797 472.32
261 0 57.0266 9.71477 554 103.406 581.439 471.691
262 0 61.0793 10.5764 646 100.672 581.498 472.381
263 0 63.0379 11.0886 699 101.499 581.481 467.848
264 0 65.0294 10.8105 703 101.169 581.087 469.11
265 0 68.0563 11.4317 778 100.414 581.085 468.148
266 0 68.0722 10.4742 713 103.156 581.363 467.962
267 0 70.0961 10.6996 750 103.811 581.523 465.548
268 0 73.1024 11.2719 824 102.876 581.853 463.737
269 0 75.0333 11.7681 883 102.571 581.236 461.889
270 0 78.1117 12.6742 990 101.383 581.039 461.918
271 0 82.0598 11.2235 921 104.231 581.092 461.572
272 0 84.1146 11.4249 961 104.661 580.793 457.556
273 0 87.052 11.9354 1039 103.91 580.184 455.597
274 0 90.1066 11.8637 1069 104.763 580.395 453.624
275 0 94.1064 12.0608 1135 103.583 580.753 455.329
276 1 52.0091 9.59448 499 103.273 580.425 474.876
277 0 56.0392 10.5462 591 103.069 580.45 474.401
278 0 57.062 11.5839 661 102.319 581.61 472.129
279 0 57.0498 10.4295 595 109.8 582.225 471.704
280 0 58.031 11.9247 692 106.513 581.496 471.53
281 0 61.0667 11.5448 705 107.261 582.545 468.519
282 0 62.0862 10.0989 627 110.429 581.855 468.466
283 0 66.0712 12.32 814 104.431 582.361 467.76
284 0 67.0936 12.2366 821 104.879 582.593 466.456
285 0 71.1916 12.4172 884 103.137 581.209 465.165
286 0 69.0746 11.4514 791 106.87 581.68 465.602
287 0 72.1064 11.6494 840 106.176 581.013 464.456
288 0 74.0919 12.0796 895 105.285 581.69 463.162
289 0 76.1244 11.2842 859 107.165 581.846 460.943
290 0 77.1259 10.3467 798 108.862 581.452 461.2
291 0 82.0897 12.4132 1019 104.855 581.542 456.762
292 0 85.2489 11.2729 961 106.52 581.103 457.038
293 0 87.2816 12.0415 1051 104.965 581.129 456.465
294 0 91.3686 10.682 976 107.602 580.863 454.917
295 0 94.3495 11.7224 1106 105.337 580.729 452.427
296 0 95.1622 11.0443 1051 104.818 581.792 445.101
297 0 101.136 11.9938 1213 100.312 581.231 446.562
298 0 102.202 11.81 1207 70.6794 581.133 453.07
299 1 56.105 9.07227 509 95.835 581.079 467.075
300 0 58.2406 9.34057 544 95.2757 581.36 465.314
301 0 61.0669 9.13753 558 95.8423 581.194 463.823
302 0 60.0935 11.6319 699 92.422 581.087 462.165
303 0 63.068 10.6235 670 94.5224 580.627 460.069
304 0 65.0909 9.92458 646 96.1563 580.872 461.389
305 0 68.086 9.82581 669 95.87 580.815 461.581
306 0 68.1199 9.0282 615 99.0049 581.55 460.982
307 0 70.0345 10.5377 738 96.649 580.962 460.362
308 0 73.0363 10.7755 787 97.1423 580.929 457.536
309 0 74.0529 10.506 778 98.1697 581.324 457.855
310 0 78.2162 10.9952 860 97.2244 580.337 455.771
311 0 81.1441 10.6231 862 99.0394 580.809 452.193
312 0 82.0694 11.6243 954 98.0178 580.574 450.904
313 0 86.1385 10.6108 914 99.6893 580.444 452.009
314 0 89.1561 10.1283 903 102.14 579.997 450.374
315 0 93.076 10.8084 1006 101.581 579.99 451.545
316 0 96.1526 11.7418 1129 100.168 578.963 450.779
317 0 99.1204 11.1783 1108 102.101 579.727 446.607
318 0 104.093 11.5762 1205 101.507 579.644 446.046
319 1 54.0563 9.80459 530 108.653 578.443 471.575
320 0 56.1136 10.853 609 105.722 578.456 470.182
321 0 56.1064 10.4266 585 105.918 579.393 469.848
322 0 61.0327 11.0433 674 108.329 579.031 469.126
323 0 62.1806 11.4023 709 106.618 578.526 469.188
324 0 64.1156 12.2435 785 105.771 578.262 467.006
325 0 65.1217 11.1944 729 108.154 578.562 465.936
326 0 69.0663 12.336 852 105.459 579.012 465.795
327 0 69.0901 11.5212 796 105.755 579.141 468.376
328 0 72.0544 12.1575 876 106.04 578.904 464.563
329 0 75.1098 11.9825 900 105.578 579.709 464.297
330 0 77.0351 13.3186 1026 102.987 579.126 462.315
331 0 79.0779 12.1273 959 105.83 579.659 462.016
332 0 81.1069 14.6227 1186 100.194 579.517 457.837
333 0 84.2388 13.5923 1145 101.468 579.68 458.038
334 0 86.1391 14.0586 1211 101.742 579.94 456.194
335 0 89.1186 13.3754 1192 103.038 579.917 455.039
336 0 90.2642 11.8541 1070 105.974 580.155 455.312
337 0 92.1902 12.8539 1185 103.163 580.522 456.271
338 0 93.1656 11.281 1051 104.956 580.539 453.95
339 0 98.3617 12.7794 1257 101.965 580.558 452.564
340 0 100.243 12.0707 1210 104.32 580.166 450.818
341 0 103.27 13.3921 1383 102.069 580.026 449.262
342 0 105.169 12.7509 1341 103.998 580.517 448.386
343 0 109.3 12.1866 1332 104.167 581.074 446.795
344 0 113.287 13.1701 1492 102.142 580.866 447.15
345 1 62.2835 10.3719 646 104.546 581.881 467.437
346 0 59.0203 9.42049 556 101.273 580.809 464.322
347 0 62.0766 11.8563 736 92.4742 580.853 461.662
348 0 63.0499 10.7692 679 93.5847 581.136 459.598
349 0 64.0708 8.67789 556 96.6367 581.667 463.381
350 0 68.1761 9.9155 676 96.645 581.703 458.729
351 0 71.0446 11.7532 835 93.3844 581.016 459.998
352 0 71.0605 10.9625 779 96.8087 580.637 455.359
353 0 74.112 11.766 872 95.9839 581.185 454.97
354 0 75.14 10.6202 798 99.5877 580.866 455.167
355 0 79.0836 10.8493 858 99.3578 581.256 454.866
356 0 79.1033 10.3788 821 102.161 580.244 452.711
357 0 82.0909 10.1229 831 103.278 580.56 452.581
358 0 86.1977 10.9052 940 102.21 581.988 451.879
359 0 90.319 10.7508 971 102.03 582.151 447.453
360 0 96.1539 12.1992 1173 99.0631 581.708 448.748
361 0 97.1185 11.6044 1127 101.656 581.924 446.055
362 0 102.213 11.6423 1190 100.741 581.658 445.286
363 0 103.143 11.9349 1231 100.864 581.98 442.751
364 1 51.0789 9.69089 495 107.139 582.042 463.624
365 0 58.1128 10.5657 614 100.191 581.191 465.238
366 0 62.0747 11.9211 740 94.7541 582.699 466.339
367 0 63.0921 12.3946 782 99.8772 582.638 470.175
368 0 67.0801 11.7471 788 100.621 582.518 467.825
369 0 69.112 12.6027 871 99.4351 582.862 464.367
370 0 70.0864 12.3276 864 101.159 582.675 466.75
371 0 74.1257 13.2882 985 99.7198 583.029 464.867
372 0 76.1223 13.1236 999 100.984 582.564 463.331
373 0 79.0995 12.7055 1005 102.036 582.679 465.181
374 0 81.1348 13.4221 1089 101.255 582.61 459.571
375 0 82.0732 13.0371 1070 103.284 582.912 458.685
376 0 87.0617 14.3462 1249 100.416 582.916 457.295
377 0 88.0811 12.761 1124 103.745 582.26 457.68
378 0 93.1229 12.1452 1131 103.707 581.688 454.072
379 0 95.1058 12.8383 1221 99.8493 582.179 451.355
380 1 48.0296 10.7226 515 100.806 581.775 477.293
381 0 50.2002 10.0996 507 103.379 583.036 473.231
382 0 50.1693 11.2619 565 102.444 582.888 471.926
383 0 53.105 10.8653 577 101.459 581.442 474.854
384 0 54.0325 10.1235 547 103.218 581.024 475.492
385 0 54.0205 11.1995 605 103.144 581.222 473.19
386 0 57.0396 10.782 615 103.008 581.114 473.898
387 0 58.049 10.629 617 103.371 581.606 473.496
388 0 60.0692 12.4523 748 101.262 581.721 470.107
389 0 62.0795 12.0652 749 101.761 580.995 468.94
390 0 64.1331 12.4585 799 101.257 581.054 469.524
391 0 63.0629 10.9732 692 106.311 581.065 466.285
392 0 66.1204 9.48269 627 109.526 581.882 466.206
393 0 69.2017 11.3581 786 105.681 582.478 465.043
394 0 72.2062 11.481 829 106.147 581.721 463.841
395 0 75.0772 11.3616 853 106.428 581.524 462.737
396 0 78.1496 12.3865 968 105.333 581.488 461.944
397 0 77.257 11.5847 895 109.579 581.908 459.939
398 0 81.0835 11.4203 926 110.283 582.321 458.195
399 0 84.1242 13.1829 1109 107.044 582.21 458.162
400 0 86.1156 11.5775 997 112.08 582.079 453.915
401 0 90.1073 11.6639 1051 112.257 582.048 454.883
402 0 92.1095 11.4212 1052 114.003 582.29 452.105
403 0 97.186 13.4279 1305 108.86 582.003 453.829
404 0 101.164 12.2079 1235 111.816 581.729 452.665
405 0 101.083 11.5845 1171 113.792 581.961 453.179
406 0 105.129 12.9555 1362 111.688 581.663 449.689
407 0 107.186 12.8189 1374 114.434 582.296 444.707
408 0 112.24 12.8474 1442 112.612 582.418 446.845
409 0 117.041 13.7046 1604 110.887 581.931 442.576
410 0 120.199 12.8205 1541 112.802 582.471 440.907
411 0 124.085 12.7654 1584 114.373 582.636 436.202
412 0 130.222 14.1451 1842 111.028 582.261 436.611
413 0 135.176 13.5527 1832 112.072 582.22 433.611
414 0 140.226 13.9204 1952 113.014 581.429 426.296
415 0 146.28 13.6246 1993 114.03 581.667 424.611
416 0 149.423 12.8428 1919 117.758 581.568 420.198
417 0 156.367 13.8201 2161 115.91 581.544 423.109
418 1 84.1566 11.3241 953 111.541 581.764 455.98
419 0 88.1963 12.2227 1078 114.029 582.314 455.017
420 0 90.0851 11.4003 1027 113.759 582.657 457.169
421 0 91.0682 11.5737 1054 111.811 581.908 453.152
422 0 95.0614 11.5609 1099 111.442 582.075 454.91
423 0 99.1246 11.5309 1143 110.808 582.795 453.536
424 0 103.16 11.9523 1233 109.457 582.05 450.946
425 0 107.163 12.4296 1332 110.344 581.763 448.179
426 0 111.197 12.5632 1397 112.57 582.327 449.664
427 1 61.0882 10.6567 651 115.567 582.51 470.112
428 0 64.0654 11.5663 741 111.907 582.196 470.928
429 0 65.1243 11.1326 725 106.822 582.45 469.17
430 0 67.0634 10.9747 736 109.287 582.394 468.762
431 0 67.1042 11.892 798 108.211 582.573 466.893
432 0 68.1437 9.89086 674 110.537 580.326 464.846
433 0 69.1179 10.0264 693 110.74 580.202 464.58
434 0 74.1573 11.7318 870 108.437 580.518 464.67
435 0 76.0573 12.0567 917 108.774 580.608 462.575
436 0 78.0554 11.8249 923 109.777 580.757 462.079
437 0 81.1094 10.9852 891 112.027 580.423 462.009
438 0 81.1379 11.2771 915 114.871 579.903 459.154
439 0 85.101 12.2325 1041 111.929 580.28 456.985
440 0 89.0876 11.4831 1023 114.248 580.677 455.412
441 0 90.0859 11.6111 1046 114.809 580.566 454.233
442 0 94.0686 11.566 1088 115.311 579.95 453.528
443 0 96.1136 11.6529 1120 116.549 580.612 451.755
444 0 100.179 13.1264 1315 112.983 580.944 450.605
445 0 103.177 12.5609 1296 117.701 580.961 444.924
446 0 110.07 11.5653 1273 118.91 580.944 448.67
447 1 59.0415 10.3825 613 112.55 580.316 469.639
448 0 61.1133 10.9796 671 107.083 580.866 468.973
449 0 62.0365 10.784 669 107.695 580.592 468.318
450 0 64.0666 10.614 680 107.356 580.656 467.951
451 0 65.1196 11.0105 717 106.824 580.958 468.347
452 0 69.0617 10.8454 749 106.493 581.38 464.697
453 0 71.2467 10.5829 754 107.008 581.491 466.412
454 0 72.0222 12.399 893 103.57 581.087 463.249
455 0 76.0819 12.2631 933 102.599 581.601 463.827
456 0 78.0421 12.9802 1013 101.468 581.194 461.663
457 0 79.0581 12.7881 1011 103.127 581.38 461.911
458 0 83.0534 12.7388 1058 103.3 581.13 459.321
459 0 84.131 12.9679 1091 103.187 581.204 458.522
460 0 89.0928 12.3467 1100 104.033 581.463 456.932
461 0 91.0713 12.8032 1166 103.102 580.96 457.015
462 0 94.12 12.7178 1197 103.537 581.152 455.363
463 0 97.1 12.4614 1210 105.147 580.959 453.013
464 0 101.05 13.2706 1341 102.682 581.764 450.817
465 1 55.123 11.048 609 101.026 581.245 476.566
466 0 56.05 11.4719 643 102.392 580.83 475.142
467 0 56.0388 11.5813 649 101.545 581.089 474.949
468 0 59.0372 10.0276 592 104.361 580.838 472.976
469 0 59.0466 11.0083 650 103.018 581.418 474.082
470 0 63.0887 12.5221 790 98.7975 581.139 471.867
471 0 63.0476 10.8807 686 102.227 581.007 472.067
472 0 66.0988 11.1651 738 102.348 581.222 469.944
473 0 68.0964 12.5117 852 100.978 581.507 467.884
474 0 70.1567 11.4743 805 103.05 581.822 466.872
475 0 72.2027 11.6755 843 103.273 581.688 466.951
476 0 74.0752 12.2038 904 103.417 581.711 464.686
477 0 78.0742 12.1295 947 103.083 581.31 464.702
478 0 80.0448 12.6304 1011 102.59 582.311 463.134
479 0 80.1073 11.522 923 104.961 582.118 465.028
480 0 84.1274 12.1364 1021 104.357 581.625 461.742
481 0 86.0962 11.2084 965 108.585 581.008 458.377
482 0 87.054 10.9587 954 109.909 581.705 458.528
483 1 50.0305 11.2931 565 108.347 580.662 477.212
484 0 49.0847 10.818 531 107.085 581.346 476.053
485 0 50.0228 11.1749 559 109.284 581.147 476.184
486 0 53.0327 11.9737 635 104.644 581.781 476.25
487 0 53.0322 10.9556 581 109.742 582.489 475.776
488 0 52.0316 11.8197 615 108.141 582.127 475.075
489 0 54.0255 11.0689 598 109.53 581.505 474.4
490 0 56.0994 10.9805 616 109.216 581.081 474.026
491 0 59.0904 11.9816 708 106.843 581.513 473.011
492 0 58.0607 11.1091 645 111.761 582.154 470.814
493 0 60.0282 11.9111 715 108.558 581.536 471.112
494 0 64.0281 12.557 804 107.907 580.98 469.46
495 0 66.0518 12.3237 814 107.829 581.001 469.004
496 0 67.0846 12.0147 806 109.581 581.779 467.086
497 0 70.1052 11.3829 798 109.508 582.406 467.793
498 0 72.0595 12.3231 888 108.408 582.164 468.017
499 0 73.0728 11.2491 822 111.481 582.134 467.493
500 0 75.0962 11.6251 873 115.355 582.548 463.394
501 0 78.0749 11.8476 925 116.377 581.888 465.094
502 0 83.1676 12.3846 1030 114.783 581.572 461.812
503 0 86.0444 12.2262 1052 113.954 582.3 461.821
504 0 86.0444 12.2262 1052 133.411 584.289 461.926
505 1 46.0092 11.4108 525 113.691 582.396 479.478
506 0 47.0663 11.112 523 114.895 583.038 478.801
507 0 49.0494 11.0093 540 114.257 582.78 478.844
508 0 51.0817 11.5501 590 113.025 582.941 478.293
509 0 53.1031 12.3345 655 110.702 583.686 476.279
510 0 52.063 11.3901 593 113.772 582.872 476.998
511 0 56.0787 11.9297 669 111.205 582.441 474.238
512 0 59.068 12.6126 745 108.477 582.999 473.813
513 0 59.0737 11.8835 702 111.105 583.028 473.175
514 0 62.1076 12.0758 750 111.643 582.999 472.196
515 0 65.0726 12.8626 837 109.318 582.679 470.241
516 0 67.062 12.5854 844 110.723 582.68 468.191
517 0 67.1443 12.1529 816 112.85 582.771 468.538
518 0 71.0776 12.2824 873 113.328 582.888 466.077
519 0 74.0747 13.0274 965 112.217 583.257 466.294
520 0 75.1086 13.3007 999 113.64 582.952 463.996
521 0 78.0433 12.4034 968 115.268 582.238 464.967
522 0 80.1925 12.2829 985 116.019 582.587 462.3
523 0 84.1327 13.241 1114 113.713 582.022 460.215
524 0 87.174 12.5955 1098 116.138 582.882 459.182
525 0 90.0956 13.3081 1199 116.766 582.063 451.144
526 1 45.1167 11.5257 520 117.823 581.787 478.021
527 0 46.1954 10.8885 503 120.163 581.324 474.113
528 0 49.2242 11.0109 542 118.258 580.991 475.101
529 0 50.181 11.3788 571 116.834 581.786 474.949
530 0 52.0624 12.485 650 113.565 581.777 475.868
531 0 53.0801 12.0196 638 114.359 582.179 477.597
532 0 53.0556 11.9874 636 116.832 581.588 474.173
533 0 56.0362 12.5455 703 116.108 581.885 474.091
534 0 57.1057 12.5031 714 116.826 582.024 474.322
535 0 60.1042 12.4118 746 116.958 581.31 474.369
536 0 62.0675 12.712 789 116.939 581.477 473.311
537 0 64.0825 12.7336 816 117.069 581.435 471.821
538 0 66.086 13.2101 873 116.479 581.754 471.179
539 0 67.0819 12.9841 871 118.67 581.241 468.483
540 0 71.045 12.6399 898 119.059 581.373 468.16
541 0 73.0815 13.9023 1016 116.903 581.19 466.389
542 0 73.2054 11.9663 876 123.091 581.191 465.732
543 0 77.0665 13.0147 1003 120.283 581.269 463.352
544 0 81.0363 13.0682 1059 119.969 581.529 462.125
545 0 81.0631 12.8295 1040 122.521 581.692 461.061
546 0 84.1222 13.1 1102 124.128 581.773 458.728
547 0 88.0734 13.432 1183 123.244 581.33 458.643
548 0 91.1772 13.0296 1188 123.823 582.018 457.938
549 0 92.1228 12.657 1166 124.845 582.067 457.414
550 0 97.2047 12.4685 1212 125.687 581.727 454.95
551 1 54.04 12.6943 686 121.818 582.051 475.442
552 0 56.0456 12.7575 715 121.873 582.643 472.362
553 0 58.1968 11.822 688 122.916 581.061 473.539
554 0 57.0956 11.8223 675 124.184 581.329 472.308
555 0 59.0744 11.494 679 124.757 581.364 470.274
556 0 63.0865 12.1896 769 120.754 581.438 469.997
557 0 67.1125 13.0825 878 117.89 581.491 467.21
558 0 65.1951 11.3812 742 121.726 581.551 468.042
559 0 69.1237 12.0653 834 118.635 581.51 466.94
560 0 69.1327 12.1361 839 118.883 581.305 462.771
561 0 75.071 12.002 901 115.822 581.555 464.554
562 0 77.1566 11.7942 910 112.586 581.492 464.158
563 0 77.1244 12.8883 994 110.095 581.478 463.49
564 0 80.1276 11.6689 935 113.226 581.784 459.17
565 0 85.1102 12.4427 1059 111.601 581.76 460.264
566 0 87.0484 12.6711 1103 112.491 582.118 455.422
567 0 91.1767 13.4354 1225 110.93 581.793 455.9
568 0 93.0618 11.7126 1090 115.517 581.441 455.012
569 0 96.1542 12.6048 1212 114.717 581.24 453.271
570 1 52.1651 10.8885 568 115.102 582.579 473.403
571 0 52.1174 10.131 528 117.112 582.669 473.104
572 0 54.1257 11.1038 601 113.388 582.552 471.008
573 0 55.0589 9.97115 549 112.519 582.046 473.107
574 0 57.0531 10.4815 598 112.212 582.823 470.547
575 0 60.0681 11.3038 679 109.728 581.976 470.661
576 0 63.0473 11.4993 725 109.263 582.112 470.577
577 0 65.0769 11.8782 773 109.323 582.501 467.74
578 0 67.1407 11.528 774 111.752 582.168 467.494
579 0 69.0593 10.9761 758 112.854 581.927 466.292
580 0 73.0787 12.4113 907 109.72 582.424 464.773
581 0 73.1425 11.9493 874 113.4 582.44 462.267
582 0 75.0976 10.5596 793 116.646 581.839 462.021
583 0 78.0847 10.9112 852 117.437 581.941 461.819
584 0 82.1155 10.4974 862 118.007 581.302 460.639
585 0 88.1108 12.2232 1077 114.09 582.254 461.482
586 0 90.1256 12.1275 1093 116.297 582.19 459.264
587 0 93.0802 12.4087 1155 115.528 581.942 460.387
588 0 96.115 11.4654 1102 118.239 582.1 459.238
589 0 100.107 11.9372 1195 119.383 582.011 454.372
590 0 103.117 12.0542 1243 119.518 582.12 454.344
591 0 108.073 12.4268 1343 118.748 582.063 450.981
592 0 111.172 12.0174 1336 120.121 582.089 448.489
593 1 59.0697 11.8673 701 114.475 582.777 474.157
594 0 61.1309 11.091 678 115.479 582.146 472.718
595 0 65.2107 12.9427 844 112.094 582.432 471.778
596 0 66.1036 13.5545 896 111.61 582.571 469.875
597 0 69.0989 12.7354 880 113.41 582.514 468.993
598 0 71.1543 12.4518 886 113.823 582.041 468.289
599 0 72.182 11.8312 854 116.404 582.167 466.434
600 0 76.173 12.6029 960 115.009 582.567 464.782
601 0 79.1474 12.8242 1015 115.5 582.835 464.387
602 0 81.1928 10.8261 879 120.192 582.342 464.714
603 0 85.1653 12.329 1050 118.05 582.198 461.696
604 0 87.1429 12.2098 1064 119.924 582.715 461.121
605 0 90.1035 12.6521 1140 120.269 582.396 458.089
606 0 93.1531 11.626 1083 123.699 582.488 456.956
607 0 97.209 12.3651 1202 125.707 582.412 455.67
608 0 98.2777 11.1826 1099 132.285 582.121 453.274
609 0 104.134 12.8296 1336 120.757 582.257 452.759
610 1 56.0597 11.3629 637 124.697 583.436 474.827
611 0 60.0314 13.0099 781 120.207 582.901 474.973
612 0 60.0525 12.3059 739 121.318 582.954 473.092
613 0 61.079 11.788 720 119.746 583.065 474.217
614 0 62.0759 12.1142 752 120.515 583.219 472.009
615 0 65.0555 12.3894 806 119.512 582.93 473.083
616 0 67.0581 12.8396 861 117.419 582.294 471.088
617 0 70.1006 14.1368 991 117.886 583.051 470.009
618 0 71.1253 12.7803 909 119.253 582.738 468.82
619 0 75.0891 13.4374 1009 117.645 583.117 467.532
620 0 75.1104 12.7812 960 118.81 583.525 465.153
621 0 77.109 12.3332 951 119.608 583.192 464.7
622 0 81.166 13.4046 1088 115.942 583.036 464.85
623 0 83.1082 13.2598 1102 116.904 582.331 464.369
624 0 87.0761 12.9427 1127 116.902 582.272 460.888
625 0 90.0622 13.7683 1240 114.698 582.19 459.131
626 0 93.1806 11.4616 1068 119.202 581.618 459.89
627 0 96.2464 13.2888 1279 113.927 581.981 457.163
628 0 100.106 12.3769 1239 116.194 581.385 454.415
629 1 50.074 10.2648 514 119.617 582.66 478.43
630 0 51.0072 10.4495 533 118.204 582.148 480.017
631 0 55.0529 12.0975 666 112.977 582.384 477.793
632 0 55.09 12.9788 715 111.161 581.87 475.172
633 0 57.0495 12.9887 741 110.735 581.15 475.645
634 0 58.0772 12.0357 699 114.223 581.698 473.697
635 0 58.0819 12.0003 697 114.976 581.547 473.225
636 0 63.0633 12.0831 762 112.029 582.23 473.89
637 0 65.0751 11.8018 768 111.451 582.603 471.569
638 0 67.0914 11.5961 778 112.697 582.847 468.312
639 0 68.0846 11.5592 787 113.254 582.113 467.005
640 0 72.092 12.7892 922 109.499 581.383 466.163
641 0 73.0725 12.4671 911 111.013 582.156 466.828
642 0 76.0659 11.9896 912 111.966 581.482 465.102
643 0 80.1864 13.0072 1043 109.416 581.81 464.411
644 0 82.1433 13.1234 1078 110.519 581.366 463.722
645 0 86.2388 12.6509 1091 111.159 581.688 464.976
646 0 89.1721 13.4796 1202 110.66 581.955 460.341
647 0 92.2095 13.632 1257 109.823 581.439 460.128
648 0 95.202 13.298 1266 111.876 581.152 458.28
649 0 99.1777 13.017 1291 114.151 581.291 457.658
650 0 102.196 13.5231 1382 114.476 581.408 454.987
651 0 106.166 12.7537 1354 114.313 581.091 454.992
652 1 57.1357 12.3566 706 113.033 582.474 478.861
653 0 58.0406 12.474 724 115.551 582.214 477.041
654 0 59.0639 13.3076 786 115.921 582.702 473.982
655 0 61.1386 13.314 814 116.838 582.786 472.824
656 0 61.1152 12.1737 744 119.837 582.988 472.613
657 0 63.0997 12.2821 775 119.827 582.374 470.057
658 0 66.1156 12.2664 811 118.218 582.471 470.603
659 0 69.0731 12.523 865 117.329 582.364 469.914
660 0 70.1114 12.6085 884 118.541 582.389 466.755
661 0 72.1809 12.0253 868 120.312 582.037 466.062
662 0 75.0398 12.2602 920 118.265 581.923 466.657
663 0 78.097 11.6138 907 116.068 582.308 467.159
664 0 81.119 13.3384 1082 109.735 582.546 465.883
665 0 82.0585 11.7477 964 113.782 582.6 465.689
666 0 86.1007 12.0905 1041 113.573 582.453 461.013
667 0 89.2532 12.9071 1152 111.93 582.36 459.676
668 0 92.1197 12.538 1155 112.139 580.457 457.218
669 0 96.1803 12.6325 1215 111.633 580.928 457.532
670 1 50.0455 11.1898 560 112.457 579.684 478.046
671 0 52.0598 12.2167 636 110.643 579.431 476.626
672 0 53.0508 12.0639 640 109.023 579.428 477.408
673 0 56.1324 13.0762 734 108.939 581.534 476.97
674 0 57.0704 13.2293 755 108.052 581.171 476.073
675 0 60.0483 11.8738 713 110.93 582.029 474.156
676 0 61.0577 11.8085 721 112.092 581.311 473.279
677 0 63.1434 12.4162 784 109.612 580.528 475.093
678 0 65.1491 12.2795 800 110.742 580.649 471.931
679 0 66.0806 11.8794 785 112.266 580.283 472.318
680 0 69.243 13.0699 905 110.51 580.09 468.544
681 0 71.1728 11.6618 830 113.345 579.83 468.824
682 0 75.2131 12.6441 951 110.27 580.464 469.455
683 0 79.1873 12.4894 989 110.836 580.108 468.165
684 0 82.1208 13.675 1123 108.146 580.954 465.248
685 0 84.2484 13.6739 1152 106.295 580.222 465.274
686 0 86.1902 12.6116 1087 109.58 580.268 463.977
687 0 90.2244 14.2312 1284 103.922 580.153 461.976
688 1 46.0903 12.6274 582 108.625 579.46 482.631
689 0 48.1269 13.9631 672 105.53 580.125 480.016
690 0 48.0887 12.4977 601 105.354 579.902 481.542
691 0 50.1024 12.4545 624 106.702 580.53 480.835
692 0 51.2153 13.1406 673 106.141 580.51 480.235
693 0 52.0777 12.3469 643 109.26 580.435 478.936
694 0 55.0313 13.247 729 106.17 580.343 479.203
695 0 55.0819 13.253 730 108.17 580.136 476.407
696 0 58.1399 13.5879 790 107.054 580.728 477.11
697 0 59.2455 12.406 735 110.599 581.167 476.328
698 0 61.0751 12.9513 791 110.509 580.927 474.626
699 0 61.1039 13.2234 808 111.661 580.855 473.926
700 0 66.1542 13.5441 896 109.926 580.771 472.416
701 0 68.2346 13.732 937 110.233 580.508 470.62
702 0 69.1655 13.7785 953 110.45 580.387 470.838
703 0 69.1574 13.1006 906 114.036 580.608 467.486
704 0 74.4607 13.9805 1041 111.118 580.474 466.907
705 0 76.4489 14.1009 1078 111.121 580.042 462.083
706 0 80.5555 13.6428 1099 111.872 580.583 459.715
707 0 81.3259 13.8701 1128 111.316 579.997 460.316
708 0 84.3009 13.4993 1138 113.406 580.023 457.521
709 0 88.5743 14.6882 1301 108.835 580.048 458.328
710 1 42.1975 11.5884 489 116.683 580.624 480.231
711 0 44.1145 12.0369 531 115.524 580.375 479.488
712 0 46.2256 13.088 605 115.332 581.139 480.083
713 0 42.0225 10.7324 451 115.271 581.146 482.996
714 0 45.0813 11.7344 529 112.412 581.888 481.115
715 0 46.0728 12.6322 582 111.893 581.832 479.113
716 0 48.0549 10.8002 519 115.36 581.123 480.006
717 0 51.0203 11.3484 579 113.24 581.751 478.803
718 0 52.144 12.4463 649 110.475 581.989 478.339
719 0 54.0729 12.7975 692 107.851 582.118 479.363
720 0 54.0886 11.4996 622 114.339 582.095 476.285
721 0 57.0468 11.4818 655 112.402 582.053 476.739
722 0 59.1211 13.0749 773 108.68 581.598 473.274
723 0 61.3423 13.5143 829 107.285 581.484 472.566
724 0 64.1158 13.9747 896 105.729 581.487 471.555
725 0 65.2121 12.3903 808 110.83 581.543 471.223
726 0 67.2179 12.5711 845 112.232 581.522 469.118
727 0 71.1383 14.1415 1006 108.532 581.314 470.167
728 0 74.1698 12.4444 923 114.229 581.104 468
729 0 77.1597 12.8953 995 117.569 581.163 465.986
730 0 80.1099 12.745 1021 115.447 581.285 465.912
731 0 82.204 11.9094 979 118.025 581.747 464.657
732 1 42.1815 10.2415 432 116.625 582.556 484.218
733 0 45.2849 11.8803 538 114.781 582.113 480.721
734 0 47.1881 12.5032 590 113.237 581.954 480.285
735 0 47.2167 11.5637 546 116.2 581.566 480.52
736 0 49.1257 13.7199 674 111.764 582.461 478.774
737 0 51.1142 11.6406 595 116.356 582.22 478.787
738 0 53.1162 13.5175 718 111.887 582.049 478.064
739 0 55.223 14.3962 795 109.408 581.957 476.211
740 0 54.1779 13.1973 715 114.578 582.431 476.884
741 0 58.087 13.6691 794 113.548 581.908 474.602
742 0 59.1331 13.495 798 115.461 581.638 473.074
743 0 62.0834 13.5463 841 114.775 581.86 473.194
744 0 63.1319 13.1312 829 118.153 581.998 472.73
745 0 65.142 13.3861 872 117.755 581.5 470.212
746 0 67.1208 13.2746 891 123.223 581.322 467.345
747 0 69.2112 12.209 845 126.692 581.266 466.071
748 0 72.1819 11.1247 803 126.301 579.966 467.676
749 0 74.097 11.7684 872 123.317 580.439 467.607
750 0 75.1599 12.6131 948 121.123 580.653 464.786
751 0 79.0973 12.4657 986 121.938 580.621 463.959
752 0 81.2219 11.9303 969 123.331 580.821 463.444
753 0 83.3328 12.0121 1001 124.432 581.136 460.372
754 0 87.223 13.0814 1141 122.141 581.381 458.64
755 0 88.2489 11.8528 1046 125.615 581.042 458.268
756 0 93.3877 13.203 1233 122.15 580.681 455.839
757 0 94.2992 12.4815 1177 125.639 580.538 453.935
758 0 98.3853 13.1117 1290 124.503 580.66 452.175
759 0 102.527 13.5672 1391 122.71 581.118 451.682
760 0 103.367 12.2283 1264 127.127 580.252 451.017
761 0 107.31 12.7481 1368 124.444 580.352 447.784
762 1 56.3609 11.3377 639 120.269 580.294 464.942
763 0 57.2215 10.6953 612 122.203 580.003 464.294
764 0 59.0965 12.7588 754 119.8 580.389 467.467
765 0 61.1148 13.4337 821 119.988 579.921 470.03
766 0 64.062 12.8625 824 121.336 580.502 470.307
767 0 63.1294 11.9912 757 124.353 579.793 469.791
768 0 66.143 13.2289 875 122.535 580.29 466.241
769 0 68.0513 11.9616 814 126.166 580.079 463.58
770 0 70.106 12.7379 893 123.12 580.654 463.498
771 0 73.0393 12.9109 943 122.951 580.382 460.192
772 0 73.063 11.757 859 127.05 580.615 459.536
773 0 76.0893 12.7613 971 124.851 580.577 458.376
774 0 80.1379 13.8636 1111 120.935 580.445 456.297
775 0 81.1343 12.1527 986 126.221 580.638 455.314
776 0 84.192 11.9964 1010 126.192 580.323 454.481
777 0 88.2548 12.7812 1128 124.328 581.035 452.222
778 0 90.1806 12.3197 1111 125.589 580.794 451.336
779 0 94.3036 11.9932 1131 126.015 580.53 444.481
780 0 93.2304 11.241 1048 127.937 580.416 441.934
781 0 101.238 13.0484 1321 121.65 580.039 441.843
782 0 103.284 14.0776 1454 119.567 579.852 439.365
783 0 104.34 12.8235 1338 123.217 580.01 437.173
784 0 112.401 13.1672 1480 121.226 580.555 436.788
785 0 115.189 12.6227 1454 121.105 580.768 433.162
786 0 120.234 12.1347 1459 120.219 580.661 430.635
787 1 63.243 10.5941 670 99.8657 580.878 466.482
788 0 68.1026 10.4695 713 102.074 580.21 467.185
789 0 70.2208 11.8768 834 103.94 581.246 469.809
790 0 72.0781 11.8899 857 104.573 581.974 467.057
791 0 75.1471 11.3111 850 104.14 581.262 466.6
792 0 78.0849 11.8717 927 102.959 581.138 464.599
793 0 81.1608 11.163 906 102.884 581.486 466.085
794 0 83.2342 12.2185 1017 101.564 581.338 462.686
795 0 85.1474 11.8383 1008 113.024 579.67 460.503
796 0 88.1438 11.0955 978 114.444 579.459 458.773
797 0 90.0787 11.3345 1021 113.798 579.479 457.818
798 0 92.2189 11.5811 1068 114.213 579.669 458.603
799 0 95.2084 10.7869 1027 118.072 580.366 454.931
800 0 97.1323 13.0029 1263 113.668 580.192 453.921
801 0 101.212 11.056 1119 118.514 580.05 451.49
802 0 105.166 12.989 1366 114.969 579.204 449.734
803 0 108.253 11.6117 1257 120.103 579.878 447.335
804 0 111.124 12.4005 1378 119.787 579.95 445.217
805 0 118.278 12.9356 1530 117.279 579.02 445.208
806 1 61.2088 10.1293 620 116.171 579.147 474.631
807 0 61.1729 11.6065 710 115.166 580.039 471.013
808 0 63.1294 11.3576 717 102.927 580.71 473.268
809 0 64.1243 10.698 686 104.598 580.45 472.3
810 0 67.0748 10.6896 717 106.477 580.59 469.803
811 0 70.0574 11.3478 795 106.776 580.277 468.098
812 0 71.1291 11.5846 824 107.949 580.278 468.9
813 0 75.2897 11.9406 899 118.083 581.373 466.769
814 0 78.1523 12.3093 962 117.05 581.427 466.131
815 0 79.2429 11.0799 878 121.491 581.441 465.918
816 0 83.169 10.6169 883 123.512 581.127 464.566
817 0 82.1152 10.9237 897 125.559 581.142 460.271
818 0 87.193 10.5857 923 125.898 581.063 461.229
819 0 94.0559 9.65384 908 124.185 579.999 460.302
820 0 94.0505 9.62249 905 138.292 580.006 460.325
821 0 94.2558 9.43178 889 125.259 580.811 458.942
822 0 98.132 10.8527 1065 122.941 579.871 455.369
823 0 102.219 11.2015 1145 123.15 579.912 452.757
824 1 55.0744 11.8385 652 111.971 580.124 476.347
825 0 56.1081 10.8897 611 113.841 580.34 477.941
826 0 58.1552 12.2603 713 111.154 580.433 474.367
827 0 62.0516 11.845 735 110.829 579.2 475.573
828 0 61.058 12.6437 772 111.547 579.942 472.885
829 0 63.0886 10.6517 672 115.546 579.479 473.746
830 0 65.0475 11.2841 734 114.557 579.753 474.522
831 0 67.0149 11.9973 804 113.658 578.907 471.655
832 0 67.058 11.7361 787 116.126 579.071 468.886
833 0 72.1191 12.7012 916 113.015 579.187 468.314
834 0 72.1096 11.7321 846 116.909 579.175 468.762
835 0 73.0849 11.4114 834 119.554 578.679 467.028
836 0 77.1146 11.8006 910 116.341 579.337 467.198
837 0 79.0612 12.1425 960 117.148 579 464.696
838 0 80.0632 11.9031 953 119.396 579.207 465.404
839 0 84.0746 13.488 1134 115.471 579.355 464.014
840 0 84.1162 11.71 985 122.519 580.267 462.246
841 0 87.1987 12.4543 1086 121.582 579.828 460.142
842 0 91.227 11.9701 1092 122.977 578.767 459.808
843 0 92.23 12.4797 1151 122.501 578.555 459.593
844 0 96.1739 13.2884 1278 120.036 579.053 455.135
845 0 100.31 12.7904 1283 120.065 579.554 456.966
846 1 52.0582 12.0826 629 116.525 579.273 478.461
847 0 54.0527 12.1178 655 115.122 579.304 479.09
848 0 55.1004 12.3048 678 114.736 578.639 478.392
849 0 56.0562 12.0058 673 115.106 581.303 477.655
850 0 58.0358 12.8369 745 113.393 580.565 475.855
851 0 58.0522 12.7644 741 114.173 581.233 474.466
852 0 60.1899 12.1615 732 114.966 581.484 474.903
853 0 61.067 13.215 807 112.808 581.741 475.481
854 0 63.0946 12.3941 782 113.925 581.638 474.781
855 0 66.0851 13.2859 878 112.282 581.535 472.147
856 0 68.1053 14.4188 982 109.005 581.314 470.497
857 0 70.0934 14.0384 984 109.495 581.551 470.506
858 0 72.0898 13.8855 1001 110.746 581.452 469.335
859 0 73.111 12.4331 909 114.799 581.095 469.167
860 0 74.1126 12.2651 909 116.341 581.295 466.637
861 0 78.0713 13.1162 1024 114.639 581.031 465.499
862 0 80.1 12.6342 1012 116.04 580.764 466.628
863 0 81.1982 12.3155 1000 117.44 580.66 466.337
864 0 86.1104 12.6001 1085 123.921 579.862 465.851
865 0 88.1494 12.683 1118 124.225 579.843 463.188
866 0 89.2158 11.9486 1066 126.767 580.029 463.254
867 0 91.137 12.4428 1134 125.204 579.952 461.25
868 0 95.1633 12.3577 1176 124.468 579.224 458.083
869 0 96.1548 9.9839 960 127.828 579.373 460.379
870 1 52.0934 13.4182 699 114.335 579.999 480.515
871 0 53.0783 12.2272 649 117.801 580.291 479.009
872 0 56.1501 13.9626 784 114.661 579.767 477.171
873 0 56.1764 12.4429 699 123.01 579.918 476.634
874 0 58.1397 12.1604 707 124.054 579.728 473.062
875 0 60.1922 12.4435 749 123.61 580.582 475.469
876 0 61.1926 13.1062 802 122.677 580.711 472.823
877 0 64.2055 12.7715 820 122.97 580.457 470.36
878 0 67.1516 13.2387 889 121.682 580.357 470.808
879 0 70.2418 13.3824 940 121.65 580.205 469.226
880 0 70.2393 12.0303 845 126.609 580.494 468.677
881 0 73.305 13.1505 964 123.538 580.061 466.601
882 0 77.2486 13.0488 1008 124.008 579.678 466.536
883 0 78.1876 12.3933 969 127.099 579.808 465.254
884 0 80.18 13.6069 1091 125.194 580.233 463.613
885 0 83.1814 13.5727 1129 125.208 580.175 461.726
886 0 87.1267 13.3254 1161 125.192 580.441 461.355
887 0 88.1813 13.3135 1174 125.245 580.268 459.018
888 0 91.1672 14.1498 1290 123.654 580.34 458.625
889 1 45.1572 10.5852 478 127.502 581.276 480.596
890 0 48.1206 11.8245 569 126.844 581.188 478.127
891 0 51.1881 12.3076 630 122.246 581.835 478.54
892 0 52.0918 13.4954 703 115.673 581.425 478.026
893 0 53.0895 13.675 726 114.762 581.857 477.935
894 0 52.044 12.0475 627 120.332 581.718 476.654
895 0 54.1232 11.9912 649 119.305 580.125 477.296
896 0 55.1318 12.5518 692 118.918 579.883 475.396
897 0 58.0576 13.1593 764 116.681 580.416 475.107
898 0 60.065 13.2523 796 115.83 580.127 474.942
899 0 60.0533 13.0051 781 117.971 580.09 474.227
900 0 64.0598 13.5186 866 113.642 580.391 472.286
901 0 67.056 13.362 896 114.135 580.536 471.586
902 0 66.0621 13.3208 880 113.78 580.767 468.803
903 0 70.0503 12.0057 841 115.95 580.546 468.599
904 0 72.0602 13.572 978 112.212 580.976 467.066
905 0 73.0793 12.8491 939 114.248 579.846 465.252
906 0 78.1385 14.4487 1129 110.447 580.404 462.868
907 0 81.0904 13.1088 1063 113.296 580.556 463.5
908 0 83.0881 14.1657 1177 111.703 580.178 462.976
909 0 85.0922 14.1846 1207 112.064 580.345 462.509
910 0 88.0825 13.8506 1220 113.502 579.73 461.663
911 0 91.0604 14.2433 1297 111.391 579.941 458.359
912 0 94.1285 14.767 1390 108.462 579.994 456.509
913 1 51.092 12.6634 647 120.745 579.59 476.209
914 0 52.0331 12.1846 634 114.749 580.527 471.612
915 0 53.083 11.1335 591 112.516 580.362 474.252
916 0 55.0696 12.4751 687 109.24 580.22 474.841
917 0 59.1234 12.939 765 107.956 580.01 470.74
918 0 60.1344 11.2082 674 112.488 580.073 469.568
919 0 62.1025 12.1412 754 110.26 580.672 472.094
920 0 63.0322 11.8511 747 111.861 580.767 469.874
921 0 64.0683 11.7999 756 111.854 581.169 470.769
922 0 70.1199 13.0206 913 108.097 580.635 469.788
923 0 71.0437 12.4712 886 110.694 580.035 467.321
924 0 74.0649 12.6511 937 111.681 580.406 464.677
925 0 76.1156 12.3365 939 111.831 580.371 465.326
926 0 78.0534 11.364 887 113.472 580.414 460.971
927 0 81.1453 12.4591 1011 112.65 579.711 457.714
928 0 87.1141 14.0161 1221 108.143 579.865 458.582
929 0 88.1919 12.8583 1134 112.888 580.335 458.295
930 0 90.1581 12.6223 1138 114.28 580.548 457.312
931 0 93.2502 13.4477 1254 114.254 580.073 458.751
932 1 50.0753 12.8007 641 117.022 581.181 478.443
933 0 54.1018 12.994 703 117.256 581.233 477.471
934 0 54.0828 12.7582 690 119.922 580.606 474.497
935 0 55.1412 12.9486 714 119.175 580.583 472.583
936 0 58.0435 13.6105 790 116.91 581.262 475.071
937 0 59.0928 13.4196 793 117.923 581.13 472.381
938 0 63.1485 13.9513 881 115.199 581.379 471.287
939 0 64.0543 13.4417 861 116.33 580.996 469.924
940 0 67.1284 13.7349 922 116.27 581.395 469.592
941 0 71.0468 14.1738 1007 114.933 581.017 467.938
942 0 73.1415 14.0549 1028 115.339 581.018 468.117
943 0 74.0615 13.4078 993 119.49 580.013 462.883
944 0 78.1221 13.9653 1091 118.808 579.972 460.078
945 0 79.1907 15.3175 1213 116.126 579.871 460.104
946 0 82.0786 12.6951 1042 123.157 580.052 461.821
947 0 86.1755 14.7374 1270 117.162 579.964 460.5
948 0 89.1539 14.6152 1303 117.985 580.172 457.89
949 0 92.1053 14.1903 1307 120.305 579.911 455.233
950 0 95.073 14.5362 1382 121.097 579.991 454.2
951 0 96.0931 13.4349 1291 125.726 580.204 450.991
952 0 101.073 14.999 1516 121.156 580.415 449.688
953 0 104.118 13.9361 1451 123.489 580.21 449.589
954 0 110.108 14.5312 1600 117.684 580.012 445.981
955 0 114.12 13.6961 1563 119.617 579.894 444.374
956 1 61.0741 12.2638 749 121.196 580.23 470.302
957 0 66.0672 13.5165 893 116.241 580.666 468.49
958 0 66.0305 11.8279 781 114.456 580.465 468.065
959 0 68.1335 11.727 799 110.556 581.379 465.618
960 0 72.0396 12.396 893 108.541 581.053 464.366
961 0 74.1268 12.2628 909 109.223 581.266 463.818
962 0 76.0506 12.6758 964 108.235 580.882 463.022
963 0 78.0724 12.3347 963 110.592 581.302 461.699
964 0 83.1216 13.1975 1097 109.794 581.142 460.82
965 0 85.0726 13.4238 1142 110.447 580.889 460.883
966 0 89.1602 13.6945 1221 109.042 580.794 456.712
967 0 91.2186 12.7934 1167 111.699 580.347 457.365
968 0 95.1 12.9653 1233 111.345 580.689 454.572
969 0 98.2539 12.3965 1218 117.787 580.973 451.96
970 0 102.237 12.9796 1327 115.982 580.411 448.763
971 1 52.1752 9.77476 510 109.788 579.441 475.657
972 0 54.1461 10.7487 582 110.656 579.352 472.296
973 0 57.1318 12.935 739 104.762 579.848 473.162
974 0 60.1266 12.5402 754 105.346 580.017 471.796
975 0 61.0951 12.6033 770 105.456 580.739 470.718
976 0 62.2204 12.4718 776 106.222 580.626 468.515
977 0 65.0548 12.4818 812 105.873 581.368 470.384
978 0 67.0926 12.0281 807 107.198 581.544 468.996
979 0 68.1047 12.5395 854 107.778 581.018 467.297
980 0 70.0724 12.6869 889 107.244 581.998 466.052
981 0 72.0988 13.4815 972 105.247 581.593 465.847
982 0 75.0708 13.2808 997 107.217 581.613 461.461
983 0 77.0949 13.3991 1033 107.683 581.117 463.389
984 0 79.09 13.2128 1045 107.795 580.477 463.731
985 0 81.0974 11.4554 929 112.32 580.499 460.329
986 0 85.2215 11.9688 1020 111.918 580.308 456.495
987 0 87.2356 12.0249 1049 113.498 580.302 455.579
988 0 91.1794 12.448 1135 114.858 580.964 453.926
989 0 93.1397 13.0127 1212 113.088 580.518 451.413
990 0 93.1475 11.047 1029 119.295 580.752 449.001
991 0 100.174 12.638 1266 115.547 580.03 448.942
992 1 52.1149 10.0355 523 111.195 580.335 472.338
993 0 55.1362 10.991 606 109.257 580.214 472.856
994 0 56.1167 12.0285 675 108.464 580.609 471.446
995 0 59.0625 11.564 683 107.571 581.474 474.026
996 0 59.0316 11.8919 702 108.714 580.962 471.832
997 0 60.2652 11.8974 717 109.424 580.785 468.338
998 0 64.0922 11.9359 765 109.627 580.898 467.716
999 0 66.163 11.8949 787 109.61 580.456 469.255
1000 0 67.1348 11.2907 758 111.157 580.177 464.339
1001 0 70.1605 12.8135 899 108.214 580.162 464.967
1002 0 74.1671 13.3482 990 106.955 580.034 464.118
1003 0 75.1226 13.6444 1025 108.368 580.327 463.207
1004 0 76.1111 13.2175 1006 110.553 580.186 464.534
1005 0 78.1305 12.8247 1002 112.291 579.861 461.627
1006 0 81.266 13.4127 1090 111.972 579.738 459.572
1007 0 83.255 13.3806 1114 110.821 580.155 460.779
1008 0 87.2609 13.9696 1219 111.563 579.909 455.778
1009 0 88.1992 12.8573 1134 113.759 579.075 456.738
1010 0 88.1781 11.9984 1058 117.336 580.046 454.451
1011 0 93.1642 12.4726 1162 115.858 579.63 455.633
1012 0 96.1641 14.2361 1369 112.715 579.617 451.935
1013 0 98.3375 13.7689 1354 115.403 579.84 448.363
1014 0 103.162 13.6678 1410 114.756 579.73 448.901
1015 0 105.077 13.9802 1469 115.353 579.568 446.658
1016 0 110.171 14.423 1589 113.459 579.377 446.406
1017 0 112.124 12.8161 1437 118.791 579.803 442.555
1018 0 119.164 14.736 1756 114.367 579.93 440.142
1019 0 124.199 14.1305 1755 115.897 580.205 438.831
1020 1 59.0762 11.0704 654 114.232 580.298 473.225
1021 0 63.1095 11.2978 713 119.314 580.282 469.906
1022 0 66.0539 12.5504 829 116.688 579.782 466.86
1023 0 68.0324 12.4059 844 116.943 580.082 467.796
1024 0 70.0441 12.5064 876 117.565 580.032 467.559
1025 0 70.1464 13.1012 919 111.485 581.067 467.217
1026 0 73.1533 12.5627 919 114.071 580.854 465.974
1027 0 72.1226 12.8115 924 116.308 580.617 463.169
1028 0 77.0546 13.1465 1013 115.089 580.71 462.556
1029 0 79.0748 12.6842 1003 116.029 580.492 462.568
1030 0 80.0598 12.3658 990 117.779 580.903 461.086
1031 0 83.1162 12.296 1022 119.035 580.905 458.64
1032 0 84.0447 11.601 975 119.79 580.969 459.563
1033 0 86.0611 11.6777 1005 120.708 580.567 456.251
1034 0 90.0618 12.3027 1108 119.237 579.331 453.193
1035 0 92.2519 11.9998 1107 120.447 579.479 453.129
1036 0 94.2239 12.7462 1201 119.549 580.057 451.725
1037 0 98.3889 12.6335 1243 118.561 580.072 452.402
1038 0 104.16 13.4024 1396 116.011 579.835 450.701
1039 0 105.136 13.3446 1403 117.081 580.265 448.643
1040 0 111.201 12.7696 1420 116.953 579.456 446.87
1041 0 115.18 12.3111 1418 117.929 579.878 446.599
1042 0 120.201 11.8635 1426 119.402 579.959 442.688
1043 0 122.256 12.5229 1531 116.411 580.29 440.127
1044 0 125.266 11.264 1411 115.77 580.264 436.502
1045 0 132.148 13.6741 1807 112.089 580.39 432.158
1046 0 137.198 13.1708 1807 113.966 580.231 434.139
1047 0 141.329 12.899 1823 117.043 580.06 427.7
1048 0 146.375 13.3493 1954 116.896 579.318 425.594
1049 0 149.292 12.345 1843 120.754 579.818 423.198
1050 0 158.499 13.489 2138 118.374 580.002 419.179
1051 0 163.551 14.3502 2347 116.055 580.831 416.744
1052 0 169.5 13.7404 2329 117.939 580.447 410.824
1053 0 174.43 13.8279 2412 116.88 580.794 412.155
1054 0 180.273 12.5643 2265 119.977 580.498 405.949
1055 0 188.344 12.2329 2304 120.023 579.831 404.019
1056 1 106.362 10.8591 1155 114.159 580.369 445.713
1057 0 110.242 12.8898 1421 109.736 579.641 441.885
1058 0 112.188 11.766 1320 113.66 580.127 438.799
1059 0 117.178 10.3604 1214 116.465 580.179 440.961
1060 0 123.178 12.3966 1527 113.906 579.914 437.052
1061 0 127.28 11.1329 1417 116.301 580.097 433.469
1062 0 133.286 11.344 1512 115.677 580.859 433.942
1063 0 138.259 12.3175 1703 115.021 580.982 429.365
1064 0 140.343 11.9991 1684 117.665 581.415 423.243
1065 0 142.238 9.2521 1316 121.529 581.158 431.524
1066 0 151.334 11.6761 1767 117.521 580.954 425.748
1067 1 70.284 11.5247 810 117.688 581.749 464.241
1068 0 70.1052 10.6554 747 110.691 579.933 459.193
1069 0 77.0561 11.9783 923 109.971 579.482 463.806
1070 0 77.1275 11.9024 918 106.743 581.569 465.229
1071 0 78.2006 11.8669 928 108.638 581.289 462.833
1072 0 80.1315 11.3688 911 109.08 581.42 461.986
1073 0 86.1255 12.7256 1096 105.524 581.433 459.521
1074 0 87.092 11.5625 1007 109.636 580.95 458.322
1075 0 92.1663 13.2586 1222 105.427 580.741 456.088
1076 0 94.2499 11.7666 1109 106.883 581.137 450.926
1077 0 98.0595 12.1559 1192 106.518 580.068 457.189
1078 0 102.266 11.079 1133 108.102 579.941 449.704
1079 0 104.1 11.8347 1232 109.151 580.249 447.584
1080 0 111.273 12.0065 1336 109.665 580.65 445.035
1081 1 55.1035 10.7253 591 104.203 579.988 472.335
1082 0 59.0922 11.4228 675 103.575 579.781 473.264
1083 0 62.1547 11.7449 730 101.282 579.166 470.84
1084 0 61.1232 12.3194 753 101.895 580.031 469.556
1085 0 63.1729 11.6506 736 103.196 579.379 468.749
1086 0 65.0795 12.4617 811 101.795 579.927 470.074
1087 0 67.1412 12.5705 844 102.877 579.918 468.146
1088 0 67.1838 11.5355 775 106.068 579.622 466.698
1089 0 71.0952 12.0683 858 104.29 580.107 465.817
1090 0 73.1174 12.7603 933 103.652 579.726 465.49
1091 0 74.0842 12.1483 900 106.059 580.636 464.493
1092 0 77.0929 13.2567 1022 104.296 580.107 463.174
1093 0 79.0864 13.0364 1031 105.379 580.039 463.532
1094 0 82.1024 13.5684 1114 105.684 580.006 461.743
1095 0 83.0351 12.6212 1048 108.181 579.378 459.047
1096 0 82.2245 11.1524 917 112.198 579.77 461.071
1097 0 87.0886 12.9638 1129 108.477 579.812 459.843
1098 0 91.0735 12.5832 1146 110.216 580.208 457.995
1099 0 94.1004 12.7736 1202 109.794 579.629 455.688
1100 0 96.1665 12.9255 1243 110.315 579.485 452.622
1101 0 98.0656 11.4005 1118 115.023 579.293 449.676
1102 0 101.097 11.9786 1211 114.194 579.599 450.528
1103 0 104.167 12.3743 1289 113.429 579.742 450.795
1104 0 109.069 13.3402 1455 111.682 580.291 447.248
1105 1 59.0475 9.87341 583 113.911 579.774 474.125
1106 0 62.0375 11.5253 715 111.769 581.877 472.783
1107 0 64.1084 13.29 852 109.088 581.783 469.792
1108 0 67.0794 13.0293 874 106.31 581.808 469.458
1109 0 68.103 12.5545 855 108.239 581.219 467.846
1110 0 71.1308 13.5244 962 105.218 581.261 467.323
1111 0 72.1161 12.7988 923 107.586 581.581 467.561
1112 0 74.1088 12.0498 893 110.691 581.103 465.064
1113 0 78.1186 12.3402 964 109.226 580.644 463.842
1114 0 79.1323 12.4728 987 110.627 580.911 462.67
1115 0 80.1192 12.5064 1002 111.012 580.622 462.431
1116 0 83.1011 12.0937 1005 112.081 580.435 460.786
1117 0 87.1466 12.4847 1088 111.404 581.154 458.773
1119 0 89.2295 13.7286 1225 108.953 581.024 456.923
1120 0 93.1732 12.8578 1198 111.028 580.987 456.997
1121 0 97.1716 12.3596 1201 112.426 581.502 454.777
1122 0 99.2646 12.0688 1198 114.426 580.663 451.027
1123 1 47.0746 10.3878 489 115.239 581.532 477.141
1124 0 50.1959 12.3715 621 111.862 580.866 476.412
1125 0 54.0527 12.7098 687 104.946 579.952 475.672
1126 0 55.0389 11.2648 620 109.363 579.632 476.629
1127 0 56.0589 11.4166 640 110.172 579.35 475.348
1128 0 58.0893 12.6529 735 108.962 579.716 473.133
1129 0 60.0915 11.8153 710 111.045 579.455 472.032
1130 0 62.1071 12.8327 797 109.478 579.611 471.432
1131 0 62.1145 11.9296 741 113.235 579.892 470.456
1132 0 64.0837 12.6241 809 113.244 580.288 469.571
1133 0 66.0588 12.4435 822 113.428 580.47 470.818
1134 0 68.0695 12.6782 863 114.059 579.94 467.162
1135 0 71.1146 12.965 922 112.996 580.18 465.936
1136 0 74.0965 13.4959 1000 111.583 579.987 466.075
1137 0 75.0983 12.2906 923 116.35 579.848 465.392
1138 0 77.109 12.9686 1000 115.602 579.803 463.966
1139 0 80.1265 13.2915 1065 115.165 580.199 462.252
1140 0 84.0848 12.9036 1085 117.112 580.385 459.858
1141 0 84.0996 10.9632 922 123.705 580.125 461.867
1142 1 43.0637 10.8212 466 120.547 579.221 480.835
1143 0 45.0251 11.3936 513 118.271 579.813 481.244
1144 0 45.0444 11.2556 507 119.164 579.079 480.677
1145 0 47.058 11.9002 560 118.864 579.632 478.743
1146 0 47.0131 11.7627 553 127.548 579.206 477.788
1147 0 49.1301 12.4974 614 126.645 578.692 474.927
1148 0 52.0379 11.2802 587 129.136 578.008 476.005
1149 0 51.0278 12.9145 659 126.19 577.464 475.005
1150 0 53.1125 13.5185 718 123.823 577.756 474.219
1151 0 55.1072 12.8477 708 123.907 577.421 474.161
1152 0 58.0569 13.7279 797 122.059 578.242 472.7
1153 0 59.0844 13.083 773 123.626 578.186 473.959
1154 0 60.0628 14.3517 862 121.108 578.147 470.354
1155 0 62.144 13.4687 837 123.122 578.204 470.824
1156 0 62.1125 13.1375 816 126.391 577.897 469.418
1157 0 65.0818 13.5983 885 124.247 578.844 468.979
1158 0 68.0492 14.2397 969 122.165 578.645 467.355
1159 0 69.0923 13.8221 955 126.513 578.606 465.837
1160 0 73.0742 13.671 999 125.755 578.304 465.168
1161 0 73.045 12.9646 947 130.706 578.891 465.008
1162 0 77.131 14.041 1083 128.672 578.775 461.864
1163 0 79.0997 12.5538 993 133.515 578.62 461.527
1164 0 83.0944 12.8408 1067 131.522 578.918 459.012
1165 0 84.0982 10.9396 920 127.192 580.62 461.834
1166 0 86.0644 10.8523 934 128.122 581.052 460.422
1167 1 47.0231 12.0366 566 124.449 580.71 477.569
1168 0 49.0352 12.3993 608 123.592 581.197 476.123
1169 0 50.0606 11.1465 558 129.151 580.776 476.584
1170 0 53.0782 14.0171 744 119.544 581.786 475.513
1171 0 53.0209 12.1839 646 125.483 581.251 474.297
1172 0 55.0375 13.2455 729 122.058 581.69 474.001
1173 0 53.0181 11.2037 594 129.795 581.283 472.973
1174 0 58.0522 12.8849 748 123.447 581.265 471.901
1175 0 60.038 11.7092 703 124.131 581.42 471.952
1176 0 63.0313 11.6291 733 124.149 580.63 469.929
1177 0 65.0387 11.8084 768 123.201 581.085 468.431
1178 0 66.0647 11.9428 789 123.137 581.065 467.16
1179 0 68.0394 11.8167 804 123.772 581.206 467.039
1180 0 72.0308 13.1471 947 120.333 581.723 463.857
1181 0 73.061 12.0721 882 123.525 581.379 464.099
1182 0 78.0558 12.8882 1006 120.002 581.17 461.486
1183 0 79.0471 11.8157 934 123.825 580.829 462.166
1184 0 84.048 12.945 1088 120.704 581.404 459.838
1185 0 85.0796 11.8242 1006 125.547 581.527 458.877
1186 0 87.0842 12.2755 1069 124.873 580.249 458.568
1187 0 91.1135 11.6338 1060 126.023 580.047 456.64
1188 0 95.167 13.3555 1271 120.938 579.97 454.718
1189 1 50.0384 11.0315 552 121.71 580.17 475.248
1190 0 55.1107 11.6674 643 117.457 581.036 475.631
1191 0 56.1402 12.7004 713 116.677 581.187 472.818
1192 0 58.0486 11.9555 694 118.671 581.362 473.186
1193 0 60.0879 13.4803 810 116.189 581.174 471.011
1194 0 59.0714 12.0363 711 122.056 580.989 471.253
1195 0 61.0367 12.6154 770 121.173 580.79 470.023
1196 0 65.1166 12.3624 805 121.139 580.965 469.959
1197 0 66.1362 13.1395 869 119.994 580.617 468.405
1198 0 69.0919 13.4169 927 119.07 581.412 467.644
1199 0 69.1617 12.9551 896 122.348 581.305 464.254
1200 0 72.1302 13.0181 939 122.106 581.546 464.498
1201 0 73.0438 12.8827 941 117.321 581.31 467.071
1202 0 75.0725 11.016 827 121.761 581.368 466.585
1203 0 77.1173 11.9428 921 119.585 581.13 463.121
1204 0 80.0513 11.3927 912 120.536 580.879 465.534
1205 0 84.0595 12.4793 1049 118.422 580.354 461.029
1206 0 87.1161 11.743 1023 119.789 580.97 461.03
1207 0 86.1327 11.9119 1026 142.467 581.961 461.1
1208 0 91.0734 12.6382 1151 119.526 580.59 457.584
1209 1 46.023 9.14761 421 127.442 580.9 477.211
1210 0 48.0642 10.5276 506 122.105 581.188 475.731
1211 0 52.3419 11.6923 612 118.616 578.61 471.709
1212 0 53.0587 12.1375 644 116.98 577.542 473.267
1213 0 55.0341 12.2469 674 117.703 578.355 471.693
1214 0 57.0717 11.9499 682 117.119 578.545 473.711
1215 0 57.0405 12.4824 712 116.24 577.448 471.18
1216 0 61.0318 12.6655 773 115 578.022 470.388
1217 0 61.1091 12.8459 785 115.097 578.036 469.471
1218 0 64.054 12.146 778 115.697 578.037 468.521
1219 0 64.054 12.1772 780 143.226 579.03 468.622
1220 0 67.0523 12.7214 853 115.875 578.633 465.148
1221 0 69.1262 12.4555 861 116.351 578.517 465.689
1222 0 73.0626 13.7553 1005 113.521 578.162 463.887
1223 0 75.0274 12.702 953 116.099 578.328 463.934
1224 0 76.0409 12.3355 938 117.071 578.095 462.757
1225 0 79.0901 14.3254 1133 113.169 577.958 461.09
1226 0 82.1629 13.0959 1076 115.366 577.859 460.926
1227 0 85.0879 13.2099 1124 115.85 578.551 458.508
1228 0 87.041 13.0054 1132 116.947 578.238 456.455
1229 0 90.1017 13.1074 1181 117.138 577.516 454.368
1230 0 95.0942 12.9451 1231 115.504 578.153 454.305
1231 0 96.1435 12.9078 1241 115.614 577.698 451.455
1232 1 50.0792 11.0824 555 110.317 577.625 477.796
1233 0 50.0371 12.071 604 111.609 578.134 474.934
1234 0 53.1544 11.3067 601 112.977 578.283 474.526
1235 0 55.0154 11.415 628 113.634 577.857 475.202
1236 0 54.064 11.3939 616 114.641 577.177 473.403
1237 0 57.038 11.4836 655 113.171 576.884 475.153
1238 0 58.0514 12.0066 697 113.776 576.859 473.456
1239 0 60.0398 10.9927 660 118.215 577.226 470.526
1240 0 60.0594 11.7384 705 116.895 576.843 470.235
1241 0 64.0325 12.3219 789 114.531 576.748 469.992
1242 0 66.0535 11.1576 737 117.893 576.82 469.886
1243 0 68.0655 12.7818 870 116.636 577.082 465.843
1244 0 71.0408 13.3022 945 114.421 577.334 467.896
1245 0 73.0279 12.4884 912 117.638 577.646 465.689
1246 0 74.0698 12.9473 959 118.352 577.797 462.518
1247 0 79.065 12.9893 1027 116.626 577.617 462.843
1248 0 80.1289 11.4316 916 121.046 577.54 462.472
1249 0 82.1087 11.4117 937 122.324 578.14 459.403
1250 1 42.0439 9.65658 406 119.33 577.084 480.906
1251 0 44.0802 11.8194 521 114.42 576.747 480.537
1252 0 46.0668 12.4168 572 113.208 577.876 480.35
1253 0 48.1184 11.7003 563 114.632 578.17 480.256
1254 0 50.0534 12.2469 613 114.104 577.612 476.905
1255 0 51.0318 12.4824 637 113.824 578.306 476.997
1256 0 49.0312 11.3397 556 120.14 578.234 476.284
1257 0 53.1281 13.251 704 113.062 578.108 477.467
1258 0 54.0738 11.9466 646 117.698 577.808 476.943
1259 0 55.1268 11.8998 656 118.753 577.579 474.71
1260 0 57.042 11.9035 679 118.191 577.817 475.439
1261 0 57.1502 12.3884 708 119.042 578.476 474.281
1262 0 62.1305 13.1658 818 115.274 578.383 473.341
1263 0 63.1131 13.2936 839 116.682 578.298 471.155
1264 0 64.1088 12.4788 800 119.191 578.229 471.425
1265 0 67.1436 12.6148 847 120.322 578.881 470.195
1266 0 69.0487 12.7157 878 118.959 578.102 469.3
1267 0 69.0487 12.5853 869 146.082 578.083 469.31
1268 0 74.1056 13.0894 970 118.884 578.565 465.723
1269 0 78.0814 13.7421 1073 115.855 578.816 466.033
1270 0 79.0789 11.381 900 122.046 577.974 466.152
1271 0 83.2038 12.199 1015 121.473 578.183 463.48
1272 1 42.0731 10.1252 426 121.279 577.862 481.916
1273 0 44.4086 12.4976 555 114.209 579.061 480.364
1274 0 46.448 11.2814 524 118.983 579.859 476.891
1275 0 48.1531 12.1072 583 115.501 578.376 479.075
1276 0 50.0428 12.3295 617 113.53 577.358 477.519
1277 0 51.0163 11.7021 597 114.436 577.879 476.941
1278 0 52.0388 11.7989 614 114.614 577.448 475.632
1279 0 53.0204 11.2598 597 116.126 577.414 475.807
1280 0 57.0686 12.0382 687 113.643 577.741 474.364
1281 0 58.0339 12.0792 701 114.675 577.621 473.835
1282 0 58.0448 12.6971 737 114.341 578.008 471.617
1283 0 62.0588 12.6493 785 112.712 578.524 472.199
1284 0 64.0417 13.5068 865 110.622 578.6 472.645
1285 0 65.0237 13.1644 856 113.82 578.341 469.256
1286 0 64.0565 12.2392 784 118.861 578.298 468.978
1287 0 68.146 13.0749 891 117.519 579.064 468.223
1288 0 70.2904 13.4869 948 117.764 578.773 467.615
1289 0 72.218 12.7115 918 120.611 579.338 466.932
1290 0 74.2484 13.5087 1003 118.954 579.455 465.495
1291 0 75.1339 13.6556 1026 116.876 578.76 464.942
1292 0 75.2434 12.8117 964 120.531 578.694 464.539
1293 0 77.1841 12.4637 962 122.319 578.984 464.049
1294 0 80.1807 13.2825 1065 120.749 578.783 461.348
1295 0 83.3203 13.4421 1120 121.305 578.848 458.979
1296 0 85.2707 12.8415 1095 124.286 579.054 458.362
1297 0 86.2669 12.5077 1079 125.894 578.781 456.426
1298 0 91.3611 13.1566 1202 122.859 578.714 456.621
1299 0 90.2709 12.9831 1172 126.532 578.648 455.05
1300 0 95.3308 13.3325 1271 124.622 578.856 453.35
1301 0 100.363 13.2618 1331 125.344 578.876 451.911
1302 0 102.454 13.0693 1339 126.344 579.305 450.984
1303 0 103.546 13.3467 1382 126.626 579.272 445.96
1304 0 109.606 13.585 1489 126.351 579.101 444.551
1305 1 55.2685 11.417 631 130.772 579.249 474.694
1306 0 56.0543 12.6841 711 123.714 581.091 472.705
1307 0 57.0931 11.8753 678 127.388 580.322 473.696
1308 0 61.1438 14.1143 863 119.43 580.995 471.074
1309 0 63.1106 14.2607 900 118.977 581.762 470.523
1310 0 66.0845 14.315 946 117.719 581.04 469.888
1311 0 67.0837 12.7453 855 123.151 581.053 468.747
1312 0 70.1328 12.3337 865 123.58 581.053 468.371
1313 0 73.2304 13.1776 965 120.258 580.383 466.435
1314 0 75.0817 12.2533 920 123.504 580.314 465.096
1315 0 76.1987 13.1367 1001 121.416 579.831 462.243
1316 0 79.1848 13.0454 1033 122.049 580.762 462.807
1317 0 85.1366 12.8969 1098 119.468 580.52 460.73
1318 0 87.2086 13.4849 1176 118.471 580.082 459.512
1319 0 90.0721 12.6343 1138 119.705 580.48 457.96
1320 0 93.1218 13.1226 1222 118.801 579.529 455.597
1321 1 52.0232 11.7447 611 124.38 580.951 475.969
1322 0 55.0506 13.1515 724 118.787 580.731 475.43
1323 0 55.0218 12.5587 691 121.648 580.346 474.467
1324 0 57.0273 12.6781 723 121.549 580.82 473.988
1325 0 60.0104 13.1644 790 120.199 580.484 472.486
1326 0 62.0581 11.6504 723 124.257 580.4 471.054
1327 0 64.0735 13.0631 837 118.569 580.712 471.07
1328 0 66.102 12.8287 848 119.279 580.847 469.879
1329 0 68.0478 12.359 841 120.109 580.845 468.086
1330 0 68.1955 11.9656 816 121.152 580.806 466.428
1331 0 72.0647 13.1826 950 116.572 580.566 467.565
1332 0 74.0682 13.3391 988 116.769 580.39 464.773
1333 0 77.0674 13.871 1069 115.12 579.912 464.671
1334 0 78.0992 11.9976 937 119.918 580.046 461.145
1335 0 82.0998 13.447 1104 115.053 579.89 461.464
1336 0 84.1085 12.0202 1011 118.678 579.601 458.41
1337 0 86.2515 13.2635 1144 114.811 579.579 459.953
1338 0 89.3401 12.7378 1138 116.569 579.67 455.822
1339 0 91.2658 12.239 1117 117.285 579.671 452.954
1340 0 95.2824 12.4367 1185 114.865 580.048 454.99
1341 1 50.0327 10.2933 515 112.136 581.15 476.862
1342 0 52.1421 9.26315 483 109.706 581.108 473
1343 0 50.0389 9.61252 481 104.229 580.921 467.936
1344 0 54.0629 10.3398 559 113.243 580.719 473.415
1345 0 56.098 10.963 615 111.899 580.998 471.244
1346 0 55.0524 10.0813 555 104.867 580.481 472.744
1347 0 59.0463 9.50102 561 103.316 580.066 473.166
1348 0 59.0354 10.5022 620 103.227 580.919 471.806
1349 0 62.0755 11.1799 694 100.455 580.85 472.275
1350 0 64.0872 10.0488 644 103.222 581.419 467.714
1351 0 67.2128 10.3254 694 101.605 581.275 469.195
1352 0 68.1331 10.4355 711 102.297 581.114 466.319
1353 0 70.2409 10.4355 733 102.205 581.325 463.25
1354 0 75.1422 11.272 847 100.296 580.558 462.943
1355 0 76.2231 11.3351 864 104.993 577.856 463.454
1356 0 79.1048 11.5922 917 103.862 578.174 462.815
1357 0 82.1257 11.2145 921 104.928 578.072 459.684
1358 0 85.1966 9.80087 835 103.844 578.701 456.594
1359 0 87.1294 10.5016 915 102.567 578.202 455.81
1360 0 89.1102 10.5824 943 102.166 578.251 455.689
1361 0 96.1278 10.4028 1000 100.552 577.612 454.843
1362 1 49.0299 9.01491 442 101.26 577.373 477.554
1363 0 52.025 10.5526 549 97.9581 577.337 475.872
1364 0 53.0192 11.3167 600 95.365 577.213 470.523
1365 0 55.07 11.5489 636 94.8601 577.528 472.228
1366 0 57.034 11.9753 683 96.8697 577.999 473.792
1367 0 58.0758 11.0717 643 99.6532 578.191 473.118
1368 0 60.0441 11.0919 666 99.6111 577.761 473.215
1369 0 61.0726 11.7074 715 98.0629 578.228 470.074
1370 0 61.1954 12.027 736 96.2228 577.735 471.274
1371 0 66.06 12.8368 848 96.4693 578.584 467.954
1372 0 67.07 10.9438 734 96.2411 578.634 469.222
1373 0 71.1291 11.0644 787 95.1944 578.61 466.132
1374 0 73.0789 12.4249 908 93.8943 578.203 464.877
1375 0 75.1526 10.9111 820 98.939 577.999 463.259
1376 0 75.1489 10.9649 824 100.381 578.629 464.374
1377 0 81.1655 11.6182 943 97.6681 578.229 463.943
1378 0 83.1319 12.6065 1048 95.9571 578.492 462.413
1379 0 85.1696 11.4712 977 100.423 578.748 460.304
1380 0 88.1587 11.3999 1005 100.426 579.11 457.7
1381 1 45.0232 11.0388 497 103.809 578.292 480.402
1382 0 46.0678 11.5048 530 101.443 579.26 479.642
1383 0 49.0629 11.5362 566 98.97 577.664 477.443
1384 0 48.0417 9.17952 441 104.61 577.692 478.163
1385 0 52.1184 12.0495 628 97.4013 577.928 476.803
1386 0 52.0341 13.2798 691 96.3473 578.631 474.695
1387 0 55.1257 12.5713 693 97.0808 578.642 475.193
1388 0 56.0471 12.8107 718 98.1685 579.968 477.071
1389 0 59.0931 13.4364 794 95.8123 581.039 475.162
1390 0 59.0753 11.5784 684 101.405 582.367 473.058
1391 0 61.0606 13.2 806 100.426 580.888 472.268
1392 0 63.0998 12.6466 798 102.415 581.039 472.243
1393 0 65.0866 13.1824 858 102.436 580.832 470.628
1394 0 65.1056 12.3645 805 106.373 580.812 470.786
1395 0 68.1382 13.5754 925 104.347 580.235 470.429
1396 0 70.0766 13.0429 914 107.724 579.943 467.791
1397 0 73.1846 13.6094 996 106.309 580.021 467.735
1398 0 75.1963 13.3916 1007 107.417 579.364 468.017
1399 0 80.138 14.0882 1129 105.291 579.35 465.641
1400 0 81.1586 13.64 1107 107.714 579.558 464.853
1401 0 83.1839 12.7909 1064 111.275 579.734 462.992
1402 1 45.0414 12.3442 556 110.799 580.736 481.068
1403 0 45.1448 11.9394 539 114.02 578.187 479.204
1404 0 45.0646 12.3156 555 114.11 579.503 479.667
1405 0 48.0778 12.3342 593 115.391 579.513 476.798
1406 0 49.0198 10.9956 539 118.868 579.762 478.256
1407 0 51.0568 12.7701 652 114.063 579.604 478.494
1408 0 47.0524 11.8591 558 112.808 579.681 479.154
1409 0 50.0559 11.2075 561 113.795 579.946 477.998
1410 0 52.1097 11.802 615 113.395 579.907 477.441
1411 0 51.0396 10.7564 549 116.94 580.366 477.237
1412 0 54.0499 11.2859 610 116.034 579.967 476.69
1413 0 58.0394 12.3192 715 113.326 579.881 474.908
1414 0 57.0655 12.0914 690 116.765 579.855 473.501
1415 0 61.1168 12.7625 780 113.176 580.163 472.03
1416 0 64.0801 12.7653 818 113.84 580.216 470.936
1417 0 67.08 12.0304 807 116.077 580.171 470.118
1418 0 66.1442 10.9458 724 119.344 579.258 470.901
1419 0 70.0809 12.5141 877 115.933 579.428 466.875
1420 0 71.0955 12.5043 889 116.629 579.607 464.259
1421 0 76.0819 13.5249 1029 113.244 579.632 463.324
1422 0 76.061 13.2788 1010 115.753 579.417 462.211
1423 1 43.0241 10.8311 466 119.26 580.127 478.384
1424 0 45.0526 12.0304 542 116.863 580.594 477.561
1425 0 46.1003 12.4077 572 109.427 579.547 474.656
1426 0 47.0794 11.7036 551 102.503 580.247 473.563
1427 0 48.1595 12.1887 587 102.245 579.862 473.804
1428 0 49.1133 11.3411 557 105.293 579.666 471.79
1429 0 53.0493 12.3093 653 100.83 579.525 473.778
1430 0 51.1391 11.3416 580 106.024 579.424 471.845
1431 0 51.1992 11.3674 582 107.45 579.677 470.268
1432 0 55.0304 11.5572 636 107.211 579.588 469.464
1433 0 57.1362 12.0414 688 105.757 579.432 469.798
1434 0 59.1166 12.636 747 105.12 579.379 468.146
1435 0 60.0902 11.982 720 108.069 579.528 467.049
1436 0 62.0587 12.2787 762 106.864 579.845 466.747
1437 0 65.1124 11.8104 769 107.896 579.655 465.049
1438 0 67.0785 12.7015 852 105.665 579.581 465.291
1439 0 70.2814 13.1756 926 103.49 579.639 463.548
1440 0 71.1351 12.9331 920 103.938 579.324 464.674
1441 0 73.3447 12.2572 899 106.174 579.35 462.734
1442 0 75.0982 12.4903 938 106.391 579.659 460.784
1443 0 78.1894 12.6616 990 106.456 579.607 458.553
1444 0 80.2539 11.3266 909 108.688 579.968 460.133
1445 0 84.1453 12.1457 1022 106.628 579.669 458.98
1446 0 87.3837 13.3549 1167 104.734 579.339 456.021
1447 1 44.2523 12.022 532 113.611 580.03 476.6
1448 0 48.1413 13.6058 655 108.626 580.287 474.246
1449 0 50.1064 12.1342 608 106.681 580.765 476.331
1450 0 52.1858 11.9381 623 106.255 580.613 476.27
1451 0 53.0949 13.1463 698 104.973 580.132 474.977
1452 0 53.0949 13.1651 699 127.684 581.126 474.934
1453 0 55.145 12.3674 682 107.089 580.996 471.889
1454 0 56.0889 12.391 695 107.102 580.565 472.22
1455 0 59.0942 12.9454 765 105.48 580.736 470.424
1456 0 61.1422 13.2478 810 104.99 580.423 470.984
1457 0 63.3491 13.986 886 103.034 580.523 469.359
1458 0 66.1592 13.8303 915 102.951 580.393 466.01
1459 0 66.1578 12.8632 851 107.047 580.438 465.905
1460 0 69.2897 12.5993 873 107.424 580.137 465.174
1461 0 72.1665 12.7899 923 105.818 580.586 467.152
1462 0 76.2793 12.8737 982 105.788 579.926 463.876
1463 0 78.1406 12.7335 995 108.457 580.211 462.9
1464 0 80.1326 12.2173 979 110.148 580.018 461.299
1465 0 82.2339 12.7806 1051 111.265 580.398 457.81
1466 0 84.0982 12.2595 1031 113.616 580.271 455.906
1467 1 46.236 11.0087 509 112.668 579.424 474.54
1468 0 45.11 10.8402 489 114.939 579.237 476.849
1469 0 48.2374 12.7702 616 92.2354 580.073 471.427
1470 0 50.4023 12.4399 627 116.518 579.968 473.046
1471 0 49.174 12.4659 613 112.961 580.444 474.984
1472 0 55.2598 12.8484 710 110.014 579.955 474.701
1473 0 54.0694 12.1326 656 114.041 579.93 474.677
1474 0 56.1149 12.3497 693 114.16 579.716 473.417
1475 0 60.1317 11.9737 720 114.168 579.778 474.5
1476 0 62.1859 12.2697 763 115.058 580.204 472.453
1477 0 61.2316 11.2687 690 121.904 580.167 471.442
1478 0 63.2092 11.106 702 122.137 580.107 471.66
1479 0 67.2146 12.5122 841 117.515 580.067 470.095
1480 0 70.1539 12.1732 854 119.384 580.015 468.528
1481 0 70.1705 11.6858 820 122.16 578.962 463.639
1482 0 74.1474 12.5426 930 116.902 578.792 468.057
1483 0 75.1255 12.4059 932 118.246 578.678 465.203
1484 0 80.2572 13.0331 1046 116.232 578.658 464.4
1485 0 81.1661 12.5791 1021 118.652 578.9 462.101
1486 0 85.1058 13.1483 1119 117.48 578.736 459.164
1487 0 87.255 12.3317 1076 118.989 578.107 456.822
1488 0 91.3613 13.7038 1252 116.131 577.853 453.101
1489 0 94.2586 12.9219 1218 118.558 578.583 452.883
1490 0 98.2372 13.1009 1287 117.949 578.185 449.414
1491 0 103.549 13.047 1351 118.242 578.324 448.765
1492 0 104.468 12.9226 1350 122.85 577.691 444.961
1493 1 51.235 10.8715 557 122.594 578.871 471.002
1494 0 55.2682 11.7608 650 119.358 578.715 471.222
1495 0 59.3434 11.8295 702 120.758 578.218 468.624
1496 0 59.1866 10.7964 639 124.316 577.818 468.377
1497 0 64.5072 12.5722 811 119.365 578.259 469.348
1498 0 66.2162 12.3535 818 118.778 579.214 471.405
1499 0 66.0746 13.7269 907 115.648 579.868 471.469
1500 0 68.182 12.8186 874 117.7 579.537 468.93
1501 0 71.0329 13.177 936 118.005 579.02 466.239
1502 0 76.0715 12.646 962 116.549 579.375 467.405
1503 0 77.1371 13.1454 1014 109.884 579.205 463.378
1504 0 80.1411 13.2017 1058 111.049 579.201 461.939
1505 0 79.334 12.8948 1023 113.608 579.266 462.108
1506 0 81.17 13.3916 1087 112.311 578.699 463.202
1507 0 80.1294 14.0648 1127 117.26 579.35 459.797
1508 0 81.0876 12.8873 1045 121.296 579.118 460.239
1509 0 83.1867 12.8266 1067 123.215 578.713 460.121
1510 0 85.2346 12.8352 1094 122.633 578.979 457.966
1511 0 89.2749 11.7614 1050 123.918 578.408 455.395
1512 0 93.3691 13.8161 1290 117.657 578.319 453.56
1513 0 95.3343 12.4195 1184 120.094 578.145 451.473
1514 0 98.3215 12.8761 1266 118.118 578.562 451.035
1515 0 100.222 12.6619 1269 117.952 578.373 449.239
1516 0 104.317 12.8454 1340 116.582 578.136 447.856
1517 0 107.403 12.9605 1392 116.372 578.308 445.808
1518 0 110.236 12.564 1385 117.985 578.642 443.22
1519 0 114.378 12.6598 1448 118.143 578.406 441.164
1520 1 65.1748 10.7864 703 116.4 578.417 467.211
1521 0 64.1254 10.8225 694 118.174 578.581 464.024
1522 0 65.1366 12.5122 815 114.921 579.114 465.052
1523 0 68.1182 12.5958 858 114.248 578.89 461.908
1524 0 70.1961 11.8525 832 116.667 578.982 463.16
1525 0 72.1557 12.3622 892 117.167 579.45 462.463
1526 0 72.262 12.6346 913 118.32 579.265 460.34
1527 0 72.1067 11.0947 800 122.869 578.811 459.988
1528 0 75.228 12.0966 910 120.519 578.326 459.587
1529 0 79.0882 12.0119 950 119.804 578.553 457.007
1530 0 79.0659 12.0153 950 120.62 578.51 457.418
1531 0 82.0668 12.9285 1061 116.136 578.349 455.77
1532 0 85.1422 12.6377 1076 120.234 577.263 452.546
1533 0 89.1695 13.4014 1195 118.02 577.474 451.213
1534 0 90.0852 11.256 1014 123.681 578.211 448.29
1535 0 89.0984 10.9654 977 124.88 578.383 448.971
1536 1 44.1378 9.493 419 118.069 577.336 467.902
1537 0 50.0757 10.1846 510 114.416 577.655 468.214
1538 0 51.0904 11.372 581 111.055 577.749 471.845
1539 0 51.0771 9.74996 498 107.398 578.072 469.578
1540 0 55.2394 10.4816 579 106.069 577.946 472.58
1541 0 56.0724 10.3616 581 107.119 577.738 474.945
1542 0 59.0715 11.5115 680 104.015 577.735 474.901
1543 0 61.0469 10.7786 658 106.119 577.687 476.038
1544 0 63.0926 11.8397 747 104.276 576.833 474.149
1545 0 64.1218 10.7452 689 105.656 577.331 472.369
1546 0 68.0621 11.4014 776 104.537 577.599 469.691
1547 0 70.1379 10.8786 763 104.253 577.721 470.523
1548 0 73.16 11.8781 869 102.633 577.131 465.614
1549 0 76.3154 11.3214 864 103.295 576.771 464.786
1550 0 77.0711 10.2503 790 106.132 576.173 459.832
1551 0 82.1469 12.9281 1062 99.8522 576.273 459.535
1552 0 81.1396 10.6853 867 105.482 577.616 464.243
1553 0 86.1336 11.1339 959 103.975 577.544 465.193
1554 0 85.1087 11.0447 940 107.79 577.449 455.892
1555 0 91.1576 12.7252 1160 104.425 577.386 456.084
1556 0 93.3506 10.5302 983 108.758 577.243 453.133
1557 0 97.2081 11.0793 1077 108.281 577.772 453.11
1558 0 100.321 11.4632 1150 107.912 577.714 451.427
1559 0 104.318 10.7556 1122 109.091 577.548 448.792
1560 1 55.0339 9.61226 529 102.892 577.682 478.367
1561 0 58.1364 11.7998 686 98.5714 578.194 473.759
1562 0 59.1862 12.2157 723 102.17 577.788 473.414
1563 0 61.1439 10.8269 662 101.468 577.606 470.891
1564 0 63.1016 11.7905 744 99.0981 577.532 472.242
1565 0 63.1527 11.1634 705 100.272 577.792 472.112
1566 0 66.0999 11.997 793 98.9458 577.289 467.54
1567 0 70.2582 12.2548 861 97.3937 577.996 468.015
1568 0 74.2767 12.2515 910 108.27 577.586 467.349
1569 0 77.2843 12.4346 961 107.589 576.94 465.483
1570 0 77.4277 10.8488 840 112.608 576.82 462.654
1571 0 78.2366 11.5419 903 111.45 577.133 461.406
1572 0 83.5099 12.4297 1038 108.573 576.953 461.038
1573 0 84.4238 12.8163 1082 107.842 576.516 459.078
1574 0 88.3517 12.8464 1135 107.333 576.96 457.914
1575 0 92.4054 13.7221 1268 104.633 577.048 454.333
1576 0 94.5207 12.6533 1196 106.4 577.25 453.063
1577 1 50.0966 11.0986 556 102.236 576.806 474.408
1578 0 50.0593 9.20908 461 99.2885 576.627 477.855
1579 0 50.054 11.3078 566 96.2332 577.716 479.203
1580 0 54.1958 11.7537 637 95.0408 577.967 477.466
1581 0 55.1123 12.1026 667 94.5217 577.76 472.618
1582 0 54.2738 10.705 581 98.3287 578.492 472.928
1583 0 59.2187 12.057 714 94.2437 577.843 473.179
1584 0 61.1635 12.3767 757 93.8811 577.626 471.454
1585 0 61.1635 12.4421 761 122.568 576.587 471.351
1586 0 64.1512 12.2679 787 95.0686 577.691 470.469
1587 0 68.0928 13.3788 911 93.0274 577.407 469.4
1588 0 67.2028 10.9519 736 99.481 577.137 465.287
1589 0 72.2211 12.1433 877 96.9339 577.55 465.884
1590 0 75.1853 11.4916 864 98.8414 577.01 464.707
1591 0 79.1898 12.6279 1000 96.86 576.774 465.026
1592 0 82.2376 11.9775 985 99.6761 577.039 460.65
1593 1 42.048 10.0361 422 99.1351 577.289 480.069
1594 0 44.1537 9.91989 438 100.242 576.527 476.598
1595 0 47.0982 12.1236 571 95.2259 577.278 479.144
1596 0 46.0812 10.9589 505 105.531 578.477 479.45
1597 0 49.0359 11.6038 569 103.777 578.689 476.51
1598 0 49.0269 10.4025 510 107.061 579.065 476.351
1599 0 52.0693 11.7152 610 103.436 579.016 475.385
1600 0 53.0324 11.2384 596 104.25 579.528 475.195
1601 0 55.0301 11.5937 638 103.897 578.997 474.108
1602 0 59.0636 12.1225 716 102.475 579 472.952
1603 0 59.0471 14.209 839 98.5507 578.411 472.69
1604 0 61.072 12.8701 786 101.573 578.725 472.146
1605 0 59.0523 11.2612 665 106.645 578.57 470.823
1606 0 63.1073 10.7436 678 107.513 578.487 469.667
1607 0 65.0826 11.3087 736 106.444 578.77 468.622
1608 0 68.0933 12.1451 827 104.57 578.668 468.079
1609 0 70.0881 11.9992 841 104.706 578.259 465.791
1610 0 74.1258 12.6946 941 103.215 578.187 467.511
1611 0 73.0666 11.0173 805 108.537 577.852 465.514
1612 0 76.0631 11.6614 887 107.178 577.372 463.994
1613 0 78.0847 12.7042 992 105.185 577.799 462.942
1614 0 82.1139 12.8845 1058 104.182 577.974 461.285
1615 0 84.0837 11.7264 986 107.57 577.265 460.49
1616 0 84.0837 11.6669 981 144.695 576.258 460.48
1617 0 90.0446 13.882 1250 102.962 577.661 456.544
1618 0 90.1277 11.4171 1029 109.375 577.434 454.852
1619 1 49.0456 10.6636 523 104.694 577.981 479.38
1620 0 52.0151 11.5543 601 102.649 578.709 477.87
1621 0 52.0358 12.4337 647 102.722 578.519 475.036
1622 0 53.0492 12.0077 637 104.245 578.155 475.438
1623 0 56.0357 12.6348 708 102.355 578.401 474.345
1624 0 59.0177 12.8606 759 101.356 578.094 474.169
1625 0 58.0617 12.5212 727 104.796 577.575 471.554
1626 0 61.0315 13.6487 833 102.976 578.196 470.874
1627 0 61.0328 13.6648 834 128.49 578.204 470.847
1628 0 66.0348 11.8725 784 106.599 577.995 470.07
1629 0 67.1124 13.1421 882 105.368 578.02 468.006
1630 0 67.0811 12.3135 826 108.231 577.585 465.791
1631 0 70.0591 11.5759 811 110.74 577.641 465.587
1632 0 72.0825 11.0568 797 111.987 577.268 465.413
1633 0 74.0854 11.5542 856 111.89 577.849 464.364
1634 0 76.0964 13.0887 996 110.205 578.053 461.363
1635 0 80.1379 13.2896 1065 109.469 578.4 459.435
1636 0 82.042 12.6277 1036 111.734 578.289 458.703
1637 0 85.0575 12.9207 1099 112.04 578.415 457.193
1638 0 88.1127 13.0742 1152 111.51 577.844 457.679
1639 0 92.0914 13.0088 1198 111.957 577.294 455.332
1640 0 94.1088 13.325 1254 112.734 577.742 454.076
1641 0 99.1222 13.0142 1290 112.822 577.245 452.616
1642 1 51.0767 10.9443 559 115.397 578.646 473.42
1643 0 53.0175 11.3359 601 113.952 578.514 471.621
1644 0 55.1562 11.2952 623 114.014 576.596 472.66
1645 0 55.0419 11.6275 640 113.784 575.633 471.669
1646 0 58.0966 12.6513 735 111.068 575.928 470.687
1647 0 61.1834 13.337 816 109.562 576.185 470.946
1648 0 61.1502 14.0147 857 104.978 576.12 469.874
1649 0 64.1067 12.3388 791 113.866 576.19 467.305
1650 0 67.1449 12.8528 863 112.998 576.175 465.156
1651 0 69.1287 12.6576 875 114.193 575.333 463.171
1652 0 72.2078 13.6135 983 113.749 576.328 464.61
1653 0 75.1269 12.9248 971 115.282 576.328 465.749
1654 0 79.2306 13.4292 1064 114.15 576.474 464.233
1655 0 79.1784 12.6045 998 118.111 576.808 464.206
1656 0 82.1964 13.4069 1102 116.23 576.967 462.78
1657 0 86.1624 13.9852 1205 115.447 576.362 458.821
1658 0 88.1992 13.2654 1170 118.069 575.756 458.746
1659 0 91.1997 15.0329 1371 113.751 575.709 457.702
1660 0 92.2156 14.7914 1364 115.985 575.873 456.87
1661 0 96.0996 14.6203 1405 117.154 576.333 453.612
1662 0 100.188 13.854 1388 118.615 576.429 452.91
1663 1 53.065 11.7026 621 121.451 576.248 476.121
1664 0 54.0661 12.4292 672 119.179 576.812 474.494
1665 0 56.1 12.8342 720 118.096 576.765 472.226
1666 0 57.1337 12.462 712 118.829 577.239 472.864
1667 0 58.123 12.2671 713 121.151 577.575 472.292
1668 0 62.0747 12.9521 804 117.805 577.383 471.118
1669 0 64.1239 13.9106 892 116.684 577.167 469.21
1670 0 66.0951 13.3898 885 119.034 577.464 468.436
1671 0 69.0931 14.1982 981 116.212 577.012 468.2
1672 0 71.0556 14.0453 998 116.163 576.457 467.612
1673 0 74.1077 14.2765 1058 117.112 576.768 466.626
1674 0 74.3276 13.8307 1028 119.86 577.602 463.6
1675 0 77.2046 13.7427 1061 119.084 578.14 463.556
1676 0 81.201 14.655 1190 116.858 578.009 459.948
1677 0 83.1107 15.3049 1272 115.377 577.651 459.7
1678 0 85.2265 14.6903 1252 117.634 577.84 456.764
1679 0 88.3335 15.5434 1373 115.538 577.706 456.137
1680 0 89.2414 13.9957 1249 121.069 577.998 454.291
1681 0 95.2283 13.9664 1330 120.249 577.942 452.92
1682 0 97.1916 14.7646 1435 117.923 577.684 453.509
1683 0 99.1405 13.7784 1366 122.733 577.678 449.375
1684 0 104.19 13.9073 1449 121.431 577.198 450.835
1685 1 54.0434 11.6758 631 119.407 578.173 475.298
1686 0 55.0992 12.0691 665 120.456 577.693 473.226
1687 0 57.1574 12.8242 733 120.628 576.116 473.629
1688 0 57.1995 13.3393 763 119.942 576.033 474.413
1689 0 59.2291 12.5952 746 122.408 575.784 472.119
1690 0 63.2025 12.2147 772 122.877 575.275 470.714
1691 0 62.0711 11.4385 710 126.361 575.086 470.807
1692 0 66.1358 12.3987 820 123.649 576.237 468.426
1693 0 69.3438 13.6422 946 120.001 575.43 467.995
1694 0 70.126 12.72 892 121.964 575.176 468.43
1695 0 72.1489 13.0286 940 123.432 575.703 465.246
1696 0 76.1561 13.2885 1012 121.923 576.299 463.963
1697 0 77.1423 12.5223 966 125.967 576.147 463.403
1698 0 78.2397 12.5384 981 125.913 576.174 462.315
1699 0 81.2891 13.2613 1078 124.502 576.508 461.656
1700 0 85.2547 13.7001 1168 123.021 575.867 458.31
1701 0 87.3611 13.1981 1153 124.158 576.276 458.531
1702 0 90.2884 13.2575 1197 123.514 576.013 456.77
1703 0 95.2722 13.8655 1321 121.353 575.627 454.927
1704 1 51.2578 11.1593 572 116.047 575.101 476.259
1705 0 53.1506 11.9096 633 111.507 575.439 475.57
1706 0 54.117 12.7317 689 106.046 575.763 475.43
1707 0 54.0572 11.7838 637 113.653 578.198 469.582
1708 0 54.2202 10.7524 583 108.177 577.429 475.062
1709 0 56.1056 10.9258 613 107.591 577.33 473.672
1710 0 58.1363 10.3206 600 108.327 577.353 473.87
1711 0 60.1085 10.6973 643 108.796 576.854 472.064
1712 0 63.1042 12.0277 759 105.232 577.49 469.739
1713 0 63.1136 10.1088 638 109.553 577.654 471.871
1714 0 68.0798 10.9724 747 107.036 577.171 468.135
1715 0 68.0798 10.8255 737 121.069 576.189 468.09
1716 0 72.1062 12.648 912 105.078 577.336 464.726
1717 0 74.1167 12.224 906 106.7 577.177 464.732
1718 0 75.0606 11.0311 828 109.233 576.899 465.796
1719 0 80.0887 12.2115 978 105.752 577.616 462.256
1720 0 81.1683 12.1969 990 106.488 576.622 462.76
1721 0 84.104 12.5321 1054 107.125 577.632 460.677
1722 0 86.2028 11.5077 992 107.816 577.664 456.128
1723 0 88.284 10.5568 932 111.099 577.631 454.525
1724 0 92.1903 11.7149 1080 110.072 577.822 456.576
1725 0 96.1916 12.4543 1198 108.234 577.197 456.271
1726 1 50.0782 10.0043 501 111.02 578.194 478.329
1727 0 52.2035 11.6467 608 108.891 577.836 474.842
1728 0 55.1971 10.8158 597 110.807 578.017 475.675
1729 0 55.163 12.3634 682 104.116 577.953 471.273
1730 0 54.0456 11.0647 598 114.177 578.12 476.109
1731 0 55.0632 11.623 640 114.97 577.953 473.362
1732 0 59.0887 11.0512 653 113.156 577.366 475.066
1733 0 59.1409 10.4665 619 117.375 577.842 472.712
1734 0 59.1426 10.4662 619 148.711 578.827 472.73
1735 0 66.1886 12.7817 846 111.991 577.528 471.274
1736 0 68.0932 13.3494 909 110.262 577.436 470.66
1737 0 70.122 11.9934 841 114.478 577.893 468.673
1738 0 71.0544 12.6945 902 113.749 577.754 467.758
1739 0 75.1546 11.8023 887 115.496 577.738 467.826
1740 0 77.0926 12.9195 996 114.065 577.458 464.303
1741 0 78.1074 11.5994 906 118.772 577.69 463.118
1742 0 82.1492 12.4529 1023 116.983 577.78 462.62
1743 0 82.1492 12.5138 1028 147.889 577.793 462.575
1744 0 84.1636 11.4895 967 122.877 577.775 459.965
1745 0 88.1524 12.9321 1140 118.698 577.202 458.97
1746 0 91.1098 12.4465 1134 119.388 577.104 458.504
1747 0 91.1401 12.4424 1134 122.123 576.336 457.152
1748 0 97.0727 13.8968 1349 118.816 576.062 455.291
1749 0 99.1492 12.7485 1264 122.942 576.537 453.686
1750 0 102.176 13.2419 1353 122.217 576.243 453.19
1751 0 107.15 14.2137 1523 118.781 576.058 452.687
1752 0 109.185 14.3884 1571 119.822 576.051 449.025
1753 0 111.126 13.1563 1462 123.722 576.423 446.862
1754 0 116.233 13.473 1566 122.669 576.554 445.428
1755 0 120.118 13.3702 1606 122.953 576.499 442.928
1756 0 124.106 14.0766 1747 120.973 577.133 442.044
1757 0 128.282 14.0783 1806 121.421 576.926 440.64
1758 0 133.176 14.4171 1920 121.582 576.726 435.367
1759 0 137.22 13.3508 1832 125.001 576.505 431.833
1760 0 140.177 13.6827 1918 124.48 576.599 429.138
1761 0 146.193 14.0089 2048 123.205 576.978 428.111
1762 0 151.216 14.4561 2186 121.863 576.349 424.819
1763 0 155.379 14.1782 2203 124.137 576 425.014
1764 0 161.326 14.5172 2342 123.743 576.643 420.866
1765 0 167.19 13.7748 2303 126.421 575.993 419.683
1766 0 172.291 13.5526 2335 127.157 575.655 414.116
1767 0 178.392 14.8942 2657 123.591 575.878 411.568
1768 0 185.335 14.4657 2681 124.645 576.186 409.759
1769 0 190.382 15.159 2886 122.755 575.81 403.787
1770 1 101.257 11.4659 1161 126.777 576.247 449.163
1771 0 102.224 12.6976 1298 122.196 576.426 445.164
1772 0 103.297 12.7012 1312 122.633 576.529 441.473
1773 0 108.276 12.4497 1348 123.519 576.625 440.471
1774 0 114.279 13.607 1555 119.706 576.827 437.932
1775 0 117.28 13.0969 1536 121.011 576.704 435.808
1776 0 122.171 12.2205 1493 119.246 576.088 435.443
1777 0 124.165 12.2579 1522 120.214 576.587 433.574
1778 0 131.127 12.6595 1660 118.919 576.484 430.205
1779 0 135.263 13.1965 1785 118.846 576.115 430.375
1780 0 136.206 13.1345 1789 123.076 576.272 426.056
1781 0 140.32 13.348 1873 120.292 576.163 423.883
1782 0 146.312 13.8198 2022 120.306 576.57 423.538
1783 0 151.265 12.7061 1922 123.953 576.564 419.682
1784 0 156.394 13.402 2096 121.974 576.212 417.243
1785 0 162.271 14.599 2369 120.507 575.936 411.296
1786 0 165.378 13.3815 2213 125.089 576.926 409.737
1787 0 173.239 13.6459 2364 123.561 575.928 408.459
1788 0 177.384 14.2177 2522 123.111 576.423 403.535
1789 0 185.313 13.5284 2507 123.759 576.215 398.118
1790 1 91.2417 9.63375 879 115.223 576.965 450.686
1791 0 95.2461 12.7669 1216 110.181 577.036 452.367
1792 0 98.2918 11.8728 1167 110.999 576.013 447.922
1793 0 102.213 11.8185 1208 111.382 575.589 445.248
1794 0 107.086 11.0005 1178 113.801 576.15 447.11
1795 0 110.164 12.0094 1323 117.602 577.157 441.948
1796 0 115.247 12.4168 1431 113.854 577.402 442.326
1797 0 119.394 11.4327 1365 117.75 577.218 437.323
1798 0 124.276 11.8848 1477 115.5 577.074 437.489
1799 1 55.1805 10.4566 577 102.685 578.043 474.477
1800 0 58.0823 11.1566 648 101.671 577.768 472.006
1801 0 59.042 10.501 620 109.823 578.873 471.798
1802 0 60.0857 9.32003 560 115.311 578.548 472.109
1803 0 63.1643 11.3672 718 112.765 578.497 468.057
1804 0 65.1545 11.0506 720 112.567 578.79 466.903
1805 0 66.1208 10.995 727 113.784 578.433 465.569
1806 0 68.1044 11.2915 769 114.429 578.417 465.964
1807 0 70.2415 10.834 761 114.062 577.691 466.702
1808 0 71.2002 11.4747 817 113.001 578.015 464.835
1809 0 73.1726 11.835 866 112.278 577.903 462.457
1810 0 76.3423 10.9769 838 114.029 578.43 463.967
1811 0 78.2442 11.3619 889 114.017 577.832 460.267
1812 0 80.2144 10.8709 872 114.391 577.406 459.983
1813 0 84.2771 10.8096 911 113.408 577.011 458.861
1814 0 84.3054 9.38256 791 115.631 577.837 459.314
1815 0 89.1743 11.4383 1020 110.563 577.753 456.538
1816 0 91.1785 10.3423 943 112.695 577.696 454.674
1817 0 93.2364 10.8756 1014 110.474 578.084 455.18
1818 0 98.3398 11.5823 1139 108.824 578.075 452.687
1819 0 101.15 10.9342 1106 106.451 578.059 450.592
1820 1 53.0553 10.6116 563 107.655 578.352 473.385
1821 0 59.3233 11.2603 668 103.614 578.039 473.15
1822 0 59.2331 11.632 689 104.769 577.993 471.264
1823 0 61.264 12.9766 795 101.839 578.011 470.814
1824 0 62.1987 13.0549 812 102.096 578.023 470.202
1825 0 65.3051 13.0771 854 101.505 578.249 470.886
1826 0 65.2017 11.6561 760 105.991 578.045 469.241
1827 0 67.224 12.8526 864 103.938 577.889 468.74
1828 0 68.2893 11.7002 799 107.78 577.835 467.215
1829 0 68.2108 11.098 757 110.708 577.613 464.535
1830 0 74.3261 13.1044 974 104.738 577.634 466.375
1831 0 74.1742 12.5515 931 107.554 577.461 463.986
1832 0 76.2318 12.239 933 108.562 577.382 462.473
1833 0 78.2498 11.2972 884 107.726 577.333 462.899
1834 0 81.1388 12.5587 1019 97.7458 576.955 460.118
1835 0 84.2496 12.2493 1032 98.4157 576.531 461.093
1836 0 85.1636 11.472 977 103.056 576.978 457.048
1837 0 87.2111 10.8587 947 104.753 576.885 455.763
1838 0 92.133 12.2974 1133 102.378 577.149 456.67
1839 0 96.1156 11.8815 1142 103.81 577.295 455.398
1840 0 99.248 11.7786 1169 105.811 577.744 449.841
1841 1 49.1654 11.6952 575 100.016 577.503 474.972
1842 0 53.16 11.7382 624 99.9199 577.407 473.223
1843 0 53.1377 12.5711 668 99.3668 577.111 474.391
1844 0 56.0976 12.3535 693 97.0996 577.309 475.573
1845 0 57.156 12.3347 705 97.9305 577.66 474.26
1846 0 60.1042 12.2953 739 97.1123 577.862 475.698
1847 0 59.0823 11.0016 650 101.606 577.685 473.026
1848 0 63.0728 13.2228 834 96.8549 577.572 471.303
1849 0 66.1393 12.9121 854 96.8817 577.486 471.286
1850 0 68.1409 12.753 869 96.6226 577.251 471.468
1851 0 70.0978 13.6809 959 95.9572 577.267 469.813
1852 0 71.1276 12.7939 910 98.2176 577.578 468.61
1853 0 72.1523 11.6005 837 101.274 576.988 464.656
1854 0 78.2141 14.2302 1113 95.8113 576.728 462.439
1855 0 78.1638 12.3331 964 100.71 576.983 461.865
1856 0 82.1398 13.0874 1075 98.9516 576.842 461.319
1857 0 84.1768 14.4339 1215 96.6889 576.573 460.414
1858 0 87.2147 13.1056 1143 100.149 577.124 457.116
1859 0 89.1645 12.976 1157 102.188 577.117 457.372
1860 0 92.0793 13.9228 1282 99.8222 576.652 457.725
1861 0 95.1366 13.2967 1265 102.496 576.57 455.769
1862 0 99.1136 13.2777 1316 102.153 576.551 455.335
1863 1 53.0779 11.5114 611 104.822 576.602 475.673
1864 0 56.0687 11.8961 667 102.892 577.151 476.406
1865 0 58.2206 12.6416 736 105.762 577.55 473.027
1866 0 60.1558 12.9165 777 104.127 576.737 468.497
1867 0 62.116 13.9739 868 100.763 576.101 469.119
1868 0 64.0761 12.5788 806 105.522 576.225 467.64
1869 0 66.0882 13.0886 865 103.155 576.566 469.22
1870 0 68.1021 13.8322 942 102.291 576.278 466.427
1871 0 70.1141 12.7506 894 104.097 577.446 468.472
1872 0 72.1151 12.9238 932 102.201 576.779 466.332
1873 0 76.083 12.7098 967 101.201 577.124 468.637
1874 0 79.1252 14.1169 1117 99.0448 576.497 465.462
1875 0 80.0608 12.3156 986 104.636 576.806 463.769
1876 0 82.0964 11.8763 975 105.298 576.672 464.028
1877 0 84.0325 12.6737 1065 103.813 577.032 460.646
1878 0 87.1935 12.8106 1117 104.259 577.206 457.293
1879 0 92.1977 12.7877 1179 103.915 576.642 457.315
1880 0 88.2318 10.8578 958 111.069 576.802 454.69
1881 0 96.3472 13.1296 1265 105.083 576.554 450.792
1882 1 50.1851 12.0753 606 103.3 577.096 474.172
1883 0 52.1861 13.0686 682 99.3064 576.912 474.334
1884 0 52.1881 12.7807 667 100.96 577.597 472.603
1885 0 53.1893 11.9385 635 98.5087 576.608 475.57
1886 0 52.3166 11.87 621 99.6168 577.071 474.1
1887 0 54.1868 12.6415 685 98.019 577.161 472.415
1888 0 57.2688 11.7691 674 98.592 576.835 471.727
1889 0 58.227 12.52 729 97.9753 576.975 469.114
1890 0 61.2216 12.0219 736 99.1046 576.357 469.394
1891 0 63.1348 10.6914 675 101.009 576.344 466.738
1892 0 68.2572 12.8045 874 96.7334 576.589 466.085
1893 0 68.3082 12.2533 837 99.5424 576.861 463.688
1894 0 68.3198 11.3144 773 102.451 576.383 465.14
1895 0 73.2215 12.6329 925 100.132 576.725 461.785
1896 0 73.2955 10.8738 797 103.42 576.403 461.601
1897 0 77.3468 12.3599 956 100.578 575.946 459.014
1898 0 80.4204 12.6958 1021 100.284 576.79 455.958
1899 0 82.2423 10.8825 895 104.688 576.955 454.375
1900 0 85.253 10.8031 921 104.172 576.935 453.035
1901 0 89.2134 11.1306 993 102.693 576.902 454.165
1902 0 93.2311 11.8308 1103 102.393 576.769 450.169
1903 0 97.2654 11.6177 1130 102.755 576.767 448.547
1904 0 98.3848 11.5668 1138 102.871 576.718 448.588
1905 0 101.59 10.9558 1113 104.476 575.727 444.926
1906 1 53.1893 11.1301 592 97.772 576.507 468.679
1907 0 55.3678 11.9564 662 98.2915 577.053 468.134
1908 0 57.3922 12.1445 697 98.6298 577.317 468.544
1909 0 59.2159 11.8043 699 99.6338 576.725 469.004
1910 0 62.1453 13.0501 811 97.7053 576.539 468.792
1911 0 63.443 11.664 740 101.646 577.197 466.947
1912 0 68.4168 12.8916 882 98.5193 576.912 465.512
1913 0 69.3701 13.5793 942 97.2781 575.885 464.523
1914 0 73.5215 13.275 976 98.6465 576.654 461.358
1915 0 72.6752 11.1868 813 104.392 576.46 460.426
1916 0 75.2644 12.1571 915 103.421 576.706 457.681
1917 0 79.432 13.5839 1079 100.404 576.478 456.504
1918 0 82.4619 12.0298 992 104.147 576.192 456.688
1919 0 86.4433 13.3382 1153 101.696 576.272 454.796
1920 0 89.3617 13.2383 1183 102.433 576.604 452.955
1921 0 91.4236 13.0273 1191 104.222 576.559 451.327
1922 0 96.455 13.3534 1288 103.66 576.332 449.13
1923 0 98.396 12.7952 1259 105.209 576.794 449.951
1924 0 101.394 12.9199 1310 105.686 576.033 448.815
1925 0 106.614 13.3285 1421 105.868 576.396 445.103
1926 0 111.337 13.9936 1558 104.026 576.225 443.696
1927 0 114.308 13.9536 1595 104.952 576.754 442.262
1928 0 116.38 12.3561 1438 109.102 576.451 441.613
1929 0 119.335 12.3351 1472 110.794 576.463 437.083
1930 0 126.395 13.4737 1703 108.934 576.77 434.802
1931 0 131.468 14.0947 1853 108.009 576.446 431.552
1932 1 67.2736 11.5796 779 105.339 575.962 468.272
1933 0 70.1194 11.9938 841 108.654 576.71 458.932
1934 0 75.258 14.2443 1072 104.717 576.36 456.829
1935 0 76.1746 12.8521 979 109.159 575.807 456.847
1936 0 78.3122 12.6034 987 110.982 575.28 457.981
1937 0 81.2204 12.4353 1010 111.377 575.483 458.629
1938 0 82.3294 12.8265 1056 112.006 575.944 457.098
1939 0 87.2737 12.5582 1096 112.045 575.842 457.857
1940 0 88.1772 12.2707 1082 113.893 575.852 456.095
1941 0 90.4642 11.4631 1037 116.122 575.893 455.411
1942 0 94.3255 12.372 1167 115.167 576.346 451.881
1943 0 97.3305 12.288 1196 115.576 576.363 450.64
1944 0 103.469 13.463 1393 112.225 576.628 450.442
1945 1 53.1755 10.8885 579 113.984 576.827 472.807
1946 0 53.1962 11.2602 599 116.755 577.381 472.442
1947 0 56.3005 12.3978 698 116.128 577.292 471.105
1948 0 58.0395 12.8189 744 115.602 578.708 472.324
1949 0 60.1153 13.0749 786 115.347 577.956 472.891
1950 0 61.0519 14.1191 862 113.686 577.6 471.746
1951 0 62.0731 13.6935 850 115.715 577.588 468.734
1952 0 66.1178 14.0204 927 113.866 577.232 468.631
1953 0 67.0839 13.4608 903 117.024 577.168 466.157
1954 0 68.3336 12.2634 838 120.363 576.738 466.051
1955 0 72.1734 13.232 955 116.221 577.015 464.369
1956 0 74.2277 13.7011 1017 115.493 576.858 463.461
1957 0 76.3418 12.9287 987 118.932 576.901 461.532
1958 0 77.4122 13.7963 1068 117.732 577.249 460.599
1959 0 82.3883 14.9172 1229 120.292 576.762 457.535
1960 0 84.2708 13.694 1154 123.808 576.475 457.321
1961 0 88.2663 14.2976 1262 122.003 576.729 453.547
1962 0 89.3474 14.3037 1278 122.146 577.032 455.149
1963 0 93.4684 14.4755 1353 122.485 577.013 452.355
1964 0 95.3244 13.3859 1276 124.154 577.138 451.132
1965 0 98.4425 13.3987 1319 125.55 577.18 450.146
1966 0 100.134 12.8129 1283 120.502 577.604 448.955
1967 0 101.166 12.178 1232 123.751 577.907 446.072
1968 1 55.1618 10.4964 579 121.066 578.831 466.902
1969 0 57.0301 11.7482 670 115.603 578.378 467.678
1970 0 60.0803 12.6331 759 103.369 577.499 466.395
1971 0 61.1744 10.8869 666 106.222 577.377 464.728
1972 0 62.0732 11.422 709 105.533 577.554 462.836
1973 0 63.1618 11.3676 718 105.964 577.528 462.184
1974 0 66.1564 11.5182 762 105.924 577.22 462.567
1975 0 67.1095 11.4142 766 107.187 577.206 460.61
1976 0 71.1026 12.489 888 104.807 577.457 459.311
1977 0 73.087 12.8477 939 104.733 577.294 459.33
1978 0 77.2121 12.6276 975 104.503 576.845 457.676
1979 0 75.2686 11.1202 837 110.032 576.496 453.145
1980 0 78.2294 12.719 995 106.847 576.633 455.29
1981 0 83.1843 13.2116 1099 105.508 576.499 453.497
1982 0 86.24 13.0914 1129 104.265 577.447 453.339
1983 0 87.2829 12.0528 1052 105.945 577.263 452.49
1984 0 91.1539 12.3966 1130 105.615 577.11 450.245
1985 0 94.173 13.3159 1254 104.19 577.564 449.702
1986 0 95.0856 12.4835 1187 106.837 577.51 446.017
1987 0 99.1933 12.4605 1236 107.217 577.343 443.837
1988 0 100.142 12.6121 1263 107.955 576.914 442.206
1989 0 105.084 12.2473 1287 108.249 577.584 441.158
1990 1 59.081 10.6126 627 101.279 577.231 467.86
1991 0 62.0526 10.8456 673 100.67 578.692 464.052
1992 0 63.1532 12.0026 758 95.4723 577.356 465.603
1993 0 62.0887 10.2756 638 100.759 577.132 460.455
1994 0 68.1447 11.2848 769 97.7399 577.558 461.674
1995 0 69.084 12.796 884 95.9593 577.803 459.078
1996 0 69.0877 12.8677 889 118.015 577.79 459.261
1997 0 73.0376 11.5968 847 99.3164 577.39 460.115
1998 0 76.0453 12.5583 955 97.7131 577.332 457.158
1999 0 79.0868 12.8719 1018 98.3035 577.25 453.785
2000 0 81.1373 12.1522 986 99.8408 576.695 454.454
2001 0 84.1402 12.3603 1040 100.235 576.971 454.22
2002 0 87.3358 12.6752 1107 100.204 576.864 450.991
2003 0 89.1076 12.6476 1127 101.624 576.799 450.862
2004 0 93.0944 13.8891 1293 99.0626 576.709 449.098
2005 0 97.1787 12.688 1233 102.474 577.269 447.439
2006 0 100.227 12.1624 1219 105.181 577.102 447.404
2007 1 55.1389 9.86599 544 109.982 576.434 467.599
2008 0 59.0953 11.5914 685 113.737 577.197 466.318
2009 0 60.1066 11.6792 702 114.467 576.454 463.986
2010 0 64.0647 12.94 829 113.322 576.133 467.109
2011 0 67.0474 11.7976 791 117.077 576.095 465.914
2012 0 68.1167 12.1116 825 116.758 576.44 464.904
2013 0 70.1089 13.6217 955 113.525 576.192 464.142
2014 0 73.0939 13.7221 1003 113.347 576.433 463.269
2015 0 76.1067 13.376 1018 113.796 575.942 463.104
2016 0 78.1618 12.6916 992 116.879 575.496 459.058
2017 0 79.1632 12.5437 993 116.625 576.343 454.743
2018 0 80.2136 12.5291 1005 117.409 576.469 456.5
2019 0 83.1577 12.35 1027 117.537 576.732 454.609
2020 0 87.0784 12.3222 1073 118.216 575.858 454.458
2021 0 90.1296 13.1366 1184 117.239 575.996 451.113
2022 0 95.1421 13.0226 1239 116.936 575.729 452.027
2023 0 96.2981 13.3648 1287 118.7 576.14 447.336
2024 0 99.0821 12.7167 1260 120.106 576.448 448.379
2025 0 106.185 13.6743 1452 116.259 576.477 445.129
2026 0 107.124 12.4435 1333 114.815 577.08 447.564
2027 0 111.182 12.0163 1336 115.924 577.748 444.947
2028 1 60.3485 11.7319 708 102.198 577.004 468.199
2029 0 61.1793 12.1773 745 109.979 577.49 470.058
2030 0 63.1305 12.2445 773 101.931 577.887 469.948
2031 0 65.1372 12.205 795 102.187 577.767 468.621
2032 0 67.1526 12.0472 809 101.979 577.604 469.949
2033 0 69.1721 12.8086 886 101.518 578.302 467.949
2034 0 72.1303 12.1447 876 102.55 577.276 468.71
2035 0 73.1555 13.0817 957 101.501 576.212 465.897
2036 0 73.1195 11.6385 851 107.364 576.707 463.018
2037 0 77.2632 11.092 857 106.125 576.308 463.216
2038 0 79.1416 11.4731 908 105.778 576.86 463.948
2039 0 82.176 10.6357 874 109.581 576.638 460.712
2040 0 86.2404 12.3492 1065 107.407 576.852 458.719
2041 0 89.2609 11.6176 1037 110.389 576.929 456.649
2042 1 49.1065 11.4649 563 108.169 577.526 477.762
2043 0 49.2503 11.2284 553 112.669 576.79 475.718
2044 0 50.1717 11.6002 582 113.06 576.108 477.091
2045 0 51.1062 11.2511 575 114.327 576.457 475.643
2046 0 54.0912 12.0722 653 113.885 577.02 473.734
2047 0 54.1167 12.048 652 115.317 577.316 474.422
2048 0 59.2325 12.3243 730 112.766 576.63 472.844
2049 0 58.3174 12.5006 729 116.738 576.302 470.732
2050 0 60.2659 12.7933 771 115.992 577.013 470.174
2051 0 65.0995 13.0569 850 116.887 576.699 472.813
2052 0 65.2132 13.0802 853 118.416 577.461 470.118
2053 0 68.2212 13.0458 890 119.667 577.612 468.713
2054 0 70.3507 13.0347 917 120.371 577.63 469.233
2055 0 73.254 12.9822 951 119.883 577.326 467.629
2056 0 74.3304 13.1844 980 120.557 577.05 464.034
2057 0 76.223 12.8439 979 120.962 576.638 464.961
2058 0 78.4434 12.0596 946 123.804 577.41 462.439
2059 0 82.176 13.8483 1138 118.827 577.285 460.341
2060 0 84.246 13.6268 1148 119.328 576.344 457.62
2061 0 89.3505 13.766 1230 117.898 576.678 458.61
2062 0 90.3602 12.6715 1145 122.084 576.991 456.01
2063 1 48.2655 11.4782 554 118.522 577.103 478.924
2064 0 50.1399 13.3427 669 114.221 577.414 477.438
2065 0 52.1504 12.8858 672 113.909 577.738 479.323
2066 0 52.137 12.4672 650 116.923 577.508 476.374
2067 0 56.2011 12.4909 702 115.4 578.147 476.671
2068 0 55.1295 13.3685 737 115.602 577.25 474.886
2069 0 59.1469 13.3735 791 114.795 576.841 473.459
2070 0 60.2891 13.0538 787 117.182 577.217 472.469
2071 0 62.1403 12.8902 801 116.921 577.201 471.305
2072 0 63.0575 13.1785 831 116.176 578.055 472.936
2073 0 64.2582 12.7143 817 117.657 577.387 470.472
2074 0 67.2334 12.2261 822 119.391 576.708 469.889
2075 0 68.2003 12.5806 858 120.49 576.777 469.315
2076 0 70.1605 13.3266 935 119.706 577.426 467.733
2077 0 74.1883 13.3849 993 119.687 576.928 465.204
2078 0 76.1912 13.8992 1059 120.714 576.293 464.904
2079 0 79.1377 13.4702 1066 122.992 576.84 463.799
2080 0 83.2027 13.6173 1133 121.014 576.876 462.778
2081 0 86.2794 13.5142 1166 122.332 576.423 459.661
2082 0 89.3766 12.9229 1155 123.323 576.695 458.624
2083 0 91.2233 12.8586 1173 123.693 576.893 458.396
2084 0 93.3847 12.5288 1170 124.951 576.46 456.62
2085 0 96.3333 10.4221 1004 129.63 576.866 455.433
2086 0 101.206 12.1435 1229 125.963 577.204 453.452
2087 0 105.244 11.3261 1192 128.823 577.161 448.296
2088 0 108.289 13.2885 1439 126.097 576.801 448.394
2089 0 112.189 12.6305 1417 125.327 575.711 446.118
2090 0 117.114 12.3896 1451 126.004 575.717 445.72
2091 0 120.224 12.2438 1472 125.643 575.961 444.579
2092 0 123.173 12.4134 1529 125.758 575.925 442.753
2093 1 62.0554 12.5533 779 126.584 576.275 468.697
2094 0 66.0499 15.3672 1015 120.856 575.907 466.912
2095 0 67.0326 13.9335 934 123.549 576.166 464.284
2096 0 70.0953 14.6658 1028 120.637 577.087 464.009
2097 0 72.1299 13.8223 997 124.266 577.328 463.785
2098 0 71.2499 13.4035 955 127.305 576.63 462.754
2099 0 74.1477 12.2054 905 130.715 576.915 461.438
2100 0 77.2486 13.7737 1064 126.202 576.084 460.387
2101 0 80.2019 13.2042 1059 128.723 576.212 458.236
2102 0 83.0855 13.444 1117 127.226 576.615 458.376
2103 0 86.1151 14.3645 1237 125.1 576.225 456.231
2104 0 87.1538 12.9082 1125 130.315 576.116 453.088
2105 0 89.0888 13.6381 1215 128.564 576.332 452.137
2106 0 93.1349 12.5732 1171 131.715 575.865 451.888
2107 0 97.2229 13.3919 1302 129.26 575.616 447.203
2108 0 103.103 13.4719 1389 127.64 575.998 446.567
2109 0 104.126 13.4261 1398 129.173 576.569 445.258
2110 1 55.1394 12.5137 690 130.232 576.049 470.764
2111 0 56.2113 12.9511 728 131.459 576.143 464.163
2112 0 61.1508 12.3138 753 131.174 576.203 464.825
2113 0 61.1672 13.3732 818 128.105 575.769 462.04
2114 0 63.0761 14.2051 896 125.282 576.8 461.996
2115 0 65.1664 12.1075 789 130.73 576.456 460.076
2116 0 65.1481 12.0802 787 136.859 576.471 460.108
2117 0 71.0875 13.9265 990 124.529 576.114 458.298
2118 0 74.2298 14.5764 1082 121.919 576.318 456.769
2119 0 78.2579 14.5544 1139 120.558 575.543 456.637
2120 0 79.0716 14.2403 1126 122.397 576.008 453.091
2121 0 83.0853 14.5995 1213 121.918 576.288 454.409
2122 0 85.1129 14.5219 1236 122.885 576.138 452.251
2123 0 88.1162 14.6965 1295 122.893 576.296 449.842
2124 0 90.0694 14.6221 1317 123.439 576.364 449.932
2125 0 94.2422 14.484 1365 122.73 575.902 448.489
2126 0 94.1551 13.3397 1256 127.46 576.084 447.507
2127 0 98.0936 14.6391 1436 123.489 576.076 445.082
2128 0 102.087 15.0557 1537 122.565 576.18 443.1
2129 0 105.134 13.4876 1418 126.949 575.932 442.825
2130 0 111.165 14.8967 1656 121.874 576.243 440.537
2131 0 114.18 14.2932 1632 123.506 576.056 439.521
2132 0 121.309 15.0195 1822 119.622 576.008 437.576
2133 1 63.1557 12.4613 787 124.447 576.685 467.681
2134 0 66.2222 13.2433 877 123.689 576.644 467.243
2135 0 70.2789 15.9365 1120 116.01 576.667 464.754
2136 0 72.1634 15.0215 1084 118.692 576.593 463.589
2137 0 74.1304 14.2991 1060 121.483 576.727 463.93
2138 0 75.364 15.445 1164 119.161 576.297 462.047
2139 0 78.2584 15.1805 1188 119.671 576.312 461.068
2140 0 81.0798 15.1949 1232 119.592 576.173 459.433
2141 0 85.2074 15.9845 1362 117.931 576.294 459.192
2142 0 87.3172 14.3271 1251 123.765 576.209 457.205
2143 0 89.1858 15.0024 1338 123.377 576.575 455.783
2144 0 93.3307 14.379 1342 125.436 576.046 455.107
2145 0 95.3225 14.4562 1378 126.022 575.999 453.61
2146 0 97.3617 13.5577 1320 129.117 575.936 453.047
2147 0 102.288 14.2441 1457 127.668 575.861 449.724
2148 1 54.2695 13.5067 733 127.933 576.461 471.834
2149 0 59.1362 13.6126 805 126.699 576.314 471.42
2150 0 61.5124 15.0376 925 123.988 575.738 469.762
2151 0 60.4685 14.9003 901 160.117 575.734 469.514
2152 0 65.1029 15.2835 995 124.309 576.8 466.49
2153 0 67.2013 14.1217 949 126.974 576.347 467.787
2154 0 70.2786 15.6378 1099 123.578 576.345 464.643
2155 0 70.3005 13.2289 930 132.101 576.126 462.734
2156 0 76.3053 15.2938 1167 125.141 576.919 461.979
2157 0 79.2994 16.1792 1283 122.634 577.003 460.884
2158 0 81.2046 15.8981 1291 124.769 576.952 459.521
2159 0 83.4723 14.5318 1213 129.371 576.561 458.721
2160 0 86.239 15.8397 1366 125.799 577.034 457.52
2161 0 88.2616 14.7856 1305 128.859 576.72 456.318
2162 0 93.2112 15.5668 1451 125.359 576.862 453.98
2163 0 96.3872 15.2717 1472 126.249 576.442 453.627
2164 1 48.3102 13.2891 642 129.509 576.693 476.597
2165 0 49.2728 14.3487 707 129.837 576.245 474.615
2166 0 51.3168 13.4069 688 132.529 576.241 474.301
2167 0 53.4001 14.4756 773 129.673 576.47 473.463
2168 0 55.1966 13.5516 748 132.306 576.286 473.247
2169 0 57.1213 15.2658 872 128.517 575.994 471.694
2170 0 59.5217 14.1125 840 131.505 576.534 470.748
2171 0 60.3131 14.6569 884 131.028 576.739 469.777
2172 0 63.3784 14.9262 946 130.821 576.665 467.455
2173 0 66.4844 14.4846 963 131.625 576.8 466.883
2174 0 68.4742 14.1367 968 132.688 576.569 466.931
2175 0 71.2578 14.6791 1046 129.926 576.503 466.31
2176 0 72.2697 15.5667 1125 129.74 576.809 463.453
2177 0 76.4419 15.5412 1188 128.451 577.222 464.412
2178 0 78.3282 14.669 1149 133.232 576.755 461.22
2179 0 79.3958 14.8119 1176 134.469 576.422 459.848
2180 0 83.4219 14.7084 1227 134.389 576.701 458.89
2181 0 85.4701 15.5961 1333 132.247 575.977 457.133
2182 0 87.3033 15.2915 1335 132.192 575.699 455.91
2183 1 43.461 12.563 546 137.201 575.927 477.07
2184 0 46.2895 13.1347 608 136.118 576.227 476.587
2185 0 47.3616 13.5764 643 134.073 576.686 477.894
2186 0 50.2156 14.0992 708 134.99 576.209 474.435
2187 0 50.2156 13.8602 696 165.575 575.241 474.455
2188 0 53.2561 14.9842 798 134.033 576.301 473.421
2189 0 54.3137 14.2505 774 137.788 576.6 471.818
2190 0 57.2992 15.5325 890 134.465 576.501 471.012
2191 0 59.2574 15.1374 897 136.716 576.414 470.088
2192 0 61.3026 14.9423 916 138.179 576.227 468.831
2193 0 63.3761 16.2206 1028 135.755 576.398 467.302
2194 0 65.3169 15.4171 1007 138.222 577.056 466.6
2195 0 68.2861 16.7384 1143 134.152 576.749 466.15
2196 0 67.3216 14.2005 956 144.992 576.809 464.629
2197 0 71.361 16.0031 1142 138.569 576.805 462.757
2198 0 72.1555 15.231 1099 142.43 576.258 461.076
2199 0 73.2633 15.3419 1124 143.781 576.272 462.339
2200 0 75.1875 15.202 1143 144.363 576.502 461.325
2201 0 77.1736 14.7719 1140 147.202 576.138 459.552
2202 0 78.2468 15.0677 1179 147.209 575.841 457.754
2203 0 82.2771 14.4633 1190 148.837 575.808 457.25
2204 0 85.3026 16.5763 1414 141.856 576.278 455.595
2205 0 90.3069 15.3144 1383 144.438 576.884 454.235
2206 0 92.2149 15.6916 1447 144.12 576.381 451.616
2207 0 95.3462 15.2497 1454 145.962 576.481 448.696
2208 0 100.316 15.3416 1539 144.647 576.831 448.318
2209 0 103.199 15.7366 1624 144.831 575.999 445.666
2210 1 57.2034 12.1321 694 146.591 576.61 469.839
2211 0 59.1981 12.1963 722 149.427 576.496 467.929
2212 0 62.1786 13.6864 851 143.577 577.068 467.646
2213 0 64.1283 13.5977 872 144.399 577.078 465.983
2214 0 66.1436 13.3649 884 143.937 576.721 465.776
2215 0 67.1816 13.3072 894 145.339 576.16 463.71
2216 0 72.3258 13.9922 1012 140.6 576.908 464.521
2217 0 71.1386 12.4124 883 148.32 576.737 461.305
2218 0 74.2634 12.9674 963 146.425 577.223 461.873
2219 0 79.2545 13.362 1059 145.164 576.682 460.125
2220 0 81.2956 12.8174 1042 147.442 577.073 460.035
2221 0 84.1904 13.1963 1111 146.772 576.689 458.337
2222 0 86.187 13.4939 1163 145.629 576.313 456.25
2223 0 89.1817 13.2651 1183 148.006 576.295 453.766
2224 0 92.1932 13.873 1279 144.67 576.077 454.632
2225 0 97.2766 13.6518 1328 146.018 576.927 452.898
2226 0 98.1721 13.0281 1279 150.538 576.754 449.962
2227 0 100.371 13.7988 1385 147.688 576.709 447.573
2228 0 106.33 14.201 1510 146.571 575.834 445.603
2229 0 110.215 14.8527 1637 144.299 575.387 442.599
2230 0 113.39 13.5373 1535 147.928 575.77 442.231
2231 0 117.261 14.0967 1653 147.091 576.186 440.504
2232 0 121.262 15.116 1833 143.554 575.68 438.778
2233 0 124.284 13.9599 1735 147.41 575.922 435.995
2234 0 129.31 14.9718 1936 145.011 576.431 431.022
2235 0 131.344 14.0928 1851 148.74 576.357 429.002
2236 0 138.325 14.4803 2003 147.236 576.572 427.963
2237 0 144.235 14.615 2108 146.043 575.833 424.526
2238 0 150.405 14.8533 2234 145.332 575.443 421.591
2239 0 154.341 14.1181 2179 147.911 576.123 416.39
2240 0 160.148 14.5116 2324 145.737 576.014 413.768
2241 1 81.3282 10.4146 847 134.97 576.77 458.196
2242 0 85.1592 10.9912 936 134.017 576.736 455.486
2243 0 85.0702 9.70962 826 123.354 575.885 453.528
2244 0 89.1081 8.7983 784 125.407 576.398 449.216
2245 0 93.1712 9.20886 858 123.214 575.994 450.608
2246 0 96.202 8.86676 853 123.662 576.302 450.056
2247 0 99.1294 7.63649 757 125.259 575.948 441.098
2248 1 45.0807 7.07619 319 103.922 575.514 477.401
2249 0 46.043 7.57987 349 102.989 576.241 475.398
2250 0 48.1331 9.36985 451 100.466 576.827 474.162
2251 0 47.0969 7.68628 362 104.862 577.019 476.967
2252 0 50.2302 7.80406 392 105.14 577.125 474.87
2253 0 50.1765 6.3177 317 106.164 577.17 475.757
2254 0 52.1385 6.17586 322 105.984 577.276 475.478
2255 0 51.0659 5.22854 267 108.697 577.509 471.288
2256 0 54.1878 7.28947 395 105.203 577.732 474.428
2257 0 56.2755 5.91731 333 107.808 576.09 469.033
2258 0 59.1413 7.8118 462 105.426 576.645 470.916
2259 0 59.084 3.53734 209 110.914 577.196 474.799
2260 0 61.1255 5.56233 340 108.921 576.571 470.412
2261 0 65.186 6.81128 444 106.227 576.133 474.023
2262 0 65.1848 3.34434 218 113 575.876 470.697
2263 0 68.134 7.08897 483 107.706 575.184 468.265
2264 0 74.1041 8.20468 608 107.066 574.998 469.48
2265 0 74.1902 6.53725 485 112.392 573.95 466.584
2266 0 74.1308 5.40936 401 111.304 573.86 465.855
2267 0 79.2437 6.28441 498 110.257 573.671 464.492
2268 0 84.1842 7.4242 625 107.893 573.104 463.685
2269 0 87.1498 7.33221 639 108.676 573.631 466.864
2270 0 89.3382 7.06304 631 110.399 572.821 461.055
2271 1 45.0277 6.46269 291 106.577 573.117 487.124
2272 0 44.054 5.42516 239 110.36 572.502 486.385
2273 0 47.1286 8.59352 405 107.069 572.63 487.279
2274 0 48.1583 6.45786 311 109.987 571.061 485.733
2275 0 52.259 7.25234 379 110.282 571.024 481.045
2276 0 54.0862 6.98884 378 109.138 571.31 488.312
2277 0 54.076 8.95036 484 109.481 571.45 483.694
2278 0 56.0239 10.0314 562 108.696 571.532 482.381
2279 0 59.0902 8.19087 484 113.372 570.568 482.649
2280 0 59.1157 9.91277 586 111.747 570.058 481.724
2281 0 59.084 9.08876 537 114.598 569.991 479.745
2282 0 65.2065 10.8271 706 110.028 570.101 480.154
2283 0 68.1608 10.9594 747 112.301 570.158 477.023
2284 0 67.188 9.51062 639 117.911 569.524 476.876
2285 0 68.1378 9.99446 681 117.542 569.64 477.037
2286 0 72.2089 11.4113 824 113.441 570.334 476.467
2287 0 74.222 11.4521 850 114.711 569.955 473.238
2288 0 75.1446 11.4047 857 116.063 569.085 471.686
2289 0 75.374 10.9322 824 117.225 568.806 471.982
2290 0 78.4143 11.4265 896 114.866 569.683 475.097
2291 0 80.379 11.9185 958 113.958 569.561 473.213
2292 0 81.4099 10.6252 865 118.38 569.398 469.84
2293 0 83.3403 9.5032 792 120.947 569.466 469.83
2294 0 91.4227 10.5116 961 118.392 569.74 467.209
2295 0 91.4478 10.8368 991 118.597 569.731 466.246
2296 0 91.42 12.1965 1115 115.568 569.978 465.523
2297 0 98.3313 11.3087 1112 116.974 569.998 463.438
2298 1 52.1976 9.31076 486 114.195 570.467 484.51
2299 0 56.3696 10.8392 611 110.995 569.997 484.786
2300 0 56.1976 10.0538 565 111.588 570.782 484.515
2301 0 57.1532 10.883 622 111.542 570.703 486.489
2302 0 60.1533 12.2354 736 108.303 571.02 486.164
2303 0 60.1839 11.3652 684 111.048 570.468 485.415
2304 0 62.2277 11.715 729 110.621 570.418 483.132
2305 0 65.1841 11.1224 725 111.823 570.954 482.883
2306 0 67.1998 11.7262 788 111.027 570.169 479.997
2307 0 69.2217 11.2248 777 112.683 570.03 478.044
2308 0 72.1886 11.373 821 111.669 569.99 476.415
2309 0 74.1905 11.0391 819 112.908 569.728 475.488
2310 0 77.1337 11.1106 857 112.271 570.266 475.481
2311 0 79.0935 11.164 883 111.387 570.247 471.837
2312 0 83.2065 11.4414 952 111.121 570.166 472.364
2313 0 87.1128 12.7995 1115 107.381 570.235 471.091
2314 0 90.1441 11.2265 1012 111.255 570.614 470.48
2315 0 93.1904 11.3746 1060 111.598 570.36 469.391
2316 0 97.2112 12.1899 1185 109.605 570.177 463.82
2317 1 54.1543 11.0241 597 110.41 570.092 486.198
2318 0 55.1398 12.7131 701 113.502 570.185 483.255
2319 0 60.2785 12.4091 748 109.615 569.15 483.279
2320 0 60.3431 11.534 696 112.92 569.388 482.343
2321 0 63.3284 12.222 774 109.558 568.761 480.415
2322 0 63.2933 12.4974 791 109.721 569.422 480.532
2323 0 65.1482 11.8653 773 109.984 569.463 479.254
2324 0 67.1292 13.1388 882 107.887 569.89 477.559
2325 0 68.1178 12.3463 841 110.247 570.457 481.298
2326 0 71.0604 13.6363 969 107.132 570.586 479.194
2327 0 73.2213 11.9637 876 111.477 570.41 475.936
2328 0 75.1475 12.6817 953 110.385 570.732 473.316
2329 0 77.2314 11.3166 874 113.582 570.707 475.327
2330 0 80.1934 12.2953 986 110.845 570.541 472.56
2331 0 83.1993 12.3799 1030 111.628 571.21 470.036
2332 0 86.1801 12.0329 1037 111.879 570.61 468.289
2333 0 89.2034 11.9614 1067 112.106 570.921 467.229
2334 0 92.2516 11.9781 1105 111.961 570.7 467.467
2335 1 52.2455 10.5272 550 115.589 569.8 480.982
2336 0 52.1274 11.3376 591 114.074 570.533 481.614
2337 0 55.2004 10.9963 607 115.311 570.675 478.476
2338 0 58.2073 13.0396 759 109.974 570.582 477.908
2339 0 58.0986 11.9796 696 111.197 569.793 479.654
2340 0 60.1328 11.8904 715 111.862 569.869 478.509
2341 0 63.0978 12.8689 812 109.372 569.33 477.538
2342 0 63.1179 12.136 766 113.564 569.992 474.187
2343 0 67.0583 14.2861 958 106.619 569.974 475.007
2344 0 68.1611 12.0597 822 113.794 570.464 473.105
2345 0 65.1352 11.0079 717 119.264 570.222 470.499
2346 0 70.0451 12.1065 848 116.117 570.248 468.058
2347 0 74.0821 13.2961 985 111.4 570.398 469.25
2348 0 76.1079 13.1392 1000 113.343 569.905 466.279
2349 0 79.0662 12.4453 984 115.057 569.885 466.367
2350 0 80.1292 12.9666 1039 114.575 570.775 461.772
2351 0 82.0695 12.8428 1054 115.666 571.137 463.59
2352 0 86.1313 14.9887 1291 110.043 571.095 459.287
2353 0 89.0937 12.5261 1116 116.305 570.591 461.969
2354 0 91.063 12.5298 1141 118.221 571.514 457.286
2355 0 93.2033 13.1218 1223 117.139 571.862 457.566
2356 0 96.1722 12.9143 1242 118.265 572.381 455.671
2357 0 99.2466 14.0055 1390 116.296 572.025 454.199
2358 0 102.275 13.9917 1431 117.107 572.643 453.03
2359 0 107.225 13.9427 1495 116.741 573.418 450.479
2360 0 107.28 12.8169 1375 123.103 573.241 447.276
2361 0 111.383 13.8351 1541 121.544 572.772 444.71
2362 0 116.358 14.6014 1699 119.191 572.653 443.6
2363 0 119.356 14.6369 1747 122.559 573.185 442.634
2364 0 119.489 12.5618 1501 127.295 573.157 441.23
2365 1 66.3314 10.7943 716 124.708 573.299 465.448
2366 0 66.3314 10.8998 723 161.988 571.296 465.427
2367 0 70.3752 11.1687 786 119.13 573.565 458.888
2368 0 76.3152 12.5925 961 119.161 573.241 462.561
2369 0 78.1964 12.2001 954 120.356 573.178 461.419
2370 0 81.229 13.3327 1083 117.135 573.276 460.488
2371 0 86.2179 14.1734 1222 113.13 574.091 461.111
2372 0 87.2679 13.0861 1142 117.617 573.899 457.466
2373 0 89.2516 13.5124 1206 116.167 573.876 455.866
2374 0 91.3362 12.0653 1102 120.179 574.109 455.466
2375 0 96.3099 13.1555 1267 116.331 574.254 453.6
2376 0 99.3198 14.0556 1396 114.259 574.554 453.128
2377 0 100.214 12.2339 1226 120.709 574.237 452.188
2378 0 105.272 13.5364 1425 116.333 575.167 450.925
2379 0 106.271 12.5151 1330 119.962 575.19 447.302
2380 0 110.259 12.3981 1367 118.412 575.478 448.234
2381 0 113.325 12.1244 1374 119.601 574.585 447.775
2382 0 115.294 12.5332 1445 120.088 575.019 445.754
2383 0 117.361 12.2017 1432 120.714 575.121 443.177
2384 0 123.456 13.5352 1671 117.934 575.263 439.703
2385 0 127.245 13.3915 1704 117.511 575.06 442.462
2386 0 129.265 13.7083 1772 118.688 574.758 436.914
2387 0 135.302 11.9067 1611 123.004 575.258 434.035
2388 0 141.331 12.6653 1790 120.253 575.068 432.402
2389 0 138.211 12.6546 1749 112.727 574.911 424.397
2390 0 141.22 12.2362 1728 114.684 574.686 420.306
2391 1 79.0807 10.7738 852 111.685 575.697 455.816
2392 0 80.0412 9.78247 783 116.285 575.964 450.776
2393 0 87.1617 10.7387 936 103.419 574.089 453.209
2394 0 87.1617 10.7387 936 127.666 572.086 453.128
2395 0 93.1074 12.1795 1134 100.345 573.963 451.38
2396 0 96.1115 12.8288 1233 99.7397 573.584 453.05
2397 0 100.13 12.1043 1212 102.707 574.106 451.12
2398 0 101.15 12.1997 1234 106.408 574.158 450.659
2399 0 104.351 11.4134 1191 106.071 573.831 447.952
2400 0 110.11 12.8689 1417 104.309 573.831 446.546
2401 0 112.173 12.6501 1419 105.356 574.328 442.505
2402 0 115.221 12.8709 1483 106.623 574.409 442.007
2403 0 120.227 13.8987 1671 103.27 574.174 445.523
2404 0 121.185 12.5759 1524 106.886 573.474 441.491
2405 0 125.243 11.4417 1433 110.098 574.022 438.803
2406 0 128.206 11.5752 1484 110.46 574.022 435.547
2407 0 134.23 12.1732 1634 108.982 574.384 433.524
2408 0 138.337 11.6454 1611 111.559 574.274 432.133
2409 0 142.262 11.3312 1612 113.538 573.793 430.993
2410 1 81.2183 12.6203 1025 107.802 574.787 464.243
2411 0 79.22 10.1616 805 110.569 575.359 460.158
2412 0 86.1962 12.1931 1051 105.064 575.645 459.131
2413 0 90.1676 13.0978 1181 103.285 575.495 459.565
2414 0 92.204 12.5157 1154 105.118 575.168 459.265
2415 0 93.1445 11.348 1057 108.183 574.923 457.097
2416 0 97.1144 12.6861 1232 106.242 574.946 454.145
2417 0 101.202 12.9642 1312 105.184 574.54 452.652
2418 0 101.188 11.7009 1184 108.307 574.676 451.308
2419 0 106.428 12.9007 1373 107.513 574.719 449.741
2420 0 109.281 11.7037 1279 110.952 574.686 448.532
2421 0 112.284 12.504 1404 109.665 574.656 444.468
2422 0 117.423 12.3486 1450 108.912 574.843 444.883
2423 1 65.2197 12.0976 789 103.238 575.167 472.217
2424 0 68.1537 11.4154 778 105.096 575.293 469.004
2425 0 70.2899 11.8082 830 103.186 575.08 466.919
2426 0 72.1801 12.5796 908 101.66 575.53 467.699
2427 0 73.2112 11.8288 866 104.528 575.125 464.926
2428 0 76.2192 11.3095 862 104.712 575.274 463.978
2429 0 79.2558 11.608 920 103.786 575.245 462.865
2430 0 81.3195 12.0143 977 103.711 574.814 460.607
2431 0 84.2339 11.6343 980 104.411 575.09 460.802
2432 0 85.2737 10.9412 933 105.95 574.337 459.693
2433 0 89.3697 11.2342 1004 105.258 574.649 457.687
2434 0 94.4179 12.6353 1193 101.598 574.671 457.152
2435 0 95.2338 11.4245 1088 104.645 574.175 454.29
2436 0 99.1818 12.5426 1244 102.319 574.96 452.37
2437 0 101.185 12.2943 1244 104.373 574.973 449.651
2438 0 102.289 10.8809 1113 109.369 575.009 446.874
2439 0 107.266 11.0007 1180 109.191 574.924 447.092
2440 0 109.199 12.4634 1361 107.791 574.894 441.885
2441 0 114.235 12.0015 1371 108.825 575.39 442.541
2442 1 61.0872 10.9024 666 107.602 575.248 468.632
2443 0 67.1232 12.6335 848 102.395 575.366 470.56
2444 0 69.2997 11.0679 767 108.704 574.645 465.902
2445 0 72.1034 13.0923 944 105.97 574.208 466.683
2446 0 73.0915 12.4365 909 106.338 575.631 465.044
2447 0 73.0419 11.8288 864 109.119 575.461 462.951
2448 0 74.1232 11.9396 885 108.921 575.672 461.919
2449 0 80.1486 12.1399 973 107.364 575.423 463.662
2450 0 82.0746 12.5252 1028 107.982 575.422 459.183
2451 0 83.1645 13.1667 1095 108.247 574.835 459.331
2452 0 85.2735 12.3954 1057 110.086 574.407 459.577
2453 0 89.1696 13.4463 1199 107.117 575.166 455.248
2454 0 91.1034 12.9194 1177 108.67 575.359 451.071
2455 0 96.0479 11.2027 1076 112.202 576.276 453.71
2456 0 97.1705 12.0921 1175 110.948 575.254 452.095
2457 0 101.108 12.7488 1289 108.981 575.208 450.885
2458 0 103.187 12.3272 1272 110.236 575.941 450.855
2459 0 107.249 13.8929 1490 106.826 574.933 446.93
2460 0 110.198 12.1055 1334 111.232 574.508 444.803
2461 0 113.096 12.5115 1415 111.185 575.001 443.013
2462 0 117.168 12.7424 1493 111.332 574.252 442.447
2463 0 117.167 12.6913 1487 139.293 575.255 442.337
2464 0 124.367 12.2781 1527 113.051 574.698 437.148
2465 0 125.239 11.7695 1474 114.564 575.194 433.119
2466 1 69.2074 12.6432 875 110.758 574.921 461.93
2467 0 70.1685 12.1992 856 112.643 575.186 458.68
2468 0 74.1983 12.817 951 111.426 574.956 453.19
2469 0 74.1329 12.2618 909 110.477 575.614 456.728
2470 0 76.1333 12.0184 915 112.533 575.927 454.984
2471 0 79.135 12.9273 1023 108.707 575.601 454.606
2472 0 83.1624 13.3233 1108 107.457 575.162 452.503
2473 0 86.0764 13.6971 1179 106.566 575.324 449.594
2474 0 89.099 13.9171 1240 107.053 574.783 446
2475 0 90.1406 12.3807 1116 111.408 574.449 443.249
2476 0 94.0819 12.2659 1154 111.01 575.076 443.999
2477 0 96.2181 13.6045 1309 109.302 574.726 442.041
2478 0 101.094 13.1363 1328 109.907 574.525 440.697
2479 0 106.269 13.1459 1397 109.215 574.744 437.442
2480 0 109.116 13.3436 1456 109.574 574.867 436.955
2481 0 111.155 12.0733 1342 112.971 574.502 435.589
2482 0 116.196 11.8592 1378 112.877 574.745 436.387
2483 1 64.1358 10.01 642 111.812 574.802 460.477
2484 0 68.1005 12.9514 882 104.266 574.578 455.196
2485 0 69.0686 11.6261 803 107.761 574.103 449.894
2486 0 71.1499 10.9347 778 100.285 575.483 456.103
2487 0 77.077 10.8982 840 99.8857 575.487 457.66
2488 0 82.0707 12.5258 1028 100.304 576.227 461.391
2489 0 82.079 12.9266 1061 100.928 575.752 457.763
2490 0 86.2146 12.7937 1103 101.006 575.777 456.885
2491 0 87.1357 11.5223 1004 105.504 576.241 451.88
2492 0 91.079 12.4068 1130 104.019 576.781 453.905
2493 0 96.1508 13.406 1289 101.486 576.452 451.518
2494 0 97.2081 12.8796 1252 103.924 575.761 449.938
2495 0 98.1454 12.9807 1274 104.48 575.91 447.909
2496 0 102.146 12.1786 1244 107.629 575.521 446.617
2497 0 104.223 12.8763 1342 106.85 575.732 444.399
2498 0 110.156 12.1918 1343 107.996 576.1 442.975
2499 0 114.161 13.1306 1499 105.424 575.855 442.712
2500 0 114.128 11.9252 1361 109.988 576.22 439.372
2501 0 119.115 12.1983 1453 108.842 576.449 441.336
2502 0 122.153 11.5429 1410 110.496 575.206 439.037
2503 0 127.24 12.6375 1608 108.322 575.298 436.599
2504 0 131.282 12.637 1659 109.409 575.726 430.675
2505 1 72.056 11.9074 858 106.239 575.115 461.819
2506 0 77.1502 12.3136 950 106.984 576.423 458.648
2507 0 81.0691 13.4206 1088 106.351 576.681 457.87
2508 0 84.0778 13.5945 1143 106.058 576.717 455.027
2509 0 84.1394 13.6084 1145 107.393 576.645 454.228
2510 0 88.131 12.0049 1058 111.062 576.64 452.938
2511 0 92.1087 13.2235 1218 108.053 576.649 453.345
2512 0 95.1944 13.4672 1282 108.424 576.31 451.576
2513 0 95.1117 12.9847 1235 111.611 576.172 449.326
2514 0 98.1798 12.4466 1222 112.242 576.604 449.236
2515 0 102.106 12.5262 1279 113.254 576.165 444.64
2516 0 105.079 13.1426 1381 113.564 575.733 445.154
2517 0 108.16 12.7496 1379 114.376 575.346 442.942
2518 0 113.169 13.6433 1544 111.87 575.917 442.889
2519 0 115.139 13.5923 1565 113.576 575.073 444.151
2520 0 118.166 13.7773 1628 114.762 575.47 441.081
2521 0 121.129 13.5971 1647 115.49 574.639 439.537
2522 0 124.28 11.9569 1486 119.006 574.981 438.125
2523 0 123.118 11.225 1382 119.19 575.386 427.776
2524 0 127.246 10.853 1381 119.015 575.773 425.84
2525 0 135.246 12.3922 1676 116.335 575.292 423.76
2526 0 140.174 11.5071 1613 119.444 575.002 425.824
2527 1 77.1498 9.38434 724 115.126 576.536 458.044
2528 0 77.1038 10.0644 776 115.54 576.216 454.278
2529 0 81.0359 11.4024 924 112.067 577.057 453.187
2530 0 85.185 11.2226 956 107.418 576.654 458.195
2531 0 86.1259 10.4382 899 110.335 576.673 456.904
2532 0 90.1182 11.3518 1023 110.258 576.813 452.307
2533 0 91.1486 11.3112 1031 110.528 576.499 453.082
2534 0 95.1994 12.395 1180 109.391 577.14 450.093
2535 0 98.1812 11.876 1166 110.614 576.442 447.69
2536 0 101.217 12.2213 1237 110.867 576.469 445.301
2537 0 105.181 12.9206 1359 109.819 576.823 444.912
2538 0 106.152 11.8698 1260 113.367 576.525 445.54
2539 0 109.156 13.5403 1478 113.094 576.518 443.095
2540 0 113.32 12.0014 1360 116.936 576.437 437.484
2541 0 117.425 12.5868 1478 115.36 576.232 437.97
2542 0 118.341 11.771 1393 117.548 576.45 435.719
2543 0 123.336 11.3105 1395 118.117 576.214 433.695
2544 1 69.2115 10.8219 749 106.163 576.924 464.976
2545 0 71.254 10.9608 781 107.058 576.859 462.252
2546 0 73.1529 12.2073 893 106.381 577.09 461.569
2547 0 77.231 12.5468 969 104.976 577.772 460.861
2548 0 76.2307 10.9798 837 111.362 577.992 457.153
2549 0 80.1779 12.0357 965 108.275 577.209 457.674
2550 0 81.2736 11.4182 928 111.193 577.048 454.734
2551 0 85.3049 12.2736 1047 109.954 577.173 453.274
2552 0 86.2467 11.6062 1001 113.83 577.225 451.738
2553 0 93.2018 13.1328 1224 108.883 577.06 452.297
2554 0 94.1844 12.6773 1194 111.626 577.1 452.693
2555 0 95.1861 12.0081 1143 115.385 577.491 449.503
2556 0 98.1569 12.7958 1256 114.848 576.06 448.366
2557 0 102.215 12.7085 1299 115.861 576.244 445.192
2558 0 105.186 12.4541 1310 115.744 576.621 444.939
2559 0 108.25 11.298 1223 118.143 576.128 442.802
2560 0 111.157 12.9546 1440 115.045 576.569 441.856
2561 0 112.137 11.9586 1341 117.908 576.802 439.861
2562 0 116.236 12.5521 1459 124.127 576.087 437.91
2563 0 121.167 12.652 1533 125.145 575.748 437.062
2564 0 124.175 12.1119 1504 124.996 575.785 434.863
2565 0 128.169 12.2651 1572 123.863 576.14 431.503
2566 0 133.215 12.2659 1634 125.162 575.584 427.424
2567 0 139.474 12.5543 1751 123.5 574.966 424.63
2568 0 142.292 12.4884 1777 124.466 574.559 421.895
2569 0 147.285 12.7372 1876 124.593 575.627 420.153
2570 0 153.238 13.267 2033 125.645 575.281 414.806
2571 1 85.1447 11.0283 939 121.366 575.541 449.712
2572 0 90.1386 12.0925 1090 117.039 575.65 450.461
2573 0 93.2192 11.9396 1113 117.248 575.765 447.302
2574 0 93.2009 12.5964 1174 117.309 576.018 445.703
2575 0 97.2229 12.2193 1188 117.859 575.923 443.815
2576 0 102.141 12.4632 1273 117.021 575.573 443.492
2577 0 105.183 12.6446 1330 116.519 575.489 443.488
2578 0 109.282 12.6553 1383 116.333 575.644 441.547
2579 0 112.287 12.5838 1413 115.746 575.24 440.088
2580 0 115.175 11.6866 1346 119.263 575.9 436.948
2581 0 118.165 12.1271 1433 118.476 575.275 434.628
2582 0 122.162 12.0741 1475 117.532 576.181 437.644
2583 0 125.245 12.5913 1577 115.777 576.276 435.626
2584 0 129.313 11.9478 1545 118.961 576.389 429.881
2585 0 135.232 12.778 1728 115.234 575.969 432.443
2586 0 137.264 12.4286 1706 116.304 575.309 430.739
2587 0 143.304 12.3444 1769 117.57 575.646 424.041
2588 0 147.488 12.801 1888 116.814 575.75 424.368
2589 0 154.41 12.5315 1935 118.056 575.737 422.089
2590 0 157.293 11.5707 1820 121.585 575.722 416.451
2591 0 162.325 13.0171 2113 119.37 575.453 414.605
2592 0 169.26 12.8324 2172 119.19 575.468 412.825
2593 0 174.415 13.0264 2272 120.734 575.819 406.394
2594 0 178.355 12.6882 2263 123.706 575.696 405.664
2595 0 183.568 13.1123 2407 123.218 575.781 403.674
2596 0 190.322 14.0026 2665 121.809 575.58 401.018
2597 0 197.285 14.5931 2879 123.077 575.646 396.325
2598 0 204.311 13.9542 2851 123.264 575.163 393.987
2599 0 209.264 14.1735 2966 122.934 575.084 389.965
2600 0 215.323 13.8304 2978 124.796 575.415 386.364
2601 0 222.448 13.9044 3093 125.188 575.438 384.823
2602 1 152.206 12.3123 1874 127.731 574.725 409.12
2603 0 159.258 13.2176 2105 124.66 575.484 407.15
2604 0 162.355 13.064 2121 125.607 574.994 408.307
2605 0 170.388 11.1452 1899 127.427 575.412 400.967
2606 0 175.385 12.9145 2265 122.078 575.591 398.284
2607 0 180.271 13.1192 2365 127.293 575.471 393.336
2608 0 183.25 11.6398 2133 133.56 575.332 386.582
2609 0 191.422 12.7153 2434 128.351 575.658 385.235
2610 0 198.469 12.2034 2422 127.087 575.526 386.277
2611 0 207.544 13.4236 2786 123.268 575.511 386.451
2612 1 147.314 11.3092 1666 123.477 575.799 415.408
2613 0 153.327 12.9136 1980 119.236 575.613 413.414
2614 0 155.442 11.4384 1778 125.05 576.118 406.582
2615 0 159.502 11.6363 1856 125.314 576.154 403.947
2616 0 162.354 11.093 1801 128.741 575.815 401.688
2617 0 168.177 11.5592 1944 128.32 575.25 396.156
2618 0 174.314 12.5464 2187 124.417 575.92 399.665
2619 0 181.266 12.4458 2256 124.562 575.577 396.236
2620 0 185.281 11.55 2140 126.959 575.275 386.071
2621 0 186.398 11.8403 2207 126.949 575.389 386.68
2622 1 198.254 12.4235 2463 124.236 575.203 381.121
2623 0 203.409 13.2541 2696 122.277 575.419 379.27
2624 0 213.33 14.6768 3131 117.584 574.643 372.66
2625 1 171.547 7.63056 1309 124.925 574.884 412.052
2626 0 165.176 11.3273 1871 123.242 574.73 397.149
2627 1 177.22 13.0008 2304 121.022 575.562 408.183
2628 0 181.153 12.6192 2286 123.547 576.056 400.252
2629 0 189.187 13.1193 2482 118.274 576.03 403.305
2630 0 195.269 12.1934 2381 122.712 575.326 397.66
2631 0 200.156 12.9249 2587 123.349 574.728 392.625
2632 0 205.205 13.1137 2691 122.187 575.317 393.693
2633 0 212.241 12.6177 2678 124.291 574.999 391.698
2634 0 213.275 12.3549 2635 125.098 574.8 382.23
2635 0 224.277 14.4152 3233 120.487 573.527 377.101
2636 0 225.245 12.3954 2792 124.495 573.883 366.383
2637 0 236.393 13.321 3149 122.003 573.697 365.637
2638 0 240.406 9.9332 2388 129.63 573.319 384.312
2639 0 240.414 9.55434 2297 131.202 572.543 375.076
2640 1 16.0044 3.87393 62 86.3871 574.258 494.774
2641 0 15.0033 6.93179 104 84.2981 573.817 492.029
2642 0 16.0356 3.8664 62 86.9839 574.452 490.839
2643 0 19.1832 5.36927 103 88.8447 574.388 494.175
2644 0 19.0183 2.62905 50 96.3 572.32 492.94
2645 0 10.0016 5.79909 58 90.3621 571.776 496.138
2646 1 72.4092 11.5731 838 103.588 572.142 467.235
2647 0 74.3188 10.4146 774 108.247 572.393 464.253
2648 0 73.401 10.2587 753 109.623 572.305 462.441
2649 0 76.3683 11.2612 860 107.303 572.491 462.863
2650 0 78.3711 11.1393 873 108.585 572.37 461.478
2651 0 76.3407 10.9116 833 105.631 572.627 463.964
2652 0 80.2914 11.5704 929 104.932 572.269 461.659
2653 0 82.5327 11.0502 912 107.479 572.247 457.644
2654 1 102.514 15.8807 1628 87.4545 572.574 432.458
2655 0 92.586 14.5054 1343 98.2115 572.717 431.415
2656 0 96.3743 16.1869 1560 93.7583 571.928 417.822
2657 0 89.4587 11.0666 990 112.701 571.482 408.737
2658 0 90.2443 11.0367 996 112.463 571.646 418.424
2659 0 95.3549 11.6512 1111 109.52 572.7 424.616
2660 0 99.2775 12.6413 1255 105.273 572.154 432.616
2661 0 103.501 15.9613 1652 94.6102 572.677 436.041
2662 0 106.344 15.2805 1625 96.44 573.347 435.679
2663 0 109.476 13.9574 1528 99.7768 573.091 435.931
2664 0 112.492 14.9077 1677 97.9153 573.056 437.061
2665 0 117.275 15.3144 1796 97.4009 572.597 429.086
2666 0 118.311 15.3324 1814 98.8964 571.927 426.383
2667 0 120.239 14.8122 1781 100.768 571.874 424.683
2668 0 123.371 14.12 1742 102.289 572.207 426.386
2669 0 126.321 14.954 1889 100.756 572.391 424.758
2670 0 129.214 13.4892 1743 105.182 572.832 420.474
2671 1 75.2896 11.9007 896 103.536 572.978 450.757
2672 0 79.3512 12.1863 967 102.725 573.38 450.012
2673 0 82.1991 11.5208 947 104.244 572.374 448.38
2674 0 83.3475 12.2019 1017 103.041 573.526 447.242
2675 0 86.2283 12.6757 1093 101.666 572.841 447.636
2676 0 87.1513 12.1972 1063 103.639 573.291 447.484
2677 0 89.1786 12.189 1087 104.151 572.979 446.445
2678 0 92.1883 14.5029 1337 98.8504 573.368 446.452
2679 0 92.118 12.5383 1155 101.917 573.457 443.611
2680 0 98.2787 13.2073 1298 99.0732 572.862 445.008
2681 0 99.1593 13.1203 1301 102.713 572.488 446.59
2682 0 103.239 12.8924 1331 103.065 573.007 445.623
2683 0 105.162 11.9054 1252 105.028 572.296 440.637
2684 0 110.132 13.7925 1519 100.927 573.053 433.665
2685 1 60.1279 10.4777 630 97.7508 572.53 460.651
2686 0 61.1102 10.3256 631 99.0967 572.418 462.829
2687 0 64.0607 11.3174 725 94.3959 572.305 464.644
2688 0 65.0811 9.81852 639 92.0313 573.365 466.49
2689 0 69.21 11.0533 765 89.7098 573.233 465.685
2690 0 69.092 11.4196 789 89.5463 573.542 464.189
2691 0 69.0788 11.0888 766 90.9321 574.218 463.219
2692 0 69.1557 10.9174 755 91.6437 575.037 461.532
2693 0 71.2115 11.0235 785 92.2713 574.144 456.762
2694 0 71.1679 10.4541 744 94.5954 574.284 455.847
2695 0 77.1896 11.6726 901 92.1931 573.552 456.325
2696 0 81.1933 11.097 901 93.4795 573.481 455.969
2697 0 84.1496 12.0856 1017 91.6175 573.975 456.507
2698 0 87.1905 12.0655 1052 92.6787 574.048 453.202
2699 0 87.1711 10.8866 949 95.4953 574.149 453.257
2700 0 90.2434 11.0922 1001 96.8162 574.201 447.745
2701 0 93.1363 11.4671 1068 96.4307 573.802 450.387
2702 0 94.1574 10.5674 995 99.9719 574.255 446.194
2703 0 99.1852 10.2838 1020 101.187 573.755 448.926
2704 0 100.125 11.2959 1131 101.057 574.311 445.313
2705 0 104.097 11.7582 1224 98.2394 574.179 448.059
2706 0 105.162 10.6978 1125 102.487 574.266 440.976
2707 0 110.157 11.7923 1299 98.689 574.062 445.149
2708 0 112.087 11.3127 1268 100.749 574.498 439.551
2709 0 117.293 12.1917 1430 98.8972 574.133 438.327
2710 0 120.149 10.8116 1299 101.303 574.23 440.122
2711 0 123.223 11.4021 1405 101.308 574.502 432.857
2712 0 127.219 10.5409 1341 103.381 574.588 430.05
2713 0 131.454 11.8596 1559 102.618 574.476 431.353
2714 0 137.34 12.4655 1712 102.486 574.131 424.842
2715 0 141.434 11.9702 1693 103.203 574.092 424.481
2716 0 145.477 12.5037 1819 105.288 573.965 421.587
2717 0 149.268 12.0254 1795 106.689 575.133 417.715
2718 1 86.1819 11.5337 994 101.019 575.409 446.792
2719 0 86.1715 11.3379 977 102.77 573.451 446.97
2720 0 91.1558 11.7601 1072 99.3731 573.52 452.565
2721 0 92.1872 10.7282 989 101.403 573.397 452.721
2722 0 94.1103 12.1134 1140 99.4623 573.057 448.987
2723 0 98.2626 10.7772 1059 101.764 573.107 443.924
2724 0 99.1233 9.99765 991 103.43 573.492 442.288
2725 0 101.165 10.3989 1052 102.818 573.34 443.97
2726 0 104.147 11.0805 1154 100.295 573.725 441.925
2727 0 109.2 10.3296 1128 101.109 573.199 441.507
2728 0 105.183 9.78299 1029 104.25 572.825 430.539
2729 0 111.235 9.7991 1090 103.178 572.68 430.439
2730 0 121.221 11.1284 1349 99.6827 573.956 432.97
2731 0 125.174 12.0313 1506 98.2424 573.646 428.878
2732 0 131.379 12.6885 1667 95.5327 573.279 432.964
2733 0 130.21 12.1727 1585 98.2757 573.37 422.271
2734 0 136.293 12.6346 1722 95.5528 573.671 425.677
2735 0 141.271 11.7859 1665 97.9652 573.58 418.836
2736 0 144.288 12.3364 1780 97.5416 573.784 415.152
2737 0 152.366 11.6102 1769 98.4579 573.408 412.306
2738 0 154.384 11.6916 1805 100.372 573.966 409.965
2739 0 153.407 11.5379 1770 102.908 574.507 402.258
2740 0 165.326 12.6538 2092 99.2658 574.294 404.511
2741 0 162.345 10.182 1653 105.53 574.421 404.256
2742 0 173.343 10.7705 1867 104.567 573.98 399.2
2743 0 177.262 11.9146 2112 102.993 573.971 395.963
2744 0 180.255 11.7445 2117 104.368 574.214 390.808
2745 0 189.472 12.3185 2334 103.475 574.495 384.11
2746 0 193.325 10.8315 2094 107.928 574.791 381.205
2747 1 207.517 12.505 2595 104.422 574.684 384.03
2748 0 212.427 12.7715 2713 104.6 574.844 383.261
2749 0 219.494 12.2828 2696 105.802 574.631 379.05
2750 0 229.513 13.9861 3210 102.771 574.964 372.427
2751 0 228.411 12.2148 2790 107.9 574.553 366.471
2752 1 240.476 12.8329 3086 107.113 575.02 363.612
2753 0 244.505 11.8034 2886 110.149 574.612 359.256
2754 1 260.577 13.0787 3408 107.105 574.902 360.351
2755 0 269.366 13.0566 3517 108.668 574.516 355.723
2756 0 272.646 12.2283 3334 108.693 574.12 366.023
2757 0 271.367 9.67326 2625 111.695 574.665 368.765
2758 0 271.615 9.87795 2683 107.949 574.872 384.958
2759 0 271.731 10.4184 2831 111.36 574.733 370.252
2760 1 243.465 13.4311 3270 106.997 574.219 369.537
2761 0 251.5 13.6461 3432 107.299 574.507 369.478
2762 0 259.323 14.6381 3796 108.526 574.707 361.589
2763 0 266.502 14.0637 3748 110.902 573.665 357.093
2764 0 276.774 14.7268 4076 109.129 573.536 353.431
2765 0 285.632 13.8045 3943 111.717 573.933 345.527
2766 1 64.0987 10.281 659 90.7724 574.514 461.948
2767 0 67.2876 10.3585 697 100.265 573.11 463.174
2768 0 67.2876 10.4328 702 131.403 573.104 463.067
2769 0 70.1944 10.1718 714 102.957 573.762 463.903
2770 0 75.2287 12.0566 907 99.011 573.659 462.112
2771 0 75.1602 10.1117 760 104.05 574.534 461.496
2772 0 78.145 9.82788 768 103.087 574.086 462.598
2773 0 79.1778 10.7227 849 103.603 574.025 460.477
2774 0 84.1344 11.5173 969 101.625 573.815 457.991
2775 0 87.1112 10.125 882 103.591 573.696 456.154
2776 0 88.1921 10.5565 931 104.999 573.524 455.376
2777 0 91.3707 11.3384 1036 100.542 574.285 453.844
2778 0 92.3796 11.0198 1018 103.398 575.154 452.829
2779 0 99.2673 11.2021 1112 97.9344 574.478 453.397
2780 0 100.309 10.7168 1075 98.9274 574.515 445.568
2781 0 104.19 9.64582 1005 96.61 574.383 443.547
2782 1 57.1195 9.01618 515 91.7942 575.961 469.905
2783 0 61.1064 11.2263 686 84.1283 576.23 470.38
2784 0 64.2205 11.2892 725 84.1103 573.583 470.018
2785 0 66.119 13.5211 894 79.9329 574.111 471.03
2786 0 68.1131 11.8479 807 83.8972 573.762 467.087
2787 0 69.1894 12.6464 875 83.04 574.41 466.951
2788 0 71.1768 12.757 908 83.3447 574.457 464.534
2789 0 73.107 10.5051 768 88.043 574.538 462.422
2790 0 72.1494 10.5198 759 89.4098 575.588 463.278
2791 0 74.1565 11.4488 849 88.1178 574.728 464.485
2792 0 76.2413 11.621 886 88.86 574.911 462.939
2793 0 79.2545 11.8479 939 89.1949 574.883 462.309
2794 0 80.1539 12.4635 999 88.3904 575.439 462.307
2795 0 82.1588 11.9159 979 90.5649 575.498 457.604
2796 0 86.1818 12.9262 1114 88.6643 575.478 458.572
2797 0 88.2101 12.6176 1113 90.734 575.13 455.21
2798 0 86.1632 11.9192 1027 93.4031 575.092 455.881
2799 0 89.1339 11.7239 1045 95.5167 575.316 453.896
2800 0 94.1235 12.8767 1212 93.5116 575.056 453.657
2801 0 96.162 12.2814 1181 95.5927 575.042 450.115
2802 0 97.1384 12.3741 1202 98.47 575.193 446.519
2803 0 102.252 12.6844 1297 97.9144 575.365 447.866
2804 0 104.21 11.7935 1229 101.103 575.151 444.683
2805 0 106.21 10.9311 1161 103.062 574.91 443.158
2806 0 111.314 11.6158 1293 102.253 574.623 441.159
2807 0 113.189 11.9358 1351 102.22 574.83 438.809
2808 0 117.239 12.2996 1442 101.885 575.207 435.645
2809 0 118.224 11.419 1350 103.376 574.948 436.098
2810 1 66.0867 8.51911 563 95.7176 575.565 465.139
2811 0 71.2043 9.76064 695 94.6763 574.76 460.813
2812 0 71.087 9.63608 685 96.4847 575.038 459.454
2813 0 74.0981 10.3781 769 93.7022 575.576 464.438
2814 0 78.124 8.88331 694 94.6311 575.375 463.826
2815 0 80.185 11.4361 917 91.2715 575.266 459.007
2816 0 82.1063 11.0101 904 92.2931 575.626 458.167
2817 0 84.1687 10.372 873 93.8614 575.03 454.475
2818 0 85.148 9.28971 791 95.3856 575.204 454.541
2819 0 89.1288 12.2968 1096 90.6095 574.567 452.551
2820 0 94.1344 12.3334 1161 89.7683 574.854 452.565
2821 0 97.1286 12.4886 1213 89.7214 574.585 450.278
2822 0 100.146 11.8626 1188 91.7222 574.778 448.698
2823 0 102.147 12.7267 1300 92.0169 574.754 446.27
2824 0 103.193 12.7238 1313 93.2323 574.28 447.091
2825 0 110.101 12.2706 1351 93.1488 574.277 442.961
2826 0 114.417 12.673 1450 93.8669 574.325 443.979
2827 1 64.1988 10.7946 693 88.1328 574.994 464.95
2828 0 67.2635 10.4068 700 88.2529 574.85 462.816
2829 0 67.0556 9.63379 646 89.5743 574.732 462.856
2830 0 72.1706 11.7084 845 85.9396 574.944 465.073
2831 0 73.1405 10.8148 791 87.8483 574.766 464.277
2832 0 75.2226 11.3663 855 87.7965 574.626 460.926
2833 0 76.2004 11.8372 902 87.7916 574.787 459.246
2834 0 80.2725 10.6388 854 88.9087 574.789 460.701
2835 0 85.1411 10.6999 911 88.7025 574.952 458.718
2836 0 87.1739 11.0354 962 89.5613 574.857 457.457
2837 0 89.3128 10.8159 966 90.7567 574.915 455.963
2838 0 91.1623 11.7373 1070 90.3243 574.371 453.997
2839 0 92.1599 10.829 998 93.8076 574.457 451.725
2840 0 96.1401 10.7967 1038 93.5231 574.528 450.913
2841 0 96.1426 10.6092 1020 95.6049 574.469 446.185
2842 0 102.283 12.4752 1276 93.3378 574.278 448.748
2843 0 102.151 10.0439 1026 99.4464 574.179 446.078
2844 0 107.252 10.8156 1160 98.9569 574.116 443.822
2845 0 110.325 11.2033 1236 97.8794 573.345 442.467
2846 0 114.198 9.52727 1088 100.882 573.67 441.546
2847 1 64.1373 9.26139 594 91.3401 574.576 467.724
2848 0 67.1687 10.1238 680 89.3191 574.131 463.556
2849 0 71.1345 9.84051 700 90.3929 573.61 465.241
2850 0 72.1572 10.588 764 88.7029 573.688 460.651
2851 0 75.0461 11.5929 870 86.6885 573.9 461.166
2852 0 77.0899 9.33975 720 90.9028 573.9 460.133
2853 0 80.1768 10.9882 881 88.3008 573.888 459.327
2854 0 84.3652 12.6593 1068 85.5599 573.677 457.005
2855 0 87.2512 11.8738 1036 87.6728 573.402 453.848
2856 0 89.0722 10.6655 950 91.4926 573.898 452.547
2857 0 91.0891 11.1429 1015 92.0374 574.251 453.88
2858 0 93.0869 10.2485 954 95.1688 573.609 449.801
2859 0 98.1499 10.9119 1071 94.775 574.003 450.43
2860 0 102.136 11.4162 1166 94.6046 573.54 448.544
2861 0 103.324 11.4882 1187 96.0396 573.133 449.981
2862 0 102.131 10.2809 1050 100.259 573.184 442.673
2863 0 108.275 11.7109 1268 97.0852 573.7 444.298
2864 0 111.141 11.445 1272 99.3491 573.027 440.37
2865 1 61.2132 9.42608 577 96.9151 573.262 468.745
2866 0 61.1808 10.3137 631 100.246 572.743 466.552
2867 0 60.0779 11.2687 677 99.9321 573.36 465.174
2868 0 66.27 11.604 769 97.8817 573.29 464.72
2869 0 69.2037 11.43 791 97.9153 573.759 462.661
2870 0 72.1761 13.0098 939 94.2002 572.67 464.434
2871 0 72.0854 10.1408 731 98.1628 573.424 462.026
2872 0 76.0834 12.2497 932 101.076 573.386 461.446
2873 0 77.2075 11.5015 888 103.271 573.917 460.846
2874 0 77.2075 11.3979 880 123.201 574.914 460.905
2875 0 84.1552 12.3106 1036 94.5386 574.164 459.989
2876 0 86.0733 14.2321 1225 93.4988 574.307 457.567
2877 0 87.0893 12.1714 1060 98.3047 574.627 460.025
2878 0 91.1018 12.1073 1103 99.7761 574.001 457.112
2879 0 91.1412 12.5849 1147 100.727 573.684 451.757
2880 0 94.1317 11.8451 1115 103.384 574.083 452.467
2881 0 98.1024 13.1291 1288 101.87 573.671 448.31
2882 0 101.135 13.7835 1394 101.357 573.704 450.576
2883 0 103.153 11.9047 1228 106.859 574.343 446.447
2884 0 108.092 13.47 1456 103.85 573.775 447.909
2885 0 108.108 13.0332 1409 107.714 573.818 444.933
2886 0 113.167 13.7407 1555 105.888 573.648 444.677
2887 0 117.428 13.2081 1551 108.868 573.392 441.013
2888 0 119.098 13.8793 1653 108.837 572.748 439.635
2889 0 124.144 13.5971 1688 110.285 573.533 439.963
2890 0 127.205 13.207 1680 112.535 573.439 435.432
2891 0 131.197 12.607 1654 113.409 573.054 437.903
2892 0 135.212 13.6452 1845 112.468 573.082 434.076
2893 1 75.1481 10.3928 781 114.676 572.937 463.695
2894 0 79.1203 12.2472 969 110.722 572.676 460.226
2895 0 83.0589 13.0991 1088 111.133 572.692 459.198
2896 0 85.0885 13.4096 1141 111.066 572.362 457.665
2897 0 88.1667 13.8601 1222 111.052 572.393 457.596
2898 0 88.0787 12.4094 1093 112.589 573.446 457.688
2899 0 90.1128 13.128 1183 109.807 573.891 453.538
2900 0 95.0758 13.6417 1297 108.282 574.295 453.282
2901 0 98.0829 13.3764 1312 109.906 574.207 453.098
2902 0 97.1668 13.3996 1302 111.151 573.648 451.821
2903 0 103.098 13.4629 1388 110.156 574.257 450.347
2904 0 105.094 12.8362 1349 112.572 574.388 449.114
2905 0 108.189 13.1251 1420 113.017 574.051 447.692
2906 0 109.134 13.717 1497 113.138 574.283 448.317
2907 0 110.106 12.5334 1380 117.517 574.317 443.899
2908 0 115.087 12.5296 1442 116.295 574.125 445.638
2909 0 120.228 12.9587 1558 116.164 574.076 440.954
2910 0 123.226 12.5623 1548 116.868 573.7 440.095
2911 0 128.182 13.5823 1741 114.709 573.382 438.08
2912 0 132.238 13.4304 1776 115.255 573.265 433.14
2913 0 140.169 13.3768 1875 119.65 573.752 430.13
2914 1 82.1147 11.7397 964 110.032 573.659 458.835
2915 0 84.165 12.3448 1039 110.273 574.039 456.736
2916 0 86.1028 12.1947 1050 115.391 575.363 453.859
2917 0 92.1159 13.7761 1269 110.716 574.99 453.152
2918 0 93.0654 12.6255 1175 115.003 575.24 451.312
2919 0 95.1419 13.2854 1264 113.256 574.979 451.419
2920 0 98.1828 13.3221 1308 112.508 574.2 449.866
2921 0 101.123 14.161 1432 111.763 574.406 450.54
2922 0 102.072 13.226 1350 115.741 574.543 443.631
2923 0 104.116 12.5821 1310 117.005 575.165 444.779
2924 0 107.159 12.7848 1370 116.504 574.72 441.267
2925 0 110.094 12.4257 1368 117.414 574.365 437.128
2926 0 117.224 13.8965 1629 113.867 574.151 439.106
2927 0 120.17 12.3908 1489 117.243 574.426 437.942
2928 0 123.119 13.4829 1660 115.433 574.069 432.737
2929 0 127.154 13.582 1727 114.895 573.644 432.499
2930 0 127.207 12.7902 1627 118.083 573.753 425.725
2931 1 73.0735 9.67519 707 113.986 573.881 452.56
2932 0 76.1484 11.018 839 109.015 572.384 452.259
2933 0 82.1742 10.782 886 99.237 573.405 455.181
2934 0 81.0605 11.0041 892 101.835 573.825 452.278
2935 0 82.116 11.3133 929 101.448 573.623 451.301
2936 0 85.1231 10.9488 932 103.365 573.917 450.882
2937 0 87.1293 10.5131 916 104.331 573.271 448.861
2938 0 90.0867 11.2447 1013 103.426 573.089 445.781
2939 0 93.2012 11.3196 1055 102.9 573.528 448.104
2940 0 96.2333 10.9525 1054 104.881 573.837 446.37
2941 0 99.1197 13.1155 1300 102.432 573.781 443.035
2942 0 101.258 11.4757 1162 104.831 573.956 445.377
2943 0 106.235 12.5948 1338 102.632 573.59 441.209
2944 0 109.158 10.6909 1167 106.356 574.099 442.572
2945 0 111.09 11.4052 1267 105.152 574.164 438.74
2946 0 116.184 12.3252 1432 102.459 574.036 436.827
2947 0 116.262 9.33241 1085 109.111 573.915 435.271
2948 0 123.127 11.5896 1427 104.622 573.882 436.569
2949 0 127.092 12.4871 1587 104.967 572.931 435.561
2950 0 131.351 10.4453 1372 108.345 572.87 429.894
2951 0 135.269 12.1535 1644 105.446 573.273 430.262
2952 0 140.154 12.9072 1809 104.425 572.968 424.511
2953 0 145.225 11.5751 1681 106.641 573.102 421.207
2954 0 147.213 11.8332 1742 107.09 573.298 418.924
2955 0 152.342 12.0584 1837 106.643 573.136 416.745
2956 0 157.407 11.0414 1738 108.295 573.116 416.215
2957 0 164.538 12.7751 2102 104.97 572.994 415.289
2958 0 163.4 9.92044 1621 113.046 573.173 407.175
2959 0 171.448 12.1903 2090 108.739 573.415 408.997
2960 0 173.319 12.353 2141 109.063 573.755 407.98
2961 0 179.338 11.4142 2047 111.432 573.84 403.158
2962 0 183.229 11.3137 2073 112.719 573.969 399.346
2963 0 192.362 11.208 2156 93.244 573.805 397.496
2964 0 196.305 11.6961 2296 113.716 572.477 386.07
2965 0 202.277 11.8106 2389 113.864 572.647 387.175
2966 0 207.355 9.79963 2032 119.088 572.48 378.139
2967 0 214.211 10.1302 2170 119.751 573.04 374.054
2968 1 46.0454 9.46892 436 101.227 572.892 473.406
2969 0 49.0535 10.0095 491 101.538 574.847 472.976
2970 0 49.0908 9.81853 482 104.502 575.033 471.45
2971 0 51.136 12.3005 629 100.289 574.709 472.437
2972 0 54.1656 10.4679 567 103.397 574.518 471.418
2973 0 53.1741 8.40635 447 109.119 574.235 471.555
2974 0 58.3066 10.4276 608 103.762 573.98 472.23
2975 0 56.0483 9.97355 559 104.812 573.401 472.494
2976 0 59.0374 10.3324 610 104.87 573.872 471.397
2977 0 60.0368 11.0099 661 105.103 574.006 469.017
2978 0 63.025 11.5351 727 104.564 573.622 469.371
2979 0 66.0338 11.6001 766 104.608 573.624 468.734
2980 0 66.054 12.4292 821 104.861 573.719 468.324
2981 0 68.0672 11.4299 778 106.369 573.887 468.485
2982 0 70.0828 12.4282 871 105.382 573.972 466.335
2983 0 71.0343 10.9384 777 110.17 574.104 464.725
2984 0 72.0651 12.8217 924 105.972 573.657 465.721
2985 0 75.029 12.4219 932 106.682 573.929 464.842
2986 0 75.1063 11.5836 870 109.009 574.048 463.938
2987 0 79.2681 12.8677 1020 110.727 572.452 460.291
2988 0 83.3162 13.1667 1097 109.348 572.188 459.827
2989 0 84.2109 13.6087 1146 110.116 572.232 457.466
2990 0 86.2983 13.1289 1133 111.79 572.306 456.878
2991 0 89.3586 12.724 1137 111.26 572.908 457.441
2992 1 51.1206 10.5437 539 105.709 573.751 476.44
2993 0 52.2138 11.3955 595 100.849 573.092 478.701
2994 0 55.1328 12.4064 684 101.404 573.038 464.225
2995 0 58.0773 12.9999 755 100.958 573.094 464.502
2996 0 59.0364 12.704 750 102.979 573.056 456.028
2997 0 61.0299 13.7474 839 101.249 573.752 458.415
2998 0 61.1252 11.8118 722 107.245 573.493 457.669
2999 0 63.1005 13.5181 853 103.465 573.346 455.855
3000 0 64.0648 14.0171 898 103.185 573.038 455.792
3001 0 65.0771 12.877 838 106.248 573.41 457.005
3002 0 66.1109 13.8101 913 105.331 572.814 459.541
3003 0 68.0542 14.0329 955 105.223 573.38 463.197
3004 0 68.0812 13.5133 920 108.98 573.101 462.242
3005 0 69.0524 13.0625 902 110.371 573.493 462.119
3006 0 73.0573 14.2491 1041 106.094 573.382 463.378
3007 0 73.1438 14.0408 1027 107.979 573.388 466.836
3008 0 75.0911 13.5968 1021 110.918 572.444 463.822
3009 0 76.0473 13.2286 1006 111.889 572.824 464.487
3010 0 78.0507 14.2215 1110 111.196 572.681 460.339
3011 0 81.0784 13.8508 1123 111.711 573.025 460.294
3012 0 85.1775 13.8652 1181 111.509 573.064 459.595
3013 0 87.1354 14.2078 1238 110.96 573.576 458.287
3014 0 90.0635 15.2115 1370 109.247 572.963 456.169
3015 0 93.1866 14.8626 1385 110.384 572.674 456.457
3016 0 94.1228 13.748 1294 114.148 572.785 454.883
3017 0 97.1875 13.6746 1329 114.096 572.02 456.047
3018 0 99.1005 12.8456 1273 116.273 572.422 453.957
3019 1 59.1107 14.0922 833 108.661 572.67 472.569
3020 0 58.1318 12.9361 752 113.803 572.529 471.695
3021 0 60.1865 13.2422 797 115.202 572.144 473.261
3022 0 62.126 13.1346 816 114.776 572.494 472.244
3023 0 64.3361 12.7611 821 115.792 572.129 470.213
3024 0 67.1072 14.1267 948 112.209 572.379 468.692
3025 0 69.1339 13.1195 907 114.428 572.492 468.385
3026 0 72.0819 14.2061 1024 112.108 572.124 468.192
3027 0 74.2808 14.3779 1068 110.94 572.573 466.274
3028 0 79.1803 13.766 1090 111.95 573.305 466.354
3029 0 80.1705 13.3216 1068 114.381 572.99 464.011
3030 0 82.3341 13.8096 1137 112.866 572.677 459.76
3031 0 84.1994 12.9336 1089 105.43 572.727 459.661
3032 0 85.1441 12.6844 1080 106.704 572.504 461.035
3033 0 89.0284 12.5466 1117 106.761 572.575 460.343
3034 0 93.1355 12.9918 1210 105.289 572.489 457.939
3035 1 53.1378 12.8534 683 104.772 573.102 477.96
3036 0 54.1712 12.2205 662 106.583 572.4 477.65
3037 0 54.2117 11.9531 648 107.403 573.009 477.051
3038 0 58.0236 13.4945 783 102.617 572.917 476.811
3039 0 58.1441 12.985 755 105.795 573.539 473.935
3040 0 62.0573 12.2951 763 105.488 573.339 473.807
3041 0 64.0404 13.9443 893 102.944 573.236 472.757
3042 0 66.1503 14.2705 944 101.364 573.297 471.168
3043 0 68.0595 13.5029 919 104.063 573.83 468.955
3044 0 72.1043 13.3418 962 104.03 573.465 468.372
3045 0 74.1056 13.4808 999 109.693 573.659 465.781
3046 0 77.2011 14.4946 1119 101.769 573.375 464.223
3047 0 80.19 13.7174 1100 107.809 573.901 464.776
3048 0 78.0957 14.4054 1125 111.602 574.04 464.604
3049 0 80.1491 13.1131 1051 106.637 573.96 463.547
3050 0 81.131 14.3842 1167 111.902 574.328 461.405
3051 0 79.146 12.837 1016 117.939 573.816 461.644
3052 0 79.1188 12.1463 961 119.769 573.438 461.108
3053 0 83.1589 13.4802 1121 116.081 574.12 458.99
3054 0 84.0991 12.735 1071 116.429 573.924 459.771
3055 0 90.083 13.7651 1240 112.106 573.982 458.398
3056 0 91.1581 13.4053 1222 111.4 573.505 460.154
3057 0 95.1339 13.9383 1326 109.972 574.258 455.649
3058 0 99.1795 14.5695 1445 107.085 573.492 453.929
3059 0 102.106 14.3577 1466 107.997 573.091 450.62
3060 0 105.199 13.945 1467 109.425 572.897 449.032
3061 0 106.283 12.702 1350 113.399 573.166 447.512
3062 0 113.421 14.3183 1624 108.444 572.728 445.56
3063 0 117.18 12.6387 1481 111.006 572.606 444.315
3064 1 67.1403 11.2749 757 108.458 572.816 468.256
3065 0 69.1006 11.9391 825 108.579 573.196 466.863
3066 0 71.1522 11.7776 838 111.045 573.093 465.604
3067 0 75.1567 13.0527 981 109.955 572.83 464.699
3068 0 76.1164 12.4152 945 112.061 572.94 466.415
3069 0 77.0671 12.3529 952 113.364 574.296 465.403
3070 0 78.1159 12.0846 944 117.251 574.238 462.647
3071 0 82.0988 12.3632 1015 119.803 574.017 460.69
3072 0 86.1463 12.6413 1089 120.515 573.892 461.382
3073 0 88.1332 13.1959 1163 121.328 574 460.175
3074 1 47.1235 11.1409 525 122.686 573.684 478.505
3075 0 48.1237 11.2834 543 124.801 574.009 477.665
3076 0 49.1513 12.4513 612 124.337 573.869 474.902
3077 0 53.0987 12.8817 684 122.64 573.424 473.884
3078 0 54.0699 13.7785 745 120.428 573.58 476.31
3079 0 55.0262 13.5935 748 123.364 573.631 476.309
3080 0 57.0589 13.6 776 124.914 573.982 474.697
3081 0 59.0308 13.2812 784 126.985 573.445 473.495
3082 0 59.0694 14.1698 837 126.746 574.137 472.977
3083 0 62.1312 13.6485 848 130.368 573.567 470.558
3084 0 61.0292 14.3866 878 131.571 574.073 471.091
3085 0 65.1122 13.3923 872 134.38 573.823 470.135
3086 0 66.0381 14.2191 939 135.54 574.162 468.908
3087 0 68.0669 13.7512 936 139.866 573.49 468.458
3088 0 70.065 14.301 1002 139.625 573.576 466.425
3089 0 71.1231 14.0601 1000 141.554 573.7 465.894
3090 0 73.1603 14.7074 1076 140.79 574.321 464.306
3091 0 74.0739 13.5135 1001 146.154 573.492 462.92
3092 0 78.0667 14.5132 1133 144.613 573.605 462.119
3093 0 78.1514 13.9601 1091 148.724 573.623 460.9
3094 0 82.0701 15.6574 1285 143.54 573.273 459.044
3095 0 84.1054 14.4224 1213 148.462 573.534 457.892
3096 0 88.1794 15.9448 1406 142.514 574.25 457.078
3097 0 92.0792 16.7465 1542 140.506 574.419 455.014
3098 0 95.0474 16.3077 1550 141.315 573.94 454.61
3099 0 96.1342 15.8945 1528 144.525 573.616 452.727
3100 0 100.111 16.3718 1639 143.32 573.988 450.263
3101 0 102.088 16.7797 1713 143.156 573.844 449.516
3102 0 108.092 16.8282 1819 140.469 573.711 448.774
3103 0 111.071 16.2418 1804 142.777 573.546 446.29
3104 1 60.1522 14.2804 859 144.466 573.864 472.111
3105 0 61.1053 14.1232 863 147.937 573.828 469.44
3106 0 65.0958 14.6246 952 144.223 573.84 469.482
3107 0 67.1232 14.0488 943 146.024 573.856 468.74
3108 0 69.1706 14.7751 1022 142.796 573.903 467.459
3109 0 70.1176 14.4614 1014 143.793 573.524 466.236
3110 0 74.2563 14.7597 1096 141.937 573.974 464.02
3111 0 76.1511 14.9308 1137 140.558 573.54 462.765
3112 0 80.1169 14.9032 1194 138.02 573.903 463.859
3113 0 82.1464 14.3281 1177 140.134 573.721 461.816
3114 0 84.2523 14.0768 1186 141.807 574.438 457.464
3115 0 87.0953 14.3636 1251 140.125 574.253 457.683
3116 0 90.2106 13.9784 1261 138.6 573.914 457.986
3117 0 94.1672 13.4548 1267 139.202 573.744 456.944
3118 0 98.1576 15.0269 1475 134.075 573.416 454.176
3119 0 99.2108 14.2122 1410 136.704 573.472 453.203
3120 0 103.224 13.9793 1443 136.367 573.738 449.866
3121 0 103.202 12.1219 1251 136.885 573.874 455.208
3122 0 114.235 13.8224 1579 133.303 573.398 447.969
3123 0 118.214 15.3282 1812 131.21 573.75 444.51
3124 0 123.246 14.11 1739 134.863 574.064 444.879
3125 1 64.0682 13.4544 862 136.099 574.229 469.824
3126 0 68.1176 13.9024 947 133.195 574.5 467.819
3127 0 72.1297 14.4046 1039 130.926 574.435 466.392
3128 0 73.0937 14.6114 1068 130.691 574.228 464.338
3129 0 77.128 15.0918 1164 127.468 574.039 462.819
3130 0 78.1682 14.3409 1121 128.86 574.114 463.244
3131 0 84.1296 15.3335 1290 124.185 574.377 460.102
3132 0 85.1009 15.1937 1293 124.18 574.234 460.678
3133 0 87.1554 13.8832 1210 127.091 574.253 460.384
3134 0 90.1005 14.9389 1346 124.681 574.622 455.746
3135 0 94.141 15.8486 1492 121.202 575.181 455.235
3136 0 97.1742 14.7776 1436 123.472 574.786 456.406
3137 0 101.071 15.0785 1524 122.551 574.348 451.383
3138 0 105.099 14.6243 1537 122.88 574.754 451.682
3139 0 107.236 15.4519 1657 122.831 574.346 448.458
3140 0 111.197 15.4231 1715 122.661 574.505 449.332
3141 0 114.374 14.5488 1664 126.097 574.756 446.666
3142 0 117.207 14.564 1707 126.207 574.613 443.656
3143 0 121.416 15.4098 1871 123.8 574.178 443.374
3144 0 126.378 15.1292 1912 123.799 574.658 441.643
3145 0 133.544 15.0587 2011 122.872 574.915 438.327
3146 0 137.265 14.6942 2017 123.715 574.025 437.054
3147 0 141.479 14.2989 2023 124.453 574.135 434.931
3148 0 147.403 13.6293 2009 126.134 574.45 433.688
3149 1 80.3845 15.4881 1245 123.454 573.933 464.488
3150 0 83.2341 14.2129 1183 127.633 574.198 463.733
3151 0 87.3492 15.833 1383 122.197 573.638 460.828
3152 0 89.3767 15.8319 1415 122.053 573.997 459.074
3153 0 93.2144 15.9525 1487 122.457 573.34 457.195
3154 0 96.5841 16.2863 1573 121.314 573.723 455.957
3155 0 98.5041 16.5475 1630 122.228 573.411 455.985
3156 0 101.522 15.3366 1557 126.13 573.624 453.701
3157 0 105.635 15.0991 1595 127.334 573.537 451.331
3158 0 108.396 15.471 1677 126.841 573.603 448.236
3159 0 113.563 15.3043 1738 126.465 574.03 447.227
3160 0 116.457 15.7397 1833 127.043 573.354 446.266
3161 0 121.515 15.784 1918 127.273 573.346 443.153
3162 0 122.397 14.6164 1789 132.158 573.375 442.132
3163 0 129.49 15.3448 1987 129.668 573.892 436.462
3164 0 136.363 15.4367 2105 128.778 573.629 436.432
3165 0 140.488 14.6347 2056 133.442 573.761 433.253
3166 0 145.585 15.0839 2196 133.66 573.526 429.246
3167 1 54.5419 12.2841 670 145.766 573.461 469.833
3168 0 57.2859 12.9351 741 141.067 573.613 469.306
3169 0 58.4072 13.4059 783 140.627 573.751 465.805
3170 0 60.3011 13.9301 840 139.512 574.354 466.193
3171 0 62.2964 13.9655 870 140.053 573.253 464.91
3172 0 66.1903 13.718 908 139.923 573.851 464.469
3173 0 67.422 13.942 940 139.82 573.354 464.398
3174 0 70.2637 13.5774 954 141.299 573.71 462.936
3175 0 69.2262 13.4631 932 143.997 573.72 461.385
3176 0 73.2553 12.9001 945 144.152 574.208 459.558
3177 0 75.2958 13.4802 1015 143.105 573.541 457.147
3178 0 77.223 14.4517 1116 141.13 573.117 456.789
3179 0 80.184 13.7933 1106 142.672 572.967 456.665
3180 0 81.4381 13.5563 1104 147.087 573.259 452.592
3181 0 84.2876 14.1777 1195 145.091 572.215 452.22
3182 0 86.3241 14.3529 1239 145.831 572.574 450.274
3183 0 90.4009 15.4644 1398 141.974 572.599 450.104
3184 0 92.3322 14.242 1315 146.1 572.838 448.86
3185 0 93.2 13.2833 1238 151.473 572.632 446.538
3186 0 97.1489 14.1226 1372 148.3 572.421 444.952
3187 0 100.269 13.4439 1348 151.375 572.068 443.754
3188 0 103.298 14.1339 1460 149.52 571.936 441.677
3189 0 104.189 14.109 1470 150.137 572.567 440.086
3190 0 108.171 14.7452 1595 147.636 572.552 439.233
3191 0 112.266 15.9621 1792 143.418 572.22 437.953
3192 0 116.176 13.9013 1615 150.425 572.269 434.922
3193 0 122.215 15.2437 1863 144.963 572.049 428.624
3194 0 124.238 14.7298 1830 147.197 572.112 431.025
3195 0 128.285 14.686 1884 147.999 572.519 425.425
3196 0 132.214 14.2497 1884 150.028 571.996 424.156
3197 0 137.222 14.3854 1974 150.161 572.056 421.066
3198 0 145.651 16.4709 2399 141.098 572.022 412.087
3199 1 163.709 19.6873 3223 125.208 572.337 409.616
3200 0 162.361 20.8301 3382 124.281 572.319 405.1
3201 0 155.517 13.3941 2083 157.054 572.084 407.326
3202 0 160.418 14.431 2315 153.787 571.707 405.354
3203 0 169.278 15.7788 2671 146.725 571.564 405.055
3204 0 172.384 14.2879 2463 152.572 571.891 396.743
3205 0 181.293 14.2256 2579 151.331 571.89 395.664
3206 0 183.356 13.8419 2538 152.97 572.06 394.532
3207 1 120.508 8.6633 1044 152.25 571.642 425.301
3208 0 122.21 9.77826 1195 148.269 572.551 426.611
3209 1 100.241 13.2581 1329 147.442 572.218 417.188
3210 0 102.182 13.8772 1418 145.243 571.987 413.569
3211 0 106.168 13.2432 1406 146.965 572.143 409.499
3212 0 111.21 13.2992 1479 146.427 572.262 404.665
3213 0 115.151 13.9556 1607 143.12 571.894 404.61
3214 1 144.297 9.16856 1323 149.033 572.184 405.527
3215 0 141.352 3.42409 484 174.556 572.037 392.702
3216 1 112.291 8.2286 924 154.392 571.77 402.275
3217 1 158.197 8.0343 1271 150.662 572.33 396.16
3218 1 145.175 10.2014 1481 149.348 572.082 391.13
3219 1 144.16 12.7081 1832 146.366 572.354 382.664
3220 0 147.37 13.0284 1920 145.739 572.631 378.81
3221 0 150.225 12.9006 1938 147.653 572.057 374.075
3222 0 154.174 12.1681 1876 150.771 572.375 368.575
3223 0 156.222 12.4438 1944 151.214 572.31 364.494
3224 1 119.176 3.70041 441 157.667 572.844 389.658
3225 0 113.102 2.80278 317 164.076 573.104 381.905
3226 0 111.152 4.12948 459 159.556 572.797 377.595
3227 1 89.1418 9.50171 847 144.39 572.954 381.803
3228 1 113.138 10.4563 1183 137.059 572.052 382.207
3229 0 113.125 11.0232 1247 130.338 570.994 384.372
3230 1 79.0651 6.07095 480 159.827 572.377 370.86
3231 1 111.076 5.50073 611 144.226 572.133 386.373
3232 1 150.072 0.739646 111 182.153 572.504 361.333
3233 0 151.185 0.886334 134 176.224 572.709 365.291
3234 1 187.33 6.90761 1294 147.131 572.123 357.587
3235 0 184.545 6.26948 1157 152.787 572.168 352.379
3236 1 199.356 6.25514 1247 153.961 572.156 340.128
3237 0 212.443 8.46346 1798 139.462 573.041 362.093
3238 0 286.331 16.5403 4736 140.865 572.498 293.201
3239 1 222.492 8.34187 1856 142.758 573.103 352.983
3240 0 228.635 8.06089 1843 147.311 572.871 342.51
3241 0 233.488 8.82273 2060 146.555 572.882 339.868
3242 0 238.392 7.47089 1781 154.695 572.572 327.585
3243 0 243.334 8.68354 2113 152.773 572.106 335.474
3244 0 249.399 7.77871 1940 164.541 572.473 320.85
3245 0 249.412 7.89055 1968 155.134 572.503 321.754
3246 0 256.222 8.94926 2293 164.14 572.777 316.426
3247 1 216.618 11.3933 2468 161.737 572.605 328.2
3248 1 263.734 10.522 2775 158.813 572.56 333.167
3249 0 268.54 10.9295 2935 160.814 572.388 336.574
