time division length width area intensity CMx CMy
0 0 43.114 11.8755 512 138.992 56.5605 468.482
1 0 44.0691 10.3928 458 143.766 56.9345 468.557
2 0 46.1019 12.6893 585 136.617 56.9556 467.615
3 0 48.0534 12.5902 605 135.721 56.9008 467.643
4 0 49.0573 12.0268 590 136.853 56.8085 467.254
5 0 49.0454 12.621 619 136.339 57.0517 467.549
6 0 50.0748 12.9806 650 134.689 57.1308 465.128
7 0 50.0943 11.7379 588 138.645 56.2772 466.26
8 0 55.0374 12.5188 689 133.475 55.7765 466.141
9 0 53.0131 11.9405 633 136.321 55.5656 464.624
10 0 56.0712 13.6969 768 131.013 55.2253 464.151
11 0 58.1136 12.4067 721 133.117 55.2996 464.119
12 0 58.0427 11.3709 660 135.559 54.9258 463.62
13 0 60.1711 12.0157 723 132.521 55.2185 463.906
14 1 31.0319 11.3432 352 130.739 54.983 478.472
15 0 31.0249 10.5399 327 133.966 54.7217 477.771
16 0 31.0663 10.719 333 133.087 55.1081 478.192
17 0 33.0602 11.3127 374 132.417 55.0829 476.513
18 0 34.14 12.6538 432 125.22 55.0394 477.502
19 0 37.1083 13.0968 486 129.844 54.6214 476.158
20 0 34.0173 12.1997 415 127.918 54.2843 478.622
21 0 35.0166 11.8801 416 127.608 54.7284 480.594
22 0 35.041 11.7862 413 128.603 54.2785 478.303
23 0 38.011 12.1281 461 126.028 54.4013 478.562
24 0 38.0638 11.4282 435 128.147 53.6092 478.991
25 0 40.0516 12.4339 498 125.367 54.2249 477.406
26 0 42.0501 12.9845 546 124.132 54.1081 476.19
27 0 43.12 12.7783 551 125.256 54.0472 475.24
28 0 44.1587 12.7042 561 125.276 54.1676 475.79
29 0 45.0769 11.8242 533 128.27 53.6492 477.111
30 0 48.0636 12.5667 604 126.273 53.7136 474.159
31 0 48.0775 12.9374 622 129.559 52.8746 473.45
32 0 49.0188 12.5666 616 131.455 53.2792 473.705
33 0 51.0357 14.2645 728 127.177 53.2555 473.424
34 0 53.0596 13.6827 726 127.77 54.5262 472.328
35 0 53.0224 13.5792 720 130.107 54.1833 470.542
36 0 57.0191 13.2587 756 130.286 54.0635 470.437
37 0 58.1179 12.4918 726 134.055 53.4036 469.037
38 0 61.1032 14.0418 858 128.862 53.3322 469.219
39 0 63.0285 14.2317 897 129.372 52.8116 467.819
40 0 66.0442 14.7023 971 127.593 53.3666 467.857
41 0 68.0891 14.0551 957 130.216 53.5768 465.621
42 0 69.0898 15.3568 1061 128.656 53.4279 464.074
43 0 70.1194 14.3897 1009 131.88 53.559 464.55
44 0 75.0809 13.9316 1046 133.066 53.175 462.545
45 0 76.1867 15.0683 1148 129.911 52.8084 460.766
46 0 79.1722 14.3737 1138 131.633 53.1459 459.406
47 0 83.1633 15.1509 1260 127.93 53.2167 459.822
48 0 84.2151 13.513 1138 134.647 53.2179 458.291
49 0 85.2048 13.6964 1167 138.329 52.7164 456.668
50 0 92.3402 15.0314 1388 133.271 52.3415 454.334
51 0 94.2687 14.9891 1413 130.953 51.9052 452.123
52 1 49.2688 11.9142 587 135.906 52.3731 470.554
53 0 52.2279 13.556 708 130.342 52.4492 467.318
54 0 53.1024 14.0672 747 130.094 52.1178 474.025
55 0 57.0287 14.1858 809 125.826 52.0878 473.266
56 0 59.0487 13.7514 812 127.803 52.3916 472.124
57 0 58.047 13.9542 810 128.847 52.0173 471.36
58 0 62.0483 14.8111 919 125.732 52.3645 469.628
59 0 65.0374 15.0683 980 123.06 52.4755 469.332
60 0 65.0299 13.5169 879 128.825 52.4289 468.916
61 0 66.0537 13.8524 915 128.987 51.7191 467.363
62 0 72.0578 14.988 1080 124.19 51.2481 467.081
63 0 73.0501 13.9904 1022 128.434 52.0215 466.035
64 0 76.0659 14.4348 1098 128.908 51.2286 463.463
65 0 81.0969 15.3027 1241 125.054 51.9106 461.736
66 0 83.1362 14.1695 1178 128.348 52.3353 460.298
67 0 83.0783 14.697 1221 129.337 51.6945 458.248
68 0 87.1192 14.3482 1250 129.323 51.9992 457.322
69 0 90.2189 13.8219 1247 128.799 51.7442 456.462
70 0 92.0862 14.5407 1339 126.809 51.9007 455.146
71 1 49.0306 12.5228 614 123.663 52.2182 477.498
72 0 48.1319 12.2164 588 125.923 52.0442 475.764
73 0 50.0508 13.1067 656 122.529 52.3704 476.095
74 0 51.1006 13.5615 693 121.916 52.3579 474.248
75 0 53.0685 13.2282 702 120.746 52.2422 474.487
76 0 53.0522 11.8751 630 126 52.546 473.33
77 0 58.0434 13.5244 785 118.978 52.6318 472.14
78 0 57.1025 12.9241 738 122.65 51.1585 471.196
79 0 61.036 14.4177 880 117.614 51.0432 469.974
80 0 62.1271 13.2149 821 120.699 50.637 469.787
81 0 64.1269 12.9743 832 120.994 50.7752 468.13
82 0 66.191 13.869 918 117.331 50.4248 468.001
83 0 69.1159 14.2225 983 116.677 50.8413 466.595
84 0 72.1153 13.9083 1003 117.798 51.4706 464.755
85 0 75.1274 13.151 988 118.947 50.9787 464.231
86 0 77.0308 13.8516 1067 117.271 50.3786 461.882
87 0 80.1322 13.1533 1054 118.898 50.2742 461.337
88 0 84.1848 14.0049 1179 116.483 50.1103 460.819
89 0 85.1063 13.489 1148 118.994 50.1559 458.894
90 0 89.0608 14.4733 1289 116.607 49.9333 457.092
91 1 46.1155 11.5796 534 116.184 50.8184 477.343
92 0 46.0425 12.0758 556 113.719 50.036 476.676
93 0 49.0514 12.4563 611 112.674 50.0556 475.324
94 0 51.0511 12.654 646 116.093 51.6997 477.478
95 0 52.1337 13.1777 687 116.342 51.4396 474.968
96 0 54.0741 14.2767 772 112.464 50.9987 474.57
97 0 55.2651 13.6252 753 113.671 51.6242 474.064
98 0 55.1738 12.7416 703 117.861 51.66 473.149
99 0 57.0762 12.8775 735 117.682 51.5864 473.099
100 0 59.1129 12.6707 749 118.967 51.1509 471.49
101 0 61.1266 13.6438 834 116.959 51.2122 470.61
102 0 63.0292 14.1363 891 115.552 51.2548 471.173
103 0 65.1297 13.0662 851 118.89 50.8108 470.142
104 0 67.0594 13.7639 923 118.284 50.9913 468.694
105 0 69.046 14.7003 1015 116.023 51.6089 468.204
106 0 71.1431 13.8032 982 118.188 50.9196 467.518
107 0 73.0877 15.1736 1109 115.594 50.8855 464.283
108 0 76.1524 14.0376 1069 118.858 50.4172 463.336
109 0 78.0538 14.6309 1142 115.881 50.7417 460.89
110 0 80.0524 13.2288 1059 120.078 50.5685 459.509
111 0 84.0737 13.9045 1169 117.777 50.2729 458.323
112 0 85.0516 14.0738 1197 118.527 50.3718 455.352
113 1 48.0355 11.8454 569 120.285 51.0861 477.207
114 0 49.0851 11.6736 573 121.888 51.1239 475.878
115 0 50.2219 12.1063 608 118.604 51.1497 477.763
116 0 51.2216 12.0652 618 118.013 51.0437 477.314
117 0 52.1175 12.1264 632 119.014 51.0491 475.302
118 0 56.1048 14.0808 790 113.256 51.3987 472.825
119 0 56.1758 12.6745 712 117.962 51.2065 472.676
120 0 57.2086 12.2709 702 120.922 50.9516 471.258
121 0 59.1425 11.9035 704 120.774 50.7415 471.588
122 0 62.0691 10.7461 667 122.549 51.0375 471.243
123 0 66.1552 12.5311 829 119.461 50.7889 467.47
124 0 67.1845 12.0415 809 121.265 51.5661 467.565
125 0 70.0819 12.4854 875 119.728 50.7131 466.478
126 0 73.1599 13.0263 953 119.212 50.6118 465.005
127 0 75.0719 12.508 939 121.383 50.6656 464.883
128 1 40.0158 11.0956 444 119.937 51.5495 481.209
129 0 40.0182 10.4702 419 120.516 50.7685 479.845
130 0 42.0898 12.1882 513 124.838 50.7212 480.394
131 0 40.0765 11.3782 456 122.684 51.9079 481.314
132 0 41.0439 11.1588 458 125.1 51.9148 481.646
133 0 41.0439 11.1101 456 148.912 52.9232 481.658
134 0 46.0363 13.1201 604 119.805 51.7219 478.209
135 0 46.1093 11.6246 536 126.95 51.4646 478.381
136 0 47.0402 12.0535 567 128.099 51.5044 478.772
137 0 49.1501 13.652 671 124.043 51.3115 477.286
138 0 51.1436 12.8853 659 125.739 51.651 478.07
139 0 53.1255 12.4799 663 124.973 51.5219 478.71
140 0 54.056 12.5425 678 124.994 51.9897 477.591
141 0 56.0733 12.5728 705 125.626 51.3177 474.81
142 0 57.0554 13.0049 742 125.031 51 474.202
143 0 60.0723 13.1175 788 123.595 51.2348 472.904
144 0 63.0829 12.3964 782 124.435 51.1138 473.014
145 0 66.0405 11.9775 791 126.69 51.9507 469.742
146 0 68.089 12.7186 866 125.256 51.0658 467.635
147 0 71.0961 12.7152 904 123.903 51.1128 467.987
148 0 74.2762 13.5979 1010 121.422 51.6733 466.802
149 0 76.0863 13.327 1014 122.846 51.4951 463.318
150 0 78.1615 12.1927 953 125.753 51.8678 464.89
151 0 83.1013 12.4547 1035 123.832 51.4647 463.094
152 0 86.1228 13.1789 1135 121.982 51.3665 461.634
153 0 89.1244 13.2624 1182 122.496 51.5076 458.299
154 1 45.0287 13.1694 593 122.042 51.5481 479.406
155 0 46.0416 12.4453 573 124.283 50.7679 479.412
156 0 46.042 11.7284 540 126.978 51.1481 479.439
157 0 49.0136 13.6085 667 120.94 50.8291 476.85
158 0 50.0153 12.4562 623 125.167 50.5939 477.448
159 0 52.0208 13.5715 706 120.844 50.3045 476.076
160 0 52.0274 13.1469 684 122.952 50.326 476.541
161 0 54.0119 13.0527 705 124.536 50.356 473.618
162 0 54.0507 12.8953 697 125.605 50.4003 473.762
163 0 55.0608 12.0594 664 127.462 49.7846 473.405
164 0 58.0423 13.5935 789 121.075 50.1115 472.023
165 0 61.1539 13.1799 806 120.932 50.3821 471.989
166 0 63.0244 13.5503 854 120.795 50.315 470.741
167 0 64.0716 12.4392 797 124.369 51.0565 470.225
168 0 67.0873 12.9235 867 122.647 50.6609 466.813
169 0 69.0353 12.7471 880 121.552 50.9977 467.442
170 0 74.1252 14.3136 1061 115.433 50.95 465.756
171 0 75.0701 12.1353 911 120.977 50.2602 464.807
172 1 39.0331 12.2204 477 123.669 50.0377 482.556
173 0 39.1626 12.1034 474 125.219 49.73 481.454
174 0 37.0341 11.3409 420 122.902 51.019 482.207
175 0 39.0299 11.6834 456 122.32 50.9649 480.711
176 0 40.0127 11.9212 477 121.753 50.9119 481.419
177 0 41.0331 12.429 510 121.022 50.9294 480.543
178 0 43.0487 12.8459 553 120.063 51.3273 478.49
179 0 45.09 12.3087 555 122.587 50.1477 478.474
180 0 45.0689 12.4476 561 123.806 50.4171 477.79
181 0 48.0275 13.2424 636 120.112 51.5409 477.035
182 0 47.0069 12.1259 570 124.595 50.4684 477.391
183 0 50.1008 12.894 646 123.585 50.726 474.748
184 0 53.0484 13.4594 714 121.602 50.5308 475.877
185 0 54.0158 12.3482 667 126.025 50.91 474.856
186 0 56.0213 12.7809 716 126.084 50.9581 473.472
187 0 57.0259 13.1344 749 128.586 50.7797 474.264
188 0 60.0407 13.824 830 126.402 50.7193 472.731
189 0 61.0851 13.3257 814 129.407 50.9865 471.785
190 0 65.0292 13.7323 893 125.927 50.2889 471.53
191 0 67.0608 13.5399 908 126.74 50.6344 470.166
192 0 67.081 13.8489 929 128.778 50.4381 466.123
193 0 70.0144 13.1973 924 129.925 50.6645 466.566
194 0 74.0335 14.1422 1047 126.167 50.6332 465.059
195 0 77.0529 14.2759 1100 126.034 50.4945 463.172
196 0 79.0978 13.6793 1082 127.931 50.1275 461.734
197 0 82.0548 14.6609 1203 124.746 50.5453 461.095
198 0 84.1865 14.0165 1180 127.458 50.8203 458.819
199 0 90.1819 14.4264 1301 125.552 50.6164 456.013
200 1 48.2335 11.2577 543 131.604 50.7772 477.392
201 0 51.233 13.5069 692 126.934 50.2124 476.101
202 0 50.1575 13.9361 699 127.721 50.0959 474.744
203 0 53.1863 12.804 681 130.612 49.928 473.965
204 0 56.2308 13.3557 751 128.586 50.4514 473.479
205 0 56.2083 13.4322 755 131.207 49.8185 471.632
206 0 58.146 13.1393 764 131.615 49.8298 471.543
207 0 59.1799 13.1632 779 130.66 49.6149 470.805
208 0 60.1463 13.2012 794 129.78 49.6574 470.51
209 0 63.0432 14.1173 890 117.489 50.1315 470.815
210 0 66.068 13.471 890 118.217 50.2933 470.358
211 0 66.1061 12.964 857 122.203 50.056 468.54
212 0 68.1368 13.2087 900 122.502 50.1822 465.907
213 0 71.1366 14.0012 996 120.479 49.5693 464.915
214 0 72.1226 12.6729 914 123.934 49.5263 463.214
215 0 78.0968 13.176 1029 121.35 49.3528 462.904
216 0 80.1437 14.8858 1193 117.937 50.1819 461.317
217 0 83.132 14.062 1169 120.365 49.8435 459.053
218 0 86.2706 13.7011 1182 122.212 50.3088 459.041
219 0 88.174 13.2579 1169 125.097 49.6544 457.439
220 1 46.1061 13.3388 615 121.92 50.4081 477.174
221 0 47.0229 13.0575 614 122.337 50.9984 477.94
222 0 50.1643 12.6385 634 127.333 49.7129 475.3
223 0 53.2079 13.4191 714 125.508 49.9706 475.366
224 0 53.2155 12.9662 690 129.012 50.7478 473.497
225 0 56.1706 12.9249 726 128.271 50.6033 473.054
226 0 58.1635 12.3273 717 129.541 50.8257 473.563
227 0 60.267 13.3738 806 127.847 50.4144 471.619
228 0 61.193 13.1061 802 128.911 50.3229 470.939
229 0 62.2154 12.6335 786 131.234 50.659 470.779
230 0 64.1279 12.7869 820 130.944 50.5061 469.516
231 0 67.1196 12.7831 858 130.478 50.3963 467.495
232 0 68.2078 12.8724 878 130.499 50.6412 466.645
233 0 72.166 13.5798 980 129.034 50.9857 465.552
234 0 72.1773 13.3837 966 131.283 51.1501 465.968
235 0 74.1031 13.3868 992 132.459 50.5867 464.232
236 0 76.1518 12.8822 981 135.826 50.6891 462.931
237 0 81.0956 13.3299 1081 132.429 50.3691 460.703
238 0 84.124 14.2765 1201 130.545 50.1157 458.95
239 0 86.1192 14.3638 1237 130.691 50.1681 458.085
240 0 88.2532 13.0534 1152 135.196 49.9219 455.375
241 0 93.2012 13.4655 1255 133.406 49.5482 455.486
242 0 96.1634 13.6122 1309 132.66 49.9954 453.971
243 1 49.0462 10.643 522 127.552 50.4291 478.352
244 0 52.118 12.1455 633 120.502 50.4834 476.716
245 0 52.04 11.9139 620 121.016 49.7323 475.5
246 0 53.0651 11.3446 602 123.259 49.6728 475.43
247 0 55.1066 12.9204 712 117.86 49.7177 474.015
248 0 57.1436 13.1073 749 117.498 49.9826 473.748
249 0 60.0905 12.0319 723 131.596 50.6321 472.524
250 0 61.0542 12.9229 789 129.909 51.3346 470.065
251 0 63.0576 12.6868 800 129.795 50.5662 468.839
252 0 65.1941 12.3938 808 129.944 49.8131 468.608
253 0 69.1126 12.0383 832 130.013 49.6286 467.728
254 0 69.1953 12.0962 837 132.17 50.2533 465.737
255 0 72.1189 11.4533 826 133.989 50.2724 466.576
256 0 73.0961 12.6956 928 131.171 50.264 464.9
257 0 78.103 12.8292 1002 129.137 50.1537 464.214
258 0 80.1363 13.1526 1054 127.261 50.2268 461.456
259 0 82.0479 12.3464 1013 132.066 50.1214 459.668
260 0 86.0845 12.5923 1084 129.748 50.1467 460.399
261 1 45.0196 11.1951 504 129.579 49.5992 479.335
262 0 48.0229 12.5357 602 125.734 49.603 478.073
263 0 50.1159 12.4511 624 124.579 51.899 473.037
264 0 49.1297 11.948 587 121.637 51.0596 476.639
265 0 50.0319 12.4321 622 121.096 51.5981 475.695
266 0 53.0399 13.1599 698 117.901 52.3266 476.046
267 0 54.0703 13.2235 715 118.691 52.3734 475.215
268 0 54.053 12.2102 660 123.486 52.5591 475.088
269 0 56.0324 11.7968 661 124.428 52.0045 473.967
270 0 59.0795 13.4226 793 119.57 51.633 472.479
271 0 63.0901 12.8229 809 118.88 51.6712 472.211
272 0 62.0766 12.5007 776 122.729 51.4369 470.807
273 0 65.2119 12.6971 828 120.835 50.8647 470.53
274 0 66.0893 12.7403 842 123.419 50.9228 468.591
275 0 68.0758 12.0748 822 124.322 51.0669 469.119
276 0 69.0869 12.3757 855 124.922 50.9848 466.875
277 0 73.047 12.9232 944 121.712 50.6833 467.141
278 0 76.1372 13.213 1006 120.986 50.6889 466.001
279 0 78.148 12.3612 966 124.67 50.7764 462.978
280 0 82.0901 12.2914 1009 122.837 50.6799 461.844
281 0 84.0937 13.0806 1100 120.109 50.9873 460.315
282 0 88.0872 12.8509 1132 118.327 50.682 459.214
283 1 46.0127 11.8446 545 118.275 51.4165 479.136
284 0 47.0789 13.2543 624 113.405 51.4712 478.978
285 0 46.0211 11.234 517 120.354 49.4468 478.559
286 0 48.1129 12.533 603 117.831 49.9834 478.111
287 0 50.0307 12.0926 605 117.526 50.9074 477.645
288 0 50.0956 12.4562 624 117.099 51.359 476.522
289 0 51.0309 11.0129 562 120.884 51.2811 475.434
290 0 52.0581 12.6013 656 116.951 51.1905 474.494
291 0 54.0945 11.406 617 119.091 51.2285 473.961
292 0 57.1548 12.09 691 116.705 50.8104 472.941
293 0 60.1043 13.4766 810 112.99 50.9679 471.867
294 0 61.1087 13.6151 832 113.409 50.8486 471.279
295 0 62.1087 12.3493 767 117.943 50.9713 468.614
296 0 64.1068 13.1343 842 117.627 51.1841 467.726
297 0 68.1173 12.7868 871 117.468 50.7497 467.918
298 0 74.1488 12.9604 961 79.1644 51.1197 469.681
299 0 70.0517 12.8762 902 119.035 51.1186 466.136
300 0 75.1601 12.9856 976 118.919 51.4775 465.128
301 0 75.0671 12.6687 951 116.839 51.307 462.387
302 0 79.1034 12.9324 1023 115.308 50.7488 462.414
303 0 82.193 13.2493 1089 115.197 50.3765 460.563
304 0 85.1135 13.2881 1131 116.431 50.5093 459.576
305 0 86.1304 12.3417 1063 119.881 50.6228 459.25
306 0 88.1694 12.9297 1140 119.41 51.0719 459.082
307 0 92.0701 12.2189 1125 121.3 50.3333 455.568
308 0 96.1384 13.0437 1254 119.351 50.3214 454.075
309 0 101.194 14.8033 1498 114.242 51.0581 453.03
310 0 103.088 13.1344 1354 119.524 49.9062 450.931
311 1 59.0838 13.3708 790 116.619 50.3253 471.009
312 0 60.1904 12.4106 747 117.894 50.3373 469.882
313 0 64.1517 13.1563 844 115.187 50.2784 471.21
314 0 63.0984 12.6311 797 120.775 50.3388 468.982
315 0 65.0819 13.0451 849 119.653 50.225 468.843
316 0 68.1028 12.8776 877 118.664 49.1893 468.628
317 0 71.1218 13.2308 941 118.78 49.8704 466.775
318 0 72.1105 12.675 914 120.903 49.6794 466.096
319 0 76.1402 13.5671 1033 118.222 49.3892 464.194
320 0 77.0985 12.6591 976 121.498 49.6916 462.502
321 0 81.1199 13.5602 1100 118.249 50.2273 460.961
322 0 84.0874 13.9617 1174 117.704 50.4702 459.715
323 0 83.1448 13.6509 1135 120.377 49.7789 458.423
324 0 86.1203 13.6553 1176 123.087 49.5017 453.999
325 0 89.1082 13.4892 1202 122.764 49.9168 457.183
326 0 93.0942 13.4487 1252 123.142 50.1334 452.339
327 0 96.0586 14.158 1360 121.578 50.0735 450.235
328 0 98.0785 13.8664 1360 123.124 49.6735 449.334
329 0 102.069 13.8534 1414 122.708 50.6124 449.164
330 0 105.086 14.1123 1483 125.86 49.8415 446.444
331 0 109.157 13.531 1477 127.722 50.239 446.005
332 0 112.135 14.4647 1622 124.896 50.2546 444.917
333 0 118.14 14.3643 1697 123.161 49.9588 441.918
334 0 121.139 14.4544 1751 120.286 50.1388 438.696
335 1 61.1159 10.1447 620 111.487 49.9952 467.815
336 0 64.0804 11.0798 710 116.051 49.7014 468.956
337 0 66.0586 12.0953 799 113.399 50.2653 466.768
338 0 68.0349 12.0673 821 109.973 50.4385 465.329
339 0 72.0934 11.707 844 110.077 51.0142 464.444
340 0 74.0865 11.4461 848 110.842 49.7771 463.879
341 0 78.1197 12.1736 951 109.079 49.9264 462.187
342 0 79.0413 12.0443 952 110.293 50.062 459.39
343 0 85.0482 12.9574 1102 106.71 50.7486 458.758
344 0 86.0837 12.4414 1071 108.577 50.8114 457.026
345 0 90.1623 12.3 1109 108.535 51.0559 456.37
346 0 93.0925 12.1385 1130 109.487 50.7389 455.9
347 0 97.1303 12.7869 1242 108.114 50.5797 453.918
348 0 101.129 13.1318 1328 108.075 50.5979 450.193
349 0 102.168 12.1076 1237 111.28 51.249 449.051
350 0 107.208 12.3126 1320 110.548 51.4235 448.565
351 0 109.154 12.4777 1362 112.668 50.7283 443.534
352 0 113.125 12.0663 1365 113.696 50.7165 443.3
353 1 61.1329 12.023 735 106.399 51.7782 470.112
354 0 64.0876 11.6715 748 106.467 51.2634 469.928
355 0 62.0824 10.4216 647 111.734 51.6893 469.47
356 0 66.0554 11.1876 739 109.595 50.7578 470.08
357 0 69.0849 11.2905 780 109.599 50.959 468.335
358 0 70.1213 10.4391 732 112.346 51.9426 466.325
359 0 73.1348 11.4993 841 109.627 52.2568 465.293
360 0 77.0754 11.1579 860 110.378 51.7302 465.335
361 0 77.1281 11.3707 877 111.829 51.9122 462.47
362 0 81.1061 10.8993 884 112.327 51.767 462.192
363 0 83.2251 10.5978 882 114.161 52.1032 458.782
364 0 87.0825 11.4489 997 112.302 51.6359 459.387
365 0 89.1344 11.1629 995 113.768 51.4281 456.441
366 0 91.1274 10.425 950 116.302 51.4263 454.866
367 1 48.0708 10.9838 528 110.025 51.3049 476.377
368 0 49.0155 11.5066 564 108.055 50.7926 476.961
369 0 50.0349 12.3913 620 106.797 51.4742 474.671
370 0 55.0728 12.0205 662 113.724 52.8867 474.82
371 0 56.0321 12.9033 723 112.939 53.4481 474.705
372 0 56.0733 11.4315 641 117.498 53.1622 472.866
373 0 59.0492 12.4642 736 114.129 53.1114 472.95
374 0 60.0409 11.4422 687 117.626 52.7991 470.898
375 0 63.0999 11.9176 752 114.602 53.0665 470.949
376 0 62.0848 11.9353 741 107.804 52.892 471.085
377 0 62.1079 10.1436 630 113.26 52.4825 471.91
378 0 64.143 10.1804 653 113.847 51.7718 470.502
379 0 67.08 12.0751 810 109.477 52.6519 469.952
380 0 68.1434 11.153 760 111.795 52.1421 469.866
381 0 69.0938 10.9706 758 114.487 52.1016 467.689
382 0 71.0999 11.7018 832 114.636 52.0998 466.286
383 0 73.0342 11.3645 830 116.719 52.1554 464.728
384 0 75.1743 12.1983 917 115.822 51.699 463.967
385 0 79.0884 12.2015 965 115.942 51.5254 461.77
386 0 80.0525 12.6917 1016 116.864 51.5463 461.599
387 0 85.096 13.7844 1173 114.378 52.0205 460.465
388 0 87.1604 12.8843 1123 117.618 52.1505 459.264
389 0 88.1512 13.1932 1163 117.611 51.2528 458.391
390 0 92.1361 12.3838 1141 120.415 51.1104 455.976
391 0 97.2189 13.0222 1266 118.281 51.0766 455.009
392 0 98.0705 12.6847 1244 125.474 51.5201 451.684
393 0 101.192 13.3706 1353 122.939 51.5965 451.277
394 0 104.257 12.9967 1355 126.224 50.9572 448.493
395 1 56.0114 11.5869 649 121.632 51.3929 473.216
396 0 59.1689 12.3207 729 118.562 51.1043 471.964
397 0 60.0632 13.336 801 119.345 51.7566 470.343
398 0 59.1504 11.513 681 121.166 52.2159 470.605
399 0 63.1483 11.7343 741 118.393 52.0742 470.258
400 0 66.0637 12.9875 858 113.657 52.1702 467.479
401 0 66.0728 11.896 786 117.822 52.0814 467.374
402 0 69.0918 12.3314 852 117.386 52.3239 464.681
403 0 73.0558 14.0441 1026 112.594 52.0916 465.02
404 0 74.0726 13.2033 978 116.07 51.8149 463.511
405 0 77.0607 12.9508 998 117.187 52.1062 463.265
406 0 77.1756 13.1648 1016 120.369 51.9656 463.253
407 0 81.1049 12.7119 1031 123.194 52.582 462.45
408 0 84.0819 12.7852 1075 123.39 52.8884 461.503
409 0 88.1372 14.0349 1237 119.571 51.8981 458.787
410 0 88.1018 12.2131 1076 124.982 52.3271 459.405
411 0 92.2313 13.0324 1202 123.765 52.119 454.504
412 0 95.1594 12.3267 1173 124.519 51.0102 454.802
413 0 97.167 11.9485 1161 126.649 50.9027 453.214
414 1 55.0644 12.3673 681 123.583 52.7621 472.825
415 0 57.0399 12.0793 689 124.464 53.2424 472.315
416 0 61.0984 11.8825 726 122.99 53.2287 472.138
417 0 61.0671 12.3798 756 123.784 52.6574 470.53
418 0 63.0536 11.5457 728 124.746 52.3063 470.999
419 0 65.1221 11.3633 740 127.03 52.8824 468.131
420 0 68.0787 12.9703 883 121.87 52.8528 468.096
421 0 70.1019 13.2521 929 121.25 52.6846 467.576
422 0 73.0826 14.2168 1039 119.498 52.5322 464.548
423 0 74.1086 13.5207 1002 122.284 52.8623 464.613
424 0 75.0543 13.2437 994 123.722 51.9044 463.753
425 0 79.1522 13.8215 1094 121.883 51.4104 462.189
426 0 82.1657 12.9373 1063 125.2 51.8297 461.359
427 0 84.2165 13.4297 1131 121.991 51.7206 462.392
428 0 85.1384 12.7909 1089 125.644 51.056 460.029
429 0 88.1237 13.2541 1168 125.84 50.8313 456.465
430 0 93.1996 14.088 1313 123.302 51.1988 456.005
431 1 48.1511 12.3569 595 121.534 51.7412 477.461
432 0 47.0692 11.4937 541 116.63 51.8466 470.865
433 0 47.0387 10.6083 499 118.176 51.9699 472.858
434 0 50.0623 10.467 524 116.954 51.8931 472.458
435 0 52.0432 10.9716 571 115.466 52 471.28
436 0 53.0551 10.4043 552 117.699 52.0996 471.424
437 0 54.0933 10.9995 595 117.355 51.7714 469.664
438 0 56.0818 11.9112 668 117.693 51.3308 468.725
439 0 59.0462 12.8882 761 114.473 51.6649 467.217
440 0 59.0192 11.8944 702 118.158 52.1709 466.011
441 0 62.057 12.3274 765 115.621 51.8654 466.254
442 0 62.0362 10.6712 662 120.656 51.4517 466.133
443 0 63.0727 10.8763 686 121.773 51.9067 464.965
444 0 66.069 12.1842 805 119.293 51.805 463.661
445 0 70.0668 11.9172 835 118.332 51.9365 464.4
446 0 72.0624 13.1553 948 117.896 52.2911 461.464
447 0 72.1852 12.1354 876 120.616 51.8973 460.724
448 0 75.0793 12.1472 912 120.393 52.2895 460.61
449 0 79.1182 13.3218 1054 115.436 51.0398 459.801
450 0 83.0525 13.7865 1145 116.771 51.7179 456.975
451 0 83.0957 13.1415 1092 121.612 51.9936 454.108
452 0 88.1265 13.4125 1182 120.789 52.3469 454.462
453 0 90.0867 13.1096 1181 122.128 52.37 454.775
454 0 94.1283 12.7167 1197 123.853 51.8613 451.898
455 1 50.1134 12.2921 616 119.627 52.1769 474.089
456 0 52.0592 12.0632 628 120.025 51.6847 472.688
457 0 53.0955 13.5605 720 115.787 51.8958 471.599
458 0 55.2237 12.5852 695 117.958 51.6403 470.253
459 0 55.1155 12.1381 669 119.167 51.7504 470.846
460 0 57.0716 13.0363 744 116.415 51.8495 468.175
461 0 61.0381 12.5332 765 115.515 51.4784 468.592
462 0 61.0869 12.9488 791 114.159 51.4703 468.344
463 0 64.0409 13.0854 838 110.34 51.6205 466.284
464 0 66.1508 14.2251 941 108.451 52.0213 464.818
465 0 67.0351 13.4407 901 112.709 52.3818 463.573
466 0 70.18 13.0237 914 113.038 51.4584 464.578
467 0 72.1465 13.9993 1010 112.001 51.7426 461.555
468 0 73.2372 13.6543 1000 113.996 51.661 460.231
469 0 78.1054 14.7877 1155 111.252 51.961 459.057
470 0 80.226 13.8982 1115 113.662 51.8744 457.249
471 0 81.4016 13.6361 1110 115.391 51.5865 456.07
472 0 85.1891 14.5089 1236 113.959 51.6982 454.139
473 0 89.289 14.4923 1294 114.214 51.9397 452.869
474 0 90.2854 12.7817 1154 120.759 52.3692 455.249
475 0 94.1559 13.5732 1278 119.329 52.0634 452.794
476 0 98.1675 14.4141 1415 117.286 52.0198 450.038
477 0 102.219 14.0972 1441 117.993 51.6142 448.829
478 1 52.1379 12.7546 665 125.293 52.5865 472.853
479 0 54.1194 13.5811 735 121.932 52.3497 472.607
480 0 56.2256 13.8015 776 122.92 51.5541 470.366
481 0 58.2089 14.0013 815 122.425 51.1399 469.507
482 0 59.0697 13.9158 822 119.737 52.1265 471.285
483 0 60.0424 13.3905 804 122.861 51.6331 469.689
484 0 61.0878 13.587 830 122.452 52.0133 470.631
485 0 66.1052 13.1155 867 128.863 51.857 467.937
486 0 66.1432 13.501 893 124.474 52.374 467.901
487 0 69.0911 14.1697 979 122.382 52.62 465.682
488 0 73.0804 14.2583 1042 122.21 52.4232 462.972
489 0 74.2289 13.8491 1028 123.381 51.7986 463.094
490 0 77.1458 13.7143 1058 123.319 51.5208 462.168
491 0 79.0951 14.2107 1124 122.536 51.6664 460.504
492 0 82.127 13.4791 1107 124.488 52.4743 458.401
493 0 86.1045 14.3546 1236 121.807 51.7654 456.659
494 0 89.0885 14.9851 1335 119.77 51.3236 454.971
495 0 92.2058 13.7735 1270 121.954 51.322 453.598
496 0 98.1438 15.406 1512 116.52 51.9755 451.227
497 1 51.0342 12.9717 662 122.183 52.3701 474.213
498 0 52.0621 14.6556 763 119.604 52.1271 472.72
499 0 54.0716 13.778 745 120.144 52.004 472.267
500 0 56.146 14.6226 821 120.21 52.408 472.605
501 0 57.1467 14.944 854 124.238 51.678 471.3
502 0 60.0286 15.9424 957 120.508 51.2184 471.751
503 0 60.0525 13.7546 826 130.199 51.753 470.368
504 0 62.0516 14.4718 898 128.235 51.4365 468.998
505 0 64.07 15.3894 986 126.563 51.7181 468.541
506 0 65.121 14.1276 920 131.695 51.6793 465.386
507 0 68.1934 14.0043 955 131.575 51.7634 461.182
508 0 70.1843 14.0345 985 132.76 51.5218 460.664
509 0 72.2028 13.8222 998 134.708 52.2124 457.917
510 0 74.1773 13.9261 1033 135.056 51.242 457.167
511 0 81.3152 14.7574 1200 129.662 50.9525 456.383
512 0 82.2356 13.9234 1145 132.728 51.5022 456.58
513 0 83.2355 14.2247 1184 133.908 51.4966 454.225
514 0 86.1904 13.8879 1197 135.748 51.3124 452.277
515 0 91.1647 14.3586 1309 131.327 51.3346 450.896
516 0 94.2371 14.2619 1344 133.712 51.1116 449.598
517 0 99.1394 13.7786 1366 136.491 50.9407 447.324
518 0 103.077 14.0672 1450 135.05 51.7331 445.218
519 1 50.0361 12.6709 634 136.099 51.7965 470.137
520 0 53.1327 14.7932 786 129.491 51.6196 468.083
521 0 54.1335 12.6908 687 135.476 50.917 469.399
522 0 55.0666 13.7833 759 134.055 51.2279 467.773
523 0 56.1129 12.5996 707 138.73 50.761 466.69
524 0 59.0807 13.5916 803 136.472 51.5567 465.695
525 0 60.0961 14.3603 863 135.276 50.9838 464.103
526 0 62.1143 12.9439 804 139.954 50.6306 463.539
527 0 63.1788 13.9446 881 138.24 50.7821 461.664
528 0 66.1096 14.1885 938 136.9 50.7367 460.715
529 0 67.0852 13.7437 922 139.355 51.2462 460.344
530 0 71.2452 13.5448 965 138.159 51.3285 459.598
531 0 74.1165 13.7756 1021 137.913 51.95 457.772
532 0 76.1288 14.7907 1126 135.719 51.2087 455.941
533 0 78.2015 13.6954 1071 139.58 51.4024 455.074
534 0 82.0785 14.2668 1171 136.43 51.5098 454.699
535 0 84.1722 15.1356 1274 134.642 51.0251 453.162
536 0 87.1867 13.8897 1211 138.628 51.1594 451.064
537 0 92.1855 13.4728 1242 137.8 51.0274 449.816
538 0 96.1455 14.2388 1369 135.82 51.2783 446.86
539 1 53.1423 12.1184 644 134.738 50.9565 468.669
540 0 53.1507 13.1513 699 131.336 51.4363 467.778
541 0 54.128 13.154 712 130.388 51.4719 467.796
542 0 58.0635 13.2958 772 128.653 50.9637 469.456
543 0 58.0698 14.5687 846 127.394 50.9551 466.903
544 0 62.1343 14.2273 884 125.692 51.0622 466.112
545 0 63.1802 14.2291 899 126.925 51.069 465.269
546 0 65.0697 13.9543 908 127.676 50.9317 463.662
547 0 66.0555 13.1253 867 130.806 50.5606 462.696
548 0 71.0956 13.6014 967 127.352 51.091 462.006
549 0 73.1561 14.3255 1048 125.545 51.1298 459.978
550 0 74.1366 13.5561 1005 128.498 50.6826 458.655
551 0 78.1904 14.1833 1109 126.18 50.9432 457.52
552 0 81.1243 14.0032 1136 128.729 50.7333 451.94
553 0 84.1096 14.9329 1256 126.173 50.7516 449.799
554 0 87.1845 14.5897 1272 127.061 50.7995 449.284
555 0 90.2732 13.5145 1220 130.27 50.9025 448.786
556 0 94.1053 14.8769 1400 127.201 51 445.697
557 0 98.2956 14.5887 1434 127.996 50.9351 444.453
558 1 51.1018 11.7804 602 131.191 51.5814 467.694
559 0 53.1032 12.8053 680 129.294 52.2941 471.303
560 0 54.0475 12.415 671 128.763 52.1654 472.307
561 0 59.0948 12.8945 762 126.508 52.3504 471.978
562 0 59.0783 12.6442 747 130.336 52.0843 469.679
563 0 61.0895 14.2905 873 125.772 52.1352 469.496
564 0 62.0392 12.9434 803 130.65 52.3462 468.689
565 0 66.0825 13.4832 891 130.267 52.3434 466.701
566 0 66.117 13.5215 894 131.768 52.481 465.569
567 0 69.2023 12.3551 855 136.223 52.2094 464.933
568 0 72.1213 12.8672 928 135.869 51.8696 464.694
569 0 72.1224 13.1443 948 136.956 51.6909 463.124
570 0 75.1027 13.6613 1026 136.48 51.1754 461.399
571 0 78.0702 14.3076 1117 135.14 51.3787 459.035
572 0 81.2417 13.3675 1086 137.649 51.721 458.869
573 0 83.1284 14.0987 1172 137.266 51.8336 453.858
574 0 86.1617 14.4032 1241 137.765 51.7373 453.196
575 0 88.2073 13.4456 1186 141.359 51.1138 452.15
576 0 90.2291 14.1307 1275 140.193 51.1945 447.5
577 0 93.1567 13.3431 1243 143.345 51.6975 449.213
578 0 97.1877 13.3762 1300 144.365 51.3831 446.825
579 0 102.26 13.2896 1359 142.692 50.8536 445.638
580 0 104.182 14.1483 1474 141.108 51.3704 442.713
581 1 59.1378 10.5516 624 142.692 52.016 467.763
582 0 58.1494 12.7086 739 136.537 50.9905 466.307
583 0 61.1694 13.34 816 135.32 50.7892 465.049
584 0 63.1254 13.5286 854 132.525 49.534 468.691
585 0 66.1212 13.8382 915 131.068 50.3541 467.894
586 0 66.1482 13.379 885 135.837 50.8373 465.197
587 0 70.1965 14.1745 995 132.365 50.4915 464.005
588 0 71.1023 13.4735 958 135.247 50.7244 462.72
589 0 76.0982 13.8637 1055 132.984 50.6654 461.333
590 0 77.0952 14.1254 1089 134.446 50.8163 458.78
591 0 80.4513 15.0899 1214 130.46 50.9242 454.79
592 0 83.2098 13.7364 1143 134.556 50.8863 454.305
593 0 86.3671 14.7973 1278 130.789 50.8302 452.423
594 0 87.227 14.3075 1248 133.269 50.2027 451.932
595 0 91.2404 14.5988 1332 131.723 50.8791 449.18
596 0 95.247 14.3417 1366 131.275 50.9114 449.174
597 0 98.4918 14.255 1404 129.991 51.183 447.67
598 0 97.2211 13.2996 1293 135.556 50.29 445.76
599 0 102.184 14.4739 1479 130.416 50.5761 444.331
600 0 105.199 14.4869 1524 130.236 51.0709 440.834
601 0 108.226 13.6935 1482 132.094 51.305 440.554
602 0 112.297 14.4973 1628 128.004 50.6462 439.525
603 0 115.231 14.3885 1658 128.381 50.6122 437.559
604 0 122.333 13.0627 1598 130.009 51.2829 437.059
605 0 125.236 14.0055 1754 126.448 51.0154 432.999
606 0 130.33 14.4709 1886 123.672 51.2428 430.29
607 0 133.161 13.6151 1813 125.886 51.5256 427.972
608 0 138.247 12.6513 1749 127.692 51.1984 427.508
609 0 143.159 11.7073 1676 126.53 50.8508 429.284
610 0 150.389 13.6047 2046 121.02 50.9384 423.138
611 0 156.324 14.3548 2244 117.994 50.7865 419.808
612 0 163.314 13.3179 2175 120.471 50.8166 417.397
613 0 168.169 13.0464 2194 119.959 50.9485 414.683
614 0 176.331 12.7601 2250 119.916 51.2796 412.605
615 1 92.1921 13.8624 1278 119.508 51.2582 450.606
616 0 95.1512 13.5153 1286 119.479 50.8445 449.905
617 0 99.0711 12.4658 1235 129.397 51.4008 448.832
618 0 99.1276 12.9934 1288 123.214 51.0644 446.124
619 0 102.135 12.5716 1284 124.723 51.5296 444.523
620 0 107.185 12.9589 1389 122.068 52.041 444.252
621 0 111.077 13.8823 1542 120.124 51.7523 440.139
622 0 114.163 12.7712 1458 123.204 51.6296 439.953
623 0 118.199 12.5381 1482 123.733 50.6937 437.862
624 0 123.29 13.9995 1726 119.733 50.4902 433.543
625 0 129.371 13.8207 1788 119.68 50.5218 434.217
626 0 132.251 12.6275 1670 123.917 50.0222 430.319
627 0 134.199 12.9882 1743 124.352 50.2737 426.87
628 0 141.346 13.6686 1932 122.21 49.8582 427.933
629 0 145.186 14.0441 2039 123.091 50.2639 424.321
630 0 149.136 12.7937 1908 128.452 49.9015 421.165
631 0 157.317 14.4295 2270 123.937 50.2291 417.989
632 0 163.427 13.4494 2198 129.482 49.9427 416.192
633 0 167.303 14.2556 2385 129.364 50.2549 408.945
634 0 174.277 14.1786 2471 128.798 50.4941 407.024
635 1 89.2688 13.1961 1178 135.902 50.6621 447.693
636 0 93.3046 13.5685 1266 136.122 50.6698 445.269
637 0 95.3059 13.9026 1325 137.292 50.9683 444.201
638 0 97.424 13.9493 1359 137.955 51.3679 444.3
639 0 100.446 12.9622 1302 140.605 50.6713 442.21
640 0 104.088 14.1418 1472 136.196 49.6359 438.918
641 0 107.164 14.1653 1518 137.226 50.5507 436.087
642 0 112.628 14.4635 1629 134.687 49.868 435.683
643 0 114.131 14.9039 1701 133.727 50.2175 431.392
644 0 120.193 14.9509 1797 132.535 49.8625 432.062
645 0 125.397 13.8839 1741 135.791 50.0482 428.288
646 0 129.192 13.4683 1740 136.734 50.5437 426.316
647 0 135.322 14.4248 1952 132.417 49.9836 422.519
648 0 137.153 13.9042 1907 133.559 49.8175 423.504
649 0 141.253 13.0192 1839 138.818 49.7384 417.162
650 1 80.2952 12.5412 1007 140.634 50.0407 447.819
651 0 81.2854 12.979 1055 139.991 49.9185 447.877
652 0 82.081 13.6938 1124 139.988 50.5267 446.525
653 0 85.5157 13.8337 1183 137.287 50.0719 447.965
654 0 88.2518 13.2122 1166 139.677 50.6021 444.572
655 0 91.2427 14.2587 1301 137.768 50.7656 441.567
656 0 93.2178 15.1044 1408 135.896 50.9773 441.24
657 0 99.4813 13.4196 1335 140.695 50.4599 439.068
658 0 101.329 13.6584 1384 140.241 50.6048 438.053
659 0 107.35 14.802 1589 135.097 50.6388 436.296
660 0 110.492 12.9331 1429 141.805 50.5318 434.379
661 0 113.34 13.4816 1528 141.099 50.2991 434.17
662 1 64.2572 10.6136 682 142.789 49.8006 456.029
663 0 64.0696 11.7529 753 140.904 50.0066 456.183
664 0 66.0949 12.7544 843 135.457 49.9585 455.936
665 0 69.1215 11.5159 796 139.912 50.2513 453.609
666 0 73.1724 13.024 953 132.762 50.3179 454.656
667 0 74.1299 13.4898 1000 133.604 50.252 449.521
668 0 75.1741 11.9722 900 136.272 50.0344 450.211
669 0 78.118 13.006 1016 134.991 50.128 446.469
670 0 81.1297 13.2874 1078 133.865 49.7996 446.21
671 0 81.248 11.7911 958 141.325 49.1785 442.876
672 0 87.2478 12.8599 1122 134.716 49.4251 443.609
673 0 90.2167 12.7249 1148 136.977 49.527 439.817
674 0 95.1844 12.8067 1219 135.669 49.42 438.272
675 0 98.2546 12.7526 1253 136.276 49.6536 439.046
676 0 101.344 12.3934 1256 138.602 49.6067 434.869
677 0 102.157 12.9311 1321 138.474 49.6805 432.256
678 0 111.494 12.8707 1435 135.392 49.8551 432.646
679 0 114.444 12.9846 1486 136.018 49.5431 431.398
680 1 61.306 8.48204 520 127.362 49.3731 463.731
681 0 65.3806 11.456 749 120.144 49.1909 464.227
682 0 64.191 10.4688 672 121.975 48.5298 464.796
683 0 67.1796 11.3576 763 121.767 49.2228 465.562
684 0 69.0878 11.8979 822 120.137 50.1886 463.588
685 0 68.0898 10.5596 719 122.869 49.3352 463.656
686 0 71.1358 11.7381 835 121.071 49.685 460.502
687 0 72.1135 11.8424 854 121.5 49.4848 459.274
688 0 75.183 11.7181 881 120.719 49.3167 459.009
689 0 71.1856 12.3059 876 122.039 48.9966 453.806
690 0 76.2345 12.6583 965 120.079 49.4 453.563
691 0 78.1928 12.4436 973 121.01 49.8643 451.331
692 0 82.1011 12.107 994 122.241 49.66 451.368
693 0 82.1699 12.5959 1035 122.397 49.6715 447.882
694 0 86.2789 12.3901 1069 122.74 49.4434 448.199
695 0 89.2333 12.1815 1087 123.985 49.2466 444.701
696 0 92.1949 12.6363 1165 123.17 49.8077 445.503
697 0 95.2418 12.946 1233 122.556 50.3423 445.045
698 0 98.1712 12.7838 1255 124.79 50.3482 439.907
699 0 102.201 11.6926 1195 128.228 50.1021 440.133
700 0 105.389 13.6826 1442 122.767 49.9542 439.693
701 0 109.246 12.7511 1393 128.469 49.4673 435.279
702 1 59.1167 9.96335 589 112.394 51.2699 462.857
703 0 65.1048 10.1221 659 117.657 52.349 466
704 0 65.0657 10.0975 657 116.732 50.6195 468.743
705 0 66.025 10.9807 725 116.4 50.6138 468.443
706 0 68.0813 11.4569 780 115.721 51.5192 468.942
707 0 69.1264 11.1101 768 118.81 49.6927 466.083
708 0 72.0755 11.4186 823 119.165 50.2928 465.503
709 0 74.074 11.3535 841 118.787 50.2985 466.779
710 0 75.1147 12.1414 912 119.612 50.3607 463.279
711 0 77.084 11.9091 918 121.052 50.902 464.986
712 0 79.0663 12.167 962 121.923 51.183 463.04
713 0 79.0474 11.9928 948 126.008 51.2373 461.542
714 0 81.1581 11.9643 971 126.655 51.5438 458.806
715 0 84.0851 11.7619 989 127 50.8756 459.015
716 0 87.0685 11.1981 975 128.261 51.0215 458.423
717 0 91.11 12.666 1154 124.198 51.5355 456.659
718 0 94.1218 12.7494 1200 124.575 51.7025 455.169
719 0 95.0741 12.1063 1151 124.819 51.5613 453.832
720 0 100.136 12.1735 1219 122.788 51.4848 451.52
721 0 102.064 11.3458 1158 125.404 51.7012 447.377
722 1 51.076 8.59504 439 116.166 50.451 466.116
723 0 57.1363 10.9738 627 116.252 50.7065 469.145
724 0 58.0584 12.5219 727 111.673 51.6094 472.96
725 0 62.0829 11.6135 721 112.089 51.2067 472.429
726 0 63.0496 12.1174 764 109.615 50.6937 473.721
727 0 65.0666 10.3586 674 114.098 50.3264 472.812
728 0 65.047 8.85514 576 119.462 50.4878 473.458
729 0 67.0536 11.7965 791 113.894 50.6334 471.135
730 0 70.1477 11.0624 776 116.235 50.9716 467.732
731 0 73.0914 12.5596 918 112.88 51.0861 468.66
732 0 73.1518 11.8111 864 116.309 51.213 467.159
733 0 75.0894 12.5051 939 114.409 51.016 465.715
734 0 77.1592 12.2085 942 115.069 50.5626 465.719
735 0 81.2103 11.4764 932 116.338 50.0858 463.648
736 0 82.0815 11.6226 954 116.922 50.8753 464.379
737 0 85.1681 12.9156 1100 114.852 50.5409 460.06
738 0 88.1374 12.1401 1070 116.486 50.3514 461.054
739 0 91.1443 12.3431 1125 116.422 50.3058 459.22
740 0 95.126 13.4979 1284 114.376 50.5833 456.835
741 0 99.1761 12.6946 1259 121.45 49.7395 456.443
742 0 99.0763 12.4046 1229 120.408 49.6216 455.072
743 0 102.109 12.0166 1227 124.126 49.683 452.316
744 0 104.229 11.801 1230 125.215 51.0935 450.523
745 0 108.316 12.8144 1388 121.309 50.5331 449.857
746 0 112.254 12.1777 1367 123.947 50.4162 447.981
747 0 112.329 12.1429 1364 126.476 50.434 446.588
748 0 118.202 13.0454 1542 124.34 50.1524 443.007
749 0 121.205 12.2767 1488 126.476 50.623 441.754
750 1 66.1286 12.4001 820 120.2 50.4085 471.304
751 0 68.0884 12.2341 833 122.01 49.7023 469.409
752 0 71.1738 12.4765 888 122.316 50.1892 469.385
753 0 75.0457 13.1786 989 122.256 51.2932 468.686
754 0 75.1271 12.8316 964 132.07 50.3932 465.816
755 0 76.1523 13.0791 996 131.257 50.2068 465.15
756 0 81.0958 13.071 1060 130.758 50.2623 464.429
757 0 81.2048 13.5829 1103 129.621 50.6564 462.898
758 0 85.2124 13.613 1160 129.555 50.4336 461.346
759 0 87.1435 13.8966 1211 129.21 50.7077 459.9
760 0 89.1007 13.8832 1237 129.567 49.7955 458.724
761 0 93.1696 14.6507 1365 126.286 49.863 458.514
762 0 97.209 14.5871 1418 126.203 50.0092 456.539
763 0 98.1923 14.0031 1375 129.28 49.6989 452.796
764 0 100.138 13.0619 1308 132.729 50.341 452.519
765 0 105.156 13.1424 1382 130.648 50.2381 452.557
766 0 110.13 13.702 1509 128.594 50.2591 449.236
767 1 60.0618 11.4549 688 116.656 50.718 475.342
768 0 63.0223 12.6939 800 112.76 50.7163 474.217
769 0 62.0828 12.1773 756 115.381 51.037 471.853
770 0 65.0873 12.0761 786 115.59 51.4898 471.01
771 0 66.1131 12.2064 807 115.502 51.5465 470.316
772 0 69.0395 12.7173 878 114.009 51.6162 468.912
773 0 70.0476 13.191 924 113.017 51.5844 467.842
774 0 73.1142 12.501 914 113.423 51.4048 467.467
775 0 74.1175 12.9389 959 113.307 51.561 466.486
776 0 79.0998 13.2112 1045 110.874 51.1627 465.452
777 0 80.1177 14.0294 1124 110.293 51.6379 463.419
778 0 82.1677 12.7422 1047 113.479 51.4069 462.635
779 0 86.056 13.8631 1193 110.309 50.9573 461.016
780 0 88.144 13.3078 1173 111.666 50.8892 459.593
781 0 89.1364 11.5441 1029 115.237 50.5413 457.362
782 0 90.0985 11.9425 1076 115.724 50.2091 456.409
783 0 92.1481 12.7946 1179 115.746 50.4665 454.648
784 0 97.1122 12.9747 1260 114.933 51.0302 454.483
785 0 101.103 13.3231 1347 114.548 51.2554 450.48
786 0 100.14 12.0631 1208 119.377 51.1316 448.151
787 0 106.219 12.0412 1279 118.872 50.8483 447.165
788 1 61.1576 11.9364 730 118.618 51.2082 468.693
789 0 60.0621 10.9387 657 115.731 50.7443 467.519
790 0 62.0831 12.1933 757 110.206 50.9815 465.551
791 0 62.0249 9.70579 602 103.716 49.9784 463.51
792 0 64.0731 9.89495 634 104.257 49.929 463.058
793 0 66.0277 10.9954 726 101.957 50.0785 460.809
794 0 70.1266 10.7805 756 102.647 49.9696 460.868
795 0 71.0281 11.8263 840 102.04 49.856 459.712
796 0 72.0628 11.9479 861 103.452 49.5517 457.289
797 0 74.1454 11.3156 839 105.757 49.7008 456.733
798 0 78.0509 10.9928 858 108.559 49.5618 457.439
799 0 83.1219 11.7779 979 107.739 49.7712 454.034
800 0 84.1133 10.581 890 110.646 49.5753 456.428
801 0 87.0588 11.3716 990 109.801 49.6162 453.73
802 0 91.0708 10.5413 960 111.477 49.125 455.274
803 0 94.2178 12.3862 1167 109.977 49.671 448.647
804 1 50.0337 10.3131 516 106.413 49.814 471.169
805 0 54.0904 10.4455 565 106.223 50.1345 471.242
806 0 54.0629 9.8219 531 118.222 50.7552 468.183
807 0 61.0191 12.9468 790 119.768 51.7228 473.918
808 0 63.1434 12.0361 760 123.112 51.2237 472.025
809 0 67.0603 12.8243 860 120.301 51.1663 470.621
810 0 67.0399 14.0513 942 118.591 51.3631 470.31
811 0 68.0876 12.1314 826 124.639 51.8584 471.123
812 0 70.0678 12.7163 891 123.402 50.9865 468.404
813 0 74.0544 12.6394 936 122.06 51.8013 467.068
814 0 75.0499 12.3118 924 124.027 51.6894 465.347
815 0 79.1258 11.8925 941 124.099 51.6684 464.814
816 0 82.1393 13.4649 1106 120.373 51.1727 460.998
817 0 85.0528 13.0742 1112 121.307 51.455 462.484
818 0 85.1671 13.0802 1114 123.772 51.1741 460.533
819 0 91.2088 13.3211 1215 122.007 51.3235 458.793
820 0 94.3079 12.597 1188 124.022 51.0976 456.078
821 1 47.0639 12.005 565 118.366 51.8425 480.299
822 0 48.0488 11.6548 560 121.311 51.225 480.075
823 0 48.0301 12.4505 598 111.523 49.1087 478.776
824 0 50.0711 11.8432 593 113.194 49.3929 479.744
825 0 51.0565 12.3001 628 112.976 49.3678 477.172
826 0 53.054 13.7596 730 109.37 49.5699 477.642
827 0 55.055 12.5511 691 112.865 49.0058 476.411
828 0 56.0431 12.187 683 115.266 49.8184 475.981
829 0 58.0787 12.7758 742 113.353 49.3302 474.871
830 0 61.0543 13.2177 807 112.641 49.6679 475.171
831 0 63.0852 13.7592 868 111.061 48.879 474.088
832 0 63.1283 13.8131 872 112.802 49.0023 473.945
833 0 64.0739 11.9393 765 118.174 49.1673 473.488
834 0 68.0915 13.2322 901 113.978 49.0855 470.861
835 0 68.0469 12.2856 836 117.279 48.6005 471.085
836 0 71.1148 12.6556 900 114.541 49.3267 469.636
837 0 72.0517 11.9498 861 117.143 48.9617 468.619
838 0 76.1626 12.3814 943 116.308 49.2047 468.783
839 0 79.0989 12.1873 964 115.804 49.1836 467.215
840 0 80.061 12.6404 1012 115.665 49.5593 465.239
841 0 84.1345 12.587 1059 114.306 49.2908 464.737
842 0 85.056 13.2971 1131 112.44 48.9761 462.118
843 0 89.1343 12.5429 1118 113.754 48.3819 461.892
844 1 48.0636 11.1103 534 115.348 48.4438 480.122
845 0 50.1599 12.3405 619 110.764 48.9628 479.396
846 0 50.0201 12.2951 615 110.603 49.3008 480.421
847 0 49.0593 12.6378 620 111.066 48.9097 479.374
848 0 52.0348 13.3372 694 108.428 48.4193 479.16
849 0 55.0635 13.2937 732 108.165 49.1844 477.613
850 0 54.0471 12.8962 697 110.813 48.5323 477.875
851 0 58.1277 13.4704 783 108.186 49.3078 476.61
852 0 58.1114 12.9579 753 110.742 49.7503 474.981
853 0 61.0839 13.4896 824 109.432 49.835 473.615
854 0 63.2779 13.5434 857 108.852 49.8098 473.182
855 0 63.0956 12.8377 810 111.909 49.7778 473.465
856 0 66.1679 13.7831 912 108.947 49.8476 471.556
857 0 66.1679 13.7831 912 146.34 50.8355 471.533
858 0 68.0477 12.4472 847 114.485 49.9516 469.423
859 0 71.1915 13.4848 960 111.61 49.6521 466.373
860 0 74.0635 13.6099 1008 112.312 50.0427 466.442
861 0 76.0986 13.1146 998 114.539 49.6493 464.807
862 0 81.1141 12.2297 992 115.16 49.3538 464.644
863 0 82.0429 12.8957 1058 115.284 49.3601 461.709
864 0 85.0858 13.5628 1154 115.1 49.2894 462.245
865 0 90.1408 12.78 1152 117.222 49.4436 461.013
866 0 91.1495 13.0226 1187 118.574 49.7144 459.553
867 1 46.2136 11.62 537 118.754 50.2216 479.665
868 0 49.1235 10.5856 520 124.496 50.3942 477.813
869 0 51.1275 12.5764 643 118.841 49.7963 477.215
870 0 52.1544 12.5589 655 119.281 50.4855 477.6
871 0 54.1378 11.6554 631 122.154 50.5452 476.897
872 0 56.1022 12.4951 701 120.837 50.428 475.899
873 0 56.0917 11.8199 663 124.08 50.3499 473.231
874 0 60.1899 12.5104 753 121.147 50.1487 472.367
875 0 62.1198 12.2988 764 121.969 50.6754 472.438
876 0 65.1516 12.7856 833 119.956 50.7419 470.69
877 0 65.0274 11.795 767 122.63 50.1239 471.409
878 0 69.1476 12.2058 844 119.925 50.1765 469.057
879 0 72.1215 12.3126 888 119.38 49.9876 467.919
880 0 72.1247 11.5217 831 122.461 50.0987 467.924
881 0 74.2035 10.7003 794 124.637 49.8678 464.994
882 0 78.1692 11.5135 900 123.128 49.4422 463.093
883 1 42.0787 12.0013 505 117.962 50.6792 480.042
884 0 44.2056 11.6501 515 120.996 50.332 477.441
885 0 46.1103 11.6677 538 118.199 50.9442 478.95
886 0 48.1612 12.3336 594 116.456 51.3367 478.148
887 0 50.1231 12.8883 646 114.142 51.1533 476.693
888 0 50.1909 11.9344 599 118.275 50.9967 475.594
889 0 52.1484 11.5632 603 117.889 50.8275 475.909
890 0 53.1194 12.6884 674 114.792 51.1617 476.022
891 0 55.1359 12.043 664 116.313 51.3313 475.428
892 0 56.0927 11.7306 658 117.609 51.0593 474.666
893 0 58.1605 12.328 717 116.185 51.1283 473.289
894 0 60.155 13.5483 815 113.054 51.1129 471.04
895 0 62.1198 12.6691 787 114.752 50.9072 471.515
896 0 65.1024 13.7629 896 111.869 50.7188 470.99
897 0 67.1268 14.2417 956 111.63 51.1213 467.987
898 0 67.0961 12.6088 846 116.387 50.8629 469.273
899 0 70.1361 12.7894 897 116.367 50.5418 467.361
900 0 73.141 13.4808 986 115.195 50.8448 467.289
901 0 75.1969 13.5112 1016 116.594 50.6969 464.78
902 0 77.2385 12.2607 947 119.485 50.6389 464.448
903 0 80.1713 14.257 1143 115.264 50.2213 462.161
904 0 81.1585 13.1471 1067 117.839 50.6232 461.625
905 0 87.2008 14.6214 1275 113.578 49.6282 459.216
906 0 87.1897 13.6599 1191 118.839 50.1746 457.604
907 1 43.1599 10.2873 444 123.745 51.0923 481.723
908 0 45.0974 10.4662 472 123.415 50.589 479.879
909 0 46.0558 11.8335 545 120.672 50.7468 479.539
910 0 47.1814 12.2294 577 119.95 49.9861 478.315
911 0 51.1019 11.6434 595 121.61 50.0958 478.207
912 0 51.2682 12.854 659 118.109 50.651 477.662
913 0 53.1771 13.314 708 115.989 50.4124 475.963
914 0 55.1282 13.8949 766 114.41 50.8721 475.568
915 0 56.1892 13.0274 732 117.187 50.8019 473.714
916 0 57.1765 12.2253 699 120.529 50.4464 474.206
917 0 60.1308 13.4374 808 118.057 50.5285 473.842
918 0 61.1463 12.7072 777 121.313 50.6126 472.426
919 0 65.0714 13.4007 872 119.545 50.7282 471.854
920 0 66.0765 14.8313 980 116.109 50.9102 470.585
921 0 68.051 13.1519 895 120.232 51.324 470.84
922 0 70.0517 13.6185 954 119.465 50.5367 468.828
923 0 72.0974 13.884 1001 118.836 49.979 468.221
924 0 72.0811 13.9981 1009 120.395 50.5481 468.224
925 0 75.2288 13.6783 1029 120.017 49.966 465.386
926 0 78.2091 14.2822 1117 118.184 50.2587 464.793
927 0 81.2017 14.4701 1175 118.33 49.3991 463.797
928 0 83.3178 14.7628 1230 116.714 49.2732 462.085
929 0 84.149 14.4149 1213 119.825 49.864 462.569
930 0 85.2469 12.9154 1101 127.325 50.0808 460.297
931 0 87.2771 13.6577 1192 124.977 49.6049 459.96
932 0 91.293 13.6155 1243 125.743 50.3773 455.873
933 0 94.3092 13.4875 1272 124.917 50.6423 455.837
934 0 96.2315 13.0726 1258 125.45 50.6677 455.151
935 0 100.227 14.078 1411 123.198 50.7888 452.393
936 1 51.1175 10.9943 562 119.865 51.3416 474.324
937 0 53.0658 12.5881 668 115.942 51.1647 471.326
938 0 53.0967 10.415 553 115.132 51.1555 471.922
939 0 55.1359 11.2812 622 113.088 50.4518 471.685
940 0 60.1362 13.0537 785 108.061 50.8892 469.209
941 0 60.1078 11.5958 697 114.089 50.5452 468.65
942 0 62.0537 13.1499 816 111.051 50.4645 467.972
943 0 64.0692 11.7685 754 114.171 50.3846 466.365
944 0 67.0412 12.8876 864 111.052 50.3171 465.647
945 0 69.0822 13.1293 907 111.531 49.828 462.773
946 0 72.0657 12.6551 912 112.692 50.0066 462.587
947 0 75.1088 13.4605 1011 110.446 49.8952 461.613
948 0 77.06 13.1975 1017 112.233 50.1672 459.894
949 0 77.1346 12.0698 931 116.45 50.1128 461.447
950 0 82.1175 13.4563 1105 113.09 50.3765 459.526
951 0 85.1404 13.0373 1110 115.148 50.5099 457.819
952 0 86.1881 12.67 1092 118.005 50.6712 456.79
953 0 87.1167 13.3155 1160 126.498 50.6534 461.222
954 0 91.2122 13.7372 1253 125.605 50.4589 458.899
955 0 94.0811 13.0526 1228 128.602 50.3062 458.033
956 0 97.1797 15.3942 1496 122.418 50.7025 456.311
957 0 99.1357 13.2646 1315 129.012 51.0076 455.43
958 0 103.087 13.9494 1438 125.585 50.3588 455.786
959 0 107.275 13.7871 1479 126.921 50.8864 452.723
960 0 107.239 12.6913 1361 119.486 50.4541 447.645
961 0 112.426 13.3599 1502 118.623 50.5872 444.593
962 0 115.116 12.8652 1481 121.148 50.4544 443.554
963 0 119.091 13.3848 1594 120.835 50.7942 443.375
964 0 123.131 13.3516 1644 138.848 51.1758 442.482
965 0 127.145 13.9997 1780 136.975 50.7348 438.742
966 0 131.148 14.5027 1902 132.321 50.7744 434.518
967 0 137.199 13.8194 1896 133.579 49.5934 431.809
968 0 142.18 14.2214 2022 133.976 49.5326 424.387
969 0 146.239 13.4642 1969 134.785 49.583 424.353
970 1 82.1055 12.3378 1013 123.988 50.2201 453.648
971 0 84.0886 12.6414 1063 122.125 49.9849 453.184
972 0 86.1414 13.1876 1136 122.672 49.5387 453.025
973 0 89.2347 12.7305 1136 125.564 49.9313 452.107
974 0 90.1899 13.0059 1173 127.583 49.9037 449.069
975 0 96.273 13.3994 1290 125.317 50.5868 449.16
976 0 96.2819 13.2216 1273 126.945 50.1618 447.016
977 0 100.272 14.2713 1431 125.76 50.3836 444.433
978 0 103.29 13.0603 1349 131.09 50.4685 442.89
979 0 104.247 13.5447 1412 133.488 49.9164 441.727
980 0 108.224 13.1302 1421 135.597 50.2287 439.657
981 0 113.221 13.1866 1493 134.906 49.651 439.682
982 0 115.121 12.8212 1476 138.659 49.8401 436.264
983 0 122.365 13.8356 1693 134.962 49.4436 435.33
984 1 64.1151 10.4811 672 138.344 49.7217 460.408
985 0 68.1919 11.9956 818 133.071 49.9621 458.097
986 0 72.1341 12.0886 872 123.658 50.0333 459.107
987 0 74.1137 12.5078 927 124.858 50.1176 459.638
988 0 77.0665 12.7163 980 124.08 50.8439 458.11
989 0 79.1882 13.6763 1083 122.172 50.4349 456.652
990 0 82.0787 12.8292 1053 126.126 50.5309 455.18
991 0 83.0997 12.5031 1039 127.986 49.9981 453.502
992 0 88.2313 13.2606 1170 126.567 50.2162 452.478
993 0 89.0889 13.6044 1212 126.616 50.1832 450.508
994 0 93.206 13.2395 1234 127.137 50.487 449.778
995 0 95.0739 12.7164 1209 129.199 50.9032 446.476
996 0 102.142 13.4519 1374 125.541 50.2817 445.454
997 1 53.0344 10.71 568 126.197 50.9419 470.037
998 0 54.0777 11.5205 623 124.31 50.6276 468.563
999 0 53.0935 11.4892 610 126.054 50.3934 466.279
1000 0 60.1574 13.1821 793 115.155 50.3216 468.517
1001 0 58.0777 12.5349 728 121.478 50.5371 467.038
1002 0 61.055 13.2504 809 119.834 50.3288 465.865
1003 0 63.1008 12.377 781 123.238 50.598 463.338
1004 0 64.0513 12.5524 804 125.045 50.3843 462.765
1005 0 66.0672 12.7446 842 125.134 50.1354 463.707
1006 0 68.0704 12.6046 858 125.855 50.0909 461.612
1007 0 71.0319 12.8111 910 127.488 50.5659 461.427
1008 0 74.1772 14.034 1041 124.563 50.1182 461.064
1009 0 74.1247 13.3424 989 129.117 49.5379 458.679
1010 0 77.1092 13.7986 1064 127.882 50.2444 458.461
1011 0 79.0929 13.6169 1077 130.271 50.039 456.005
1012 0 83.1469 15.1299 1258 124.564 49.8251 456.103
1013 0 83.2048 13.8213 1150 131.578 49.9026 451.204
1014 0 88.1713 14.245 1256 128.721 49.7325 451.413
1015 0 89.2107 13.7315 1225 133.434 49.6033 449.82
1016 0 91.1138 14.0593 1281 133.538 49.402 447.77
1017 0 95.099 14.3009 1360 132.111 49.7037 447.225
1018 0 97.1113 13.9325 1353 134.768 49.9741 443.098
1019 0 102.115 13.5828 1387 136.221 49.8753 443.01
1020 0 108.143 14.3883 1556 132.569 49.2995 441.868
1021 1 57.0913 9.59867 548 140.044 50.4033 463.339
1022 0 59.1117 10.3702 613 136.038 50.4421 462.599
1023 0 63.0387 14.0231 884 124.154 50.3314 465.325
1024 0 62.2038 11.5427 718 134.501 49.7159 464.387
1025 0 64.038 10.7748 690 127.159 49.4855 464.807
1026 0 66.055 11.9749 791 125.855 49.5107 462.282
1027 0 70.0585 11.6474 816 126.222 49.0821 462.222
1028 0 71.0863 12.1964 867 126.426 49.2503 459.865
1029 0 75.0395 11.474 861 126.195 48.9942 460.564
1030 0 78.1143 12.3153 962 125.606 49.2412 458.379
1031 0 80.1256 12.1809 976 127.591 49.4969 456.675
1032 0 84.1256 12.0772 1016 126.959 49.5551 456.642
1033 0 85.0667 13.1074 1115 125.862 49.1955 454.885
1034 0 89.0801 11.7198 1044 128.634 48.7213 453.943
1035 0 92.0817 14.0636 1295 124.625 49.071 451.682
1036 0 95.0677 14.0742 1338 125.726 49.5703 449.889
1037 0 98.1034 12.5378 1230 131.042 49.4894 445.929
1038 0 100.151 12.3713 1239 131.241 49.322 445.857
1039 0 104.172 13.1802 1373 129.451 49.7881 445.106
1040 0 108.139 12.4561 1347 132.239 48.9399 442.02
1041 0 113.068 14.5753 1648 126.679 49.2907 440.288
1042 0 117.123 13.3449 1563 130.148 49.2956 438.411
1043 0 122.157 13.0897 1599 129.865 49.0694 439.034
1044 0 127.111 13.2247 1681 130.23 49.4967 434.265
1045 0 131.296 14.0294 1842 127.768 49.5765 432.452
1046 0 136.254 13.6877 1865 128.161 49.5244 429.614
1047 0 139.313 13.6456 1901 129.858 49.393 426.953
1048 0 146.223 14.642 2141 124.829 48.6604 425.422
1049 0 151.337 14.5966 2209 126.926 48.7433 422.904
1050 1 84.062 11.7294 986 119.371 48.9959 463.473
1051 0 87.2294 11.8194 1031 117.52 50.4287 460.625
1052 0 91.1861 12.0961 1103 115.196 50.5549 460.309
1053 0 93.2145 12.2406 1141 115.867 50.8352 456.404
1054 0 94.1344 12.0254 1132 116.03 50.8489 455.452
1055 0 101.156 13.1975 1335 111.473 50.3288 454.01
1056 0 102.112 12.4667 1273 124.862 51.0094 451.009
1057 0 105.125 11.5482 1214 125.397 50.6071 449.619
1058 0 108.088 11.4074 1233 125.273 50.9878 445.818
1059 0 113.232 12.6819 1436 121.909 50.3935 445.273
1060 0 116.204 12.1682 1414 122.477 49.9392 443.595
1061 0 121.233 12.3812 1501 120.205 50.0426 441.867
1062 0 124.161 11.5414 1433 121.773 51.3517 439.909
1063 0 130.224 12.2635 1597 120.618 51.3757 437.047
1064 0 136.199 12.7607 1738 118.687 51.6151 433.896
1065 0 140.375 12.5164 1757 115.4 50.7792 429.771
1066 0 143.291 11.3685 1629 120.461 50.8201 430.246
1067 0 150.497 12.2062 1837 120.845 50.7365 426.811
1068 1 78.2525 10.0061 783 113.086 50.235 463.715
1069 0 82.2498 12.5715 1034 106.668 49.9391 462.492
1070 0 84.3369 10.5411 889 110.152 50.6018 461.66
1071 0 86.4429 10.5272 910 109.604 50.3868 460.199
1072 0 90.2534 11.6782 1054 107.765 50.667 459.357
1073 0 93.2188 11.7036 1091 110.267 50.8506 456.209
1074 0 96.2472 11.1588 1074 112.149 50.2663 454.642
1075 0 100.167 11.9001 1192 111.039 50.1753 450.776
1076 0 102.285 11.5853 1185 113.516 50.4329 451.456
1077 0 107.386 12.7019 1364 113.549 50.3966 447.999
1078 0 112.396 11.6998 1315 113.506 50.3597 447.793
1079 0 115.235 12.2098 1407 113.4 50.6624 443.106
1080 0 117.25 11.0448 1295 116.583 51.1459 441.909
1081 0 120.229 10.8294 1302 116.869 50.7826 441.084
1082 0 125.254 10.8659 1361 116.891 50.4195 439.193
1083 0 131.339 12.2279 1606 112.683 49.7852 438.115
1084 1 69.1933 11.0415 764 106.751 51.428 468.835
1085 0 71.3618 12.6258 901 102.455 50.6071 467.131
1086 0 71.2198 10.6572 759 107.598 51.2806 467.881
1087 0 74.1151 11.9949 889 103.543 51.0686 465.809
1088 0 76.2719 12.3637 943 101.934 50.6596 466.759
1089 0 80.1888 12.9694 1040 102.078 51.2663 463.663
1090 0 82.156 11.9529 982 104.551 50.9532 462.117
1091 0 81.2187 11.4383 929 106.769 51.6297 461.464
1092 0 87.1801 11.654 1016 105.557 51.3317 461.716
1093 0 90.3559 13.0927 1183 103.038 50.6492 458.632
1094 0 91.1863 13.1818 1202 103.668 50.6647 458.136
1095 0 93.2214 13.3339 1243 103.591 50.0314 456.346
1096 0 95.1278 12.9405 1231 105.464 50.3193 455.539
1097 0 98.2044 12.9424 1271 106.079 50.5547 455.706
1098 0 99.0935 12.029 1192 109.6 50.7794 452.058
1099 0 102.298 12.2192 1250 108.664 50.6272 451.726
1100 0 107.294 12.75 1368 107.634 50.451 449.224
1101 0 109.215 12.2786 1341 109.09 49.6659 449.515
1102 0 114.129 12.4684 1423 108.363 50.2431 446.464
1103 0 115.282 12.8208 1478 108.002 50.2842 445.252
1104 1 60.1424 10.4419 628 100.675 50.3806 469.766
1105 0 64.1771 11.2969 725 98.1366 50.4221 469.379
1106 0 66.2354 12.1838 807 96.6084 50.6233 467.01
1107 0 68.0518 12.1672 828 96.4698 49.6304 467.204
1108 0 70.1797 12.24 859 97.0338 49.8219 465.097
1109 0 72.1438 12.0593 870 97.9023 49.1931 466.855
1110 0 75.1014 12.4898 938 96.7644 49.2271 466.116
1111 0 75.0592 11.0979 833 101.589 49.8944 463.556
1112 0 79.2116 12.4603 987 99.4326 49.2442 461.785
1113 0 82.0744 13.0857 1074 99.0764 48.8063 461.18
1114 0 85.1285 13.8966 1183 98.0904 49.3331 461.369
1115 0 85.1402 11.898 1013 104.61 49.0691 458.351
1116 0 90.2257 12.6128 1138 102.428 48.8717 456.692
1117 0 93.0526 12.1007 1126 104.485 49.4663 455.193
1118 0 97.149 12.3933 1204 103.876 49.4061 455.886
1119 0 101.054 13.7452 1389 101.387 49.7948 453.934
1120 0 102.195 12.1435 1241 106.499 50.0749 454.161
1121 0 102.245 11.4334 1169 109.034 49.1745 450.055
1122 0 109.211 12.636 1380 108.042 49.0725 449.936
1123 1 60.1035 11.6632 701 106.922 49.2796 471.561
1124 0 59.0688 12.9679 766 103.3 50.1684 472.144
1125 0 62.0934 12.0625 749 104.951 50.498 473.744
1126 0 63.1567 11.8911 751 106.373 50.3036 471.18
1127 0 67.1247 13.3483 896 102.523 50.3348 469.954
1128 0 67.0653 12.3909 831 105.925 50.296 468.367
1129 0 71.1755 11.6473 829 107.467 50.3064 469.327
1130 0 72.1352 12.3795 893 106.535 50.4031 468.148
1131 0 75.0836 13.6115 1022 104.131 50.6331 466.258
1132 0 77.0834 12.7265 981 106.847 50.634 465.041
1133 0 80.1518 12.7383 1021 107.103 51.0901 463.761
1134 0 83.2178 13.4947 1123 106.108 50.7622 461.738
1135 0 83.2403 12.4579 1037 108.876 50.9614 461.253
1136 0 88.1276 13.8209 1218 105.659 50.8604 458.395
1137 0 90.1184 14.8582 1339 104.267 50.463 456.208
1138 0 94.295 14.1047 1330 106.467 50.4571 457.338
1139 0 96.2015 13.6796 1316 108.815 50.6155 453.124
1140 0 100.249 12.8779 1291 111.483 50.866 453.96
1141 1 57.1899 12.4323 711 111.554 50.8931 472.714
1142 0 57.1441 12.4072 709 113.739 50.7348 473.587
1143 0 59.2936 13.4585 798 112.97 51.0627 470.465
1144 0 61.1477 12.0691 738 117.18 50.4512 472.897
1145 0 62.1946 12.2358 761 118.135 51.0158 470.51
1146 0 64.2393 12.6558 813 117.921 50.5855 471.453
1147 0 65.0636 12.9104 840 117.924 49.344 468.63
1148 0 67.0574 12.6459 848 119.162 48.1993 466.318
1149 0 71.1657 13.9674 994 115.273 47.7425 463.686
1150 0 73.1896 13.3625 978 117.406 47.817 462.912
1151 0 75.2536 13.7801 1037 117.444 47.54 462.142
1152 0 76.2009 12.5983 960 122.306 48.326 463.11
1153 0 80.102 13.2082 1058 120.154 48.3233 461.576
1154 0 82.1397 13.9762 1148 120.163 48.1638 458.387
1155 0 84.1871 13.3156 1121 121.71 48.1329 459.174
1156 0 88.1339 13.5476 1194 124.511 47.8384 455.627
1157 0 91.172 13.3594 1218 124.736 48.7718 455.518
1158 0 96.2171 13.9164 1339 122.91 48.4212 454.857
1159 0 96.228 12.8341 1235 129.442 48.519 452.778
1160 0 101.121 14.4777 1464 124.813 48.0519 450.378
1161 1 52.0456 12.489 650 121.423 49.0231 475.409
1162 0 54.0212 12.273 663 121.335 49.0377 474.741
1163 0 56.0869 13.2651 744 120.065 48.6169 472.745
1164 0 56.2433 12.6593 712 121.396 48.6447 470.419
1165 0 59.1442 12.2582 725 122.658 49.9862 473.189
1166 0 60.1677 12.3654 744 121.668 50.7755 472.137
1167 0 63.1027 13.8029 871 118.63 49.76 470.816
1168 0 63.2056 12.6571 800 123.332 50.3275 466.812
1169 0 67.14 12.9282 868 121.165 49.3491 468.609
1170 0 71.1531 13.3656 951 120.948 50.286 467.34
1171 0 73.118 12.7602 933 122.995 49.7717 467.318
1172 0 74.1237 12.9783 962 125.817 49.9782 464.256
1173 0 76.2404 12.9328 986 127.121 50.2191 462.96
1174 0 79.1826 13.3489 1057 126.995 50.2791 462.927
1175 0 81.0661 12.459 1010 129.681 50.1436 461.013
1176 0 85.1666 12.9746 1105 126.024 49.5729 457.982
1177 0 85.1936 12.9235 1101 127.304 49.7312 457.17
1178 0 88.3884 12.8297 1134 128.318 49.8774 455.312
1179 0 91.2265 12.7923 1167 128.648 49.9589 454.379
1180 0 94.2523 12.3498 1164 128.934 50.5095 453.965
1181 0 98.2236 12.8279 1260 128.848 50.0881 450.48
1182 0 101.241 12.4061 1256 128.122 49.9952 450.732
1183 1 56.148 10.686 600 123.49 50.5117 473.537
1184 0 58.1395 13.1064 762 120.538 50.8491 471.539
1185 0 61.0742 11.5924 708 118.781 50.7994 470.246
1186 0 63.1499 12.9691 819 116.816 50.7582 468.306
1187 0 64.1141 11.6199 745 121.444 50.4872 469.839
1188 0 66.121 11.9176 788 120.617 50.2716 467.409
1189 0 69.1743 11.7818 815 121.437 49.8798 465.385
1190 0 72.1279 13.074 943 117.6 49.8356 463.426
1191 0 75.1494 12.2157 918 120.464 50.3224 463.486
1192 0 78.2031 13.0813 1023 118.675 50.2053 462.487
1193 0 79.2148 12.8259 1016 121.365 49.9577 461.036
1194 0 80.2627 12.6834 1018 121.794 50.0442 460.309
1195 0 83.1913 11.5757 963 126.776 49.5026 458.564
1196 0 88.176 12.4864 1101 129.295 49.9292 455.307
1197 0 91.2023 13.8154 1260 126.305 49.6587 454.96
1198 0 92.2824 13.1661 1215 129.479 50.256 453.89
1199 0 94.29 12.5464 1183 131.79 50.1817 452.67
1200 0 100.356 12.8443 1289 131.015 50.3825 450.42
1201 1 51.2181 10.5822 542 122.332 50.8524 475.491
1202 0 52.1461 11.4678 598 121.446 50.8545 475.612
1203 0 54.0581 12.0056 649 121.84 50.5254 473.814
1204 0 57.1289 11.3428 648 123.387 50.5386 472.988
1205 0 59.0711 12.0702 713 119.975 49.8906 472.213
1206 0 59.1635 12.5246 741 121.914 50.8381 470.879
1207 0 61.107 11.9299 729 123.542 50.6955 470.37
1208 0 64.1091 13.6798 877 118.747 50.2771 470.302
1209 0 67.1299 13.9431 936 118.5 50.0214 468.145
1210 0 68.066 12.9874 884 121.497 50.1063 465.154
1211 0 69.1493 11.8584 820 124.98 50.0976 466.644
1212 0 71.1569 12.8308 913 121.714 49.8675 465.254
1213 0 75.1572 12.5337 942 122.859 50.4597 463.323
1214 0 76.0984 12.7861 973 122.978 49.8171 462.265
1215 0 80.0896 12.8106 1026 120.587 49.7339 461.835
1216 0 80.0787 12.0756 967 124.518 50.4054 459.785
1217 0 83.3402 12.731 1061 122.932 50.1357 458.41
1218 0 86.0998 12.7759 1100 123.237 49.9627 456.702
1219 0 89.1096 13.0513 1163 122.164 49.5563 454.678
1220 0 92.1861 11.5419 1064 125.258 50.5226 455.291
1221 1 50.0863 10.8013 541 126.272 51.1072 472.924
1222 0 52.0917 10.8846 567 124.935 50.612 472.841
1223 0 54.1044 11.2006 606 121.645 50.8003 472.977
1224 0 57.0505 12.2348 698 117.272 50.6547 471.991
1225 0 59.1379 11.4478 677 119.598 50.2644 471.451
1226 0 61.1295 11.7456 718 115.111 50.0487 469.914
1227 0 61.1131 12.2396 748 115.607 50.6925 470.814
1228 0 65.1607 11.7556 766 116.649 50.4178 469.138
1229 0 65.1929 12.6087 822 115.818 49.3869 467.089
1230 0 68.1789 11.8805 810 116.556 50 466.34
1231 0 69.1178 11.8059 816 115.868 49.511 465.875
1232 0 72.1301 13.8777 1001 111.015 49.4735 464.009
1233 0 75.1958 12.8864 969 113.353 49.8793 463.349
1234 0 76.1004 12.72 968 115.562 49.8171 462.877
1235 0 78.1807 13.0595 1021 116.936 50.0862 461.932
1236 0 79.0811 12.6705 1002 120.066 49.1836 460.333
1237 0 82.1704 12.8879 1059 120.751 49.0255 458.487
1238 0 86.1683 13.6129 1173 118.528 49.0537 457.153
1239 0 88.0812 13.1583 1159 123.061 49.5246 458.613
1240 0 91.1092 12.3478 1125 123.376 49.096 457.914
1241 1 51.0566 12.1238 619 122.124 49.3441 476.388
1242 0 52.0227 12.3408 642 117.88 49.6106 476.333
1243 0 52.0088 12.1518 632 116.389 49.2658 476.834
1244 0 53.0433 11.632 617 119.201 48.2301 477.157
1245 0 54.0472 11.0089 595 121.139 48.4487 477.143
1246 0 55.0199 11.1233 612 122.958 48.2549 474.418
1247 0 57.0202 11.1715 637 122.573 48.0706 474.48
1248 0 57.0896 11.9461 682 121.211 47.9062 473.613
1249 0 60.056 10.8898 654 123.561 48.3792 473.202
1250 0 61.031 12.6821 774 120.928 47.5879 470.45
1251 0 66.1244 12.4916 826 118.97 46.9915 469.358
1252 0 66.0236 12.132 801 121.491 48.3084 469.75
1253 0 67.0209 11.4889 770 124.103 47.7649 467.691
1254 0 72.0617 12.6836 914 120.353 47.8118 467.142
1255 0 75.0407 13.1928 990 119.148 48.5747 464.646
1256 0 77.0902 12.1416 936 123.434 48.5353 463.354
1257 0 80.0581 11.8414 948 123.103 48.2078 463.758
1258 0 82.0474 12.4684 1023 123.126 48.13 461.043
1259 0 84.0905 12.2249 1028 124.797 47.9455 459.953
1260 0 88.0811 12.0344 1060 124.813 48.1132 460.508
1261 0 91.1001 12.5466 1143 124.353 48.7752 459.736
1262 0 93.1067 11.5889 1079 128.043 48.3614 457.555
1263 1 51.0106 11.9975 612 127.054 48.1846 476.546
1264 0 54.0166 12.6257 682 124.805 48.1452 474.676
1265 0 55.1945 12.8455 709 125.738 48.835 474.601
1266 0 57.0512 13.0409 744 124.519 47.8226 473.411
1267 0 59.1134 13.7194 811 123.633 48.5512 471.974
1268 0 60.0699 12.6852 762 126.921 49.8806 473.172
1269 0 61.1604 13.7671 842 123.468 50.7506 471.452
1270 0 64.1913 12.8055 822 124.928 49.8905 471.473
1271 0 67.0783 13.283 891 123.076 49.9854 469.888
1272 0 68.171 13.4221 915 123.414 49.106 470.035
1273 0 70.071 13.3722 937 124.038 49.6137 467.98
1274 0 72.0858 13.1926 951 125.137 50.1598 466.542
1275 0 74.1553 13.3638 991 124.537 49.5429 467.47
1276 0 75.0439 14.245 1069 123.263 49.4303 464.438
1277 0 79.1299 13.4589 1065 125.152 49.6732 463.814
1278 0 81.0506 13.9789 1133 123.98 49.0971 463.974
1279 0 85.1841 14.498 1235 123.193 49.0721 460.78
1280 0 84.112 13.6604 1149 127.246 49.3525 459.956
1281 0 89.1101 13.6124 1213 127.43 49.0989 459.677
1282 0 91.1832 13.7854 1257 127.084 49.4248 456.967
1283 0 94.1133 13.3031 1252 129.36 49.8578 455.188
1284 0 98.1464 14.2542 1399 126.084 50.0071 453.843
1285 0 100.1 14.0359 1405 127.699 49.632 452.132
1286 0 104.252 14.0046 1460 128.653 49.0747 451.305
1287 1 58.1776 12.3243 717 133.763 48.7992 472.003
1288 0 60.0619 13.869 833 121.409 48.1248 471.873
1289 0 60.151 12.3855 745 126.431 48.4242 470.783
1290 0 62.0981 13.3498 829 125.045 48.3559 468.692
1291 0 65.0978 12.7808 832 126.103 48.4555 468.51
1292 0 68.1132 12.4499 848 124.81 48.1958 467.374
1293 0 71.2035 13.6651 973 122.311 48.445 465.357
1294 0 73.1818 12.9267 946 124.148 48.3742 466.066
1295 0 75.1282 14.6549 1101 119.674 48.436 466.32
1296 0 76.0834 13.4983 1027 125.699 48.5501 464.532
1297 0 78.1273 14.31 1118 125.055 48.4106 463.162
1298 0 83.0552 14.0268 1165 127.7 47.897 461.272
1299 0 83.0834 14.7924 1229 128.111 47.8918 459.529
1300 0 88.1417 15.2255 1342 125.326 47.8689 459.851
1301 0 91.0659 14.9891 1365 127.204 48.0198 458.557
1302 0 93.0715 14.3868 1339 130.253 47.9365 457.044
1303 0 96.0571 15.1889 1459 128.786 48.3516 454.296
1304 0 99.042 15.1249 1498 130.581 47.974 452.304
1305 0 102.064 14.6672 1497 130.246 47.7061 450.088
1306 1 50.0878 11.5198 577 130.648 49.2184 468.43
1307 0 53.1228 10.9181 580 130.278 48.8966 467.403
1308 0 57.0382 13.2718 757 125.291 50.1466 474.531
1309 0 58.0387 13.043 757 127.297 50.5363 474.855
1310 0 61.084 14.4391 882 122.098 50.3707 474.048
1311 0 63.0928 14.3915 908 123.732 50.1454 472.028
1312 0 63.0971 13.1543 830 127.549 50.312 469.436
1313 0 66.0958 14.4941 958 121.763 49.5772 468.559
1314 0 68.121 13.6228 928 125.411 49.5237 468.181
1315 0 71.1436 15.2649 1086 121.075 49.1805 465.924
1316 0 74.1856 13.9784 1037 124.459 50.1967 467.597
1317 0 76.1493 13.9069 1059 126.466 49.8102 465.096
1318 0 77.0816 14.0241 1081 128.089 49.5837 463.77
1319 0 80.0747 14.8486 1189 125.918 49.8301 461.33
1320 0 83.1103 13.825 1149 129.06 49.0313 460.392
1321 0 86.0975 14.3442 1235 128.302 49.6567 461.26
1322 0 88.1942 14.5021 1279 127.691 49.509 457.726
1323 0 93.1252 15.6778 1460 124.297 49.0863 455.79
1324 0 94.2776 14.521 1369 128.95 49.5676 454.004
1325 0 97.1904 14.0137 1362 131.175 49.2592 452.454
1326 0 102.098 13.9767 1427 130.734 49.1352 451.447
1327 0 104.284 15.055 1570 127.167 49.4293 452.005
1328 0 107.115 15.18 1626 128.244 49.4772 450.458
1329 0 106.116 13.6831 1452 134.397 49.4552 450.492
1330 0 112.13 14.9113 1672 129.689 49.2398 447.59
1331 0 114.115 13.3462 1523 135.713 49.1596 447.081
1332 0 119.144 14.2936 1703 132.907 48.909 442.839
1333 1 66.1091 11.7533 777 133.943 49.3514 469.775
1334 0 67.12 12.4702 837 130.846 49.3799 469.421
1335 0 72.098 13.0656 942 124.419 49.3854 467.047
1336 0 73.065 13.0569 954 120.922 49.0849 466.961
1337 0 77.0777 13.3891 1032 118.919 49.3566 465.608
1338 0 79.1608 13.0115 1030 120.169 49.6777 465.292
1339 0 82.1048 13.2392 1087 119.684 49.5455 462.732
1340 0 85.1045 14.0886 1199 117.892 49.7314 461.206
1341 0 87.1117 13.1785 1148 121.008 49.2683 458.404
1342 0 89.1972 13.0385 1163 125.236 49.2872 458.716
1343 0 94.1765 14.5578 1371 120.929 49.3392 455.888
1344 0 97.2558 12.8219 1247 124.65 49.2117 451.975
1345 0 101.139 14.0401 1420 120.352 49.5303 452.941
1346 0 105.202 13.8685 1459 119.555 49.3687 451.523
1347 1 57.0683 11.3023 645 124.515 49.9101 472.758
1348 0 55.02 11.3232 623 118.925 48.1605 468.072
1349 0 58.0432 12.0255 698 103.415 48.8653 468.683
1350 0 61.0655 11.5777 707 104.014 49.2801 467.676
1351 0 58.104 10.4124 605 108.841 48.9025 465.423
1352 0 59.0284 11.1641 659 107.023 49.1062 466.712
1353 0 66.0552 12.3836 818 102.314 49.4254 465.59
1354 0 67.0464 13.3788 897 101.494 48.806 463.6
1355 0 69.0917 11.492 794 104.987 48.2922 461.985
1356 0 69.0227 10.8225 747 106.454 48.6252 462.426
1357 0 73.1279 12.1841 891 104.073 48.6958 459.736
1358 0 75.1164 11.4223 858 105.397 48.9207 458.652
1359 0 77.0435 11.7466 905 105.124 48.4387 458.449
1360 0 80.1142 11.7083 938 104.47 48.5501 456.673
1361 0 83.1976 12.0196 1000 103.948 47.791 453.874
1362 0 87.0425 11.7644 1024 104.746 48.459 451.927
1363 0 89.1237 12.3648 1102 104.103 48.2278 452.062
1364 0 91.1875 12.7868 1166 104.138 48.0952 449.27
1365 0 96.1638 11.8236 1137 106.846 48.2621 449.511
1366 1 50.0352 10.0129 501 102.816 48.4331 472.491
1367 0 52.0349 10.2047 531 102.075 48.8418 471.738
1368 0 54.1391 11.1934 606 98.8746 48.9406 473.137
1369 0 56.1002 11.3547 637 100.132 49.2684 470.025
1370 0 59.083 13.9296 823 97.9903 48.6379 469.327
1371 0 61.1023 11.7344 717 99.53 49.2357 469.66
1372 0 62.1374 12.6655 787 98.1677 49.0801 469.252
1373 0 64.0766 11.7828 755 100.211 49.0662 469.052
1374 0 65.1268 12.0074 782 101.106 48.5307 467.474
1375 0 67.0847 12.6706 850 99.6106 48.6471 467.62
1376 0 70.0586 13.1604 922 98.8698 49.077 465.099
1377 0 74.1288 12.4108 920 100.916 48.637 466.57
1378 0 73.0289 12.4608 910 103.033 48.7758 465.002
1379 0 78.0421 13.0186 1016 102.883 48.685 462.803
1380 0 80.0834 13.5609 1086 101.88 49.0829 462.405
1381 0 84.0906 14.0682 1183 101.634 48.9332 460.227
1382 0 86.1194 11.9485 1029 108.267 49.0603 460.943
1383 0 91.1376 12.6951 1157 107.043 48.0553 458.085
1384 0 92.0682 12.002 1105 109.484 48.2063 458.735
1385 1 46.1415 11.4214 527 108.636 48.4137 479.825
1386 0 49.0276 12.3808 607 106.323 49.1087 479.074
1387 0 50.0303 12.1526 608 106.485 50.1382 477.345
1388 0 51.0729 12.629 645 110.398 50.2512 478.792
1389 0 53.1561 12.6232 671 110.903 49.9016 477.168
1390 0 54.214 12.672 687 111.122 51.0233 477.192
1391 0 57.1286 14.021 801 107.481 49.5343 475.659
1392 0 58.1025 12.6673 736 111.166 49.4701 475.007
1393 0 59.0712 13.306 786 111.098 49.2023 472.354
1394 0 63.1605 13.2361 836 110.051 49.2452 474.557
1395 0 64.0536 12.9267 828 111.322 48.7476 472.455
1396 0 67.2051 13.2282 889 109.877 48.6457 472.359
1397 0 70.1282 14.06 986 108.428 48.8611 469.318
1398 0 71.1168 12.1772 866 113.812 48.4873 469.158
1399 0 77.146 13.118 1012 109.788 48.6235 468.227
1400 0 77.0609 13.4569 1037 110.365 48.6461 465.928
1401 0 78.1096 12.7769 998 113.141 48.7705 464.519
1402 1 42.0093 12.0212 505 113.479 49.602 484.865
1403 0 43.0944 12.2058 526 113.774 49.2662 481.833
1404 0 43.0562 11.845 510 114.998 49.1059 482.214
1405 0 45.1353 13.0275 588 105.638 48.6071 478.043
1406 0 45.1642 12.6649 572 113.593 48.3409 480.129
1407 0 47.0681 12.7687 601 112.153 48.6206 479.992
1408 0 50.0859 13.1774 660 110.667 48.3076 478.035
1409 0 50.1544 13.0597 655 110.808 48.4611 476.824
1410 0 50.0394 12.5301 627 113.024 48.4514 476.404
1411 0 54.1075 13.4732 729 109.774 48.7888 474.115
1412 0 55.0957 13.1952 727 110.788 48.3246 474.608
1413 0 57.1156 12.1158 692 112.227 48.3873 473.217
1414 0 59.1159 12.6531 748 110.1 48.3168 471.503
1415 0 62.1306 12.8922 801 109.004 48.613 470.929
1416 0 64.0639 12.5656 805 108.834 48.6025 470.944
1417 0 65.1189 12.2238 796 111.195 48.5678 467.736
1418 0 69.3285 13.674 948 106.123 47.6793 468.679
1419 0 69.0811 13.1729 910 108.995 47.9736 466.501
1420 0 71.1401 12.4824 888 111.546 48.1182 463.132
1421 0 74.1452 13.514 1002 110.542 48.1826 463.822
1422 0 76.0939 12.3794 942 113.924 48.0361 463.804
1423 1 41.0373 10.8194 444 116.403 48.7207 481.538
1424 0 39.0073 12.613 492 116.059 49.2744 479.679
1425 0 42.036 12.1563 511 117.72 49.5753 479.779
1426 0 45.1074 12.5922 568 116.396 50.5528 478.746
1427 0 45.0098 12.8416 578 116.54 50.173 478.491
1428 0 46.1193 12.0557 556 111.362 49.6061 474.453
1429 0 46.1686 11.7396 542 112.751 49.1513 472.286
1430 0 48.0367 12.886 619 109.968 49.0275 471.252
1431 0 51.1036 12.4453 636 109.731 49.3491 472.973
1432 0 52.1008 11.2282 585 113.443 49.1043 471.8
1433 0 52.1008 11.1899 583 139.774 48.1098 471.842
1434 0 56.0773 12.3044 690 111.639 48.9406 469.104
1435 0 58.0502 12.2997 714 112.569 49.0728 466.85
1436 0 61.0873 12.785 781 110.435 49.3124 467.264
1437 0 61.0813 12.2132 746 113.767 49.1126 466.185
1438 0 64.0684 12.9393 829 113.206 49.0217 465.345
1439 0 65.1148 12.8696 838 114.189 49.1826 464.335
1440 0 67.1074 11.7424 788 117.315 49.0635 462.036
1441 0 71.1196 14.328 1019 110.213 49.0216 460.451
1442 0 73.065 13.0295 952 114.93 49.1576 459.898
1443 0 75.1745 13.2093 993 114.84 49.0564 456.25
1444 0 79.1197 13.1194 1038 114.698 49.5231 459.14
1445 0 81.1414 13.3347 1082 115.792 49.0028 457.81
1446 0 84.1414 13.6794 1151 114.106 48.9479 454.827
1447 0 87.2193 13.1393 1146 116.131 49.0986 450.045
1448 0 90.2007 13.0043 1173 116.959 49.6539 449.918
1449 0 94.1984 13.599 1281 115.567 49.7486 450.783
1450 0 97.1424 13.5471 1316 115.417 49.5532 450.777
1451 0 97.1712 11.701 1137 122.56 49.204 447.514
1452 1 48.0605 12.297 591 118.469 50.2978 473.57
1453 0 50.1309 11.8889 596 116.059 49.8255 469.346
1454 0 52.1002 12.1689 634 114.97 49.4527 468.15
1455 0 55.0444 12.8623 708 112.018 49.8531 469.366
1456 0 56.138 11.3649 638 116.387 49.663 467.517
1457 0 58.0644 12.6239 733 113.139 49.719 467.447
1458 0 61.0719 13.3449 815 110.18 49.6049 465.209
1459 0 63.0959 13.1546 830 110.636 49.6518 463.923
1460 0 65.1913 12.6551 825 111.273 49.297 462.83
1461 0 67.137 13.6288 915 108.698 50.2317 462.485
1462 0 68.1878 12.3482 842 112.821 49.6306 461.264
1463 0 72.191 13.3535 964 109.488 49.7199 462.022
1464 0 76.158 13.5114 1029 109.151 49.3654 459.851
1465 0 76.2947 12.8056 977 112.961 49.6111 456.994
1466 0 78.2462 12.6524 990 114.121 49.7101 456.37
1467 0 83.2273 12.7122 1058 113.607 49.2429 453.016
1468 0 85.3588 12.5822 1074 114.152 48.6704 454.811
1469 0 86.2089 13.0381 1124 91.298 49.6254 452.415
1470 0 92.3516 13.5027 1247 113.668 49.4362 450.188
1471 0 93.3823 12.5184 1169 119.757 49.7887 448.036
1472 1 46.0974 10.2826 474 122.236 48.6646 469.759
1473 0 48.0151 10.2051 490 119.737 48.7735 471.249
1474 0 56.0884 12.4625 699 126.323 50.4893 473.582
1475 0 58.0583 12.8664 747 124.469 50.3494 472.705
1476 0 59.0608 13.884 820 122.939 50.578 472.387
1477 0 60.0732 13.8664 833 123.331 50.6435 471.032
1478 0 61.0575 14.4618 883 120.608 50.6365 472.333
1479 0 64.062 13.1903 845 123.853 50.6947 470.718
1480 0 67.0715 13.8509 929 122.203 50.4187 470.119
1481 0 69.0432 13.7595 950 122.558 49.6695 466.473
1482 0 70.1005 12.9243 906 125.776 49.6744 467.439
1483 0 72.1218 14.2398 1027 121.852 49.5657 466.336
1484 0 74.0728 13.2572 982 125.83 49.3849 463.526
1485 0 78.1411 13.4116 1048 125.11 49.6097 462.924
1486 0 81.0415 13.9311 1129 123.147 49.512 461.01
1487 0 84.0455 13.3856 1125 124.167 49.0533 460.548
1488 0 87.1993 14.163 1235 121.94 48.7563 459.597
1489 0 88.103 12.5535 1106 127.49 49.1953 456.347
1490 0 92.2764 13.2212 1220 124.716 48.8639 454.298
1491 1 50.1681 11.2621 565 122.46 48.4832 475.204
1492 0 51.1248 11.3839 582 116.907 47.4467 476.402
1493 0 53.2257 12.8697 685 112.13 48.0949 474.905
1494 0 53.1122 11.6734 620 107.544 47.8742 468.119
1495 0 53.1071 11.072 588 110.639 47.4643 471.005
1496 0 56.1035 12.0492 676 112.374 47.4098 473.325
1497 0 57.098 11.5766 661 114.584 47.4629 471.917
1498 0 60.1186 12.1427 730 111.442 47.3986 472.722
1499 0 62.1052 11.9797 744 112.285 47.6022 471.001
1500 0 63.0462 10.8333 683 113.606 47.2899 472.097
1501 0 65.0814 12.5535 817 110.206 46.9596 468.493
1502 0 69.0896 12.0279 831 110.241 47.2431 467.165
1503 0 71.1071 12.5866 895 101.628 47.6436 467.646
1504 0 71.1704 11.9432 850 105.559 47.7741 466.338
1505 0 72.1362 12.6289 911 105.325 47.921 467.182
1506 0 71.1246 11.9649 851 109.038 47.2127 464.112
1507 0 73.2028 11.6662 854 112.92 48.0937 464.933
1508 0 75.0611 12.6697 951 111.403 47.9201 463.386
1509 0 75.0986 11.5714 869 116.461 47.7158 464.7
1510 0 79.1564 11.8373 937 115.093 48.6275 461.414
1511 0 81.2203 11.8074 959 116.044 48.5433 458.735
1512 0 82.4621 9.95609 821 121.452 48.4105 457.208
1513 0 87.151 11.7956 1028 114.422 48.4815 457.425
1514 0 89.3449 10.9016 974 116.547 48.9517 456.009
1515 0 89.2429 9.42372 841 119.742 48.5541 453.775
1516 1 50.233 10.4314 524 108.385 48.8779 475.326
1517 0 52.1585 10.5256 549 108.849 48.6321 473.681
1518 0 53.4381 11.7706 629 111.855 48.2162 470.749
1519 0 56.0948 12.2471 687 104.722 49.083 473.955
1520 0 55.0659 10.8597 598 110.117 49.301 474.49
1521 0 58.0734 10.9517 636 111.132 49.1965 473.303
1522 0 61.0687 11.0368 674 110.387 49.0608 472.589
1523 0 61.0693 10.6273 649 112.481 48.9122 473.687
1524 0 65.1197 12.1929 794 109.563 48.7191 471.783
1525 0 64.085 11.2975 724 114.003 49.4033 471.254
1526 0 67.1233 12.6782 851 111.684 49.1093 469.418
1527 0 68.0482 12.403 844 113.243 48.5652 469.833
1528 0 68.0481 10.9775 747 118.396 48.1553 468.936
1529 0 74.1118 12.4272 921 114.906 48.317 467.071
1530 0 75.0391 10.9809 824 120.072 48.3507 467.279
1531 0 77.0737 12.235 943 118.909 48.4295 464.769
1532 1 39.0695 10.0846 394 124.482 48.7462 484.254
1533 0 40.1077 10.5466 423 127.083 48.5225 483.196
1534 0 41.028 11.3581 466 127.444 49.0129 484.129
1535 0 44.1005 12.993 573 133.475 48.8028 481.949
1536 0 45.1993 12.3232 557 137.492 47.6122 480.662
1537 0 46.2176 12.7441 589 137.708 47.7657 479.886
1538 0 46.1625 12.8459 593 137.607 48.3862 481.835
1539 0 47.1707 13.1861 622 139.198 47.9775 480.143
1540 0 49.2895 12.8831 635 141.079 47.7622 479.636
1541 0 52.1748 14.1256 737 135.153 47.4966 479.825
1542 0 53.3496 13.3459 712 138.19 47.4593 477.757
1543 0 54.2587 13.1223 712 139.365 47.5927 477.971
1544 0 56.1835 13.5449 761 138.724 46.4783 476.698
1545 0 57.1115 13.7626 786 138.392 46.9542 475.747
1546 0 57.1898 13.0268 745 139.628 47.2336 477.004
1547 0 61.1946 13.8411 847 136.421 47.366 474.494
1548 0 63.1417 13.0183 822 135.888 46.9538 474.7
1549 0 64.1567 12.9682 832 136.446 46.9111 472.368
1550 0 65.1895 13.5605 884 134.502 46.2014 472.954
1551 0 67.1728 13.4429 903 134.21 46.5282 471.494
1552 0 70.1431 14.1995 996 131.799 46.5341 469.558
1553 0 70.0874 13.0979 918 128.304 46.3758 467.143
1554 0 72.2334 11.9889 866 131.102 46.4007 467.102
1555 0 76.0835 12.6571 963 129.12 46.2741 465.571
1556 0 79.0402 12.9681 1025 127.202 45.6205 461.717
1557 0 82.1666 13.6917 1125 126.743 46.0871 459.216
1558 0 83.1447 12.2437 1018 132.61 45.8841 458.984
1559 0 86.1046 12.6822 1092 130.468 46.6685 461.638
1560 0 89.2724 12.6579 1130 130.948 46.0814 456.433
1561 0 94.1022 14.2292 1339 126.875 46.2972 457.949
1562 0 95.3103 12.9367 1233 132.257 46.5337 454.204
1563 0 99.2025 14.3242 1421 129.11 45.7607 452.263
1564 0 103.458 14.634 1514 127.044 45.6539 449.89
1565 0 106.373 13.4809 1434 130.768 45.9533 448.262
1566 1 53.0445 12.2539 650 132.985 46.6554 474.925
1567 0 57.1495 13.7359 785 128.141 46.3924 470.415
1568 0 58.0506 12.937 751 129.858 46.1345 472.525
1569 0 63.0367 12.6593 798 128.451 45.7256 472.645
1570 0 63.0652 12.7963 807 129.657 45.6444 470.544
1571 0 67.0823 13.6847 918 126.202 45.9379 468.877
1572 0 67.0525 12.0652 809 132.141 45.8813 469.276
1573 0 71.0972 13.4042 953 127.225 45.6212 467.652
1574 0 76.0645 13.62 1036 125.141 46.0019 466.014
1575 0 77.043 13.0317 1004 127.283 46.5637 464.891
1576 0 80.1174 12.7438 1021 134.606 46.9275 464.062
1577 0 84.2528 13.412 1130 134.31 46.6735 460.001
1578 0 88.102 13.1893 1162 126.595 46.5981 458.524
1579 0 90.0497 13.3704 1204 131.407 46.2791 457.669
1580 0 95.178 13.9108 1324 126.77 46.2492 453.377
1581 1 50.1178 12.5903 631 118.479 45.5452 476.612
1582 0 52.2368 13.0751 683 115.694 46.3075 474.589
1583 0 55.2362 11.2788 623 115.501 45.7576 472.616
1584 0 54.144 12.4483 674 111.909 46.0015 468.163
1585 0 55.1096 12.3753 682 112.619 46.2537 467.384
1586 0 55.2002 12.971 716 113.461 46.2304 466.208
1587 0 56.1566 11.3433 637 118.945 46.6264 468.504
1588 0 59.1427 12.0049 710 116.269 46.3831 467.175
1589 0 61.0682 12.7726 780 115.963 46.7974 464.055
1590 0 64.1449 12.3938 795 115.878 46.4742 465.239
1591 0 64.0888 11.9522 766 118.185 46.0366 464.127
1592 0 68.0614 12.812 872 116.067 46.7741 462.596
1593 0 69.0373 11.2258 775 121.618 46.4787 461.494
1594 0 70.0477 11.9062 834 122.013 46.7026 459.15
1595 0 73.1213 12.7323 931 119.156 46.6026 458.151
1596 0 76.1415 12.2535 933 120.433 45.8939 455.473
1597 0 80.0888 13.3602 1070 117.387 46.0748 454.732
1598 0 83.0716 12.8684 1069 119.108 46.3817 455.232
1599 0 83.0547 12.847 1067 119.771 46.4302 451.732
1600 0 88.074 12.0921 1065 122.327 46.707 451.295
1601 1 45.056 9.74342 439 117.453 46.1982 471.444
1602 0 48.1488 10.2806 495 116.851 46.4343 469.701
1603 0 48.091 10.8336 521 115.234 45.4491 469.733
1604 0 50.019 11.2157 561 106.98 47.1979 468.428
1605 0 52.0589 11.1028 578 108.171 47.0744 467.517
1606 0 53.0588 12.0433 639 106.787 46.9797 466.958
1607 0 54.0457 11.0277 596 108.8 46.6695 468.513
1608 0 55.051 11.0261 607 109.661 46.603 466.783
1609 0 57.053 11.1651 637 108 46.3281 464.6
1610 0 60.0389 10.4765 629 109.537 46.1335 463.938
1611 0 62.0298 11.0431 685 107.552 45.835 461.876
1612 0 64.0429 10.9302 700 107.854 45.46 461.684
1613 0 64.068 11.5971 743 107.127 45.9448 459.485
1614 0 69.1606 10.772 745 107.894 46.1369 459.44
1615 0 70.0966 11.37 797 106.405 45.1593 457.826
1616 0 74.0491 13.1264 972 101.765 45.8076 457.382
1617 0 78.0638 12.4257 970 102.284 45.9763 456.356
1618 0 77.1474 11.9512 922 105.026 45.8351 454.046
1619 0 82.0666 12.3071 1010 103.645 45.5792 451.709
1620 0 86.112 11.4734 988 104.945 46.2075 450.721
1621 0 88.1957 10.9416 965 106.479 46.0311 448.836
1622 1 44.1024 8.86573 391 102.798 45.6496 470.788
1623 0 44.1411 8.69937 384 102.703 46.0417 469.781
1624 0 45.2942 9.80259 444 102.11 46.509 469.579
1625 0 48.0967 10.1046 486 100.642 45.607 469.473
1626 0 50.0524 10.529 527 100.677 46.1271 468.186
1627 0 52.1679 9.10521 475 102.478 45.4189 468.76
1628 0 54.1583 10.5062 569 100.576 45.9807 465.968
1629 0 55.1941 10.5265 581 100.819 45.9294 463.897
1630 0 56.1585 11.0046 618 100.714 45.6278 463.612
1631 0 58.1266 10.2191 594 103.008 45.8519 462.606
1632 0 63.063 11.3062 713 99.3015 45.9243 463.947
1633 0 62.1151 10.9957 683 102.018 46.4305 460.038
1634 0 64.1122 10.1229 649 104.374 46.6903 462.205
1635 0 70.0328 11.2804 790 102.008 46.9911 460.013
1636 0 71.1486 10.963 780 103.377 47.0885 459.524
1637 0 73.0293 10.9134 797 104.4 47.3024 456.432
1638 0 77.2361 10.565 816 104.998 46.8051 457.561
1639 0 80.1148 11.5334 924 103.517 46.4762 454.741
1640 0 85.109 11.1504 949 105.592 47.2181 455.035
1641 1 44.1619 10.1218 447 100.26 47.7405 476.528
1642 0 47.0299 10.6103 499 112.397 49 479.986
1643 0 49.1241 11.9086 585 108.379 48.8359 478.203
1644 0 49.1094 11.6678 573 111.223 48.3822 477.431
1645 0 50.0643 11.3854 570 112.979 47.7754 477.389
1646 0 52.038 12.0873 629 110.507 48.0111 477.275
1647 0 53.1008 10.998 584 114.507 48.0771 475.14
1648 0 54.1391 11.7291 635 113.411 47.8441 474.317
1649 0 57.0605 13.0563 745 110.311 47.9799 474.224
1650 0 59.0805 12.1698 719 113.024 47.4047 473.448
1651 0 59.0992 12.2167 722 112.717 46.9875 474.68
1652 0 62.2073 11.2366 699 113.911 47.4192 473.298
1653 0 64.1727 10.4562 671 116.376 47.544 472.2
1654 0 66.1033 11.8451 783 114.269 47.5211 469.769
1655 0 68.371 11.7886 806 114.175 47.5794 469.053
1656 0 70.3018 11.5644 813 114.36 47.8106 468.67
1657 0 71.2409 11.2576 802 115.512 47.2855 468.106
1658 0 74.1659 11.8248 877 114.623 46.6807 467.162
1659 0 77.2194 12.9372 999 113.207 46.5285 463.891
1660 0 78.1898 11.2547 880 119.059 46.908 464.761
1661 0 82.1635 11.4284 939 118.695 47.2023 462.968
1662 0 83.1136 11.1053 923 121.092 47.1246 460.394
1663 0 88.2244 12.2075 1077 118.769 46.7474 460.322
1664 0 89.1493 11.0265 983 123.615 46.5249 456.773
1665 0 93.2218 11.5209 1074 123.509 46.6089 455.001
1666 0 96.1785 11.4995 1106 122.966 46.6609 454.349
1667 1 54.0763 11.3358 613 119.914 47.3491 476.163
1668 0 55.0644 11.2959 622 119.58 47.3087 475.22
1669 0 57.0515 12.6552 722 120.172 46.7313 472.235
1670 0 59.0737 13.9317 823 109.797 44.904 472.81
1671 0 60.0537 13.1216 788 116.386 44.3566 472.098
1672 0 62.2108 12.538 780 117.391 43.9808 472.304
1673 0 62.2177 12.2955 765 120.624 44.1948 471.814
1674 0 64.1986 12.6482 812 119.292 45.2057 470.881
1675 0 67.0648 12.1972 818 120.523 45.4694 468.705
1676 0 70.189 12.3951 870 120.071 45.1805 466.502
1677 0 73.1509 12.8912 943 118.617 45.0286 467.262
1678 0 73.1478 12.4406 910 120.343 45.1901 466.042
1679 0 75.0785 13.1596 988 119.028 44.9868 463.073
1680 0 79.2505 13.7917 1093 116.858 45.4556 462.139
1681 0 82.2352 14.0572 1156 115.947 45.5355 461.785
1682 0 82.151 12.5014 1027 121.226 45.1568 460.266
1683 0 86.186 13.9582 1203 115.37 45.3283 461.569
1684 0 89.2825 12.9141 1153 118.654 45.0685 459.763
1685 0 93.2644 12.813 1195 119.824 44.9665 456.688
1686 1 48.2773 10.5847 511 121.115 45.4932 477.679
1687 0 49.359 11.8317 584 118.729 46.2226 475.205
1688 0 52.493 12.4778 655 117.018 46.4214 474.924
1689 0 52.5516 11.6076 610 119.846 46.0459 473.475
1690 0 53.3394 13.1985 704 118.759 45.6094 472.45
1691 0 58.4568 13.2919 777 115.996 45.4003 474.313
1692 0 56.0602 13.2536 743 119.878 45.7806 474.28
1693 0 56.1742 12.034 676 125.182 44.9926 471.466
1694 0 59.1099 12.0284 711 122.965 44.8945 473.083
1695 0 61.2398 12.4919 765 123.124 45.3869 470.446
1696 0 63.1505 13.2857 839 121.014 45.9905 470.458
1697 0 67.137 12.6458 849 122.336 46.0318 470.956
1698 0 66.2304 12.8189 849 123.041 45.9011 469.686
1699 0 69.2124 13.8415 958 119.985 46.1357 468.7
1700 0 72.1955 13.4357 970 121.497 45.5423 465.877
1701 0 74.212 12.882 956 123.456 45.9404 465.06
1702 0 76.1645 14.1273 1076 120.897 45.5325 463.682
1703 0 77.1409 13.2226 1020 123.974 45.0069 463.518
1704 0 79.2661 13.1961 1046 120.63 44.8356 463.067
1705 0 84.2263 13.4993 1137 117.887 45.1126 461.369
1706 0 85.226 14.3266 1221 116.681 44.9156 459.686
1707 0 89.2357 14.1311 1261 116.326 45.1364 458.872
1708 0 92.1426 13.6528 1258 117.423 44.7591 455.459
1709 0 95.224 13.1479 1252 118.98 44.6829 453.525
1710 0 98.2473 11.8782 1167 121.821 44.6101 452.107
1711 1 49.0551 10.0703 494 119.674 44.0486 475.223
1712 0 53.0824 12.3205 654 115.194 44.9908 475.621
1713 0 54.0935 11.628 629 118.326 45.0366 474.612
1714 0 53.0657 10.6472 565 115.037 44.6319 474.754
1715 0 54.113 12.0673 653 111.462 44.6845 474.123
1716 0 55.0659 11.6043 639 112.872 44.9358 473.887
1717 0 59.0444 12.5499 741 110.269 44.7854 472.157
1718 0 60.0772 11.8681 713 112.083 44.2581 472.248
1719 0 62.0559 11.2479 698 112.443 45.0587 473.212
1720 0 64.0226 10.9649 702 115.246 44.2536 469.533
1721 0 67.0625 12.8239 860 111.072 45.4849 468.533
1722 0 67.0489 12.4685 836 112.876 45.6603 470.295
1723 0 69.0537 12.3672 854 113.986 45.8735 467.471
1724 0 72.1608 13.5531 978 110.703 45.6881 466.163
1725 0 75.1186 13.1525 988 112.282 45.6043 465.554
1726 0 74.1953 11.901 883 118.068 45.7214 464.76
1727 0 79.1664 12.9348 1024 115.091 45.7764 463.991
1728 0 82.1284 12.5535 1031 115.713 45.8128 463.312
1729 0 83.1551 12.3264 1025 117.24 45.6293 461.352
1730 0 88.0874 13.6001 1198 115.093 45.8439 460.329
1731 1 47.0561 10.9656 516 121.663 44.9554 476.944
1732 0 49.1226 11.2779 554 119.368 45.7744 478.341
1733 0 51.0685 12.7084 649 110.963 46.8983 478.055
1734 0 50.0601 12.4251 622 114.053 46.6158 475.77
1735 0 54.0456 12.2674 663 113.186 47.0845 475.817
1736 0 53.0661 13.2288 702 112.934 46.5114 472.996
1737 0 56.083 12.6242 708 114.483 47.1412 474.626
1738 0 59.0805 13.1008 774 113.468 46.907 474.256
1739 0 59.1312 13.1234 776 114.554 46.7977 473.934
1740 0 60.0579 12.8876 774 116.536 46.5233 472.687
1741 0 62.0785 13.0158 808 115.545 46.7921 472.203
1742 0 64.141 13.1273 842 115.354 46.8159 468.062
1743 0 68.059 13.2238 900 115.196 46.6711 469.377
1744 0 70.0595 14.659 1027 112.387 47.0458 468.187
1745 0 72.1032 14.4099 1039 114.192 46.4745 466.443
1746 0 75.0567 14.8288 1113 114.363 46.2309 466.504
1747 0 76.0706 13.6584 1039 119.538 45.9942 465.473
1748 0 77.0943 14.0218 1081 121.015 45.6244 464.084
1749 0 82.2922 14.0961 1160 120.184 46.1362 463.962
1750 0 79.2277 12.4199 984 128.049 45.9035 464.055
1751 0 84.2052 13.0989 1103 125.253 45.835 462.311
1752 0 86.0824 13.2896 1144 125.647 45.9327 460.049
1753 0 88.0735 12.4669 1098 128.562 46.1995 457.216
1754 0 92.205 13.752 1268 124.54 46.2082 456.073
1755 0 96.1507 13.5932 1307 125.207 46.1446 455.884
1756 1 52.0732 11.503 599 126.965 46.6093 475.937
1757 0 52.0853 10.7324 559 115.522 45.1968 473.415
1758 0 53.1321 11.5937 616 119.154 44.9026 474.224
1759 0 55.1503 12.7833 705 116.332 44.9078 473.668
1760 0 58.1106 13.0441 758 115.033 45.0805 473.096
1761 0 59.134 13.2749 785 114.59 45.4395 472.352
1762 0 61.1585 12.8355 785 116.101 44.8637 470.791
1763 0 63.0943 12.6953 801 115.77 44.8427 470.547
1764 0 67.0835 13.5056 906 112.953 45.468 469.51
1765 0 66.1327 13.2007 873 115.239 44.6495 469.237
1766 0 68.0748 13.3823 911 116.126 44.5576 467.396
1767 0 70.1119 12.9365 907 116.496 44.6395 468.002
1768 0 73.1468 12.7825 935 117.626 45.0021 463.214
1769 0 73.1149 12.9385 946 118.562 44.8911 462.357
1770 0 79.0879 13.2258 1046 115.674 44.4675 463.755
1771 0 79.0673 11.9392 944 121.808 44.8718 461.355
1772 0 83.0987 13.4418 1117 117.246 44.9893 458.747
1773 0 87.1071 12.5363 1092 120.197 44.9505 459.947
1774 0 89.1138 13.6904 1220 118.434 45.3262 457.083
1775 0 89.1208 11.9388 1064 123.131 45.3966 459.055
1776 0 94.1691 12.9342 1218 120.978 44.908 454.971
1777 0 96.1145 12.3498 1187 122.903 45.3336 454.476
1778 0 100.133 13.2923 1331 120.002 45.2051 451.992
1779 1 54.1245 12.2865 665 122.671 44.7835 474.22
1780 0 58.0384 12.1816 707 122.228 46.2716 472.631
1781 0 58.0801 11.8113 686 124.57 47.1268 471.131
1782 0 60.0195 12.8458 771 118.202 47.3048 472.436
1783 0 63.1272 13.1322 829 119.113 45.6405 467.724
1784 0 64.138 12.6758 813 121.61 45.2312 467.836
1785 0 66.0712 12.2898 812 123.028 44.7426 466.757
1786 0 70.1386 13.6729 959 119.345 45.6893 465.245
1787 0 72.1915 15.5835 1125 113.909 44.6773 463.792
1788 0 73.1766 14.1302 1034 118.697 45.4101 463.279
1789 0 76.0726 14.2233 1082 117.669 45.402 461.856
1790 0 77.1544 13.8683 1070 119.996 45.785 459.882
1791 0 82.2398 14.1902 1167 116.458 46.7241 461.189
1792 0 83.1872 13.1871 1097 120.088 45.7849 460.257
1793 0 85.2028 14.1545 1206 120.483 45.6667 456.459
1794 0 89.2844 13.8994 1241 122.219 45.6841 453.01
1795 0 92.2309 14.1493 1305 120.994 45.918 452.158
1796 0 97.0731 13.3405 1295 115.412 46.6842 455.227
1797 0 98.143 13.3682 1312 117.499 46.4413 450.984
1798 0 103.124 13.4304 1385 116.537 46.335 451.729
1799 0 106.189 15.124 1606 111.985 47.4141 446.692
1800 0 108.176 12.2116 1321 119.818 47.1628 447.466
1801 0 112.092 14.0064 1570 116.253 47.1885 445.797
1802 1 61.054 12.8247 783 114.757 47.4968 471.373
1803 0 62.1122 12.1876 757 119.946 47.4597 470.396
1804 0 64.0821 12.2343 784 119.208 47.5612 470.793
1805 0 66.0871 13.2098 873 113.042 47.9244 468.184
1806 0 66.0738 12.5466 829 116.837 47.9409 467.58
1807 0 69.1728 12.6639 876 116.191 47.3014 464.716
1808 0 72.0457 12.5337 903 115.738 47.7198 464.811
1809 0 74.095 11.9171 883 117.039 47.5447 464.528
1810 0 76.0528 12.8858 980 115.851 48.1694 460.704
1811 0 80.1021 14.0196 1123 112.577 48.0427 461.152
1812 0 83.1786 13.3929 1114 113.855 47.3618 460.423
1813 0 86.071 13.0241 1121 115.061 47.0526 458.708
1814 0 88.1074 12.9955 1145 115.957 47.7537 457.063
1815 0 90.1999 13.071 1179 116.255 47.6641 455.684
1816 0 95.1405 13.0229 1239 115.96 47.5496 454.263
1817 0 98.1945 12.4447 1222 125.012 47.8412 451.81
1818 1 54.0667 11.1529 603 124.886 48.6866 472.134
1819 0 56.0882 11.0897 622 124.862 48.1817 470.608
1820 0 57.0376 11.7817 672 123.254 48.1503 472.074
1821 0 59.059 11.7679 695 124.954 48.5626 469.567
1822 0 62.0869 11.951 742 123.143 48.1806 469.322
1823 0 66.0652 13.1688 870 118.395 48.1678 469.557
1824 0 66.0494 12.0516 796 123.074 48.196 468.001
1825 0 66.1206 11.8269 782 124.513 48.7749 466.004
1826 0 68.0784 11.4868 782 125.382 48.4501 465.632
1827 0 71.1286 12.4704 887 122.116 48.4036 465.297
1828 0 73.0823 12.2602 896 123.251 48.298 464.041
1829 0 78.0746 12.693 991 120.315 47.9828 461.593
1830 0 82.1302 12.6506 1039 119.373 48.1627 462.943
1831 0 81.1392 12.9654 1052 120.848 47.9354 460.441
1832 0 85.1001 13.6898 1165 118.387 47.7931 459.028
1833 0 89.1151 13.836 1233 116.746 47.7981 459.358
1834 0 93.1182 15.1528 1411 111.687 47.8264 457.609
1835 1 48.0737 11.4824 552 109.895 47.7808 478.388
1836 0 49.0864 11.877 583 110.581 48.0189 477.516
1837 0 51.0494 11.1461 569 113.155 48.0334 476.524
1838 0 49.1051 10.5081 516 117.424 47.7112 473.188
1839 0 50.0593 9.56866 479 105.05 46.7307 469.132
1840 0 51.0601 10.7324 548 103.726 46.7372 467.179
1841 0 52.098 11.6511 607 103.502 46.453 468.792
1842 0 51.0637 10.34 528 108.318 46.5303 467.777
1843 0 54.2038 11.4383 620 105.36 46.4194 467.306
1844 0 57.1212 10.8366 619 107.405 46.252 465.06
1845 0 58.1096 11.289 656 107.002 46.6174 465.335
1846 0 61.1007 11.0801 677 107.547 46.9276 465.638
1847 0 60.1261 11.875 714 107.451 46.7283 464.154
1848 0 64.128 12.553 805 105.799 46.7255 463.517
1849 0 63.0509 11.34 715 110.585 46.4238 459.287
1850 0 69.1064 11.3014 781 116.113 45.7324 459.878
1851 0 70.1024 10.3705 727 119.714 45.8047 459.74
1852 0 73.0886 11.9991 877 114.39 46.1243 460.823
1853 0 74.08 11.5146 853 116.926 45.3423 459.108
1854 0 77.1127 11.4897 886 118.087 45.0745 456.168
1855 0 81.1398 11.474 931 117.351 45.4361 453.71
1856 0 82.1191 10.3995 854 118.951 45.5398 454.587
1857 0 83.1753 11.7583 978 116.701 45.4274 451.474
1858 0 87.104 11.4231 995 117.696 45.8824 449.541
1859 1 45.0248 8.0178 361 110.568 46.9391 471.449
1860 0 48.0609 9.52958 458 106.91 46.0306 470.539
1861 0 50.0657 10.8857 545 107.67 45.9688 470.228
1862 0 52.0466 10.6059 552 106.078 46.1322 468.27
1863 0 50.0578 9.22933 462 110.695 46.2662 466.881
1864 0 56.0835 11.5185 646 103.262 46.4907 468.553
1865 0 55.0616 11.2964 622 105.838 47.2412 464.717
1866 0 55.0576 10.2801 566 109.38 46.8463 464.869
1867 0 60.0926 11.1827 672 106.333 46.1518 464.198
1868 0 60.1167 10.8622 653 109.236 46.5421 463.62
1869 0 63.0538 11.2285 708 108.729 46.8206 462.339
1870 0 66.0957 11.5287 762 108.121 46.5118 461.764
1871 0 66.0498 11.4913 759 109.497 47.112 459.921
1872 0 70.0223 11.2678 789 108.089 46.3916 458.444
1873 0 71.0699 11.8194 840 108.483 46.7952 458.562
1874 0 73.0948 12.7095 929 106.696 46.1206 458.36
1875 0 76.0965 12.6287 961 108.227 46.5234 458.476
1876 0 79.0978 13.3506 1056 106.613 46.428 457.985
1877 0 81.0766 11.8777 963 111.013 46.6532 457.428
1878 0 83.0744 12.0855 1004 111.708 46.9442 455.551
1879 0 87.2094 12.6592 1104 111.46 46.519 453.745
1880 0 89.099 12.7499 1136 112.133 46.2975 452.739
1881 0 92.1018 12.0953 1114 113.755 46.4677 452.866
1882 0 95.1087 13.3952 1274 111.685 46.2575 449.328
1883 0 98.0479 13.2792 1302 113.393 46.1598 449.07
1884 0 103.063 13.5257 1394 112.885 47.0007 447.461
1885 1 55.0967 10.8536 598 113.801 46.1923 470.729
1886 0 53.111 10.6569 566 124.233 46.9452 465.47
1887 0 55.0922 10.9997 606 117.823 47.3053 468.766
1888 0 59.0781 10.9855 649 116.926 47.171 471.746
1889 0 60.1302 12.2401 736 112.629 47.0883 467.795
1890 0 63.1331 11.7213 740 113.423 46.6581 469.532
1891 0 64.0713 10.7068 686 116.378 46.6676 468.988
1892 0 66.0668 11.67 771 114.835 46.821 467.507
1893 0 70.0737 12.6153 884 112.579 46.9106 465.816
1894 0 72.1297 13.8085 996 108.567 46.5321 463.64
1895 0 73.0614 12.0583 881 112.959 46.5993 465.493
1896 0 76.1178 12.7565 971 113.1 46.7343 461.757
1897 0 79.0866 12.834 1015 112.89 46.1704 461.067
1898 0 81.2032 12.6719 1029 114.553 46.8241 459.264
1899 0 83.2429 12.5897 1048 115.158 46.8664 458.797
1900 0 88.2351 12.5347 1106 114.717 46.8038 457.043
1901 0 90.174 12.7753 1152 113.432 46.5616 454.796
1902 0 94.1722 12.6895 1195 113.197 46.4979 452.387
1903 0 97.1841 12.7387 1238 112.84 46.5662 452.743
1904 0 100.243 13.0583 1309 111.836 46.3621 449.03
1905 1 49.1202 9.67015 475 111.581 46.0779 473.912
1906 0 51.0431 10.4226 532 118.853 46.7068 469.169
1907 0 51.22 10.6208 544 110.476 46.6158 469.483
1908 0 55.0591 11.6239 640 108.03 46.8516 468.381
1909 0 57.0793 11.8957 679 106.819 46.2725 468.679
1910 0 57.0749 12.4223 709 107.192 46.1904 465.587
1911 0 59.1361 11.0592 654 111.713 46.7783 464.856
1912 0 58.0767 10.6583 619 114.134 46.3796 463.691
1913 0 59.074 10.6984 632 116.059 46.3101 461.943
1914 0 65.0447 12.1455 790 110.906 46.8785 464.018
1915 0 66.0638 11.5192 761 112.853 46.8686 462.47
1916 0 69.0889 11.3911 787 114.014 46.8628 461.344
1917 0 70.0809 11.1443 781 116.085 46.7798 459.624
1918 0 72.0898 11.2637 812 116.451 46.4667 459.647
1919 0 74.073 11.1512 826 117.689 46.609 458.242
1920 0 79.0767 11.1537 882 116.626 46.771 456.632
1921 0 78.0861 11.974 935 117.049 46.9123 456.881
1922 0 80.1188 12.3317 988 116.397 46.5881 457.099
1923 0 85.1347 12.5448 1068 117.075 47.1723 452.911
1924 0 86.2249 11.7715 1015 119.067 46.266 452.817
1925 0 89.1167 12.4668 1111 119.97 46.6841 449.404
1926 0 91.144 12.7491 1162 119.639 46.383 448.996
1927 0 93.1384 12.3687 1152 120.83 46.9731 448.188
1928 0 98.2638 11.5404 1134 122.656 46.6799 446.468
1929 0 101.104 12.6306 1277 119.499 46.4753 446.923
1930 0 106.163 12.4808 1325 128.178 47.1472 447.151
1931 0 112.198 13.9843 1569 122.575 46.6648 442.892
1932 0 114.271 13.8093 1578 124.516 46.0894 442.171
1933 0 117.216 14.0169 1643 120.864 46.3159 437.707
1934 1 62.1658 11.7589 731 125.443 47.1341 460.354
1935 0 63.195 10.6496 673 129.016 46.4116 459.584
1936 0 66.1751 10.8651 719 115.495 45.6523 461.11
1937 0 68.127 9.84925 671 119.817 45.3323 458.776
1938 0 67.1243 9.98148 670 141.906 44.3478 459.018
1939 0 71.1727 10.4113 741 119.698 46.0688 458.097
1940 0 73.1547 10.594 775 119.729 46.0903 458.454
1941 0 77.1865 11.4269 882 117.906 45.8231 455.488
1942 0 82.2124 11.8474 974 119.545 47.0493 463.036
1943 0 83.2529 11.7473 978 122.62 47.0992 459.991
1944 0 87.1496 12.5302 1092 121.639 47.2518 457.476
1945 0 90.2581 12.8188 1157 121.404 47.2731 455.141
1946 0 91.1437 11.8823 1083 124.773 47.6103 455.955
1947 0 97.1793 12.2557 1191 124.648 47.5264 453.335
1948 0 99.2102 12.6096 1251 125.224 47.2158 452.66
1949 0 102.17 12.1562 1242 128.344 46.5652 450.534
1950 0 106.307 13.8748 1475 122.885 46.1214 446.847
1951 1 61.0799 11.2312 686 126.052 47.1108 471.131
1952 0 63.121 11.9612 755 124.437 45.0318 465.841
1953 0 64.1878 12.2609 787 124.741 45.5604 466.761
1954 0 64.1521 12.7977 821 124.574 45.4665 465.823
1955 0 68.1467 13.4416 916 125.468 47.286 468.357
1956 0 67.1345 12.5569 843 130.803 47.1803 466.046
1957 0 71.1523 12.8597 915 129.587 47.4929 465.573
1958 0 73.1291 13.1138 959 129.015 47.7122 463.518
1959 0 74.167 12.9842 963 131.214 46.6843 464.341
1960 0 78.2764 13.3885 1048 128.906 46.188 461.722
1961 0 79.1788 13.0717 1035 130.159 46.3198 460.931
1962 0 84.2685 14.4063 1214 125.605 46.827 460.877
1963 0 87.3781 14.2484 1245 126.031 46.6369 459.758
1964 0 87.3703 14.181 1239 127.801 46.322 456.018
1965 0 88.3054 13.8383 1222 129.422 46.5319 452.736
1966 0 90.276 14.2452 1286 127.917 46.0342 454.049
1967 0 94.4059 14.4165 1361 126.427 46.457 451.18
1968 0 96.4277 13.3157 1284 130.327 46.5989 449.42
1969 0 99.408 13.4194 1334 128.693 46.8291 448.79
1970 0 103.34 13.9636 1443 126.1 46.4692 449.157
1971 1 55.3319 10.4099 576 129.174 47.3576 473.03
1972 0 57.2257 12.1099 693 122.551 47.4993 471.482
1973 0 58.0995 12.7023 738 119.612 48.2398 468.721
1974 0 61.0759 11.8869 726 120.555 47.8623 469.95
1975 0 63.0698 13.2393 835 115.781 47.5533 468.881
1976 0 65.1588 14.2575 929 113.47 48.0205 466.37
1977 0 69.12 13.7297 949 114.121 47.6312 466.781
1978 0 66.1182 11.7668 778 122.272 47.2237 463.797
1979 0 71.1026 13.3891 952 117.527 46.7258 461.668
1980 0 73.1876 12.6661 927 119.184 47.1219 463.686
1981 0 76.1407 13.6064 1036 117.063 46.971 459.884
1982 0 78.2125 13.3738 1046 117.591 47.7925 458.897
1983 0 79.1802 13.9681 1106 115.495 47.8137 457.773
1984 0 81.1904 13.5114 1097 117.917 47.5087 455.069
1985 0 85.1798 13.4069 1142 117.404 48.0998 453.69
1986 0 90.2187 14.4981 1308 112.84 47.6254 453.016
1987 0 91.3733 14.0304 1282 116.539 47.2816 450.021
1988 0 92.1469 12.9901 1197 119.512 46.8062 450.074
1989 0 97.288 13.9791 1360 116.965 46.1779 452.45
1990 0 100.246 13.2773 1331 119.796 46.148 451.333
1991 0 102.352 12.9357 1324 121.011 46.7538 451.339
1992 0 105.487 13.0538 1377 121.442 45.9702 448.961
1993 1 56.3554 10.7177 604 122.995 46.4735 470.632
1994 0 58.3601 13.1597 768 118.115 46.9258 470.444
1995 0 60.1788 12.9614 780 118.569 47.0808 470.708
1996 0 63.1811 12.5829 795 119.474 46.1686 470.067
1997 0 65.2016 13.5426 883 117.447 46.1393 466.426
1998 0 67.1753 12.7577 857 117.957 46.3641 467.77
1999 0 70.2343 14.7364 1035 112.164 46.2618 465.651
2000 0 72.3229 13.3568 966 116.325 45.6749 462.024
2001 0 74.2992 13.9436 1036 114.304 46.0058 463.22
2002 0 75.3185 12.1617 916 119.535 45.8941 462.966
2003 0 79.3778 13.946 1107 114.737 45.9404 460.617
2004 0 81.3452 13.203 1074 116.764 45.8156 459.63
2005 0 87.435 13.9532 1220 113.716 46.6139 457.795
2006 0 87.3379 13.4993 1179 116.684 46.6158 457.469
2007 0 91.6998 14.5366 1333 114.254 46.0173 454.35
2008 0 94.4762 13.506 1276 117.54 46.3715 451.6
2009 0 96.411 14.4382 1392 114.791 47.3614 453.948
2010 0 99.4398 13.6364 1356 117.549 46.9845 449.489
2011 0 102.493 14.1181 1447 116.064 47.0097 449.074
2012 0 104.381 13.0005 1357 114.713 46.8983 451.371
2013 0 107.327 13.9854 1501 106.769 45.9793 448.136
2014 1 55.116 12.392 683 114.725 46.0132 472.435
2015 0 58.1148 14.3681 835 109.551 45.4922 472.115
2016 0 60.0602 12.6873 762 114.617 45.1102 469.892
2017 0 63.1727 13.1386 830 114.093 46.0554 469.1
2018 0 66.1048 12.7071 840 115.051 46.0667 469.285
2019 0 67.1813 13.6496 917 114.024 46.157 466.923
2020 0 70.1371 13.2883 932 114.894 45.7017 464.415
2021 0 70.1459 12.9302 907 117.106 45.7905 463.782
2022 0 75.3938 14.1258 1065 112.351 45.4901 463.471
2023 0 76.3408 13.2956 1015 117.217 45.9281 462.911
2024 0 77.4867 13.0732 1013 117.672 46.3475 462.438
2025 0 82.221 14.2908 1175 113.506 46.3566 461.74
2026 0 85.4395 13.097 1119 115.886 45.8767 459.025
2027 0 88.1888 13.7206 1210 115.187 46.3942 456.187
2028 0 92.4567 13.5847 1256 114.275 46.7086 456.142
2029 0 93.3706 13.3233 1244 116.559 46.6141 454.77
2030 0 98.5177 12.4546 1227 118.123 46.5738 452.941
2031 0 101.254 12.7995 1296 114.029 46.4213 443.441
2032 1 54.2889 10.8678 590 111.234 45.9983 466.436
2033 0 57.1802 11.6999 669 109.39 46.8176 467.384
2034 0 58.2875 12.2325 713 109.189 46.0379 468.432
2035 0 58.141 10.4573 608 111.52 45.4605 468.669
2036 0 60.19 12.1283 730 108.666 45.8178 467.875
2037 0 62.1345 10.7509 668 110.43 45.2814 468.515
2038 0 62.0889 11.3225 703 112.23 45.9132 461.696
2039 0 66.1097 11.3145 748 112.184 45.8048 463.254
2040 0 69.0663 11.5831 800 110.955 45.9475 463.619
2041 0 73.3991 11.0492 811 111.968 46.1307 461.943
2042 0 75.3305 12.0801 910 109.69 46.8077 463.133
2043 0 77.1214 12.5387 967 110.577 46.5222 462.088
2044 0 78.4999 12.1147 951 110.799 46.0557 457.445
2045 0 81.2309 12.5568 1020 105.938 46.6176 458.396
2046 0 83.2488 11.5077 958 109.865 46.8716 455.297
2047 0 87.4958 11.5434 1010 111.153 46.4168 456.779
2048 0 90.5337 12.2938 1113 111.188 46.1761 453.508
2049 0 93.5453 12.3897 1159 112.006 45.6773 453.695
2050 1 48.3714 12.8175 620 108.577 46.4613 475.469
2051 0 49.2079 12.9044 635 111.986 46.3764 472.989
2052 0 51.1828 12.3284 631 106.296 46.1965 473.664
2053 0 52.478 12.4433 653 107.844 46.3093 472.521
2054 0 55.0923 12.0525 664 109.983 46.381 474.721
2055 0 55.2459 11.5122 636 116.648 46.4151 474.852
2056 0 56.1504 11.861 666 116.808 45.8559 473.092
2057 0 59.3632 12.7015 754 114.389 45.6552 469.016
2058 0 60.2947 11.9082 718 115.354 46.5641 470.135
2059 0 63.3522 11.6018 735 116.925 46.6327 464.814
2060 0 65.2551 12.6427 825 113.556 46.1685 465.878
2061 0 67.2212 12.4812 839 114.629 46.5626 464.613
2062 0 68.2555 12.2188 834 115.584 47.0168 464.421
2063 0 71.3322 13.0656 932 114.75 46.7124 461.67
2064 0 75.4089 12.7173 959 114.026 47.1804 461.584
2065 0 76.3042 12.9613 989 115.639 47.1507 460.778
2066 0 79.2576 13.1596 1043 115.785 46.9425 459.862
2067 0 80.3285 13.1958 1060 117.175 47.4698 457.149
2068 0 84.4034 13.317 1124 117.129 46.7669 455.447
2069 0 88.4068 13.223 1169 118.216 46.4072 454.738
2070 0 89.273 13.1843 1177 120.187 46.7018 453.144
2071 0 92.4611 12.1781 1126 122.986 46.4103 453.038
2072 0 97.4474 13.6997 1335 119.118 47.1775 450.713
2073 0 101.305 14.1256 1431 117.198 46.6646 449.146
2074 0 102.263 13.6804 1399 119.552 46.2152 448.786
2075 0 107.317 14.0611 1509 119.202 46.3015 445.928
2076 1 56.1486 11.0243 619 118.942 47.4362 474.04
2077 0 59.1408 11.6671 690 118.871 45.2652 471.97
2078 0 61.1691 12.5717 769 117.596 44.9207 470.111
2079 0 63.1506 11.4488 723 121.126 45.3043 468.947
2080 0 64.2214 12.4725 801 119.231 45.5755 466.739
2081 0 66.0961 12.5575 830 119.659 45.4048 466.684
2082 0 69.2657 12.3871 858 118.854 46.7681 465.967
2083 0 73.1686 13.1614 963 117.901 46.9076 463.629
2084 0 75.2116 13.4022 1008 117.294 46.4563 463.157
2085 0 76.2213 13.1459 1002 117.863 46.8533 463.127
2086 0 79.2348 12.4693 988 120.47 47.1468 461.475
2087 0 83.1395 13.1827 1096 118.886 47.4489 459.417
2088 0 85.0702 11.7315 998 121.344 47.3377 460.811
2089 0 88.2128 13.7735 1215 118.296 46.4025 456.601
2090 0 90.0973 13.774 1241 119.602 46.419 455.377
2091 0 92.17 13.3666 1232 119.438 46.6404 457.617
2092 0 96.2027 13.8354 1331 118.594 46.5838 455.265
2093 0 99.1477 12.6982 1259 121.217 46.9198 454.737
2094 0 101.155 13.0889 1324 124.625 46.2727 455.279
2095 0 105.183 12.6161 1327 123.445 46.2585 450.613
2096 0 110.163 12.6812 1397 123.555 46.3801 447.666
2097 0 114.203 12.8193 1464 122.86 46.5314 446.796
2098 0 118.22 12.8996 1525 122.908 45.7731 446.111
2099 0 120.276 14.051 1690 121.146 45.987 442.906
2100 0 124.246 12.097 1503 126.593 45.2562 441.118
2101 0 127.325 12.9668 1651 125.279 45.0642 437.866
2102 0 132.208 13.0249 1722 126.443 45.5157 435.625
2103 0 136.357 13.0686 1782 126.526 45.2884 436.064
2104 0 141.312 12.2141 1726 129.268 45.2144 434.275
2105 0 147.352 14.0683 2073 124.883 45.4515 431.841
2106 0 153.365 12.6821 1945 128.348 44.9907 432.665
2107 0 156.365 13.7755 2154 126.45 44.7855 426.896
2108 0 161.526 12.419 2006 129.56 45.177 424.378
2109 0 167.53 12.5709 2106 128.604 45.7047 420.949
2110 0 165.433 12.6093 2086 128.657 45.1361 418.629
2111 1 178.434 12.6209 2252 127.761 45.5115 414.485
2112 0 180.35 12.4868 2252 129.003 45.6088 407.993
2113 0 188.315 13.1004 2467 126.086 44.891 403.468
2114 0 194.231 12.48 2424 127.148 45.915 400.936
2115 0 199.314 11.7152 2335 128.577 45.845 398.351
2116 0 200.331 11.5509 2314 127.719 45.9058 402.167
2117 1 213.246 12.638 2695 126.574 45.5711 389.604
2118 0 222.474 12.3924 2757 126.771 45.8099 388.502
2119 0 229.368 12.8483 2947 126.05 44.5412 382.133
2120 0 238.329 12.8142 3054 125.79 44.9483 381.88
2121 0 246.548 13.6728 3371 124.642 45.1243 372.208
2122 1 55.1813 9.94903 549 103.86 46.3169 464.57
2123 0 55.0201 8.56051 471 105.773 46.5605 468.378
2124 0 57.0844 10.0378 573 109.729 47.3909 473.016
2125 0 62.0996 10.6281 660 107.706 46.7894 472.611
2126 0 64.0864 11.3909 730 106.167 47.2137 471.041
2127 0 66.0555 11.1724 738 107.005 46.9932 470.474
2128 0 69.1203 10.5902 732 107.896 47.1079 470.231
2129 0 70.0991 12.2398 858 106.544 46.479 467.128
2130 0 70.2048 10.4266 732 111.47 46.6516 464.66
2131 0 75.1184 11.3022 849 109.187 46.2132 464.251
2132 0 77.1277 11.1503 860 109.65 46.0605 460.728
2133 0 79.1644 11.2551 891 110.227 46.3547 462.457
2134 0 88.2192 13.7612 1214 101.024 46.0774 459.859
2135 0 85.1863 10.9759 935 116.239 46.7947 456.103
2136 0 90.0876 11.8107 1064 114.217 45.9229 457.058
2137 0 89.0601 4.62609 412 113.563 47.6141 481.692
2138 1 66.0855 16.751 1107 82.6034 47.0099 465.093
2139 0 70.2365 18.1957 1278 79.0102 46.8427 462.007
2140 0 63.1457 14.807 935 94.6909 46.5968 469.803
2141 0 62.082 15.2862 949 98.5026 46.8799 472.199
2142 0 56.0718 11.2534 631 116.052 46.8273 474.623
2143 0 56.0264 11.6017 650 117.588 45.1508 476.398
2144 0 59.0365 10.3326 610 118.452 44.7623 477.79
2145 0 63.119 11.2169 708 117.397 43.7542 470.873
2146 0 64.0932 11.9825 768 116.076 43.6667 470.579
2147 0 66.099 12.6628 837 114.611 43.7503 468.167
2148 0 67.0908 10.851 728 119.979 44.3091 468.959
2149 0 68.2555 12.2334 835 118.847 44.2659 466.601
2150 0 71.1645 12.4781 888 118.76 43.5698 467.205
2151 0 73.0837 12.0957 884 118.36 43.9819 466.919
2152 0 77.0858 13.6471 1052 114.74 44.6987 464.678
2153 0 75.1089 11.7296 881 121.392 44.1612 465.041
2154 0 79.1725 13.5022 1069 116.366 44.1487 463.855
2155 0 81.1336 12.4363 1009 120.76 43.9534 461.126
2156 0 86.1387 12.8049 1103 118.525 44.767 461.694
2157 0 89.146 13.2591 1182 116.326 45.1802 458.753
2158 1 48.1799 11.4571 552 123.25 44.8587 477.987
2159 0 50.1527 12.0632 605 120.162 44.6595 479.068
2160 0 52.0794 12.5577 654 120.373 45.4312 476.326
2161 0 56.1844 13.1531 739 118.765 44.452 474.38
2162 0 55.065 13.2752 731 121.75 44.6621 473.912
2163 0 56.0488 12.5605 704 123.932 44.4276 475.378
2164 0 60.0919 13.4461 808 119.847 44.3181 473.327
2165 0 62.0245 14.0751 873 118.351 44.0241 472.636
2166 0 64.0371 13.336 854 121.396 44.1311 471.53
2167 0 64.0813 13.4985 865 122.779 44.3272 469.886
2168 0 67.0536 13.0045 872 123.283 44.3704 472.458
2169 0 67.0767 15.0574 1010 119.837 44.1505 469.461
2170 0 71.1832 13.8937 989 123.024 44.8231 467.412
2171 0 73.1576 14.79 1082 120.735 45.232 466.933
2172 0 76.1726 14.9791 1141 119.748 45.1367 466.374
2173 0 77.0765 13.3893 1032 125.637 45.4496 465.929
2174 0 79.0867 14.187 1122 125.174 45.2496 464.285
2175 0 82.0602 14.5015 1190 123.818 45.1866 462.673
2176 0 85.2291 14.1736 1208 123.839 45.5182 463.241
2177 0 87.1169 14.36 1251 123.899 45.8505 462.058
2178 0 91.1631 14.2053 1295 124.171 45.471 461.142
2179 0 92.0885 14.0843 1297 126.301 45.2344 459.21
2180 0 96.1171 13.6708 1314 127.284 45.5967 457.049
2181 0 100.179 14.8734 1490 123.24 45.1174 456.378
2182 1 54.1169 13.2676 718 133.689 44.7897 476.68
2183 0 54.0259 13.6416 737 132.664 44.711 474.407
2184 0 54.2452 13.6049 738 131.911 45.3455 470.232
2185 0 58.0981 13.5633 788 128.638 45.6599 474.495
2186 0 61.2806 13.9196 853 128 45.1571 471.727
2187 0 63.1182 14.1005 890 126.81 45.1607 470.926
2188 0 65.1347 15.1072 984 124.668 45.0854 469.682
2189 0 66.1805 14.3849 952 127.819 45.3687 469.054
2190 0 67.0258 14.6809 984 128.35 45.248 469.361
2191 0 69.06 14.4512 998 129.663 45.1212 468.108
2192 0 73.0724 15.2588 1115 126.864 44.9839 467.147
2193 0 75.1651 14.9271 1122 128.019 45.0989 466.449
2194 0 76.1285 15.0272 1144 125.686 45.7045 465.288
2195 0 79.0811 14.8708 1176 125.923 45.3121 464.449
2196 0 81.1301 16.3071 1323 122.311 45.4346 460.724
2197 0 82.1707 15.054 1237 127.09 45.4454 458.967
2198 0 86.1599 15.3668 1324 125.951 45.0257 457.943
2199 0 87.1997 13.945 1216 131.833 44.7911 457.495
2200 0 93.2443 15.261 1423 125.829 45.13 454.476
2201 0 95.2512 13.7426 1309 131.325 44.7013 454.727
2202 0 98.3146 14.5248 1428 129.749 44.458 450.919
2203 0 102.341 14.8719 1522 128.164 44.3351 450.718
2204 0 106.3 15.0235 1597 127.365 44.7533 447.477
2205 1 55.3554 14.0366 777 134.532 45.5071 472.571
2206 0 56.0656 13.4129 752 133.698 45.7274 472.112
2207 0 59.0725 14.5584 860 129.716 45.436 469.507
2208 0 59.1343 14.1035 834 130.201 45.94 469.844
2209 0 62.1188 14.6333 909 128.052 45.1661 468.393
2210 0 65.1448 15.2123 991 127.183 45.2059 466.58
2211 0 67.161 15.2767 1026 126.836 45.193 467.111
2212 0 70.1717 15.0346 1055 128.125 45.6872 466.02
2213 0 73.1298 15.7255 1150 125.913 45.7896 465.677
2214 0 74.2259 15.4124 1144 127.436 45.3243 464.408
2215 0 78.2825 15.9678 1250 125.045 44.9328 464.051
2216 0 80.2024 13.7901 1106 132.249 45.5072 462.88
2217 0 82.2621 14.1985 1168 130.191 45.5668 462.449
2218 0 86.2008 14.9651 1290 127.665 46.1093 459.571
2219 0 88.1863 13.8457 1221 130.656 45.5643 459.311
2220 0 93.2272 15.5641 1451 123.717 45.8994 458.551
2221 0 95.1983 15.3469 1461 125.057 45.6345 454.895
2222 0 99.2781 14.0414 1394 126.659 45.2891 454.598
2223 0 104.4 15.5268 1621 120.067 45.269 452.154
2224 1 55.0608 15.1651 835 133.727 44.8443 472.481
2225 0 55.1061 15.3341 845 135.147 45.7586 472.515
2226 0 58.0412 15.7991 917 131.005 45.7754 470.498
2227 0 61.0543 16.4444 1004 126.294 45.6125 470.525
2228 0 61.049 15.9053 971 130.624 44.7878 469.069
2229 0 64.1793 16.5941 1065 126.053 44.2601 466.979
2230 0 67.0928 15.8437 1063 128.424 44.6529 466.438
2231 0 67.0378 15.4987 1039 132.192 44.9885 464.841
2232 0 71.1052 15.9201 1132 129.58 44.4894 465.239
2233 0 74.0802 16.7521 1241 126.732 44.8533 462.286
2234 0 78.112 15.6314 1221 129.482 45.3489 460.929
2235 0 79.1044 16.0547 1270 128.27 45.3307 459.637
2236 0 82.0847 15.752 1293 128.427 45.6381 459.223
2237 0 86.2482 16.325 1408 124.68 44.9474 457.463
2238 0 90.1318 15.7103 1416 125.571 44.4852 456.225
2239 1 45.1082 13.1905 595 141.617 45.2555 475.133
2240 0 46.1231 14.3529 662 138.121 45.1118 473.6
2241 0 49.114 14.9041 732 136.18 45.0423 473.072
2242 0 50.017 15.1149 756 136.062 45.0384 471.548
2243 0 53.0854 15.428 819 132.784 44.7961 471.504
2244 0 55.1147 14.8055 816 134.461 45.3272 469.82
2245 0 57.0256 15.1511 864 132.676 44.9213 469.066
2246 0 59.0991 15.0087 887 133.123 45.1454 466.919
2247 0 61.1041 14.8271 906 133.812 45.3079 467.5
2248 0 64.1018 15.257 978 132.342 45.0583 466.299
2249 0 68.1604 14.1871 967 134.296 45.1086 465.199
2250 0 68.0774 15.0711 1026 132.963 45.0273 464.285
2251 0 68.078 15.115 1029 135.585 45.0389 462.138
2252 0 70.1523 14.5541 1021 136.855 45.1645 463.073
2253 0 75.1609 15.0743 1133 134.605 45.436 460.484
2254 0 78.0759 15.6386 1221 134.002 45.4021 459.273
2255 0 80.1245 15.2138 1219 136.312 45.6456 458.38
2256 0 81.223 15.7468 1279 136.067 46.018 457.367
2257 0 85.1165 16.401 1396 133.411 44.4355 457.794
2258 0 87.2789 15.3073 1336 137.931 45.0464 458.773
2259 0 87.1485 14.8826 1297 142.471 45.3593 457.093
2260 0 90.1193 13.9926 1261 144.439 45.1745 458.254
2261 0 94.0962 14.5808 1372 144.152 44.5948 455.76
2262 0 99.1115 15.306 1517 140.147 44.5241 457.044
2263 0 102.102 15.6608 1599 140.098 44.0513 453.042
2264 0 107.066 15.654 1676 141.936 43.8556 453.704
2265 0 108.088 14.6733 1586 147.67 43.1961 453.11
2266 1 56.0476 14.1308 792 154.999 43.0467 476.146
2267 0 57.2332 12.8247 734 159.06 43.0095 477.873
2268 0 61.0875 14.3892 879 150.953 42.4198 478.654
2269 0 63.1344 13.9702 882 153.951 42.2834 476.599
2270 0 66.2435 15.3223 1015 146.611 41.5291 475.827
2271 0 68.1018 14.8748 1013 149.461 41.618 473.848
2272 0 69.0649 14.7977 1022 151.414 41.5117 473.401
2273 0 74.2603 15.0417 1117 149.228 41.7825 472.564
2274 0 74.2469 15.0444 1117 150.863 40.8013 470.712
2275 0 79.113 14.8774 1177 151.025 40.7162 468.926
2276 0 81.0383 14.9189 1209 151.179 40.8677 466.917
2277 0 82.1481 15.606 1282 150.488 40.6552 466.222
2278 0 84.1394 14.9157 1255 153.121 40.5386 464.223
2279 0 88.087 15.2009 1339 153.134 39.7229 462.51
2280 0 88.2725 14.7498 1302 156.9 39.5008 460.948
2281 0 90.1507 14.4868 1306 159.067 38.8499 458.162
2282 0 95.1168 14.6977 1398 156.858 39.7296 457.903
2283 0 97.1861 14.0246 1363 158.996 39.617 456.764
2284 0 100.181 14.334 1436 158.462 38.929 454.724
2285 0 104.16 15.5626 1621 155.165 39.2628 451.701
2286 0 109.125 14.378 1569 158.591 39.7973 450.233
2287 0 113.208 14.4866 1640 158.572 39.2396 448.287
2288 0 116.205 14.483 1683 158.512 38.2299 447.897
2289 0 120.314 14.3707 1729 158.794 38.5986 444.932
2290 0 126.199 14.6119 1844 157.217 39.2364 443.975
2291 0 134.243 14.6302 1964 156.45 39.2118 442.652
2292 0 137.228 14.9168 2047 156.938 38.9912 440.86
2293 0 144.253 14.8905 2148 156.389 39.0661 440.119
2294 1 82.1111 12.0447 989 156.188 39.9676 473.071
2295 0 84.1814 13.5541 1141 154.563 39.6328 470.528
2296 0 89.2344 12.596 1124 155.037 39.9911 468.992
2297 0 92.1819 13.3106 1227 151.788 39.9723 468.579
2298 0 94.1043 13.1662 1239 153.197 39.3648 464.843
2299 0 100.315 13.5872 1363 149.075 38.9817 464.426
2300 0 101.167 12.7314 1288 151.888 39.6219 461.373
2301 0 106.132 13.7941 1464 148.15 39.2753 456.886
2302 0 111.126 13.1202 1458 148.63 39.5974 455.16
2303 0 115.101 13.8053 1589 146.863 38.8351 454.771
2304 0 117.121 12.6963 1487 151.37 38.8467 449.055
2305 0 124.114 11.9971 1489 153.038 39.5191 450.62
2306 1 71.073 11.1575 793 138.14 39.2736 479.163
2307 0 72.0916 12.1928 879 137.142 39.1081 474.312
2308 0 74.093 11.4316 847 129.706 39.1346 473.777
2309 0 77.131 11.2925 871 137.41 38.8496 473.935
2310 0 80.1588 10.5541 846 137.155 38.8487 473.941
2311 0 84.1774 11.9985 1010 130.15 38.997 473.748
2312 0 84.0635 11.1939 941 135.174 38.8512 468.42
2313 0 88.1952 11.5199 1016 132.622 38.8524 469.553
2314 0 89.1373 11.2747 1005 135.192 39.3821 467.104
2315 0 94.0923 12.2114 1149 131.191 39.2889 465.76
2316 0 96.1269 11.7241 1127 132.692 39.1837 462.188
2317 0 100.188 11.3387 1136 132.793 38.9032 462.221
2318 0 103.161 12.34 1273 132.215 39.4187 460.077
2319 0 106.224 11.6923 1242 131.676 39.1675 460.056
2320 0 107.144 11.0878 1188 132.832 39.0943 456.27
2321 0 112.191 11.828 1327 131.753 38.991 453.804
2322 0 116.206 11.4882 1335 132.833 39.2944 452.625
2323 1 65.0972 9.4474 615 126.615 40.8325 478.922
2324 0 67.0686 10.5265 706 126.365 41.1431 477.079
2325 0 70.1226 10.9095 765 128.03 40.2314 478.417
2326 0 70.0807 9.70311 680 121.485 40.3779 477.46
2327 0 72.1916 10.1812 735 121.833 39.4884 475.763
2328 0 73.1379 10.3093 754 122.771 39.874 473.296
2329 0 77.1671 10.8207 835 122.108 39.8563 472.418
2330 0 79.2638 10.32 818 124.26 39.6809 470.457
2331 0 81.138 11.351 921 122.89 40.5396 471.273
2332 0 83.264 10.5568 879 123.803 39.9352 470.994
2333 0 86.2637 9.95784 859 126.05 40.3399 466.638
2334 0 90.2928 11.1637 1008 123.345 40.1905 463.478
2335 0 91.2498 10.6192 969 126.057 39.4881 461.005
2336 0 96.3343 10.9514 1055 124.612 40.1791 461.064
2337 0 97.3521 10.991 1070 126.45 40.585 459.961
2338 0 100.246 11.4618 1149 126.034 40.4865 454.062
2339 0 105.212 11.1394 1172 135.472 41.4974 453.666
2340 0 110.173 12.0992 1333 128.485 41.5311 453.576
2341 0 112.161 12.1343 1361 131.967 40.9897 449.788
2342 0 114.203 10.8491 1239 135.349 41.5811 446.044
2343 0 120.119 11.4553 1376 129.129 41.4622 448.472
2344 0 122.191 11.883 1452 130.132 41.5902 443.07
2345 0 125.225 11.148 1396 132.806 41.298 439.651
2346 0 131.314 11.362 1492 131.517 41.317 440.447
2347 1 74.1163 11.2391 833 118.607 41.9436 470.14
2348 0 76.0808 11.6192 884 120.5 41.4231 468.536
2349 0 80.2447 13.1224 1053 116.339 41.3286 465.93
2350 0 81.1759 12.3436 1002 116.43 42.3194 465.375
2351 0 82.1152 11.6787 959 118.804 42.8133 465.562
2352 0 85.1836 12.1854 1038 118.591 42.5058 462.399
2353 0 86.1185 12.6454 1089 118.473 42.1203 461.068
2354 0 89.1569 13.0444 1163 116.979 42.8031 460.51
2355 0 92.1735 12.6067 1162 118.793 42.7668 457.724
2356 0 95.1474 12.118 1153 119.991 43.1735 457.522
2357 0 96.0973 11.7069 1125 123.387 42.5431 454.82
2358 0 101.211 13.9313 1410 116.97 43.1333 453.131
2359 0 101.273 11.78 1193 124.408 43.9229 452.261
2360 0 106.298 12.7095 1351 124.805 43.5537 447.26
2361 0 107.374 12.694 1363 125.465 43.2443 447.465
2362 0 110.232 12.1562 1340 126.878 43.0313 446.114
2363 0 115.206 12.673 1460 126.921 43.3664 446.239
2364 0 118.406 13.2426 1568 126.873 43.1958 441.403
2365 0 121.27 13.5401 1642 128.265 43.1675 438.257
2366 1 70.201 11.7092 822 119.204 44.5255 468.634
2367 0 71.2356 11.1461 794 118.843 43.8111 466.757
2368 0 72.251 10.2974 744 121.098 43.6626 462.32
2369 0 75.3256 11.4968 866 118.557 43.5727 462.461
2370 0 78.2496 11.2844 883 120.08 43.6772 462.737
2371 0 79.2331 12.0404 954 120.006 44.2453 461.764
2372 0 82.1645 11.3188 930 124.143 44.2839 459.635
2373 0 85.1498 12.1551 1035 121.343 44.5855 461.633
2374 0 86.2165 11.4943 991 124.89 44.8264 459.957
2375 0 89.1084 11.4131 1017 125.984 44.9381 459.626
2376 0 93.2171 12.9697 1209 122.179 44.7229 457.868
2377 0 94.1786 12.4657 1174 124.952 44.4259 456.674
2378 0 98.2645 12.1305 1192 125.287 45.2844 455.695
2379 0 102.325 13.2225 1353 122.939 45.2483 452.31
2380 0 103.205 12.0924 1248 125.663 45.3365 451.042
2381 0 108.295 12.2444 1326 125.009 44.4155 448.743
2382 0 113.285 12.6937 1438 123.294 44.6683 448.595
2383 0 115.363 12.647 1459 123.818 44.6395 446.663
2384 0 118.384 11.8175 1399 126.751 44.9314 444.741
2385 0 123.359 11.5598 1426 127.088 44.73 444.173
2386 0 127.395 12.7713 1627 124.461 44.4505 441.725
2387 1 69.2642 12.0264 833 122.595 45.0336 470.485
2388 0 70.13 12.5624 881 122.277 44.58 465.199
2389 0 74.1844 13.426 996 125.169 42.8624 463.535
2390 0 73.1352 13.1811 964 127.257 43.0726 463.971
2391 0 76.0991 12.51 952 127.154 43.6807 460.711
2392 0 78.0838 13.4343 1049 126.125 43.4261 457.917
2393 0 81.0675 13.7663 1116 124.591 42.629 458.421
2394 0 84.2392 13.6635 1151 123.685 42.9757 458.215
2395 0 84.2297 13.1426 1107 125.416 43.0244 457.687
2396 0 87.3192 14.1321 1234 122.524 42.7853 456.132
2397 0 91.2874 13.8683 1266 124.198 43.3697 454.824
2398 0 94.2087 14.2131 1339 125.005 43.2367 453.789
2399 0 96.3288 13.8588 1335 124.335 43.3228 452.316
2400 0 97.262 13.4379 1307 128.259 43.2992 455.223
2401 0 101.4 13.8658 1406 127.802 43.5391 452.661
2402 0 103.556 12.6019 1305 130.731 43.882 452.408
2403 0 108.413 13.384 1451 128.458 43.6602 448.073
2404 0 112.368 14.6838 1650 123.628 42.9648 446.182
2405 0 115.511 13.0724 1510 128.261 43.345 445.72
2406 0 119.245 13.3925 1597 123.862 43.1102 445.601
2407 1 69.2359 11.468 794 119.699 44.1171 471.359
2408 0 66.2453 11.3216 750 119.155 43.7027 468.848
2409 0 72.2723 12.3284 891 111.646 43.8777 469.169
2410 0 73.2057 12.8405 940 111.664 44.5734 466.762
2411 0 75.3438 12.3301 929 112.812 44.2562 465.856
2412 0 77.264 12.1014 935 113.522 44.9636 464.43
2413 0 81.1965 12.4513 1011 112.505 44.8902 462.5
2414 0 82.1159 12.458 1023 114.065 44.3949 461.386
2415 0 86.1928 11.6715 1006 115.557 44.1223 460.95
2416 0 90.0772 13.6105 1226 112.542 44.5742 458.419
2417 0 93.171 13.2015 1230 112.829 44.0805 457.47
2418 0 95.1791 13.1752 1254 112.523 44.2863 456.159
2419 0 97.1886 12.0487 1171 116.337 44.8685 454.645
2420 0 102.402 12.4509 1275 115.071 44.8502 452.327
2421 0 105.332 12.6362 1331 114.313 44.8535 451.144
2422 0 111.262 13.293 1479 111.048 45.1075 450.325
2423 0 116.202 12.4181 1443 112.543 44.7824 450.401
2424 1 62.1744 12.9796 807 106.948 44.9913 472.949
2425 0 63.1946 12.6435 799 109.844 44.6884 472.238
2426 0 64.1341 11.897 763 114.122 45.3421 469.394
2427 0 68.2028 12.2576 836 113.191 44.9785 467.517
2428 0 70.0511 12.8192 898 112.061 45.3608 468.976
2429 0 73.0642 11.3188 827 115.254 45.295 468.825
2430 0 76.0463 12.3477 939 113.896 44.8775 467.408
2431 0 78.0463 13.1717 1028 111.857 45.1274 466.729
2432 0 78.1342 12.3377 964 115.349 44.3579 465.961
2433 0 82.2288 12.6355 1039 115.015 44.5938 464.879
2434 0 84.2151 12.9193 1088 115.577 44.4357 462.729
2435 0 88.2778 13.2876 1173 114.327 43.9574 462.883
2436 0 90.2595 12.9072 1165 116.375 44.5202 460.391
2437 0 92.1821 12.9418 1193 116.976 44.513 461.114
2438 0 96.205 12.5149 1204 118.056 44.3771 459.818
2439 0 100.265 12.836 1287 116.859 44.2603 460.161
2440 0 103.174 13.3851 1381 118.712 44.2165 454.534
2441 1 53.2496 12.0189 640 118.053 44.9094 479.811
2442 0 57.0659 13.4932 770 114.666 44.5753 478.747
2443 0 56.0514 12.6669 710 119.038 44.8296 477.7
2444 0 58.0633 12.8825 748 120.402 44.6457 478.322
2445 0 60.0504 13.2222 794 120.515 44.2343 476.552
2446 0 63.0368 12.6275 796 121.175 44.3744 476.354
2447 0 65.0233 13.3183 866 120.288 44.2483 474.693
2448 0 66.0438 12.9308 854 121.715 44.4356 474.131
2449 0 69.0641 13.3789 924 120.379 44.2089 473.187
2450 0 71.0497 13.4554 956 121.437 44.1088 470.612
2451 0 75.1108 13.4734 1012 121.263 44.0899 469.817
2452 0 77.1697 13.0621 1008 123.823 43.5833 468.26
2453 0 80.0724 14.2371 1140 121.111 44.0237 466.827
2454 0 81.0735 12.8772 1044 126.338 44.0805 465.966
2455 1 43.081 12.6042 543 125.777 44.7753 483.407
2456 0 42.0858 12.4983 526 128.222 44.097 483.249
2457 0 46.103 12.9926 599 125.252 44.0334 482.381
2458 0 46.0497 13.0728 602 128.6 44.7226 479.249
2459 0 49.0784 13.8961 682 126.289 43.7947 479.993
2460 0 49.0624 13.8599 680 126.557 43.3868 478.301
2461 0 53.0369 13.7263 728 126.624 43.7637 478.357
2462 0 55.0075 14.1072 776 129.464 43.5966 478.026
2463 0 55.0905 14.0678 775 130.745 44.1987 477.275
2464 0 57.1727 14.5699 833 128.194 44.0432 475.842
2465 0 60.0962 14.3104 860 126.192 44.3942 476.357
2466 0 60.1293 14.369 864 128.998 44.2269 474.193
2467 0 62.1284 15.3392 953 126.333 44.4071 473.554
2468 0 63.074 14.2055 896 130.978 43.9955 473.201
2469 0 66.1073 14.4008 952 129.039 44.6292 473.697
2470 0 67.0599 14.3901 965 131.493 44.744 471.285
2471 0 72.0887 15.2451 1099 126.114 44.3894 469.661
2472 0 72.126 15.0986 1089 129.339 43.9311 466.901
2473 0 76.3056 14.4681 1104 130.851 44.2618 466.248
2474 0 78.1026 14.1481 1105 132.378 43.7719 466.502
2475 0 82.2692 15.1454 1246 129.041 43.4133 464.27
2476 0 84.2954 15.0067 1265 130.006 43.9565 463.061
2477 0 87.1721 14.9245 1301 132.294 43.6049 460.477
2478 1 44.1683 13.6297 602 140.575 43.9169 481.161
2479 0 44.0983 14.1502 624 142.917 44.1074 479.189
2480 0 46.1924 15.2406 704 140.594 44.0611 478.18
2481 0 48.2578 15.1064 729 143.442 43.7737 476.936
2482 0 50.2764 15.8723 798 140.169 43.8885 476.059
2483 0 50.1438 15.4356 774 143.196 44.0879 476.747
2484 0 52.4096 15.4743 811 143.149 43.8853 475.943
2485 0 52.38 15.6548 820 143.096 43.7073 475.183
2486 0 57.446 16.6243 955 138.27 44.0911 473.768
2487 0 57.2372 15.6541 896 142.757 43.7634 473.32
2488 0 59.3805 16.4195 975 140.809 44.2021 472.783
2489 0 60.5885 15.6135 946 144.392 43.8584 471.971
2490 0 64.4028 17.1421 1104 137.963 43.8759 471.88
2491 0 66.4047 16.2338 1078 141.676 44.3831 470.939
2492 0 66.407 16.2031 1076 143.938 44.7426 470.937
2493 0 70.4566 15.6692 1104 144.528 44.6214 470.116
2494 0 72.4286 16.8994 1224 141.779 43.9853 468.029
2495 0 74.5422 16.769 1250 143.414 44.1808 466.953
2496 0 75.3272 16.0367 1208 148.698 43.8444 465.865
2497 0 78.4304 15.5552 1220 151.155 43.9893 464.201
2498 0 82.2643 15.7906 1299 149.717 44.4026 464.423
2499 0 82.2769 16.4809 1356 149.823 44.1549 462.785
2500 0 87.4044 16.9671 1483 147.225 44.5671 460.844
2501 0 88.537 17.055 1510 148.092 44.8185 460.254
2502 0 90.4312 16.0675 1453 153.602 43.8844 457.822
2503 0 95.4598 17.0962 1632 148.082 44.1612 457.263
2504 0 98.3454 16.0557 1579 151.925 44.5174 454.488
2505 0 101.247 16.4252 1663 153.112 44.5598 453.55
2506 0 105.401 16.4705 1736 153.445 44.9672 450.368
2507 0 107.474 15.8643 1705 156.433 44.6774 450.632
2508 0 111.099 16.1477 1794 155.947 44.8183 447.195
2509 0 114.287 16.0735 1837 157.508 44.8225 446.636
2510 0 119.446 15.7394 1880 159.855 44.8218 445.153
2511 0 122.44 15.3953 1885 162.378 44.8239 441.706
2512 0 127.347 17.7468 2260 154.819 44.558 438.311
2513 0 130.696 16.6187 2172 159.86 44.425 436.763
2514 0 135.426 16.0309 2171 161.574 44.9097 436.95
2515 0 140.188 17.4979 2453 158.488 44.6009 432.779
2516 0 142.431 16.0779 2290 164.886 44.1384 431.8
2517 0 148.49 17.0786 2536 162.331 43.7914 427.22
2518 0 152.538 17.6546 2693 160.266 44.3561 427.313
2519 0 160.497 18.6047 2986 156.575 44.3654 423.017
2520 0 163.418 17.0299 2783 163.719 44.5304 421.137
2521 0 168.482 17.6102 2967 161.299 43.9902 418.185
2522 0 174.27 17.3696 3027 162.047 44.3304 417.275
2523 0 179.525 17.6967 3177 161.218 44.1964 413.432
2524 0 184.242 16.6792 3073 166.673 44.8734 411.588
2525 0 192.446 16.7216 3218 165.921 44.4863 409.698
2526 0 199.547 17.4195 3476 164.11 44.5112 405.084
2527 0 204.374 16.8857 3451 166.997 44.9357 403.966
2528 0 212.729 17.7033 3766 163.337 44.7286 399.541
2529 0 223.723 17.0881 3823 164.719 45.1933 396.021
2530 0 232.65 17.2362 4010 164.075 44.5294 391.165
2531 0 238.55 15.6948 3744 170.568 44.547 387.611
2532 1 262.82 14.2835 3754 172.86 45.0085 388.194
2533 0 264.737 18.237 4828 158.689 44.5483 376.212
2534 1 191.501 17.3211 3317 177.878 45.4242 403.976
2535 0 197.517 17.958 3547 176.379 44.9197 399.482
2536 0 201.66 18.2634 3683 175.411 44.6318 393.315
2537 0 209.326 17.265 3614 178.429 44.894 388.89
2538 0 218.441 17.9454 3920 174.947 44.5031 386.471
2539 0 225.354 18.7705 4230 171.262 44.4697 380.639
2540 0 233.309 18.1347 4231 174.124 44.5739 376.711
2541 0 244.181 18.2733 4462 171.343 44.5307 372.86
2542 0 252.255 17.5735 4433 173.514 44.8868 364.416
2543 0 253.212 16.4921 4176 176.551 44.6245 372.196
2544 0 253.203 13.7597 3484 183.404 44.8993 383.138
2545 0 253.37 14.4334 3657 183.321 44.9494 378.591
2546 0 254.41 14.6457 3726 182.839 45.3717 376.845
2547 1 226.41 16.9913 3847 178.558 45.3728 379.511
2548 0 233.458 17.2579 4029 178.044 45.7607 377.232
2549 0 242.604 17.4111 4224 176.011 45.0772 373.342
2550 0 251.545 17.8258 4484 173.769 45.1577 366.091
2551 0 261.53 16.9158 4424 176.488 45.2963 362.941
2552 1 323.512 14.6022 4724 178.072 45.3364 348.68
2553 0 323.364 13.3967 4332 180.421 45.1457 353.364
2554 1 68.1655 12.2936 838 146.672 46.3544 459.483
2555 0 67.1308 10.6955 718 153.797 46.9067 458.348
2556 0 73.2208 12.237 896 146.915 45.5201 459.021
2557 0 73.1134 11.8583 867 149.593 45.7036 457.084
2558 0 77.1556 12.7535 984 146.835 46.127 455.882
2559 0 76.1557 11.8048 899 150.372 45.7675 454.819
2560 0 82.1956 12.0688 992 146.226 46.256 453.484
2561 0 85.1396 11.8981 1013 145.249 46.6002 450.113
2562 0 87.1631 11.2548 981 143.396 45.7074 448.118
2563 0 91.1498 11.5743 1055 141.018 45.4578 446.849
2564 0 95.152 12.6955 1208 137.007 45.2392 442.358
2565 0 97.1828 11.36 1104 140.357 45.6739 440.239
2566 0 102.119 11.2516 1149 139.826 45.4021 439.268
2567 0 106.17 10.5114 1116 144.147 45.3925 435.02
2568 0 108.319 10.7091 1160 144.041 44.9655 435.553
2569 0 113.136 11.7115 1325 142.633 45.3374 431.9
2570 1 62.1712 10.3907 646 123.082 46.0418 461.398
2571 0 62.1331 9.12557 567 125.825 46.0423 460.857
2572 0 66.1233 9.76962 646 123.728 46.0526 460.068
2573 0 69.157 10.6714 738 123.033 46.1274 458.762
2574 0 72.1988 11.593 837 120.54 46.282 458.719
2575 0 73.1819 10.8907 797 121.555 46.2183 456.784
2576 0 76.0978 10.999 837 124.252 45.7348 455.226
2577 0 76.0895 10.3562 788 127.669 45.7157 452.562
2578 0 78.2417 10.9788 859 125.128 45.8265 453.881
2579 0 82.0922 10.4882 861 126.393 45.3078 451.11
2580 0 83.1612 10.7382 893 126.14 45.654 450.1
2581 0 87.19 11.6756 1018 125.243 45.2721 449.126
2582 0 88.2411 10.8113 954 128.495 45.3375 448.852
2583 0 90.2878 11.1532 1007 129.94 45.3893 443.475
2584 0 90.3437 10.7368 970 132.131 45.5577 440.556
2585 0 95.4266 11.6739 1114 127.56 45.6149 444.371
2586 0 96.2358 10.3392 995 132.499 45.1648 439.156
2587 0 102.274 11.1465 1140 128.703 45.4149 440.215
2588 0 105.273 11.6839 1230 129.75 45.5301 437.293
2589 0 107.377 10.9428 1175 132.458 45.5617 434.68
2590 0 114.17 11.0625 1263 130.842 45.2154 436.257
2591 1 61.1929 8.98796 550 118.375 45.0091 465.315
2592 0 63.0968 9.74693 615 117.584 44.8195 461.185
2593 0 62.1796 9.47256 589 129.885 45.6095 460.699
2594 0 64.1799 9.39547 603 130.247 46.1459 462.425
2595 0 67.2057 9.62716 647 127.671 46.4451 463.442
2596 0 69.2885 10.4924 727 126.817 46.2008 460.589
2597 0 71.2495 10.6527 759 126.477 46.2516 457.718
2598 0 71.1947 10.3519 737 126.676 45.9376 456.962
2599 0 73.2437 10.3763 760 126.047 45.7158 453.728
2600 0 78.2193 10.0742 788 124.443 46.0888 455.768
2601 0 78.2588 9.26413 725 126.597 46.0855 454.036
2602 0 81.2629 9.88151 803 124.961 45.2279 450.924
2603 0 84.2651 11.6537 982 120.237 45.4094 451.677
2604 0 89.2708 11.2467 1004 119.775 44.5886 450.894
2605 0 90.2873 12.4824 1127 117.59 44.8296 446.973
2606 0 91.4419 11.6139 1062 120.568 44.7627 444.372
2607 0 94.5574 10.7236 1014 122.298 44.6321 442.905
2608 0 96.3381 11.7503 1132 120.969 44.5901 439.124
2609 0 100.495 11.6025 1166 120.594 44.9503 437.995
2610 0 105.406 11.8494 1249 118.267 44.6974 437.44
2611 0 105.391 11.965 1261 118.679 44.6987 434.642
2612 0 108.377 11.7645 1275 118.79 44.9584 438.568
2613 1 63.2607 10.3856 657 108.673 44.7884 461.478
2614 0 64.363 9.71055 625 112.109 45.4112 460.253
2615 0 65.3661 10.0511 657 114.47 46.0122 457.834
2616 0 65.0833 9.46479 616 112.477 46.9594 465.435
2617 0 68.0778 10.3117 702 110.6 46.3746 464.917
2618 0 69.1337 9.31528 644 113.542 47.1025 462.053
2619 0 73.1122 11.6533 852 108.272 46.6608 460.363
2620 0 76.124 11.5075 876 107.03 46.476 461.884
2621 0 75.0779 9.77651 734 113.11 46.3883 461.202
2622 0 78.0772 11.0916 866 109.829 46.2691 461.771
2623 0 81.1022 9.83944 798 108.945 46.3835 457.004
2624 0 83.0319 11.1885 929 109.511 45.7169 460.005
2625 0 86.133 10.3909 895 110.622 45.619 457.307
2626 0 90.06 10.4153 938 109.458 44.4531 458.408
2627 0 92.0652 9.89516 911 110.083 44.4226 459.215
2628 0 97.1232 11.5523 1122 106.082 44.9011 453.619
2629 0 96.1804 11.3433 1091 107.794 44.7021 448.625
2630 0 102.213 10.9086 1115 107.607 45.235 446.275
2631 0 106.247 9.95793 1058 110.009 45.0955 444.837
2632 1 59.182 8.82026 522 104.705 44.0172 472.287
2633 0 60.1884 11.6301 700 101.213 43.2957 470.783
2634 0 61.1403 10.9911 672 100.717 43.0893 468.193
2635 0 62.2003 10.1929 634 103.67 42.7886 468.759
2636 0 65.1945 11.6574 760 99.5342 42.9513 468.725
2637 0 69.1754 11.8828 822 98.4891 42.7238 466.774
2638 0 67.1962 10.2684 690 103.48 42.4812 464.141
2639 0 70.1639 10.846 761 103.616 41.8121 465.068
2640 0 72.0871 11.4306 824 102.331 42.3034 463.21
2641 0 74.1205 11.9265 884 101.432 42.6787 463.971
2642 0 76.1622 10.6746 813 105.262 42.5621 459.726
2643 0 78.2077 11.4567 896 103.561 42.2065 459.163
2644 0 80.1458 11.7411 941 102.287 41.8204 461.134
2645 0 85.1119 12.5364 1067 101.101 41.3524 456.404
2646 0 87.1796 11.1953 976 104.358 41.708 456.913
2647 0 88.1528 11.1057 979 107.198 42.1246 453.759
2648 0 92.2555 12.7472 1176 102.549 41.9923 454.35
2649 0 94.2581 12.1157 1142 104.824 42.0228 452.184
2650 0 95.173 11.6209 1106 107.281 42.0235 451.154
2651 0 96.1588 11.169 1074 110.167 42.541 448.859
2652 0 102.275 11.2247 1148 110.383 41.9033 448.639
2653 0 105.175 11.1623 1174 110.383 41.3484 444.7
2654 0 108.143 11.3924 1232 110.601 41.4432 444.346
2655 0 110.172 11.6636 1285 110.079 42.2249 445.05
2656 0 115.535 11.6588 1347 109.092 41.4892 441.639
2657 0 117.355 11.8274 1388 109.961 41.1174 440.466
2658 1 62.0746 10.2296 635 107.277 41.1024 467.691
2659 0 64.0747 9.55136 612 108.959 41.4101 468.989
2660 0 69.0945 11.7375 811 104.238 41.1085 466.899
2661 0 70.107 11.8818 833 103.993 41.1309 464.667
2662 0 71.1602 11.1439 793 105.683 41.6129 464.446
2663 0 74.0877 11.2569 834 105.549 41.4688 461.54
2664 0 77.0724 11.4308 881 104.045 41.1657 464.098
2665 0 81.0658 11.4598 929 103.522 41.6652 462.285
2666 0 81.1031 10.9983 892 96.6177 42.3128 458.193
2667 0 83.1014 9.9517 827 99.4039 42.0206 456.706
2668 0 87.0719 10.7497 936 97.9615 42.3814 455.54
2669 0 88.0703 9.86712 869 100.838 42.3682 455.974
2670 0 91.187 11.6245 1060 98.4283 42.8226 451.266
2671 0 95.2029 11.5018 1095 98.2183 43.0548 451.288
2672 1 53.3422 9.86086 526 95.23 44.4163 470.544
2673 0 56.2187 11.6865 657 101.618 44.3577 472.761
2674 0 57.131 12.4626 712 100.253 45.4663 472.823
2675 0 58.1527 11.1431 648 103.532 44.8997 472.41
2676 0 58.1745 11.2249 653 137.769 43.9051 472.378
2677 0 62.1042 11.8994 739 101.866 44.9012 471.876
2678 0 64.1329 12.287 788 100.574 45.1485 472.072
2679 0 65.0667 11.5574 752 103.66 45.1489 470.097
2680 0 68.0954 13.9217 948 98.3407 44.5443 469.212
2681 0 69.0963 12.2582 847 103.155 44.3695 468.009
2682 0 70.0698 12.5732 881 102.851 44.8116 465.587
2683 0 74.1227 11.6563 864 103.615 44.0023 464.997
2684 0 74.1381 11.3437 841 105.237 44.6825 463.301
2685 0 77.1962 12.5913 972 101.836 44.2366 460.914
2686 0 81.1355 12.1155 983 101.531 44.2065 462.275
2687 0 81.1977 11.5767 940 103.409 43.7777 461.424
2688 0 84.0709 12.3705 1040 101.564 44.3087 457.9
2689 0 86.0889 11.6275 1001 103.615 44.0999 455.75
2690 0 90.1795 12.708 1146 100.817 44.3307 454.559
2691 0 93.1551 12.2699 1143 101.555 44.4663 456.192
2692 1 50.0728 11.6031 581 104.145 45.5852 476.358
2693 0 51.0195 12.5834 642 103.966 44.3879 475.445
2694 0 50.0603 11.3863 570 104.032 45.1614 475.509
2695 0 53.0325 11.6721 619 104.223 44.4346 475.118
2696 0 55.0319 12.1202 667 98.8231 41.7241 474.948
2697 0 54.0585 11.0806 599 101.357 42.1068 476.848
2698 0 55.0535 11.6251 640 102.094 42.4125 475.245
2699 0 59.1068 12.0629 713 100.927 42.453 471.727
2700 0 61.0313 12.1577 742 101.274 42.6456 471.978
2701 0 62.0768 13.0484 810 99.6074 42.1494 470.681
2702 0 62.0629 11.5689 718 104.354 42.7312 470.259
2703 0 65.0704 12.6786 825 101.241 42.2194 471.828
2704 0 67.0309 12.621 846 103.163 42.7612 468.359
2705 0 68.0853 12.0731 822 103.594 42.3808 468.966
2706 0 70.0502 12.6338 885 103.069 42.6373 466.07
2707 0 72.086 12.818 924 103.31 42.6234 466.696
2708 0 72.1551 12.4315 897 105.942 42.9275 465.169
2709 0 76.1531 13.6698 1041 103.59 42.6302 463.72
2710 0 78.0485 12.9663 1012 105.303 42.7283 463.255
2711 0 81.1727 14.1673 1150 98.3548 43.3174 457.36
2712 0 83.2228 13.3257 1109 100.106 43.9973 455.366
2713 0 85.2355 13.5741 1157 100.254 43.8496 454.519
2714 0 88.2806 13.6157 1202 100.867 43.5923 456.356
2715 0 89.2877 12.9245 1154 104.341 43.5633 452.473
2716 0 92.2961 12.4274 1147 106.182 43.4856 453.165
2717 0 94.1706 12.5729 1184 108.764 44.2475 455.068
2718 0 95.392 11.8144 1127 110.197 44.8004 452.068
2719 0 100.255 11.7201 1175 110.678 44.1379 452.466
2720 0 104.289 12.59 1313 109.336 44.3679 450.956
2721 0 106.225 13.1231 1394 110.69 44.6148 451.43
2722 1 52.1387 10.7214 559 114.612 44.3077 476.721
2723 0 55.2893 13.4565 744 109.843 43.0363 471.706
2724 0 56.2864 12.6318 711 112.367 43.4191 470.793
2725 0 59.184 12.1486 719 112.179 42.9179 472.168
2726 0 62.1884 12.4461 774 110.605 43.4057 469.534
2727 0 63.1588 13.9173 879 107.412 43.1172 469.627
2728 0 65.2094 13.863 904 108.449 42.4635 465.649
2729 0 69.1494 13.8107 955 107.276 42.3801 466.832
2730 0 70.0978 11.8406 830 113.727 43.5446 466.082
2731 0 71.112 13.1483 935 110.943 43.184 465.257
2732 0 72.1705 11.7638 849 116.678 43.02 460.684
2733 0 75.2192 12.9754 976 107.373 44.5523 457.616
2734 0 77.1429 12.1333 936 110.346 44.8526 458.929
2735 0 80.1501 11.6032 930 112.243 44.5473 458.403
2736 0 81.0749 12.4083 1006 111.073 44.5835 456.607
2737 0 86.2325 12.2808 1059 111.354 44.3059 456.078
2738 0 86.2202 12.5029 1078 111.332 44.2913 455.652
2739 0 92.264 13.017 1201 109.431 45.0025 454.714
2740 0 94.2352 11.1529 1051 116.599 44.5423 453.511
2741 1 51.046 11.8716 606 116.612 45.1848 477.046
2742 0 53.0999 12.2223 649 116.324 44.8166 476.23
2743 0 53.0691 13.228 702 116.687 45.0541 474.781
2744 0 56.1353 13.4675 756 115.31 45.3519 475.167
2745 0 57.0493 13.2342 755 116.495 45.796 473.758
2746 0 59.1047 13.7045 810 115.291 45.9753 472.468
2747 0 60.0535 13.7377 825 115.044 45.7624 472.57
2748 0 63.1302 13.6226 860 113.399 45.6791 469.987
2749 0 65.1881 14.2204 927 111.912 45.3107 468.799
2750 0 66.151 13.182 872 114.532 45.7901 468.733
2751 0 68.2088 13.8985 948 111.935 45.2553 467.796
2752 0 68.1413 11.7697 802 117.67 45.6933 465.703
2753 0 71.2699 12.8105 913 114.241 45.2092 465.262
2754 0 76.273 13.1501 1003 112.096 45.5454 461.223
2755 0 78.2353 12.8075 1002 112.407 45.2874 462.757
2756 0 80.1902 13.3932 1074 111.517 44.8417 460.224
2757 0 81.2469 11.4712 932 116.009 45.3069 457.726
2758 0 88.2112 12.7308 1123 109.645 45.3197 460.337
2759 0 90.3469 12.6955 1147 111.002 45.2546 455.486
2760 0 92.1309 12.3845 1141 110.139 44.7967 454.968
2761 1 46.0286 12.3401 568 107.535 45.8046 477.299
2762 0 47.0601 9.711 457 113.315 46.3786 475.937
2763 0 50.0763 11.782 590 109.553 45.3678 472.729
2764 0 50.0733 10.9839 550 111.351 44.8745 469.775
2765 0 54.1177 12.6022 682 107.606 46.0528 473.179
2766 0 56.1077 11.7809 661 112.74 45.1725 472.784
2767 0 58.0593 12.5389 728 110.46 45.5838 471.952
2768 0 59.1611 11.7814 697 112.043 45.8508 472.416
2769 0 59.1597 12.1873 721 112.442 45.5409 470.515
2770 0 62.1627 12.0329 748 113.587 45.2059 466.608
2771 0 65.1289 12.4062 808 111.552 46.0309 468.222
2772 0 66.0764 12.0467 796 112.986 45.6985 465.474
2773 0 70.1499 13.4997 947 108.865 45.4615 464.53
2774 0 74.2238 13.1225 974 108.737 45.385 465.125
2775 0 75.0983 12.6235 948 111.764 45.403 463.831
2776 0 77.1408 12.6392 975 112.339 45.4338 461.635
2777 0 81.0849 12.7521 1034 112.085 44.6267 461.346
2778 0 83.1543 14.1304 1175 110.294 45.1072 458.866
2779 0 85.2509 13.0556 1113 113.313 44.6271 459.018
2780 0 86.2234 12.5024 1078 114.699 44.8237 459.122
2781 0 89.2438 13.4911 1204 113.498 44.2998 457.287
2782 0 91.1996 12.0176 1096 118.052 44.3659 455.495
2783 0 94.3626 13.4799 1272 115.267 44.3711 451.817
2784 0 99.3578 13.3054 1322 115.47 43.9871 451.2
2785 0 100.223 12.9412 1297 116.732 44.3508 451.868
2786 0 106.276 12.7121 1351 115.5 43.453 450.047
2787 0 108.365 13.9067 1507 113.29 44.2502 448.258
2788 0 109.091 11.9717 1306 112.832 44.0306 446.785
2789 0 115.275 12.4311 1433 111.369 43.9449 446.65
2790 0 119.169 12.1676 1450 109.964 44.0786 443.767
2791 0 121.204 12.5739 1524 109.982 43.0945 440.578
2792 0 128.17 13.607 1744 107.414 43.4914 438.8
2793 0 133.464 12.9623 1730 108.165 43.6514 434.702
2794 0 137.291 13.1473 1805 107.469 44.5717 435.297
2795 0 139.448 12.6785 1768 109.04 44.7217 434.747
2796 0 143.238 12.0778 1730 111.521 44.7578 430.076
2797 0 148.179 13.0856 1939 108.644 44.3987 430.166
2798 0 155.253 13.3331 2070 108.98 44.2068 423.187
2799 0 160.195 12.8655 2061 111.251 44.5357 421.923
2800 0 166.292 13.1154 2181 110.841 44.2054 419.065
2801 0 172.372 13.1634 2269 111.137 44.2803 416.262
2802 0 177.324 12.9819 2302 112.809 44.5074 412.586
2803 0 182.304 12.7151 2318 113.382 44.5414 411.826
2804 0 189.201 13.5782 2569 112.516 44.2172 404.49
2805 0 195.324 14.1508 2764 112.292 43.919 401.863
2806 0 199.44 14.8115 2954 111.959 43.7139 396.125
2807 0 206.323 13.6679 2820 113.578 43.8216 399.073
2808 0 214.364 13.5284 2900 113.96 43.9634 391.068
2809 0 221.461 14.0566 3113 112.37 43.574 387.634
2810 1 165.446 12.3605 2045 115.781 43.6024 419.509
2811 0 170.336 13.1916 2247 116.305 43.3004 409.543
2812 0 177.372 13.6042 2413 114.797 43.7008 407.196
2813 0 184.408 14.2944 2636 112.443 43.8016 407.674
2814 0 189.467 13.348 2529 115.374 43.3851 399.972
2815 0 197.426 13.9242 2749 112.971 42.6824 403.945
2816 0 204.514 14.1653 2897 113.025 42.9386 398.005
2817 0 212.609 14.0681 2991 114.1 42.56 395.453
2818 0 218.554 12.8252 2803 117.791 42.8744 385.174
2819 1 51.3936 10.7406 552 111.034 42.7681 470.038
2820 0 50.2223 11.469 576 99.4844 42.8594 466.825
2821 0 52.1178 10.2844 536 100.748 42.3974 470.92
2822 0 54.1411 10.9713 594 100.239 42.6532 469.938
2823 0 56.1091 9.92709 557 103.32 42.7307 468.352
2824 0 58.2034 11.1334 648 101.681 42.2423 466.684
2825 0 60.199 9.93371 598 104.151 42.4197 467.933
2826 0 58.0971 9.67346 562 106.335 42.5569 468.023
2827 0 63.2425 9.81935 621 105.385 42.8357 467.438
2828 0 66.0505 11.249 743 104.086 42.8385 463.72
2829 0 67.1122 10.8922 731 113.896 42.4282 469.461
2830 0 71.0976 11.435 813 112.577 42.5449 469.945
2831 0 76.05 14.9507 1137 104.742 42.3843 463.624
2832 0 75.0954 11.532 866 105.932 43.2771 467.048
2833 0 77.1928 11.5814 894 107.508 43.4541 466.228
2834 0 80.142 12.1285 972 106.656 43.323 464.685
2835 0 86.2148 13.13 1132 104.25 43.4134 461.717
2836 0 85.1576 11.7429 1000 112.003 43.146 462.292
2837 0 87.2321 11.1427 972 113.988 43.4866 462.838
2838 1 46.0708 9.74586 449 113.837 41.6192 477.247
2839 0 49.0501 11.315 555 109.723 42.0847 475.477
2840 0 50.0707 11.4238 572 109.591 41.6783 476.823
2841 0 51.2257 11.9081 610 109.451 42.482 478.974
2842 0 49.0806 11.2876 554 110.986 42.2996 478.043
2843 0 55.1921 12.7554 704 105.649 42.3281 476.909
2844 0 52.1536 11.5045 600 112.133 42.0733 474.607
2845 0 56.1362 14.0729 790 105.02 41.3557 472.582
2846 0 58.1242 13.1443 764 107.469 41.6976 473.215
2847 0 58.0838 12.2409 711 110.187 42.0534 473.345
2848 0 61.1103 14.1057 862 105.23 42.123 472.48
2849 0 63.0993 12.9162 815 107.847 41.5951 472.731
2850 0 64.106 13.7585 882 105.575 41.7506 471.215
2851 0 63.0452 11.9279 752 112.894 41.8936 472.348
2852 0 65.0623 11.2815 734 114.346 41.9782 473.519
2853 0 68.0861 11.3533 773 112.869 41.934 469.432
2854 0 72.1373 13.2525 956 107.275 41.6266 469.456
2855 0 73.1012 12.1749 890 110.906 41.4888 466.926
2856 0 76.0972 13.1674 1002 109.306 41.8982 465.965
2857 0 77.1618 12.9857 1002 111.187 42.2515 465.089
2858 0 79.1007 11.8836 940 112.136 41.6319 467.457
2859 0 82.094 13.1069 1076 111.432 42.0028 464.026
2860 0 83.212 12.8828 1072 112.289 41.6063 462.199
2861 0 87.1368 12.6697 1104 112.378 41.3976 461.267
2862 0 89.0715 12.8997 1149 111.809 41.3838 458.608
2863 0 90.0495 11.7269 1056 114.261 41.9706 457.813
2864 0 95.2324 12.7583 1215 111.223 41.3737 457.087
2865 1 50.0396 10.8114 541 113.035 40.9704 478.564
2866 0 53.0488 11.2726 598 112.224 41.0569 477.94
2867 0 54.142 13.0767 708 111.456 41.3446 475.983
2868 0 54.0613 12.8928 697 114.003 42.9067 476.904
2869 0 56.1341 12.8442 721 110.521 43.4008 476.44
2870 0 59.0272 12.6891 749 110.618 42.4446 475.011
2871 0 61.1665 13.2098 808 109.627 43.1238 474.926
2872 0 64.1448 14.1399 907 107.867 42.5865 473.333
2873 0 64.1756 12.7774 820 112.327 42.8805 473.077
2874 0 65.0736 13.1851 858 113.238 43.3636 471.894
2875 0 69.0828 14.9386 1032 108.811 43.3266 470.328
2876 0 71.0968 13.6293 969 114.543 43.6285 468.851
2877 0 74.0406 14.357 1063 113.725 43.8645 468.041
2878 0 75.0595 13.5226 1015 116.826 43.3163 467.236
2879 0 77.0825 14.1666 1092 115.685 42.8672 466.469
2880 0 80.0449 14.3544 1149 114.862 43.4012 466.727
2881 0 80.0605 14.1893 1136 117.985 42.9498 465.966
2882 0 84.0473 13.7779 1158 118.676 42.8351 463.547
2883 0 83.1343 12.991 1080 123.875 42.9981 461.787
2884 0 90.0833 16.407 1478 112.73 42.5846 458.141
2885 0 90.1811 14.3933 1298 120.7 42.876 458.216
2886 0 92.1291 13.9912 1289 123.52 42.616 456.623
2887 0 94.1103 13.9411 1312 125.705 42.4924 456.47
2888 0 98.1296 13.1663 1292 127.895 41.9698 455.907
2889 0 99.1366 13.1132 1300 129.572 42.58 453.393
2890 1 52.1019 12.3412 643 123.608 42.2504 479.051
2891 0 54.1907 12.9358 701 124.628 41.9486 475.775
2892 0 56.1297 13.5935 763 123.315 42.2097 474.62
2893 0 59.1693 13.5374 801 131.88 42.6392 472.365
2894 0 61.1406 13.7061 838 130.798 41.4129 471.489
2895 0 62.0628 13.3735 830 132.401 41.8482 471.145
2896 0 63.1451 13.4135 847 132.921 41.5372 470.172
2897 0 68.0619 14.4427 983 128.775 41.7792 468.613
2898 0 69.1785 13.1833 912 132.948 42.1656 467.871
2899 0 72.1444 14.1106 1018 129.762 42.0462 467.59
2900 0 74.2122 14.5798 1082 129.189 42.4409 463.857
2901 0 77.1654 13.7238 1059 131.07 42.3881 463.297
2902 0 81.2237 14.2323 1156 127.675 42.0528 461.113
2903 0 82.1896 12.9335 1063 122.021 42.7535 462.251
2904 0 86.1007 13.5771 1169 120.791 42.8691 462.133
2905 0 89.0941 13.323 1187 121.655 42.3926 459.905
2906 0 93.1081 14.1019 1313 120.413 42.6382 456.861
2907 0 94.2047 13.5131 1273 122.129 42.8837 456.361
2908 0 98.2034 13.5841 1334 121.738 42.6837 453.477
2909 1 53.1997 12.2557 652 123.383 43.4417 474
2910 0 52.2934 12.602 659 123.457 43.3733 474.551
2911 0 55.3615 12.5719 696 123.154 43.3032 473.272
2912 0 58.0883 13.4795 783 122.794 43.7433 472.76
2913 0 59.0551 13.2757 784 122.249 44.1403 472.767
2914 0 60.0885 12.881 774 122.594 43.9767 471.731
2915 0 64.0299 14.3214 917 118.112 44.3555 469.797
2916 0 67.0122 13.699 918 119.393 44.6438 471.036
2917 0 68.1243 14.0332 956 120.601 44.2563 469.453
2918 0 71.1117 14.9905 1066 118.359 44.4953 466.997
2919 0 72.1403 13.5431 977 123.309 44.1617 467.719
2920 0 75.1936 14.3496 1079 121.242 43.3031 464.57
2921 0 78.2362 14.3412 1122 122.784 43.6595 464.993
2922 0 80.1723 14.3316 1149 124.679 43.8999 461.571
2923 0 83.1105 14.7635 1227 123.935 44.4572 461.64
2924 0 84.111 14.5284 1222 126.493 44.1047 459.328
2925 0 87.0583 14.5994 1271 127.003 43.6688 458.505
2926 0 88.1203 13.8674 1222 131.071 43.4804 455.883
2927 0 94.1854 15.7243 1481 124.478 42.9716 454.675
2928 0 95.1933 14.4653 1377 129.004 42.7073 453.333
2929 0 98.2341 14.669 1441 129.754 42.2838 450.505
2930 0 102.246 14.6607 1499 129.112 42.6084 451.129
2931 0 104.102 14.2072 1479 130.296 43.238 449.391
2932 1 58.0298 11.5803 672 132.201 43.2485 472.065
2933 0 59.0976 12.8262 758 121.214 43.1517 468.629
2934 0 62.056 12.7949 794 121.887 43.5441 468.568
2935 0 63.0529 13.338 841 114.672 42.8549 467.045
2936 0 62.1279 10.7681 669 122.641 43.0957 467.191
2937 0 66.1698 11.7425 777 119.474 42.538 465.456
2938 0 69.1211 11.8488 819 119.499 42.3297 465.372
2939 0 70.0531 12.6047 883 118.246 43.0487 464.618
2940 0 73.1158 12.5828 920 119.429 43.4185 462.893
2941 0 74.0528 12.4506 922 121.941 43.3438 461.431
2942 0 76.0689 12.3967 943 123.53 43.3765 459.244
2943 0 80.1082 12.5955 1009 121.917 43.0714 459.028
2944 0 83.1476 12.8687 1070 122.264 43.5 458.452
2945 0 85.1083 12.6662 1078 122.756 43.6289 457.135
2946 0 88.3047 13.6686 1207 120.028 43.7473 456.587
2947 0 91.1209 13.0705 1191 122.718 43.597 454.641
2948 0 92.1398 12.3725 1140 126.45 43.5298 454.004
2949 0 97.1305 13.3944 1301 123.361 42.5665 452.756
2950 0 98.0922 13.3038 1305 123.259 42.4651 452.992
2951 0 102.171 13.4285 1372 124.304 42.7536 450.676
2952 0 106.145 13.4156 1424 125.189 42.3603 448.41
2953 0 107.253 13.1931 1415 126.319 42.4714 447.678
2954 0 112.154 13.4191 1505 124.613 42.8339 445.465
2955 0 116.205 13.5192 1571 124.682 42.4831 442.269
2956 1 58.1001 10.7057 622 128.526 42.8553 468.732
2957 0 62.0819 12.6607 786 126.244 42.4631 467.092
2958 0 66.0489 12.5362 828 136.318 43.186 463.865
2959 0 68.0652 13.0169 886 124.471 43.14 465.113
2960 0 69.08 12.7823 883 126.039 43.4009 463.769
2961 0 71.0441 13.3297 947 124.757 43.4646 461.757
2962 0 74.0941 13.0645 968 126.004 43.5455 460.893
2963 0 77.0934 15.371 1185 95.1122 43.6278 460.783
2964 0 79.0848 13.2137 1045 127.254 42.8038 457.566
2965 0 81.089 13.923 1129 126.453 42.8884 457.233
2966 0 84.1249 13.7296 1155 127.907 42.5169 455.764
2967 0 88.0816 13.7486 1211 128.094 43.104 454.587
2968 0 89.1267 12.802 1141 132.077 42.4663 452.29
2969 0 94.107 13.2403 1246 130.522 42.7376 451.207
2970 0 98.1258 13.6254 1337 129.842 42.8848 448.762
2971 0 100.097 13.1372 1315 131.611 42.5764 449.169
2972 1 51.0486 11.2442 574 130.404 42.4443 473.892
2973 0 56.1204 11.8139 663 132.122 41.9623 472.404
2974 0 54.1541 11.615 629 126.806 42.2639 470.374
2975 0 58.1671 11.828 688 125.237 41.7137 471.33
2976 0 58.0865 12.3609 718 126.705 42.163 468.652
2977 0 61.1377 11.2533 688 127.387 42.3328 470.44
2978 0 63.0798 11.5726 730 127.174 42.1192 469.332
2979 0 65.1846 12.2728 800 126.261 41.9438 466.895
2980 0 68.2287 12.9125 881 125.258 42.1873 465.381
2981 0 70.1206 12.6069 884 126.705 42.2195 465.025
2982 0 74.1217 14.1119 1046 122.607 42.2467 462.851
2983 0 76.1334 12.6094 960 128.27 42.5865 462.617
2984 0 79.1097 13.1969 1044 126.694 42.1858 461.776
2985 0 81.2461 14.1914 1153 124.171 41.9376 455.547
2986 0 84.1104 13.5298 1138 125.974 42.0202 458.886
2987 0 87.0831 13.5503 1180 128.884 41.3347 457.06
2988 0 88.1302 13.3666 1178 131.487 41.2835 455.457
2989 0 91.1865 14.432 1316 129.635 41.1983 453.725
2990 0 94.1012 13.8043 1299 132.457 41.0523 452.938
2991 1 51.0466 11.8911 607 128.361 41.4349 474.654
2992 0 56.1191 13.5961 763 132.982 41.0485 473.628
2993 0 57.1331 13.1972 754 127.854 41.431 476.706
2994 0 58.0895 14.9253 867 123.089 41.5525 475.343
2995 0 60.1173 11.8768 714 125.917 41.3039 475.41
2996 0 63.1003 13.4231 847 120.851 41.3991 471.639
2997 0 65.0963 13.7028 892 118.828 42.1626 473.137
2998 0 68.0694 12.5754 856 121.57 42.0537 471.758
2999 0 69.0293 11.7052 808 123.694 41.896 469.571
3000 0 72.0598 13.1696 949 119.869 41.7597 467.518
3001 0 74.1034 13.2113 979 119.077 42.0501 466.805
3002 0 77.144 13.1961 1018 118.367 41.2574 466.281
3003 0 79.1042 13.0587 1033 118.995 41.5508 464.31
3004 0 83.0604 12.9183 1073 120.229 41.3448 462.925
3005 0 83.109 12.634 1050 121.947 42.0162 459.741
3006 0 83.1053 12.7188 1057 140.652 42.9991 459.694
3007 0 88.0552 13.2303 1165 120.461 41.7116 459.179
3008 0 89.0694 12.0468 1073 125.241 40.8993 458.294
3009 0 92.1077 12.2791 1131 125.291 41.4288 455.07
3010 0 96.0841 13.0198 1251 123.349 41.1799 457.025
3011 0 98.0806 11.9901 1176 125.302 41.8827 453.643
3012 0 101.131 12.7458 1289 124.469 42.5803 454.088
3013 0 106.117 13.4003 1422 123.093 42.8826 451.203
3014 0 108.168 12.6839 1372 125.628 41.828 451.594
3015 1 54.2052 11.272 611 122.462 41.5385 475.288
3016 0 57.0287 12.748 727 123.949 42.0495 475.895
3017 0 59.0411 13.0587 771 122.064 41.1673 475.127
3018 0 61.0563 13.8397 845 121.291 41.5704 472.504
3019 0 61.0426 12.2373 747 127.169 41.5489 472.921
3020 0 64.0391 12.8828 825 124.606 42.343 472.602
3021 0 67.1214 13.9896 939 122.433 41.9159 469.715
3022 0 69.1749 12.837 888 129.399 42.5968 469.114
3023 0 68.2313 12.912 881 133.484 42.2247 467.938
3024 0 73.1705 13.5027 988 130.681 42.2925 469.198
3025 0 74.1238 13.5314 1003 131.175 42.1446 465.88
3026 0 78.1326 13.3491 1043 131.459 41.8945 466.156
3027 0 79.2195 13.2417 1049 131.827 42.1945 465.47
3028 0 84.1779 13.8873 1169 128.064 42.8503 463.838
3029 0 86.0955 13.938 1200 129.705 42.2692 460.783
3030 0 88.0378 12.5969 1109 132.27 41.9044 459.898
3031 0 92.1467 13.4894 1243 128.259 41.8415 460.472
3032 0 95.0455 13.7829 1310 127.286 41.5802 456.451
3033 0 97.1324 13.7647 1337 126.868 41.6193 458.027
3034 1 52.0317 12.4155 646 129.228 42.6672 479.488
3035 0 53.0989 13.0323 692 129.074 43.0549 477.646
3036 0 56.1015 14.2064 797 125.799 41.9824 476.833
3037 0 56.0368 13.2948 745 128.617 42.7289 476.801
3038 0 60.0622 14.1686 851 125.109 42.7756 474.941
3039 0 60.0805 13.1657 791 129.46 43.5689 473.192
3040 0 62.1036 13.9444 866 126.693 43.4861 473.064
3041 0 65.0977 14.6242 952 124.826 43.4412 471.391
3042 0 68.0696 14.3383 976 124.879 43.4139 471.361
3043 0 68.1216 13.7548 937 127.599 43.9253 469.725
3044 0 72.0645 13.9597 1006 125.436 43.5676 469.728
3045 0 73.0274 13.3922 978 128.537 43.2853 467.498
3046 0 74.0423 12.4388 921 124.253 43.2704 467.186
3047 0 78.0376 13.1859 1029 126.547 43.6482 466.812
3048 0 78.0746 13.6408 1065 129.328 43.9155 465.023
3049 0 77.1139 13.3439 1029 122.067 43.7328 464.239
3050 0 80.0979 13.2837 1064 129.808 44.1823 463.257
3051 0 83.1098 14.1379 1175 126.426 43.754 462.658
3052 0 84.079 14.1653 1191 126.517 43.3619 461.149
3053 0 86.1126 14.8759 1281 123.399 44.1202 460.919
3054 1 46.0325 12.5781 579 130.012 44.5112 479.575
3055 0 47.0343 11.7361 552 130.545 44.5598 479.279
3056 0 48.047 12.7791 614 127.599 43.7036 478.796
3057 0 49.1485 12.2079 600 127.733 44.11 478.182
3058 0 53.1456 12.6633 673 124.174 43.8975 476.364
3059 0 54.1877 13.1026 710 122.262 43.5507 475.517
3060 0 56.1568 12.9993 730 121.032 43.3192 473.718
3061 0 55.0713 11.8573 653 115.986 43.1394 475.853
3062 0 56.0907 11.4992 645 116.673 43.1876 473.369
3063 0 58.1491 11.4877 668 117.897 43.1572 474.076
3064 0 59.0805 11.6282 687 118.556 43.0204 473.001
3065 0 62.0596 12.5041 776 117.524 43.3402 469.805
3066 0 66.1155 12.1757 805 116.798 43.2832 472.152
3067 0 63.1484 11.6551 736 123.086 43.2351 470.22
3068 0 68.0631 13.1349 894 119.166 42.9799 468.674
3069 0 69.1741 13.4299 929 120.286 43.7029 466.952
3070 0 69.2188 12.251 848 126.071 43.6663 466.177
3071 0 74.0846 14.2135 1053 120.226 43.7179 466.571
3072 0 77.1438 13.4943 1041 123.259 43.5908 465.631
3073 0 80.1438 13.9499 1118 123.201 43.7048 461.605
3074 0 81.1587 13.4182 1089 127.027 43.0716 461.072
3075 0 82.1241 13.8205 1135 128.412 43.4062 459.986
3076 1 45.0527 13.118 591 128.946 43.291 479.425
3077 0 44.0669 12.2541 540 133.876 43.5741 478.274
3078 0 46.0286 12.3402 568 133.829 41.5475 477.458
3079 0 48.0972 13.0361 627 132.447 41.6252 478.144
3080 0 49.0923 13.3218 654 132.575 41.9312 477.254
3081 0 50.0358 13.2505 663 134.198 41.5219 476.483
3082 0 51.0377 12.4026 633 136.044 42.2338 475.67
3083 0 52.0309 12.5502 653 137.481 41.9219 473.977
3084 0 54.1189 12.3432 668 138.232 42.3114 474.159
3085 0 57.0915 13.6798 781 134.437 42.274 472.892
3086 0 59.1157 14.9537 884 129.85 42.5396 472.877
3087 0 59.0571 13.9865 826 134.962 41.7651 472.465
3088 0 60.0751 13.8327 831 136.404 41.9591 471.304
3089 0 64.0719 14.0155 898 135.033 42.1971 470.254
3090 0 65.0453 14.0518 914 135.382 42.7505 469.014
3091 0 67.0864 14.5782 978 133.462 41.8661 470.354
3092 0 71.0315 14.0501 998 136.814 42.0842 467.983
3093 0 71.1026 13.8251 983 137.931 42.6399 468.687
3094 0 75.0326 14.1938 1065 136.744 41.8103 464.595
3095 0 77.0397 14.499 1117 136.03 42.2041 464.842
3096 0 80.1131 14.3921 1153 136.215 42.7875 462.663
3097 0 83.0771 14.6129 1214 136.357 43.0189 460.488
3098 0 86.0572 13.5608 1167 139.586 42.437 459.037
3099 1 44.0348 13.671 602 137.872 42.01 479.07
3100 0 45.0449 14.7187 663 134.05 42.3198 479.786
3101 0 46.1362 13.4168 619 138.826 42.1405 479.187
3102 0 48.1062 14.8006 712 128.949 42.1756 478.728
3103 0 47.0239 13.9503 656 136.159 42.0335 476.317
3104 0 50.0879 13.2567 664 136.331 42.2846 477.325
3105 0 51.0502 12.7718 652 138.239 42.2163 475.509
3106 0 54.0994 13.6231 737 133.227 42.5237 475.373
3107 0 55.0712 13.9274 767 134.302 42.4133 474.499
3108 0 57.0363 13.8859 792 133.922 42.1578 474.302
3109 0 59.0429 13.956 824 134.138 41.7112 472.84
3110 0 60.0579 14.3695 863 133.406 42.336 472.075
3111 0 62.089 13.4646 836 136.919 42.0813 471.513
3112 0 62.0647 13.067 811 138.858 42.1874 471.547
3113 0 64.0527 13.5201 866 139.001 42.1547 469.13
3114 0 68.0674 14.4563 984 134.83 42.9634 468.336
3115 0 71.0533 13.9613 992 136.064 42.8589 467.61
3116 0 74.0653 13.7176 1016 135.175 42.6191 466.329
3117 0 76.1213 14.2404 1084 133.093 42.3358 465.401
3118 0 78.0925 13.6761 1068 134.59 42.0403 463.023
3119 0 80.0878 13.1481 1053 135.311 42.2042 461.009
3120 1 41.0426 12.5723 516 133.118 42.3876 481.312
3121 0 42.0168 13.0186 547 129.166 42.6197 481.236
3122 0 42.1466 12.5751 530 132.798 42.2396 480.466
3123 0 44.0448 13.0322 574 129.859 44.2404 480.605
3124 0 44.0227 12.4936 550 133.264 44.5927 479.676
3125 0 48.0634 12.8372 617 128.139 44.564 479.752
3126 0 49.1083 13.1546 646 126.46 44.6362 478.077
3127 0 51.0427 12.2838 627 128.182 44.7081 478.211
3128 0 53.0578 12.5335 665 127.427 44.5293 477.376
3129 0 57.0826 14.4352 824 119.285 44.159 475.841
3130 0 58.0621 13.9161 808 121.016 44.2673 475.111
3131 0 60.1065 13.9752 840 120.658 44.5548 474.017
3132 0 61.2102 14.1643 867 120.14 44.4833 473.442
3133 0 64.098 14.5558 933 119.045 44.3751 470.823
3134 0 62.1785 13.1717 819 125.915 44.9121 471.569
3135 0 68.1941 14.1948 968 120.224 45.5196 470.311
3136 0 70.1599 13.9253 977 121.106 44.9284 469.532
3137 0 70.0877 12.57 881 121.642 44.3871 466.447
3138 0 71.2568 12.4199 885 122.484 44.8655 465.89
3139 0 75.1941 13.6048 1023 119.68 44.3988 464.917
3140 0 78.1317 14.2708 1115 118.482 44.487 462.115
3141 0 82.1584 14.3625 1180 119.014 45.0102 464.315
3142 0 85.0997 14.1716 1206 119.951 44.9751 463.381
3143 0 86.0643 14.1755 1220 121.664 44.5074 462.123
3144 0 91.3795 13.1868 1205 122.956 45.1212 460.765
3145 0 92.087 14.0845 1297 121.426 45.2968 459.42
3146 0 96.088 14.2369 1368 121.357 44.2164 456.048
3147 0 98.1275 13.992 1373 122.067 43.9155 455.461
3148 0 101.298 13.1296 1330 125.117 43.8925 454.066
3149 0 105.198 14.4679 1522 122.164 43.3916 453.32
3150 0 110.268 14.3016 1577 124.755 43.3278 448.828
3151 0 113.212 12.9933 1471 125.627 43.119 446.304
3152 1 59.0789 12.5087 739 116.947 44.3545 473.851
3153 0 59.0332 11.9424 705 119.027 43.4865 473.793
3154 0 59.1219 12.3643 731 119.26 43.8331 473.421
3155 0 64.1107 13.1647 844 116.9 43.4289 472.65
3156 0 65.2102 13.3415 870 116.831 43.5448 471.766
3157 0 68.1113 13.3164 907 117.72 43.516 468.61
3158 0 69.145 13.5223 935 117.58 43.523 467.468
3159 0 71.0662 14.0714 1000 116.587 43.84 467.813
3160 0 72.2209 13.1402 949 120.001 43.2244 467.102
3161 0 75.0872 13.1847 990 120.119 43.2364 466.373
3162 0 75.1615 12.9055 970 123.712 43.132 464.114
3163 0 81.1768 13.9695 1134 119.514 43.567 463.303
3164 0 83.0625 13.3273 1107 122.874 43.2123 461.554
3165 0 87.0662 13.2887 1157 122.816 43.0951 462.755
3166 0 89.1951 13.5097 1205 124.882 42.6133 457.441
3167 0 92.2496 14.2765 1317 124.098 42.7077 458.161
3168 0 96.2166 14.7999 1424 120.645 42.9319 456.683
3169 0 96.0886 13.9871 1344 124.874 42.9732 454.468
3170 1 48.0571 12.6308 607 127.008 44.2158 478.931
3171 0 50.1131 12.5117 627 125.442 42.941 476.898
3172 0 51.074 12.6875 648 127.526 43.5154 481.6
3173 0 50.0676 12.7028 636 127.896 43.1934 480.923
3174 0 55.1294 13.4411 741 124.371 43.4831 478.899
3175 0 56.0388 13.2587 743 126.058 43.5599 477.183
3176 0 58.1021 13.046 758 125.951 44.0145 474.856
3177 0 61.154 14.2264 870 121.292 43.3195 473.925
3178 0 68.1805 16.471 1123 110.1 42.9715 470.022
3179 0 66.3772 14.3272 951 120.685 42.7277 471.115
3180 0 68.0936 13.9808 952 123.14 42.7437 470.898
3181 0 71.0596 14.8185 1053 122.319 41.7293 468.733
3182 0 71.1911 12.8668 916 128.421 42.2249 469.556
3183 0 74.1317 13.7458 1019 125.572 42.2169 468.263
3184 0 77.161 13.6986 1057 124.824 42.5402 467.756
3185 0 79.1474 14.0245 1110 124.474 42.1604 464.417
3186 0 81.1314 13.5213 1097 125.17 42.134 463.671
3187 0 85.2136 14.1527 1206 122.14 42.2164 463.791
3188 0 87.1878 13.8207 1205 123.473 42.0091 462.334
3189 1 46.0563 11.3557 523 125.688 42.5029 481.101
3190 0 45.1275 11.1905 505 128.248 42.4871 480.596
3191 0 50.0563 12.7057 636 122.723 42.3349 480.225
3192 0 50.1881 12.8915 647 122.386 42.5162 479.935
3193 0 54.1196 14.8745 805 118.261 42.9429 476.246
3194 0 56.1092 13.8124 775 121.359 42.8323 475.759
3195 0 57.0725 12.8784 735 123.254 43.1238 475.162
3196 0 61.1984 14.216 870 118.163 42.7736 473.823
3197 0 60.094 13.8949 835 122.887 42.5868 471.257
3198 0 62.0631 12.8256 796 125.143 42.6809 471.212
3199 0 67.1026 12.8907 865 123.919 43.1145 470.521
3200 0 70.1262 14.3883 1009 120.016 43.0496 468.812
3201 0 71.0432 13.7663 978 123.471 42.6115 466.962
3202 0 74.1045 14.9384 1107 120.654 42.2647 465.258
3203 0 76.0673 13.7904 1049 123.619 42.3146 463.99
3204 0 80.1433 14.7112 1179 121.8 42.6217 461.39
3205 0 83.0835 14.6118 1214 121.922 42.5643 460.795
3206 0 85.1404 13.9887 1191 123.468 42.8228 461.683
3207 0 89.2013 15.2464 1360 120.452 42.1088 459.221
3208 0 92.1745 15.2971 1410 120.377 43.0801 457.406
3209 0 94.035 13.8565 1303 125.955 42.7636 455.732
3210 1 47.0779 11.4916 541 130.24 42.6174 478.895
3211 0 49.0293 12.4823 612 128.549 42.4199 478.286
3212 0 52.0428 14.5265 756 124.167 42.3889 476.689
3213 0 53.061 13.4185 712 129.813 42.111 475.316
3214 0 56.0682 12.9307 725 130.105 42.08 472.171
3215 0 57.1422 13.9652 798 128.06 41.6679 471.855
3216 0 60.1338 13.8857 835 128.412 41.5868 469.663
3217 0 61.0795 13.4579 822 129.24 42.1338 469.545
3218 0 65.0422 14.1754 922 127.131 41.961 467.48
3219 0 62.1395 13.0835 813 134.774 42.5584 465.577
3220 0 68.0997 14.3466 977 130.276 42.8802 465.144
3221 0 69.1933 13.3972 927 133.603 42.3085 466.108
3222 0 74.1077 14.9647 1109 128.354 42.9964 464.787
3223 0 75.1233 13.6709 1027 133.553 42.7644 463.18
3224 0 76.1998 13.6221 1038 135.487 43.2408 461.653
3225 0 81.1766 14.5485 1181 131.065 43.359 459.632
3226 0 84.2508 14.1838 1195 131.722 43.0444 458.788
3227 0 84.218 14.6287 1232 133.189 43.4432 456.386
3228 1 44.2794 10.9532 485 133.643 42.1196 475.973
3229 0 49.2117 12.7002 625 129.653 42.9024 474.867
3230 0 47.0748 11.7473 553 133.499 42.3779 473.011
3231 0 47.0271 11.5465 543 133.785 41.849 471.484
3232 0 53.1198 12.8766 684 121.175 43.5132 474.987
3233 0 52.0567 11.8717 618 129.625 43.4288 475.494
3234 0 54.0221 12.2728 663 128.959 43.356 474.392
3235 0 55.0599 12.5863 693 128.791 43.342 474.341
3236 0 61.057 12.5948 769 126.336 43.6151 473.743
3237 0 62.0992 13.4462 835 127.168 44.0946 471.314
3238 0 62.0823 13.1922 819 129.495 43.8095 469.375
3239 0 65.0647 12.7258 828 131.309 44.0399 468.034
3240 0 67.0467 13.2594 889 130.222 43.9145 468.415
3241 0 70.1043 13.808 968 130.592 43.905 467.459
3242 0 71.1343 13.8752 987 133.785 43.5805 466.405
3243 0 72.1124 14.0891 1016 138.917 42.9026 463.756
3244 0 75.1671 13.9822 1051 142.064 43.5081 463.452
3245 0 79.1548 13.821 1094 142.574 43.3218 462.464
3246 0 81.1085 14.3881 1167 140.392 43.7138 461.273
3247 0 82.1823 14.772 1214 141.057 43.4292 458.875
3248 0 83.1753 14.3552 1194 141.412 43.3325 457.696
3249 0 87.0771 14.1599 1233 141.985 43.1663 454.536
3250 0 89.1626 13.9296 1242 143.594 42.7359 453.176
3251 0 94.1687 14.2192 1339 140.364 43.3435 451.427
3252 0 97.2085 14.402 1400 138.446 43.6457 451.554
3253 0 100.142 14.8788 1490 136.756 43.6638 446.62
3254 0 104.248 14.7438 1537 135.082 43.8673 447.339
3255 0 109.231 14.538 1588 133.246 43.6795 444.073
3256 1 58.1151 11.1847 650 127.909 44.3677 470.125
3257 0 61.1128 11.0615 676 127.294 44.0444 469.462
3258 0 67.265 13.0677 879 118.809 44.4255 466.851
3259 0 66.0821 12.5299 828 124.186 44.5966 463.873
3260 0 69.1446 11.9026 823 124.962 44.3329 465.306
3261 0 73.0658 11.7976 862 125.59 44.0882 463.006
3262 0 75.1023 11.5309 866 127.524 43.8972 462.048
3263 0 77.091 12.1155 934 126.933 43.9797 460.335
3264 0 82.0724 12.7327 1045 124.808 43.8325 459.884
3265 0 84.1202 12.4821 1050 127.544 44.1971 458.032
3266 0 84.1487 11.7292 987 129.689 43.6687 456.683
3267 0 90.135 12.5478 1131 125.042 43.9346 456.009
3268 0 94.123 11.74 1105 127.18 43.6896 455.687
3269 0 95.1255 12.3836 1178 126.051 44.3065 452.328
3270 0 97.1348 11.1186 1080 129.447 43.8954 450.147
3271 0 100.292 10.7984 1083 129.543 43.9049 449.299
3272 0 104.111 11.2284 1169 129.986 44.3225 444.765
3273 1 58.1651 10.6593 620 124.669 42.7968 465.882
3274 0 64.1788 11.6394 747 123.7 42.8862 469.143
3275 0 64.1666 11.626 746 124.693 42.4692 466.255
3276 0 67.263 12.7856 860 120.626 42.4105 464.665
3277 0 68.1542 11.2539 767 124.774 42.8905 465.012
3278 0 71.2485 11.4388 815 125.037 42.5129 461.961
3279 0 73.2745 12.4191 910 122.11 43.0527 461.237
3280 0 76.2566 12.1957 930 122.308 42.386 460.506
3281 0 80.1723 13.3587 1071 119.297 42.8534 458.824
3282 0 80.3018 12.4157 997 122.894 43.0572 458.324
3283 0 83.38 11.8614 989 125.614 42.9899 455.28
3284 0 86.3507 12.1829 1052 123.486 42.7747 455.712
3285 0 89.2923 11.2888 1008 126.546 42.8889 452.549
3286 0 93.2001 12.0601 1124 124.783 42.8105 453.035
3287 1 48.2255 10.1813 491 120.572 42.5927 475.743
3288 0 51.0449 10.5789 540 118.22 42.7241 472.554
3289 0 52.0432 10.7987 562 115.002 42.9164 472.456
3290 0 53.066 11.4009 605 114.461 42.7058 472.526
3291 0 48.1208 9.26834 446 124.599 42.8543 472.5
3292 0 55.1551 10.3708 572 119.026 42.8374 473.362
3293 0 56.1178 9.17712 515 123.266 42.5515 473.363
3294 0 59.2085 10.0324 594 120.995 42.968 470.077
3295 0 61.1041 11.6522 712 118.133 42.8666 470.69
3296 0 62.0894 9.27694 576 125.304 42.9167 470.068
3297 0 64.0423 10.3369 662 122.387 43.352 469.115
3298 0 68.1017 10.9689 747 121.146 43.1258 466.308
3299 0 70.1144 9.58434 672 119.769 43.061 465.321
3300 0 71.049 8.86712 630 123.97 42.9175 465.879
3301 0 75.0715 9.60418 721 122.143 43.6671 462.37
3302 1 41.0164 10.6055 435 115.887 42.7218 479.846
3303 0 40.1407 11.8583 476 115.347 44.1597 478.693
3304 0 44.2191 11.036 488 117.238 44.0615 476.482
3305 0 46.0536 11.3563 523 115.39 43.3098 478.95
3306 0 46.0837 11.7612 542 116.804 42.9262 475.886
3307 0 49.0105 11.4261 560 116.621 43.2946 477.266
3308 0 47.0136 11.8689 558 118.91 43.7061 476.371
3309 0 50.0545 12.6662 634 114.748 44.3218 476.774
3310 0 51.0467 12.1849 622 116.085 43.7444 476.275
3311 0 54.0923 12.6266 683 114.343 43.1947 472.987
3312 0 54.0387 11.9729 647 115.974 43.2968 473.901
3313 0 58.1015 11.9274 693 115.162 43.1732 472.609
3314 0 58.0301 11.5802 672 117.975 43.6086 472.543
3315 0 60.061 11.6881 702 117.853 42.8618 470.514
3316 0 61.0595 12.234 747 116.325 43.0589 471.043
3317 0 62.0123 12.4008 769 117.818 43.0052 468.802
3318 0 65.0973 12.3968 807 115.724 43.7373 470.84
3319 0 67.1084 12.6512 849 114.634 42.9658 469.784
3320 0 67.0857 12.5958 845 115.798 43.4142 468.146
3321 0 68.1294 12.3148 839 117.056 43.2122 466.333
3322 0 70.0465 13.2483 928 115.312 43.5119 465.474
3323 0 75.053 12.5112 939 115.597 43.1374 465.161
3324 0 75.1366 11.8717 892 118.632 43.4563 465.761
3325 0 77.1375 11.9008 918 119.209 43.5044 462.919
3326 0 81.119 12.5864 1021 117.027 43.5593 461.772
3327 0 83.102 12.3222 1024 118.828 43.3613 459.443
3328 0 85.0696 11.0263 938 122.302 43.8785 461.664
3329 1 41.0442 11.378 467 126.257 42.8651 480.938
3330 0 44.0635 11.5742 510 125.049 42.8078 480.714
3331 0 47.0252 11.0154 518 122.844 42.751 478.342
3332 0 46.0703 12.1119 558 121.082 45.6971 477.842
3333 0 48.0499 12.2165 587 120.075 45.5758 477.422
3334 0 46.0444 10.7505 495 126.345 45.5111 477.889
3335 0 50.08 12.7796 640 118.259 46.1938 476.794
3336 0 52.0421 12.0095 625 120.768 46.1072 474.926
3337 0 54.0444 12.7858 691 118.049 45.6961 474.975
3338 0 53.0415 11.0668 587 124.853 45.3543 475.407
3339 0 56.054 12.2382 686 120.682 45.4169 474.092
3340 0 57.0236 12.5387 715 119.824 45.4797 473.536
3341 0 59.0562 13.0215 769 119.268 45.2016 472.671
3342 0 59.0914 12.083 714 123.804 45.3263 471.943
3343 0 60.0873 11.916 716 124.848 45.7137 470.839
3344 0 64.1029 13.2755 851 118.922 45.4454 470.227
3345 0 64.0492 12.4436 797 123.025 45.2409 469.967
3346 0 68.0645 13.5607 923 119.108 45.2199 468.428
3347 0 70.2554 12.9812 912 120.783 44.8695 465.581
3348 0 71.073 13.6057 967 119.723 44.4478 465.529
3349 0 71.1721 12.6314 899 122.281 44.9099 464.27
3350 0 75.1894 12.7412 958 121.509 44.8591 462.429
3351 0 79.1215 12.4366 984 121.091 45.1362 464.482
3352 0 80.0816 12.9868 1040 120.022 44.9692 463.782
3353 0 83.128 12.2582 1019 121.896 44.629 462.08
3354 1 44.0701 11.1413 491 127.976 45.2485 479.611
3355 0 43.1434 11.7515 507 126.318 45.1755 479.56
3356 0 47.0917 13.4419 633 120.652 45.1406 479.828
3357 0 48.2583 12.2673 592 125.446 45.2162 479.465
3358 0 46.2441 11.569 535 130.901 44.5028 478.157
3359 0 49.1531 12.2678 603 127.249 43.4826 477.244
3360 0 50.2456 12.2598 616 127.92 43.8815 476.494
3361 0 50.2359 11.7048 588 130 43.6582 475.19
3362 0 53.1697 12.7892 680 124.474 44.4176 476.487
3363 0 56.1338 12.7196 714 123.468 44.3768 476.384
3364 0 56.1273 13.0596 733 124.243 44.3984 475.465
3365 0 56.1827 12.6907 713 126.224 44.2328 472.546
3366 0 60.1392 12.5209 753 125.432 43.9668 473.884
3367 0 61.1535 12.117 741 126.798 43.4399 471.609
3368 0 61.2258 11.1228 681 129.185 43.8326 472.944
3369 0 64.1375 11.9587 767 126.741 43.0156 471.042
3370 0 65.1547 13.2301 862 123.839 43.3457 469.099
3371 0 66.309 13.1053 869 126.009 43.2451 467.005
3372 0 68.3756 12.1096 828 127.803 43.6099 467.292
3373 0 71.1413 13.0304 927 124.975 43.383 466.617
3374 0 72.3187 12.597 911 126.386 43.1548 465.887
3375 0 76.2244 13.2635 1011 125.497 42.8833 462.604
3376 0 75.1728 12.5178 941 129.746 42.9872 461.344
3377 0 77.235 11.4974 888 131.582 42.6971 463.783
3378 0 79.25 12.8076 1015 129.901 43.3182 459.466
3379 0 83.2438 13.01 1083 127.952 43.024 456.247
3380 0 87.3365 13.4308 1173 125.234 42.6709 457.042
3381 0 88.3207 13.451 1188 125.926 42.4478 454.207
3382 0 89.1872 12.5915 1123 128.812 42.6794 454.14
3383 0 93.263 12.3307 1150 129.478 42.553 453.442
3384 1 50.1302 10.772 540 125.604 42.2148 476.674
3385 0 52.07 13.2514 690 120.43 45.0652 475.104
3386 0 52.2299 12.5981 658 124.065 43.7447 477.12
3387 0 56.0946 13.0672 733 121.73 43.3574 474.241
3388 0 58.1771 14.4731 842 95.9976 43.3456 471.835
3389 0 59.0784 12.5934 744 124.95 42.8441 470.593
3390 0 58.0831 13.1019 761 125.494 42.8817 470.473
3391 0 63.0414 13.5467 854 120.967 42.5293 469.231
3392 0 65.1151 13.1613 857 120.978 43.1529 466.954
3393 0 69.0846 13.1578 909 120.063 43.1826 466.583
3394 0 71.0444 13.5831 965 119.736 43.7078 465.826
3395 0 73.0853 13.2037 965 121.437 43.7824 465.462
3396 0 76.0593 13.4763 1025 121.272 43.8946 463.879
3397 0 76.1062 12.5088 952 125.599 43.4044 463.305
3398 0 80.074 13.8497 1109 121.05 43.4202 463.416
3399 0 83.1063 13.5128 1123 122.057 43.3589 461.433
3400 0 84.1806 13.5304 1139 122.605 43.4908 461.173
3401 0 88.2596 14.3667 1268 121.256 43.0544 457.251
3402 0 91.3389 12.3715 1130 125.553 42.9912 457.95
3403 0 93.0907 13.0733 1217 125.258 43.2424 452.407
3404 0 96.2793 13.8555 1334 122.691 42.8643 450.539
3405 1 53.4155 11.214 599 127.349 43.0117 475.083
3406 0 54.1969 12.6945 688 123.926 42.9724 474.496
3407 0 56.2244 12.5746 707 116.751 43.4554 474.116
3408 0 57.1777 11.8228 676 112.947 43.8343 470.528
3409 0 60.1428 12.886 775 113.454 43.9923 473.072
3410 0 63.143 12.1629 768 112.395 44.5378 468.471
3411 0 65.1491 12.6786 826 111.145 44.2215 467.85
3412 0 65.1534 11.7108 763 113.394 44.3237 468.233
3413 0 70.1089 12.8514 901 110.506 44.2886 469.089
3414 0 71.1111 12.9938 924 110.997 44.3517 466.13
3415 0 74.1612 12.783 948 111.611 44.3038 464.268
3416 0 75.2452 12.2267 920 112.873 43.9348 461.57
3417 0 78.1966 12.4046 970 112.168 43.9639 463.174
3418 0 83.278 12.7284 1060 110.406 43.8585 460.495
3419 0 87.271 12.9711 1132 111.761 44.0362 456.551
3420 0 88.2591 12.2367 1080 115.094 43.85 454.784
3421 0 91.1855 12.7652 1164 113.945 44.018 451.658
3422 1 50.2661 10.146 510 118.565 44.7392 474.602
3423 0 51.2612 11.9389 612 118.899 43.8366 472.639
3424 0 54.1358 11.8221 640 111.63 43.9328 473.877
3425 0 54.1245 10.4019 563 114.712 44.7922 474.462
3426 0 55.1641 11.4748 633 114.403 44.2022 470.558
3427 0 58.071 11.5548 671 113.914 44.5842 472.094
3428 0 61.192 11.3087 692 112.74 44.6301 470.267
3429 0 64.123 12.2109 783 110.41 44.6999 469.277
3430 0 63.1663 11.0027 695 114.973 45.0029 467.983
3431 0 64.2353 10.6016 681 116.859 44.7856 467.201
3432 0 69.1419 12.3225 852 112.327 44.9331 465.952
3433 0 70.1966 12.0661 847 113.73 44.425 463.591
3434 0 73.1606 10.9075 798 115.964 44.7018 463.377
3435 0 76.1559 12.1724 927 113.976 44.8738 461.173
3436 0 79.359 12.5884 999 112.468 45.1602 461.53
3437 0 81.2266 12.5575 1020 113.128 45.2608 461.992
3438 0 83.3045 11.0438 920 116.672 44.4641 460.768
3439 0 85.2973 10.9851 937 117.971 44.27 457.701
3440 1 45.132 10.4361 471 116.197 44.9851 479.981
3441 0 48.2932 12.6933 613 115.015 43.9005 475.034
3442 0 52.4186 12.7245 667 121.886 43.6777 474.466
3443 0 53.2925 13.4728 718 121.805 43.7145 471.84
3444 0 55.2789 13.4048 741 122.312 43.8421 471.271
3445 0 57.3511 13.0425 748 123.943 43.9893 469.588
3446 0 58.2929 14.5815 850 119.856 44.2176 470.293
3447 0 60.1935 12.6592 762 126.252 44.4606 470.287
3448 0 60.2008 14.0031 843 123.732 44.3998 470.109
3449 0 61.1985 12.9415 792 127.977 44.3081 467.26
3450 0 64.2581 13.4147 862 124.939 43.8956 467.363
3451 0 67.1881 13.1273 882 125.98 43.9297 466.151
3452 0 71.2636 13.6676 974 123.721 44.6602 463.821
3453 0 70.2619 13.2077 928 128.128 44.4224 461.422
3454 0 72.2814 12.2161 883 130.788 43.9083 461.832
3455 0 77.2406 12.8559 993 126.979 43.994 461.103
3456 0 78.3291 13.6603 1070 124.959 43.6318 459.611
3457 0 78.2082 11.2264 878 132.65 43.7449 459.614
3458 0 86.2512 12.5332 1081 129.265 43.2812 455.608
3459 1 45.1892 9.91387 448 129.67 44.5357 478.643
3460 0 47.3368 11.302 535 126.138 44.043 475.77
3461 0 46.0352 10.7092 493 119.428 43.5842 473.686
3462 0 48.0919 10.1888 490 110.863 41.8816 472.978
3463 0 48.1542 9.49035 457 112.969 42.07 472.536
3464 0 51.1432 10.6173 543 111.978 42.4622 472.582
3465 0 51.0107 10.3116 526 112.859 42.6635 471.85
3466 0 52.0435 9.49206 494 115.308 42.2085 470.583
3467 0 53.0333 10.0503 533 114.826 42.0769 470.555
3468 0 54.0161 10.3303 558 113.075 41.5341 471.147
3469 0 55.0403 9.97452 549 115.685 41.4098 469.705
3470 0 56.0208 10.9067 611 114.931 41.3486 465.373
3471 0 61.0389 9.8298 600 115.058 42.0867 467.517
3472 0 62.08 11.1469 692 113.387 42.2124 464.734
3473 0 64.094 10.6094 680 113.353 42.3309 464.749
3474 0 68.0609 11.3428 772 111.023 42.4041 464.176
3475 0 69.057 11.2226 775 112.746 42.2723 461.173
3476 0 72.0851 11.0564 797 112.443 43.207 461.113
3477 0 76.1673 10.1487 773 113.305 42.542 459.763
3478 0 78.1306 10.7256 838 111.872 42.7136 459.305
3479 0 83.0463 10.5122 873 109.778 42.8855 460.334
3480 1 41.0635 8.81561 362 108.876 42.2348 473.691
3481 0 43.0822 9.49347 409 110.029 42.1883 474.572
3482 0 48.0347 11.8872 571 110.105 44.5044 479.834
3483 0 49.057 11.4764 563 111.204 44.3783 480.249
3484 0 49.0868 12.2436 601 110.894 44.6106 478.672
3485 0 51.094 12.3498 631 111.693 44.6228 477.133
3486 0 54.1269 12.6 682 110.384 44.2977 477.72
3487 0 55.0617 13.0036 716 110.036 43.7779 476.904
3488 0 56.0766 12.3759 694 113.006 44.2954 476.182
3489 0 55.1438 12.4039 684 113.636 44.0365 475.424
3490 0 57.0707 12.248 699 113.647 43.6967 475.665
3491 0 60.0593 12.8873 774 112.853 44.0736 473.891
3492 0 63.1936 12.6753 801 113.121 43.7978 473.991
3493 0 62.0772 13.2416 822 114.349 44.2786 472.849
3494 0 64.1292 11.8978 763 117.713 44.0524 472.604
3495 0 68.0495 13.211 899 114.82 44.0779 470.384
3496 0 69.0621 12.9738 896 117.82 44.5045 469.329
3497 0 72.2041 14.3482 1036 114.58 44.0502 469.203
3498 0 73.1023 13.9257 1018 116.993 43.6326 467.523
3499 0 75.1598 13.0522 981 120.552 43.5158 466.41
3500 0 77.1867 13.9921 1080 118.559 43.9602 465.173
3501 0 80.1573 14.0224 1124 120.589 43.5792 461.838
3502 0 82.1207 13.8333 1136 121.668 44.2412 461.74
3503 0 86.2396 12.8943 1112 124.758 43.5638 461.532
3504 0 89.1688 13.5922 1212 124.063 43.6832 459.734
3505 0 91.1797 13.3692 1219 125.404 43.7506 457.837
3506 1 48.1712 13.1614 634 129.069 44.0284 478.268
3507 0 48.1101 11.5568 556 137.903 44.1709 476.165
3508 0 51.0471 11.793 602 135.032 44.588 477.92
3509 0 53.2636 13.0483 695 132.522 44.2619 475.181
3510 0 54.3255 13.1062 712 132.899 43.8652 474.794
3511 0 56.2555 12.7454 717 134.092 44.0948 474.112
3512 0 56.307 13.0712 736 133.423 44.2446 473.213
3513 0 59.2041 13.1241 777 132.013 43.0669 472.535
3514 0 61.2773 14.3283 878 128.367 43.7984 470.445
3515 0 63.1736 13.8665 876 130.434 43.9498 469.158
3516 0 66.1477 14.8002 979 129.019 44.6108 468.692
3517 0 68.3404 13.2718 907 133.73 44.2613 467.344
3518 0 70.1315 13.9167 976 131.598 43.6773 466.639
3519 0 71.2623 13.303 948 134.905 43.8143 465.012
3520 0 74.1469 13.9318 1033 132.205 44.3746 464.055
3521 0 76.2028 14.3039 1090 132 44.1239 463.217
3522 0 79.1938 13.7132 1086 132.044 43.9245 461.634
3523 0 83.2179 13.8912 1156 130.261 44.0787 462.076
3524 0 85.1447 13.0366 1110 133.329 43.8667 460.15
3525 0 87.3044 13.4014 1170 132.566 44.1932 458.873
3526 1 46.0122 11.0623 509 133.037 44.3694 477.919
3527 0 46.0214 10.8645 500 135.128 44.736 475.55
3528 0 51.195 12.4426 637 128.986 44.5039 475.008
3529 0 51.2331 11.8869 609 131.323 44.5337 473.8
3530 0 53.1873 12.8226 682 128.796 44.7654 473.035
3531 0 55.1509 12.4023 684 131.478 44.1915 472.858
3532 0 55.2801 12.5 691 130.563 43.9493 472.313
3533 0 61.1634 12.8508 786 125.668 44.5267 473.017
3534 0 61.204 12.107 741 129.563 44.413 472.072
3535 0 62.2891 12.2172 761 130.537 44.2484 469.624
3536 0 63.2294 13.3324 843 126.771 44.2989 469.415
3537 0 65.197 12.4392 811 129.159 44.5647 468.903
3538 0 68.2083 12.5791 858 129.375 44.9522 465.586
3539 0 72.226 12.1563 878 128.138 44.8793 467.257
3540 0 73.1527 13.2326 968 126.599 44.1756 463.656
3541 0 79.2126 12.1698 964 127.006 44.1888 464.571
3542 0 77.2392 11.8852 918 130.78 44.5218 462.069
3543 0 82.2684 12.3984 1020 128.813 44.5588 459.622
3544 0 84.1824 12.3779 1042 127.294 44.356 459.191
3545 0 89.225 12.7543 1138 126.109 44.4807 457.308
3546 0 90.2394 11.4695 1035 131.303 44.6618 455.359
3547 0 94.3575 12.3361 1164 128.308 44.3746 456.362
3548 0 98.2532 11.9182 1171 129.538 44.8343 453.078
3549 1 55.0826 11.6734 643 124.006 45.3966 473.401
3550 0 56.0235 13.066 732 120.34 45.526 472.536
3551 0 58.069 11.8996 691 126.625 45.6889 471.657
3552 0 59.1056 11.5556 683 128.233 45.7628 471.288
3553 0 59.0281 12.4178 733 126.854 45.0286 469.443
3554 0 62.0385 12.734 790 124.503 45.4342 471.252
3555 0 67.1156 13.2756 891 121.788 45.7486 469.844
3556 0 66.0634 12.5334 828 125.269 45.6292 470.832
3557 0 66.0634 12.5031 826 157.315 44.6453 470.855
3558 0 70.1012 12.8956 904 124.74 45.6615 467.445
3559 0 73.0907 13.4764 985 123.713 45.4853 465.302
3560 0 75.1561 13.0528 981 123.548 44.9317 464.154
3561 0 77.2276 13.2595 1024 122.931 45.1748 463.767
3562 0 78.1281 12.9787 1014 126.118 45.1716 462.371
3563 0 81.0826 13.8747 1125 124 45.0578 460.93
3564 0 84.1222 13.6825 1151 121.724 45.2589 462.248
3565 0 86.2066 13.456 1160 125.056 45.1621 458.796
3566 0 89.29 13.3274 1190 123.389 45.0168 457.613
3567 0 93.2038 13.3471 1244 123.85 44.7685 453.961
3568 1 47.1792 11.3185 534 124.036 44.9157 477.652
3569 0 50.0947 11.6779 585 125.973 45.4803 476.566
3570 0 50.0881 11.1803 560 115.148 44.7875 472.33
3571 0 51.0241 11.1908 571 107.093 44.648 470.69
3572 0 52.1821 11.2682 588 108.983 44.2126 467.862
3573 0 55.0463 11.3359 624 109.497 44.3221 468.742
3574 0 56.1694 11.8214 664 108.937 44.0964 467.813
3575 0 56.1677 11.1808 628 112.455 44.0717 467.231
3576 0 59.0502 11.16 659 113.091 44.7026 466.264
3577 0 58.0997 10.9983 639 113.87 44.4147 464.698
3578 0 61.089 11.8516 724 113.14 43.9157 462.732
3579 0 65.1741 12.1828 794 111.302 44.1411 464.359
3580 0 65.0519 12.4209 808 111.9 44.3911 460.075
3581 0 66.1847 12.1629 805 113.549 43.7553 459.694
3582 0 68.2725 11.6152 793 115.072 44.348 458.975
3583 0 73.1543 12.3984 907 112.86 43.7574 459.772
3584 0 73.1556 12.6306 924 113.794 44.4383 456.256
3585 0 74.0943 11.5259 854 116.734 44.2248 455.053
3586 0 80.1545 12.8751 1032 112.603 43.9506 455.548
3587 0 81.0831 12.6044 1022 114.475 44.1321 454.736
3588 0 84.0932 11.9272 1003 117.783 43.6012 452.108
3589 0 85.1548 12.8472 1094 118.58 43.9196 450.476
3590 0 86.2484 11.8147 1019 124.589 43.7301 450.762
3591 0 91.1917 12.2599 1118 126.304 43.6986 450.218
3592 1 50.1201 10.7542 539 121.588 43.9555 469.662
3593 0 51.1645 10.7692 551 124.688 44.4501 467.062
3594 0 51.1382 11.3418 580 121.819 43.2741 467.143
3595 0 54.0428 11.8055 638 122.26 42.9075 466.053
3596 0 55.058 10.6615 587 125.039 42.4923 465.986
3597 0 56.0462 12.5611 704 121.858 42.7869 462.977
3598 0 60.0586 12.3879 744 120.824 42.9651 464.755
3599 0 60.0261 12.5445 753 120.486 43.6202 465.506
3600 0 61.0481 12.4656 761 121.679 43.1472 463.444
3601 0 64.0724 12.4859 800 121.42 43.7512 461.025
3602 0 66.0606 12.2312 808 121.667 43.9913 462.432
3603 0 70.0175 13.5538 949 117.398 43.6723 460.258
3604 0 70.0276 12.7521 893 120.577 44.0694 460.221
3605 0 75.1041 13.4347 1009 118.065 43.9703 458.343
3606 0 74.0743 12.7575 945 122.11 43.728 457.624
3607 0 75.1231 11.8339 889 125.474 44.1035 455.238
3608 0 80.0463 12.168 974 122.914 43.8255 455.349
3609 0 84.1 13.4245 1129 120.557 44.4225 452.111
3610 0 86.1095 12.9719 1117 122.453 43.6097 452.302
3611 0 88.1826 12.8597 1134 123.046 43.4012 447.5
3612 0 94.0664 12.7569 1200 121.379 43.2775 448.331
3613 1 45.0717 9.65128 435 110.798 43.6115 469.172
3614 0 47.2487 10.1378 479 104.994 45.0459 473.493
3615 0 47.0704 10.8561 511 105.172 45.7084 471.153
3616 0 51.0251 14.3655 733 104.341 45.6357 475.224
3617 0 52.0416 13.0857 681 106.953 45.3465 475.082
3618 0 54.0462 12.5818 680 107.794 45.5868 473.812
3619 0 52.0705 12.099 630 111.202 46.0714 473.444
3620 0 57.1609 12.2811 702 107.848 46.4858 473.577
3621 0 59.0641 12.7827 755 105.697 46.3748 473.226
3622 0 62.0431 13.9419 865 102.806 45.8509 471.502
3623 0 63.0593 14.0027 883 103.322 46.5232 469.25
3624 0 65.0754 12.6622 824 106.351 46.9102 469.1
3625 0 67.0618 13.0626 876 106.185 46.2808 467.014
3626 0 72.074 14.0827 1015 102.898 46.1034 466.72
3627 0 73.0395 14.0746 1028 104.041 46.0807 466.215
3628 0 74.2585 13.0625 970 107.726 46.0144 464.551
3629 0 79.1415 14.3793 1138 103.132 46.0861 463.58
3630 0 79.2166 13.3432 1057 106.61 45.1845 461.993
3631 0 82.1133 14.2243 1168 104.637 45.488 461.297
3632 0 86.2191 14.15 1220 103.557 45.0262 461.18
3633 0 87.1323 13.3016 1159 106.794 45.1493 458.284
3634 0 91.1848 13.3904 1221 107.248 44.5684 460.29
3635 0 95.179 12.9545 1233 107.138 44.6496 460.357
3636 1 49.0455 12.519 614 105.884 43.9853 478.272
3637 0 52.0531 14.0241 730 101.648 44.0986 476.49
3638 0 54.0277 12.9563 700 104.077 43.5771 476.974
3639 0 53.0661 11.8531 629 108.593 43.124 476.401
3640 0 56.0569 12.2554 687 106.584 43.2562 476.971
3641 0 56.154 11.0054 618 110.23 43.4288 474.979
3642 0 60.0416 13.3741 803 105.156 43.9664 474.356
3643 0 62.0969 12.9636 805 105.384 43.6807 473.511
3644 0 63.0653 11.1472 703 111.339 43.2888 472.506
3645 0 65.0912 11.9525 778 111.393 42.9216 468.266
3646 0 68.0594 12.0924 823 110.954 43.1045 468.64
3647 0 71.0824 13.4492 956 108.119 43.3985 467.744
3648 0 73.1176 12.1858 891 111.701 43.4388 467.56
3649 0 74.1078 11.5777 858 116.372 43.1434 465.156
3650 0 78.1135 12.4562 973 113.782 43.6578 466.525
3651 0 82.0878 11.975 983 113.609 43.9512 462.79
3652 0 84.0703 12.442 1046 113.766 43.327 461.537
3653 1 46.0274 12.4708 574 112.645 42.4146 479.568
3654 0 48.084 12.4366 598 107.903 45.4415 478.515
3655 0 48.0869 12.0823 581 109.454 45.191 480.102
3656 0 50.092 13.2556 664 106.955 45.7018 478.161
3657 0 50.0751 12.0219 602 111.332 45.7442 478.397
3658 0 53.064 12.6263 670 110.625 45.3507 477.988
3659 0 54.1205 11.6037 628 111.764 45.4634 478.882
3660 0 55.2372 11.2786 623 115.467 45.2504 475.62
3661 0 56.072 11.8063 662 114.863 45.5982 476.275
3662 0 58.0506 12.1274 704 114.27 45.1634 475.347
3663 0 61.1187 12.533 766 112.389 44.7285 474.201
3664 0 61.0977 12.5373 766 113.581 44.7689 473.185
3665 0 63.0824 12.0319 759 115.501 45.1858 473.361
3666 0 67.154 12.0469 809 114.544 44.6601 471.9
3667 0 71.1257 12.4568 886 113.207 45.079 470.233
3668 0 73.0861 12.93 945 112.268 44.236 468.22
3669 0 73.125 12.5128 915 114.402 44.1847 466.683
3670 0 78.1317 12.9269 1010 112.454 44.7881 466.431
3671 0 79.0992 12.7814 1011 113.324 44.8012 465.451
3672 1 38.0153 10.338 393 116.361 45.855 482.919
3673 0 43.0677 11.6328 501 109.138 44.9581 482.928
3674 0 43.0388 11.478 494 111.449 45.0688 482.87
3675 0 45.0368 12.3454 556 108.878 45.3777 483.047
3676 0 46.0732 12.1546 560 110.439 44.5357 481.355
3677 0 49.0198 12.4032 608 109.719 43.9309 480.576
3678 0 50.066 13.0428 653 109.923 44.5253 478.086
3679 0 51.1538 12.8827 659 109.692 43.953 477.933
3680 0 51.0442 12.499 638 114.036 44.0298 476.124
3681 0 53.0827 11.9059 632 115.521 43.7927 477.47
3682 0 53.0628 11.2508 597 119.039 43.8258 475.276
3683 0 56.137 13.0395 732 115.07 43.4877 474.436
3684 0 56.0828 12.9273 725 117.499 43.7476 472.636
3685 0 58.1391 12.5905 732 118.549 43.5587 473.299
3686 0 60.1693 12.2488 737 119.612 43.9308 473.711
3687 0 63.1702 12.5217 791 119.819 44.1138 472.448
3688 0 63.0832 12.0793 762 122.08 44.5892 471.873
3689 0 67.0756 12.4934 838 120.844 43.5597 469.903
3690 0 70.1269 13.9034 975 117.479 44.0615 469.501
3691 0 72.0956 14.0785 1015 118.046 43.7793 467.319
3692 0 73.1727 14.213 1040 118.465 43.7125 467.231
3693 0 77.1117 14.278 1101 118.163 43.3642 467.538
3694 0 78.1806 13.6607 1068 122.374 43.6929 465.062
3695 0 81.0978 13.9585 1132 122.154 43.4117 463.098
3696 0 83.1466 14.8413 1234 120.411 43.3768 463.615
3697 0 85.0761 14.5869 1241 122.615 43.3836 461.108
3698 0 88.1514 14.6566 1292 122.065 43.1896 459.369
3699 0 92.2107 14.456 1333 123.235 42.9962 459.696
3700 0 92.0847 13.3464 1229 127.936 42.8308 457.443
3701 0 98.2518 14.9005 1464 122.406 42.6209 457.246
3702 0 100.173 14.2853 1431 124.647 42.2166 453.493
3703 1 55.1437 11.733 647 130.56 42.6631 475.734
3704 0 55.2502 11.8371 654 132.775 42.8792 474.031
3705 0 58.0255 14.0111 813 128.936 43.551 473.764
3706 0 61.1079 12.7152 777 131.465 43.4607 473.964
3707 0 60.0436 12.5076 751 135.937 43.763 473.253
3708 0 64.1099 13.1493 843 133.298 44.3155 470.866
3709 0 66.1005 12.9197 854 133.217 43.8571 471.364
3710 0 68.0502 12.5202 852 135.914 43.2559 469.015
3711 0 72.0816 13.124 946 132.367 43.6342 469.418
3712 0 74.0801 13.0534 967 133.366 43.8294 467.839
3713 0 74.0714 12.5554 930 136.403 43.2441 465.959
3714 0 80.0635 14.1013 1129 130.667 43.3685 464.602
3715 0 81.0827 12.9991 1054 134.871 42.8956 462.259
3716 0 85.1688 13.0095 1108 131.574 43.1643 462.895
3717 0 87.2617 13.0756 1141 134.179 42.8668 458.542
3718 1 48.0408 11.3029 543 132.225 43.2007 478.827
3719 0 50.087 11.3203 567 130.568 43.6014 479.136
3720 0 53.085 12.188 647 127.062 43.1437 477.131
3721 0 54.2538 11.8701 644 127.047 42.691 478.382
3722 0 53.1908 12.2766 653 128.688 42.4364 475.026
3723 0 57.1976 12.0285 688 126.372 42.6642 475.871
3724 0 55.2088 11.6286 642 129.621 42.7103 474.984
3725 0 61.2213 11.5646 708 128.258 42.5141 474.59
3726 0 60.2522 12.597 759 127.453 42.8142 473.449
3727 0 64.2617 13.6006 874 122.419 43.341 472.37
3728 0 63.237 11.9076 753 128.995 43.4236 471.372
3729 0 65.2056 12.729 830 125.987 43.1024 467.27
3730 0 69.2697 12.2853 851 125.671 43.1187 467.955
3731 0 72.2568 12.1788 880 124.749 42.0591 464.745
3732 0 75.1796 11.559 869 126.035 42.8009 464.834
3733 0 76.1596 12.29 936 123.926 42.9338 464.609
3734 0 80.2631 12.1849 978 123.021 43.4673 462.894
3735 1 43.0957 9.93139 428 114.731 44.7874 479.78
3736 0 45.154 11.7598 531 115.379 44.3484 477.814
3737 0 45.3792 11.8116 536 118.116 43.0821 475.246
3738 0 48.0896 11.4786 552 112.792 44.3134 475.913
3739 0 49.088 11.2044 550 118.207 44.2927 478.051
3740 0 48.1263 11.4075 549 117.656 44.3078 477.217
3741 0 51.3124 11.6151 596 116.998 44.4547 475.644
3742 0 52.052 11.2964 588 118.605 44.068 474.23
3743 0 53.188 10.6979 569 118.9 44.1037 474.018
3744 0 55.0839 11.8183 651 116.842 44.0399 472.759
3745 0 58.1623 11.9493 695 116.092 44.2388 472.299
3746 0 59.1019 12.5038 739 116.107 44.7916 470.878
3747 0 60.1141 12.3765 744 117.853 44.5847 469.589
3748 0 60.1095 11.529 693 120.746 43.7763 469.157
3749 0 62.2254 12.519 779 118.205 44.4698 469.059
3750 0 65.1552 12.1402 791 119.114 44.9166 468.087
3751 0 68.0898 11.3233 771 118.613 44.8599 469.974
3752 0 71.1363 13.0875 931 116.286 44.667 465.798
3753 0 73.1898 11.8732 869 119.708 44.9252 464.344
3754 0 75.278 12.487 940 120.793 44.5713 461.271
3755 0 78.1759 12.0881 945 122.244 44.8381 460.089
3756 0 81.1362 13.2493 1075 120.553 44.5674 460.439
3757 1 43.0234 11.2032 482 124.226 45.2905 478.405
3758 0 45.2769 11.4849 520 123.242 44.7327 476.406
3759 0 47.0454 12.2648 577 120.769 45.6534 477.402
3760 0 47.079 12.1498 572 124.247 45.4248 476.052
3761 0 49.0591 13.127 644 121.71 45.4953 475.947
3762 0 51.1002 13.542 692 120.299 46.2153 475.945
3763 0 51.1044 12.406 634 126.393 45.7177 474.377
3764 0 53.1717 11.7544 625 127.342 45.8944 476.077
3765 0 56.1034 12.7622 716 125.98 45.4888 473.281
3766 0 56.073 11.8595 665 130.701 45.6947 472.937
3767 0 58.202 12.6113 734 128.907 45.1431 471.368
3768 0 59.2006 12.1789 721 130.372 45.3773 472.409
3769 0 62.1144 12.2033 758 130.809 45.6121 470.73
3770 0 62.1261 12.0722 750 132.908 45.4653 471.293
3771 0 65.1361 13.7865 898 127.625 45.529 469.15
3772 0 67.0942 12.3409 828 130.065 45.529 470.36
3773 0 68.0884 12.7775 870 130.566 45.9 468.092
3774 0 72.1499 12.8344 926 129.514 45.4471 465.824
3775 0 75.251 13.0762 984 127.846 45.6606 465.067
3776 0 77.1526 13.8427 1068 126.405 45.4944 463.647
3777 0 78.2528 13.1113 1026 129.978 45.5 463.533
3778 0 80.0838 13.1238 1051 131.33 44.9277 461.838
3779 0 83.0497 13.8471 1150 129.295 45.1313 460.561
3780 0 87.0749 12.7476 1110 130.409 44.7901 461.259
3781 1 46.0706 12.1335 559 129.717 45.3095 479.123
3782 0 49.1542 13.3661 657 127.314 44.242 477.916
3783 0 52.1256 14.043 732 124.455 43.235 474.402
3784 0 50.2156 13.1234 659 130.2 43.3778 474.002
3785 0 52.1016 12.7251 663 133.546 43.5716 474.54
3786 0 54.1573 13.2577 718 132.556 43.5042 472.964
3787 0 55.1359 12.841 708 134.006 44.9054 475.021
3788 0 58.0497 13.5918 789 132.518 45.2636 473.452
3789 0 60.1625 13.7793 829 132.217 44.5187 473.189
3790 0 59.0857 13.3535 789 131.558 44.872 471.66
3791 0 63.0702 13.4453 848 130.771 44.8962 471.259
3792 0 66.1684 14.176 938 129.017 45.4041 469.383
3793 0 66.1656 13.0884 866 134.155 44.8915 468.921
3794 0 69.1812 13.4719 932 131.393 44.6642 468.428
3795 0 72.2019 14.2656 1030 128.646 45.1845 466.527
3796 0 75.2348 13.6506 1027 130.541 45.0974 466.073
3797 0 76.1774 13.1666 1003 133.844 44.8714 463.927
3798 0 78.112 13.9927 1093 131.78 44.4401 461.373
3799 0 80.0949 14.1207 1131 132.076 44.519 460.564
3800 0 82.1467 12.6725 1041 136.683 44.6571 459.476
3801 0 87.0684 14.368 1251 129.925 44.3373 459.489
3802 0 89.1212 14.5196 1294 132.27 44.4274 457.228
3803 0 91.1472 12.9241 1178 138.784 44.174 455.459
3804 0 96.1646 13.9032 1337 133.348 44.4936 455.636
3805 0 96.2521 13.849 1333 134.357 44.5649 452.054
3806 1 49.0955 10.0213 492 142.683 44.9715 477.451
3807 0 53.0893 12.0552 640 132.859 45.3734 475.977
3808 0 54.0144 12.7374 688 134.448 44.6235 473.438
3809 0 54.0442 11.7681 636 136.759 44.8648 475.264
3810 0 56.052 12.3992 695 136.196 44.7381 472.488
3811 0 57.0489 12.4805 712 136.386 44.9761 472.937
3812 0 60.0841 13.2315 795 134.182 44.3849 470.626
3813 0 60.1084 12.7104 764 135.572 44.3613 470.2
3814 0 63.0715 12.6682 799 135.782 44.9775 470.031
3815 0 64.2102 12.9263 830 136.847 45.1699 467.359
3816 0 68.1062 11.9519 814 139.485 45.7432 467.054
3817 0 72.1396 13.0996 945 134.759 44.6508 465.655
3818 0 72.1001 13.2732 957 137.211 44.4514 463.763
3819 0 75.1403 13.1088 985 139.402 44.1492 464.056
3820 0 77.0464 13.4075 1033 140.195 44.2004 459.75
3821 0 80.0808 13.5738 1087 139.215 44.437 461.509
3822 0 84.1336 13.3122 1120 139.728 44.5732 459.94
3823 0 85.0299 13.2071 1123 142.035 43.8094 458.198
3824 0 86.1447 13.2219 1139 143.14 44.3512 457.551
3825 0 90.0982 14.0402 1265 141.308 44.3447 456.153
3826 0 92.1309 14.0995 1299 142.069 44.1671 454.882
3827 0 95.109 13.3636 1271 143.087 44.0732 453.295
3828 0 97.0888 12.7306 1236 147.053 44.0858 452.973
3829 0 103.122 14.3228 1477 140.123 44.2018 449.757
3830 1 57.0878 12.6647 723 141.773 43.6404 471.047
3831 0 63.1241 11.7705 743 142.997 43.6864 469.787
3832 0 64.1034 11.7155 751 144.228 43.1984 469.221
3833 0 65.0948 13.2883 865 139.006 43.7838 466.482
3834 0 68.2337 12.9701 885 140.949 43.4678 465.305
3835 0 68.11 12.2302 833 144.289 43.2461 463.582
3836 0 72.1738 13.3428 963 139.216 43.0405 464.59
3837 0 74.2303 13.6871 1016 139.061 42.8858 464.01
3838 0 76.1548 12.9998 990 142.547 43.0919 461.843
3839 0 78.2092 13.5278 1058 140.986 43.8214 460.702
3840 0 80.2152 13.0524 1047 143.439 43.3324 460.774
3841 0 84.184 12.2707 1033 145.605 43.2953 457.543
3842 0 86.1431 13.9187 1199 139.57 43.5997 456.66
3843 0 88.1342 13.5816 1197 142.697 43.315 453.282
3844 0 89.1782 12.2676 1094 147.588 43.3949 451.958
3845 0 93.0821 12.7951 1191 144.65 43.8741 450.432
3846 0 97.1596 13.2668 1289 142.843 44.1854 448.544
3847 0 99.0755 13.626 1350 143.813 43.7363 441.904
3848 0 102.171 13.4676 1376 143.191 43.6323 441.435
3849 0 106.129 14.0113 1487 140.871 43.076 438.171
3850 0 111.192 13.4182 1492 140.255 43.0101 439.223
3851 1 60.0461 10.0756 605 139.273 42.5967 465.446
3852 0 66.1026 13.0252 861 138.38 43.0023 467.818
3853 0 67.1517 13.0153 874 137.831 44.5686 466.78
3854 0 70.11 13.379 938 137.991 42.7868 464.807
3855 0 71.2136 13.1155 934 138.984 43.1863 463.301
3856 0 74.2069 12.7212 944 139.832 42.5307 462.552
3857 0 77.1998 12.8239 990 139.13 43.0313 463.377
3858 0 79.1008 12.7559 1009 140.133 43.1744 462.232
3859 0 82.173 12.8753 1058 139.639 43.3516 459.541
3860 0 85.1183 13.7573 1171 137.034 42.9547 458.633
3861 0 88.2176 13.1606 1161 139.266 43.2084 456.426
3862 0 89.1104 14.3193 1276 136.79 43.3237 454.469
3863 0 94.2269 14.8896 1403 134.382 43.4448 452.619
3864 0 95.3117 13.2617 1264 140.161 43.5854 452.746
3865 0 96.329 13.4539 1296 141.09 43.4005 447.271
3866 0 101.247 13.6794 1385 138.277 43.5394 448.061
3867 0 104.125 13.6951 1426 134.27 42.3843 445.066
3868 0 107.108 13.3883 1434 133.618 42.7566 443.332
3869 1 55.2134 10.6315 587 132.4 44.1806 465.578
3870 0 57.2815 11.0856 635 129.754 43.6945 465.454
3871 0 58.1875 12.1848 709 134.33 43.9506 467.904
3872 0 61.1835 12.0294 736 134.792 44.6943 467.408
3873 0 64.2674 12.4636 801 134.197 44.3558 469.187
3874 0 68.1977 13.2116 901 130.502 43.9334 468.166
3875 0 69.376 13.9962 971 130.087 43.8126 465.841
3876 0 70.3289 13.0103 915 134.783 43.824 464.732
3877 0 74.2492 14.182 1053 131.243 44.169 463.955
3878 0 75.4193 13.4448 1014 134.389 44.0966 461.941
3879 0 76.3823 12.5422 958 139.544 44.0104 461.852
3880 0 79.4279 13.1566 1045 136.794 44.1971 461.44
3881 0 81.4685 13.5021 1100 137.453 43.4982 461.602
3882 0 84.3876 13.3076 1123 138.613 43.39 457.135
3883 0 88.4255 13.7291 1214 136.028 43.3418 457.371
3884 0 90.402 13.5616 1226 137.707 43.1313 456.134
3885 0 92.4901 13.8285 1279 137.504 43.3972 454.113
3886 0 96.6596 14.2252 1375 134.478 43.4305 453.852
3887 0 97.1761 12.5545 1220 140.03 45.1451 449.143
3888 0 101.178 13.8469 1401 135.1 44.1749 447.57
3889 0 101.118 12.8266 1297 135.714 43.9915 447.497
3890 0 105.143 12.9823 1365 130.275 43.7326 447.604
3891 0 108.248 12.2312 1324 132.781 43.5619 447.575
3892 1 62.1066 11.9633 743 133.616 43.6245 466.824
3893 0 64.168 12.2803 788 130.398 43.1624 466.428
3894 0 67.0328 12.919 866 128.558 44.1374 465.706
3895 0 68.1229 12.9032 879 128.342 43.3299 465.253
3896 0 71.043 12.8373 912 128.501 43.5219 464.269
3897 0 74.1283 13.2203 980 127.283 44.0388 461.663
3898 0 76.0982 12.773 972 128.177 44.1821 461.652
3899 0 77.0936 12.8026 987 127.668 43.3658 460.247
3900 0 80.0956 14.208 1138 121.582 43.3946 459.581
3901 0 84.2103 13.6207 1147 123.536 43.4664 459.497
3902 0 88.2138 13.694 1208 122.349 43.7583 457.086
3903 0 91.2196 13.2757 1211 123.41 43.4666 455.738
3904 0 92.0834 13.1946 1215 125.416 43.7506 454.947
3905 0 95.296 13.4843 1285 124.576 44.0887 453.089
3906 0 99.1496 14.4428 1432 121.631 43.8966 451.129
3907 0 99.327 12.6552 1257 128.398 43.2737 448.848
3908 0 106.469 15.2157 1620 119.556 43.9512 447.838
3909 0 108.27 14.9349 1617 121.032 43.8033 447.105
3910 0 111.34 14.4332 1607 123.622 43.3323 445.004
3911 0 116.444 15.4324 1797 121.558 43.6361 442.484
3912 1 62.2223 12.0375 749 128.144 43.1068 468.152
3913 0 65.3717 12.7578 834 128.677 43.1978 470.549
3914 0 67.3052 12.9856 874 127.939 43.4142 469.334
3915 0 66.2002 12.8549 851 122.683 42.6193 471.365
3916 0 68.1123 12.3326 840 123.833 42.8167 470.314
3917 0 72.1918 12.9655 936 122.591 41.8237 466.858
3918 0 75.1005 13.0625 981 121.333 42.0326 467.235
3919 0 76.0787 13.5386 1030 123.029 42.0883 465.196
3920 0 79.1986 12.7401 1009 125.662 42 465.911
3921 0 83.3468 13.2459 1104 126.007 42.1639 462.312
3922 0 84.1405 12.9783 1092 127.513 42.2738 462.191
3923 0 87.2255 12.9091 1126 127.737 42.3393 460.728
3924 0 90.2074 12.9036 1164 126.766 41.9691 460.174
3925 0 94.2727 13.4928 1272 125.317 42.0071 459.667
3926 0 97.3096 13.5033 1314 127.03 42.1826 456.678
3927 0 101.46 12.7637 1295 129.28 41.8718 454.838
3928 0 103.327 12.9686 1340 129.216 41.3866 453.416
3929 1 54.1557 11.0976 601 125.396 41.5907 477.927
3930 0 56.0774 11.8408 664 122.651 42.5422 477.527
3931 0 60.0959 12.297 739 123.07 43.3613 474.035
3932 0 60.1969 12.891 776 120.753 41.5348 474.134
3933 0 64.1872 13.6943 879 118.166 41.3231 472.063
3934 0 65.1733 12.9347 843 121.225 41.8043 470.571
3935 0 68.2224 11.9169 813 124.376 41.2546 469.202
3936 0 70.2152 12.5471 881 122.38 42.1521 469.691
3937 0 73.3089 12.8497 942 121.752 41.7941 468.764
3938 0 74.1851 12.334 915 125.506 41.8798 466.331
3939 0 75.2307 11.6841 879 130.084 41.3129 463.827
3940 0 79.2214 12.4083 983 128.17 42.0234 464.368
3941 0 80.2562 12.5598 1008 128.68 41.6865 461.386
3942 0 85.174 12.586 1072 127.139 41.9459 462.854
3943 0 88.2059 12.5955 1111 126.636 41.8974 462.217
3944 0 94.3055 13.2018 1245 125.284 41.8514 459.688
3945 0 93.1686 13.0838 1219 128.251 42.1214 457.76
