time division length width area intensity CMx CMy
0 0 37.0201 12.2636 454 160.852 285.031 471.947
1 0 38.051 12.9826 494 150.227 284.534 472.156
2 0 39.0702 12.5415 490 153.241 284.412 471.831
3 0 39.0622 13.1073 512 151.57 284.486 471.627
4 0 43.0627 13.4455 579 146.813 284.779 470.66
5 0 42.0591 13.8614 583 150.609 284.909 470.021
6 0 42.0132 13.1863 554 152.023 285.014 470.569
7 0 43.0279 12.6894 546 154.954 284.174 470.588
8 0 43.0131 12.7171 547 155.77 283.799 470.861
9 0 45.0709 13.4233 605 153.722 283.549 468.815
10 0 47.0635 13.5349 637 153.991 283.33 469.438
11 0 46.1805 12.018 555 160.955 283.295 469.953
12 0 50.064 13.5626 679 152.751 282.739 468.3
13 0 52.198 14.5983 762 149.533 283.064 467.999
14 0 53.0244 14.3896 763 150.153 282.651 468.185
15 0 53.2247 14.3542 764 152.419 282.414 467.471
16 0 54.1128 14.1926 768 152.708 282.941 468.01
17 0 57.1187 14.3035 817 150.834 283.066 467.674
18 0 57.0656 14.4746 826 151.582 282.741 465.877
19 0 61.1334 13.9531 853 150.919 282.478 464.34
20 0 63.0765 14.6489 924 153.01 281.611 463.983
21 0 64.1231 15.096 968 150.667 282.008 465.207
22 0 65.238 13.4737 879 151.423 281.695 463.994
23 0 67.064 14.0463 942 148.492 281.74 462.229
24 0 71.0364 13.5705 964 144.598 281.019 461.253
25 0 74.0705 14.2702 1057 145.082 281.528 460.393
26 0 75.0348 13.5271 1015 148.066 281.422 459.015
27 0 79.035 13.8546 1095 144.965 281.386 458.167
28 1 38.0561 11.2465 428 145.446 282.152 478.168
29 0 39.0312 12.4516 486 142.265 281.788 477.545
30 0 39.0407 12.0643 471 143.919 282.034 477.191
31 0 41.1054 13.1856 542 139.788 280.631 476.897
32 0 45.1228 13.7181 619 136.178 280.637 475.105
33 0 45.0181 13.1947 594 141.998 281.239 474.828
34 0 47.0109 13.9117 654 139.242 282.217 474.408
35 0 48.055 14.1504 680 137.874 281.915 473.938
36 0 49.0239 14.1768 695 138.377 282.125 474.039
37 0 52.1171 13.8534 722 137.021 281.319 473.33
38 0 53.0405 14.3098 759 135.567 281.096 472.762
39 0 53.1414 13.4359 714 138.225 280.605 472.992
40 0 56.0827 14.0863 790 135.144 281.365 470.614
41 0 56.0376 14.6509 821 133.63 281.459 470.28
42 0 60.1066 14.0251 843 133.122 281.222 469.333
43 0 61.0476 14.1201 862 132.436 280.987 467.435
44 0 64.0443 14.49 928 129.442 280.486 467.564
45 0 64.1284 13.7381 881 131.755 280.073 466.187
46 0 67.0489 13.5573 909 131.776 280.194 465.161
47 0 70.0392 14.4919 1015 128.588 280.379 463.532
48 0 73.0762 14.2317 1040 128.25 280.158 462.566
49 0 75.022 14.3025 1073 127.754 279.811 461.585
50 0 77.066 13.5598 1045 128.158 279.405 459.361
51 0 81.0769 13.5797 1101 124.995 279.33 458.891
52 0 84.1362 13.5019 1136 125.667 279.435 456.2
53 0 87.0463 14.4061 1254 122.36 279.533 453.977
54 1 44.074 12.8874 568 118.354 279.715 475.685
55 0 45.0279 11.1709 503 129.093 279.829 473.825
56 0 50.0157 13.7157 686 120.535 279.933 475.031
57 0 51.0307 12.3063 628 120.705 279.519 475.468
58 0 50.0884 13.1368 658 120.43 279.612 474.419
59 0 53.0588 11.8736 630 122.816 279.768 474.406
60 0 55.0407 12.7542 702 120.147 279.496 472.434
61 0 58.0185 13.4095 778 119.129 278.829 471.699
62 0 59.042 13.1432 776 120.079 278.456 472.602
63 0 61.0432 13.728 838 119.584 279.037 471.375
64 0 63.1381 13.5417 855 119.871 278.283 468.524
65 0 66.0414 13.9004 918 117.902 278.892 468.937
66 0 66.1277 13.232 875 122.186 279.381 466.107
67 0 72.0764 14.9425 1077 116.448 278.655 465.579
68 0 74.1571 14.0782 1044 119.22 279.228 464.313
69 0 76.1202 13.8465 1054 119.613 278.944 462.26
70 0 77.0715 12.5857 970 124.11 279.03 459.592
71 0 81.104 12.7367 1033 122.134 278.854 460.475
72 0 85.1139 13.2998 1132 120.903 278.791 459.322
73 0 90.1461 14.532 1310 117.899 279.308 456.652
74 0 91.108 13.1163 1195 122.723 279.068 456.694
75 0 95.0786 12.4739 1186 124.742 279.094 455.315
76 0 98.1078 13.2202 1297 125.325 279.072 452.969
77 1 48.1848 10.1692 490 118.233 279.5 473.996
78 0 50.021 11.6551 583 114.746 278.786 473.123
79 0 52.0446 11.5862 603 117.371 279.204 475.242
80 0 53.1218 11.5395 613 117.062 278.962 474.886
81 0 56.0591 12.2192 685 113.755 279.105 475.031
82 0 59.0768 12.2891 726 113.139 278.755 472.895
83 0 60.1135 12.5429 754 112.732 279.16 472.326
84 0 63.0582 12.9087 814 111.86 279.758 471.297
85 0 62.0704 11.7931 732 115.467 279.339 469.451
86 0 66.1489 12.2149 808 112.874 278.567 469.75
87 0 72.1655 13.7323 991 109.1 278.373 467.96
88 0 72.1787 12.2335 883 114.359 278.161 464.959
89 0 76.2742 13.517 1031 110.597 278.285 464.945
90 0 78.079 14.1395 1104 109.524 277.975 465.718
91 0 80.1918 13.4178 1076 114.332 278.209 462.204
92 0 83.0847 13.6247 1132 114.223 278.33 460.307
93 1 44.1017 11.5869 511 114.918 279.02 482.965
94 0 45.1261 12.1216 547 116.179 278.927 479.658
95 0 47.0507 13.0498 614 112.228 278.889 479.906
96 0 49.0495 11.4374 561 114.734 278.228 479.291
97 0 50.0611 12.6046 631 111.616 278.829 478.651
98 0 51.1068 11.0748 566 116.58 279.009 477.523
99 0 53.103 11.7884 626 114.321 278.824 476.669
100 0 55.1015 12.232 674 113.362 278.366 475.688
101 0 56.1724 11.1087 624 115.869 278.476 475.532
102 0 60.1295 12.9387 778 109.735 278.566 474.891
103 0 62.053 11.3774 706 113.555 278.076 473.533
104 0 64.0807 12.4531 798 111.414 278.312 470.598
105 0 68.0521 12.1231 825 111.548 278.924 470.503
106 0 68.0601 12.342 840 111.056 278.273 469.123
107 0 73.0947 12.1213 886 109.745 278.255 468.921
108 0 74.1049 11.4028 845 112.412 277.768 467.911
109 0 77.137 12.1213 935 110.595 278.113 464.847
110 0 79.1732 12.1632 963 110.215 277.821 462.021
111 0 83.0464 12.5111 1039 108.901 277.455 462.797
112 0 85.1377 12.2625 1044 109.631 277.534 457.752
113 0 88.1472 11.2426 991 111.083 277.802 459.9
114 0 92.0831 11.8371 1090 110.601 278.015 456.497
115 1 47.0459 10.5216 495 111.174 278.935 478.204
116 0 50.0243 12.5539 628 107.244 278.355 476.869
117 0 52.0555 10.8538 565 111.669 278.274 476.019
118 0 50.0191 11.4756 574 111.091 278.467 476.188
119 0 52.1185 10.9366 570 111.672 278.307 475.7
120 0 54.0572 11.7838 637 111.044 278.033 474.229
121 0 57.093 13.3291 761 106.336 277.901 472.888
122 0 59.1383 13.5614 802 105.551 278.279 473.162
123 0 60.1063 12.4613 749 109.525 278.256 470.713
124 0 64.055 13.4572 862 106.253 278.948 468.717
125 0 63.1203 12.1514 767 110.051 278.033 469.166
126 0 67.1172 12.6644 850 108.002 277.966 468.672
127 0 70.0617 13.274 930 106.99 277.927 466.698
128 0 71.0831 12.816 911 109.101 278.868 465.401
129 0 74.1035 13.0493 967 108.562 278.642 463.93
130 0 77.2218 13.39 1034 107.972 278.78 462.063
131 0 79.1837 12.3763 980 111.339 279.217 462.661
132 0 79.131 12.3719 979 113.158 279.383 462.101
133 0 84.1797 12.1763 1025 111.862 278.442 458.419
134 0 87.1614 12.5514 1094 109.94 279.033 459.702
135 0 91.2676 12.8304 1171 110.213 278.756 456.252
136 0 91.1459 10.9056 994 114.87 278.939 457.74
137 0 96.1303 12.1918 1172 112.984 278.408 451.022
138 0 103.186 13.1995 1362 113.144 278.832 451.222
139 0 107.148 13.934 1493 112.987 278.808 449.408
140 0 110.121 13.3126 1466 113.932 279.164 447.192
141 0 114.222 12.6508 1445 115.373 278.752 446.905
142 1 57.1219 12.0444 688 111.673 279.212 473.289
143 0 58.0775 11.2436 653 108.925 279.006 472.718
144 0 62.145 13.2754 825 104.719 278.396 468.893
145 0 62.0438 12.8941 800 106.556 277.719 471.442
146 0 64.1167 12.025 771 109.271 276.958 470.853
147 0 69.152 12.3785 856 108.418 277.074 469.86
148 0 70.1346 11.9627 839 110.948 277.647 468.033
149 0 70.133 11.9487 838 113.002 277.387 466.103
150 0 74.137 12.9085 957 111.209 277.619 464.061
151 0 77.1433 12.937 998 111.106 277.267 463.448
152 0 80.1436 13.0391 1045 111.796 277.207 463.099
153 0 85.1625 13.0339 1110 110.6 277.577 462.032
154 0 86.1026 12.9613 1116 113.339 277.984 459.124
155 0 90.1179 13.2382 1193 111.702 277.142 458.521
156 0 93.1432 13.6457 1271 111.686 277.598 456.822
157 0 95.1523 13.2314 1259 115.801 277.307 453.836
158 0 98.1727 12.753 1252 118.188 277.146 454.954
159 0 101.11 12.6793 1282 120.474 276.793 451.256
160 0 105.095 12.855 1351 118.555 277.045 449.137
161 1 56.0517 10.6687 598 121.241 276.754 473.87
162 0 58.067 11.9173 692 119.671 276.686 473.478
163 0 62.1149 13.8453 860 114.653 276.073 471.162
164 0 62.0475 13.1996 819 117.977 276.227 470.077
165 0 63.0826 13.3793 844 117.956 276.611 468.943
166 0 66.1207 12.7494 843 118.314 276.617 468.046
167 0 69.0435 13.0497 901 117.396 277.431 467.898
168 0 70.0976 13.6096 954 116.604 276.982 465.779
169 0 72.0953 13.5792 979 116.808 277.492 465.106
170 0 72.1717 11.8329 854 116.747 278.436 463.631
171 0 76.0983 12.2867 935 114.395 277.894 462.928
172 0 80.1237 13.5291 1084 111.315 277.656 459.884
173 0 81.2339 11.6823 949 115.574 277.59 460.54
174 0 88.191 12.609 1112 112.326 277.664 459.233
175 0 88.3637 11.7695 1040 114.166 277.572 459.234
176 0 92.2389 10.8089 997 118.77 277.009 455.98
177 0 96.1777 13.5686 1305 111.003 277.002 455.288
178 1 47.0817 10.4711 493 111.318 277.452 476.943
179 0 50.2109 10.8144 543 112.867 276.077 472.206
180 0 52.0512 11.1813 582 108.409 278.082 476.254
181 0 53.0197 11.8824 630 107.279 279.498 475.521
182 0 55.0399 12.3547 680 106.524 278.26 473.738
183 0 56.1285 11.3311 636 108.898 278.524 473.464
184 0 58.1051 11.135 647 109.747 278.141 472.082
185 0 59.1458 13.0863 774 106.578 278.726 469.169
186 0 62.174 12.8349 798 106.773 278.684 469.883
187 0 65.1629 11.6631 760 109.937 278.691 468.097
188 0 67.0705 12.2856 824 110.13 278.641 469.257
189 0 69.1274 12.4408 860 112.176 278.951 465.743
190 0 71.1161 11.8398 842 111.697 278.133 466.248
191 0 73.1354 12.4974 914 112.851 278.31 463.438
192 0 75.1364 11.8318 889 113.152 278.215 463.983
193 0 80.1488 12.639 1013 111.028 278.38 462.631
194 0 80.3149 11.5545 928 114.895 278.278 461.609
195 0 83.1557 12.4345 1034 113.016 278.07 460.495
196 1 43.0739 12.1884 525 108.084 277.549 477.314
197 0 46.2103 12.9625 599 106.189 277.594 474.167
198 0 50.3025 11.9676 602 104.724 277.412 475.628
199 0 49.0497 12.049 591 106.714 277.604 477.09
200 0 50.0248 12.5738 629 105.728 277.315 477.221
201 0 50.0782 11.4421 573 109.255 277.508 476.206
202 0 52.03 11.3973 593 110.374 277.492 474.759
203 0 54.0937 12.0716 653 107.997 277.243 474.429
204 0 55.0508 12.6974 699 107.569 277.777 472.774
205 0 58.0389 12.7501 740 106.751 277.372 473.028
206 0 58.0312 12.0625 700 109.504 277.339 471.47
207 0 61.0761 12.8692 786 106.071 277.335 471.003
208 0 63.0248 12.3285 777 107.08 277.4 468.514
209 0 66.0213 12.8595 849 105.304 277.55 469.251
210 0 67.0496 13.05 875 105.802 277.391 467.198
211 0 68.0652 12.3852 843 107.428 276.969 466.469
212 0 71.0634 11.6938 831 109.779 277.128 464.686
213 0 74.0556 13.0848 969 108.733 276.687 463.71
214 0 76.0548 12.3201 937 109.47 276.941 462.255
215 0 78.0761 11.1686 872 112.641 276.658 461.709
216 0 82.1971 13.1027 1077 107.96 277.757 460.416
217 0 84.0955 10.8805 915 112.988 277.203 459.623
218 1 41.0716 9.76343 401 109.471 277.995 478.805
219 0 45.0925 11.0661 499 107.487 277.313 477.639
220 0 47.1437 11.3271 534 105.856 277.942 477.169
221 0 50.0304 13.7716 689 101.174 277.965 477.234
222 0 48.1824 12.7432 614 113.72 277.199 474.243
223 0 49.023 12.1575 596 106.607 277.07 475.307
224 0 52.078 12.3277 642 105.508 278.051 474.899
225 0 53.1342 11.7438 624 108.258 277.904 473.579
226 0 55.0276 12.1757 670 106.422 277.954 471.881
227 0 57.0219 12.5741 717 106.438 277.669 471.435
228 0 59.0439 13.0073 768 105.299 277.572 471.223
229 0 60.0957 13.179 792 106.515 277.804 467.492
230 0 64.0807 14.4193 924 102.705 277.617 468.824
231 0 64.0327 13.009 833 107.845 277.523 467.292
232 0 68.099 12.335 840 108.961 277.401 465.294
233 0 69.0586 13.3944 925 108.932 277.799 463.308
234 0 72.0347 13.7295 989 108.01 278.053 463.811
235 0 74.1208 13.0328 966 113.396 277.204 462.777
236 0 76.1252 12.0328 916 115.809 277.49 462.347
237 0 80.135 13.34 1069 110.935 277.48 459.286
238 0 81.095 12.9971 1054 115.201 276.962 457.364
239 0 85.1092 12.6073 1073 115.819 276.987 457.444
240 0 88.0683 13.8642 1221 113.927 276.747 455.152
241 0 90.1261 12.6933 1144 118.128 276.429 453.979
242 0 96.0961 14.2566 1370 113.627 277.06 451.836
243 0 99.1024 14.9946 1486 111.489 277.169 450.791
244 1 51.0603 11.1829 571 109.769 277.189 475.27
245 0 52.1088 11.2649 587 109.603 277.455 473.772
246 0 54.0525 11.8218 639 113.806 276.574 472.923
247 0 54.1024 11.0901 600 108.343 278.015 473.25
248 0 55.0982 9.74623 537 111.156 278.605 473.732
249 0 57.0516 11.9366 681 106.84 278.69 473.523
250 0 59.0427 12.9906 767 106.823 279.288 470.258
251 0 60.0958 11.2321 675 111.391 278.606 470.575
252 0 62.0769 11.2763 700 111.171 278.019 468.623
253 0 65.1316 11.9143 776 109.095 277.771 468.448
254 0 67.0993 11.6544 782 110.219 278.368 467.903
255 0 71.1592 11.6359 828 110.523 278.229 466.1
256 0 72.0971 12.0393 868 110.53 278.316 463.876
257 0 76.0827 12.8676 979 108.953 278.255 462.234
258 0 78.1868 12.1632 951 109.717 278.436 462.072
259 0 80.1319 11.3064 906 112.656 278.254 458.56
260 0 84.1024 12.1043 1018 110.324 278.25 458.315
261 1 45.0544 10.0545 453 105.523 278.517 481.4
262 0 46.1492 10.7911 498 107.365 277.114 476.311
263 0 46.0872 11.4565 528 106.513 277.413 477.108
264 0 48.0647 10.9644 527 107.046 277.201 476.622
265 0 48.052 10.0932 485 110.423 277.746 476.402
266 0 51.1055 10.9382 559 106.369 278.324 476.984
267 0 50.0619 9.32846 467 109.94 278.336 477.445
268 0 54.0354 10.3081 557 108.253 278.777 473.743
269 0 54.0364 9.95625 538 107.801 278.072 475.032
270 0 55.0884 9.85688 543 109.123 277.711 472.792
271 0 59.0981 12.1662 719 103.618 277.846 471.783
272 0 60.0793 11.2518 676 105.984 277.666 470.306
273 0 62.0528 9.79811 608 108.946 277.049 468.817
274 0 63.0989 11.1254 702 106.484 277.333 467.068
275 0 65.1067 10.3215 672 107.003 277.385 468.735
276 0 69.1301 10.5598 730 106.26 277.342 467.227
277 0 70.0353 12.1367 850 105.194 277.116 463.64
278 0 74.0542 10.9244 809 105.201 277.204 466.685
279 0 77.0655 11.1464 859 106.154 277.607 460.639
280 0 81.0703 11.7059 949 103.495 277.68 461.469
281 0 83.1388 11.6672 970 104.401 277.909 458.863
282 1 44.0427 10.7169 472 103.383 277.536 478.644
283 0 46.0275 12.4274 572 99.486 278.101 477.322
284 0 48.0629 12.4212 597 100.136 278.645 477.851
285 0 47.053 11.9652 563 101.49 277.879 475.281
286 0 50.1263 12.1094 607 99.7529 278.465 476.975
287 0 52.1278 12.0473 628 98.9968 277.916 474.866
288 0 53.1181 11.5403 613 99.6705 278.454 473.928
289 0 55.107 12.3941 683 97.8653 278.426 472.367
290 0 56.1567 12.1624 683 98.6281 278.338 472.94
291 0 56.0538 11.596 650 100.717 278.342 472.34
292 0 58.0611 12.7624 741 98.135 277.87 470.713
293 0 60.0959 12.946 778 98.1401 277.923 471.308
294 0 62.057 13.1009 813 97.8684 277.808 469.038
295 0 65.138 13.0032 847 97.6139 277.774 467.057
296 0 64.1492 12.2371 785 100.657 278.12 467.662
297 0 69.07 12.9868 897 98.3802 277.676 466.514
298 0 70.2979 14.4243 1014 71.9142 278.169 466.324
299 0 74.1783 13.0766 970 101.991 277.788 464.607
300 0 77.1505 13.9857 1079 105.456 278.45 462.022
301 0 79.148 13.0389 1032 108.389 278.477 461.741
302 0 79.1719 13.6159 1078 110.126 278.124 458.19
303 0 84.1097 14.4217 1213 107.833 277.698 456.678
304 0 85.329 13.3483 1139 111.369 277.78 456.44
305 0 89.1096 13.7808 1228 109.528 277.823 456.535
306 0 92.1921 12.615 1163 114.034 277.956 454.071
307 0 96.2574 13.4223 1292 112.786 277.209 452.041
308 0 99.3492 15.0379 1494 109.014 277.12 450.378
309 0 101.187 14.6857 1486 111.744 277.507 449.016
310 0 105.196 15.0196 1580 110.865 276.657 447.131
311 0 107.08 13.6533 1462 114.024 276.495 445.876
312 0 109.155 14.0718 1536 113.723 276.347 446.009
313 0 116.255 15.0703 1752 112.505 276.776 442.671
314 0 117.142 14.1197 1654 117.976 276.378 441.318
315 0 121.353 13.9758 1696 119.033 276.447 440.298
316 0 126.2 15.4199 1946 112.853 275.016 438.971
317 0 132.093 14.0886 1861 117.448 275.751 434.199
318 0 135.141 13.8004 1865 118.453 275.711 431.836
319 0 140.177 12.4556 1746 119.817 275.993 432.569
320 1 75.1689 12.8245 964 113.059 275.779 461.919
321 0 76.2476 13.9021 1060 113.548 276.511 457.747
322 0 79.1412 13.6844 1083 112.645 276.808 458.94
323 0 83.114 13.9928 1163 113.163 277.545 458.322
324 0 85.1641 13.0337 1110 115.172 277.268 459.704
325 0 90.1097 13.2172 1191 114.741 277.516 455.898
326 0 94.2615 14.5659 1373 115.782 277.512 454.878
327 0 94.2102 12.5783 1185 120.601 277.696 453.596
328 0 100.198 13.1739 1320 118.117 277.207 452.102
329 0 103.196 13.4985 1393 116.922 277.862 450.689
330 0 108.216 13.0849 1416 117.829 277.194 448.348
331 1 57.1124 12.5017 714 112.298 278.105 471.228
332 0 59.1912 11.8768 703 107.132 277.858 471.698
333 0 60.1236 11.9753 720 108.431 277.517 471.478
334 0 61.1889 11.8486 725 108.292 278.356 470.979
335 0 63.0581 11.9096 751 106.973 278.313 471.015
336 0 62.1321 11.1698 694 109.725 278.265 469.058
337 0 67.0633 11.7501 788 108.402 278.508 467.256
338 0 69.0827 12.1593 840 107.806 278.58 465.029
339 0 71.1275 12.1191 862 107.356 278.635 466.026
340 0 74.0975 12.0112 890 107.921 278.182 465.349
341 0 79.1169 11.8432 937 109.264 278.038 462.693
342 0 82.1989 11.971 984 109.369 278.345 461.389
343 0 83.2027 12.127 1009 109.142 279.016 461.087
344 0 87.0984 12.1013 1054 110.396 278.679 457.939
345 1 44.0466 10.3981 458 110.67 279.906 478.675
346 0 47.0396 12.5001 588 108.534 279.522 478.633
347 0 50.0663 11.9841 600 111.57 279.208 477.4
348 0 49.0291 11.483 563 115.124 279.334 476.94
349 0 50.0844 11.1811 560 116.314 279.923 475.466
350 0 53.0685 12.6063 669 113.178 279.987 472.806
351 0 55.0512 13.1514 724 111.814 279.149 472.827
352 0 55.0157 12.8327 706 112.632 279.007 473.612
353 0 57.0444 12.1835 695 114.086 279.325 472.899
354 0 56.0925 12.622 708 114.583 279.23 471.996
355 0 59.044 12.6177 745 113.689 279.533 470.282
356 0 58.046 11.9733 695 115.947 278.75 468.961
357 0 63.038 13.2618 836 111.383 278.904 468.27
358 0 64.0598 13.503 865 111.024 279.503 466.354
359 0 65.0679 13.8317 900 109.678 280 467.368
360 0 68.0565 13.3565 909 104.784 279.365 469.403
361 0 70.0624 11.0901 777 108.753 278.094 468.934
362 0 71.1427 11.1607 794 109.244 278.581 467.873
363 0 74.0917 11.4318 847 108.034 279.015 466.29
364 0 77.0885 12.4662 961 106.983 278.475 463.471
365 0 80.0809 10.8765 871 109.181 278.098 464.47
366 1 39.0627 10.9311 427 111.693 279.429 480.141
367 0 42.1798 11.5695 488 108.742 279.432 479.9
368 0 45.1408 12.5164 565 103.988 278.581 478.094
369 0 45.0447 13.3867 603 99.6965 279.741 480.338
370 0 47.0448 12.7325 599 100.925 280.078 478.841
371 0 48.0175 12.2247 587 102.825 280.474 477.358
372 0 50.0425 11.2504 563 103.901 279.98 478.472
373 0 50.1243 12.1299 608 103.012 280.044 477.337
374 0 52.0261 12.8205 667 101.681 279.829 474.43
375 0 55.0894 12.7429 702 101.01 280.238 474.611
376 0 56.0552 13.2013 740 100.496 280.305 473.738
377 0 54.0941 12.1085 655 104.722 279.794 473.566
378 0 57.041 12.0264 686 103.487 279.362 473.42
379 0 60.1385 12.1553 731 103.022 280.293 473.372
380 0 62.0439 12.5073 776 102.983 279.746 470.548
381 0 66.0958 14.1764 937 98.4642 279.83 469.98
382 0 68.0689 13.9565 950 99.5105 279.847 469.916
383 0 71.0382 13.176 936 102.028 279.996 467.511
384 0 68.1028 11.7029 797 108.588 278.976 467.507
385 0 73.1538 13.4648 985 104.154 278.826 466.197
386 0 76.1171 12.2443 932 107.943 278.722 462.565
387 0 78.095 12.6257 986 107.758 279.062 464.765
388 0 80.1129 12.7196 1019 109.872 278.899 462.302
389 0 83.186 12.995 1081 110.764 278.301 460.717
390 0 87.2166 11.8555 1034 112.956 278.584 461.611
391 1 46.1406 10.9448 505 111.147 279.17 480.527
392 0 46.086 10.22 471 112.571 279.293 479.497
393 0 48.0327 10.5345 506 115.381 279.804 478.176
394 0 50.0184 11.3758 569 113.555 279.065 477.612
395 0 51.0964 11.0575 565 115.828 279.106 475.216
396 0 54.049 12.5812 680 111.315 279.454 475.916
397 0 53.0128 12.3555 655 113.705 279.858 475.278
398 0 55.0189 11.5597 636 116.656 279.822 472.833
399 0 58.0326 12.2517 711 113.956 279.584 473.214
400 0 58.0556 12.5225 727 113.993 279.554 471.422
401 0 62.1556 13.3214 828 111.668 279.384 470.413
402 0 63.0185 12.2186 770 114.477 279.608 470.203
403 0 64.0572 12.8167 821 113.722 279.233 468.389
404 0 67.0892 12.9678 870 112.717 278.918 468.655
405 0 71.04 12.6971 902 112.475 279.11 467.449
406 0 72.1061 13.1196 946 111.665 278.957 466.14
407 0 74.0643 13.2452 981 112.533 279.491 464.073
408 0 78.106 13.5969 1062 111.281 279.69 463.502
409 0 82.1235 14.0642 1155 109.466 278.945 461.4
410 0 83.1328 12.6424 1051 113.771 279.219 461.456
411 1 43.0508 11.3819 490 107.853 279.463 481.602
412 0 46.0121 12.1707 560 104.304 279.395 481.316
413 0 45.0467 11.1662 503 107.03 279.193 480.316
414 0 46.1089 11.6247 536 104.45 278.668 479.263
415 0 47.1428 12.897 608 102.839 278.891 478.507
416 0 51.0553 12.8684 657 101.387 278.921 478.772
417 0 52.0615 12.8502 669 101.972 279.45 478.112
418 0 52.1264 12.0093 626 105.272 278.874 476.665
419 0 54.0656 14.0755 761 99.8804 279.498 476.899
420 0 56.0589 13.6999 768 100.767 279.548 476.607
421 0 55.0986 13.4668 742 103.597 279.321 474.263
422 0 59.0438 12.5161 739 104.068 279.372 474.123
423 0 59.0436 12.4484 735 105.03 279.891 474.318
424 0 62.13 12.9567 805 103.615 278.846 471.441
425 0 63.1494 12.3992 783 104.844 278.447 471.178
426 0 65.1015 13.6863 891 102.348 279.031 470.04
427 0 67.1023 12.8759 864 103.771 279.074 469.317
428 0 70.1042 13.5085 947 102.289 278.728 467.835
429 0 73.0985 13.0098 951 103.107 278.348 466.998
430 0 73.1434 12.6737 927 105.89 278.739 465.712
431 0 76.1289 12.2555 933 105.846 279.288 466.403
432 0 78.0806 13.4989 1054 104.236 278.775 462.992
433 0 82.1523 13.1341 1079 104.371 278.686 462.068
434 0 84.114 13.5174 1137 103.325 278.504 461.22
435 0 88.1318 13.6614 1204 103.458 278.742 459.453
436 0 88.1058 13.2908 1171 104.81 278.863 460.18
437 0 93.079 13.3435 1242 104.091 278.39 454.838
438 0 96.0821 14.4668 1390 103.491 277.9 457.304
439 0 98.1608 12.6935 1246 115.283 278.06 453.096
440 0 104.116 13.1776 1372 110.477 278.316 449.526
441 1 56.0475 11.7222 657 105.37 278.454 474.312
442 0 59.1512 12.5779 744 106.637 277.784 474.368
443 0 60.0481 11.0245 662 107.622 278.985 473.947
444 0 61.0751 10.79 659 108.954 278.863 470.988
445 0 64.0501 11.7408 752 106.174 279.077 470.399
446 0 65.1436 11.2981 736 105.537 279.535 472.465
447 0 67.0655 11.1235 746 106.161 278.827 469.594
448 0 72.1108 12.2173 881 104.785 279.183 467.543
449 0 72.0591 12.9338 932 103.861 278.696 465.82
450 0 76.1713 12.0649 919 107.375 278.668 464.124
451 0 78.1293 13.1705 1029 105.596 278.98 463.26
452 0 81.129 12.4493 1010 107.71 279.389 462.017
453 0 82.116 11.362 933 110.915 279.422 459.721
454 0 87.1023 12.9847 1131 107.81 278.931 458.093
455 0 89.2228 12.4296 1109 109.199 279.184 455.778
456 0 92.3605 12.0831 1116 109.674 278.31 451.783
457 0 97.2293 11.334 1102 112.054 278.497 449.17
458 0 101.343 11.989 1215 109.778 278.363 447.242
459 0 104.15 12.722 1325 108.705 278.536 445.048
460 0 106.244 11.6242 1235 111.492 278.672 440.022
461 1 55.2183 10.1959 563 102.989 278.19 468.464
462 0 57.1123 12.3441 705 97.9901 279.258 471.698
463 0 59.1309 12.8697 761 97.7306 279.017 470.925
464 0 61.1601 12.0176 735 99.5714 279.793 470.778
465 0 63.096 11.1259 702 101.57 279.865 469.785
466 0 65.0665 11.2193 730 101.11 279.153 470.896
467 0 70.1274 12.5486 880 98.708 279.56 468.564
468 0 71.1092 10.8565 772 103.427 279.301 467.11
469 0 73.1742 11.5068 842 105.639 279.696 465.786
470 0 77.1324 13.2759 1024 100.543 279.399 463.88
471 0 76.1264 10.4694 797 107.947 279.287 464.468
472 0 80.1468 12.4771 1000 105.016 279.361 462.471
473 0 81.1017 13.1193 1064 104.97 279.595 460.884
474 0 85.106 11.5856 986 108.312 279.929 458.668
475 0 87.1248 12.4649 1086 106.635 280.091 459.186
476 0 90.1548 12.9888 1171 107.326 280.035 455.234
477 0 92.129 11.6793 1076 111.449 279.577 453.439
478 0 95.135 12.1932 1160 110.59 280.217 454.491
479 0 99.2573 12.3618 1227 110.425 280.049 451.922
480 0 103.275 11.7259 1211 112.328 279.597 450.451
481 0 106.261 12.8928 1370 111.114 279.007 448.154
482 0 110.265 12.3702 1364 111.918 279.922 446.326
483 1 61.1289 11.8111 722 108.125 279.227 472.399
484 0 65.1614 11.5713 754 111.674 280.707 469.041
485 0 62.2011 11.4789 714 114.817 279.836 469.336
486 0 66.1722 12.4373 823 113.714 280.191 467.632
487 0 69.2644 12.0264 833 114.006 280.64 468.319
488 0 71.0836 12.5345 891 115.709 280.141 464.046
489 0 75.162 12.493 939 114.545 279.732 465.244
490 0 77.188 12.1133 935 114.998 279.549 464.706
491 0 78.1937 12.4434 973 115.895 279.687 463.937
492 0 82.1088 13.9205 1143 112.633 280.036 461.165
493 0 83.2045 12.6315 1051 116.571 279.303 458.831
494 0 88.1683 13.8145 1218 113.579 278.846 458.195
495 0 89.1551 13.6055 1213 114.293 278.855 457.085
496 0 93.1978 13.8308 1289 113.525 279.455 456.822
497 0 95.1014 13.2911 1264 113.927 279.943 453.57
498 0 100.17 13.2175 1324 115.109 279.915 452.431
499 0 103.353 13.1491 1359 117.454 279.721 451.723
500 1 52.0202 10.3806 540 120.785 281.05 475.493
501 0 56.0935 12.2474 687 117.575 280.392 474.447
502 0 55.1046 11.9228 657 118.725 279.723 473.683
503 0 57.0405 12.1493 693 112.631 280.404 473.463
504 0 58.071 11.3482 659 115.439 279.372 472.944
505 0 60.1019 12.3291 741 113.115 280.248 472.729
506 0 61.1128 12.0597 737 114.505 280.034 469.564
507 0 65.0498 13.4666 876 110.572 280.247 469.966
508 0 67.1233 12.7675 857 112.79 280.069 468.406
509 0 69.0979 11.7225 810 115.735 280.649 465.156
510 0 71.0483 12.2733 872 114.047 278.959 464.773
511 0 75.1643 12.3197 926 122.247 278.689 464.123
512 0 77.2056 13.2503 1023 120.514 279.325 462.436
513 0 80.1577 11.7518 942 123.701 279.155 462.762
514 0 83.1612 12.8546 1069 121.638 278.838 459.988
515 0 86.1784 11.8591 1022 123.036 279.268 459.205
516 0 90.1602 12.3336 1112 121.325 279.173 459.385
517 1 44.0197 9.79107 431 116.947 279.856 480.455
518 0 44.16 10.6205 469 111.051 279.842 479.557
519 0 47.1339 11.7962 556 106.737 280.11 478.254
520 0 51.1773 12.0952 619 116.221 278.732 476.108
521 0 51.1704 10.6507 545 118.624 278.127 476.123
522 0 52.1507 11.3901 594 116.322 278.785 476.756
523 0 54.2174 11.3801 617 116.763 278.219 473.123
524 0 53.2518 10.2532 546 118.61 279.26 474.577
525 0 58.1732 12.033 700 114.069 278.594 472.014
526 0 56.3746 10.5899 597 118.538 278.342 471.745
527 0 62.1735 10.8085 672 114.932 278.485 471.626
528 0 64.1685 11.2672 723 112.589 278.382 471.134
529 0 67.1738 11.3437 762 110.623 278.991 470.722
530 0 67.1661 10.4517 702 113.719 278.993 468.517
531 0 71.1166 11.1366 792 110.981 279.491 467.886
532 0 72.1894 10.2093 737 113.493 278.664 466.204
533 0 73.1277 11.6782 854 109.418 279.036 467.541
534 0 77.3072 11.4866 888 108.527 279.151 466.304
535 1 43.0454 10.547 454 103.744 279.46 482.786
536 0 43.0427 9.78099 421 107.458 279.499 480.903
537 0 44.1633 12.0236 531 105.616 278.804 478.54
538 0 47.1799 11.8271 558 104.233 279.262 479.131
539 0 47.051 12.0082 565 103.175 278.453 478.729
540 0 49.0834 11.9185 585 103 279.588 478.503
541 0 51.0423 12.5974 643 101.925 279.513 476.465
542 0 52.0277 11.8014 614 104.015 279.425 476.699
543 0 51.0384 12.0302 614 104.85 279.376 477.029
544 0 53.0417 10.8405 575 113.445 279.543 475.223
545 0 55.0964 11.616 640 107.853 279.527 473.756
546 0 58.0538 11.8855 690 107.339 279.261 473.933
547 0 59.0394 12.2291 722 108.352 278.893 473.432
548 0 61.0887 12.4573 761 106.414 279.255 474.009
549 0 60.0774 11.5851 696 110.139 279.362 472.226
550 0 65.0405 13.1303 854 106.602 279.141 470.952
551 0 65.2733 13.0375 851 107.573 279.494 470.093
552 0 68.325 11.899 813 111.196 279.081 467.571
553 0 70.379 11.4381 805 112.824 279.255 466.806
554 0 72.3952 12.4456 901 111.757 279.281 465.493
555 0 75.3683 12.5782 948 112.457 279.392 463.391
556 0 77.284 12.5641 971 112.949 279.412 462.321
557 0 79.3619 12.8399 1019 114.159 279.367 460.187
558 0 83.3595 11.5644 964 116.501 279.548 461.732
559 0 85.4769 11.8863 1016 117.183 279.356 458.74
560 1 44.3416 11.3212 502 114.147 279.715 477.851
561 0 47.1399 11.8583 559 114.809 279.361 479.059
562 0 47.1118 11.3347 534 118.448 279.253 478.103
563 0 50.099 12.4753 625 113.763 278.621 476.914
564 0 50.1557 11.0855 556 119.275 278.698 478.085
565 0 55.0656 12.022 662 116.502 278.789 477.323
566 0 55.1075 11.3052 623 121.238 278.973 475.536
567 0 56.0853 12.7484 715 116.885 278.741 476.929
568 0 59.1452 12.6299 747 119.072 279.078 473.661
569 0 60.1434 13.4179 807 117.955 279.529 470.482
570 0 62.4294 11.7573 734 122.361 279.202 469.692
571 0 63.3999 12.8391 814 120.521 279.324 468.658
572 0 65.5176 12.1494 796 122.893 279.555 466.367
573 0 69.5559 11.8322 823 123.226 279.851 465.318
574 0 70.5756 12.6531 893 122.747 279.8 463.792
575 0 72.4142 12.7047 920 123.373 279.257 463.233
576 0 76.3477 12.6526 966 121.852 279.414 463.468
577 0 78.3032 13.3839 1048 121.858 279.852 461.301
578 0 80.2821 12.6678 1017 126.277 279.512 459.082
579 0 82.221 12.7705 1050 126.17 279.031 458.121
580 0 84.2353 11.9784 1009 128.207 279.479 456.956
581 0 88.2538 12.4754 1101 128.213 279.391 454.588
582 0 91.3823 14.2697 1304 122.736 278.752 452.64
583 0 94.3891 12.9358 1221 126.538 278.885 451.829
584 0 98.3617 12.2405 1204 127.139 278.142 451.549
585 0 99.2222 12.1545 1206 128.769 278.958 449.363
586 0 106.227 14.0548 1493 122.439 278.979 448.005
587 1 55.2192 11.8437 654 115.537 279.422 473.618
588 0 54.2462 11.7981 640 117.17 279.198 471.295
589 0 57.3625 11.5929 665 115.259 279.242 472.95
590 0 57.1059 11.1547 637 115.962 279.24 473.928
591 0 62.091 12.2079 758 111.987 279.207 472.301
592 0 63.0768 12.3183 777 112.718 279.188 469.444
593 0 66.1469 12.9863 859 110.279 279.093 468.999
594 0 68.1465 11.8128 805 111.681 278.581 469.812
595 0 70.1722 12.0846 848 112.969 279.124 465.428
596 0 74.0849 13.1336 973 109.592 279.092 465.146
597 0 75.146 11.4045 857 113.404 279.215 464.225
598 0 77.0996 11.8548 914 113.845 278.402 461.883
599 0 78.0829 11.4366 893 115.562 277.544 460.23
600 0 84.1319 12.7181 1070 111.667 277.77 460.836
601 0 84.1949 11.6634 982 116.457 278.121 460.319
602 0 87.1081 12.6165 1099 114.446 278.689 458.993
603 0 90.0798 12.167 1096 116.531 278.232 456.459
604 0 93.1568 13.6222 1269 113.734 278.921 454.701
605 0 94.1143 11.7517 1106 118.725 278.888 453.453
606 0 99.1134 12.2486 1214 116.812 279.033 451.997
607 0 102.103 11.8997 1215 117.513 279.212 451.049
608 0 105.102 12.4545 1309 117.036 279.089 449.497
609 0 108.153 11.5022 1244 119.412 278.586 447.411
610 0 111.184 12.0611 1341 118.874 278.723 443.031
611 0 116.211 13.3895 1556 115.415 278.612 443.832
612 0 120.128 11.4378 1374 119.739 278.399 442.394
613 0 124.095 11.3058 1403 120.1 278.649 438.376
614 0 130.202 11.8662 1545 119.205 279.085 436.411
615 0 136.293 12.3118 1678 119.464 278.748 434.701
616 1 75.1455 11.8304 889 112.66 278.73 464.826
617 0 74.0609 12.0036 889 117.1 279.478 463.008
618 0 79.3583 11.9206 946 118.575 279.175 460.624
619 0 82.2163 12.5279 1030 117.466 279.868 460.913
620 0 83.2129 12.9307 1076 118.063 280.054 458.329
621 0 86.2415 12.6621 1092 118.546 279.53 459.087
622 0 90.2288 13.7761 1243 116.117 279.131 456.96
623 0 92.146 12.643 1165 115.682 278.864 455.66
624 0 95.1896 13.1107 1248 115.079 278.636 454.026
625 0 97.2812 12.4793 1214 116.82 278.588 453.547
626 0 99.2663 12.2801 1219 118.171 278.233 452.535
627 0 103.183 11.3778 1174 118.859 278.295 450.081
628 0 106.167 11.1993 1189 121.231 277.802 445.395
629 0 108.192 11.8585 1283 118.882 278.335 443.425
630 1 59.1132 9.72709 575 116.899 278.266 468.454
631 0 59.0689 9.95448 588 114.774 278.616 468.476
632 0 62.0501 11.8775 737 109.95 277.989 471.111
633 0 64.0672 11.1602 715 111.926 278.473 470.333
634 0 66.0347 11.6908 772 111.898 278.795 469.019
635 0 66.0453 10.8713 718 114.915 278.763 468.234
636 0 71.1014 11.1531 793 112.939 278.731 468.039
637 0 72.0979 10.3887 749 117.044 279.056 465.762
638 0 76.0902 11.5784 881 114.852 279.338 465.467
639 0 76.0876 11.4079 868 117.535 278.774 463.162
640 0 79.0676 11.2182 887 116.922 277.799 463.873
641 0 82.0262 11.7036 960 116.965 278.427 462.34
642 0 84.1414 11.8372 996 118.506 277.723 459.195
643 0 83.1379 10.5608 878 123.458 277.756 460.388
644 0 89.0574 11.341 1010 121.705 276.633 457.894
645 0 91.0808 10.8805 991 123.273 276.725 457.422
646 0 93.18 11.6656 1087 122.327 277.081 455.002
647 0 98.1911 12.0072 1179 120.559 276.841 456.663
648 0 101.225 11.7955 1194 121.446 276.425 453.581
649 1 57.1456 11.6894 668 120.033 276.94 472.979
650 0 57.1186 10.3644 592 123.198 277.057 472.451
651 0 57.0701 10.566 603 122.559 277.977 470.569
652 0 59.0548 10.8713 642 112.657 278.771 473.759
653 0 63.0917 10.9523 691 112.86 278.897 472.124
654 0 61.0545 10.7936 659 114.344 279.607 470.408
655 0 62.0755 10.0362 623 116.647 279.77 470.579
656 0 65.0295 11.3795 740 113.451 279.2 468.877
657 0 68.0869 11.1475 759 112.379 279.41 470.194
658 0 72.1465 11.1856 807 111.107 279.499 468.927
659 0 73.1169 11.3517 830 111.32 279.451 467.542
660 0 75.1007 12.5298 941 109.204 279.429 464.278
661 0 75.0821 9.85588 740 115.972 279.05 466.318
662 0 78.1138 10.92 853 114.83 278.708 463.574
663 0 82.0924 11.5601 949 113.454 279.026 462.32
664 0 83.1095 12.5016 1039 110.389 279.084 459.078
665 0 86.1525 11.7002 1008 110.978 279.264 461.059
666 0 92.1375 12.0689 1112 109.679 279.122 459.863
667 0 93.2128 11.6722 1088 111.392 278.962 456.788
668 0 96.1527 11.2425 1081 111.729 278.492 455.186
669 0 101.152 12.0413 1218 110.096 278.66 453.907
670 1 55.1899 11.6507 643 109.641 279.098 473.023
671 0 58.1076 10.8764 632 109.41 278.701 471.867
672 0 59.0533 11.4473 676 107.288 278.855 471.762
673 0 61.1028 11.5707 707 110.107 278.716 471.228
674 0 59.2203 10.6551 631 107.122 278.67 473.713
675 0 64.1924 11.8706 762 106.517 278.923 471.633
676 0 65.1695 10.6798 696 108.864 279.057 470.341
677 0 67.2446 11.9712 805 106.206 278.975 469.794
678 0 68.2316 11.2411 767 107.774 278.977 468.644
679 0 72.1559 10.1308 731 109.46 278.778 469.053
680 0 74.1689 12.1614 902 105.757 278.231 468.2
681 0 76.2011 12.0864 921 106.566 277.935 466.96
682 0 77.1421 11.7446 906 108.15 278.589 465.56
683 0 83.1114 12.9345 1075 105.641 278.186 461.907
684 0 82.2296 11.2611 926 110.97 279.154 460.22
685 0 84.0949 12.8189 1078 106.934 278.551 460.131
686 0 88.1146 11.8255 1042 109.573 278.665 457.548
687 0 89.0946 11.1342 992 112.285 278.594 456.069
688 0 94.1599 11.5017 1083 111.5 278.266 454.408
689 0 97.1347 12.8996 1253 109.194 277.958 451.021
690 0 100.119 11.9357 1195 111.921 278.303 448.885
691 0 102.145 12.3451 1261 111.872 278.91 446.617
692 1 54.0153 11.4042 616 105.252 279.221 472.344
693 0 54.0186 11.0332 596 105.582 279.307 469.255
694 0 56.091 10.4651 587 107.486 276.683 471.562
695 0 59.1536 12.476 738 105.713 276.119 471.34
696 0 63.1985 11.2344 710 106.607 276.652 472.858
697 0 64.1073 10.0301 643 110.028 277.131 471.505
698 0 63.1472 10.7685 680 110.388 277.382 467.499
699 0 67.2065 11.606 780 106.745 277.235 468.276
700 0 70.1705 13.5955 954 100.792 277.111 468.918
701 0 71.2038 11.9657 852 105.806 277.065 465.187
702 0 75.1064 12.7153 955 104.288 276.828 464.646
703 0 78.168 12.422 971 104.656 277.023 463.807
704 0 78.168 12.4092 970 138.965 276.03 463.784
705 0 83.2318 12.2309 1018 103.02 276.289 460.055
706 0 83.1606 11.5079 957 107.269 277.084 456.638
707 0 87.1328 11.7981 1028 106.205 276.655 456.87
708 0 89.2282 10.602 946 108.308 276.775 454.764
709 0 92.1733 12.1293 1118 103.667 278.338 456.157
710 0 98.1959 11.9048 1169 102.622 278.466 453.814
711 0 101.214 11.0855 1122 100.292 278.179 456.428
712 1 54.1579 10.7279 581 96.2031 278.766 477.169
713 0 54.1257 10.6234 575 98.433 278.572 474.647
714 0 57.1782 11.2106 641 99.8518 279.142 472.83
715 0 58.0624 11.8493 688 100.35 278.878 472
716 0 59.1729 14.5506 861 94.6945 278.858 470.145
717 0 60.2922 11.1623 673 106.649 279.131 472.4
718 0 62.1182 11.4298 710 105.752 279.082 471.073
719 0 64.2389 11.5506 742 104.76 278.879 470.477
720 0 65.299 11.4244 746 105.543 278.956 469.808
721 0 68.3641 12.1994 834 102.753 278.916 468.33
722 0 71.2613 11.8718 846 103.115 278.306 466.797
723 0 73.2907 11.8569 869 102.6 278.021 466.613
724 0 75.2437 11.4162 859 101.932 278.155 466.083
725 0 76.2161 11.8479 903 102.599 277.877 461.73
726 0 81.1754 12.0357 977 100.826 278.046 462.226
727 0 82.2733 11.7292 965 102.023 277.753 462.683
728 0 85.1674 11.3776 969 103.212 277.659 461.185
729 0 85.1773 10.9301 931 105.627 277.663 457.74
730 0 89.1732 11.3038 1008 103.838 277.667 456.357
731 0 95.0959 12.5452 1193 101.078 278.824 455.715
732 0 98.1818 11.7741 1156 101.646 278.831 453.152
733 0 100.123 12.3348 1235 100.767 278.656 452.066
734 0 105.091 12.513 1315 99.8745 278.391 451.805
735 1 55.1794 10.4024 574 96.2544 278.786 477.739
736 0 55.048 10.7361 591 98.6024 279.585 475.316
737 0 58.0637 11.8663 689 95.09 279.167 472.988
738 0 60.1303 13.0716 786 93.6247 279.008 473.547
739 0 60.1627 12.1338 730 96.5562 279.049 472.745
740 0 63.0564 12.3223 777 96.045 279.229 471.96
741 0 65.0751 11.4022 742 98.4987 278.97 471.42
742 0 68.147 12.7665 870 95.7391 278.639 470.345
743 0 69.121 12.847 888 96.2365 278.653 467.378
744 0 72.0961 12.4417 897 97.7258 278.857 467.391
745 0 74.1688 12.8626 954 97.0063 278.259 466.083
746 0 77.1346 11.9142 919 99.8738 278.069 464.321
747 0 78.1487 12.0667 943 100.706 278.145 464.723
748 0 82.1168 12.3604 1015 100.06 277.78 461.811
749 0 85.1795 12.8669 1096 99.4434 278.142 460.882
750 0 84.1804 12.1168 1020 101.805 278.25 459.792
751 0 90.205 13.17 1188 99.9832 278.236 459.56
752 0 94.1677 12.722 1198 100.427 278.253 457.016
753 0 96.3355 12.8405 1237 101.843 278.424 453.983
754 0 100.168 13.2079 1323 103.044 278.755 454.005
755 1 53.123 11.5769 615 102.007 279.205 476.506
756 0 54.1342 11.2129 607 101.809 279.089 477.3
757 0 57.0924 10.9472 625 101.12 278.794 475.059
758 0 57.0602 10.4802 598 103.957 279.358 475.607
759 0 58.1506 10.8511 631 104.328 279.417 474.628
760 0 61.104 10.9976 672 102.97 278.61 473.315
761 0 62.1424 10.83 673 103.223 278.553 473.18
762 0 64.099 10.6866 685 102.543 278.661 473.828
763 0 65.0853 9.15721 596 104.841 278.292 474.616
764 0 68.048 10.3603 705 104.594 278.991 469.203
765 0 70.1509 10.8338 760 102.345 278.641 470.878
766 0 72.0593 10.7689 776 103.054 278.349 468.032
767 0 73.1288 8.56024 626 107.185 278.414 469.115
768 0 79.1279 11.6394 921 101.699 278.562 466.268
769 0 76.1977 10.6171 809 104.436 278.35 465.227
770 0 83.1226 10.4785 871 104.123 279.03 463.99
771 0 86.1931 11.219 967 104.097 278.743 461.483
772 0 88.1854 11.6913 1031 104.369 278.921 458.256
773 0 92.228 10.8535 1001 106.029 278.883 455.804
774 0 98.1783 11.4587 1125 104.057 278.695 456.028
775 1 54.0532 10.7487 581 102.654 279.43 477.067
776 0 53.0508 10.2543 544 104.767 279.059 477.544
777 0 56.1742 10.6099 596 102.465 279.817 474.131
778 0 58.0352 12.2684 712 100.767 278.069 474.772
779 0 59.0544 11.0915 655 102.997 277.74 475.901
780 0 63.1456 11.6714 737 101.712 277.418 472.075
781 0 64.183 10.844 696 104.351 276.953 472.864
782 0 66.1355 11.9452 790 101.989 276.78 471.073
783 0 69.0499 12.6575 874 99.6602 276.929 471.061
784 0 71.1184 11.4457 814 101.699 277.359 469.247
785 0 72.155 12.9998 938 98.5352 277.606 468.622
786 0 75.1163 13.326 1001 98.0509 277.556 466.647
787 0 75.1298 13.0973 984 99.435 277.309 465.973
788 0 79.0744 12.659 1001 99.4735 277.06 465.846
789 0 80.1422 11.7666 943 101.632 276.9 464.531
790 0 84.1011 12.045 1013 100.222 277.61 463.243
791 0 84.0782 12.1553 1022 101.454 277.265 460.644
792 0 89.0827 12.2246 1089 101.697 278.197 460.536
793 0 92.2694 11.1955 1033 103.531 278.125 459.565
794 0 95.1771 12.6711 1206 100.86 278.073 457.819
795 0 96.1366 12.3678 1189 103.137 277.881 455.122
796 0 100.206 10.3686 1039 109.289 277.78 453.867
797 0 103.274 11.7164 1210 104.642 277.834 452.499
798 0 108.231 12.0483 1304 104.547 277.771 451.435
799 0 110.261 12.4885 1377 104.309 277.94 448.428
800 1 59.0785 10.0544 594 106.184 278.62 474.761
801 0 62.1593 12.0497 749 103.806 278.334 473.523
802 0 63.1697 12.0152 759 105.603 277.453 469.92
803 0 66.0925 13.1331 868 100.827 278.897 470.829
804 0 68.1045 13.1269 894 101.205 278.69 468.093
805 0 69.1185 13.4262 928 100.638 277.817 468.233
806 0 71.1272 12.7377 906 102.858 277.908 467.715
807 0 74.0582 13.8405 1025 100.665 278.56 465.356
808 0 77.1332 12.3034 949 102.826 278.074 465.098
809 0 78.0977 13.1886 1030 101.717 278.04 462.158
810 0 83.0975 12.9486 1076 101.507 278.324 462.917
811 0 86.0993 13.1708 1134 100.91 278.611 461.899
812 0 89.1141 12.9048 1150 101.296 277.834 460.963
813 0 91.0539 12.7068 1157 103.048 278.389 456.183
814 0 94.1501 14.0414 1322 99.7239 278.396 455.481
815 0 96.0708 14.0938 1354 100.984 278.246 451.871
816 0 100.123 13.4135 1343 101.991 277.92 451.73
817 0 102.087 12.4894 1275 104.438 278.245 451.635
818 0 105.207 13.8489 1457 101.999 278.107 450.563
819 0 109.192 12.9222 1411 103.955 278.286 448.724
820 0 111.273 12.7703 1421 104.448 278.388 447.84
821 0 114.111 12.5491 1432 105.777 278.323 446.385
822 0 118.171 12.8204 1515 104.863 277.618 444.075
823 0 122.158 12.2464 1496 105.319 276.902 443.914
824 0 126.243 12.278 1550 108.075 277.173 441.967
825 1 69.1124 12.0818 835 107.114 277.166 467.137
826 0 66.0591 11.0356 729 105.679 278.505 459.749
827 0 68.063 9.43243 642 104.442 278.34 461.676
828 0 75.0649 10.9239 820 101.526 279.049 460.315
829 0 76.0517 10.5586 803 102.407 278.507 458.061
830 0 79.0527 10.9927 869 101.055 278.749 459.984
831 0 78.0681 11.4131 891 102.219 277.845 456.906
832 0 85.064 10.2158 869 102.463 277.876 458.306
833 0 87.1346 11.1666 973 102.672 277.941 454.727
834 0 92.0483 10.8856 1002 102.949 278.083 455.338
835 0 95.1283 11.1954 1065 102.526 277.552 454.65
836 0 96.1486 11.7526 1130 100.152 278.057 452.939
837 0 99.2628 9.88286 981 104.25 277.573 449.115
838 0 104.317 11.6376 1214 101.878 277.495 446.887
839 0 108.151 12.5935 1362 101.004 277.515 448.66
840 0 110.385 11.9491 1319 102.431 277.595 447.37
841 0 114.32 11.6952 1337 103.294 276.217 443.558
842 0 116.246 12.3703 1438 102.907 275.443 441.748
843 0 122.326 12.2051 1493 103.109 275.382 439.463
844 0 127.475 12.8496 1638 101.372 275.593 438.995
845 1 70.1651 11.7437 824 99.9672 275.752 466.647
846 0 68.0941 11.0435 752 103.14 275.753 466.451
847 0 72.0975 11.2487 811 104.798 277.872 466.506
848 0 75.0552 11.3783 854 105.327 277.226 465.317
849 0 77.0471 12.2393 943 103.285 277.945 464.128
850 0 80.0883 11.2001 897 106.41 277.404 461.932
851 0 83.1095 11.8879 988 104.022 278.171 464.396
852 0 85.1162 11.1025 945 106.944 278.595 460.813
853 0 90.0768 12.3672 1114 104.956 278.645 459.914
854 0 88.0877 10.8188 953 109.791 278.575 460.144
855 0 92.0962 11.3685 1047 110.272 278.472 456.119
856 0 97.1878 11.699 1137 108.166 278.267 455.786
857 0 99.0848 13.0595 1294 107.353 278.343 451.34
858 0 103.216 13.2344 1366 106.665 278.207 452.998
859 0 104.316 14.0822 1469 106.367 277.664 449.142
860 0 107.235 12.7197 1364 110.019 277.799 448.874
861 0 111.258 13.1585 1464 110.211 277.665 446.71
862 0 112.328 13.6564 1534 109.656 277.014 443.033
863 0 114.254 12.7522 1457 112.402 276.887 441.672
864 0 118.425 13.2658 1571 112.631 276.822 439.568
865 0 123.326 14.855 1832 108.691 276.714 438.55
866 0 128.392 13.9806 1795 110.12 276.553 438.111
867 0 129.392 12.5897 1629 114.116 276.345 435.476
868 0 134.289 13.1284 1763 105.674 275.782 429.95
869 0 139.247 13.3001 1852 107.025 275.458 429.941
870 0 142.118 12.4474 1769 111.981 275.836 429.768
871 0 144.133 11.6282 1676 111.419 276.233 429.832
872 1 79.1641 10.7751 853 108.212 275.648 461.558
873 0 84.1555 12.5007 1052 104.699 275.796 460.483
874 0 86.1924 12.5185 1079 104.687 276.001 460.139
875 0 87.1253 12.2238 1065 107.894 276.505 455.306
876 0 90.2059 13.0812 1180 106.105 276.496 456.444
877 0 93.1838 12.588 1173 108.265 276.384 455.278
878 0 95.1774 12.4189 1182 109.326 276.126 452.007
879 0 99.1592 13.5842 1347 106.35 276.085 451.8
880 0 100.155 11.4922 1151 112.69 276.358 451.285
881 0 107.168 14.3606 1539 105.597 276.099 449.364
882 0 110.255 13.7227 1513 107.858 275.553 448.192
883 0 112.225 12.7333 1429 111.232 275.681 446.833
884 0 115.187 12.9441 1491 115.912 277.41 444.848
885 0 117.14 11.2173 1314 119.757 277.485 443.793
886 0 121.226 11.5569 1401 118.3 277.725 441.016
887 0 126.089 12.6657 1597 115.676 277.627 438.52
888 1 70.0355 11.794 826 111.817 275.438 467.482
889 0 70.0412 11.4647 803 110.335 275.707 462.401
890 0 71.0547 10.6397 756 109.316 276.91 456.156
891 0 74.1387 10.5613 783 100.461 278.314 461.688
892 0 78.1801 11.2177 877 98.8404 277.901 459.287
893 0 79.1319 11.108 879 99.6837 278.44 459.827
894 0 85.2118 11.2191 956 99.0157 278.411 456.772
895 0 85.1566 10.1225 862 102.021 277.906 454.571
896 0 87.122 11.3978 993 105.773 277.854 454.632
897 0 91.1205 11.2379 1024 104.403 278.411 456.869
898 0 94.1679 11.6706 1099 102.541 278.21 455.626
899 0 98.1622 10.4521 1026 105.562 278.071 452.593
900 0 100.163 12.5895 1261 102.499 278.273 450.825
901 0 103.125 11.743 1211 104.528 278.274 450.122
902 1 56.1165 9.76541 548 102.217 278.892 475.02
903 0 59.0513 11.8202 698 98.5501 278.302 473.189
904 0 57.0461 10.5879 604 102.348 277.551 471.603
905 0 60.0292 11.3278 680 100.121 276.899 474.226
906 0 61.0616 10.3011 629 102.486 277.401 473.024
907 0 62.0913 10.8389 673 102.009 277.47 470.165
908 0 64.0564 11.1152 712 102.449 277.087 468.456
909 0 65.1444 9.97784 650 103.923 278.058 465.486
910 0 68.1587 9.5219 649 102.63 277.505 469.311
911 0 72.1096 11.8569 855 98.786 277.618 466.767
912 0 72.1134 9.66534 697 103.716 277.809 466.525
913 0 76.143 12.6604 964 97.918 277.696 462.706
914 0 80.1276 11.5316 924 100.141 278.129 462.311
915 0 80.1427 10.943 877 102.453 278.141 461.033
916 0 86.1217 12.134 1045 99.4919 277.929 460.411
917 0 89.1064 12.4233 1107 98.5547 277.418 459.168
918 0 92.1842 12.1387 1119 99.7659 277.423 456.651
919 0 95.2752 12.2697 1169 102.375 277.566 456.567
920 0 98.2354 11.9509 1174 104.112 277.543 452.004
921 1 56.2475 11.0938 624 99.1074 278.027 473.982
922 0 58.1026 11.7723 684 95.1082 278.42 472.779
923 0 60.05 12.7061 763 92.1101 278.005 470.852
924 0 59.0313 10.9264 645 97.755 278.15 471.028
925 0 59.0658 10.8184 639 100.294 276.52 471.366
926 0 61.0623 10.4647 639 101.189 276.704 471.684
927 0 63.0485 10.7219 676 101.967 274.765 468.157
928 0 65.0914 10.8463 706 100.952 274.918 468.347
929 0 65.1444 9.60942 626 103.808 275.532 470.209
930 0 68.0305 11.1274 757 101.855 275.704 466.95
931 0 71.0305 11.3754 808 101.03 275.308 465.825
932 0 73.0771 11.8505 866 99.567 276.051 466.859
933 0 76.0724 12.3567 940 98.9926 276.241 464.674
934 0 78.0521 12.1586 949 98.9378 276.305 463.983
935 0 81.0509 11.647 944 99.8369 276.399 462.917
936 0 84.0517 10.6958 899 102.212 276.595 460.844
937 0 89.1425 11.3302 1010 99.3297 276.663 460.461
938 0 92.1107 12.0616 1111 98.4653 276.911 458.877
939 1 48.0397 10.7411 516 104.593 275.992 476.781
940 0 50.2236 10.8714 546 102.255 277.771 475.308
941 0 51.0363 11.7172 598 94.5234 277.36 476.855
942 0 54.1549 11.4302 619 95.4103 279.053 475.439
943 0 55.1997 11.8298 653 94.268 278.969 473.776
944 0 58.0553 11.8335 687 94.3188 277.884 473.536
945 0 59.0804 11.2558 665 96.3023 278.179 472.517
946 0 59.106 11.8262 699 95.8813 278.495 470.505
947 0 63.1633 11.779 744 94.5524 278.405 472.062
948 0 64.1419 12.1138 777 94.408 278.614 469.835
949 0 66.1125 12.8871 852 94.2664 278.353 467.515
950 0 67.1454 12.0634 810 96.4852 278.527 467.869
951 0 68.0977 11.8359 806 97.6402 278.478 466.225
952 0 70.1665 12.3848 869 96.0575 278.739 465.266
953 0 73.1512 13.643 998 93.2335 278.484 464.046
954 0 76.1103 11.9826 912 96.6974 278.352 464.3
955 0 77.1229 12.1105 934 98.0428 278.134 460.385
956 0 81.1305 13.0037 1055 95.1858 278.599 463.144
957 0 84.1461 12.2406 1030 97.2951 278.835 460.246
958 0 85.1183 12.277 1045 98.7263 278.167 457.505
959 0 88.1786 11.8169 1042 99.3349 278.839 458.414
960 0 93.1809 13.1679 1227 96.6104 278.43 456.494
961 0 94.1919 13.6848 1289 97.0202 278.631 454.273
962 0 97.2988 12.3845 1205 99.1743 277.095 454.099
963 1 52.0778 11.5596 602 106.327 277.432 475.611
964 0 52.1371 9.76272 509 109.008 277.413 475.747
965 0 55.0446 12.1901 671 106.583 277.018 470.632
966 0 58.0389 11.8714 689 102.659 276.501 473.965
967 0 58.1125 12.992 755 98.2106 276.344 470.65
968 0 60.0845 12.1329 729 100.505 276.631 470.505
969 0 63.1753 12.0933 764 101.005 276.664 469.122
970 0 65.1236 11.9619 779 100.995 277.082 467.051
971 0 67.1104 12.9041 866 99.3222 276.615 466.182
972 0 70.0717 12.4587 873 100.359 276.205 467.667
973 0 72.1632 12.6103 910 100.9 276.771 466.947
974 0 75.0764 14.412 1082 98.158 276.92 463.466
975 0 76.0702 12.6331 961 102.353 277.585 464.789
976 0 78.0977 12.7405 995 102.171 277.449 462.674
977 0 83.1758 13.4775 1121 101.822 277.69 462.577
978 0 85.285 12.64 1078 105.335 278.043 458.75
979 0 87.2114 13.324 1162 103.892 277.568 459.398
980 0 89.4309 12.2441 1095 107.777 277.979 456.686
981 1 48.2975 10.7045 517 110.768 278.162 475.12
982 0 49.1441 10.805 531 107.181 277.667 476.911
983 0 50.0894 11.9387 598 104.467 278.749 478.249
984 0 52.1724 13.0337 680 101.743 278.366 475.86
985 0 53.0816 12.3018 653 103.972 278.816 476.112
986 0 55.0678 11.8036 650 105.905 278.637 474.257
987 0 57.0637 12.8979 736 104.212 278.531 473.553
988 0 58.0844 13.6009 790 102.69 279.152 472.016
989 0 59.0758 12.4924 738 105.317 278.733 471.253
990 0 62.0714 13.0817 812 104.012 278.865 471.188
991 0 63.0785 13.2216 834 104.592 278.269 470.933
992 0 66.1166 13.6577 903 103.519 278.447 468.839
993 0 68.1508 13.4114 914 103.524 278.48 469.804
994 0 69.0658 13.8419 956 104.402 278.424 464.697
995 0 70.0829 13.5126 947 106.394 279.083 465.375
996 0 76.0814 14.4976 1103 102.865 278.406 464.094
997 0 77.1061 13.449 1037 106.13 278.726 463.933
998 0 79.2281 12.382 981 109.759 278.513 461.485
999 0 82.1769 13.4953 1109 107.305 278.393 459.471
1000 0 85.0597 13.5317 1151 107.102 278.341 457.349
1001 1 49.0121 11.5482 566 108.705 278.965 476.473
1002 0 51.0479 11.6949 597 109.409 278.57 473.318
1003 0 52.036 12.0493 627 108.341 279.049 473.555
1004 0 55.0267 12.1577 669 107.375 278.879 472.28
1005 0 55.0886 12.017 662 108.563 278.648 472.979
1006 0 58.0475 12.7826 742 106.278 278.411 470.698
1007 0 61.1452 12.8383 785 106.597 278.758 471.225
1008 0 59.0357 11.5523 682 110.834 278.55 470.796
1009 0 63.0331 13.3263 840 105.733 277.889 469.927
1010 0 65.0356 14.7304 958 103.194 278.521 467.196
1011 0 65.0439 12.0995 787 110.126 278.358 466.396
1012 0 68.0416 12.6099 858 107.485 278.293 466.111
1013 0 72.0443 12.7838 921 106.936 278.555 466.389
1014 0 73.136 12.3195 901 108.324 278.35 463.16
1015 0 77.0615 12.8599 991 106.129 278.186 462.912
1016 0 79.0653 12.066 954 107.201 278.22 462.696
1017 0 82.0502 13.4552 1104 103.884 278.477 461.008
1018 0 86.1144 13.575 1169 103.571 278.778 458.658
1019 0 87.0808 11.6903 1018 108.445 278.461 455.795
1020 0 92.182 12.3885 1142 105.94 277.806 453.939
1021 0 92.1093 11.7361 1081 107.929 278.383 453.8
1022 1 48.0829 9.81638 472 106.867 278.773 475.432
1023 0 49.0366 10.1761 499 108.333 279.269 474.846
1024 0 55.1145 12.1384 669 102.114 278.897 474.758
1025 0 53.0795 12.3965 658 98.2948 278.201 474.076
1026 0 54.0408 12.0835 653 100.312 278.214 472.124
1027 0 57.1213 12.6923 725 98.4952 277.851 471.394
1028 0 59.1202 12.3646 731 98.7524 278.025 471.732
1029 0 61.0898 13.472 823 96.305 277.561 468.911
1030 0 63.1288 12.3082 777 99.1403 278.045 469.959
1031 0 65.0986 12.5041 814 99 278.122 467.351
1032 0 67.0897 12.2523 822 99.4282 278.105 466.552
1033 0 69.1792 11.8677 821 100.023 277.828 466.661
1034 0 73.2293 12.7818 936 97.516 277.354 463.132
1035 0 75.1608 13.1185 986 97.3185 277.578 464.261
1036 0 78.1403 12.0041 938 99.6706 278.051 462.803
1037 0 80.1343 12.9657 1039 98.1155 277.956 460.735
1038 0 81.2118 11.981 973 100.351 277.856 459.112
1039 0 86.1355 12.9447 1115 98.3534 278.309 459.648
1040 0 87.218 12.8758 1123 99.1843 277.392 457.052
1041 0 90.1713 12.2101 1101 101.774 277.759 456.294
1042 0 90.1042 11.6532 1050 104.051 277.613 453.762
1043 0 97.1614 12.5358 1218 101.039 277.185 454.207
1044 0 100.12 12.8246 1284 101.051 277.533 451.336
1045 0 103.088 13.4255 1384 100.907 277.54 450.266
1046 0 107.16 13.4938 1446 100.204 277.865 448.649
1047 0 108.17 12.8594 1391 110.651 277.332 446.789
1048 0 113.232 13.1146 1485 109.883 276.587 445.636
1049 0 114.197 11.5065 1314 113.343 276.764 445.642
1050 0 117.282 12.8749 1510 111.464 276.73 445.076
1051 0 121.317 13.4194 1628 108.802 277.364 441.647
1052 0 121.225 12.6872 1538 112.148 276.447 442.304
1053 0 128.205 13.1275 1683 104.46 277.584 439.494
1054 0 131.253 13.0206 1709 106.291 277.573 434.431
1055 0 135.181 13.9221 1882 104.806 276.853 431.409
1056 0 140.209 13.3871 1877 105.064 277.004 431.936
1057 0 143.308 14.0048 2007 104.803 276.649 427.409
1058 0 148.176 14.0103 2076 105.131 277.072 429.063
1059 0 150.234 12.9664 1948 110.105 277.025 426.444
1060 0 156.261 14.399 2250 109.653 276.441 424.176
1061 0 158.29 12.0285 1904 115.673 276.728 425.805
1062 0 163.428 12.0848 1975 115.256 277.119 423.499
1063 0 169.321 13.058 2211 115.241 277.284 419.457
1064 0 171.525 13.654 2342 115.099 277.612 416.23
1065 0 176.382 13.5728 2394 117.242 277.233 414.895
1066 0 179.664 13.2414 2379 118.801 277.328 414.734
1067 0 179.544 12.6041 2263 120.645 277.685 415.191
1068 0 187.478 13.3883 2510 121.469 277.106 405.097
1069 0 191.397 13.2709 2540 122.69 276.6 404.67
1070 0 196.624 14.4794 2847 120.565 277.18 406.218
1071 0 207.804 13.8833 2885 121.916 276.979 404.11
1072 0 205.544 14.3668 2953 123.412 277.093 402.629
1073 0 208.424 13.6549 2846 126.772 277.376 399.84
1074 0 213.481 14.2448 3041 126.565 276.798 395.922
1075 0 218.519 14.072 3075 127.803 276.753 393.121
1076 0 224.338 15.7709 3538 124.507 277.099 390.592
1077 0 226.408 14.3104 3240 128.517 276.979 392.458
1078 0 230.521 15.0572 3471 127.111 276.626 386.466
1079 0 235.451 15.0604 3546 129.413 276.948 381.894
1080 0 239.413 14.1429 3386 132.08 277.584 384.533
1081 0 243.414 14.9663 3643 130.374 277.082 380.269
1082 0 245.491 14.0453 3448 135.283 276.943 376.86
1083 0 252.477 15.4866 3910 130.889 276.242 376.422
1084 0 256.428 15.1582 3887 133.138 277.165 373.062
1085 0 256.523 14.5679 3737 136.362 276.528 371.804
1086 0 263.448 15.039 3962 134.586 277.13 373.446
1087 0 266.514 14.9936 3996 137.031 277.011 366.64
1088 0 269.527 15.5124 4181 136.166 276.678 367.032
1089 0 271.501 15.1123 4103 137.624 277.054 367.113
1090 0 275.546 14.6763 4044 139.647 276.81 363.336
1091 0 275.452 14.6995 4049 140.417 277.506 360.847
1092 0 282.518 15.3123 4326 138.543 277.23 358.415
1093 0 284.446 15.1031 4296 140.06 276.791 359.088
1094 0 287.441 16.1946 4655 137.185 276.803 355.727
1095 0 289.658 16.119 4669 137.261 276.143 353.403
1096 0 290.392 14.9901 4353 140.779 276.235 351.895
1097 0 295.392 15.5285 4587 139.373 276.509 350.516
1098 0 295.481 15.2091 4494 141.781 276.595 342.831
1099 0 300.674 17.5605 5280 133.894 276.609 337.718
1100 0 298.565 17.4133 5199 135.315 276.42 342.328
1101 0 301.758 17.0832 5155 135.961 276.183 341.828
1102 0 304.639 18.4382 5617 132.078 276.459 342.088
1103 0 308.624 19.4152 5992 129.317 276.623 338.156
1104 0 309.72 18.3423 5681 132.816 277.039 338.099
1105 0 310.464 17.7444 5509 134.963 276.903 337.378
1106 0 314.449 18.2573 5741 133.483 276.959 333.18
1107 0 315.625 18.7216 5909 132.598 276.534 335.452
1108 0 315.536 17.7666 5606 136.855 276.737 333.725
1109 0 320.632 18.083 5798 136.046 276.15 327.154
1110 0 321.537 18.2685 5874 135.485 276.179 329.868
1111 0 320.752 17.936 5753 137.881 276.464 327.793
1112 0 323.47 18.0326 5833 138.284 276.109 328.191
1113 0 324.498 18.4562 5989 137.883 275.726 330.329
1114 0 327.596 17.7353 5810 140.585 276.129 329.529
1115 0 332.573 18.8951 6284 136.374 275.851 332.419
1116 0 332.698 17.7278 5898 141.264 275.602 325.076
1117 0 335.586 18.943 6357 137.436 276.312 323.043
1118 0 337.536 18.2232 6151 140.759 276.258 321.475
