time division length width area intensity CMx CMy
0 0 118.139 12.4515 1471 119.158 284.98 431.451
1 0 121.202 11.815 1432 121.926 284.271 431.67
2 0 125.221 12.7135 1592 118.114 284.768 434.552
3 0 128.086 11.6172 1488 119.849 284.052 434.277
4 0 133.192 12.0203 1601 118.778 284.991 436.465
5 0 137.251 13.0564 1792 116.778 285.061 435.728
6 0 142.257 12.625 1796 118.051 285.964 439.391
7 0 146.213 12.1329 1774 117.276 285.047 440.159
8 0 153.131 12.5383 1920 116.661 285.384 437.802
9 1 86.2422 11.3981 983 111.506 284.555 469.224
10 0 87.1285 12.2922 1071 110.434 285.47 466.817
11 0 90.0988 12.786 1152 118.391 284.891 463.94
12 0 93.1376 12.2292 1139 118.809 287.555 463.191
13 0 97.2119 12.5396 1219 116.7 287.105 462.907
14 0 99.1159 12.3694 1226 117.604 286.776 460.401
15 0 100.174 12.678 1270 116.986 286.363 460.655
16 0 107.145 14.3638 1539 111.361 286.333 455.327
17 0 107.24 13.0642 1401 115.245 286.133 457.113
18 0 111.273 12.6895 1412 114.887 286.763 456.459
19 0 114.515 12.7931 1465 114.339 286.473 450.457
20 0 116.094 12.3262 1431 113.413 286.113 450.99
21 0 123.231 13.1785 1624 111.324 285.626 448.164
22 0 121.331 12.8491 1559 114.605 285.659 442.972
23 0 126.333 12.1109 1530 115.892 285.746 442.17
24 0 134.155 14.1851 1903 111.272 285.937 438.711
25 0 134.249 12.4768 1675 115.141 285.907 434.968
26 0 140.305 11.6817 1639 115.723 285.813 430.305
27 1 79.0857 9.72363 769 112.298 286.358 465.372
28 0 79.2864 9.82514 779 102.225 285.935 461.664
29 0 82.1735 9.97888 820 103.048 286.444 458.448
30 0 82.3183 9.74267 802 109.081 286.313 456.087
31 0 83.2005 9.20668 766 111.38 286.127 452.645
32 0 92.2634 11.3696 1049 104.622 286.967 456.929
33 0 92.1607 10.8723 1002 108.33 286.982 451.365
34 0 94.2318 9.67826 912 112.105 286.508 448.774
35 0 102.139 11.8271 1208 103.922 286.255 455.26
36 0 103.184 10.5055 1084 109.115 286.415 449.72
37 0 107.132 10.3237 1106 109.413 285.933 448.689
38 0 109.117 10.6674 1164 110.491 286.753 441.814
39 0 114.162 10.7216 1224 110.257 286.612 441.205
40 0 117.226 10.8935 1277 110.018 287.038 442.067
41 0 120.158 11.7346 1410 108.206 286.884 436.638
42 1 71.0896 9.91707 705 97.827 287.023 474.081
43 0 71.1266 9.06834 645 96.4419 287.743 472.161
44 0 77.1652 10.808 834 94.1103 287.663 473.552
45 0 80.2402 10.9546 879 95.0933 287.364 471.79
46 0 81.118 10.7621 873 97.071 287.475 466.365
47 0 83.1265 9.91261 824 98.6286 287 467.352
48 0 86.1889 11.1731 963 97.8183 287.548 464.248
49 0 89.1961 10.0229 894 100.148 287.352 464.678
50 0 93.1413 10.9082 1016 99.0531 286.568 460.165
51 0 97.1953 11.3689 1105 99.8262 287.233 460.203
52 0 98.1368 11.5349 1132 101.613 286.644 458.163
53 0 102.233 11.7378 1200 101.108 286.496 460.125
54 0 105.119 10.8924 1145 104.18 286.369 456.814
55 0 108.144 10.3473 1119 107.056 286.153 455.231
56 1 62.1224 10.431 648 99.6343 286.242 478.741
57 0 64.0592 9.63171 617 97.0697 287.348 473.851
58 0 68.0933 11.4108 777 100.495 287.268 478.436
59 0 69.1556 11.7272 811 100.423 286.539 477.523
60 0 71.1223 12.2324 870 99.4609 285.646 475.949
61 0 69.1153 11.8208 817 101.564 286.109 473.788
62 0 74.2347 12.5009 928 98.5776 286.261 476.001
63 0 75.1059 12.4358 934 99.8308 286.875 474.041
64 0 77.2785 11.3227 875 102.278 286.36 472.577
65 0 81.1172 13.0675 1060 110.286 286.169 468.788
66 0 83.1162 12.0915 1005 112.177 285.524 470.172
67 0 86.1531 11.9787 1032 113.536 286.181 467.665
68 0 88.2515 10.9913 970 116.871 286.141 466.162
69 0 91.1917 12.7205 1160 108.792 286.004 467.078
70 0 90.1174 11.2964 1018 113.627 286.358 464.784
71 0 92.2516 11.1326 1027 110.463 285.905 455.124
72 0 94.1573 11.9587 1126 110.54 286.303 451.544
73 0 91.1405 12.574 1146 134.589 285.31 451.826
74 0 99.103 11.0491 1095 111.689 286.675 450.013
75 0 104.256 10.4742 1092 112.158 286.353 452.421
76 0 110.252 11.374 1254 113.454 286.285 453.198
77 0 113.302 12.1887 1381 111.573 285.674 453.463
78 0 117.158 11.3864 1334 111.892 285.732 451.655
79 0 122.156 11.9028 1454 107.636 285.807 451.726
80 0 127.285 11.541 1469 106.368 287.056 448.204
81 1 68.151 11.3278 772 102.07 287.158 474.873
82 0 72.2142 12.3798 894 101.028 286.876 472.182
83 0 75.2977 11.262 848 100.399 286.566 475.792
84 0 77.0658 11.6135 895 96.1028 287.654 475.429
85 0 78.0473 11.9927 936 96.2222 286.728 472.588
86 0 81.0708 10.4723 849 98.1119 286.671 475.211
87 0 86.071 13.3959 1153 90.5317 286.436 471.917
88 0 85.0647 11.0622 941 95.9065 286.368 468.972
89 0 89.0494 11.3083 1007 96.3049 286.888 468.287
90 0 90.0625 10.9146 983 98.9908 287.175 468.769
91 0 95.0953 13.5233 1286 93.2496 287.323 466.712
92 0 97.0781 11.8358 1149 96.1802 286.583 466.208
93 0 99.1248 11.5914 1149 98.6449 286.013 463.707
94 0 104.212 12.3498 1287 97.6465 286.859 465.602
95 0 105.217 12.6691 1333 98.6647 285.931 459.566
96 0 109.092 12.769 1393 99.7889 286.415 459.799
97 0 114.101 13.6896 1562 104.767 286.649 456.141
98 0 116.13 13.2351 1537 106.985 286.563 453.902
99 0 121.183 11.9984 1454 103.151 286.512 450.69
100 0 125.157 13.3353 1669 96.7484 285.919 448.932
101 0 129.149 13.2947 1717 96.1718 285.726 449.775
102 0 134.175 13.2513 1778 96.1946 285.562 447.561
103 0 139.113 13.6076 1893 96.2831 285.677 443.303
104 0 143.148 12.5535 1797 99.4062 285.593 440.595
105 1 80.1468 10.8925 873 93.2234 285.342 470.08
106 0 84.2542 11.9638 1008 91.3671 285.976 469.859
107 0 86.234 11.0049 949 95.2192 285.66 467.156
108 0 90.3093 11.9257 1077 94.2145 286.393 465.108
109 0 89.4265 10.4891 938 97.4318 285.489 464.15
110 0 95.2871 11.3447 1081 94.8557 286.104 465.576
111 0 96.4472 11.2911 1089 96.9118 285.934 459.204
112 0 97.403 13.3774 1303 92.5994 286.504 459.748
113 1 107.259 13.584 1457 89.9554 285.345 453.627
114 0 115.28 17.592 2028 82.0587 284.95 447.519
115 0 112.254 13.7635 1545 91.8861 285.093 451.31
116 0 114.384 12.4231 1421 95.5243 285.182 452.761
117 0 120.614 13.4312 1620 92.4475 285.385 446.59
118 0 122.344 13.3803 1637 94.4197 285.819 447.888
119 0 126.398 12.4369 1572 97.5045 285.489 447.797
120 0 128.365 10.9843 1410 101.867 285.576 444.321
121 1 71.1152 9.39321 668 94.515 285.919 477.898
122 0 73.1936 10.2195 748 97.9719 285.754 473.783
123 0 73.0977 10.0961 738 97.8631 285.621 473.215
124 0 78.1788 10.5399 824 98.1396 284.962 473.751
125 0 80.1972 11.0104 883 97.2208 285.653 470.459
126 0 80.2406 10.9919 882 124.098 286.662 470.492
127 0 88.2055 11.1444 983 96.5941 285.389 467.644
128 0 90.2945 11.2631 1017 97.3117 285.96 464.535
129 0 94.2049 11.5811 1091 96.4106 284.964 465.835
130 0 97.1839 10.4647 1017 99.2026 285.813 463.147
131 0 99.1123 11.9259 1182 97.7995 285.791 460.025
132 0 104.206 11.1702 1164 99.1778 285.57 459.668
133 0 105.162 10.9926 1156 100.537 285.36 455.932
134 0 107.176 10.3475 1109 101.95 284.985 455.884
135 0 111.134 10.4649 1163 101.469 285.49 456.01
136 0 115.259 11.5479 1331 99.0977 284.787 448.652
137 0 117.356 11.7847 1383 99.9306 284.705 445.821
138 0 118.489 10.4398 1237 103.032 284.424 443.009
139 0 125.232 11.339 1420 100.557 284.433 444.554
140 0 128.301 11.13 1428 101.104 284.701 441.487
141 0 131.179 11.6406 1527 101.117 284.372 434.622
142 0 139.434 13.189 1839 96.7417 284.733 439.663
143 0 143.381 12.2122 1751 99.6082 284.338 434.139
144 0 148.297 12.448 1846 99.5531 285.41 429.921
145 0 153.226 12.0932 1853 100.471 284.767 429.72
146 0 158.401 12.2979 1948 100.053 284.544 427.407
147 0 164.38 12.4285 2043 100.279 284.181 426.369
148 1 91.284 10.3523 945 93.8296 284.97 464.495
149 0 95.4276 10.5944 1011 92.9674 284.537 463.636
150 0 97.2335 12.0637 1173 94.1032 285.13 456.489
151 0 101.371 12.2422 1241 93.6197 284.481 455.801
152 0 102.287 11.7904 1206 95.4701 285.528 455.808
153 0 106.382 11.6561 1240 94.7185 285.678 455.869
154 0 111.37 11.8613 1321 93.6003 284.55 455.604
155 0 115.301 12.4804 1439 92.8436 285.232 451.42
156 0 116.388 10.9547 1275 96.4753 284.965 448.177
157 0 121.406 11.3997 1384 95.9306 284.853 447.276
158 0 124.212 12.2774 1525 95.2131 284.616 446.667
159 0 131.48 13.774 1811 92.5809 284.6 441.944
160 0 134.328 11.859 1593 98.0697 284.56 439.645
161 0 138.342 12.6787 1754 97.2868 285.114 437.372
162 0 144.386 12.8406 1854 95.788 284.034 436.769
163 0 149.294 12.4921 1865 97.8086 283.182 431.049
164 0 151.275 11.3436 1716 100.74 283.172 427.872
165 0 155.467 12.8645 2000 97.437 284.176 428.336
166 1 89.2986 10.5713 944 92.5773 283.515 461.467
167 0 93.5191 10.03 938 96.6354 283.974 456.318
168 0 97.3101 12.3523 1202 92.3661 283.797 459.844
169 0 99.3815 10.5553 1049 97.2717 283.533 456.19
170 0 104.429 11.4241 1193 96.0025 283.521 456.089
171 0 105.458 11.4833 1211 96.4277 283.375 455.075
172 0 108.289 11.7926 1277 97.083 283.359 451.613
173 1 121.387 10.1658 1234 97.8306 283.173 453.447
174 0 120.352 13.984 1683 91.3012 283.62 441.879
175 0 122.195 13.3884 1636 94.9633 284.268 439.865
176 0 124.222 11.9222 1481 99.7961 283.97 443.894
177 0 125.519 10.7952 1355 103.389 284.28 441.43
178 0 128.623 11.3743 1463 102.513 284.039 442.258
179 0 133.244 12.1206 1615 101.567 284.337 440.359
180 1 194.412 12.5352 2437 104.588 283.863 414.143
181 1 142.37 11.5755 1648 104.88 284.33 434.447
182 0 148.242 13.026 1931 102.35 284.285 435.047
183 0 151.251 11.2396 1700 107.184 284.225 426.125
184 0 157.511 13.5737 2138 101.961 283.831 428.168
185 1 89.2471 10.5213 939 93.8381 284.142 464.415
186 0 92.3059 11.2235 1036 94.3079 284.343 462.023
187 0 95.2853 9.65521 920 98.7043 284.29 456.918
188 0 98.2449 11.2779 1108 97.6561 283.658 457.054
189 0 102.267 10.7562 1100 98.5209 284.289 457.792
190 0 105.344 12.0082 1265 97.2514 283.815 453.953
191 0 107.211 11.8552 1271 97.8804 283.939 454.655
192 0 112.342 12.8269 1441 96.331 283.99 451.775
193 0 115.326 11.8187 1363 98.8459 283.523 448.707
194 0 118.312 12.1712 1440 98.0944 283.549 449.577
195 0 121.222 12.4647 1511 98.5811 284.042 445.556
196 0 127.323 12.8728 1639 97.2685 283.155 443.539
197 0 131.522 11.5798 1523 100.291 284.036 444.263
198 0 133.274 11.8028 1573 100.198 283.703 440.388
199 0 136.35 12.3433 1683 100.127 283.424 439.394
200 0 138.351 12.2804 1699 101.111 283.676 437
201 0 143.291 12.2129 1750 101.074 282.889 432.159
202 0 147.476 12.0087 1771 101.889 284.076 431.206
203 0 153.269 13.0424 1999 99.9715 283.963 428.783
204 0 157.61 12.5056 1971 102.107 283.961 424.291
205 0 162.314 12.0692 1959 103.215 283.452 421.387
206 0 166.25 12.1624 2022 103.38 283.79 424.093
207 0 172.31 12.228 2107 104.932 284.233 416.882
208 0 177.401 12.5873 2233 105.73 283.991 413.022
209 0 184.216 12.7133 2342 104.947 284.064 410.412
210 0 191.493 12.883 2467 105.023 284.148 410.059
211 0 196.285 13.353 2621 105.34 284.325 407.35
212 0 204.485 12.8518 2628 106.468 284.336 405.349
213 0 210.464 13.9549 2937 105.016 284.605 399.232
214 0 214.547 12.9296 2774 109.15 284.514 395.554
215 0 220.527 14.0708 3103 107.917 285.077 391.03
216 0 226.542 13.9312 3156 109.229 284.915 389.749
217 0 232.656 13.9347 3242 110.355 285.495 385.299
218 0 240.483 14.3087 3441 110.895 284.446 384.867
219 0 246.47 14.0625 3466 112.128 283.813 377.532
220 0 256.54 13.5573 3478 112.769 283.72 376.756
221 0 265.717 14.4251 3833 110.504 283.562 371.947
222 1 210.363 11.1094 2337 115.341 283.899 398.272
223 0 218.288 11.9521 2609 113.478 283.594 392.476
224 0 225.423 11.9021 2683 113.377 283.979 391.997
225 0 233.441 13.9607 3259 109.175 284.398 388.552
226 0 240.496 13.6676 3287 110.395 283.811 382.048
227 0 249.446 13.8748 3461 110.251 283.829 376.81
228 0 259.772 13.8506 3598 110.571 283.467 369.568
229 1 71.1756 8.54225 608 92.0395 283.436 473.099
230 0 73.1802 10.6996 783 88.2989 283.605 471.858
231 0 76.1017 11.051 841 87 285.629 471.332
232 0 77.1598 10.8087 834 88.5012 285.441 469.049
233 0 81.0667 11.028 894 87.9407 285.251 467.753
234 0 84.065 10.5751 889 96.685 285 469.71
235 0 86.0775 11.5245 992 95.7883 284.463 465.444
236 0 89.0917 11.1009 989 95.7118 285.105 465.446
237 0 90.0963 11.3767 1025 94.5483 284.368 465.899
238 0 94.1197 10.4866 987 96.2371 284.539 460.37
239 0 93.0616 10.348 963 96.4039 284.258 461.435
240 0 100.177 11.5395 1156 94.333 284.252 458.459
241 0 104.188 9.98198 1040 95.776 284.603 456.915
242 0 106.134 12.2299 1298 90.7034 283.911 453.639
243 0 115.145 10.6649 1228 92.9349 284.305 453.285
244 0 115.107 8.78315 1011 96.8101 284.218 449.843
245 0 117.178 9.75435 1143 95.4234 283.991 448.407
246 0 119.113 10.2256 1218 95.4171 283.615 444.874
247 0 128.288 15.4652 1984 83.623 283.276 441.338
248 0 129.175 13.1992 1705 90.0405 283.609 441.959
249 0 132.157 11.6906 1545 93.5515 283.891 441.265
250 0 136.209 10.9464 1491 96.6177 284.803 442.258
251 1 84.2339 9.92474 836 93.3134 285.024 462.984
252 0 89.121 11.4227 1018 90.9145 285.08 466.499
253 0 91.347 12.6222 1153 90.9679 285.103 465.175
254 0 93.2606 12.7063 1185 91.2262 284.809 464.695
255 0 95.2427 11.8749 1131 94.5933 284.778 462.985
256 0 95.2177 11.9516 1138 97.9552 283.918 451.127
257 0 98.313 12.6433 1243 104.455 284.27 445.947
258 0 101.289 13.3776 1355 103.818 284.607 442.442
259 0 100.186 11.7282 1175 109.502 283.609 440.829
260 0 103.32 12.5919 1301 107.663 284.486 442.647
261 0 108.16 13.0178 1408 106.338 285.074 444.759
262 0 114.21 14.7711 1687 101.509 284.436 449.762
263 0 115.256 13.9082 1603 104.068 284.518 449.838
264 0 116.303 13.5422 1575 107.186 284.384 448.954
265 0 119.278 13.3889 1597 109.43 285.032 446.708
266 0 122.401 13.2107 1617 109.917 284.231 446.425
267 0 126.344 13.1862 1666 110.363 284.665 447.121
268 0 129.38 12.7608 1651 113.439 284.526 442.838
269 0 133.261 13.1396 1751 112.977 284.138 440.52
270 0 138.321 13.6205 1884 112.368 284.614 439.566
271 0 140.277 12.2116 1713 117.887 284.333 433.59
272 1 83.1704 10.2921 856 111.45 283.994 464.572
273 0 86.2108 9.89435 853 111.653 284.878 465.409
274 0 89.1424 12.351 1101 107.786 285.288 461.797
275 0 89.1286 10.0304 894 101.622 285.456 465.669
276 0 91.1362 11.609 1058 97.8733 285.837 465.888
277 0 94.1395 10.4632 985 100.536 285.281 462.043
278 0 97.1279 10.6972 1039 99.8749 284.696 461.989
279 0 99.1234 9.05941 898 103.267 285.891 461.61
280 0 105.144 11.0324 1160 102.184 285.419 457.779
281 0 107.171 11.8315 1268 109.544 285.092 454.577
282 0 109.19 11.8051 1289 110.022 284.618 453.279
283 0 111.122 12.0499 1339 110.693 285.75 449.791
284 0 116.261 11.7494 1366 110.034 284.947 448.954
285 0 117.171 12.3068 1442 110.435 285.78 445.942
286 0 122.279 12.267 1500 109.753 285.403 447.378
287 0 124.135 12.14 1507 110.244 284.449 443.597
288 0 128.358 12.2158 1568 110.089 284.227 436.929
289 0 133.314 12.3168 1642 110.144 284.164 437.421
290 0 133.163 11.76 1566 112.409 284.247 438.554
291 0 140.266 12.3765 1736 111.727 284.211 436.289
292 0 144.167 12.4439 1794 111.75 283.857 434.453
293 0 148.133 12.6305 1871 111.321 283.88 435.37
294 0 148.244 11.7847 1747 115.05 283.736 430.161
295 0 155.086 12.7993 1985 112.483 283.507 427.189
296 0 158.267 11.9924 1898 115.039 282.708 426.839
297 0 162.167 12.333 2000 114.929 283.062 420.937
298 0 170.27 13.8251 2354 110.622 283.326 422.628
299 0 175.211 12.8873 2258 113.441 283.265 421.112
300 0 177.454 12.3919 2199 116.655 284.587 417.149
301 0 180.357 13.5176 2438 114.578 284.513 415.126
302 0 186.289 13.2751 2473 115.89 284.084 412.133
303 0 187.336 13.4091 2512 117.113 283.961 406.402
304 0 194.372 12.6818 2465 117.859 284.384 410.087
305 0 193.412 11.8452 2291 123.369 283.738 394.832
306 0 205.416 13.3291 2738 118.027 283.92 397.617
307 0 208.364 13.534 2820 118.88 283.325 392.315
308 0 216.444 13.6941 2964 119.107 284.618 391.22
309 0 224.269 13.7424 3082 120.547 284.136 386.903
310 0 228.438 13.1677 3008 122.615 283.959 380.852
311 0 226.34 13.6476 3089 122.31 283.852 373.091
312 1 14.0054 5.42648 76 72.75 284.5 492.289
313 1 3 3.66667 11 74.5455 285.364 488.273
314 0 7.00013 2.99994 21 77.5714 285.619 490
315 1 18.0081 3.66501 66 79.7273 285.348 493.53
316 0 22.0087 6.90635 152 83 285.559 501.178
317 0 19.002 6.94665 132 85.0076 285.205 498.894
318 0 23.0142 5.69214 131 86.6107 285.87 497.962
319 0 24.0041 6.20728 149 86.0738 286.268 499
320 0 24.0105 6.872 165 85.8182 286.309 497.485
321 0 22.0039 5.22634 115 87.6 285.443 499.696
322 0 22.0101 6.22442 137 86.1168 285.657 498.358
323 0 20.0019 6.99933 140 84.8643 285.164 499.443
324 0 22.0338 6.71696 148 84.0338 285.297 500.331
325 0 20.0089 6.24723 125 87.744 286.488 500.464
326 0 19.0058 5.52463 105 88.0476 286 500.667
327 0 19.0019 5.52576 105 88.6952 286.324 500.438
328 0 21.0066 6.9978 147 86.1837 286.395 499.381
329 0 21.0179 6.47066 136 86.8162 286.301 499.647
330 0 22.0337 6.85314 151 84.8344 286.47 501.881
331 0 21.0501 8.07599 170 83.3471 285.329 500.471
332 0 23.0713 7.58518 175 84.7771 284.566 498.451
333 0 22.0518 3.8999 86 91.3023 284.605 498.488
334 0 25.0129 5.83698 146 84.9521 284.39 499.5
335 0 21.0108 3.61718 76 89.3026 283.395 498.592
336 0 122.269 10.7632 1316 101.79 285.531 444.673
337 0 121.372 10.7686 1307 101.058 285.504 442.873
338 0 122.474 8.29563 1016 104.885 285.252 445.925
339 0 122.211 6.73427 823 105.553 284.995 458.164
340 1 80.1388 10.1324 812 100.507 285.116 463.851
341 0 80.2707 10.8259 869 94.2278 285.384 469.484
342 0 82.2125 8.79428 723 96.8313 285.884 473.671
343 0 86.1317 9.9731 859 95.9721 285.158 471.661
344 0 86.123 10.0206 863 98.9641 285.541 467.852
345 0 87.1476 9.68472 844 101.826 285.544 464.531
346 0 90.2071 10.6422 960 100.741 285.992 464.835
347 0 92.1663 10.5027 968 101.65 286.396 466.263
348 0 95.2592 12.7337 1213 98.4913 286.161 464.272
349 0 96.1401 10.3183 992 102.751 285.459 465.034
350 0 99.3191 11.0351 1096 102.449 285.162 461.403
351 0 100.24 10.8539 1088 104.709 285.162 458.367
352 0 103.223 11.6447 1202 103.621 285.398 456.099
353 0 106.168 10.4928 1114 103.009 285.266 457.989
354 0 107.182 9.88976 1060 106.757 285.053 452.591
355 0 112.191 11.8994 1335 103.046 285.801 454.366
356 0 114.396 12.684 1451 103.215 284.926 442.838
357 0 111.21 13.1373 1461 104.433 284.615 437.895
358 0 112.162 13.2041 1481 104.768 284.705 436.602
359 0 113.07 12.6824 1434 106.977 284.121 433.432
360 0 117.177 13.1254 1538 105.443 284.888 434.155
361 0 122.089 12.2451 1495 106.876 284.373 431.192
362 0 122.106 13.8404 1690 104.244 285.367 432.992
363 0 127.122 11.2097 1425 110.886 285.039 424.752
364 0 136.222 12.5897 1715 106.771 284.546 423.332
365 0 134.185 13.8763 1862 105.233 284.5 423.764
366 1 9.00121 3.44398 31 72.0645 284.323 500.839
367 0 12.0201 5.40761 65 76.5538 283.538 505.154
368 0 13.0967 5.34488 70 79.5429 283.871 502.457
369 0 14.0867 8.16371 115 74.2261 283.957 505.357
370 0 11.0008 4.90873 54 76.8889 284.019 505.13
371 0 13.0015 4.38412 57 78.3509 285.211 505.368
372 0 16.0036 3.5617 57 78.6667 284.982 505.351
373 0 16.0045 6.12328 98 75.8673 284.367 505.173
374 0 11.0024 9.17985 101 72.9109 285.139 506.475
375 0 14.0106 4.99622 70 76.7571 285.843 505.5
376 0 14.0335 5.20185 73 77.6164 285.384 504.233
377 0 16.041 2.74297 44 77.4091 286.273 505.727
378 0 14.0024 6.78457 95 74.9053 286.232 502.695
379 0 15.0389 5.45252 82 72.8415 285.963 505.317
380 0 15.0319 5.85422 88 72.9545 286.341 504.727
381 0 16.0116 4.55919 73 73.9863 286.233 503.027
382 0 15.0333 4.39026 66 75.1212 287.061 504.697
383 0 14.0104 5.35317 75 73.84 286.467 502.053
384 0 18.0022 7.11023 128 71.3047 286.875 502.906
385 0 18.0258 4.04975 73 75.3151 286.301 500.329
386 0 14.0257 7.20106 101 71.7129 285 502.96
387 0 17.0022 5.46988 93 72.7204 285.29 501.301
388 0 13.0109 5.2264 68 74.4412 285.971 504.618
389 0 17.0119 7.99439 136 71.875 286.118 503.596
390 0 22.0171 5.26862 116 74.7759 285.845 500.586
391 0 17.0335 5.10759 87 75.6092 286.264 501.747
392 0 17.0012 4.05853 69 77.087 285.623 503.391
393 0 17.0018 1.82333 31 78.3548 285.774 502.935
394 0 20.0617 4.73539 95 75.3053 285.274 504.263
395 0 15.0246 3.52755 53 75.8679 286.302 504.453
396 0 16.0112 5.4337 87 73.4943 285.805 505.011
397 0 14.0111 2.7835 39 78.8462 285.385 503.487
398 0 16.0016 4.12457 66 75.1515 284.879 505.061
399 0 20.003 8.14876 163 72.5828 285.485 501.331
400 0 16.0328 6.79856 109 72.8899 284.817 504.44
401 0 15.013 7.79322 117 73.188 285.291 503.632
402 0 14.006 4.0697 57 77.0351 285.526 505.579
403 0 17.0681 6.56193 112 75.4643 285.518 503.991
404 0 15.0596 7.96834 120 76.7 286.558 503.525
405 0 21.051 5.17789 109 79.8624 286.404 503.156
406 1 165.254 12.0602 1993 100.44 284.055 423.27
407 0 172.374 12.995 2240 99.3415 284.451 421.12
408 0 176.564 12.3411 2179 102.744 284.168 403.679
409 0 183.355 14.9001 2732 97.0794 283.585 409.24
410 0 186.402 12.4247 2316 103.264 283.572 407.279
411 0 191.411 12.4914 2391 104.479 283.693 405.636
412 0 196.482 13.0343 2561 101.208 283.743 398.715
413 0 201.291 13.0011 2617 100.953 284.153 394.15
414 0 200.209 12.6218 2527 102.251 284.224 390.822
415 0 208.447 13.212 2754 103.164 283.509 385.893
416 0 215.346 12.8351 2764 104.057 283.875 386.728
417 1 228.25 13.5071 3083 104.684 284.214 384.496
418 0 237.228 14.9772 3553 104.569 283.883 391.383
419 0 238.482 13.1121 3127 107.973 283.614 376.946
420 1 218.373 9.79059 2138 112.598 283.79 404.53
421 0 217.345 4.12709 897 105.438 284.234 427.371
422 0 216.274 3.53256 764 103.079 284.441 433.666
423 0 223.501 7.8926 1764 102.785 284.336 407.187
424 1 69.1225 10.1414 701 82.5164 285.805 478.502
425 0 70.1738 10.7305 753 81.2284 285.75 479.02
426 0 70.1866 9.80244 688 83.7602 285.589 476.868
427 0 69.2674 8.64764 599 87.02 285.351 474.367
428 0 70.1868 8.07845 567 88.2522 285.423 476.196
429 0 72.1842 10.2377 739 85.2192 285.333 476.422
430 0 72.116 8.90233 642 87.5997 285.354 476.009
431 0 73.1604 7.03933 515 89.0058 285.68 476.557
432 0 76.1195 6.92332 527 87.3776 285.015 465.989
433 0 81.0954 8.03991 652 84.5644 284.333 471.245
434 0 82.1967 10.1342 833 83.2281 285.259 465.318
435 0 86.2577 9.3441 806 83.8499 284.708 469.171
436 0 87.1665 7.66349 668 87.0045 284.744 467.458
437 0 89.1304 9.27854 827 84.179 285.074 469.798
438 1 13.0098 4.30445 56 75.7857 284.589 505.554
439 0 13.0027 5.69111 74 73.7703 285.797 504.541
440 0 15.0335 6.91789 104 72.2981 284.779 506.817
441 0 11.0097 2.27072 25 78.28 284.4 505.56
442 0 14.0519 5.26618 74 74.6757 285.135 505.392
443 0 12.0111 4.4126 53 73.4717 284.981 507.396
444 0 9 0.777778 7 79.4286 284.714 508.571
445 0 12.0161 4.74365 57 76.5263 284.175 504.035
446 1 88.289 6.42209 567 92.8501 285.337 478.489
447 0 88.2011 6.66658 588 92.852 285.963 479.869
448 0 90.3107 6.7766 612 91.3039 284.969 483.003
449 0 91.2542 15.7253 1435 75.1805 284.089 468.153
450 0 88.2659 20.4042 1801 68.1088 283.536 460.682
451 0 91.3853 18.4603 1687 71.5525 284.085 463.146
452 0 93.2792 16.4667 1536 75.9167 284.529 464.956
453 0 88.2765 17.7964 1571 76.7721 284.421 462.02
454 0 82.2446 12.3655 1017 92.5093 283.953 448.966
455 0 83.2195 12.2567 1020 93.1294 284.258 439.657
456 0 87.2514 14.1201 1232 90.2273 283.791 439.741
457 0 86.2478 11.6293 1003 97.0877 284.46 437.751
458 0 90.3413 13.3937 1210 91.0116 284.144 437.402
459 0 91.2717 11.033 1007 96.8004 284.212 435.413
460 0 93.1734 13.3407 1243 91.8737 283.792 432.059
461 0 95.1244 12.8358 1221 92.1867 283.347 437.383
462 0 99.183 12.8147 1271 92.7262 283.668 433.862
463 0 101.141 12.2996 1244 94.5072 283.837 438.347
464 0 104.171 12.8539 1339 92.3674 283.152 440.463
465 0 108.2 12.0147 1300 93.2392 283.137 444.292
466 0 109.087 11.5871 1264 93.4185 283.801 451.257
467 0 113.177 12.5556 1421 90.5088 283.368 452.519
468 0 115.116 12.7436 1467 90.2904 283.569 452.11
469 0 119.334 12.729 1519 89.3733 282.976 450.686
470 0 121.258 12.0405 1460 90.8904 283.46 445.836
471 0 126.194 12.148 1533 89.7789 283.288 445.009
472 0 128.231 10.598 1359 93.0103 283.588 436.745
473 0 134.163 11.6053 1557 90.8439 283.9 440.446
474 1 78.0741 10.0033 781 83.5928 284.661 471.812
475 0 80.1396 11.5673 927 79.808 284.169 472.409
476 0 83.1592 10.6062 882 82.0227 284.11 469.159
477 0 83.1645 8.80183 732 85.9454 283.717 465.439
478 0 88.1123 9.44249 832 88.3329 283.371 467.374
479 0 89.2195 8.95545 799 90.4093 283.81 465.134
480 0 95.1758 11.9253 1135 85.6819 283.62 465.122
481 0 94.1565 10.3232 972 89.1317 283.899 461.819
482 0 98.2953 10.3057 1013 89.3791 284.337 460.665
483 0 102.14 11.6017 1185 88.2194 283.923 458.511
484 0 105.215 11.7189 1233 88.2814 284.12 456.131
485 0 109.088 11.202 1222 89.3813 283.65 458.606
486 0 111.096 11.3235 1258 89.4571 284.207 457.595
487 0 116.162 12.5084 1453 89.7681 283.778 454.718
488 0 118.073 10.4173 1230 95.4585 283.483 451.305
489 0 120.179 11.2249 1349 90.9615 283.567 442.399
490 0 126.237 11.1536 1408 92.6207 283.832 450.359
491 1 75.1174 11.3822 855 82.7988 284.166 476.744
492 0 77.1006 11.5304 889 82.3195 284.831 475.307
493 0 78.1077 12.9053 1008 81.3621 283.419 473.812
494 0 82.1297 11.5184 946 83.7304 284.34 471.999
495 0 84.0731 11.6446 979 84.0766 283.529 473.857
496 0 87.1626 11.5646 1008 85.2321 284.277 471.598
497 0 89.1646 10.733 957 87.4566 284.576 470.431
498 0 94.2439 12.9133 1217 84.0583 284.869 468.561
499 0 93.1785 10.9789 1023 88.259 285.34 467.292
500 0 97.1078 12.1205 1177 87.9108 284.634 465.302
501 0 101.071 11.1901 1131 89.9788 284.961 462.873
502 0 103.114 11.5503 1191 90.7909 284.599 464.155
503 0 106.08 11.1896 1187 92.9865 284.834 461.051
504 0 111.183 13.905 1546 89.0116 284.697 458.576
505 0 113.136 13.1612 1489 91.1148 284.799 458.236
506 0 116.084 11.8535 1376 95.3612 285.043 454.435
507 0 118.129 10.3107 1218 97.8966 284.433 455.617
508 0 123.237 11.9201 1469 97.5664 285.116 453.527
509 0 126.178 12.1416 1532 98.6338 284.261 451.422
510 0 130.237 10.6421 1386 103.849 284.129 449.928
511 0 135.192 12.0348 1627 101.336 283.451 443.588
512 0 139.219 10.875 1514 104.828 283.873 440.377
513 0 144.283 11.9487 1724 102.649 284.102 444.44
514 1 87.1403 11.338 988 94.1964 285.216 473.947
515 0 87.1069 11.2735 982 96.7413 285.038 469.644
516 0 91.0999 12.2064 1112 94.0558 284.201 468.508
517 0 94.1317 12.7693 1202 92.8469 284.052 470.266
518 0 97.1478 11.9097 1157 94.6353 283.476 466.302
519 0 100.231 12.0721 1210 93.7537 284.194 467.064
520 0 104.207 12.7631 1330 93.2519 284.085 465.465
521 0 107.198 11.7633 1261 97.3442 283.879 460.751
522 0 106.277 10.5479 1121 101.617 284.307 459.556
523 0 110.247 11.6466 1284 100.729 283.464 458.146
524 0 116.148 13.4828 1566 103.407 284.427 456.278
525 0 119.16 12.5545 1496 105.213 284.654 455.566
526 0 120.352 11.5329 1388 108.372 284.825 452.834
527 0 127.38 12.5687 1601 104.77 283.923 450.981
528 0 129.277 11.9665 1547 104.645 283.531 451.321
529 0 135.233 11.8832 1607 103.966 283.669 446.016
530 0 137.352 11.263 1547 106.266 283.337 438.599
531 1 73.2235 10.6933 783 98.3691 284.031 476.075
532 0 80.3428 12.4467 1000 105.741 284.179 474.025
533 0 79.1615 11.6723 924 92.9524 283.693 478.233
534 0 80.0347 11.2076 897 95.4381 283.119 475.151
535 0 84.0968 12.4381 1046 93.4532 283.268 473.95
536 0 87.1377 10.8679 947 94.6864 283.686 469.914
537 0 88.139 10.5061 926 96.6825 284.119 468.247
538 0 90.1384 11.2605 1015 97.0483 283.51 463.765
539 0 93.1491 11.3689 1059 100.071 283.307 457.307
540 0 96.2324 11.6385 1120 100.341 283.688 457.737
541 0 99.1658 11.8085 1171 100.954 283.778 460.958
542 0 101.101 11.4144 1154 102.042 283.684 460.172
543 0 105.126 12.5373 1318 100.329 284.448 460.044
544 0 108.1 12.3774 1338 102.337 284.38 458.282
545 0 110.215 11.7226 1292 103.57 284.457 456.016
546 0 112.123 10.2387 1148 105.258 284.578 454.259
547 0 118.183 11.6768 1380 101.256 284.62 458.545
548 0 121.511 11.2088 1362 103.529 283.851 449.587
549 0 125.214 12.1871 1526 102.246 284.058 448.771
550 0 131.378 11.4555 1505 102.777 283.963 446.521
551 0 133.222 10.7865 1437 104.242 284.072 440.107
552 1 76.3241 9.85273 752 92.9947 284.104 475.281
553 0 79.2529 10.8135 857 92.9662 284.306 472.406
554 0 80.283 11.6214 933 93.1994 284.602 474.922
555 0 83.2792 11.7797 981 92.7095 284.707 472.361
556 0 85.1789 12.5501 1069 94.159 285.059 470.515
557 0 86.1962 12.1467 1047 96.9551 285.16 470.585
558 0 86.4658 12.1782 1053 92.0095 285.006 468.013
559 0 88.3136 11.5158 1017 95.4464 284.792 471.683
560 0 86.2556 11.4775 990 97.5606 284.728 469.488
561 0 87.3058 10.8698 949 99.1939 284.628 469.484
562 0 88.2743 10.9998 971 100.712 284.635 468.83
563 0 90.4972 11.3042 1023 100.915 284.149 466.774
564 0 91.2785 11.7771 1075 99.9228 283.911 468.659
565 0 92.1966 12.4625 1149 98.8216 284.01 464.938
566 0 97.2827 11.924 1160 97.8707 283.654 463.79
567 0 100.266 11.3299 1136 98.8028 283.313 462.938
568 0 104.505 11.9611 1250 95.32 283.537 460.846
569 0 106.65 11.2518 1200 95.0842 283.147 459.485
570 0 110.225 11.6943 1289 94.2483 283.114 456.983
571 0 112.277 10.8125 1214 95.6763 283.802 454.144
572 0 116.665 10.4058 1214 95.8493 283.299 454.266
573 1 64.1819 10.2677 659 89.0744 284.744 481.731
574 0 66.1108 10.3009 681 90.3348 284.06 484.004
575 0 66.2243 10.7362 711 92.9789 283.606 478.567
576 0 72.0959 11.8037 851 93.342 283.318 480.41
577 0 71.1101 10.7439 764 97.2291 283.275 477.682
578 0 75.2508 11.3354 853 96.3611 283.572 477.319
579 0 75.1444 10.6728 802 100.883 283.091 472.123
580 0 79.1913 10.8472 859 101.728 283.534 474.889
581 0 79.3342 10.9537 869 103.993 284.009 472.982
582 0 81.3163 10.6621 867 104.657 284.155 473.894
583 0 84.3839 11.3529 958 105.256 283.921 472.243
584 0 86.1702 10.8042 931 108.272 283.513 470.875
585 0 87.284 10.9069 952 109.581 283.041 470.87
586 0 90.1914 12.2074 1101 107.48 283.181 471.449
587 0 92.3199 13.2474 1223 107.227 283.57 468.495
588 0 95.301 11.5844 1104 112.554 283.159 466.605
589 0 96.3469 11.9568 1152 113.679 283.793 467.087
590 0 99.2681 11.8064 1172 114.994 283.58 464.612
591 0 102.425 10.5247 1078 118.846 284.085 463.996
592 0 107.29 12.7878 1372 113.299 283.524 464.041
593 0 108.344 10.6236 1151 119.999 283.986 462.806
594 0 111.249 12.5574 1397 116.516 283.855 461.58
595 0 114.139 10.566 1206 121.007 283.765 460.539
596 1 64.0701 10.5041 673 111.467 283.788 480.446
597 0 69.0945 11.6652 806 108.45 283.392 482.217
598 0 70.0787 10.9591 768 109.698 283.695 485.203
599 0 73.0342 12.9391 945 106.671 283.04 483.543
600 0 74.1037 12.496 926 109.83 282.92 477.373
601 0 74.1008 12.402 919 112.333 282.422 477.235
602 0 77.1599 13.2193 1020 110.977 282.492 476.213
603 0 79.0697 11.18 884 117.058 282.845 478.44
604 0 80.1117 12.7821 1024 115.231 283.987 474.331
605 0 83.1508 12.9043 1073 113.815 283.179 474.796
606 0 86.178 13.8202 1191 111.576 283.742 473.863
607 0 87.188 13.3963 1168 113.388 283.908 469.985
608 0 92.2693 14.035 1295 111.314 282.778 470.807
609 0 94.1059 13.6123 1281 112.819 282.881 471.284
610 0 95.2079 13.7594 1310 113.196 282.256 469.432
611 0 98.2045 13.0035 1277 114.356 282.229 469.824
612 0 101.118 13.0738 1322 114.776 283.034 468.278
613 0 105.202 12.8135 1348 115.964 282.944 465.052
614 0 108.204 13.0956 1417 116.873 283.416 465.077
615 0 111.16 12.6575 1407 118.15 283.055 462.658
616 0 115.15 13.5736 1563 119.401 283.161 460.141
617 1 64.0515 13.1769 844 114.03 283.399 486.129
618 0 65.0895 12.3215 802 114.07 282.581 485.895
619 0 70.1711 13.5953 954 110.548 283.517 485.971
620 0 71.0464 13.639 969 115.52 282.872 483.28
621 0 72.1023 13.1341 947 116.982 283.027 482.677
622 0 76.0847 14.5496 1107 113.184 283.233 480.475
623 0 79.113 14.0685 1113 113.783 283.323 481.176
624 0 79.06 13.2178 1045 116.231 282.727 479.116
625 0 83.0717 13.4703 1119 114.224 281.782 478.285
626 0 85.1295 12.9567 1103 112.976 282.51 476.002
627 0 88.2318 13.1472 1160 112.46 281.377 474.766
628 0 91.2045 13.9248 1270 111.371 282.126 471.911
629 0 92.1942 12.4845 1151 115.472 281.766 470.001
630 0 97.2027 14.0943 1370 111.101 282.068 470.17
631 0 98.1423 11.9928 1177 116.293 282.225 467.453
632 0 104.068 14.4617 1505 110.922 282.14 464.71
633 0 107.45 12.7688 1372 114.329 281.585 463.275
634 0 112.114 13.6111 1526 113.062 282.779 460.991
635 0 116.11 13.1599 1528 114.624 281.817 457.52
636 1 63.0596 11.4812 724 115.699 282.445 483.616
637 0 67.0482 12.0361 807 114.752 281.756 482.269
638 0 71.1835 13.6829 974 109.781 282.335 480.657
639 0 72.0712 12.0853 871 113.397 281.737 478.532
640 0 76.1164 12.4152 945 111.948 282.612 478.335
641 0 78.0893 12.9723 1013 111.01 282.426 475.615
642 0 83.0918 13.106 1089 109.429 282.323 474.726
643 0 85.1756 13.6189 1160 107.575 281.766 473.142
644 0 88.0334 11.7455 1034 112.275 281.958 472.053
645 0 91.197 13.6189 1242 108.184 282.415 471.221
646 0 95.1651 14.0808 1340 107.833 282.224 468.213
647 0 99.1461 15.0384 1491 105.842 282.664 462.814
648 0 100.17 13.8066 1383 110.439 282.722 465.701
649 0 102.137 13.6092 1390 111.342 282.57 463.868
650 0 107.204 13.8987 1490 110.393 282.51 464.007
651 0 110.183 14.4669 1594 110.314 282.506 461.57
652 0 114.251 14.2319 1626 112.125 282.319 458.876
653 0 118.171 14.3859 1700 114.006 282.491 455.25
654 0 122.135 14.0418 1715 117.228 281.652 452.834
655 0 127.103 13.9336 1771 117.491 282.762 451.51
656 1 74.1459 11.9359 885 114.468 282.708 480.721
657 0 77.1087 12.8131 988 114.044 283.299 479.34
658 0 77.1848 12.2045 942 117.88 282.345 474.752
659 0 83.2337 13.8766 1155 113.876 282.106 474.198
660 0 84.1095 14.2671 1200 112.833 282.757 473.324
661 0 87.0831 12.7694 1112 117.605 282.809 471.842
662 0 91.0972 16.1147 1468 110.44 282.527 470.609
663 0 94.1128 13.1013 1233 119.218 282.509 467.446
664 0 99.1847 13.8025 1369 117.957 282.818 467.616
665 0 102.148 13.4804 1377 120.708 282.962 464.885
666 0 105.078 14.0658 1478 121.535 282.959 464.227
667 0 109.191 13.7649 1503 123.123 283.14 462.53
668 0 113.18 13.801 1562 124.609 283.067 461.585
669 0 116.157 13.2235 1536 127.861 282.797 458.87
670 0 121.172 14.2607 1728 126.329 283.203 456.767
671 0 127.099 14.5949 1855 125.673 283.081 454.295
672 0 129.173 14.9334 1929 126.941 282.886 451.853
673 0 135.206 14.097 1906 128.099 282.962 449.97
674 0 139.112 13.845 1926 131.021 283.62 446.318
675 0 146.208 15.3343 2242 129.729 283.285 443.164
676 1 82.1148 13.0549 1072 127.979 284.215 474.771
677 0 85.1147 13.9694 1189 125.992 284.315 473.003
678 0 87.1578 13.401 1168 128.385 283.579 470.308
679 0 90.1948 13.36 1205 127.685 283.855 469.351
680 0 96.0935 13.7366 1320 125.97 283.905 466.118
681 0 99.1679 13.8452 1373 124.744 283.772 464.676
682 0 102.087 14.2819 1458 124.879 283.975 461.864
683 0 105.082 13.8749 1458 127.429 283.87 460.214
684 0 107.138 13.7953 1478 125.892 283.787 461.613
685 0 111.133 13.4704 1497 127.428 284.708 457.427
686 0 116.161 14.368 1669 124.627 283.654 457.008
687 0 118.201 13.8578 1638 128.466 284.232 453.252
688 0 124.171 15.1404 1880 124.719 283.673 449.387
689 0 129.101 14.3764 1856 129.176 284.005 449.438
690 1 74.1545 12.865 954 125.187 284.534 476.5
691 0 77.0644 13.3135 1026 124.535 285.121 474.983
692 0 77.1495 12.7026 980 128.844 284.257 473.008
693 0 83.1119 15.0159 1248 122.453 284.323 471.917
694 0 83.1077 12.923 1074 129.458 284.519 469.43
695 0 85.12 13.2636 1129 129.428 284.012 469.998
696 0 90.0626 14.7675 1330 125.134 283.498 467.398
697 0 91.1051 13.5338 1233 129.984 283.43 466.419
698 0 93.0644 15.0863 1404 126.749 284.073 466.936
699 0 95.1623 13.9026 1323 131.317 284.173 464.631
700 0 99.2217 14.9262 1481 128.918 284.063 463.815
701 0 103.105 14.5677 1502 130.256 284.188 462.288
702 0 103.084 13.5714 1399 134.681 283.888 460.931
703 0 107.112 15.3298 1642 131.079 283.443 457.896
704 0 111.111 15.0481 1672 131.347 284.243 457.702
705 0 115.095 14.2578 1641 134.399 283.675 454.801
706 0 116.147 14.3955 1672 134.276 283.901 453.528
707 0 122.077 14.712 1796 132.133 283.709 452.655
708 0 125.176 14.7073 1841 133.121 283.695 448.861
709 0 127.105 14.4605 1838 134.595 283.724 447.404
710 0 132.113 14.1621 1871 135.735 284.507 445.838
711 0 137.188 14.6441 2009 134.641 284.488 442.995
712 0 140.088 13.7628 1928 136.436 284.566 442.868
713 0 147.202 15.2308 2242 131.481 284.025 438.819
714 0 153.297 14.5013 2223 132.523 283.645 435.017
715 0 158.194 15.5379 2458 129.613 283.039 434.201
716 1 89.1027 14.3991 1283 124.257 284.177 467.886
717 0 93.049 14.9169 1388 122.801 284.195 466.949
718 0 95.1954 13.8557 1319 126.248 285.017 464.083
719 0 101.126 13.6562 1381 127.291 284.237 462.296
720 0 104.081 14.6233 1522 123.696 283.821 461.359
721 0 109.142 13.3771 1460 125.418 284.505 459.394
722 0 109.132 13.25 1446 127.25 285.084 455.183
723 0 117.102 13.9024 1628 122.563 284.584 454.69
724 0 121.087 13.4944 1634 122.682 284.189 453.672
725 0 126.144 14.1267 1782 120.915 284.041 450.552
726 0 131.28 13.117 1722 123.141 284.391 447.607
727 0 137.13 14.7961 2029 118.481 283.573 445.574
728 0 139.19 13.9952 1948 119.718 283.14 445.152
729 0 145.144 13.931 2022 121.163 284.564 442.777
730 0 151.17 14.1232 2135 120 284.498 438.833
731 0 156.246 14.1572 2212 120.955 284.788 434.666
732 0 160.232 13.8299 2216 122.349 284.406 432.083
733 0 163.177 13.4149 2189 124.956 284.137 429.825
734 0 171.252 14.4524 2475 123.504 284.015 424.52
735 0 176.195 13.2013 2326 126.612 283.684 424.762
736 0 184.32 14.936 2753 121.858 283.8 426.036
737 0 187.194 14.4609 2707 126.286 283.448 415.3
738 0 191.25 13.1765 2520 129.663 284.015 415.231
739 0 202.253 14.6945 2972 125.976 284.173 412.129
740 0 207.201 14.1264 2927 128.402 284.165 409.442
741 0 214.258 13.6144 2917 131.29 283.974 404.056
742 1 48.1198 11.3467 546 117.872 283.989 487.535
743 0 50.1265 12.3887 621 118.33 284.003 485.398
744 0 52.0444 13.0658 680 111.406 284.331 489.004
745 0 54.0389 12.8981 697 113.264 284.077 488.603
746 0 52.0417 12.1249 631 119.233 283.823 487.662
747 0 56.1161 13.383 751 115.366 284.137 486.024
748 0 59.1761 12.6402 748 118.084 284.591 483.969
749 0 61.0612 13.0361 796 118.97 284.452 482.225
750 0 64.2137 13.4706 865 117.371 283.881 479.16
751 0 65.1768 14.1155 920 118.353 283.885 480.052
752 0 67.1604 14.2197 955 118.397 283.566 477.148
753 0 68.1293 13.5624 924 122.106 283.882 477.21
754 0 73.218 14.7368 1079 117.752 283.887 476.654
755 0 73.143 13.8906 1016 123.674 283.976 474.243
756 0 74.073 12.9602 960 126.91 283.717 474.948
757 0 76.1447 12.8308 977 128.536 284.172 474.102
758 0 80.2631 14.0039 1124 125.496 284.003 472.806
759 0 83.2417 14.2717 1188 124.248 283.914 470.773
760 0 85.1506 13.5407 1153 127.333 283.441 471.591
761 0 89.1704 13.5583 1209 125.304 283.571 470.707
762 0 90.2458 13.8178 1247 124.815 283.33 468.787
763 0 98.185 14.5745 1431 120.278 283.447 467.138
764 0 101.151 14.1966 1436 119.364 283.086 466.213
765 1 55.0766 12.8911 710 130.307 283.641 483.73
766 0 58.1724 14.8868 866 123.827 283.318 482.633
767 0 77.182 11.5441 891 121.333 284.329 481.458
768 0 77.2199 17.2365 1331 102.869 283.439 475.678
769 0 74.1452 19.7855 1467 101.453 283.286 473.39
770 0 72.3597 16.1692 1170 115.597 283.191 475.014
771 0 70.1882 14.7318 1034 125.569 283.671 476.759
772 0 70.3564 15.9474 1122 123.746 283.222 474.522
773 0 76.1083 15.9378 1213 120.409 283.785 471.429
774 0 74.1857 14.4772 1074 129.289 283.895 472.465
775 0 80.1365 16.5468 1326 120.462 284.063 473.766
776 0 79.1084 15.1943 1202 128.032 283.071 471.52
777 0 79.2307 14.2243 1127 132.941 282.169 471.972
778 0 85.1439 15.8203 1347 127.04 282.753 467.789
779 0 89.233 15.835 1413 126.335 282.885 465.591
780 0 88.0709 14.6132 1287 132.472 282.545 468.221
781 0 93.0818 14.4174 1342 132.399 283.759 465.595
782 0 94.1303 13.5557 1276 135.136 282.654 463.965
783 0 99.0858 14.2301 1410 132.493 283.26 463.333
784 0 103.101 15.5091 1599 129.034 283.054 461.177
785 0 104.224 14.0658 1466 134.841 283.284 458.915
786 1 56.0235 14.1726 794 136.442 283.2 482.28
787 0 58.0408 13.8179 802 138.128 283.177 480.974
788 0 59.0395 13.4148 792 137.436 282.852 481.979
789 0 62.031 15.1054 937 132.582 283.588 478.777
790 0 67.1279 16.8782 1133 125.228 283.252 477.305
791 0 67.0522 15.391 1032 129.571 283.471 476.439
792 0 64.2871 14.093 906 140.095 283.235 477.99
793 0 72.2774 17.3083 1251 127.426 283.315 472.161
794 0 71.0335 14.7958 1051 140.007 283.471 473.485
795 0 73.0821 14.4905 1059 139.627 283.711 474.07
796 0 73.1626 13.4905 987 144.88 282.937 471.756
797 0 78.0749 14.8959 1163 140.007 283.99 469.911
798 0 83.1808 14.5226 1208 139.445 283.892 467.305
799 0 85.1712 13.9719 1190 139.881 284.008 466.053
800 0 87.1407 14.8151 1291 137.412 283.005 464.536
801 0 91.0539 14.2663 1299 140.352 282.706 463.122
802 0 93.0715 14.6232 1361 140.173 283.386 460.953
803 0 97.1048 14.8293 1440 140.013 282.618 459.983
804 0 104.183 14.7433 1536 138.753 282.906 459.494
805 0 106.1 14.1754 1504 142.74 283.007 457.201
806 0 107.064 14.2158 1522 144.492 282.413 452.384
807 0 111.123 14.8484 1650 142.669 283.12 452.356
808 0 116.06 15.0612 1748 141.736 283.079 451.291
809 0 122.184 14.9119 1822 141.59 283.007 448.466
810 0 126.065 14.5877 1839 143.136 283.227 445.239
811 0 132.097 15.4129 2036 140.72 282.844 441.139
812 0 135.067 16.6732 2252 136.132 282.599 441.538
813 0 139.145 15.6311 2175 140.257 282.546 440.189
814 0 148.216 16.7122 2477 135.822 282.618 437.486
815 0 146.167 14.0935 2060 148.439 281.851 431.536
816 0 158.22 16.1041 2548 139.203 282.878 428.386
817 1 88.0818 13.0333 1148 146.465 282.668 461.35
818 0 90.0694 12.779 1151 147.017 282.571 459.882
819 0 91.1107 14.0818 1283 143.753 282.787 459.815
820 0 95.1091 12.3122 1171 151.26 282.728 452.89
821 0 101.084 12.1878 1232 149.748 282.471 452.498
822 0 103.111 13.3351 1375 145.725 282.708 451.786
823 0 107.111 13.5186 1448 143.549 282.71 449.503
824 0 110.185 13.2323 1458 145.174 282.453 445.068
825 0 118.289 14.1095 1669 140.219 282.949 447.522
826 0 127.137 14.3467 1824 138.714 282.999 443.404
827 0 131.162 14.1886 1861 140.47 282.279 440.94
828 1 81.0777 10.2988 835 133.62 282.855 468.921
829 0 86.0574 11.8526 1020 131.302 283.191 466.022
830 0 90.1415 11.7704 1061 133.919 283.058 465.848
831 0 93.0964 12.6106 1174 132.106 283.054 462.635
832 0 95.2423 11.896 1133 134.653 282.963 459.795
833 0 100.092 12.2288 1224 132.459 282.574 460.451
834 0 102.158 13.0191 1330 131.46 283.508 458.838
835 0 108.138 12.7152 1375 131.614 283.203 455.139
836 0 110.158 12.0282 1325 134.766 283.07 451.229
837 0 116.227 13.465 1565 128.362 282.776 452.183
838 0 121.182 12.1057 1467 131.253 281.883 450.939
839 0 126.232 13.3168 1681 128.857 281.934 444.727
840 0 129.216 11.8252 1528 133.232 281.762 439.92
841 0 135.231 13.244 1791 128.821 282.585 440.69
842 0 139.205 13.7064 1908 128.114 282.897 438.83
843 0 147.28 13.7832 2030 126.179 282.617 437.552
844 0 150.202 12.5165 1880 132.186 284.195 431.295
845 0 155.231 12.2527 1902 133.812 283.417 426.998
846 0 160.276 12.3225 1975 133.527 283.146 425.907
847 0 166.384 13.0421 2170 132.38 283.123 422.215
848 0 170.206 11.7622 2002 137.097 282.553 418.901
849 0 178.29 13.7248 2447 131.928 283.554 415.743
850 0 187.322 14.4404 2705 128.95 283.37 415.348
851 0 191.413 12.7316 2437 134.994 283.647 407.528
852 0 200.322 13.039 2612 132.997 283.141 406.149
853 0 209.503 13.5607 2841 130.998 283.642 407.327
854 0 215.411 12.7756 2752 134.226 283.633 404.058
855 0 225.573 13.6054 3069 129.458 283.221 394.591
856 0 234.245 14.0109 3282 129.565 282.688 391.187
857 0 243.347 13.6513 3322 129.347 281.847 387.507
858 0 252.324 14.0097 3535 128.822 282.08 383.994
859 0 260.44 13.8112 3597 130.773 282.505 374.647
860 0 271.371 13.6234 3697 131.481 282.743 369.558
861 1 222.187 10.2841 2285 130.338 282.888 412.691
862 0 220.365 13.3869 2950 130.236 282.857 398.978
863 0 228.295 13.3862 3056 131.482 282.828 393.633
864 0 235.47 12.8679 3030 133.578 283.355 393.689
865 0 243.391 13.1969 3212 132.548 283.461 386.134
866 0 251.424 12.8349 3227 133.434 282.835 380.815
867 0 353.507 14.8342 5244 133.21 282.456 330.608
868 0 362.572 16.2368 5887 128.68 282.098 320.045
869 0 373.501 15.8152 5907 131.087 282.466 313.637
870 0 385.588 14.8267 5717 134.61 281.951 301.727
871 0 393.689 17.1125 6737 126.8 281.627 299.281
872 0 392.582 15.449 6065 130.217 281.962 296.887
874 0 393.587 17.5743 6917 119.311 282.017 296.711
875 1 24.0364 5.24206 126 94.2063 282.571 501.317
876 0 26.012 7.0352 183 92.1148 282.546 498.765
877 0 15.009 4.13087 62 92.5645 282.548 500.919
878 0 15.0037 4.39892 66 85.8939 283.288 503.773
879 0 16.014 4.9332 79 87.1392 283.532 499.658
880 0 11.003 2.27211 25 86.28 283.32 468.76
881 1 27.009 6.4423 174 86.5402 285.943 474.282
882 1 186.447 10.3568 1931 112.531 281.823 400.761
883 0 190.434 11.9517 2276 108.926 282.368 406.69
884 0 198.379 10.0464 1993 119.116 282.092 408.045
885 0 206.381 12.2637 2531 114.414 282.447 405.052
886 0 212.429 12.4324 2641 113.88 282.323 402.395
887 0 215.403 11.699 2520 115.853 282.87 392.1
888 0 245.182 19.7771 4849 91.167 282.329 368.568
889 0 234.614 16.1286 3784 103.884 282.883 392.802
890 0 242.475 16.3151 3956 102.954 282.952 385.178
891 0 252.392 15.0163 3790 103.875 282.686 374.841
892 1 193.419 9.98869 1932 103.227 283.206 419.148
893 0 197.268 10.9952 2169 102.905 282.361 411.461
894 0 206.332 11.7432 2423 105.117 282.579 405.738
895 0 214.286 12.1753 2609 105.422 282.146 404.034
896 0 218.442 12.9737 2834 106.383 281.871 401.701
897 0 226.363 12.5065 2831 108.582 281.795 395.546
898 0 229.42 11.7993 2707 112.673 282.393 384.805
899 0 239.438 11.7985 2825 96.5696 282.801 391.533
900 0 245.311 11.622 2851 112.902 282.743 382.395
901 0 253.333 12.5526 3180 110.269 282.858 379.363
902 0 263.446 12.4959 3292 109.811 283.302 380.99
903 0 271.379 12.536 3402 109.48 282.464 376.722
904 0 279.457 11.6368 3252 112.286 282.123 370.14
905 0 288.517 11.6562 3363 111.694 282.202 366.092
906 0 296.48 13.043 3867 108.947 282.507 357.163
907 0 303.508 12.5928 3822 109.337 281.9 357.61
908 0 315.794 15.5861 4922 103.23 282.458 338.592
909 0 326.791 15.2636 4988 105.029 282.696 339.851
910 0 340.438 16.7725 5710 101.831 282.68 332.426
911 0 350.821 15.4723 5428 104.81 282.656 336.83
912 0 360.657 15.8322 5710 103.494 283.367 319.693
913 0 371.567 15.6795 5826 102.356 282.256 316.209
914 1 315.475 13.4527 4244 105.369 282.909 357.585
915 0 323.518 15.0501 4869 102.204 283.159 343.87
916 0 333.574 16.7969 5603 97.6859 282.226 335.051
917 0 342.592 15.5929 5342 100.117 282.43 328.384
918 0 351.56 14.8908 5235 101.845 282.921 321.76
919 0 365.553 15.4259 5639 100.865 283.303 314.836
920 0 374.614 16.15 6050 99.7911 283.292 304.146
921 0 387.687 15.9742 6193 100.05 283.721 304.411
922 0 378.586 9.37435 3549 112.56 283.39 325.474
923 0 376.716 8.6564 3261 112.421 283.291 350.167
924 0 379.649 8.56054 3250 108.071 282.818 371.038
925 0 380.74 10.0751 3836 110.44 283.374 336.805
926 0 373.528 8.79988 3287 110.928 282.921 344.963
