time division length width area intensity CMx CMy
0 0 36.027 13.018 469 151.917 814.829 475.198
1 0 37.0605 13.0058 482 151.788 815.079 473.884
2 0 38.0845 13.5751 517 149.669 814.785 473.621
3 0 40.023 13.2174 529 149.168 814.915 473.898
4 0 38.0143 13.1792 501 154.012 815.086 472.577
5 0 39.0272 13.7596 537 152.082 815.698 473.547
6 0 39.0276 12.9139 504 155.433 815.583 472.379
7 0 42.0153 13.2095 555 150.532 815.034 472.694
8 0 41.0106 12.1676 499 157.922 814.643 471.888
9 0 42.0496 12.9371 544 154.112 814.471 471.873
10 0 45.0753 13.8657 625 151.354 814.197 470.669
11 0 45.0851 14.0179 632 150.467 814.198 470.573
12 0 45.025 13.3703 602 154.405 813.525 469.786
13 0 46.0412 12.2716 565 159.724 813.591 469.712
14 0 46.0412 12.2716 565 156.699 814.591 469.712
15 0 50.043 13.2686 664 153.681 812.488 469.325
16 0 49.0384 13.3773 656 153.431 812.96 469.773
17 0 52.1311 13.2551 691 152.606 813.082 469.12
18 0 51.0523 13.9465 712 152.407 812.916 468.742
19 0 53.0601 13.9088 738 152.724 812.714 467.898
20 0 56.0596 14.3776 806 150.48 811.813 467.236
21 0 57.0422 13.5689 774 153.667 812.249 470.13
22 0 58.0563 14.2103 825 151.538 811.715 467.718
23 0 62.0478 14.8756 923 147.529 811.885 466.673
24 0 62.059 14.454 897 149.773 811.163 467.037
25 0 65.06 14.8325 965 149.03 811.813 464.647
26 0 68.1149 14.9894 1021 148.343 811.704 464.38
27 0 69.0791 14.3748 993 152.821 811.995 464.294
28 0 72.1091 14.7 1060 152.671 812.286 463.227
29 0 73.1366 14.972 1095 153.877 811.875 463.36
30 0 76.1599 15.4281 1175 151.363 812.09 461.317
31 0 80.2079 15.0983 1211 152.05 811.482 459.992
32 0 82.1443 14.3163 1176 155.136 811.608 459.018
33 0 83.0838 13.8174 1148 155.261 811.451 459.606
34 1 41.0771 12.0505 495 157.59 812.414 478.289
35 0 43.0945 12.2754 529 154.65 811.977 477.758
36 0 47.0705 13.7453 647 148.57 812.039 476.179
37 0 48.056 14.0669 676 147.105 811.274 475.564
38 0 50.0181 14.8546 743 143.027 811.167 474.565
39 0 51.0287 14.0313 716 146.221 810.684 473.74
40 0 54.0303 14.714 795 142.273 811.321 473.006
41 0 55.0201 14.1039 776 143.376 811.32 472.914
42 0 57.0933 14.4325 824 142.262 811.191 472.618
43 0 59.1142 14.2605 843 141.654 811.254 470.151
44 0 60.0546 13.9706 839 142.257 810.954 470.596
45 0 63.0439 14.9578 943 137.79 810.689 469.39
46 0 64.1216 14.2386 913 140.141 810.898 469.139
47 0 67.0524 14.7348 988 137.24 811.222 467.742
48 0 69.0746 14.7087 1016 137.247 811.158 466.372
49 0 72.0441 14.5605 1049 135.732 810.715 466.297
50 0 73.0961 14.0363 1026 138.95 810.206 464.825
51 0 77.0497 15.159 1168 134.418 809.966 462.195
52 0 79.1078 14.3222 1133 137.85 810.347 461.576
53 0 82.0987 14.2146 1167 137.664 810.122 460.83
54 0 84.0695 13.929 1171 138.571 809.807 459.74
55 0 87.1265 14.1289 1231 137.175 809.798 458.535
56 0 89.0746 13.5055 1203 139.165 810.283 455.132
57 0 95.1228 13.8978 1322 134.976 809.784 455.525
58 0 101.146 14.7608 1493 133.021 810.014 453.698
59 0 103.195 13.9542 1440 137.427 810.231 450.375
60 0 107.169 14.4352 1547 130.898 810.09 452.229
61 1 56.0813 14.2828 801 131.271 808.836 474.506
62 0 56.1047 13.35 749 135.413 808.501 474.048
63 0 59.122 13.6497 807 134.494 809.382 473.923
64 0 58.0313 13.0791 759 137.821 808.544 471.746
65 0 63.0791 13.8398 873 133.621 809.069 469.991
66 0 64.0583 14.2683 914 133.505 809.568 468.991
67 0 64.0543 14.2691 914 153.764 810.58 468.946
68 0 67.0546 14.779 991 132.788 809.491 466.905
69 0 70.0952 14.4232 1011 132.186 809.224 467.285
70 0 72.058 13.9193 1003 134.611 809.391 464.567
71 0 76.2175 14.9703 1141 130.518 809.347 462.458
72 0 78.0534 14.1057 1101 132.607 809.205 461.216
73 0 82.1493 14.218 1168 130.546 809.463 462.826
74 0 84.0707 15.0231 1263 129.44 809.479 459.79
75 0 87.1889 13.5912 1185 133.522 809.327 458.419
76 1 44.0605 12.2105 538 127.725 809.788 479.848
77 0 48.0367 11.3871 547 125.843 810.289 479.931
78 0 48.1491 12.1498 585 126.053 809.715 478.689
79 0 48.0905 11.8111 568 125.116 809.012 479.039
80 0 48.0369 11.9283 573 124.251 808.532 478.927
81 0 48.168 11.9789 577 124.25 808.939 477.901
82 0 50.0494 11.8283 592 122.836 808.649 478.242
83 0 53.0944 11.9598 635 122.173 809.102 475.446
84 0 56.0496 13.6843 767 116.449 809.729 474.828
85 0 58.1169 13.3524 776 116.845 809.255 473.496
86 0 60.0544 12.3555 742 119.264 808.573 474.023
87 0 62.1851 13.4277 835 117.266 808.471 472.381
88 0 65.084 13.521 880 117.226 808.544 471.391
89 0 65.0445 12.9911 845 120.87 808.615 469.846
90 0 69.1379 13.6539 944 119.461 808.195 468.331
91 0 68.0766 12.0159 818 126.659 808.401 468.32
92 0 72.132 12.6019 909 123.849 808.483 468.15
93 0 75.1403 12.3236 926 125.454 808.544 466.492
94 0 79.243 12.3796 981 125.676 808.807 466.419
95 0 82.0937 14.0937 1157 121.396 808.843 462.397
96 0 85.2226 13.1655 1122 125.283 808.057 461.935
97 0 87.2307 12.7593 1113 127.103 808.835 459.342
98 0 91.1574 14.4256 1315 122.277 809.018 459.217
99 0 92.1639 12.1957 1124 130.556 808.859 457.749
100 1 51.1405 11.4391 585 125.641 808.65 478.149
101 0 51.0739 12.3547 631 125.983 808.474 476.918
102 0 52.0956 12.5538 654 127.693 808.606 476.598
103 0 53.0728 12.2662 651 129.164 807.793 475.052
104 0 54.0885 12.4241 672 128.978 808.089 475.269
105 0 57.0941 13.1537 751 126.885 808.667 474.656
106 0 59.1281 13.0057 769 126.516 807.997 472.547
107 0 62.0818 12.7413 791 126.081 808.173 472.598
108 0 63.0665 12.4472 785 127.35 807.749 471.088
109 0 65.1226 13.083 852 124.959 808.006 470.081
110 0 67.0813 12.7606 856 126.049 807.834 467.992
111 0 69.0816 12.6517 874 126.166 807.678 466.474
112 0 71.0619 12.5524 892 125.511 807.697 466.004
113 0 75.137 13.4155 1008 123.216 807.792 464.849
114 0 77.153 12.1447 937 126.994 807.951 463.088
115 0 80.2109 13.0656 1048 124.177 807.916 462.314
116 0 82.088 13.6195 1118 122.302 807.916 458.981
117 0 86.1321 12.7595 1099 122.942 807.916 459.441
118 0 88.1639 13.4409 1185 122.448 808.143 456.438
119 0 90.1698 12.8424 1158 123.034 807.899 455.185
120 1 46.0897 10.2409 472 122.316 806.646 479.004
121 0 47.0483 9.90472 466 121.966 806.448 479.27
122 0 49.1902 11.3031 556 123.11 806.883 474.806
123 0 51.0523 12.6537 646 119.266 807.161 474.429
124 0 52.0604 12.7352 663 117.341 808.293 474.087
125 0 53.013 11.8273 627 122.156 808.839 475.711
126 0 56.0652 13.3059 746 118.09 808.586 474.216
127 0 57.0611 13.0737 746 118.836 808.692 475.697
128 0 60.0605 13.4697 809 117.765 809.4 472.948
129 0 59.058 11.4464 676 125.379 808.93 472.842
130 0 62.2059 12.0728 751 124.973 809.1 470.559
131 0 63.176 12.2515 774 125.898 809.371 469.465
132 0 67.1218 12.9019 866 125.305 809.499 469.473
133 0 69.143 13.6673 945 124.795 808.863 467.685
134 0 68.1547 12.633 861 134.15 809.447 466.034
135 0 74.1268 13.4634 998 132.418 809.189 465.636
136 0 76.2306 13.4198 1023 133.618 809.174 465.3
137 0 78.2322 13.3577 1045 136.092 808.712 460.604
138 0 82.1469 13.975 1148 132.389 808.958 460.868
139 0 84.1782 13.4477 1132 134.357 809.027 459.405
140 0 86.1531 12.9885 1119 135.87 809.471 457.801
141 1 41.0975 10.6576 438 133.607 808.984 480.66
142 0 46.0897 12.3021 567 124.91 808.843 480.501
143 0 46.0548 11.5732 533 124.711 807.794 479.163
144 0 49.0146 12.078 592 123.872 807.897 478.421
145 0 48.041 12.2395 588 126.927 810.662 478.231
146 0 48.041 12.1563 584 144.491 812.683 478.188
147 0 52.0563 13.2165 688 124.426 809.906 477.586
148 0 54.1249 12.4157 672 126.787 810.177 475.522
149 0 54.0583 13.5409 732 125.22 809.923 473.851
150 0 56.0848 13.5866 762 125.188 810.06 473.1
151 0 57.1326 13.0223 744 126.774 809.633 472.702
152 0 58.1918 13.6274 793 125.562 809.286 471.774
153 0 62.1549 13.5146 840 124.477 809.358 469.838
154 0 64.136 13.2375 849 125.819 809.839 470.028
155 0 65.1665 14.2711 930 123.873 808.852 469.199
156 0 67.0822 14.2363 955 124.192 809.128 468.022
157 0 69.0611 13.7125 947 126.06 808.8 466.254
158 0 74.1647 13.5779 1007 124.583 808.665 464.918
159 0 76.1293 14.8169 1128 121.654 808.359 464.638
160 0 77.2045 13.6391 1053 125.675 808.44 462.066
161 0 79.2206 13.5318 1072 127.104 808.257 458.576
162 0 83.105 13.152 1093 127.368 808.292 458.133
163 0 88.1534 13.7261 1210 123.969 807.664 457.315
164 1 44.0735 11.2312 495 120.331 807.002 478.974
165 0 43.0093 11.3696 489 125.342 807.597 477.317
166 0 47.0294 11.2483 529 119.853 808.336 478.705
167 0 47.0393 11.7561 553 119.349 808.846 478.801
168 0 48.0292 13.9499 670 113.703 808.379 477.83
169 0 51.0475 12.3023 628 116.683 808.626 476.796
170 0 51.0301 12.1889 622 117.182 808.439 476.265
171 0 53.0473 11.5746 614 117.308 807.731 474.58
172 0 54.0526 11.8588 641 115.913 807.574 475.832
173 0 56.0496 12.2927 689 116.282 807.433 471.996
174 0 59.0297 12.1803 719 115.081 807.517 472.392
175 0 61.0641 12.3313 753 114.368 807.633 471.522
176 0 62.0572 12.8108 795 113.42 807.467 468.756
177 0 63.0573 11.9891 756 115.831 807.667 470.126
178 0 64.0968 11.3578 728 117.856 808.221 467.496
179 0 67.0319 11.8004 791 116.628 807.264 466.169
180 0 73.1452 12.1949 892 114.25 807.4 465.192
181 0 73.0741 12.5078 914 114.701 808.693 464.314
182 0 76.0656 12.4892 950 113.623 807.472 462.48
183 0 78.0852 11.3722 888 118.092 807.944 462.385
184 0 80.048 12.2676 982 116.311 807.739 460.501
185 0 83.1077 12.4537 1035 116.832 808.4 459.438
186 0 86.2485 12.464 1075 116.739 808.529 456.196
187 1 43.0394 11.2223 483 115.234 808.836 479.743
188 0 43.0206 10.0417 432 121.606 809.875 477.845
189 0 44.0458 10.4437 460 119.83 810.059 478.637
190 0 48.0742 12.7095 611 116.869 809.115 475.736
191 0 49.2333 12.1259 597 118.787 809.218 475.992
192 0 50.1218 12.33 618 117.238 809.314 475.086
193 0 54.1135 12.6955 687 114.764 809.352 475.247
194 0 53.1509 12.5115 665 116.35 809.346 472.75
195 0 55.1259 11.5916 639 117.463 809.175 473.765
196 0 58.1614 12.6372 735 114.268 808.812 471.891
197 0 58.215 11.6121 676 116.825 808.771 470.007
198 0 60.0807 12.0338 723 116.3 809.429 469.476
199 0 62.0728 12.4853 775 115.279 809.068 468.992
200 0 64.0722 13.2351 848 114.118 808.698 467.377
201 0 68.1189 13.359 910 112.019 808.266 466.788
202 0 67.1761 12.177 818 116.054 807.517 464.87
203 0 71.0518 11.9912 852 114.709 808.112 467.386
204 0 74.0343 13.3722 990 112.482 808.653 464.642
205 0 74.0246 12.3067 911 115.76 808.17 462.851
206 0 76.0389 12.0333 915 108.79 807.299 462.317
207 0 75.068 11.1499 837 110.572 807.301 461.434
208 0 80.0901 11.537 924 109.207 807.223 460.38
209 0 82.1603 10.8203 889 110.385 807.625 461.72
210 0 86.0702 12.1413 1045 107.192 807.689 459.497
211 0 89.1238 10.6705 951 110.019 807.312 458.324
212 0 94.0621 12.0133 1130 106.623 807.83 455.178
213 0 97.097 11.2053 1088 108.703 807.203 452.236
214 1 51.0338 10.3461 528 108.466 808.106 473.591
215 0 54.1086 10.9225 591 106.723 807.423 472.518
216 0 56.0275 11.423 640 106.791 808.234 471.712
217 0 56.1676 12.4983 702 105.168 808.198 469.131
218 0 60.1072 12.3446 742 103.946 808.221 471.143
219 0 58.1576 12.1566 707 106.842 807.928 468.827
220 0 62.2126 11.8625 738 106.203 808.344 466.201
221 0 64.172 12.4821 801 105.332 808.874 467.838
222 0 68.1262 12.8585 876 103.292 808.279 465.576
223 0 69.1563 12.4645 862 104.899 808.056 463.205
224 0 70.1783 12.2973 863 106.03 808.975 461.676
225 0 72.0975 11.8728 856 108.475 808.317 463.429
226 0 74.1214 12.6684 939 107.391 809.031 459.853
227 0 76.1464 12.6204 961 108.132 808.582 458.214
228 0 80.0967 14.4201 1155 104.621 808.706 459.855
229 0 80.1683 13.1723 1056 109.207 808.997 457.078
230 0 81.2007 12.0073 975 112.721 808.768 456.875
231 0 87.1397 12.325 1074 111.02 808.683 457.281
232 0 90.1756 13.6179 1228 108.779 807.887 449.804
233 0 93.2071 13.7972 1286 108.534 808.521 452.5
234 0 95.2242 12.8224 1221 110.798 808.649 452.194
235 1 49.1211 9.87356 485 111.713 808.072 473.043
236 0 50.0967 10.9788 550 109.975 808.187 471.064
237 0 54.0489 11.4341 618 111.095 809.201 472.006
238 0 56.151 11.9143 669 111.756 808.652 470.024
239 0 57.14 11.2881 645 113.733 808.774 469.087
240 0 60.1608 12.4333 748 111.071 808.683 468.358
241 0 63.1768 11.824 747 112.347 808.424 468.577
242 0 65.1255 12.5297 816 111.979 808.46 466.73
243 0 66.2867 12.7175 843 112.072 808.294 466.422
244 0 67.0409 11.754 788 115.457 807.985 465.711
245 0 71.0908 12.1113 861 112.873 808.812 467.767
246 0 74.0745 12.4739 924 114.505 807.892 463.098
247 0 76.0666 12.3707 941 115.186 807.684 463.272
248 0 79.2546 13.2232 1048 112.912 808.643 464.068
249 0 82.0895 13.3513 1096 114.762 808.558 461.035
250 0 85.0644 14.3186 1218 112.709 808.686 460.145
251 0 87.0926 13.0321 1135 116.058 807.898 457.974
252 0 92.0672 13.7834 1269 113.749 807.37 456.21
253 0 94.1214 12.8664 1211 119.563 808.253 439.039
254 0 98.1924 13.8605 1361 116.301 808.918 447.679
255 0 99.1914 12.0978 1200 120.433 807.953 452.347
256 1 52.0446 11.3364 590 112.878 807.79 474.654
257 0 56.0942 11.6055 651 110.57 808.283 475.716
258 0 56.075 11.1636 626 110.8 807.928 472.799
259 0 57.0775 12.0363 687 106.547 808.344 474.118
260 0 59.1166 13.0589 772 104.332 808.434 473.32
261 0 62.1832 12.6562 787 104.441 808.541 470.614
262 0 63.1516 11.5912 732 107.294 808.437 470.94
263 0 64.23 11.9415 767 107.11 808.78 468.503
264 0 67.1867 11.9667 804 105.955 808.531 465.502
265 0 69.1302 11.717 810 106.756 808.367 465.737
266 0 73.2777 12.4458 912 103.808 809.216 464.398
267 0 75.2382 13.1848 992 102.363 809.38 463.103
268 0 78.1598 12.0138 939 103.812 809.749 463.72
269 0 79.111 12.0843 956 103.733 809.112 461.432
270 0 83.1042 12.2737 1020 104.289 808.553 459.377
271 0 86.1511 11.7584 1013 105.645 808.633 456.098
272 0 89.2266 12.0816 1078 105.088 808.901 453.885
273 0 92.3743 12.2978 1136 105.147 808.46 451.005
274 1 49.1195 9.83317 483 106.046 808.849 475.559
275 0 50.2479 9.73176 489 107.245 809.086 475.949
276 0 52.0951 10.9991 573 104.667 807.473 474.953
277 0 53.043 11.8395 628 102.995 807.268 473.385
278 0 57.0797 12.3336 704 99.8878 807.608 467.786
279 0 58.1286 12.0939 703 101.956 807.526 470.791
280 0 59.0961 11.1513 659 103.944 807.501 470.247
281 0 61.0692 11.7244 716 101.996 807.961 469.422
282 0 62.0825 9.63234 598 106.645 807.543 469.182
283 0 67.1391 12.5411 842 99.1128 807.847 467.901
284 0 68.1446 12.1506 828 100.022 808.349 467.447
285 0 69.1598 11.2493 778 101.974 807.756 464.068
286 0 74.0578 11.9771 887 100.134 808.453 462.399
287 0 76.1365 10.9672 835 102.757 807.958 461.23
288 0 78.1574 12.2317 956 99.5063 808.487 459.224
289 0 80.2551 11.4634 920 102.203 808.635 458.558
290 0 84.058 11.2065 942 102.805 807.952 457.325
291 1 44.0245 10.5623 465 100.163 808.852 478.069
292 0 45.1301 10.5916 478 99.5084 809.556 475.251
293 0 46.0867 10.5237 485 101.833 809.913 477.101
294 0 49.0297 11.6256 570 99.3947 810.005 474.696
295 0 50.0455 11.9891 600 99.7683 810.195 473.683
296 0 50.0851 13.2774 665 98.6511 810.426 472.597
297 0 52.0316 12.3002 640 100.264 810.067 473.214
298 0 56.1556 12.6434 710 73.4014 810.1 473.294
299 0 57.054 11.8134 674 100.408 810.191 473.19
300 0 57.0373 11.922 680 101.232 810.518 470.869
301 0 60.0581 12.1882 732 100.526 810.44 469.725
302 0 60.0581 12.2548 736 133.564 810.408 469.761
303 0 62.0168 12.1902 756 101.602 809.812 470.335
304 0 65.075 12.8467 836 101.074 809.934 468.136
305 0 67.0238 13.2043 885 100.473 809.856 467.386
306 0 70.0451 13.577 951 100.136 810.417 464.771
307 0 71.0835 12.3657 879 103.507 809.547 464.631
308 0 75.0439 13.0057 976 101.429 809.573 465.247
309 0 76.1027 14.2308 1083 100.744 809.914 462.92
310 0 78.0561 13.6056 1062 103.187 809.089 461.478
311 0 79.1803 12.6925 1005 106.03 809.371 460.748
312 0 83.0702 13.5187 1123 105.571 809.135 456.7
313 0 87.1695 13.7663 1200 105.166 809.006 457.24
314 0 88.2437 14.29 1261 106.092 808.564 456.155
315 0 93.1359 14.1621 1319 105.692 808.67 456.272
316 0 94.3135 13.137 1239 108.706 807.383 454.013
317 0 99.2532 13.4505 1335 107.442 807.989 452.088
318 0 101.191 13.8649 1403 104.252 808.11 450.164
319 1 52.0317 11.6083 604 106.868 808.27 474.939
320 0 59.052 13.1579 777 102.144 808.929 473.597
321 0 56.064 12.1825 683 107.394 808.726 471.428
322 0 59.1136 13.1611 778 103.197 809.473 470.13
323 0 60.0867 12.199 733 105.284 808.866 469.948
324 0 64.1134 12.6807 813 104.23 808.642 469.98
325 0 66.1049 13.7509 909 102.655 808.832 467.872
326 0 68.1068 13.0824 891 104.686 809.202 468.71
327 0 68.0944 12.4092 845 107.744 809.091 466.215
328 0 73.0831 13.8609 1013 103.731 808.903 465.71
329 0 72.0584 12.8923 929 108.203 809.66 462.994
330 0 72.0584 12.8091 923 144.205 810.658 463.018
331 0 76.1068 13.0343 992 109.709 809.366 460.273
332 0 78.0796 12.705 992 110.966 809.284 460.802
333 0 80.0855 12.8737 1031 110.324 809.351 458.136
334 0 84.1057 12.734 1071 110.795 809.592 458.69
335 0 87.1345 13.6226 1187 108.695 808.002 457.28
336 0 90.2389 13.8854 1253 107.652 807.78 455.769
337 0 91.1678 12.2741 1119 112.12 807.924 451.001
338 0 96.0573 13.3566 1283 107.195 808.053 453.154
339 0 96.0589 11.774 1131 112.219 808.078 451.268
340 1 53.0711 9.68512 514 109.877 808.321 469.506
341 0 50.0444 9.83126 492 108.339 807.354 467.736
342 0 54.102 9.33422 505 109.331 807.842 468.234
343 0 56.0526 11.7746 660 108.992 808.352 471.339
344 0 60.1291 11.8578 713 108.055 808.588 470.028
345 0 60.091 11.9153 716 109.036 808.999 468.785
346 0 63.1353 11.214 708 109.749 808.494 468.723
347 0 64.1304 12.6149 809 107.193 808.26 467.729
348 0 67.0748 12.3892 831 107.14 808.2 467.181
349 0 69.1425 13.436 929 105.305 808.805 464.79
350 0 72.0668 13.7928 994 103.551 808.914 466.343
351 0 73.1155 13.636 997 104.574 808.193 466.651
352 0 75.163 12.4263 934 108.974 808.161 462.317
353 0 77.1817 12.3993 957 109.725 808.48 461.928
354 0 80.0863 13.3356 1068 108.398 808.352 461.679
355 0 83.1713 14.3198 1191 106.475 808.787 460.328
356 0 83.1486 13.5901 1130 109.342 807.997 456.558
357 0 88.2287 12.989 1146 110.601 808.565 456.122
358 0 90.4094 14.4675 1308 107.229 809.416 453.953
359 0 92.1899 14.5569 1342 108.554 809.743 453.136
360 0 95.3736 13.012 1241 109.787 809.465 450.063
361 0 98.3352 13.1998 1298 111.364 809.753 448.066
362 0 102.444 13.1974 1352 111.189 809.577 446.062
363 0 105.375 11.8244 1246 109.556 809.954 438.882
364 0 108.103 12.3401 1334 110.133 809.1 437.491
365 0 112.103 10.5974 1188 112.12 808.615 441.694
366 1 63.1533 10.5933 669 104.541 808.822 469.194
367 0 65.184 12.6718 826 101.275 808.673 466.736
368 0 69.0805 11.8847 821 102.191 808.566 466.331
369 0 71.0644 14.3954 1023 97.9834 809.168 465.291
370 0 73.1297 12.0334 880 103.318 810.08 465.062
371 0 75.1394 13.0291 979 101.64 810.691 465.782
372 0 78.1461 12.7837 999 101.668 810.126 462.488
373 0 80.2089 13.2778 1065 101.256 810.071 461.48
374 0 84.2212 13.7258 1156 101.151 809.745 459.529
375 0 72.2154 8.28078 598 111.814 809.323 457.637
376 1 87.2834 13.8285 1207 103.413 809.332 453.748
377 0 88.3119 11.7538 1038 108.564 809.63 453.64
378 0 91.1818 11.6909 1066 110.262 809.027 452.861
379 0 97.2185 14.2257 1383 107.139 810.113 450.876
380 0 99.1685 13.2905 1318 109.407 809.563 449.646
381 0 102.261 12.7223 1301 113.229 809.717 446.689
382 0 106.237 13.1404 1396 112.067 809.341 446.441
383 1 52.1323 9.91707 517 108.536 809.286 470.828
384 0 51.134 9.58267 490 106.586 809.178 468.794
385 0 56.0318 11.5113 645 105.553 810.383 471.619
386 0 56.0764 11.6092 651 105.951 809.954 472.82
387 0 58.0186 11.0137 639 107.429 810.429 473.471
388 0 59.0809 11.8312 699 106.08 810.263 472.073
389 0 61.0614 12.2827 750 106.043 809.177 470.627
390 0 63.0767 11.9378 753 105.898 807.657 471.12
391 0 63.0589 11.402 719 108.9 807.961 469.647
392 0 68.1005 11.3215 771 109.16 808.062 468.158
393 0 69.072 11.4952 794 109.508 808.271 467.996
394 0 70.0551 11.6908 819 110.315 808.597 467.168
395 0 72.1068 12.5231 903 109.805 808.587 464.141
396 0 78.1092 13.6347 1065 106.036 808.259 463.492
397 0 79.1878 12.603 998 110.8 808.654 460.114
398 0 83.1082 13.0793 1087 109.529 808.684 462.154
399 0 85.1044 13.8301 1177 108.212 808.5 460.382
400 0 88.0886 12.9642 1142 111.714 808.679 457.151
401 0 89.1401 12.8674 1147 112.806 808.496 457.378
402 0 93.0989 13.534 1260 110.466 809.025 457.856
403 1 51.0952 10.3728 530 110.436 808.453 475.77
404 0 54.112 9.35098 506 104.939 808.215 470.921
405 0 55.0463 11.3178 623 103.873 809.403 474.204
406 0 55.0551 11.0253 607 103.964 808.936 476.644
407 0 57.1002 12.1716 695 102.079 809.586 476.742
408 0 57.0682 10.3911 593 106.843 809.978 474.872
409 0 61.1038 11.4886 702 104.077 809.208 473.815
410 0 61.0613 10.252 626 107.684 809.332 472.901
411 0 65.0595 12.6038 820 101.873 809.495 473.38
412 0 65.0667 10.9734 714 108.109 808.405 470.71
413 0 68.0519 11.212 763 107.57 808.603 469.27
414 0 71.1463 12.5938 896 104.319 808.984 467.576
415 0 73.0828 11.918 871 106.373 809.177 466.045
416 0 76.0826 13.1699 1002 103.746 809.186 463.967
417 0 79.0584 13.0916 1035 104.012 808.521 465.28
418 0 80.1283 12.4301 996 107.418 808.117 463.048
419 0 83.2109 12.6306 1051 107.593 809.167 460.396
420 0 85.1366 12.4858 1063 108.519 808.992 460.42
421 0 89.1403 13.9555 1244 106.233 808.772 457.665
422 0 92.1434 12.4697 1149 109.696 808.768 457.342
423 0 95.1092 13.29 1264 108.995 809.475 455.604
424 0 99.1435 13.3645 1325 109.034 808.582 453.11
425 1 52.0785 10.1001 526 112.814 807.422 472.892
426 0 53.1033 11.5247 612 110.337 808.314 472.4
427 0 55.1754 12.6143 696 112.803 809.545 472.941
428 0 57.0265 11.6963 667 112.739 807.769 475.691
429 0 60.0827 11.351 682 113.654 807.389 473.654
430 0 60.0222 12.462 748 112.963 807.807 471.666
431 0 63.0581 13.2418 835 110.92 808.461 470.043
432 0 63.0298 12.4544 785 113.311 808.311 472.167
433 0 67.0315 12.9491 868 110.661 808.079 470.786
434 0 70.0343 13.5791 951 109.009 807.941 469.679
435 0 69.0208 12.3731 854 113.563 808.217 469.142
436 0 71.0409 12.4013 881 113.88 808.453 467.26
437 0 72.1124 11.177 806 116.78 807.935 465.293
438 0 76.0706 13.5138 1028 112.032 807.435 463.753
439 0 81.1525 13.9491 1132 111.72 807.745 452.657
440 0 83.042 13.2343 1099 112.664 808.199 461.475
441 0 88.1979 12.6987 1120 112.808 808.109 458.682
442 0 87.188 12.1806 1062 116.519 807.905 454.205
443 0 90.0388 11.8949 1071 116.722 808.417 455.88
444 1 44.0261 9.7215 428 113.715 808.04 478.82
445 0 47.0865 11.1497 525 108.158 808.27 476.301
446 0 46.0771 10.7863 497 110.36 808.493 475.519
447 0 50.137 13.144 659 106.378 808.328 479.14
448 0 50.1002 10.499 526 113.909 808.74 479.344
449 0 53.1065 11.5052 611 110.795 808.367 476.442
450 0 53.0461 11.9142 632 111.277 808.373 475.714
451 0 55.1047 12.4309 685 109.331 808.647 475.375
452 0 57.0763 12.9125 737 107.833 809.046 474.227
453 0 58.0404 12.1984 708 109.811 809.194 473.678
454 0 61.0775 12.7543 779 107.593 808.833 471.96
455 0 62.1895 13.491 839 106.13 809.534 471.139
456 0 64.1242 12.6785 813 107.977 809.091 470.962
457 0 65.1512 13.4917 879 107.246 809.451 471.208
458 0 68.2055 13.474 919 107.035 809.215 468.383
459 0 70.1903 13.6344 957 106.149 809.666 469.11
460 0 73.147 13.0969 958 107.468 809.729 468.404
461 0 73.1525 13.6291 997 108.678 809.355 467.101
462 0 78.1913 13.8506 1083 108.061 809.456 464.617
463 0 79.1428 13.5325 1071 109.462 809.328 464.244
464 0 80.3681 13.4382 1080 111.152 810.084 461.895
465 0 85.1445 14.7514 1256 105.962 809.929 461.376
466 0 87.158 12.6896 1106 110.206 809.204 460.382
467 1 46.0622 11.2891 520 106.685 809.256 480.915
468 0 46.2138 11.1222 514 108.955 810.344 476.774
469 0 49.3039 11.7029 577 106.815 810.695 475.721
470 0 50.0562 12.6857 635 103.609 809.553 478.521
471 0 53.0338 12.2941 652 104.304 809.301 478.267
472 0 53.0998 12.6366 671 105.517 809.44 475.72
473 0 53.2808 10.7168 571 111.11 809.764 478.007
474 0 55.0988 11.8514 653 107.747 810.231 476.962
475 0 58.193 11.7368 683 107.839 810.536 474.818
476 0 61.2474 12.9475 793 103.783 810.308 475.016
477 0 58.1284 11.2166 652 111.635 809.776 472.008
478 0 63.3221 12.4443 788 106.845 810.707 471.86
479 0 64.3226 12.7949 823 107.492 810.671 468.32
480 0 66.1912 12.3732 819 108.477 810.253 463.949
481 0 71.2519 12.533 893 106.438 809.759 463.488
482 0 74.3399 12.806 952 105.657 810.695 463.971
483 0 75.2155 13.8535 1042 104.227 810.107 464.304
484 0 78.304 12.8346 1005 107.932 810.219 463.216
485 0 80.2377 12.7995 1027 110.779 810.25 461.103
486 0 85.2227 14.2333 1213 105.838 810.728 459.145
487 0 86.1769 12.5672 1083 111.066 811.006 460.995
488 0 90.1568 14.7743 1332 107.405 810.414 459.41
489 0 93.2513 12.7398 1188 112.603 809.74 457.626
490 0 96.0519 12.7535 1225 113.447 809.252 454.487
491 1 50.0529 11.0283 552 114.226 809.188 476.306
492 0 53.0135 12.959 687 109.004 809.622 475.796
493 0 54.0593 13.0042 703 116.183 808.788 476.314
494 0 55.0827 12.5266 690 118.399 808.346 475.419
495 0 55.0324 12.9742 714 117.368 808.36 476.091
496 0 57.0827 13.7169 783 117.3 809.11 473.978
497 0 60.0819 12.0169 722 120.827 809.504 474.507
498 0 58.1074 12.563 730 122.829 809.393 471.579
499 0 63.1046 12.8992 814 120.94 809.391 471.353
500 0 67.1042 12.9351 868 122.369 809.742 470.872
501 0 66.0741 12.8341 848 127.696 809.121 469.304
502 0 67.0681 12.6737 850 127.708 808.789 470.942
503 0 70.0905 12.0701 846 130.492 809.591 468.272
504 0 70.0881 11.9421 837 154.98 810.578 468.41
505 0 74.1866 13.3717 992 128.139 809.383 464.453
506 0 76.2209 12.6999 968 129.105 810.319 459.967
507 0 79.1653 13.1371 1040 126.275 809.673 464.906
508 0 82.1993 13.6376 1121 123.001 809.393 463.097
509 0 83.1209 12.6924 1055 125.815 809.997 461.645
510 0 83.133 13.304 1106 124.388 809.22 460.689
511 0 88.2382 13.1462 1160 122.842 808.883 457.482
512 0 92.1182 12.6685 1167 122.59 809.486 455.835
513 0 97.2118 13.5066 1313 120.007 809.732 454.289
514 0 99.2675 12.28 1219 124.167 809.697 450.751
515 1 51.167 10.2801 526 120.458 810.563 472.884
516 0 55.3345 11.819 654 116.13 810.213 473.148
517 0 56.0809 11.6796 655 119.127 809.166 473.614
518 0 59.1226 11.4677 678 118.782 809.383 473.465
519 0 61.1031 12.6835 775 112.99 809.934 472.605
520 0 63.0989 12.314 777 112.897 809.812 472.829
521 0 65.204 11.0423 720 117.085 809.393 469.935
522 0 67.2075 12.9896 873 113.055 809.727 466.83
523 0 67.3474 11.6114 782 116.331 809.243 467.513
524 0 71.264 12.6993 905 113.709 810.285 464.339
525 0 74.2787 11.9819 890 115.455 809.829 462.222
526 0 75.2261 12.1367 913 115.145 809.524 464.119
527 0 77.3467 12.4892 966 116.71 809.668 460.547
528 0 81.1877 12.4403 1010 118.127 809.686 459.433
529 0 85.2878 12.5575 1071 117.76 810.238 459.933
530 0 87.349 13.6693 1194 118.843 810.186 456.715
531 0 90.183 14.027 1265 118.333 810.749 455.652
532 0 94.3956 13.507 1275 119.395 810.078 454.171
533 0 96.3372 12.1552 1171 122.493 810.324 453.53
534 0 100.22 13.2308 1326 120.198 810.386 451.111
535 1 55.202 11.0141 608 116.919 810.061 473.097
536 0 55.31 11.3 625 115.786 810.056 471.952
537 0 57.1206 10.2765 587 117.055 809.261 474.308
538 0 59.0754 11.3584 671 115.173 809.514 474.149
539 0 63.0548 12.3226 777 113.387 809.429 471.757
540 0 63.1074 11.6151 733 116.037 809.461 470.763
541 0 66.1376 13.4719 891 111.395 809.064 470.128
542 0 68.1714 12.3806 844 110.564 808.624 467.389
543 0 69.1514 12.8125 886 110.664 808.783 465.795
544 0 71.1254 12.0632 858 113.21 808.765 464.51
545 0 75.1111 12.6346 949 112.162 808.843 463.371
546 0 78.1204 13.2104 1032 111.341 808.881 462.328
547 0 80.11 11.9461 957 114.492 808.441 461.214
548 0 84.1621 12.571 1058 112.888 808.875 459.819
549 0 87.1342 12.8423 1119 113.543 808.83 455.766
550 0 91.1916 13.4662 1228 111.545 808.625 455.564
551 0 93.1946 11.4384 1066 115.544 808.869 456.277
552 1 48.0518 9.7395 468 112.299 807.972 478.893
553 0 51.0827 10.2187 522 111.559 807.977 475.686
554 0 55.0842 11.3281 624 111.067 808.08 474.696
555 0 55.0378 11.5375 635 109.688 808.485 475.83
556 0 56.151 11.4691 644 107.036 808.649 473.913
557 0 55.0832 10.7292 591 109.533 808.555 474.096
558 0 59.06 12.1063 715 106.954 809.052 474.032
559 0 61.0927 12.4237 759 106.154 808.984 473.401
560 0 62.1246 11.9276 741 107.281 808.741 472.236
561 0 65.0634 12.3418 803 106.775 809.041 471.088
562 0 66.2383 12.5909 834 107.351 808.821 468.829
563 0 69.0862 11.1889 773 110.023 808.802 469.648
564 0 71.1453 12.5799 895 108.098 809.019 467.94
565 0 72.1033 11.6777 842 112.056 809.167 467.382
566 0 75.1154 12.4741 937 110.11 809.277 467.428
567 0 77.0535 12.5497 967 114.007 808.849 465.183
568 0 79.0674 13.381 1058 113.334 808.645 463.146
569 0 81.0963 11.7391 952 115.997 809.347 463.628
570 0 85.1135 12.1837 1037 114.46 809.326 461.923
571 0 88.1001 12.4631 1098 114.977 810.184 460.397
572 0 90.1185 11.8844 1071 117.946 810.31 458.453
573 1 46.0119 10.9537 504 115.702 811.006 481.272
574 0 47.0356 11.3744 535 116.697 810.75 481.228
575 0 49.1891 10.9171 537 116.514 808.493 480.197
576 0 52.1139 11.6668 608 113.643 808.984 478.645
577 0 52.0289 13.4541 700 110.134 810.886 477.376
578 0 52.0347 12.1265 631 114.67 809.832 476.892
579 0 55.2176 11.8078 652 114.962 809.676 476.704
580 0 56.0154 12.2645 687 114.051 810.297 477.636
581 0 58.0343 12.3892 719 115.264 810.506 475.765
582 0 59.0945 12.5392 741 116.344 810.221 474.969
583 0 60.0674 10.9377 657 122.429 810.184 473.391
584 0 64.0338 13.0556 836 116.411 809.477 472.458
585 0 69.067 13.61 940 114.093 810.164 471.491
586 0 70.1426 13.0591 916 117.319 810.122 470.75
587 0 72.1336 13.6691 986 117.353 809.788 468.647
588 0 74.1397 13.3801 992 117.38 809.832 469.401
589 0 78.0989 13.4957 1054 116.815 810.118 469.499
590 0 79.0728 12.7477 1008 123.079 809.881 465.685
591 0 82.1402 13.3552 1097 122.043 809.741 465.242
592 0 85.1209 13.24 1127 124.017 808.71 463.499
593 1 47.1109 12.0566 568 124.296 808.375 482.033
594 0 48.0409 12.6143 606 122.875 807.96 479.652
595 0 48.0292 12.2634 589 127.591 810.117 481.294
596 0 48.023 11.5153 553 131.078 810.309 482.128
597 0 48.0535 11.5704 556 133.21 810.203 480.245
598 0 52.0393 12.7596 664 129.294 809.649 478.536
599 0 54.0188 12.0884 653 131.525 809.977 477.7
600 0 55.0662 11.4953 633 133.016 810.401 478.662
601 0 58.0573 12.281 713 131.53 810.645 476.78
602 0 59.0878 13.4376 794 127.948 810.131 476.379
603 0 59.0872 12.3885 732 134.388 808.495 472.301
604 0 62.0613 12.9549 804 131.377 810.51 474.327
605 0 65.0265 12.8102 833 129.568 810.089 474.2
606 0 66.0276 12.1767 804 133.303 810.306 471.451
607 0 69.0438 13.8608 957 127.398 810.493 470.706
608 0 72.0541 13.3511 962 128.925 810.395 469.63
609 0 73.0515 13.1003 957 129.714 810.172 468.393
610 0 74.0943 12.4031 919 133.776 810.013 466.258
611 0 79.1033 12.6291 999 131.444 808.55 464.771
612 0 82.0716 12.3307 1012 132.875 808.585 463.61
613 0 84.1413 12.4196 1045 130.644 808.786 463.921
614 1 48.1266 11.8438 570 127.253 808.786 481.349
615 0 49.0569 10.5388 517 131.694 808.671 480.406
616 0 51.0596 12.1035 618 124.77 808.168 480.55
617 0 54.0463 13.5439 732 122.333 810.941 478.354
618 0 54.0531 12.0807 653 128.412 809.671 478.798
619 0 54.0523 11.9884 648 129.566 810.323 477.917
620 0 58.1111 12.9235 751 125.036 809.611 476.262
621 0 60.1154 13.4242 807 123.182 809.356 474.831
622 0 62.2237 13.3068 828 123.797 809.344 473.814
623 0 63.3794 13.9793 886 121.457 808.721 473.718
624 0 65.1922 13.2838 866 123.628 808.64 472.986
625 0 68.1702 13.2903 906 121.848 808.842 472.164
626 0 71.1144 13.4572 957 118.506 808.445 471.134
627 0 71.1645 12.8013 911 120.745 808.566 469.808
628 0 75.1158 12.0081 902 124.716 809.028 454.001
629 0 78.0893 13.6767 1068 117.581 808.72 466.74
630 0 80.1199 13.4923 1081 119.708 807.802 449.644
631 0 82.1768 12.7408 1047 121.21 808.252 449.567
632 0 85.1089 13.8998 1183 117.44 807.99 462.28
633 0 87.1728 12.5039 1090 121.088 808.294 462.339
634 0 90.0837 13.4653 1213 117.326 808.757 460.017
635 0 93.123 13.5412 1261 115.012 808.925 459.386
636 0 97.2038 12.7156 1236 117.362 809.036 456.782
637 1 50.1154 11.8726 595 119.746 810.333 478.061
638 0 53.1592 11.7383 624 119.42 810.811 477.425
639 0 52.0768 12.6736 660 119 809.858 475.877
640 0 56.2434 13.6905 770 112.819 808.966 471.644
641 0 56.1542 12.2164 686 117.768 809.962 474.694
642 0 60.0513 13.605 817 111.209 808.202 476.805
643 0 61.1581 13.0809 800 113.144 807.949 474.783
644 0 63.0889 13.2987 839 113.623 807.718 473.436
645 0 64.0736 13.0475 836 114.8 807.906 473.422
646 0 65.0683 13.9238 906 113.381 808.403 471.536
647 0 67.0406 12.0822 810 119.588 807.902 471.873
648 0 69.0603 13.1045 905 118.815 807.818 469.31
649 0 72.104 13.2448 955 119.352 807.727 469.028
650 0 75.2218 13.8524 1042 117.152 807.808 467.586
651 0 75.0764 13.0534 980 120.12 807.774 468.357
652 0 77.1283 12.2264 943 122.585 808.496 466.346
653 0 80.2115 12.9034 1035 121.011 808.226 463.697
654 0 84.1845 12.627 1063 119.418 808.846 464.119
655 0 88.2193 13.2511 1169 118.146 809.019 464.119
656 0 89.2425 13.1552 1174 119.725 809.338 460.315
657 0 92.2186 12.7957 1180 121.88 808.816 456.609
658 0 95.2263 13.3787 1274 119.887 808.973 455.745
659 0 99.2197 13.586 1348 118.815 808.929 454.392
660 0 101.384 12.5365 1271 123.139 808.932 450.473
661 0 104.349 11.9311 1245 125.61 808.557 450.848
662 1 55.2082 10.56 583 126.578 808.424 474.935
663 0 57.3648 12.4292 713 119.93 809.039 474.942
664 0 58.1005 12.5989 732 120.857 808.693 474.482
665 0 61.0779 12.7051 776 118.906 808.474 472.256
666 0 62.0739 13.4034 832 115.376 808.444 473.772
667 0 66.1069 14.4766 957 113.469 808.307 473.426
668 0 68.0507 14.4598 984 113.6 808.004 472.126
669 0 68.05 13.7252 934 118.503 808.036 470.808
670 0 72.0873 14.8154 1068 114.699 807.853 471.131
671 0 73.1049 13.9115 1017 119.484 807.346 468.626
672 0 76.1196 13.689 1042 120.921 807.485 466.34
673 0 79.0783 14.2011 1123 119.799 807.719 466.261
674 0 81.1222 15.6431 1269 115.685 807.606 464.056
675 0 82.1209 14.0281 1152 122.063 807.859 461.627
676 0 85.1145 14.0282 1194 122.571 807.961 461.634
677 0 88.1463 15.1453 1335 120.012 807.936 460.354
678 0 90.2115 14.5547 1313 122.519 808.024 458.989
679 0 93.0711 14.7629 1374 123.606 807.775 457.405
680 0 95.0779 14.4618 1375 126.157 807.247 456.671
681 0 99.1474 14.2414 1412 126.732 807.135 455.687
682 0 100.144 13.7203 1374 130.225 807.831 453.621
683 0 105.196 14.2877 1503 128.729 807.445 451.085
684 1 55.1038 12.0863 666 124.074 808.368 478.7
685 0 56.1031 12.8513 721 124.942 808.699 478.822
686 0 58.1479 13.1905 767 125.725 809.236 471.879
687 0 61.1513 13.5729 830 122.872 808.849 474.988
688 0 63.0533 13.7979 870 121.772 808.926 474.722
689 0 65.1244 13.2976 866 121.768 808.348 474.97
690 0 65.2286 13.399 874 124.007 808.872 472.664
691 0 69.1786 13.8193 956 122.839 809.322 472.477
692 0 71.1058 14.162 1007 123.929 809.129 469.533
693 0 72.1803 14.1036 1018 123.947 809.201 470.168
694 0 76.2503 14.059 1072 125.025 808.886 467.077
695 0 79.3657 14.6411 1162 123.264 808.633 466.694
696 0 79.1916 13.6504 1081 130.39 809.321 465.059
697 0 82.059 13.7828 1131 130.546 809.793 464.53
698 0 85.1007 14.1244 1202 131.135 809.718 462.455
699 0 88.096 14.4388 1272 130.92 809.355 462.104
700 0 90.2208 14.4313 1302 132.566 809.182 459.777
701 1 45.2598 10.495 475 138.4 809.029 481.139
702 0 48.2139 11.2208 541 134.736 808.834 478.828
703 0 50.0672 13.7216 687 129.389 809.339 480.47
704 0 52.1456 12.35 644 134.852 809.197 479.135
705 0 54.098 12.958 701 133.722 808.439 478.165
706 0 57.1359 12.9691 741 133.167 808.795 475.981
707 0 58.2001 12.5257 729 134.108 808.579 476.79
708 0 60.2713 13.3729 806 133.641 808.454 473.495
709 0 61.249 12.4737 764 136.675 808.527 472.666
710 0 63.293 13.4296 850 134.527 808.575 469.974
711 0 65.134 13.8177 900 135.117 808.279 468.721
712 0 67.1875 13.6037 914 135.984 808.476 468.523
713 0 70.166 13.4538 944 136.984 808.55 467.764
714 0 72.3153 13.7868 997 136.413 808.856 466.313
715 0 74.2247 12.7451 946 140.246 808.555 465.708
716 0 79.0983 13.4643 1065 136.046 808.439 466.388
717 0 80.1846 13.2195 1060 138.713 809.002 462.835
718 0 82.286 13.4774 1109 137.303 808.95 461.904
719 0 85.2344 13.7034 1168 135.936 808.569 460.718
720 0 88.1855 14.6736 1294 134.629 808.471 457.525
721 0 90.103 11.2982 1018 141.942 808.256 459.447
722 0 93.1028 11.9653 1114 140.797 807.824 457.128
723 1 49.0372 11.787 578 131.486 808.543 480.988
724 0 49.0297 10.5038 515 140.384 809.441 480.016
725 0 52.0265 11.5518 601 136.028 809.338 479.802
726 0 52.0378 11.9913 624 127.918 807.782 480.478
727 0 53.023 12.6926 673 125.572 807.473 479.874
728 0 53.0521 12.0071 637 131.383 807.297 478.76
729 0 53.0712 12.6434 671 132.322 807.364 477.592
730 0 56.0749 12.0196 674 131.88 807.524 477.043
731 0 58.0425 12.7837 742 128.907 808.035 476.472
732 0 62.0511 13.2149 820 126.195 808.113 474.063
733 0 63.0885 12.6965 801 127.508 808.022 473.368
734 0 64.0716 11.1906 717 131.637 807.933 472.685
735 0 67.1004 13.3531 896 125.571 807.518 472.478
736 0 70.1107 13.279 931 126.537 808.419 470.599
737 0 71.1672 12.9273 920 126.28 808.07 470.364
738 0 73.066 12.0713 882 128.939 807.885 468.563
739 0 77.0358 13.2666 1022 124.993 807.998 467.454
740 0 80.1912 12.9815 1041 125.841 808.295 464.816
741 0 82.1066 12.9344 1062 125.517 807.712 464.649
742 0 85.1197 12.6293 1075 126.851 807.507 461.738
743 0 89.1553 13.5494 1208 122.545 807.658 460.781
744 0 92.076 13.2282 1218 120.689 808.007 456.922
745 0 95.1367 13.612 1295 122.391 808.164 457.9
746 0 96.1023 13.111 1260 125.343 808.01 456.483
747 0 98.12 13.2389 1299 126.533 807.917 455.256
748 1 51.1786 12.7983 655 121.969 807.652 477.725
749 0 54.1436 12.5223 678 120.581 808.044 480.118
750 0 55.0777 12.673 698 121.393 808.103 477.484
751 0 56.0957 12.9957 729 121.477 808.125 476.524
752 0 59.1814 13.1967 781 120.023 808.219 476.539
753 0 59.1294 13.5973 804 121.386 808.501 475.041
754 0 61.0653 12.7405 778 123.992 808.787 474.326
755 0 61.1066 12.6827 775 125.919 808.617 473.823
756 0 65.1865 13.5764 885 123.528 808.358 472.582
757 0 67.0919 11.9687 803 128.098 808.121 471.336
758 0 70.0537 13.2184 926 124.611 808.229 469.778
759 0 71.1847 13.9918 996 123.04 808.39 467.591
760 0 75.1517 13.7988 1037 123.067 807.779 467.981
761 0 77.1813 12.7622 985 127.11 807.867 465.384
762 0 80.0815 12.787 1024 127.119 808.014 465.75
763 0 81.1124 12.2916 997 130.182 807.674 463.453
764 0 85.1314 13.1326 1118 127.574 808.335 460.32
765 0 86.1463 13.152 1133 127.981 808.337 460.904
766 0 91.1245 13.937 1270 127.041 808.568 458.03
767 1 43.1325 11.9631 516 127.785 807.839 480.318
768 0 47.0586 12.0913 569 125.306 808.344 481.046
769 0 47.142 12.3032 580 123.49 808.131 479.621
770 0 50.1033 12.6938 636 120.311 808.904 477.832
771 0 50.1805 13.2522 665 119.368 809.256 479.162
772 0 52.1391 12.4283 648 121.193 809.42 477.966
773 0 55.163 12.9979 717 119.718 809.389 476.954
774 0 57.1131 12.2214 698 121.993 808.185 476.867
775 0 60.1291 13.4544 809 117.842 808.465 476.242
776 0 60.2393 13.297 801 120.774 808.195 473.627
777 0 63.1491 13.3335 842 120.119 808.831 473.803
778 0 65.147 13.907 906 119.726 808.652 472.906
779 0 68.1434 13.2808 905 122.419 808.397 471.181
780 0 70.1902 14.0475 986 120.589 808.245 469.531
781 0 73.1187 14.9483 1093 118.945 807.665 468.169
782 0 74.111 14.06 1042 122.226 807.507 468.999
783 0 76.1444 13.6451 1039 124.283 807.761 466.323
784 0 76.0935 12.4584 948 128.92 808.071 467.743
785 0 81.129 13.608 1104 125.609 808.369 466.141
786 0 81.1768 13.292 1079 129.057 808.213 463.92
787 0 83.2443 13.3943 1115 129.138 807.901 462.091
788 0 89.1259 12.8582 1146 128.88 807.762 462.692
789 0 89.1166 12.6351 1126 130.749 807.532 460.775
790 0 95.1508 13.589 1293 127.837 808.206 458.168
791 0 98.0847 13.8146 1355 127.689 807.711 456.757
792 1 55.105 12.2856 677 127.873 807.708 478.034
793 0 58.052 13.3157 773 124.67 808.122 477.906
794 0 58.1721 13.4773 784 119.849 808.495 476.101
795 0 60.1092 12.0281 723 131.217 808.805 477.798
796 0 63.1695 13.5508 856 126.605 808.54 474.575
797 0 66.1492 12.5323 829 130.486 808.55 474.06
798 0 69.1235 14.1775 980 126.958 808.454 471.796
799 0 71.2314 14.2353 1014 128.023 808.712 471.811
800 0 73.165 14.2144 1040 129.335 808.442 470.116
801 0 76.1695 13.4962 1028 131.202 808.422 470.294
802 0 79.2489 14.1579 1122 130.533 807.918 468.053
803 0 80.2677 13.3927 1075 135.006 808.609 467.285
804 0 82.3051 12.6967 1045 137.981 808.335 465.137
805 0 85.153 13.4699 1147 135.063 807.727 466.371
806 0 90.3037 14.1855 1281 134.735 807.677 462.054
807 0 92.3496 14.4992 1339 134.202 808.25 461.555
808 0 94.4223 12.8254 1211 139.29 807.712 455.346
809 1 49.2255 11.3153 557 133.661 807.634 480.3
810 0 48.2266 10.8239 522 136.241 807.843 478.977
811 0 53.1579 13.0931 696 129.362 808.559 477.856
812 0 53.072 12.0968 642 127.998 807.114 471.245
813 0 57.1591 13.8386 791 131.828 808.206 474.609
814 0 57.127 14.0739 804 133.2 808.179 476.653
815 0 59.0879 13.7253 811 133.773 808.309 475.436
816 0 60.1637 13.081 787 134.952 808.018 474.991
817 0 64.089 13.0444 836 132.102 808.195 475.855
818 0 66.1385 13.4869 892 132.868 808.128 473.751
819 0 69.099 12.7932 884 133.309 808.328 473.433
820 0 69.094 12.8955 891 150.921 808.339 473.397
821 0 73.0914 12.7512 932 133.77 808.466 468.525
822 0 75.0952 13.1566 988 133.22 807.898 468.283
823 0 76.3119 13.1827 1006 134.415 808.19 465.546
824 0 79.2654 13.5746 1076 133.875 808.343 463.3
825 0 82.2388 14.6038 1201 131.732 808.387 464.09
826 0 85.2816 14.2 1211 133.164 808.499 463.045
827 0 87.142 14.9985 1307 131.13 807.959 462.107
828 0 90.1807 14.3268 1292 133.635 808.68 460.14
829 0 94.2793 15.0404 1418 130.548 808.256 458.193
830 0 95.1946 14.4546 1376 132.79 808.365 456.363
831 0 98.1988 14.5928 1433 128.542 807.551 455.94
832 1 50.151 11.5053 577 133.849 808.083 480.021
833 0 51.2157 12.4376 637 132.209 807.706 475.642
834 0 54.0555 12.4317 672 133.326 807.344 476.225
835 0 55.0528 13.0784 720 132.407 806.726 475.093
836 0 58.0636 12.8996 749 129.21 807.402 475.381
837 0 59.0982 12.3354 729 131.026 807.184 474.909
838 0 61.0934 12.1453 742 127.573 807.295 473.633
839 0 64.0891 12.3266 790 125.258 807.653 473.67
840 0 66.0826 11.1224 735 127.62 807.698 473.365
841 0 68.0681 12.7226 866 124.86 807.245 470.505
842 0 68.1054 11.585 789 128.63 808.046 470.957
843 0 73.0557 13.4555 983 122.71 807.788 469.113
844 0 75.0632 12.7359 956 124.1 808.245 466.113
845 0 78.1097 12.0472 941 125.311 808.532 467.996
846 0 82.173 13.0457 1072 122.516 808.667 464.063
847 0 85.1085 12.9717 1104 121.702 807.898 462.58
848 0 89.1176 13.297 1185 120.137 807.276 460.923
849 0 91.2287 12.7811 1166 120.527 808.02 459.679
850 1 48.0115 11.1432 535 125.991 808.12 481.12
851 0 51.0864 13.3891 684 117.757 808.341 479.374
852 0 52.1731 11.7493 613 124.326 808.284 477.79
853 0 52.2056 12.7956 668 123.211 808.558 478.341
854 0 56.1232 13.4882 757 120.789 808.082 477.067
855 0 57.0878 13.0676 746 121.483 807.918 475.452
856 0 59.1671 12.7267 753 122.012 807.882 475.598
857 0 59.1013 13.8237 817 120.425 808.045 473.469
858 0 61.1233 13.2028 807 121.394 808.081 473.434
859 0 63.1701 12.8383 811 122.71 807.698 470.493
860 0 67.0913 14.4579 970 117.988 807.847 469.205
861 0 69.1551 13.636 943 119.998 807.676 470.544
862 0 71.0351 13.1343 933 120.887 807.397 470.22
863 0 73.1502 13.6842 1001 120.424 807.133 466.997
864 0 76.123 13.8723 1056 120.831 807.009 465.121
865 0 80.0486 15.1783 1215 116.97 807.121 464.431
866 0 82.0778 14.9127 1224 117.678 807.181 463.29
867 1 43.0431 12.1971 525 122.522 807.082 481.958
868 0 45.1217 13.1422 593 119.455 807.086 480.359
869 0 46.092 13.8636 639 117.983 806.836 480.556
870 0 48.0227 13.8476 665 120.089 807.259 479.577
871 0 49.0487 13.089 642 122.508 807.383 479.674
872 0 51.0334 12.9131 659 123.754 807.147 478.366
873 0 52.0615 13.8682 722 122.639 807.231 476.055
874 0 51.0339 12.188 622 129.063 807.103 475.084
875 0 54.03 13.3259 720 126.271 807.657 476.574
876 0 57.1186 14.3561 820 122.595 807.699 474.363
877 0 59.0634 15.2379 900 120.474 807.531 473.038
878 0 59.0684 13.3743 790 127.033 807.384 472.281
879 0 60.0305 14.0928 846 126.453 807.268 471.072
880 0 63.0822 15.0597 950 124.205 807.482 470.899
881 0 66.058 14.9263 986 123.468 807.273 469.644
882 0 69.0847 15.3145 1058 123.387 806.612 467.789
883 0 72.0789 15.8715 1144 120.242 806.913 466.083
884 0 73.1753 14.2808 1045 125.695 807.465 465.688
885 0 74.0743 14.202 1052 125.327 807.465 463.986
886 0 79.1328 14.6968 1163 122.985 807.758 461.926
887 0 82.0636 14.6959 1206 122.193 807.644 462.057
888 0 84.1515 14.4264 1214 123.522 807.63 460.277
889 0 87.0863 13.4464 1171 127.112 807.405 456.794
890 1 42.1107 13.227 557 127.908 807.846 479.264
891 0 44.0175 13.5401 596 125.384 808.302 478.549
892 0 45.0307 14.1681 638 124.154 808.002 477.473
893 0 47.0467 13.5397 637 124.706 808.573 477.03
894 0 49.1025 14.0726 691 122.509 808.75 476.269
895 0 49.1404 13.4716 662 126.086 808.228 474.607
896 0 50.1436 13.6009 682 126.935 808.065 473.609
897 0 51.0923 13.5833 694 126.963 808.474 474.251
898 0 54.1364 14.0386 760 123.524 808.2 474.972
899 0 55.1723 13.5938 750 125.929 807.999 472.696
900 0 56.0875 13.5681 761 127.06 808.085 472.085
901 0 60.1102 13.2756 798 126.783 808.118 470.169
902 0 65.1586 13.5669 884 123.621 807.916 469.497
903 0 64.0671 14.3131 917 123.222 807.567 468.394
904 0 66.1388 13.1541 870 125.503 807.947 467.115
905 0 68.0727 13.8675 944 123.429 806.963 466.953
906 0 74.1773 12.6993 942 124.746 807.447 466.84
907 0 75.1339 14.0283 1054 121.824 807.58 464.299
908 0 74.1526 13.661 1013 125.265 807.116 461.231
909 0 76.1396 13.6066 1036 124.745 807.385 462.745
910 0 79.1006 14.8924 1178 122.146 806.671 456.945
911 0 82.1367 13.9767 1148 123.804 806.895 458.251
912 0 84.0899 13.7353 1155 123.404 807.188 457.392
913 0 88.2126 14.2837 1260 121.721 807.132 454.429
914 0 90.1265 14.8791 1341 121.119 807.545 453.512
915 0 96.0565 13.9397 1339 121.084 807.531 452.545
916 0 101.123 14.1807 1434 120.352 807.34 448.954
917 0 107.123 14.46 1549 118.158 807.152 448.049
918 1 52.1134 11.686 609 120.765 806.992 471.575
919 0 56.0628 12.0936 678 121.432 807.299 471.199
920 0 59.1179 13.9382 824 116.558 808.36 471.916
921 0 62.0205 13.0279 808 116.849 808.189 470.741
922 0 61.0547 11.6944 714 121.898 807.276 466.109
923 0 64.1046 12.1988 782 119.012 806.696 466.875
924 0 66.1248 11.2666 745 122.404 807.172 464.585
925 0 71.0815 12.6756 901 117.562 807.072 462.688
926 0 71.1525 13.2813 945 116.564 807.149 461.905
927 0 74.1011 12.3075 912 119.252 806.422 458.877
928 0 77.1523 12.0022 926 119.759 806.524 454.758
929 0 79.0802 11.5579 914 121.106 807.007 454.48
930 0 85.1165 12.5358 1067 117.349 807.282 452.129
931 0 87.0638 12.0372 1048 118.245 806.677 454.077
932 0 89.1653 11.9441 1065 119.612 807.557 450.081
933 0 93.1475 12.4748 1162 117.039 807.69 449.823
934 0 98.2955 11.5773 1138 119.153 807.606 446.576
935 1 53.0591 10.8747 577 108.929 808.828 473.648
936 0 57.0974 10.9112 623 110.358 807.838 473.157
937 0 58.1553 12.8105 745 106.392 808.395 472.499
938 0 61.0543 12.8738 786 106.198 808.894 471.441
939 0 61.0624 10.7267 655 112.614 808.081 469.663
940 0 63.0828 11.6989 738 111.102 808.827 469.331
941 0 65.0524 11.3755 740 112.474 808.35 468.742
942 0 70.0646 11.7035 820 111.562 808.282 465.949
943 0 74.093 12.6193 935 108.567 808.218 465.041
944 0 75.0793 12.7199 955 109.206 808.15 464.384
945 0 76.1119 12.3897 943 110.844 808.054 464.005
946 0 81.1406 13.3102 1080 107.877 808.23 462.421
947 0 83.1232 13.4138 1115 108.073 808.068 461.073
948 0 84.1137 12.3523 1039 112.118 808.493 459.137
949 0 88.1132 13.0627 1151 112.181 808.337 457.094
950 0 89.0577 12.228 1089 113.703 808.313 459.853
951 0 93.0915 12.8368 1195 112.577 808.368 454.862
952 0 96.1193 13.0879 1258 113.393 808.72 454.459
953 0 97.1609 11.4141 1109 117.616 808.582 453.967
954 0 100.125 12.1048 1212 117.349 807.592 448.742
955 1 54.092 10.4821 567 110.309 808.915 475.198
956 0 56.0411 10.6529 597 107.387 809.142 474.549
957 0 58.1848 10.5526 614 107.305 807.912 475.583
958 0 55.0515 9.0824 500 111.154 807.274 476.11
959 0 57.0913 11.105 634 109.091 807.779 472.844
960 0 60.0896 10.9503 658 108.375 807.954 475.255
961 0 62.0895 10.2111 634 112.629 809.721 473.879
962 0 62.1515 10.9893 683 112.58 809.458 473.003
963 0 65.0373 10.517 684 114.022 810.022 472.193
964 0 70.0858 12.4276 871 110.441 809.879 468.302
965 0 72.0645 12.9884 936 110.325 809.825 467.903
966 0 73.0678 12.4952 913 113.128 809.612 467.083
967 0 75.0572 12.7902 960 113.412 808.916 464.727
968 0 77.0614 12.7042 979 114.609 808.89 465.01
969 0 79.1417 12.9641 1026 114.416 808.776 465.136
970 0 82.183 13.7498 1130 113.198 809.113 463.011
971 0 85.1729 13.138 1119 114.647 808.481 464.014
972 0 86.1325 13.2238 1139 116.561 808.261 461.054
973 0 90.0622 13.6572 1230 116.214 808.67 457.686
974 0 92.1482 13.4132 1236 117.858 808.696 456.583
975 0 96.1394 13.522 1300 118.574 809.317 456.63
976 0 98.1519 13.4689 1322 118.892 809.182 454.43
977 0 98.1841 11.896 1168 124.11 809.171 453.463
978 1 54.1008 11.1643 604 120.543 809.276 474.575
979 0 55.1004 10.7077 590 123.758 808.532 472.534
980 0 59.0676 13.0359 770 121.283 809.077 476.836
981 0 59.1473 11.1586 660 129.38 808.847 475.468
982 0 61.0858 11.754 718 128.772 808.837 475.075
983 0 63.1726 12.3788 782 128.815 808.01 472.588
984 0 65.2121 12.8504 838 126.875 807.881 472.433
985 0 66.092 13.0424 862 127.623 808.119 471.204
986 0 67.1032 11.8921 798 132.721 808.185 470.47
987 0 69.1692 12.7369 881 130.647 807.915 470.141
988 0 72.1155 13.6309 983 128.496 808.492 468.748
989 0 75.1399 13.2286 994 129.605 808.213 468.007
990 0 76.0697 12.5937 958 133.744 807.64 464.994
991 0 81.1131 13.6476 1107 127.518 807.282 465.934
992 0 82.1157 13.6758 1123 130.418 807.441 462.547
993 1 42.0436 10.6794 449 132.822 807.361 482.002
994 0 45.077 12.4232 560 127.523 808.032 480.209
995 0 45.1112 11.5936 523 125.428 808.444 478.319
996 0 47.035 11.1619 525 126.945 807.598 481.17
997 0 49.0377 12.0316 590 124.464 807.766 480.366
998 0 49.0806 12.347 606 124.691 807.66 478.855
999 0 49.0518 12.6601 621 125.551 807.556 477.05
1000 0 52.0393 10.838 564 128.569 807.583 478.445
1001 0 54.1035 11.4965 622 127.09 807.725 477.043
1002 0 56.0685 12.342 692 125.519 807.497 475.578
1003 0 58.0881 12.6704 736 124.802 808.046 475.799
1004 0 59.0423 12.9738 766 124.563 807.732 473.334
1005 0 61.1323 12.3176 753 125.753 807.511 473.471
1006 0 64.0637 12.9402 829 123.846 807.507 472.686
1007 0 64.1118 12.7902 820 123.295 808.015 474.354
1008 0 67.0766 12.5528 842 124.034 807.678 472.666
1009 0 69.1097 12.8347 887 124.253 807.059 469.345
1010 0 72.1489 12.8207 925 123.45 807.693 469.311
1011 0 75.1072 13.6072 1022 121.575 807.591 468.131
1012 0 75.1325 12.9105 970 124.36 807.438 465.938
1013 0 79.1483 13.4305 1063 123.151 807.679 465.432
1014 0 80.0885 12.2614 982 126.706 807.658 463.409
1015 0 85.0468 12.9223 1099 124.759 807.558 461.362
1016 0 87.1225 12.6718 1104 124.858 807.438 461.342
1017 0 89.1262 11.3883 1015 128.102 808.436 461.95
1018 1 47.199 12.6486 597 125.064 808.347 480.432
1019 0 48.0841 12.6861 610 125.285 808.1 478.331
1020 0 50.044 11.6298 582 130.875 807.875 478.383
1021 0 52.1109 12.8764 671 126.535 808.514 478.04
1022 0 53.072 12.7939 679 128.89 808.639 476.108
1023 0 55.0897 13.0877 721 127.549 809.234 475.222
1024 0 57.0835 12.3153 703 130.727 808.711 475.515
1025 0 58.0857 12.9292 751 129.188 808.413 473.752
1026 0 60.0327 12.1434 729 131.502 808.322 473.68
1027 0 63.1193 12.5794 794 131.467 808.063 472.222
1028 0 64.0989 12.3715 793 133.343 807.955 470.822
1029 0 65.1463 13.0782 852 131.44 807.178 469.392
1030 0 70.0983 12.5538 880 132.368 807.609 468.902
1031 0 71.1271 13.1736 937 131.936 807.812 467.507
1032 0 75.2537 13.5409 1019 129.391 807.986 467.158
1033 0 78.2374 13.3312 1043 131.555 807.617 464.594
1034 0 82.2317 13.5106 1111 129.896 807.164 464.862
1035 0 84.3514 14.1076 1190 129.792 807.445 462.542
1036 0 85.2063 12.6164 1075 134.802 808.193 462.485
1037 0 92.2135 14.2387 1313 128.924 808.32 460.047
1038 1 46.0877 11.413 526 131.011 808.627 481.397
1039 0 46.022 12.5158 576 131.45 807.852 479.398
1040 0 48.0556 12.3191 592 130.519 806.701 478.605
1041 0 52.0204 13.2064 687 126.52 809.07 478.258
1042 0 52.0269 13.3392 694 127.706 809.264 477.112
1043 0 55.0416 13.299 732 127.085 808.911 477.352
1044 0 56.0278 13.7789 772 126.175 809.21 477.334
1045 0 57.0302 13.5367 772 127.519 809.223 475.219
1046 0 59.0943 13.2162 781 127.411 809.175 474.679
1047 0 60.0619 12.8367 771 131.431 808.559 472.613
1048 0 63.1303 12.9573 818 129.357 808.087 473.641
1049 0 66.0746 13.3788 884 129.408 808.279 470.529
1050 0 69.1561 13.8383 957 127.659 807.958 470.055
1051 0 72.1117 13.6039 981 126.89 808.833 469.719
1052 0 74.1185 13.1006 971 128.793 808.433 469.06
1053 0 76.1125 14.0844 1072 126.951 809.115 465.949
1054 0 79.1325 12.814 1014 129.873 809.034 466.877
1055 0 81.1481 13.4815 1094 128.431 808.562 464.11
1056 1 42.1051 11.685 492 127.301 809.205 481.933
1057 0 43.0219 11.2501 484 128.899 808.308 481.851
1058 0 44.048 12.5545 553 123.459 807.656 480.533
1059 0 45.0791 11.8015 532 128.056 807.335 479.382
1060 0 49.0361 12.9293 634 124.199 807.044 479.938
1061 0 50.0689 13.7011 686 122.303 807.082 478.452
1062 0 51.0677 12.6695 647 124.456 807.652 478.819
1063 0 52.0398 11.8371 616 128.003 807.896 478.071
1064 0 55.1303 12.0442 664 126.184 809.063 477.994
1065 0 54.1257 13.3208 721 124.845 808.616 476.62
1066 0 57.1 12.9247 738 124.526 808.535 475.515
1067 0 59.1159 14.2601 843 121.813 809.028 474.51
1068 0 60.097 13.4283 807 125.01 808.393 472.483
1069 0 60.1167 12.5589 755 128.179 807.882 473.58
1070 0 64.1121 13.9287 893 123.733 808.42 471.608
1071 0 67.072 13.493 905 124.572 808.104 470.801
1072 0 68.2125 12.1239 827 128.798 808.249 469.195
1073 0 71.1312 14.8177 1054 122.071 808.454 468.835
1074 0 72.1512 14.137 1020 126.366 807.816 466.661
1075 0 74.08 12.797 948 129.993 807.67 466.909
1076 0 78.1171 14.2222 1111 125.087 807.899 464.373
1077 0 80.1149 13.4058 1074 127.034 807.785 464.514
1078 0 83.0469 13.5586 1126 125.47 807.669 461.972
1079 0 86.1009 13.3796 1152 125.968 807.731 461.104
1080 0 87.122 13.8771 1209 125.782 808.367 458.423
1081 1 48.0611 12.4841 600 122.402 807.797 480.65
1082 0 48.0707 10.9838 528 126.911 807.572 480.201
1083 0 52.0343 13.395 697 115.968 807.463 476.653
1084 0 55.1381 14.2007 783 111.554 807.893 478.207
1085 0 54.0444 13.2669 717 117.573 807.304 476.891
1086 0 54.0745 13.4814 729 118.166 808.085 476.663
1087 0 59.0601 14.6292 864 112.718 807.812 474.968
1088 0 60.0492 13.7554 826 115.527 807.482 474.662
1089 0 62.1109 14.0877 875 114.638 807.819 474.664
1090 0 64.0561 14.7683 946 113.469 807.564 472.326
1091 0 67.0249 13.8158 926 115.683 808.286 471.629
1092 0 68.0562 14.5909 993 114.891 808.051 469.113
1093 0 70.0341 14.1074 988 116.868 807.654 467.334
1094 0 74.0386 13.7361 1017 116.139 807.606 467.245
1095 0 74.1087 13.4262 995 118.003 806.932 466.452
1096 0 78.0237 14.5725 1137 114.545 807.321 464.259
1097 1 37.0119 10.2129 378 124.918 807.291 483.151
1098 0 40.0239 12.3926 496 119.212 807.31 483.159
1099 0 42.024 12.8974 542 118.334 807.537 482.851
1100 0 43.0267 11.8299 509 121.358 807.073 481.87
1101 0 44.0838 12.5443 553 120.828 806.884 478.948
1102 0 45.0345 12.8346 578 120.284 807.133 480.01
1103 0 47.0259 13.9497 656 117.233 807.345 479.162
1104 0 48.0546 13.4847 648 118.653 807.798 478.563
1105 0 49.0339 12.889 632 120.892 807.672 479.04
1106 0 50.0125 13.0367 652 120.302 807.807 478.917
1107 0 53.0305 14.0297 744 118.109 807.319 477.173
1108 0 54.0214 13.254 716 120.584 807.665 477.944
1109 0 57.1325 13.2849 759 120.83 807.078 475.522
1110 0 58.0228 14.4426 838 118.134 807.22 474.669
1111 0 61.0743 15.2765 933 115.972 807.507 472.819
1112 0 63.055 14.4318 910 118.351 807.198 472.488
1113 0 65.0608 14.7247 958 118.505 806.71 471.17
1114 0 67.0618 13.8529 929 120.853 806.988 470.624
1115 0 69.0397 14.0933 973 121.47 806.842 469.573
1116 0 71.1124 14.2591 1014 121.661 806.7 466.772
1117 0 75.0559 13.5632 1018 122 807.327 467.309
1118 0 76.0987 13.8636 1055 123.472 807.426 464.837
1119 0 79.1461 13.2287 1047 123.196 807.322 461.711
1120 0 82.1416 13.6228 1119 117.456 808.158 463.649
1121 0 84.1201 13.5045 1136 118.495 807.379 461.915
1122 1 44.0282 13.128 578 120.974 806.913 481.995
1123 0 47.029 12.7794 601 121.547 807.275 480.161
1124 0 48.0209 13.2442 636 121.778 807.36 480.563
1125 0 50.0392 14.4487 723 118.519 807.849 480.609
1126 0 50.0429 12.9289 647 123.352 807.645 480.314
1127 0 52.0137 13.4772 701 121.491 807.542 478.835
1128 0 53.0226 13.2208 701 123.417 807.419 477.167
1129 0 53.0835 13.6954 727 124.059 807.838 476.714
1130 0 60.1216 14.4041 866 118.448 808.009 474.904
1131 0 62.0405 15.1353 939 116.764 808.064 474.927
1132 0 63.0346 14.8014 933 118.458 808.332 473.511
1133 0 64.0805 14.3257 918 121.478 808.636 472.388
1134 0 67.0674 13.7474 922 121.924 808.036 473.225
1135 0 70.0184 13.7678 964 121.649 808.111 470.335
1136 0 73.0411 13.7457 1004 121.407 807.909 469.397
1137 0 75.0741 14.0794 1057 120.874 807.913 467.24
1138 0 79.1426 15.4784 1225 116.683 807.772 466.118
1139 0 81.0635 14.8772 1206 118.649 808.164 465.08
1140 0 85.0917 13.8556 1179 120.303 808.28 463.354
1141 0 87.1849 14.5323 1267 118.758 808.061 462.335
1142 0 90.1003 13.2297 1192 122.159 807.766 460.525
1143 0 94.1387 14.8823 1401 117.332 808.464 459.954
1144 1 47.1312 11.3937 537 126.719 807.451 480.842
1145 0 47.0466 11.6268 547 127.684 808.069 477.616
1146 0 50.0933 13.6945 686 122.964 808.13 475.44
1147 0 52.0416 12.8359 668 125.82 807.058 475.605
1148 0 54.0291 12.7339 688 125.887 806.397 475.384
1149 0 55.0649 12.8939 710 125.572 805.858 476.017
1150 0 57.096 14.3618 820 122.162 805.894 472.755
1151 0 61.0237 13.3555 815 122.804 805.68 472.607
1152 0 62.051 13.0216 808 124.256 806.458 471.691
1153 0 64.0589 14.034 899 122.034 806.352 468.503
1154 0 67.0405 13.1711 883 123.644 806.206 469.894
1155 0 70.0465 13.7623 964 122.866 806.224 468.11
1156 0 70.0688 14.6428 1026 121.8 805.905 468.135
1157 0 72.0518 13.8511 998 123.379 806.752 464.958
1158 0 75.1142 12.3013 924 126.893 806.46 465.132
1159 0 78.0223 13.7397 1072 125.172 806.534 463.49
1160 0 79.0883 13.3522 1056 128.086 806.225 460.278
1161 0 84.0401 13.0771 1099 127.939 806.899 461.494
1162 0 84.0827 13.9743 1175 124.72 807.078 460.952
1163 0 86.0813 13.2665 1142 127.333 806.929 461.138
1164 0 89.1105 13.9826 1246 123.823 807.304 461.194
1165 0 92.1881 13.4074 1236 125.896 807.214 459.198
1166 0 94.0974 12.9865 1222 127.124 807.784 458.004
1167 0 98.1384 13.3791 1313 125.037 806.88 455.818
1168 0 101.126 13.7947 1395 124.93 807.49 452.06
1169 0 104.167 12.1056 1261 128.935 806.358 450.979
1170 0 108.259 12.738 1379 127.438 807.43 448.188
1171 0 113.168 13.5021 1528 124.198 806.944 447.022
1172 1 59.0719 12.7133 751 126.923 807.316 471.519
1173 0 62.0838 13.4496 835 125.804 807.422 470.753
1174 0 64.1061 14.2108 911 123.738 807.44 470.171
1175 0 65.1284 13.7574 896 123.797 807.105 469.792
1176 0 69.1141 13.8033 954 123.211 806.463 469.017
1177 0 70.062 13.3596 936 125.326 806.6 468.278
1178 0 72.2211 14.2618 1030 123.05 806.887 466.242
1179 0 77.177 14.8101 1143 121.066 806.923 464.007
1180 0 76.0977 12.5759 957 129.614 807.379 463.23
1181 0 80.1169 14.0669 1127 125.308 807.28 460.904
1182 0 83.1157 14.2693 1186 123.772 807.121 458.414
1183 0 84.084 14.4379 1214 124.911 806.877 459.708
1184 0 88.1922 14.4344 1273 124.929 807.337 454.165
1185 0 92.0994 14.2455 1312 125.711 807.553 453.661
1186 0 96.2111 14.5825 1403 124.825 807.515 452.454
1187 0 100.116 14.9927 1501 123.131 807.475 451.139
1188 0 104.181 15.214 1585 122.01 807.241 450.079
1189 0 107.179 14.1259 1514 125.418 807.023 448.413
1190 1 55.0702 12.8563 708 126.466 807.116 474.071
1191 0 57.1035 12.8539 734 129.042 807.071 470.484
1192 0 59.1091 12.7899 756 129.398 807.202 471.411
1193 0 61.1297 13.3977 819 128.393 807.973 471.813
1194 0 66.2435 13.858 918 126.605 807.902 469.851
1195 0 67.1731 13.6662 918 128.222 807.656 468.669
1196 0 69.1736 13.8348 957 126.434 808.183 468.562
1197 0 71.2258 12.9307 921 130.349 807.934 466.49
1198 0 72.1524 13.9843 1009 128.869 808.631 465.567
1199 0 77.1517 14.5428 1122 125.28 808.455 464.067
1200 0 78.2317 12.9615 1014 129.532 808.042 464.321
1201 0 83.1936 14.1477 1177 123.962 807.648 463.656
1202 0 83.1276 13.6297 1133 128.432 807.575 460.7
1203 0 87.1519 13.6887 1193 128.786 807.35 456.865
1204 0 91.277 14.4724 1321 127.17 807.403 455.198
1205 0 92.1983 13.4276 1238 131.581 807.027 453.466
1206 1 46.0833 13.3671 616 134.471 807.375 475.724
1207 0 46.0786 13.3685 616 150.239 808.398 475.687
1208 0 49.0783 12.8978 633 136.61 807.848 475.706
1209 0 51.1149 12.8338 656 136.698 807.521 475.335
1210 0 54.1787 14.2491 772 131.376 807.655 474.067
1211 0 56.0988 14.1536 794 132.603 807.601 472.767
1212 0 58.2674 13.7641 802 132.792 807.339 471.507
1213 0 60.1689 13.9441 839 132.172 807.959 470.563
1214 0 61.1907 14.7898 905 130.376 807.392 469.371
1215 0 64.3582 14.8699 957 128.72 807.189 467.48
1216 0 65.2499 13.7931 900 130.927 807.696 466.964
1217 0 67.4 14.3323 966 128.492 807.674 467.049
1218 0 71.2861 15.2344 1086 123.398 807.569 465.215
1219 0 73.3554 15.5544 1141 122.342 807.323 465.321
1220 0 74.1782 13.899 1031 128.082 808.199 464.262
1221 0 78.1529 14.1645 1107 126.446 808.12 462.953
1222 0 79.2399 14.2984 1133 127.273 807.651 461.339
1223 0 83.2732 15.1669 1263 122.508 807.643 460.536
1224 0 84.3863 13.1301 1108 126.762 807.449 460.455
1225 1 47.1795 12.2299 577 131.66 807.274 477.685
1226 0 48.235 13.4342 648 128.46 807.463 477.36
1227 0 48.232 14.4717 698 127.941 808.085 476.822
1228 0 51.3983 14.2806 734 127.116 807.924 475.565
1229 0 54.2156 15.3092 830 124.245 807.217 474.782
1230 0 54.0949 15.251 825 125.587 807.903 473.705
1231 0 56.3051 14.8122 834 124.21 807.469 473.801
1232 0 58.2276 15.1818 884 123.362 807.45 472.938
1233 0 60.2493 14.8715 896 124.746 807.921 471.712
1234 0 62.2887 14.7057 916 125.329 807.697 471.753
1235 0 64.356 14.8083 953 125.826 808.137 470.975
1236 0 69.1845 14.1361 978 124.636 807.259 470.684
1237 0 69.3455 15.1271 1049 123.448 806.856 469.047
1238 0 70.108 14.6916 1030 127.256 806.814 467.405
1239 0 70.2378 14.1662 995 131.495 807.055 466.886
1240 0 75.2726 16.128 1214 124.22 806.637 466.075
1241 0 78.1679 14.6991 1149 128.416 806.512 464.951
1242 0 80.1314 15.2999 1226 127.392 806.594 463.732
1243 0 82.2506 14.4923 1192 130.735 806.693 461.541
1244 0 86.1807 15.3747 1325 126.928 806.811 460.877
1245 0 90.1664 15.3827 1387 125.937 806.944 459.88
1246 0 93.2348 15.0587 1404 127.88 806.962 457.474
1247 1 47.0599 13.8972 654 131.751 806.873 476.953
1248 0 49.0812 13.3045 653 131.761 806.629 475.332
1249 0 50.0287 14.0719 704 131.783 807.196 472.838
1250 0 50.0531 13.6455 683 132.662 806.445 473.066
1251 0 54.0832 14.3668 777 128.596 806.082 472.613
1252 0 54.0812 12.7031 687 133.79 807.111 473.102
1253 0 58.0294 13.1657 764 131.284 806.662 472.603
1254 0 59.0282 13.7731 813 129.103 806.996 473.394
1255 0 63.0544 13.9879 882 127.443 807.875 471.466
1256 0 64.0922 13.1061 840 130.756 807.749 470.34
1257 0 68.0988 13.7007 933 128.327 807.469 469.054
1258 0 69.1219 14.8578 1027 126.019 807.231 468.797
1259 0 73.1202 14.6334 1070 126.05 807.034 464.657
1260 0 75.2093 14.2536 1072 126.96 807.175 464.217
1261 0 79.0915 13.2884 1051 128.816 807.848 464.686
1262 0 79.2078 14.14 1120 128.496 807.587 461.193
1263 0 83.1776 13.7297 1142 129.153 807.477 459.465
1264 0 86.1761 13.7741 1187 129.319 807.468 456.746
1265 1 46.0436 10.8593 500 122.65 808.762 478.602
1266 0 47.0189 12.697 597 117.466 807.405 477.183
1267 0 47.017 12.7188 598 125.672 806.42 477.142
1268 0 48.0395 11.8236 568 117.387 807.099 477.671
1269 0 49.0486 10.9891 539 119.334 807.228 477.26
1270 0 52.0688 12.1378 632 116.587 806.361 474.704
1271 0 54.0937 11.5355 624 118.462 806.534 472.862
1272 0 57.0745 11.5463 659 118.375 805.64 472.404
1273 0 59.091 12.2861 726 116.303 806.234 472.153
1274 0 61.161 11.7068 716 118.626 807.02 470.811
1275 0 63.1256 11.089 700 120.44 806.54 468.88
1276 0 64.1641 11.5797 743 118.654 806.308 469.571
1277 0 68.1098 11.2319 765 119.882 806.728 466.135
1278 0 70.1819 11.4844 806 118.959 806.298 465.661
1279 0 73.1333 11.6226 850 118.824 806.267 466.008
1280 0 75.2503 11.0963 835 119.969 806.673 465.904
1281 0 80.2294 11.7039 939 119.059 806.703 463.132
1282 0 81.2284 12.7665 1037 117.665 807.243 459.215
1283 0 83.2221 12.0521 1003 119.456 807.285 459.261
1284 0 87.0753 11.5073 1002 119.669 806.908 457.644
1285 0 88.1388 10.8806 959 123.872 806.701 452.569
1286 0 93.2003 11.3734 1060 120.783 806.357 453.95
1287 1 49.0381 9.93105 487 117.314 805.897 470.63
1288 0 50.0216 8.87616 444 118.495 805.595 471.088
1289 0 53.0164 9.56307 507 121.12 805.706 471.489
1290 0 57.0873 11.0708 632 117.451 806.005 471.415
1291 0 60.0415 12.4747 749 112.959 805.809 469.85
1292 0 60.0818 11.035 663 118.113 805.896 468.388
1293 0 62.0413 11.7502 729 114.826 805.842 469.244
1294 0 62.0425 11.6855 725 130.434 805.841 469.257
1295 0 66.0662 11.988 792 114.316 805.823 465.335
1296 0 65.0652 11.3578 739 118.756 806.261 464.955
1297 0 68.1666 11.736 800 117.68 806.095 465.839
1298 0 72.2038 12.2154 882 114.467 805.913 467.774
1299 0 73.1216 12.3219 901 116.471 806.089 463.152
1300 0 78.1622 11.7704 920 116.601 805.864 462.985
1301 0 78.1591 11.3231 885 116.821 806.106 462.514
1302 0 83.1228 11.7056 973 114.434 806.288 460.343
1303 1 37.081 9.30397 345 109.78 806.278 479.325
1304 0 37.0202 8.29278 307 109.537 805.906 479.127
1305 0 41.0195 11.7261 481 111.877 805.231 481.38
1306 0 40.0565 9.96092 399 111.857 806.228 482.401
1307 0 42.0082 8.99825 378 111.651 805.704 483.442
1308 0 44.0361 10.9229 481 107.462 806.087 482.395
1309 0 45.0999 11.3747 513 108.417 806.887 481.4
1310 0 45.0067 10.8428 488 111.154 806.27 479.775
1311 0 49.0579 11.9451 586 106.894 806.2 479.52
1312 0 48.1323 10.762 518 110.919 806.357 479.645
1313 0 50.0768 11.5023 576 108.717 805.753 478.177
1314 0 51.0888 11.1766 571 110.804 805.799 477.299
1315 0 53.0673 11.5891 615 110.059 805.363 477.784
1316 0 56.0953 12.6214 708 107.054 806.355 476.186
1317 0 56.0675 12.0212 674 109.328 806.138 474.733
1318 0 58.0836 11.7589 683 109.687 805.984 473.799
1319 0 62.0573 12.4562 773 106.594 806.439 473.686
1320 0 63.0721 12.7949 807 107.031 805.546 470.528
1321 0 65.1241 12.1921 794 108.858 806.229 470.953
1322 0 68.1143 12.5671 856 107.598 806.318 469.002
1323 0 69.1787 11.8967 823 109.053 806.035 467.535
1324 0 73.106 13.2958 972 105.779 806.621 465.872
1325 0 74.1457 12.3271 914 109.187 806.244 465.445
1326 0 79.155 13.3156 1054 106.501 806.338 463.673
1327 0 79.079 12.5444 992 110.064 806.469 463.614
1328 0 84.2896 11.5198 971 120.053 806.525 463.171
1329 1 42.0863 10.8111 455 114.541 806 482.736
1330 0 44.0603 12.4375 548 111.073 806.442 481.197
1331 0 43.2799 11.4141 494 110.231 806.745 478.854
1332 0 46.0498 12.8557 592 112.03 805.525 480.63
1333 0 45.0504 11.2319 506 111.818 805.304 480.828
1334 0 47.0865 10.7674 507 112.29 805.572 479.264
1335 0 48.0866 10.0028 481 114.699 805.541 478.85
1336 0 50.042 11.3505 568 111.169 805.452 478.785
1337 0 51.0711 10.4952 536 113.743 805.744 477.864
1338 0 52.0642 10.756 560 113.298 806.127 476.404
1339 0 56.1219 12.0096 674 108.42 806.22 476.8
1340 0 58.0552 11.1962 650 112.257 806.463 475.574
1341 0 56.1148 11.1735 627 113.26 806.038 473.59
1342 0 61.1071 12.3717 756 109.591 806.168 473.29
1343 0 63.1159 11.471 724 112.338 806.45 473.649
1344 0 66.1701 12.0749 799 112.031 806.478 470.297
1345 0 68.1318 11.8741 809 113.063 806.544 469.231
1346 0 70.0664 11.8459 830 113.027 806.496 468.427
1347 0 73.0868 10.9048 797 114.568 805.885 467.258
1348 0 75.0886 12.4919 938 112.859 806.513 465.867
1349 1 41.0536 11.4728 471 117.106 805.826 480.49
1350 0 41.0517 11.1567 458 118.507 806.624 481.762
1351 0 44.2117 11.8294 523 118.199 807.394 475.75
1352 0 44.0447 10.8753 479 119.841 806.056 475.342
1353 0 45.0318 12.0803 544 116.903 806.517 475.987
1354 0 45.0854 10.8683 490 121.139 805.859 475.89
1355 0 48.0757 11.2531 541 119.031 805.42 474.628
1356 0 48.0377 11.1371 535 119.553 805.763 474.482
1357 0 51.0732 12.1786 622 116.474 805.836 472.506
1358 0 51.0202 11.564 590 118.566 806.21 473.014
1359 0 51.0202 11.6816 596 137.532 806.191 472.995
1360 0 55.1545 12.5647 693 115.851 805.524 468.723
1361 0 56.0275 12.2083 684 116.013 804.753 469.037
1362 0 57.0227 11.9952 684 116.469 805.329 469.472
1363 0 60.0177 11.4799 689 117.395 805.062 467.361
1364 0 63.0733 11.7641 742 116.594 805.236 467.495
1365 0 65.0412 12.592 819 116.531 805.397 469.525
1366 0 68.105 13.1708 897 116.173 805.923 467.589
1367 0 71.1387 13.3682 951 115.789 806.094 465.577
1368 0 74.2683 13.2223 982 116.803 805.92 467.075
1369 0 77.219 12.7041 981 118.082 806.292 465.382
1370 0 79.2163 14.6561 1161 109.014 805.862 464.296
1371 0 79.1939 12.9808 1028 120.612 806.491 462.106
1372 1 44.1535 10.3503 457 120.374 806.81 480.667
1373 0 47.2091 12.5823 594 111.599 807.315 479.283
1374 0 46.16 11.6984 540 110.237 807.17 469.302
1375 0 47.1727 11.3413 535 111.45 806.877 466.082
1376 0 52.1205 11.8763 619 109.635 806.674 479.216
1377 0 53.0659 13.2665 704 107.327 806.251 478.406
1378 0 54.1514 13.1483 712 107.646 806.458 478.258
1379 0 55.1142 12.9731 715 109.799 806.636 477.043
1380 0 56.0998 12.246 687 110.834 807.231 476.624
1381 0 57.1941 11.9942 686 112.332 807.181 476.347
1382 0 60.215 13.1529 792 109.33 807.563 474.727
1383 0 61.251 13.1916 808 110.306 806.574 474.004
1384 0 63.241 13.0295 824 110.32 806.865 471.266
1385 0 65.2842 12.5298 818 112.366 806.96 469.793
1386 0 67.2452 12.0603 811 113.355 807.218 470.889
1387 0 70.4264 12.7367 897 111.225 807.764 466.362
1388 0 71.1945 12.6695 902 115.22 807.395 465.904
1389 0 75.2624 12.9148 972 113.677 807.116 465.765
1390 0 77.3512 13.29 1028 112.9 808.209 464.016
1391 0 80.3812 12.8139 1030 115.249 806.759 462.152
1392 0 84.3259 14.2424 1201 111.216 806.658 460.436
1393 0 85.2711 13.9907 1193 112.666 806.634 457.812
1394 0 88.2948 12.7414 1125 116.786 806.753 457.7
1395 1 48.252 11.3363 547 114.601 806.263 477.068
1396 0 46.0424 10.3166 475 114.021 805.461 476.103
1397 0 50.0587 11.4466 573 116.112 805.274 476.93
1398 0 51.0299 12.1105 618 114.44 804.783 476.828
1399 0 52.065 11.6393 606 117.685 804.838 474.182
1400 0 53.0355 10.9738 582 118.629 804.677 474.095
1401 0 55.0674 13.0204 717 114.365 805.155 473.006
1402 0 58.0942 13.1338 763 114.431 805.488 472.385
1403 0 60.1003 12.0798 726 115.994 804.983 472.182
1404 0 62.0623 12.6325 784 115.999 804.977 469.61
1405 0 63.1318 12.4818 788 116.879 804.566 468.412
1406 0 65.1014 11.4744 747 119.392 804.422 467.427
1407 0 67.0659 11.6453 781 118.595 804.816 468.074
1408 0 70.1103 12.8512 901 115.25 804.602 466.416
1409 0 73.0791 11.8365 865 117.951 804.412 462.655
1410 0 73.0916 11.6977 855 119.599 804.626 461.704
1411 0 75.0575 12.9234 970 116.999 805.011 459.264
1412 0 79.0711 12.8492 1016 116.948 804.64 458.155
1413 0 83.0487 13.4018 1113 115.408 804.782 457.264
1414 0 85.091 12.7863 1088 117.065 804.655 457.252
1415 1 44.0305 9.97036 439 113.572 804.87 476.59
1416 0 45.0733 10.2056 460 115.793 805.141 474.47
1417 0 43.0336 8.2726 356 120.893 804.865 471.483
1418 0 46.017 9.90938 456 116.772 804.002 469.811
1419 0 49.1283 11.8058 580 111.326 804.188 470.614
1420 0 49.0613 11.8627 582 113.21 804.632 467.756
1421 0 50.0628 11.7053 586 115.386 804.7 467.425
1422 0 52.0729 11.5415 601 114.89 804.383 466.885
1423 0 55.0837 12.0544 664 113.456 804.675 467.574
1424 0 59.148 12.6124 746 114.395 805.016 469.387
1425 0 61.1488 12.2161 747 117.696 805.692 470.316
1426 0 63.1735 12.4894 789 116.412 806.592 469.08
1427 0 65.1639 12.0772 787 117.814 806.197 467.793
1428 0 66.2112 11.5992 768 119.443 806.014 467.378
1429 0 70.3409 13.136 924 114.802 806.218 465.995
1430 0 72.2166 14.1796 1024 112.128 806.255 464.234
1431 0 74.1775 13.6699 1014 114.105 806.551 462.41
1432 0 75.1465 12.5355 942 117.185 806.297 461.515
1433 0 78.1493 13.2439 1035 115.353 806.36 460.553
1434 0 81.1391 13.1256 1065 115.926 806.339 458.309
1435 0 83.1711 11.6627 970 120.176 806.666 457.165
1436 0 86.4337 12.8306 1109 117 807.313 452.648
1437 1 42.0224 10.0423 422 112.09 806.135 478.057
1438 0 44.046 10.6253 468 111.09 806.252 478.635
1439 0 45.0621 10.9183 492 111.106 805.917 476.276
1440 0 47.0187 12.2079 574 106.946 806.267 475.202
1441 0 48.0234 12.015 577 110.127 806.269 476.229
1442 0 48.0308 11.1179 534 113.498 805.747 475.021
1443 0 48.0282 11.4724 551 114.987 805.612 471.924
1444 0 50.1724 11.0419 554 115.904 805.89 473.419
1445 0 53.0601 10.5541 560 117.082 805.873 473.145
1446 0 54.0403 11.991 648 113.66 805.745 472.366
1447 0 55.0597 12.3321 679 112.866 806.124 472.234
1448 0 57.0228 12.9773 740 112.753 807.023 471.501
1449 0 58.114 11.9076 692 114.708 806.658 470.442
1450 0 60.0921 11.8984 715 114.222 806.417 470.769
1451 0 62.0455 10.7985 670 116.333 806.679 472.007
1452 0 62.0455 10.7018 664 140.592 806.673 472.05
1453 0 67.1123 12.2779 824 112.442 806.998 468.825
1454 0 69.0824 12.9411 894 111.213 806.605 468.54
1455 0 69.1359 12.0777 835 113.669 807.096 465.824
1456 0 75.1201 13.2188 993 109.137 806.846 465.752
1457 0 76.218 12.3462 941 111.544 807.003 463.206
1458 0 80.2556 13.2452 1063 108.697 807.149 462.799
1459 0 84.3223 13.1994 1113 108.649 807.406 459.535
1460 0 87.3224 13.0894 1143 108.599 807.047 457.622
1461 0 88.1512 13.1252 1157 107.594 807.373 458.043
1462 0 92.0928 13.0195 1199 105.421 806.487 454.626
1463 1 47.0282 12.6307 594 109.375 806.158 476.46
1464 0 48.0182 10.7876 518 113.569 805.919 476.388
1465 0 48.0628 11.4642 551 113.16 806.421 475.298
1466 0 51.0757 11.4732 586 111.038 806.398 475.49
1467 0 51.0575 12.437 635 109.953 806.129 474.498
1468 0 54.0979 12.3295 667 108.354 805.711 475.345
1469 0 53.0451 11.198 594 94.1195 806.588 472.379
1470 0 54.1055 12.4571 674 109.685 806.547 474.763
1471 0 58.0192 11.8754 689 109.761 806.936 473.521
1472 0 57.142 12.3377 705 111.04 806.56 471.447
1473 0 60.1436 12.3039 740 111.174 806.651 470.895
1474 0 60.0323 12.4933 750 111.993 806.34 468.975
1475 0 65.0802 12.6459 823 110.101 806.396 468.903
1476 0 65.0533 11.6827 760 114.496 806.65 468.821
1477 0 68.0644 11.5773 788 114.071 806.72 468.66
1478 0 70.0495 12.7767 895 112.941 806.819 466.801
1479 0 70.0657 12.5026 876 113.991 806.76 465.355
1480 0 73.1054 12.1469 888 115.4 806.584 465.437
1481 0 77.0844 13.2582 1022 113.596 805.949 464.396
1482 0 79.0429 12.8664 1017 115.11 805.901 463.145
1483 0 81.1379 12.3 998 117.976 805.87 461.626
1484 0 84.0862 14.0332 1180 114.197 805.871 460.128
1485 0 85.0739 13.2591 1128 117.846 806.227 459.754
1486 0 89.0897 14.8278 1321 114.24 806.296 457.149
1487 0 92.0992 14.2781 1315 116.511 805.998 457.489
1488 0 94.2241 13.3936 1262 118.982 805.814 455.135
1489 0 98.1005 12.5993 1236 117.972 806.252 455.803
1490 0 99.1068 12.2898 1218 118.103 806.319 452.585
1491 0 105.13 12.5083 1315 118.302 807.561 449.392
1492 1 53.0821 12.0003 637 119.047 807.54 474.458
1493 0 55.038 12.1189 667 118.324 808.082 474.799
1494 0 57.0376 13.2719 757 116.313 808.059 473.235
1495 0 58.0523 13.3328 774 118.132 807.433 471.652
1496 0 62.0391 14.1846 880 114.448 807.283 471.82
1497 0 62.1401 12.9868 807 118.887 807.463 471.483
1498 0 66.0301 14.0845 930 115.542 807.482 470.402
1499 0 67.0284 12.4723 836 120.687 807.603 470.548
1500 0 71.0768 13.5206 961 117.448 807.248 468.018
1501 0 73.0776 14.9978 1096 113.61 806.687 467.225
1502 0 76.06 13.5814 1033 117.184 806.987 465.715
1503 0 77.0647 13.6768 1054 111.322 806.505 465.294
1504 0 79.0816 12.0003 949 115.35 806.703 467.016
1505 0 77.1209 11.5274 889 120.049 806.578 465.056
1506 0 80.0983 12.8467 1029 117.949 805.826 462.364
1507 0 82.0869 12.8035 1051 120.81 806.673 463.235
1508 0 83.2161 12.3173 1025 123.768 806.235 462.54
1509 0 85.1051 12.4787 1062 124.932 806.127 461.323
1510 1 46.0331 11.2093 516 127.056 806.622 480.136
1511 0 49.0739 13.388 657 121.09 806.28 477.574
1512 0 52.1004 12.8406 669 119.996 805.958 476.549
1513 0 51.1371 12.2612 627 121.164 805.767 476.743
1514 0 55.0785 13.3446 735 115.837 807.314 477.224
1515 0 54.1196 12.3615 669 119.164 805.876 474.538
1516 0 57.2338 11.1822 640 120.275 805.686 473.381
1517 0 59.1078 12.8748 761 116.118 805.608 473.424
1518 0 59.1563 12.0021 710 120.208 806.046 469.907
1519 0 63.1718 12.189 770 117.631 805.578 470.997
1520 0 64.097 11.8726 761 119.411 805.745 470.668
1521 0 67.1679 12.3124 827 119.12 805.8 470.362
1522 0 66.1689 10.715 709 125.21 805.818 466.581
1523 0 69.1541 12.1034 837 121.845 805.695 466.87
1524 0 70.0589 10.6625 747 128.123 805.7 467.216
1525 0 74.0737 11.3536 841 125.899 806.161 465.901
1526 1 36.0093 8.16456 294 128.534 805.163 484.007
1527 0 41.039 9.84429 404 122.007 804.728 478.886
1528 0 41.035 11.5999 476 118.321 804.353 477.66
1529 0 43.0705 10.6337 458 122.076 804.631 478.806
1530 0 45.056 11.9185 537 127.263 804.534 481.048
1531 0 45.054 11.9412 538 129.132 804.773 480.511
1532 0 45.0156 10.2853 463 135.425 804.337 481.162
1533 0 47.0175 12.1231 570 131.521 804.818 480.728
1534 0 49.051 11.8448 581 133.676 805.337 479.188
1535 0 49.0711 11.8807 583 135.431 805.317 478.158
1536 0 51.0363 11.4624 585 136.238 804.588 479.142
1537 0 51.0597 11.7314 599 136.456 804.845 478.012
1538 0 52.0272 11.9745 623 136.713 805.299 477.451
1539 0 54.0258 11.1243 601 140.166 805.028 476.121
1540 0 58.0153 13.1345 762 133.27 804.986 475.118
1541 0 56.0339 12.8137 718 136.148 804.763 475.354
1542 0 60.0424 12.7077 763 133.784 804.906 473.05
1543 0 64.0702 13.095 839 131.184 805.01 473.173
1544 0 65.0814 12.7379 829 133.421 803.908 473.135
1545 0 66.0587 12.716 840 134.358 804.38 471.464
1546 0 69.044 13.6869 945 131.324 804.647 470.426
1547 0 72.0324 12.7443 918 132.633 804.845 469.536
1548 0 75.0987 13.0894 983 131.488 804.427 467.026
1549 0 75.1445 14.013 1053 130.009 804.354 465.21
1550 0 78.0606 13.0924 1022 132.012 803.659 464.329
1551 0 83.1123 14.0653 1169 127.606 803.961 461.234
1552 0 85.146 13.2831 1131 129.658 804.525 460.548
1553 0 90.2185 15.0413 1357 122.962 804.559 460.1
1554 0 92.1136 14.8404 1367 123.804 804.571 460.057
1555 1 48.1246 11.2624 542 126.533 804.205 482.507
1556 0 48.0924 10.5422 507 127.87 803.88 481.166
1557 0 51.1694 11.8235 605 123.641 805.038 478.612
1558 0 51.0888 11.9987 613 123.993 804.245 478.716
1559 0 54.0408 13.7859 745 120.546 804.102 477.332
1560 0 56.0894 13.6033 763 120.693 804.016 477.401
1561 0 59.0278 13.2311 781 121.175 803.869 477.35
1562 0 61.0691 13.6894 836 120.366 803.934 476.272
1563 0 60.0353 13.5754 815 121.779 803.796 474.158
1564 0 62.0721 13.4199 833 119.821 803.9 475.245
1565 0 64.1297 13.1296 842 120.354 804.468 474.342
1566 0 66.0918 13.3602 883 121.318 804.609 472.794
1567 0 68.0684 13.4277 914 120.47 804.509 471.813
1568 0 70.0523 12.6762 888 123.524 804.774 470.096
1569 0 73.0661 13.6452 997 120.358 803.454 469.031
1570 0 74.0393 12.5609 930 126.302 803.394 467.486
1571 0 77.0986 13.3855 1032 124.204 803.698 466.289
1572 0 80.0445 13.7548 1101 122.826 803.738 465.589
1573 0 81.1363 13.2247 1073 126.269 803.653 465.034
1574 0 84.0822 13.9268 1171 124.911 804.21 462.073
1575 0 87.1311 12.5328 1092 129.032 804.485 462.929
1576 0 91.1207 14.2448 1298 124.673 804.818 460.211
1577 0 93.1947 13.5201 1260 127.837 804.471 458.598
1578 1 52.0606 11.9092 620 128.182 804.41 478.816
1579 0 54.0621 12.6521 684 124.012 803.569 478.601
1580 0 55.0548 12.6056 694 122.186 803.896 476.957
1581 0 54.1051 12.9193 699 129.067 803.657 475.725
1582 0 59.2128 13.0377 772 126.829 804.478 475.981
1583 0 59.1106 12.9418 765 128.438 803.78 474.192
1584 0 62.219 13.0668 813 126.892 803.625 473.274
1585 0 62.219 13.115 816 148.175 803.605 473.224
1586 0 68.2291 13.0883 893 126.809 804.041 471.364
1587 0 67.2234 13.0014 874 129.898 804.085 469.343
1588 0 70.0369 13.3787 937 128.204 803.899 467.273
1589 0 73.0544 13.4557 983 128.33 804.415 466.579
1590 0 74.1001 13.1309 973 128.916 804.028 467.823
1591 0 78.0861 13.9333 1088 127.607 803.647 464.676
1592 0 81.1354 13.1262 1065 129.285 804.315 463.577
1593 0 84.1818 13.7797 1160 127.556 804.178 460.909
1594 0 86.1251 13.1669 1134 129.196 804.367 461.559
1595 0 89.0743 13.5729 1209 128.618 804.659 458.567
1596 0 92.0712 13.924 1282 127.733 803.839 457.103
1597 0 97.0607 13.167 1278 128.856 804.166 455.356
1598 1 46.0606 10.6599 491 129.782 804.338 479.312
1599 0 50.0256 10.7745 539 127.304 803.902 478.167
1600 0 55.0214 12.3952 682 126.952 804.199 475.994
1601 0 56.0219 12.5487 703 126.92 804.101 476.394
1602 0 56.0828 11.3404 636 125.55 804.003 476.514
1603 0 59.0874 12.3038 727 122.868 803.622 475.369
1604 0 61.0596 12.5287 765 122.498 804.064 474.502
1605 0 62.1144 13.1531 817 123.419 803.692 473.487
1606 0 63.0641 12.0671 761 128.48 803.67 471.003
1607 0 67.0845 11.6122 779 128.937 804.104 469.932
1608 0 70.0986 12.3255 864 125.95 804.056 469.983
1609 0 72.1272 12.0482 869 126.951 803.675 468.739
1610 0 72.1483 12.5297 904 127.629 804.017 467.211
1611 0 77.1409 12.367 954 127.744 803.774 466.108
1612 0 80.1944 13.6793 1097 124.123 803.479 464.473
1613 0 84.3053 13.89 1171 122.772 804.095 462.301
1614 0 86.3436 14.4307 1246 121.867 804.328 462.371
1615 0 86.1252 12.5399 1080 126.606 803.035 460.642
1616 0 88.1161 12.3814 1091 161.327 802.04 460.427
1617 0 92.2281 11.8294 1091 127.373 803.355 458.746
1618 0 97.1948 12.7476 1239 124.89 803.433 453.786
1619 1 53.0629 10.3462 549 129.177 803.352 475.066
1620 0 55.1761 11.3274 625 125.106 804.093 473.872
1621 0 57.1168 12.2381 699 123.662 803.785 476.372
1622 0 60.1116 13.8076 830 119.98 803.457 473.981
1623 0 61.1307 13.8556 847 119.586 803.885 475.163
1624 0 63.1095 13.4845 851 121.813 803.501 471.367
1625 0 63.163 12.8081 809 125.926 803.14 470.433
1626 0 67.0988 14.2178 954 122.106 803.922 469.451
1627 0 67.0988 14.188 952 144.461 804.922 469.451
1628 0 71.1486 13.4929 960 125.623 803.945 466.708
1629 0 74.3957 13.1594 979 127.444 804.011 464.8
1630 0 76.3907 13.863 1059 126.123 803.602 464.139
1631 0 77.2036 13.6004 1050 126.383 803.821 462.29
1632 0 80.3822 13.8339 1112 125.833 803.354 459.528
1633 0 83.3419 12.8867 1074 128.426 803.976 458.259
1634 0 86.1549 13.882 1196 126.13 804.182 457.487
1635 1 43.1068 9.88243 426 128.843 803.887 478.697
1636 0 45.0174 10.1738 458 124.989 803.611 477.441
1637 0 46.0613 10.2038 470 126.506 803.921 476.281
1638 0 46.0388 11.4686 528 132.087 806.104 477.652
1639 0 49.0909 12.3241 605 127.426 805.648 479.331
1640 0 49.0542 12.2314 600 129.897 806.21 477.947
1641 0 52.0999 12.1497 633 129.155 806.471 478.191
1642 0 53.1154 11.8986 632 130.168 806.726 476.829
1643 0 53.0834 13.0926 695 126.06 806.491 477.62
1644 0 54.0795 12.9254 699 127.481 806.093 476.794
1645 0 56.0465 11.9722 671 128.967 805.537 475.925
1646 0 59.0832 12.5755 743 126.626 805.579 475.144
1647 0 60.2001 12.907 777 126.634 805.341 474.291
1648 0 63.2417 13.8358 875 119.451 805.153 471.189
1649 0 65.1021 12.1655 792 127.967 805.514 472.298
1650 0 67.0984 12.6232 847 127.188 805.377 470.772
1651 0 68.0845 12.8517 875 126.8 804.609 468.85
1652 0 71.0391 14.0908 1001 122.84 805.204 467.691
1653 0 73.0401 13.3351 974 124.929 805.159 465.251
1654 0 76.0744 13.3422 1015 124.27 804.953 464.644
1655 0 77.1579 12.8438 991 126.216 805.316 464.764
1656 0 81.1584 13.8248 1122 122.226 805.212 462.474
1657 0 85.1334 13.4612 1146 123.237 804.667 460.486
1658 0 90.1588 13.565 1223 122.019 804.052 459.233
1659 0 91.1003 14.248 1298 121.656 804.071 457.42
1660 0 95.1383 14.3791 1368 120.482 803.872 453.901
1661 1 48.1248 11.3871 548 124.157 804.327 471.332
1662 0 52.218 11.835 618 121.573 804.277 471.806
1663 0 54.0218 13.3835 723 120.555 805.48 476.242
1664 0 56.0244 13.744 770 120.987 805.235 476.004
1665 0 55.0073 12.9256 711 126.871 805.269 474.198
1666 0 58.0289 12.7523 740 126.185 805.196 474.658
1667 0 60.0377 12.0091 721 128.148 805.662 473.416
1668 0 63.0213 13.6144 858 122.85 805.543 472.047
1669 0 64.0834 12.5774 806 126.865 805.253 471.871
1670 0 66.0325 12.9027 852 126.36 805.624 470.123
1671 0 66.0953 13.0418 862 126.63 805.118 470.137
1672 0 69.0435 13.6581 943 124.853 804.568 467.211
1673 0 72.1164 13.0345 940 126.876 804.848 467.351
1674 0 75.1053 13.3812 1005 125.78 805.62 465.224
1675 0 76.0592 13.9234 1059 125.114 805.741 464.481
1676 0 79.0721 13.1652 1041 126.468 805.576 464.05
1677 0 78.1395 12.6057 985 129.969 805.147 462.57
1678 0 82.0622 13.4288 1102 127.035 805.329 461.711
1679 0 84.1577 14.4015 1212 124.608 804.444 459.676
1680 0 87.1097 13.5232 1178 126.135 805.385 456.906
1681 0 90.121 13.038 1175 126.726 805.301 457.055
1682 0 93.2125 13.4531 1254 124.806 804.986 456.674
1683 0 98.1639 13.019 1278 124.154 805.025 454.828
1684 1 53.1239 12.1038 643 121.858 804.798 476.538
1685 0 52.0916 12.1709 634 124.256 805.106 474.842
1686 0 56.0423 12.7225 713 119.073 804.999 474.655
1687 0 56.1273 12.9349 726 121.478 805.587 473.576
1688 0 60.0991 13.0784 786 119.869 805.578 472.997
1689 0 62.1499 13.8214 859 116.488 805.228 471.895
1690 0 63.1649 13.6943 865 117.554 804.844 469.409
1691 0 67.1241 13.1101 880 116.859 804.581 471.644
1692 0 69.1142 13.0219 900 117.846 805.324 469.594
1693 0 70.1504 12.3592 867 119.987 804.29 469.009
1694 0 74.1281 13.5037 1001 114.879 803.469 468.368
1695 0 75.1778 13.2087 993 117.047 803.811 465.858
1696 0 77.1971 12.915 997 118.263 804.283 464.456
1697 0 82.1583 13.9122 1143 115.605 804.369 463.958
1698 0 83.2861 12.0548 1004 120.185 804.464 462.241
1699 0 87.1877 13.3276 1162 118.181 804.713 459.841
1700 0 90.242 13.1535 1187 118.22 804.086 459.535
1701 0 93.1905 12.6944 1183 118.855 804.468 459.003
1702 0 97.1865 12.0799 1174 121.275 804.083 455.773
1703 1 53.0623 11.364 603 119.945 803.415 477.264
1704 0 53.0502 12.7615 677 114.368 803.168 475.279
1705 0 55.2105 13.3308 736 113.524 803.56 473.404
1706 0 57.0914 11.9983 685 115.946 803.229 474.295
1707 0 56.1633 12.0363 676 115.413 803.882 475.322
1708 0 58.1641 11.9833 697 115.759 803.772 474.479
1709 0 62.2368 12.2114 760 113.978 803.761 474.339
1710 0 65.109 13.8537 902 110.061 803.922 473.327
1711 0 65.131 12.0373 784 115.835 803.355 473.165
1712 0 69.2675 12.9642 898 113.045 804.022 471.298
1713 0 71.1521 12.9863 924 114.368 803.948 469.174
1714 0 73.1059 13.1316 960 113.926 803.707 467.909
1715 0 74.0821 13.1881 977 114.014 803.777 466.616
1716 0 77.0736 13.1822 1016 114.71 803.954 464.971
1717 0 79.3855 12.6849 1007 115.027 803.764 467.01
1718 0 83.2738 13.1974 1099 114.75 803.322 465.731
1719 0 87.1213 12.8212 1117 117.237 803.996 461.84
1720 0 91.3931 14.837 1356 114.762 803.214 459.909
1721 0 94.228 14.3588 1353 114.786 804.421 460.528
1722 1 51.0657 11.0446 564 119.83 804.243 480.018
1723 0 52.0336 11.0506 575 121.777 804.544 478.777
1724 0 54.064 12.0783 653 119.242 804.338 477.645
1725 0 56.2586 13.7046 771 111.532 804.39 472.297
1726 0 57.2058 13.2854 760 112.788 804.174 470.018
1727 0 59.1325 13.8333 818 111.185 804.034 469.566
1728 0 60.259 12.9607 781 113.636 804.325 467.909
1729 0 62.1261 12.2976 764 115.624 804.134 467.217
1730 0 63.1011 13.5497 855 112.903 804.144 466.554
1731 0 65.1857 13.73 895 113.383 804.114 465.456
1732 0 68.2322 13.2635 905 114.324 803.412 464.818
1733 0 68.1747 13.6267 929 115.229 804.082 464.434
1734 0 68.1747 13.5974 927 141.111 804.082 464.401
1735 0 74.1465 14.2016 1053 116.015 803.884 463.155
1736 0 74.1046 14.3041 1060 117.979 803.394 463.315
1737 0 78.116 14.5809 1139 117.883 804.012 461.312
1738 0 81.1182 15.2 1233 115.616 803.689 461.404
1739 0 84.1154 15.0745 1268 116.708 803.632 459.8
1740 0 84.0751 13.3928 1126 123.041 803.501 459.391
1741 0 88.0668 15 1321 119.134 803.64 458.274
1742 0 90.0606 15.2675 1375 119.03 803.854 455.589
1743 0 90.065 15.2556 1374 150.415 803.858 455.657
1744 0 97.05 16.0227 1555 118.531 803.877 453.302
1745 0 98.0464 14.2484 1397 123.948 803.346 452.119
1746 0 104.055 15.3572 1598 119.108 803.258 450.691
1747 1 56.0816 12.036 675 123.428 802.923 472.526
1748 0 57.0214 11.8903 678 124.398 802.854 472.407
1749 0 60.2185 13.7998 831 119.801 803.384 470.751
1750 0 61.0816 12.8517 785 119.656 803.432 471.268
1751 0 64.1968 13.8481 889 116.09 803.334 471.331
1752 0 66.1798 14.098 933 115.912 803.477 469.373
1753 0 69.1365 13.6108 941 116.277 803.996 470.552
1754 0 71.1296 13.6511 971 116.888 804.291 468.705
1755 0 72.1063 13.2305 954 119.236 804.267 465.588
1756 0 76.1338 13.4237 1022 117.868 804.789 466.501
1757 0 76.1819 13.7434 1047 119.142 804.664 464.166
1758 0 79.2214 14.4532 1145 117.469 804.538 461.418
1759 0 82.1362 13.9281 1144 119.152 804.115 460.538
1760 0 83.195 13.5465 1127 121.332 804.25 460.206
1761 0 88.2456 15.5475 1372 114.892 804.701 460.278
1762 0 90.1277 14.1022 1271 119.968 804.066 459.36
1763 0 93.1782 14.0376 1308 120.923 803.999 457.222
1764 0 97.2174 14.9665 1455 118.794 804.549 455.157
1765 0 99.3438 14.5052 1441 121.042 803.813 454.726
1766 0 103.132 15.0584 1553 122.197 803.498 448.892
1767 0 106.134 14.6418 1554 126.882 803.648 449.748
1768 0 111.134 14.0821 1565 126.376 803.741 449.588
1769 1 61.1339 11.712 716 123.714 803.331 471.366
1770 0 61.1088 11.1768 683 126.122 803.148 469.486
1771 0 66.1589 13.1502 870 120.537 803.393 470.106
1772 0 67.0879 12.983 871 122.588 803.614 469.679
1773 0 69.2206 12.583 871 124.021 803.443 468.273
1774 0 70.0869 12.9553 908 123.51 803.885 467.649
1775 0 74.1684 14.5749 1081 118.694 803.96 465.043
1776 0 76.1582 12.8023 975 121.546 803.331 466.296
1777 0 79.1441 14.6568 1160 117.303 803.866 462.82
1778 0 82.1383 14.7069 1208 117.303 803.749 460.255
1779 0 84.2103 13.6444 1149 119.878 803.366 459.256
1780 0 86.0874 13.1262 1130 120.506 803.457 458.354
1781 0 88.09 13.3727 1178 119.57 803.377 456.707
1782 0 91.1112 13.1598 1199 120.396 803.768 456.706
1783 0 94.1043 14.4095 1356 118.118 803.839 452.615
1784 0 97.1395 14.3093 1390 118.182 803.588 452.578
1785 0 99.0848 13.544 1342 120.742 803.537 451.276
1786 0 101.089 13.2161 1336 121.864 804.47 448.564
1787 0 105.223 13.191 1388 121.836 803.416 446.165
1788 1 56.1791 12.1397 682 116.943 803.985 471.891
1789 0 59.1392 12.1408 718 116.15 803.662 470.762
1790 0 62.0977 11.3853 707 117.525 804.12 470.233
1791 0 65.114 12.9465 843 116.592 804.477 468.308
1792 0 65.1048 12.1804 793 119.32 803.851 467.834
1793 0 67.1011 13.7107 920 121.85 803.618 464.189
1794 0 70.0994 13.1813 924 122.629 803.663 464.156
1795 0 71.1018 13.1361 934 123.08 803.981 463.054
1796 0 75.0608 13.4691 1011 122.167 804.199 462.903
1797 0 76.0503 13.044 992 123.933 804.061 462.797
1798 0 79.0803 13.3535 1056 123.378 804.07 462.413
1799 0 81.099 13.65 1107 123.1 804.95 459.893
1800 0 81.0846 13.2824 1077 124.835 804.505 459.152
1801 0 84.0865 13.3553 1123 125.719 804.768 458.436
1802 0 88.0574 13.2754 1169 125.813 804.735 457.174
1803 0 89.093 13.4017 1194 126.932 804.961 456.879
1804 0 92.0537 13.6659 1258 126.799 805.001 454.979
1805 0 94.0483 13.929 1310 127.683 804.868 451.416
1806 0 98.0477 12.3511 1211 130.927 804.585 453.204
1807 0 101.131 13.1216 1327 131.46 803.818 447.205
1808 0 106.101 14.1375 1500 130.615 804.014 446.144
1809 1 58.0965 12.3588 718 124.485 805.747 471.896
1810 0 58.0789 12.6896 737 123.665 806.312 469.122
1811 0 62.0793 12.4357 772 124.307 805.053 470.816
1812 0 61.0166 12.3245 752 121.362 804.903 471.501
1813 0 62.0306 11.6878 725 122.858 804.582 470.983
1814 0 68.0763 11.9572 814 120.572 805.211 469.313
1815 0 67.0669 12.1521 815 121.998 805.191 468.298
1816 0 69.0632 11.9166 823 122.734 805.216 467.041
1817 0 71.0881 12.0273 855 123.531 805.372 464.608
1818 0 75.1169 14.0448 1055 117.498 805.508 464.186
1819 0 78.0648 12.9636 1012 119.403 805.28 465.939
1820 0 80.1248 12.6677 1015 121.918 804.951 462.718
1821 0 83.0564 13.244 1100 121.018 805.411 460.791
1822 0 83.1694 11.9154 991 125.72 805.446 458.143
1823 0 87.1661 13.1588 1147 122.394 805.484 457.418
1824 0 89.1973 13.6888 1221 121.435 805.567 456.71
1825 0 92.1151 13.1032 1207 123.159 805.731 454.14
1826 0 95.0903 12.4513 1184 125.138 805.574 452.504
1827 0 97.0923 12.174 1182 125.563 805.469 450.687
1828 0 101.108 13.1543 1330 123.829 805.291 446.841
1829 0 104.152 12.9234 1346 123.802 804.655 445.396
1830 0 105.226 11.8792 1250 128.195 804.914 442.186
1831 0 107.215 11.7801 1263 129.726 804.517 435.895
1832 0 114.185 13.2154 1509 124.039 804.287 437.065
1833 1 62.1352 9.36666 582 119.326 804.485 462.646
1834 0 65.1025 11.3974 742 118.356 805.458 466.458
1835 0 67.0586 11.5869 777 112.965 804.587 468.233
1836 0 70.0587 11.262 789 113.867 804.867 467.158
1837 0 71.0476 11.2601 800 114.9 805.339 466.115
1838 0 73.0764 10.4274 762 117.182 805.012 466.787
1839 0 76.0433 10.7439 817 117.736 805.048 465.499
1840 0 76.0433 10.7702 819 135 805.023 465.534
1841 0 83.0823 11.2058 931 118.322 804.827 462.087
1842 0 84.0473 10.8629 913 121.612 804.632 457.82
1843 0 88.0886 10.3759 914 121.407 805.411 458.478
1844 0 91.1812 10.5504 962 120.309 804.325 459.409
1845 0 94.1084 11.6143 1093 118.414 805.202 457.888
1846 0 99.0884 11.0911 1099 120.308 805.377 455.692
1847 1 53.0736 10.6079 563 118.025 805.652 476.316
1848 0 53.0504 12.2714 651 113.53 805.275 474.839
1849 0 57.0877 12.2268 698 111.761 805.262 474.701
1850 0 60.0502 11.8567 712 120.185 805.542 473.591
1851 0 61.0947 11.0321 674 123.958 805.639 472.059
1852 0 62.0494 11.1846 694 124.579 806.135 470.444
1853 0 66.0654 11.9427 789 122.136 805.313 469.289
1854 0 66.0297 12.767 843 121.979 805.164 468.125
1855 0 68.0611 12.9883 884 121.622 805.433 466.535
1856 0 71.0935 13.4752 958 120.406 805.072 466.37
1857 0 73.1046 12.2427 895 124.769 805.134 466.036
1858 0 75.1131 13.0071 977 123.155 805.843 463.97
1859 0 78.1077 12.8797 1006 123.316 805.687 463.358
1860 0 78.0195 11.2536 878 128.095 802.285 461.599
1861 0 83.0608 12.8942 1071 124.106 802.785 459.198
1862 0 85.0766 11.4603 975 129.807 802.995 458.123
1863 0 89.0748 11.8552 1056 128.327 803.135 455.881
1864 1 48.0504 10.0519 483 124.892 802.642 477.667
1865 0 48.0473 8.63733 415 129.954 803.337 478.072
1866 0 53.0417 12.0094 637 122.455 803.154 475.512
1867 0 51.0351 11.6195 593 114.415 803.322 476.72
1868 0 55.0444 12.5172 689 109.534 803.515 475.212
1869 0 54.0229 10.9028 589 115.034 803.769 475.64
1870 0 57.0747 11.9142 680 111.8 803.588 473.434
1871 0 58.0987 11.4805 667 113.045 804.151 473.433
1872 0 60.0388 12.6085 757 108.98 803.58 472.469
1873 0 62.1483 11.9392 742 109.671 804.132 472.717
1874 0 63.1455 13.1126 828 108.251 803.494 469.408
1875 0 65.2618 11.3849 743 111.249 803.802 472.077
1876 0 67.1528 11.5408 775 111.874 803.73 469.283
1877 0 67.2878 11.7852 793 110.557 803.879 469.888
1878 0 69.1295 11.7027 809 111.8 804.362 467.32
1879 0 72.1899 10.8879 786 113.566 804.244 465.948
1880 0 74.3082 11.9771 890 111.81 804.162 463.274
1881 0 78.2398 12.4489 974 110.192 804.473 462.733
1882 0 79.3087 12.3442 979 109.449 804.688 457.587
1883 0 81.3268 12.1731 990 111.249 804.547 456.655
1884 0 85.2826 12.7576 1088 110.015 805.236 457.247
1885 1 46.1327 7.99867 369 118.453 804.84 477.176
1886 0 48.1174 10.9108 525 118.297 803.931 475.945
1887 0 51.1815 11.6253 595 117.072 804.17 477.578
1888 0 51.1378 11.6352 595 120.182 803.85 475.818
1889 0 54.2684 12.733 691 118.012 804.087 473.443
1890 0 57.3614 12.9007 740 115.799 803.384 473.843
1891 0 56.2725 12.244 689 119.459 803.345 472.228
1892 0 58.25 11.0215 642 121.601 803.441 473.165
1893 0 61.2972 11.6645 715 120.635 803.842 470.852
1894 0 61.1479 12.2326 748 119.049 803.254 470.575
1895 0 63.17 12.3793 782 118.703 803.332 470.917
1896 0 64.1793 12.3404 792 119.649 803.678 469.019
1897 0 68.1702 13.2609 904 115.978 803.289 468.519
1898 0 69.2121 13.0613 904 117.85 804.16 465.6
1899 0 70.2172 12.4613 875 119.983 804.374 465.957
1900 0 71.1954 12.5429 893 121.607 804.398 464.828
1901 0 76.3315 13.4152 1024 118.076 804.771 463.093
1902 0 77.2454 13.3212 1029 120.569 804.584 460.422
1903 0 79.3205 12.6953 1007 123.017 804.553 459.151
1904 0 80.3182 13.0854 1051 123.23 804.444 458.666
1905 0 84.3138 12.1688 1026 124.464 803.458 457.187
1906 0 86.3452 12.5195 1081 124.072 804.177 456.37
1907 0 89.3279 13.7359 1227 119.76 804.644 451.02
1908 0 91.2684 13.3891 1222 118.751 804.673 455.506
1909 0 91.3354 11.8574 1083 123.975 803.934 450.05
1910 0 97.3512 12.5422 1221 122.795 804.029 450.052
1911 0 101.318 13.9462 1413 118.844 804.699 446.923
1912 1 52.1111 10.5928 552 123.712 803.417 475.748
1913 0 52.0992 10.48 546 142.064 802.408 475.929
1914 0 56.088 11.8029 662 121.207 803.328 473.231
1915 0 57.0268 10.9247 623 124.551 803.18 471.525
1916 0 59.1704 12.726 753 120.214 804.112 470.299
1917 0 60.1367 11.7399 706 123.166 803.972 472.306
1918 0 62.1749 13.1403 817 120.476 803.764 470.006
1919 0 66.1576 12.8935 853 119.427 803.839 469.39
1920 0 68.1468 13.7497 937 116.862 804.079 469.465
1921 0 69.1358 12.772 883 121.525 803.948 468.923
1922 0 72.1202 13.1031 945 120.728 803.91 466.392
1923 0 74.1734 12.4438 923 122.322 804.258 466.105
1924 0 75.1085 13.1942 991 121.793 803.495 464.22
1925 0 79.1066 13.1468 1040 121.841 803.895 462.416
1926 0 81.098 14.0694 1141 119.672 803.834 460.897
1927 0 84.1424 13.2157 1112 122.301 804.402 460.401
1928 0 86.1232 14.0612 1211 119.775 804.149 460.741
1929 0 91.0855 14.1515 1289 119.815 804.095 457.784
1930 0 93.1294 14.0665 1310 121.5 804.67 457.4
1931 0 96.2214 14.3523 1381 121.972 804.513 456.152
1932 0 98.1792 14.0254 1377 125.394 803.954 454.738
1933 0 101.087 13.5625 1371 126.768 804.125 451.644
1934 0 102.098 13.3107 1359 129.457 804.673 450.732
1935 0 104.199 13.2151 1377 131.575 804.075 449.766
1936 0 109.198 14.1761 1548 127.847 803.612 446.295
1937 0 114.363 14.2092 1625 126.313 803.596 445.154
1938 0 117.247 13.0664 1532 120.734 804.169 447.235
1939 0 119.272 14.1106 1683 119.938 804.512 442.764
1940 0 122.319 13.1705 1611 123.236 804.419 441.101
1941 0 127.399 14.5528 1854 122.352 804.427 436.605
1942 0 130.373 13.3464 1740 126.671 804.706 434.368
1943 0 135.496 12.9155 1750 128.055 804.718 433.509
1944 0 139.397 14.1108 1967 125.65 805.062 432.085
1945 0 143.355 12.4446 1784 131.164 804.996 429.737
1946 0 150.463 12.7672 1921 129.984 805.421 430.498
1947 1 95.2694 13.1312 1251 128.536 805.701 453.583
1948 0 97.2388 13.5337 1316 129.06 805.411 449.366
1949 0 101.326 14.182 1437 130.686 804.864 449.815
1950 0 106.246 13.5534 1440 136.145 804.594 449.502
1951 0 106.353 13.3517 1420 138.152 804.718 446.899
1952 0 108.272 12.8104 1387 138.296 804.528 448.303
1953 0 115.377 13.3475 1540 136.538 804.518 444.75
1954 0 116.386 12.9225 1504 137.75 804.195 443.423
1955 0 121.249 13.1053 1589 134.804 804.736 444.655
1956 0 125.244 13.6693 1712 134.304 804.438 438.476
1957 0 130.338 15.3294 1998 128.755 804.77 438.239
1958 0 132.293 12.8351 1698 136.001 804.883 435.366
1959 0 137.254 14.4987 1990 131.611 804.434 433.109
1960 1 77.1796 11.6093 896 135.749 804.302 460.173
1961 0 80.2664 13.6172 1093 128.689 804.506 457.281
1962 0 85.1322 13.0973 1115 126.905 804.602 456.409
1963 0 84.1698 13.3777 1126 128.252 804.944 453.957
1964 0 87.3447 13.5326 1182 127.253 804.865 451.941
1965 0 91.32 14.0605 1284 124.305 805.074 450.386
1966 0 94.1813 13.4634 1268 125.759 804.422 450.021
1967 0 95.1744 13.8903 1322 125.289 804.791 448.153
1968 0 98.26 13.3625 1313 127.137 804.905 447.111
1969 0 100.184 13.1358 1316 127.762 805.043 445.505
1970 0 104.237 12.8169 1336 128.574 804.433 446.317
1971 0 106.198 14.0398 1491 126.365 804.315 442.708
1972 0 110.159 13.6167 1500 124.948 804.207 434.12
1973 0 112.173 11.6338 1305 129.403 804.272 421.873
1974 0 116.218 12.6917 1475 126.367 803.983 423.955
1975 0 120.311 12.983 1562 128.956 804.387 431.651
1976 0 127.172 12.9117 1642 127.103 804.566 435.724
1977 0 129.19 13.0041 1680 128.298 804.432 432.675
1978 0 133.276 12.4553 1660 129.905 804.088 432.39
1979 0 136.236 13.1536 1792 128.243 803.458 430.63
1980 0 144.337 14.2168 2052 124.601 803.913 422.352
1981 0 147.267 13.1802 1941 128.159 803.856 423.35
1982 0 150.381 13.6653 2055 126.056 804.633 423.314
1983 0 157.277 13.2505 2084 125.165 804.234 421.447
1984 1 87.2837 12.4536 1087 117.489 804.406 455.183
1985 0 88.2507 11.354 1002 119.582 805.132 452.368
1986 0 91.2704 12.4904 1140 109.554 804.476 452.322
1987 0 97.3032 12.8053 1246 108.92 804.291 451.01
1988 0 99.2035 11.4613 1137 111.34 803.685 451.675
1989 0 102.283 12.3481 1263 110.062 804.507 448.082
1990 0 105.191 11.2652 1185 113.541 804.56 445.633
1991 0 109.342 13.2154 1445 108.891 804.897 445.865
1992 0 113.245 12.2831 1391 114.485 804.165 442.277
1993 0 119.171 12.7883 1524 113.313 804.16 441.577
1994 0 120.196 12.4962 1502 118.644 804.624 437.958
1995 0 127.247 13.1633 1675 116.273 804.919 438.415
1996 0 127.247 13.1162 1669 143.86 805.913 438.464
1997 0 134.389 12.5977 1693 119.262 804.759 434.673
1998 0 138.243 12.4636 1723 120.354 804.861 432.657
1999 0 141.322 12.3548 1746 121.589 804.639 426.801
2000 1 65.2077 9.14003 596 109.148 804.44 468.174
2001 0 68.151 11.7827 803 102.533 803.71 466.727
2002 0 67.1813 11.2085 753 110.375 803.526 466.526
2003 0 68.0762 11.5606 787 113.321 803.266 467.493
2004 0 73.1091 12.8028 936 109.314 803.268 466.439
2005 0 75.0926 13.4101 1007 109.673 804.078 464.988
2006 0 76.229 11.6622 889 116.269 803.946 460.228
2007 0 79.1513 12.2297 968 115.205 803.472 460.663
2008 0 81.2192 12.5463 1019 115.147 803.874 459.057
2009 0 84.3137 12.7263 1073 115.829 804.338 457.782
2010 0 90.3886 12.5901 1138 115.688 803.893 454.922
2011 1 46.1324 10.6433 491 116.851 803.976 479.218
2012 0 49.1067 11.3019 555 116.501 803.728 478.573
2013 0 50.3491 11.7976 594 117.354 804.268 475.823
2014 0 48.1543 10.7779 519 112.902 803.89 479.503
2015 0 51.3031 10.857 557 108.341 803.612 478.284
2016 0 52.1184 10.2267 533 109.623 803.216 477.786
2017 0 53.1674 9.4983 505 112.558 803.842 477.364
2018 0 55.1216 10.4859 578 111.924 803.988 476.137
2019 0 58.1258 9.82352 571 112.492 804.035 475.916
2020 0 58.106 10.2055 593 114.266 803.582 473.073
2021 0 60.1109 9.78192 588 116.34 803.704 473.082
2022 0 62.1011 10.4507 649 115.2 803.294 471.787
2023 0 64.123 11.6495 747 112.881 803.718 471.169
2024 0 66.0942 11.8316 782 112.763 803.942 469.822
2025 0 64.0857 10.6264 681 117.16 803.78 469.501
2026 0 70.0637 11.3754 797 112.092 803.654 468.689
2027 0 72.0928 10.8749 784 114.216 804.119 466.415
2028 0 75.1242 11.4743 862 114.601 804.172 466.082
2029 0 77.138 11.3433 875 115.685 803.896 462.656
2030 0 80.1427 10.7683 863 116.418 803.833 462.753
2031 0 83.1476 12.4838 1038 112.208 803.869 461.45
2032 0 88.1808 11.9074 1050 111.943 803.51 458.924
2033 1 45.0935 10.7333 484 115.831 804.271 480.539
2034 0 45.036 10.9246 492 115.287 803.144 477.555
2035 0 47.0271 11.908 560 111.304 802.814 477.061
2036 0 48.0933 11.4153 549 110.865 803.506 477.055
2037 0 50.1 11.8563 594 109.985 802.993 477.067
2038 0 50.0864 12.139 608 111.242 803.824 475.895
2039 0 53.1496 12.2485 651 110.078 803.826 475.264
2040 0 53.1627 11.4178 607 114.245 803.88 474.354
2041 0 54.0601 12.2086 660 111.661 804.177 473.679
2042 0 58.258 12.3932 722 110.762 804.65 472.217
2043 0 58.2187 13.0027 757 109.81 804.063 472.701
2044 0 60.1275 12.4569 749 111.788 803.694 471.709
2045 0 60.2717 11.5643 697 113.192 803.976 471.209
2046 0 64.2017 12.6321 811 109.959 804.37 470.779
2047 0 66.1152 12.3118 814 110.385 803.886 467.947
2048 0 68.269 11.982 818 110.312 803.767 468.677
2049 0 70.2904 12.2065 858 110.333 803.343 466.825
2050 0 73.2168 12.6474 926 108.623 804.073 464.911
2051 0 75.2002 13.3776 1006 106.828 804.083 464.294
2052 0 78.2785 13.2348 1036 107.193 804.194 463.109
2053 0 81.2609 13.3028 1081 106.445 804.514 460.37
2054 1 41.1715 11.4642 472 112.932 804.727 480.714
2055 0 43.2682 13.3585 578 110.682 804.192 478.394
2056 0 44.1595 12.4775 551 109.924 804.499 470.454
2057 0 46.1043 12.3199 568 114.609 804.264 475.354
2058 0 47.1037 12.6105 594 115.31 804.875 475.862
2059 0 47.1408 11.455 540 121.943 804.759 476.969
2060 0 51.1264 12.1659 622 119.527 803.884 476.15
2061 0 51.149 11.6522 596 122.166 804.31 476.366
2062 0 51.164 11.4729 587 124.872 804.719 475.167
2063 0 53.1417 12.2691 652 122.977 804.439 474.503
2064 0 56.1812 13.5633 762 119.08 804.786 473.907
2065 0 57.3081 12.3019 705 123.424 804.682 472.199
2066 0 59.1486 12.9504 766 122.253 804.659 471.744
2067 0 62.3125 13.3842 834 119.566 805.18 471
2068 0 63.1123 13.1512 830 121.533 804.325 469.017
2069 0 64.2568 12.6679 814 123.623 804.002 468.048
2070 0 68.2085 13.3121 908 122.253 804.287 467.062
2071 0 68.2439 12.9682 885 124.661 804.041 466.063
2072 0 74.3941 13.778 1025 120.87 804.566 465.347
2073 0 76.4388 13.8673 1060 121.311 803.95 462.507
2074 0 78.4047 13.7619 1079 122.812 803.492 463.384
2075 0 80.4324 13.962 1123 125.375 803.378 458.751
2076 0 84.4794 13.6128 1150 125.798 804.092 457.028
2077 0 85.4056 13.4769 1151 126.297 803.592 454.899
2078 0 88.336 13.3468 1179 126.694 803.045 452.687
2079 0 90.1696 12.665 1142 126.666 803.651 452.494
2080 1 48.2018 10.2278 493 123.738 804.022 471.643
2081 0 49.2242 12.8595 633 117.25 803.695 471.186
2082 0 51.2417 12.2947 630 125.23 803.638 471.557
2083 0 54.2089 12.5256 679 123.623 803.804 471.274
2084 0 57.1994 11.9582 684 125.314 803.323 470.325
2085 0 58.1581 12.7927 744 122.995 803.715 469.457
2086 0 60.2272 12.4529 750 124.161 803.931 470.744
2087 0 61.1213 12.7288 778 123.929 804.296 469.138
2088 0 61.154 11.4465 700 128.939 804.324 466.157
2089 0 65.1892 13.1924 860 122.693 803.531 466.034
2090 0 64.1638 12.094 776 126.991 803.49 465.236
2091 0 67.1447 12.3167 827 124.879 803.726 465.157
2092 0 68.1028 11.8204 805 126.978 803.686 462.242
2093 0 73.1368 11.499 841 125.842 804.086 461.385
2094 0 75.1255 13.0315 979 121.128 803.592 459.38
2095 0 76.1618 11.0291 840 128.157 803.718 457.318
2096 1 42.0518 8.84624 372 120.75 802.763 479.349
2097 0 45.0836 11.8003 532 117.897 803.363 478.853
2098 0 48.0447 12.8838 619 115.15 803 477.73
2099 0 48.1125 12.3253 593 117.958 803.128 475.302
2100 0 46.0789 11.8275 545 115.895 802.624 476.717
2101 0 49.0969 11.182 549 117.936 802.111 476.683
2102 0 50.0589 11.3866 570 118.225 802.554 475.726
2103 0 50.0648 12.0843 605 120.446 802.274 473.825
2104 0 52.0319 11.4353 595 121.824 802.195 473.943
2105 0 52.0685 11.1008 578 124.638 803.104 473.37
2106 0 53.1467 10.0477 534 128.006 802.386 472.406
2107 0 55.1202 11.0123 607 125.054 802.498 471.249
2108 0 57.1199 10.3817 593 126.452 802.895 470.307
2109 0 59.0975 10.8972 644 125.14 803.61 468.401
2110 0 62.2198 11.7969 734 121.775 804.075 469.474
2111 0 63.2671 11.4435 724 123.659 804.272 468.956
2112 0 66.2571 11.5459 765 122.954 804.416 467.779
2113 0 68.3627 11.3366 775 123.892 803.636 465.542
2114 0 71.3026 11.1497 795 124.079 804.761 465.682
2115 0 73.2903 12.1844 893 122.245 804.716 464.398
2116 0 73.2903 12.1435 890 153.017 804.703 464.408
2117 0 77.3992 12.2482 948 124.734 804.233 461.056
2118 0 79.3577 12.5004 992 123.397 804.452 460.802
2119 0 81.4705 12.1148 987 125.724 803.434 458.651
2120 0 82.2917 11.921 981 126.098 803.967 458.893
2121 0 85.2708 12.1261 1034 125.357 803.998 458.895
2122 0 91.2538 12.5365 1144 124.327 803.91 456.038
2123 0 93.3443 12.6092 1177 124.917 804.004 455.053
2124 0 94.3375 12.8157 1209 124.209 804.044 454.12
2125 0 97.2545 12.6781 1233 126.011 803.517 451.104
2126 0 100.332 12.4886 1253 127.832 803.668 446.358
2127 0 104.305 12.2238 1275 128.679 803.686 447.882
2128 0 106.079 13.3768 1419 126.576 802.882 445.802
2129 0 109.176 12.5761 1373 127.749 803.175 446.318
2130 0 111.178 12.7093 1413 129.036 803.381 440.89
2131 0 118.177 13.3021 1572 126.557 803.097 439.136
2132 1 64.0462 10.0552 644 124.269 802.376 465.896
2133 0 68.0313 11.4359 778 121.055 802.45 468.693
2134 0 69.0858 10.7692 744 123.544 802.434 464.816
2135 0 72.1141 12.4248 896 123.458 802.244 465.535
2136 0 75.0706 12.7613 958 122.946 802.199 464.474
2137 0 78.0935 12.818 1001 124.128 802.5 464.318
2138 0 79.1923 13.4483 1065 122.129 802.282 463.189
2139 0 82.1419 13.0993 1076 122.977 802.263 460.796
2140 0 83.1003 12.1901 1013 127.344 802.225 459.207
2141 0 85.1847 13.4531 1146 124.992 802.201 457.4
2142 0 88.2856 12.3803 1093 127.087 802.384 455.467
2143 0 92.2717 12.875 1188 124.674 802.775 455.73
2144 0 96.2712 12.8491 1237 124.584 802.491 453.251
2145 0 97.2209 12.5385 1219 121.765 802.959 454.196
2146 0 100.308 11.5145 1155 122.934 802.876 454.697
2147 0 104.457 12.5794 1314 120.107 803.011 448.263
2148 0 105.231 11.432 1203 122.064 803.819 446.187
2149 1 55.1614 11.0222 608 122.918 803.27 465.179
2150 0 57.1212 11.3968 651 124.885 802.507 467.513
2151 0 57.1212 11.3268 647 148.039 802.533 467.456
2152 0 62.1123 12.0266 747 120.206 803.701 464.685
2153 0 64.1405 11.8334 759 120.989 803.155 463.411
2154 0 66.1801 11.2572 745 122.329 803.094 461.604
2155 0 66.1809 11.3477 751 123.503 803.009 459.43
2156 0 68.1116 12.3327 840 121.937 803.663 458.689
2157 0 74.1721 12.9563 961 117.783 803.755 456.922
2158 0 75.1429 12.8422 965 118.611 803.613 456.574
2159 0 77.2366 12.2092 943 119.681 803.267 455.066
2160 0 82.1496 12.8302 1054 116.594 803.621 455.112
2161 0 84.223 14.4735 1219 113.254 803.264 453.263
2162 0 87.1 13.8576 1207 108.584 803.292 453.457
2163 0 89.166 12.6842 1131 113.171 803.007 452.24
2164 0 90.2077 13.3359 1203 111.986 802.8 450.919
2165 0 94.1367 13.5016 1271 111.44 802.438 450.652
2166 0 97.1958 12.5211 1217 115.135 802.594 449.93
2167 0 98.1604 12.7444 1251 116.536 802.784 443.735
2168 1 51.0927 10.3733 530 118.179 802.145 469.766
2169 0 52.1388 12.2941 641 114.924 801.733 467.924
2170 0 52.3421 10.9281 572 120.079 802.54 468.477
2171 0 55.1221 12.1004 667 117.045 802.877 467.403
2172 0 56.2459 13.2988 748 113.91 802.857 466.142
2173 0 58.1333 12.1273 705 117.437 802.837 465.963
2174 0 59.0747 12.1372 717 118.34 802.558 464.849
2175 0 62.1216 12.5077 777 117.215 802.377 464.546
2176 0 63.0679 11.7492 741 119.019 802.679 463.444
2177 0 68.149 12.7515 869 115.396 803.142 461.451
2178 0 68.2084 13.3855 913 115.682 802.83 460.399
2179 0 69.0568 12.4246 858 120.11 802.591 458.343
2180 0 68.1834 12.2904 838 122.962 803.042 458.07
2181 0 73.1772 13.2418 969 118.877 802.522 458.019
2182 0 75.1247 13.8303 1039 118.101 802.291 456.478
2183 0 76.1247 13.0313 992 123.078 802.221 453.979
2184 0 80.0574 13.6652 1094 121.42 802.493 451.704
2185 0 83.0722 12.9887 1079 124.169 802.823 452.575
2186 0 85.0978 13.5609 1154 123.774 802.196 450.266
2187 0 86.0848 12.9407 1114 126.654 802.281 449.207
2188 0 90.0493 12.2933 1107 128.996 802.123 447.825
2189 0 92.0911 13.0631 1203 127.658 802.343 444.535
2190 0 98.1219 13.9724 1371 124.905 802.351 444.378
2191 0 100.056 13.3125 1332 127.147 802.206 442.007
2192 1 53.0583 8.0666 428 120.68 801.706 469.605
2193 0 55.0391 10.2109 562 112.961 801.975 468.902
2194 0 58.0775 12.225 710 114.531 802.777 469.134
2195 0 59.0655 11.0724 654 116.683 802.307 472.109
2196 0 62.0371 11.9284 740 114.303 803.731 472.077
2197 0 65.0641 12.6491 823 112.716 803.599 469.948
2198 0 66.0425 12.0226 794 115.495 803.218 467.436
2199 0 68.0868 11.5 783 116.564 803.227 469.793
2200 0 71.0758 12.0576 857 115.492 803.52 467.179
2201 0 73.0703 12.8506 939 113.54 803.154 464.723
2202 0 75.0565 11.951 897 114.606 802.768 465.424
2203 0 79.0657 11.5726 915 126.463 801.425 461.868
2204 0 83.0599 12.5933 1046 122.163 802.093 462.338
2205 0 84.1048 12.3893 1042 123.28 802.775 460.827
2206 0 85.1152 10.7854 918 127.61 802.698 460.508
2207 0 89.1581 11.7095 1044 125.807 802.951 457.956
2208 1 46.0549 10.1835 469 121.578 803.851 477.945
2209 0 49.0355 11.1552 547 117.42 803.472 477.94
2210 0 50.0785 10.3438 518 117.701 803.77 478.054
2211 0 51.1187 12.4025 634 107.959 803.284 475.756
2212 0 52.0367 10.7424 559 112.05 803.866 474.605
2213 0 52.0367 10.704 557 114.539 804.864 474.614
2214 0 55.0576 11.8421 652 109.058 803.387 474.554
2215 0 57.0931 12.2256 698 107.712 802.855 473.12
2216 0 58.0698 11.6067 674 108.942 803.448 472.378
2217 0 60.1077 10.9969 661 110.728 803.54 470.579
2218 0 62.1155 11.5591 718 108.689 803.921 469.999
2219 0 63.0641 10.7827 680 111.378 803.365 469.259
2220 0 65.0702 11.1418 725 111.713 803.559 469.847
2221 0 68.0745 11.414 777 110.659 803.265 467.773
2222 0 71.1103 11.9251 848 109.199 802.805 465.783
2223 0 72.2034 10.3735 749 113.853 802.729 466.579
2224 0 72.1834 10.3763 749 112.805 801.728 466.405
2225 0 78.1075 11.4842 897 111.828 803.292 460.906
2226 0 82.17 10.2836 845 125.272 804.045 459.949
2227 0 85.1396 10.6179 904 121.579 803.644 458.832
2228 0 87.1203 9.73367 848 121.223 802.581 457.84
2229 0 88.1277 8.36286 737 124.429 802.199 453.175
2230 0 92.2213 10.0302 925 125.376 802.579 456.944
2231 1 49.0541 9.78512 480 120.438 802.131 477.206
2232 0 49.0357 8.58557 421 122.817 801.71 477.273
2233 0 54.0299 9.67983 523 118.535 802.272 477.262
2234 0 56.072 9.70181 544 119.296 802.928 475.912
2235 0 56.1185 9.88978 555 120.151 802.414 473.114
2236 0 60.0989 9.06838 545 119.807 802.806 476.543
2237 0 60.1828 10.2355 616 118.945 802.164 472.894
2238 0 59.0904 10.7293 634 119.284 801.951 472.983
2239 0 62.1428 10.846 674 117.898 802.653 472.135
2240 0 64.1983 11.5424 741 116.449 802.579 469.964
2241 0 68.1844 12.3489 842 113.571 802.469 470.114
2242 0 69.2923 12.1081 839 115 802.571 469.218
2243 0 70.3499 10.5757 744 118.331 802.315 467.55
2244 0 75.1681 11.3878 856 117.007 802.805 465.916
2245 0 76.401 10.3925 794 120.244 802.372 465.397
2246 0 79.3445 11.2799 895 119.419 802.742 460.111
2247 0 81.4681 10.4826 854 120.184 803.779 463.137
2248 0 86.6243 11.2786 977 119.757 803.417 458.025
2249 0 88.4486 9.74577 862 123.041 803.581 459.733
2250 0 90.7127 11.09 1006 125.627 803.064 455.349
2251 0 94.483 11.3565 1073 125.982 803.204 455.833
2252 1 49.2272 13.4072 660 117.933 803.353 477.529
2253 0 51.1904 11.76 602 123.125 803.183 478.133
2254 0 51.1186 12.9698 663 121.965 803.181 475.365
2255 0 51.1453 11.4771 587 127.078 803.404 475.896
2256 0 56.1222 12.6331 709 123.568 803.839 475.529
2257 0 56.3302 12.8705 725 124.31 802.585 475.623
2258 0 58.2553 13.6125 793 123.202 803.141 476.743
2259 0 59.3237 12.7605 757 126.095 803.715 477.375
2260 0 62.3096 12.6465 788 125.42 803.709 476.321
2261 0 64.2261 14.231 914 122.367 803.319 475.824
2262 0 65.2067 13.5415 883 125.932 803.23 474.42
2263 0 65.2067 13.4955 880 147.967 803.237 474.43
2264 0 71.2706 14.4239 1028 124.17 802.697 477.042
2265 0 72.3456 13.629 986 128.013 802.002 477.954
2266 0 75.3179 13.7152 1033 128.12 801.628 476.054
2267 0 79.3599 14.5036 1151 126.487 801.603 475.486
2268 0 81.3304 14.5456 1183 126.431 801.044 475.544
2269 0 84.3639 14.2478 1202 129.26 800.911 474.428
2270 0 86.369 13.7318 1186 130.326 800.091 474.797
2271 0 91.2388 14.1278 1289 129.01 800.041 472.801
2272 0 94.3962 12.6382 1193 134.115 799.822 471.723
2273 0 97.4299 13.579 1323 132.805 799.992 468.211
2274 1 47.1161 10.9304 515 133.151 799.68 492.095
2275 0 49.0964 13.2393 650 126.488 799.366 491.172
2276 0 48.3574 12.0974 585 131.263 799.571 489.074
2277 0 49.1818 11.5897 570 134.651 799.104 487.565
2278 0 51.2247 11.4007 584 134.676 799.024 487.079
2279 0 51.1858 11.8978 609 135.581 797.839 485.929
2280 0 56.2025 12.5261 704 129.589 797.838 485.429
2281 0 57.2604 12.9234 740 128.666 797.273 482.441
2282 0 57.1751 11.7884 674 132.933 797.947 482.684
2283 0 61.1868 13.614 833 126.295 798.05 481.321
2284 0 62.1771 14.0084 871 126.559 797.381 479.729
2285 0 65.2186 12.8338 837 129.172 797.685 479.039
2286 0 67.1408 13.3004 893 127.041 798.297 477.334
2287 0 69.2578 13.6447 945 126.635 797.717 476.034
2288 0 73.2618 14.1274 1035 123.985 796.649 476.145
2289 0 75.1781 12.7165 956 127.013 797.254 477.904
2290 0 78.2373 13.6508 1068 125.05 797.825 477.411
2291 0 78.2373 13.6636 1069 152.271 798.822 477.352
2292 0 85.0882 13.1276 1117 125.802 797.426 476.236
2293 0 83.0668 12.0746 1003 124.209 798.145 476.284
2294 0 87.1835 13.4544 1173 118.987 798.881 475.276
2295 0 91.1506 12.4739 1137 121.707 798.504 472.183
2296 1 48.0908 11.8734 571 124.128 798.637 492.263
2297 0 49.0732 11.2893 554 124.807 797.532 490.455
2298 0 51.1079 12.2486 626 124.326 797.054 491.629
2299 0 54.164 12.1852 660 126.597 797.058 490.745
2300 0 53.1955 12.0123 639 129.014 797.537 487.355
2301 0 57.1404 12.9681 741 124.281 797.309 486.592
2302 0 58.0936 13.0479 758 125.443 797.621 486.752
2303 0 61.1202 13.8089 844 121.794 796.914 486.377
2304 0 63.1109 12.9138 815 125.307 797.064 483.887
2305 0 63.1389 13.0506 824 126.061 797.551 484.369
2306 0 67.151 13.209 887 124.719 796.895 483.681
2307 0 69.1074 13.7612 951 124.323 796.712 482.899
2308 0 72.193 13.547 978 124.534 796.8 481.905
2309 0 74.1562 14.0244 1040 125.029 796.629 479.578
2310 0 76.163 13.6155 1037 125.883 796.729 478.529
2311 0 77.1529 13.1557 1015 127.579 796.828 477.689
2312 0 80.1676 13.372 1072 127.425 796.695 476.383
2313 0 82.247 13.7877 1134 128.156 796.94 472.678
2314 0 85.1249 13.1806 1122 126.978 797.155 474.357
2315 0 87.1503 13.1726 1148 128.833 797.008 472.484
2316 0 89.0849 12.9988 1158 128.997 797.114 470.34
2317 0 94.1792 11.8498 1116 131.037 796.733 470.045
2318 0 98.3077 13.5493 1332 127.387 797.565 462.04
2319 0 100.214 12.0143 1204 127.742 797.659 457.421
2320 0 106.297 13.4905 1434 123.207 797.737 456.234
2321 0 108.276 13.4933 1461 128.248 797.4 460.791
2322 1 55.1733 12.651 698 126.766 798.132 484.57
2323 0 57.2005 12.1328 694 127.406 798.555 484.795
2324 0 61.1579 13.784 843 121.641 799.112 483.079
2325 0 62.164 11.8396 736 125.567 798.346 484.688
2326 0 63.1374 13.6686 863 123.16 798.499 481.346
2327 0 66.1336 13.9717 924 121.843 798.294 478.878
2328 0 70.2101 13.8014 969 121.676 798.561 477.482
2329 0 71.1411 13.9441 992 121.623 798.528 476.255
2330 0 72.1894 13.991 1010 122.298 798.346 475.705
2331 0 76.1274 14.0028 1066 121.597 799.292 475.626
2332 0 78.2059 14.1805 1109 119.841 798.694 474.857
2333 0 81.12 14.0533 1140 120.356 799.038 471.228
2334 0 82.1075 13.1413 1079 123.85 798.884 468.511
2335 0 85.1813 15.1442 1290 119.492 798.124 466
2336 0 87.1812 14.0856 1228 122.912 799.023 466.197
2337 0 90.1171 13.5157 1218 125.129 799.342 464.722
2338 0 92.145 14.0539 1295 124.612 799.221 459.458
2339 0 95.1457 14.3149 1362 124.034 799.137 454.46
2340 0 99.1597 14.1993 1408 124.388 799.344 454.386
2341 0 102.138 14.5686 1488 122.733 798.653 453.094
2342 1 53.1027 10.6021 563 123.629 797.714 478.563
2343 0 56.0499 10.6691 598 123.806 797.978 480.125
2344 0 57.2496 12.4542 713 119.799 799.865 476.85
2345 0 61.0839 13.1622 804 113.134 800.465 478.255
2346 0 62.1393 13.1318 816 115.016 800.292 476.088
2347 0 64.1665 13.5585 870 113.48 800.377 474.818
2348 0 64.1681 11.9062 764 118.928 799.763 472.651
2349 0 66.0963 12.6331 835 117.417 799.697 470.297
2350 0 68.1061 13.0972 892 115.298 801.022 470.339
2351 0 71.0424 13.1471 934 115.122 801.206 467.9
2352 0 73.1556 13.8472 1013 113.711 800.943 465.075
2353 0 73.1486 12.5498 918 118.716 800.613 463.997
2354 0 76.1486 13.2635 1010 117.377 801.323 460.49
2355 0 79.0684 12.3943 980 119.106 801.255 461.949
2356 0 80.1014 13.0959 1049 118.014 801.504 459.636
2357 0 83.0714 13.7833 1145 117.455 800.601 456.101
2358 0 87.1365 13.5535 1181 117.339 801.019 455.386
2359 0 87.128 12.0512 1050 122.885 801.826 451.514
2360 0 92.1376 11.7867 1086 124.253 801.598 448.673
2361 0 94.1656 13.4975 1271 120.562 801.182 447.279
2362 0 97.2317 13.3598 1299 120.7 800.844 446.331
2363 0 101.109 13.52 1367 119.987 801.171 444.984
2364 1 47.0592 10.1362 477 126.325 801.153 470.637
2365 0 52.083 12.1921 635 120.063 800.334 472.428
2366 0 52.083 12.2305 637 135.336 800.319 472.487
2367 0 55.0612 12.4044 683 120.327 800.236 470.133
2368 0 57.0649 12.3719 706 119.683 800.092 470.055
2369 0 58.0264 13.3215 773 118.155 799.931 468.797
2370 0 62.0489 13.2637 823 117.417 799.902 469.323
2371 0 64.0435 12.9443 829 119.29 800.65 468.115
2372 0 65.1121 12.9469 843 120.444 800.664 466.485
2373 0 67.1603 13.0583 877 120.392 800.81 465.629
2374 0 69.1009 12.6771 876 122.175 801.054 462.684
2375 0 72.1186 12.2021 880 123.142 801.281 461.67
2376 0 75.1096 13.0077 977 121.765 801.447 459.67
2377 0 75.1675 12.5852 946 125.008 801.169 459.458
2378 0 77.1799 12.4773 963 125.331 801.967 458.405
2379 0 82.3052 13.5836 1118 120.987 802.222 455.027
2380 1 40.1203 9.97003 400 122.302 802.305 476.25
2381 0 42.0508 11.3434 477 118.008 801.084 477.002
2382 0 44.0516 10.011 441 120.143 801.027 476.256
2383 0 44.0145 10.8828 479 118.641 801.19 474.048
2384 0 49.2597 12.2615 604 117.916 801.791 479.856
2385 0 49.1077 12.0755 593 121.499 801.654 477.573
2386 0 49.1746 11.9777 589 122.007 801.543 476.409
2387 0 51.2928 11.5611 593 123.083 802.074 474.757
2388 0 53.1198 13.1589 699 118.698 802.063 476.757
2389 0 56.1269 11.7947 662 122.035 801.702 475.594
2390 0 58.2716 11.5665 674 123.025 801.909 473.453
2391 0 59.1933 12.8731 762 119.559 802.293 472.238
2392 0 61.1688 12.441 761 121.035 802.376 472.778
2393 0 64.2318 12.813 823 120.085 801.496 471.908
2394 0 64.2253 12.3316 792 143.98 800.381 472.26
2395 0 69.3227 11.8576 822 123.687 801.721 469.31
2396 0 71.4708 12.3827 885 122.071 801.399 468.097
2397 0 71.3155 11.8908 848 125.815 802.019 465.915
2398 0 75.3202 12.8651 969 120.991 801.706 465.732
2399 1 38.2362 9.88592 378 124.032 801.392 484.085
2400 0 41.0237 11.1887 459 122.338 800.423 481.203
2401 0 41.1154 11.1151 457 123.516 800.93 479.024
2402 0 44.0213 12.2441 539 113.642 800.983 482.011
2403 0 44.0335 11.5821 510 115.888 800.71 482.102
2404 0 45.0256 12.1042 545 120.231 799.868 480.517
2405 0 48.0734 12.5017 601 119.957 800.326 478.651
2406 0 48.0293 11.5554 555 123.996 800.422 478.895
2407 0 49.0237 12.7489 625 121.589 801.034 477.336
2408 0 52.0632 12.6193 657 120.804 800.912 477.556
2409 0 53.1091 13.0674 694 119.748 800.555 477.565
2410 0 54.0941 12.811 693 121.687 801.258 476.807
2411 0 56.1036 13.4038 752 120.048 800.895 475.588
2412 0 58.0575 13.7278 797 117.888 801.248 476.082
2413 0 59.0944 13.6223 805 119.039 801.286 474.048
2414 0 60.1354 12.555 755 122.609 800.845 473.412
2415 0 63.0542 14.0831 888 118.046 800.842 471.682
2416 0 66.1302 15.8173 1046 111.898 800.928 468.89
2417 0 65.0661 14.5083 944 118.805 801.298 469.754
2418 0 68.2548 14.2115 970 118.229 802.267 464.397
2419 0 71.2268 15.1067 1076 116.759 802.786 460.021
2420 0 73.1997 13.1831 965 122.991 802.76 460.434
2421 0 75.152 14.637 1100 118.28 802.512 465.514
2422 0 78.1815 15.464 1209 115.414 802.729 465.95
2423 0 79.1015 13.8303 1094 121.854 802.43 464.973
2424 0 82.2389 15.2726 1256 118.496 802.693 460.716
2425 0 87.1634 16.3945 1429 114.371 802.445 459.714
2426 1 45.1345 11.8534 535 123.181 803.72 481.697
2427 0 48.0236 11.4111 548 123.385 801.985 479.759
2428 0 46.1436 12.3094 568 121.224 802.181 478.549
2429 0 50.0955 11.7575 589 126.769 801.611 479.789
2430 0 61.074 17.0449 1041 102.841 801.316 473.631
2431 0 58.0821 16.5972 964 108.344 801.674 473.312
2432 0 55.0411 13.063 719 125.72 801.033 478.003
2433 0 56.0189 12.9956 728 125.878 801.177 477.584
2434 0 57.0618 14.1601 808 125.606 801.287 474.819
2435 0 58.1215 13.9707 812 125.805 800.634 473.601
2436 0 61.028 11.9126 727 130.677 801.263 472.248
2437 0 64.0406 13.4758 863 126.051 801.286 471.838
2438 0 66.2798 12.9753 860 126.845 801.208 471.271
2439 0 68.0665 13.81 940 124.28 801.129 469.887
2440 0 69.0555 12.7579 881 128.207 801.042 469.034
2441 0 73.0502 12.9363 945 127.798 801.568 467.246
2442 0 75.0708 12.8545 965 127.24 801.242 467.427
2443 0 77.1031 13.3328 1028 126.217 801.372 466.426
2444 0 79.0987 13.9952 1107 126.187 801.229 465.239
2445 0 81.1616 13.5655 1101 126.697 800.896 464.062
2446 0 83.1964 13.2698 1104 127.891 801.187 461.68
2447 0 87.1273 13.4401 1171 127.057 801.177 459.346
2448 0 90.1109 13.9495 1257 124.85 802.088 457.974
2449 1 46.1964 10.9965 508 125.65 801.535 480.545
2450 0 47.076 11.8744 559 124.571 801.608 478.932
2451 0 49.1056 12.524 615 121.641 801.927 478.166
2452 0 47.165 12.064 569 124.418 801 477.903
2453 0 50.0812 12.3 616 124.295 801.383 477.182
2454 0 52.1191 13.8337 721 119.466 801.767 475.624
2455 0 54.1683 12.9781 703 121.929 802.521 474.686
2456 0 56.1008 12.5667 705 122.24 801.977 474.516
2457 0 56.1924 11.9589 672 124.979 801.92 472.661
2458 0 59.1511 13.5585 802 119.662 802.739 471.418
2459 0 62.2224 12.9214 804 120.269 801.889 471.813
2460 0 63.2667 12.6449 800 123.036 801.831 467.697
2461 0 67.452 13.5949 917 119.309 802.611 465.782
2462 0 68.2581 13.1853 900 120.677 802.572 463.423
2463 0 67.264 13.4098 902 136.057 801.563 463.344
2464 0 72.5201 13.8169 1002 118.375 803.132 461.613
2465 0 74.4027 12.1904 907 121.863 803.432 460.621
2466 0 77.2849 12.965 1002 119.941 803.292 460.205
2467 0 79.2947 13.2544 1051 119.772 803.476 457.656
2468 0 83.3052 12.4722 1039 121.227 803.04 458.112
2469 0 86.3593 13.687 1182 119.566 803.774 454.748
2470 0 88.2019 12.3467 1089 117.388 802.548 451.316
2471 1 42.0509 10.1068 425 115.089 801.701 476.264
2472 0 47.1156 10.591 499 114.196 801.523 475.397
2473 0 47.075 11.0887 522 115.276 803.015 473.448
2474 0 49.2146 11.9883 590 115.746 803.466 475.573
2475 0 50.3044 11.7087 589 119.278 803.008 474.139
2476 0 50.2486 11.1048 558 122.165 803.552 473.909
2477 0 53.2112 12.1027 644 118.503 803.494 473.602
2478 0 54.2013 12.1399 658 118.72 803.251 473.55
2479 0 55.234 11.2069 619 120.727 803.486 471.8
2480 0 59.2047 11.8234 700 118.51 803.489 470.753
2481 0 63.2058 12.6571 800 114.965 803.186 470.23
2482 0 61.3159 11.7914 723 118.344 803.192 467.001
2483 0 64.2882 11.6351 748 117.465 803.517 469.219
2484 0 67.2464 12.7144 855 115.596 803.097 467.123
2485 0 69.0813 11.7108 809 115.81 802.958 467.818
2486 0 73.1551 12.617 923 114.375 803.143 465.371
2487 0 73.1751 11.124 814 118.473 802.727 463.891
2488 0 78.2221 12.4006 970 114.987 802.799 461.92
2489 0 81.3646 12.5362 1020 116.371 801.969 457.238
2490 0 83.1631 11.4113 949 113.369 802.655 460.999
2491 1 44.0562 10.01 441 111.517 804.875 479.188
2492 0 45.0374 10.9909 495 108.683 805.071 477.41
2493 0 47.059 11.6025 546 105.625 802.286 476.879
2494 0 47.0313 11.3329 533 107.657 802.268 477.317
2495 0 51.0451 12.9689 662 101.931 801.337 474.34
2496 0 52.0883 11.5381 601 105.854 800.97 473.962
2497 0 51.0893 11.4114 583 108.729 801.209 474.422
2498 0 51.0497 9.67684 494 113.706 802.587 475.419
2499 0 53.121 10.6738 567 111.908 801.57 472.693
2500 0 56.1394 9.12015 512 113.986 801.918 473.857
2501 0 58.0811 11.3806 661 110.203 802.26 471.395
2502 0 60.1079 11.313 680 111.121 801.324 469.746
2503 0 62.216 11.0422 687 111.766 801.488 469.787
2504 0 64.1056 10.9975 705 112.898 801.891 467.583
2505 0 66.0914 11.938 789 112.508 801.975 465.556
2506 0 68.1046 10.0581 685 117.298 802.127 467.089
2507 0 71.2119 12.4277 885 113.818 801.867 463.945
2508 0 75.1129 12.0086 902 113.218 802.072 464.537
2509 0 77.1165 11.0223 850 115.644 801.948 463.666
2510 1 42.0182 11.5664 486 112.142 801.195 480.165
2511 0 43.2613 11.5577 500 113.846 804.384 475.588
2512 0 43.013 10.6247 457 117.877 801.33 479.989
2513 0 46.0168 11.5393 531 116.252 801.23 477.418
2514 0 46.0447 11.0762 510 118.227 801.8 478.971
2515 0 48.042 13.0927 629 114.215 801.471 476.779
2516 0 47.0102 11.7634 553 119.658 801.078 475.823
2517 0 50.04 12.5699 629 118.192 800.769 474.266
2518 0 51.0755 11.6103 593 121.103 800.978 472.73
2519 0 52.0408 10.8569 565 114.947 802.062 476.596
2520 0 52.0327 11.7618 612 113.786 802.225 475.866
2521 0 53.0841 10.5681 561 118.565 801.28 472.649
2522 0 54.0967 11.1837 605 116.504 801.456 472.939
2523 0 57.0622 11.3385 647 116.289 801.504 472.615
2524 0 58.1161 11.2361 653 118.263 802.224 472.531
2525 0 61.1331 12.301 752 114.828 801.89 471.479
2526 0 64.1028 12.5268 803 114.075 802.067 469.78
2527 0 66.1734 11.3943 754 117.426 802.544 467.732
2528 0 67.1353 11.1268 747 118.331 802.372 466.636
2529 0 70.0979 11.9832 840 116.974 802.893 465.763
2530 0 70.1336 10.8935 764 121.127 802.359 464.428
2531 1 38.0746 10.0592 383 119.52 801.507 481.488
2532 0 39.0838 11.2835 441 120.007 802.188 478.134
2533 0 40.174 10.9275 439 119.567 802.761 478.633
2534 0 41.0896 12.0712 496 115.02 802.45 478.698
2535 0 43.0279 11.783 507 115.024 801.996 476.858
2536 0 45.1027 10.6867 482 117.871 801.905 474.867
2537 0 45.0967 11.309 510 117.339 802.325 477.196
2538 0 46.0632 12.5914 580 114.874 802.074 474.916
2539 0 49.0613 11.985 588 116.111 802.134 474.471
2540 0 51.0914 12.4874 638 115.038 802.172 473.147
2541 0 51.0961 12.6428 646 115.941 802.305 472.923
2542 0 52.1335 11.8542 618 118.115 802.561 473.225
2543 0 54.0461 12.2673 663 118.089 802.315 471.682
2544 0 55.1229 12.3361 680 118.154 802.534 471.674
2545 0 58.0612 13.4685 782 114.994 802.832 471.119
2546 0 58.081 12.6203 733 119.535 803.209 469.835
2547 0 61.1075 13.0099 795 118.025 803.101 470.488
2548 0 62.0364 13.5082 838 117.716 803.605 468.801
2549 0 64.08 14.1542 907 116.128 803.032 469.154
2550 0 66.0828 13.0291 861 120.22 803.033 465.338
2551 0 70.1046 13.8365 970 116.871 803.216 466.393
2552 0 73.0338 14.1304 1032 116.737 803.405 465.063
2553 0 74.0765 13.8911 1029 118.36 803.305 463.643
2554 0 75.123 14.0303 1054 118.808 803.329 460.977
2555 0 79.0709 14.5186 1148 116.078 803.807 463.126
2556 0 81.1486 14.3194 1162 117.762 802.396 460.245
2557 1 45.0229 12.105 545 116.404 802.703 479.583
2558 0 43.0163 10.6471 458 121.218 803.282 472.09
2559 0 45.1559 12.1579 549 117.57 804.282 464.002
2560 0 47.1245 12.4776 588 116.218 805.214 463.629
2561 0 49.1023 12.0972 594 115.527 805.601 464.101
2562 0 49.1212 12.8458 631 113.823 804.377 461.83
2563 0 51.0829 12.1371 620 116.287 804.281 462.111
2564 0 52.0698 12.5985 656 114.678 804.27 461.462
2565 0 54.0457 13.3221 720 112.558 804.968 462.551
2566 0 54.0651 12.1335 656 115.875 804.398 460.858
2567 0 56.0857 12.1243 680 115.162 804.631 462.507
2568 0 57.085 12.2274 698 114.766 804.143 461.192
2569 0 62.1628 13.1429 817 110.311 803.993 462.136
2570 0 63.3573 12.9898 823 113.977 804.473 469.441
2571 0 65.2441 13.8863 906 111.99 804.332 466.52
2572 0 68.214 14.9676 1021 107.823 804.674 467.426
2573 0 68.1705 13.3489 910 114.458 804.444 465.052
2574 0 70.173 13.3527 937 114.683 805.162 465.614
2575 0 71.1621 13.0266 927 114.825 805.131 464.505
2576 0 75.1391 14.1338 1062 112.065 804.7 461.575
2577 0 76.1637 14.075 1072 112.899 804.56 459.711
2578 0 80.1929 13.3304 1069 114.86 804.206 460.372
2579 0 82.2122 13.2949 1093 114.511 803.945 460.489
2580 0 85.1879 14.3213 1220 112.57 804.202 457.69
2581 0 87.1568 13.5962 1185 115.473 803.853 455.268
2582 0 90.1509 12.823 1156 117.044 803.817 453.721
2583 0 94.2586 13.8237 1303 115.078 804.084 453.309
2584 0 94.1171 12.9626 1220 121.075 804.198 450.373
2585 1 49.0171 10.4861 514 118.642 802.619 469.733
2586 0 50.0277 10.4742 524 118.639 802.219 471.447
2587 0 53.052 11.5924 615 115.87 803.023 473.036
2588 0 54.1296 12.1006 655 115.011 802.637 471.043
2589 0 57.1167 11.4677 655 115.867 802.722 471.922
2590 0 56.1103 11.1031 623 119.209 802.637 470.761
2591 0 59.0987 11.4385 676 116.243 802.422 471.13
2592 0 63.0981 11.6961 738 115.228 802.591 467.663
2593 0 65.0883 11.6611 759 113.675 802.966 464.709
2594 0 67.0819 11.1058 745 116.529 802.852 467.493
2595 0 67.0975 12.0869 811 115.469 802.977 464.883
2596 0 72.1551 10.2973 743 118.476 802.704 465.793
2597 0 73.073 11.8375 865 115.569 802.867 464.246
2598 0 75.041 11.0606 830 116.925 802.625 464.493
2599 0 78.0752 10.7332 838 117.456 802.413 461.999
2600 0 80.095 10.7497 861 116.49 802.929 462.023
2601 0 84.154 12.2751 1033 113.151 803.052 459.742
2602 0 84.1075 11.3426 954 116.46 802.278 457.756
2603 0 89.0945 11.2802 1005 115.817 802.889 455.648
2604 0 92.1403 11.374 1048 115.614 802.545 453.249
2605 0 94.1055 10.8495 1021 117.267 803.015 452.593
2606 0 96.1604 10.9193 1050 117.492 802.839 450.501
2607 1 50.071 10.2854 515 113.598 802.274 475.266
2608 0 52.0859 11.6154 605 110.769 802.298 472.159
2609 0 54.0321 11.049 597 114.449 803.327 473.343
2610 0 56.0831 12.6955 712 111.465 803.229 470.853
2611 0 58.0682 12.4853 725 108.509 802.779 470.819
2612 0 60.0671 12.2363 735 108.218 802.822 469.618
2613 0 62.1055 11.4 708 109.633 802.671 468.102
2614 0 64.0863 12.4052 795 107.268 803.347 468.976
2615 0 65.1852 12.0886 788 107.543 803.5 468.931
2616 0 70.1729 12.5832 883 104.986 803.103 467.569
2617 0 70.1664 12.6841 890 105.82 802.678 466.007
2618 0 74.1334 12.8147 950 104.373 803.22 465.107
2619 0 77.1039 12.8528 991 104.15 802.968 464.874
2620 0 77.1647 12.739 983 105.291 802.838 462.229
2621 0 80.1337 11.9675 959 106.74 802.83 464.163
2622 0 84.1145 12.0312 1012 106.076 802.748 461.958
2623 0 84.1145 12.0193 1011 148.275 802.724 462.172
2624 0 89.1652 12.6955 1132 104.318 802.587 458.887
2625 0 94.257 13.0282 1228 102.107 802.603 456.055
2626 0 97.253 13.4392 1307 100.888 802.813 456.142
2627 0 100.133 11.5446 1156 104.278 802.608 455.055
2628 0 102.222 12.3652 1264 102.624 802.951 453.72
2629 1 52.2206 11.0684 578 101.282 803.036 474.671
2630 0 56.1773 10.3601 582 100.146 802.837 461.342
2631 0 58.255 11.0205 642 101.083 802.234 472.1
2632 0 58.1848 11.2229 653 99.5406 802.058 474.838
2633 0 61.2222 10.4537 640 101.056 801.795 472.791
2634 0 63.1091 12.0268 759 97.9341 801.924 473.486
2635 0 62.1191 10.1257 629 102.663 801.585 473.469
2636 0 66.197 12.4175 822 97.9367 801.766 472.927
2637 0 69.171 12.3607 855 98.4152 801.587 471.623
2638 0 70.0719 11.6166 814 101.67 801.445 467.672
2639 0 73.1681 12.4371 910 100.68 800.962 468.934
2640 0 77.1903 12.5404 968 100.806 801.246 465.111
2641 0 79.0794 12.6961 1004 101.896 801.8 464.375
2642 0 82.2326 11.6864 961 104.235 801.903 462.063
2643 0 84.3328 11.3835 960 105.882 801.409 459.892
2644 0 86.2074 11.5767 998 107.102 801.068 457.527
2645 0 86.2262 11.5162 993 130.351 801.057 457.486
2646 1 47.2112 12.0311 568 104.431 799.794 481.68
2647 0 48.0907 11.7278 564 102.897 800.062 482.415
2648 0 48.1125 12.4292 598 102.958 799.975 479.766
2649 0 49.1731 10.4529 514 107.64 799.92 479.146
2650 0 51.0492 12.5565 641 101.88 799.91 481.465
2651 0 54.1479 12.6321 684 102.259 800.526 478.751
2652 0 55.1595 12.6542 698 101.076 799.934 479.832
2653 0 57.1551 12.1249 693 102.922 799.802 477.108
2654 0 58.2517 11.9996 699 102.96 799.926 478.413
2655 0 60.1565 12.4841 751 102.534 800.154 476.593
2656 0 62.0867 13.4973 838 100.593 800.048 474.351
2657 0 63.0809 12.2541 773 103.318 799.62 474.527
2658 0 66.0995 12.0878 799 104.362 800.076 473.477
2659 0 70.0983 13.5809 952 100.706 800.756 471.395
2660 0 70.1165 13.449 943 102.405 800.023 470.229
2661 0 72.0607 12.1703 877 105.314 800.271 469.715
2662 0 75.1555 11.6558 876 105.902 800.823 468.357
2663 0 78.1346 12.4273 971 103.094 800.629 466.327
2664 0 80.2241 12.864 1032 101.736 800.605 465.621
2665 0 83.1691 11.3985 948 105.346 800.851 465.189
2666 0 83.1981 12.5484 1044 104.219 800.394 463.038
2667 0 88.1807 12.9167 1139 102.905 800.183 461.999
2668 0 91.0977 12.1847 1110 104.788 800.572 458.289
2669 0 96.0842 12.999 1249 101.996 800.521 459.722
2670 0 96.1021 11.7791 1132 106.579 800.826 455.867
2671 0 103.199 12.1997 1259 106.022 800.824 454.666
2672 0 104.106 10.9984 1145 112.867 801.193 452.602
2673 0 106.276 11.2537 1196 114.622 799.906 451.448
2674 1 56.0797 13.2668 744 105.023 800.797 475.855
2675 0 56.0767 13.4994 757 105.349 800.091 475.143
2676 0 57.0504 13.1638 751 106.895 800.465 476.025
2677 0 60.1004 13.7104 824 106.036 800.21 474.152
2678 0 62.1375 13.6311 847 106.614 800.512 472.955
2679 0 62.1246 12.7486 792 109.121 800.971 473.809
2680 0 67.0712 13.5975 912 106.298 800.175 473.249
2681 0 67.06 13.3612 896 108.117 800.112 472.451
2682 0 70.0835 13.0701 916 108.794 800.617 472.571
2683 0 72.0591 13.6555 984 108.001 799.871 469.838
2684 0 75.128 13.5901 1021 108.357 800.587 469.217
2685 0 78.0936 14.3418 1120 106.886 800.205 465.2
2686 0 81.0776 13.9989 1135 108.041 799.922 466.456
2687 0 82.1378 13.5748 1115 111.483 799.757 463.823
2688 0 85.1536 13.963 1189 111.235 800.193 462.231
2689 0 87.1658 13.1244 1144 114.436 800.233 460.834
2690 0 92.189 13.2554 1222 112.836 800.434 460.302
2691 1 46.0448 10.4681 482 117.593 800.413 480.176
2692 0 47.1012 10.6367 501 112.208 801.273 479.814
2693 0 46.1243 11.469 529 113.121 800.575 478.444
2694 0 50.0656 12.3838 620 115.961 800.415 480.073
2695 0 53.0465 12.178 646 116.95 800.156 478.658
2696 0 53.0769 11.7377 623 118.828 800.087 478.981
2697 0 54.0528 11.3593 614 120.871 800.461 477.466
2698 0 57.1103 12.0469 688 118.703 800.705 476.698
2699 0 58.0447 13.4724 782 116.024 800.834 474.921
2700 0 62.0658 12.9057 801 116.391 800.944 473.991
2701 0 62.1023 12.415 771 118.399 800.58 474.42
2702 0 64.0575 12.5044 801 117.795 801.139 474.351
2703 0 65.1062 12.2415 797 119.949 800.555 472.715
2704 0 68.1967 12.6986 866 119.397 801.333 470.503
2705 0 70.1521 13.0716 917 118.181 801.467 468.894
2706 0 72.2041 12.6032 910 119.703 801.541 469.67
2707 0 73.2057 12.8542 941 120.148 801.536 466.296
2708 0 76.157 12.75 971 120.442 801.841 466.873
2709 0 79.2735 12.3875 982 121.931 801.46 464.3
2710 0 82.3035 12.8306 1056 120.383 801.53 463.193
2711 0 86.3498 12.6578 1093 120.038 802.076 461.982
2712 1 43.178 10.7925 466 120.833 802.139 481.049
2713 0 45.2775 12.4124 562 115.407 802.206 479.034
2714 0 46.1072 11.4733 529 114.198 801.648 481.578
2715 0 49.0338 11.8286 580 114.516 801.303 480.648
2716 0 51.2471 12.4495 638 117.034 801.127 477.614
2717 0 51.1442 12.5136 640 116.73 802.094 478.117
2718 0 53.1786 12.8059 681 116.576 801.759 475.394
2719 0 56.1559 14.1036 792 112.317 801.087 475.321
2720 0 56.1904 12.1907 685 117.888 801.403 473.955
2721 0 58.2234 13.0703 761 114.808 801.227 473.896
2722 0 60.1294 12.4066 746 116.755 800.993 473.436
2723 0 63.1481 14.0147 885 111.688 801.261 472.993
2724 0 64.1252 12.5224 803 117.279 801.735 471.401
2725 0 66.2229 12.4428 824 117.279 801.71 471.842
2726 0 67.1995 12.3364 829 118.782 802.258 468.959
2727 0 70.3614 12.6632 891 117.53 801.855 467.734
2728 0 73.2149 12.8389 940 117.699 802.414 465.12
2729 0 75.3412 13.6446 1028 116.374 802.202 464.364
2730 0 77.3218 13.4891 1043 117.837 803.307 462.765
2731 0 78.2566 12.2929 962 122.834 802.848 460.213
2732 0 81.3673 12.7324 1036 122.578 802.268 458.455
2733 0 84.3904 13.3072 1123 121.038 802.362 459.22
2734 1 43.2481 10.7519 465 118.402 803.439 480.387
2735 0 45.11 11.7712 531 113.889 800.65 476.697
2736 0 47.0889 12.4233 585 112.516 800.588 476.381
2737 0 46.0274 12.4926 575 114.659 800.254 476.477
2738 0 48.0623 12.7543 613 114.555 800.537 476.127
2739 0 49.0461 13.4567 660 113.906 801.308 475.144
2740 0 51.0248 12.6017 643 116.829 800.978 475.215
2741 0 50.0954 11.9372 598 120.99 801.264 475.154
2742 0 55.0442 13.2439 729 115.465 800.931 473.975
2743 0 56.05 14.6476 821 112.783 800.977 473.068
2744 0 57.0608 13.1439 750 118.028 801.463 473.449
2745 0 57.0555 11.9182 680 122.159 801.788 474.249
2746 0 57.1173 11.9754 684 123.928 802.057 472.923
2747 0 61.0492 13.1042 800 121.73 801.955 470.59
2748 0 64.1028 12.7139 815 121.491 802.107 470.188
2749 0 65.0691 13.063 850 120.179 801.778 470.531
2750 0 68.0616 11.2545 766 123.473 802.104 469.398
2751 0 71.0876 13.1809 937 119.496 801.899 464.365
2752 0 73.1447 13.3571 977 118.836 802.449 464.744
2753 0 75.1248 12.193 916 121.019 801.975 466.645
2754 0 76.1121 11.0495 841 125.424 802.322 464.281
2755 0 82.0961 12.5585 1031 122.215 802.192 462.862
2756 0 83.1654 13.9 1156 120.658 801.659 459.172
2757 0 86.1355 13.3859 1153 122.16 802.193 451.892
2758 0 89.1264 12.7684 1138 122.927 802.228 452.575
2759 1 47.0318 11.6304 547 118.289 802.049 477.929
2760 0 47.0724 12.1515 572 117.098 801.787 471.469
2761 0 49.0329 12.665 621 115.309 802.383 469.42
2762 0 49.1432 12.6162 620 120.637 802.176 479.04
2763 0 51.0768 13.9398 712 115.091 801.353 478.187
2764 0 52.0747 13.7111 714 115.917 801.234 477.608
2765 0 55.0638 13.4934 743 116.252 801.83 475.464
2766 0 57.108 13.6233 778 115.578 801.644 475.695
2767 0 59.103 12.4359 735 118.797 801.514 474.347
2768 0 59.0976 12.4878 738 140.321 801.524 474.393
2769 0 61.028 13.2398 808 118.929 801.58 473.306
2770 0 64.0593 13.0348 835 119.307 801.396 470.968
2771 0 66.0528 13.8071 912 116.715 802.268 472.162
2772 0 68.039 13.8009 939 117.295 802.098 469.278
2773 0 69.0536 13.8154 954 117.706 801.878 468.413
2774 0 74.0458 14.6936 1088 114.424 801.748 466.174
2775 0 75.0958 12.3842 930 122.426 801.967 465.532
2776 0 78.0982 13.5214 1056 119.01 802.036 465.23
2777 0 81.0857 13.8619 1124 118.113 801.278 463.512
2778 0 85.1058 13.5243 1151 118.278 801.891 461.461
2779 0 86.0729 12.7915 1101 120.9 801.432 461.769
2780 0 92.1193 13.298 1225 117.978 801.602 458.471
2781 1 50.0092 12.6777 634 120.765 801.118 478.26
2782 0 53.1449 12.814 681 122.496 802.769 474.568
2783 0 55.1933 13.9329 769 121.48 802.887 473.612
2784 0 57.0951 14.327 818 120.839 802.451 474.654
2785 0 57.1808 12.749 729 127.058 802.7 471.916
2786 0 59.1772 14.465 856 120.929 802.224 473.822
2787 0 62.1368 13.1806 819 125.382 802.816 471.945
2788 0 62.1213 13.699 851 124.486 802.529 471.979
2789 0 67.1738 14.0084 941 122.01 802.63 470.338
2790 0 69.1561 13.6937 947 124.055 802.859 466.445
2791 0 70.2353 13.4832 947 124.347 802.062 466.982
2792 0 74.1349 14.0015 1038 122.162 802.82 466.336
2793 0 75.0814 13.825 1038 123.195 802.599 464.412
2794 0 78.1657 13.6121 1064 122.814 803.219 464.1
2795 0 81.0565 13.7558 1115 122.555 803.294 462.091
2796 0 83.1076 13.0072 1081 125.564 803.117 457.884
2797 0 85.2916 11.5017 981 128.576 802.854 456.357
2798 0 90.1072 12.7959 1153 123.824 802.874 456.354
2799 0 92.162 13.3135 1227 122.101 803.091 455.373
2800 1 50.1318 12.3674 620 117.344 803.36 477.061
2801 0 50.2419 12.1213 609 116.03 803.038 477.768
2802 0 52.1589 12.251 639 116.333 803.349 476.51
2803 0 53.1837 12.5978 670 117.697 803.46 475.316
2804 0 55.2037 12.1912 673 117.841 803.354 475.266
2805 0 55.197 12.392 684 118.531 802.896 473.177
2806 0 59.2583 13.1121 777 115.117 802.761 472.498
2807 0 60.1783 13.1775 793 114.55 803.256 471.878
2808 0 62.1246 13.0383 810 114.541 803.74 469.873
2809 0 66.1321 14.3198 947 110.121 803.299 469.03
2810 0 68.1677 13.2467 903 112.898 803.13 468.104
2811 0 70.0291 13.4801 944 113.069 802.529 467.65
2812 0 72.1207 13.4219 968 113.026 802.903 465.651
2813 0 73.0554 12.5932 920 116.192 802.939 465.203
2814 0 76.1355 13.6993 1043 113.396 802.211 462.208
2815 0 81.1157 12.7719 1036 114.097 802.359 462.304
2816 1 44.0912 11.3855 502 109.614 803.61 481.787
2817 0 45.0528 11.0981 500 110.934 802.686 480.626
2818 0 46.2421 10.8775 503 107.698 801.823 477.203
2819 0 48.2002 11.0373 532 112.436 801.028 478.66
2820 0 50.2619 12.1563 611 108.756 801.177 479.949
2821 0 49.0979 12.4853 613 110.439 800.92 478.801
2822 0 52.1426 13.0987 683 107.95 801.212 478.362
2823 0 53.199 13.5529 721 108.458 801.323 476.062
2824 0 53.1441 12.3626 657 111.676 800.747 476.015
2825 0 56.2558 12.1943 686 111.055 800.996 476.27
2826 0 55.119 11.9741 660 112.982 801.179 475.232
2827 0 58.1404 13.2954 773 109.455 801.494 472.902
2828 0 61.1282 13.3817 818 108.22 801.296 473.35
2829 0 61.1648 12.0821 739 112.1 801.18 472.034
2830 0 64.1436 13.0177 835 110.113 801.06 470.349
2831 0 66.1633 12.3785 819 110.645 801.399 470.977
2832 0 68.1201 12.155 828 109.954 801.246 471.144
2833 0 69.1297 11.9052 823 109.153 801.423 470.365
2834 0 71.0885 12.815 911 106.269 801.514 468.804
2835 0 73.1081 11.8728 868 107.811 801.672 468.103
2836 0 76.0955 11.8141 899 108.072 801.616 466.488
2837 0 80.0549 11.6795 935 107.088 801.661 462.782
2838 0 81.115 11.4529 929 108.141 801.004 460.254
2839 0 86.0807 11.6751 1005 105.491 801.3 456.533
2840 1 42.0213 10.8754 457 104.164 800.453 479.013
2841 0 46.0583 11.7677 542 102.563 800.256 481.301
2842 0 47.0266 11.8444 557 108.151 802.89 478.795
2843 0 49.2196 11.1338 548 111.613 801.071 479.578
2844 0 50.1944 12.4516 625 109.125 800.949 479.138
2845 0 51.2413 10.4603 536 113.326 800.086 479.724
2846 0 53.1828 12.222 650 110.818 800.495 477.603
2847 0 53.2304 11.3845 606 113.528 801.127 475.82
2848 0 55.1795 11.8703 655 112.947 800.8 477.797
2849 0 56.1464 11.7015 657 114.391 800.277 476.142
2850 0 58.147 12.8295 746 112.881 800.496 474.965
2851 0 60.0778 13.2661 797 111.913 800.221 475.036
2852 0 63.1776 12.0454 761 114.677 800.292 472.691
2853 0 65.148 12.0495 785 114.683 800.546 472.471
2854 0 66.1259 12.0528 797 115.748 800.241 471.119
2855 0 69.1823 12.2286 846 116.259 800.022 469.376
2856 0 72.1331 12.269 885 115.75 800.621 467.881
2857 0 73.0949 12.2854 898 117.735 800.764 467.359
2858 0 76.1086 11.1026 845 120.917 800.181 467.114
2859 0 79.2151 11.7654 932 119.776 800.695 463.873
2860 1 41.0805 9.10407 374 117.618 799.42 483.81
2861 0 41.1795 10.1264 417 117.189 799.295 482.724
2862 0 43.0214 11.041 475 113.352 799.238 482.832
2863 0 46.0977 10.2608 473 113.932 799.915 480.078
2864 0 43.0735 10.4937 452 116.648 799.507 482.491
2865 0 45.1284 10.6142 479 117.795 799.543 480.864
2866 0 47.1247 10.3555 488 116.281 799.381 481.609
2867 0 50.0497 12.2079 611 112.773 799.133 479.753
2868 0 50.0593 11.1068 556 116.707 799.5 477.453
2869 0 52.0423 12.0095 625 113.053 799.754 478.992
2870 0 55.0559 12.5691 692 111.331 798.919 477.857
2871 0 54.0956 12.0527 652 114.637 799.515 475.144
2872 0 60.0856 13.2977 799 108.566 798.957 476.622
2873 0 62.0573 12.3273 765 111.527 799.371 475.209
2874 0 62.0573 12.3434 766 144.379 799.362 475.234
2875 0 66.2132 13.1394 870 109.963 799.963 474.045
2876 0 68.0447 13.2413 901 112.202 800.155 472.024
2877 0 69.0686 12.4224 858 115.754 800.307 469.143
2878 0 73.0967 12.6682 926 114.219 799.967 468.892
2879 0 74.0382 13.5606 1004 114.652 799.649 465.814
2880 0 77.0703 12.9233 996 116.366 800.163 465.157
2881 0 80.0764 13.3622 1070 115.108 799.691 465.788
2882 0 82.1214 12.3598 1015 118.459 799.641 464.47
2883 0 83.122 12.1869 1013 119 800.441 462.888
2884 1 43.059 10.0792 434 121.779 799.512 480.809
2885 0 45.0945 11.2431 507 117.598 800.268 477.047
2886 0 48.0553 12.2775 590 119.256 799.686 480.027
2887 0 48.0581 13.4629 647 118.212 799.646 477.476
2888 0 49.0379 12.3986 608 120.982 799.049 476.965
2889 0 52.0933 13.2455 690 117.917 799.778 477.903
2890 0 53.037 12.5761 667 120.163 799.706 477.246
2891 0 54.0594 12.8007 692 119.988 799.331 476.259
2892 0 54.0133 12.3118 665 122.913 799.594 474.914
2893 0 57.0366 13.3949 764 120.262 799.868 473.322
2894 0 58.1041 13.2004 767 120.684 799.415 472.854
2895 0 60.0347 12.9925 780 121.346 799.938 473.365
2896 0 64.0686 13.6416 874 118.661 799.692 471.066
2897 0 64.033 13.5243 866 120.209 799.836 472.23
2898 0 67.0699 14.9098 1000 118.074 800.109 469.809
2899 0 70.0816 14.6829 1029 118.686 800.179 469.144
2900 0 73.121 13.8674 1014 120.702 800.466 468.336
2901 0 73.0436 14.5119 1060 121.674 800.395 466.238
2902 0 75.0934 14.1823 1065 122.289 799.962 464.352
2903 0 75.1415 14.0934 1059 122.749 800.619 465.466
2904 0 78.0339 15.3523 1198 119.944 800.65 463.455
2905 0 81.0959 14.7233 1194 121.77 800.307 462.57
2906 0 84.0824 14.5096 1220 122.722 800.502 461.302
2907 0 85.0839 16.1017 1370 119.236 800.536 458.935
2908 0 86.0459 13.7717 1185 125.927 800.327 458.711
2909 0 92.1413 15.7475 1451 119.489 800.346 457.247
2910 0 94.0818 14.6575 1379 123.186 800.258 454.925
2911 0 97.1229 14.8575 1443 122.923 800.222 452.651
2912 0 99.0816 13.9279 1380 127.32 800.093 449.633
2913 0 104.128 14.9719 1559 124.076 800.466 447.329
2914 0 106.158 14.0734 1494 126.415 800.407 446.89
2915 0 113.17 15.0835 1707 121.667 800.9 445.642
2916 0 113.137 14.5133 1642 125.205 801.199 444.023
2917 0 120.103 14.8623 1785 119.648 801.112 443.941
2918 0 123.221 14.5267 1790 122.699 801.414 440.927
2919 0 127.303 16.1898 2061 118.133 801.264 441.423
2920 0 129.239 14.9026 1926 121.875 800.544 435.191
2921 0 133.274 15.1492 2019 122.827 800.934 432.628
2922 0 137.137 15.1308 2075 123.6 801.053 431.593
2923 0 143.199 15.1677 2172 123.076 801.754 430.699
2924 0 147.213 14.924 2197 123.365 801.352 426.234
2925 1 79.1278 13.0296 1031 123.015 801.119 464.054
2926 0 82.1075 13.0926 1075 124.398 801.063 460.447
2927 0 84.1241 14.4429 1215 119.534 801.091 459.979
2928 0 85.1261 12.8985 1098 123.633 800.752 459.474
2929 0 88.2037 14.0243 1237 120.945 800.514 456.738
2930 0 93.1502 14.8792 1386 117.355 800.488 456.311
2931 0 95.1794 13.6689 1301 121.67 800.538 453.261
2932 0 100.097 15.1952 1521 116.641 800.415 450.283
2933 0 101.11 13.6188 1377 120.69 800.272 450.209
2934 0 106.078 13.8106 1465 119.513 800.701 447.842
2935 0 108.131 12.8641 1391 122.656 800.607 447.313
2936 0 112.193 14.0026 1571 119.771 800.945 441.621
2937 0 118.323 14.8577 1758 115.588 800.348 439.053
2938 0 119.301 13.3863 1597 120.156 800.078 437.879
2939 0 125.252 13.5727 1700 118.262 800.483 436.276
2940 0 127.27 12.8781 1639 119.957 800.772 431.697
2941 0 135.248 14.0187 1896 117.37 800.883 431.984
2942 0 141.346 15.2887 2161 113.549 800.988 430.522
2943 0 144.457 13.7342 1984 117.89 800.665 424.789
2944 1 71.103 12.6155 897 117.333 801.351 462.59
2945 0 71.1488 12.1717 866 118.148 801.323 461.901
2946 0 76.1209 13.7938 1050 112.906 801.488 460.589
2947 0 78.0903 13.9966 1093 112.835 801.399 458.079
2948 0 81.1559 13.2215 1073 113.984 801.429 458.484
2949 0 83.2112 13.8202 1150 110.453 799.618 459.965
2950 0 87.2172 14.997 1308 106.735 799.69 460.759
2951 0 90.307 14.3953 1300 108.525 799.935 456.002
2952 0 94.3242 14.2805 1347 108.181 799.716 452.497
2953 0 96.2873 12.5666 1210 113.266 799.813 454.031
2954 0 100.173 14.9142 1494 108.062 800.512 447.991
2955 0 103.203 13.5654 1400 111.483 800.371 445.169
2956 0 107.375 14.3888 1545 109.059 800.524 445.679
2957 0 109.306 14.775 1615 108.859 800.386 444.656
2958 0 113.132 14.5051 1641 110.261 800.718 444.677
2959 0 116.173 13.9361 1619 112.194 800.56 441.885
2960 0 119.184 13.777 1642 112.289 800.91 441.625
2961 0 122.171 13.8248 1689 112.696 801.139 437.112
2962 0 125.261 14.1145 1768 112.386 801.551 434.169
2963 0 126.577 14.8526 1880 93.6537 801.421 431.82
2964 0 131.313 13.7229 1802 114.395 800.588 430.531
2965 0 136.391 14.4437 1970 112.546 800.688 428.435
2966 0 142.403 14.2061 2023 112.437 800.329 427.519
2967 0 146.451 14.947 2189 110.46 800.735 423.649
2968 0 150.382 14.6094 2197 111.421 800.239 422.199
2969 0 156.385 14.2085 2222 112.719 800.406 419.18
2970 0 160.353 14.2311 2282 112.87 800.543 416.099
2971 0 169.363 15.1922 2573 109.725 800.258 415.052
2972 0 174.452 12.8345 2239 114.511 799.906 409.009
2973 0 183.409 13.5053 2477 108.94 799.932 408.089
2974 0 187.494 13.4351 2519 110.591 799.974 405.432
2975 0 194.44 13.2175 2570 112.494 799.481 401.655
2976 0 202.423 13.1556 2663 114.422 800.079 398.805
2977 1 40.0965 11.6968 469 103.309 800.923 478.657
2978 0 44.1381 11.7812 520 102.917 800.717 477.206
2979 0 42.0873 13.2106 556 102.435 798.399 478.872
2980 0 44.1044 11.3367 500 105.472 798.59 481.506
2981 0 45.0536 11.6972 527 105.554 798.905 480.713
2982 0 47.2201 11.7535 555 105.84 799.052 481.748
2983 0 48.0351 11.9288 573 107.25 799.344 480.361
2984 0 49.0288 12.4621 611 106.473 798.835 479.44
2985 0 52.1424 13.6166 710 104.231 799.499 477.076
2986 0 53.1608 11.8696 631 108.293 799.716 478.498
2987 0 55.2041 13.441 742 105.697 799.313 476.978
2988 0 56.0288 13.7429 770 105.694 798.79 476.931
2989 0 59.1692 13.3008 787 107.111 799.327 475.568
2990 0 60.1843 13.4254 808 108.521 799.24 473.137
2991 0 63.0765 14.2684 900 105.438 799.188 470.862
2992 0 64.0603 13.2844 851 108.962 798.986 471.16
2993 0 66.1025 15.0221 993 105.698 798.816 469.326
2994 0 67.1281 14.45 970 108.759 799.189 468.508
2995 0 70.0919 14.2385 998 108.317 799.087 468.219
2996 0 73.0914 15.72 1149 104.79 799.178 465.745
2997 0 75.1831 13.4738 1013 110.554 799.923 465.403
2998 0 75.1224 14.6295 1099 109.192 799.737 463.874
2999 0 78.2747 14.0147 1097 111.489 799.74 461.644
3000 0 80.211 11.6692 936 115.967 799.37 463.569
3001 1 46.0973 12.0397 555 113.495 799.575 477.813
3002 0 47.0665 11.5156 542 115.788 799.266 477.856
3003 0 50.0665 12.9827 650 110.525 799.452 477.288
3004 0 50.0445 12.7087 636 114.217 799.505 475.868
3005 0 51.0122 12.5264 639 112.837 799.685 478.873
3006 0 51.0337 12.4232 634 113.17 799.92 478.386
3007 0 53.1392 12.5331 666 113.198 800.646 476.014
3008 0 56.1018 12.6199 708 114.045 799.85 475.295
3009 0 55.1097 12.4842 688 115.363 800.292 474.256
3010 0 58.1044 13.7511 799 111.782 799.86 473.257
3011 0 60.0902 12.2649 737 113.718 799.845 472.304
3012 0 60.0501 12.7394 765 113.941 800.218 471.107
3013 0 62.0239 12.7048 788 113.259 800.615 471.148
3014 0 67.115 13.2608 890 111.509 800.087 470.465
3015 0 70.0874 13.8256 969 110.527 799.783 467.757
3016 0 72.0542 14.6973 1059 108.887 799.72 465.635
3017 0 83.0891 20.3757 1693 90.2623 799.858 459.053
3018 0 82.1367 15.7907 1297 103.264 800.171 459.583
3019 0 83.1071 15.0288 1249 106.429 800.083 458.725
3020 0 86.261 15.5922 1345 105.692 800.137 458.813
3021 0 85.0936 13.1385 1118 112.791 799.868 460.151
3022 0 88.1279 12.4705 1099 114.188 800.336 460.484
3023 1 45.1971 12.1025 547 116.598 799.861 478.322
3024 0 47.1281 11.6067 547 117.327 800.004 480.402
3025 0 51.0678 14.8822 760 108.711 800.155 478.117
3026 0 51.1588 13.6633 699 114.79 799.773 476.499
3027 0 53.1455 14.3192 761 112.014 800.355 475.731
3028 0 52.07 13.7123 714 117.29 800.987 474.417
3029 0 56.1829 15.2182 855 111.833 800.745 474.882
3030 0 58.1681 15.2489 887 112.077 800.568 471.467
3031 0 59.1171 15.4608 914 111.509 800.455 471.364
3032 0 59.0445 14.8871 879 114.57 800.588 472.689
3033 0 62.0716 14.4349 896 115.719 800.646 471.618
3034 0 67.1599 16.081 1080 110.807 800.556 470.459
3035 0 67.288 15.233 1025 115.138 800.844 469.867
3036 0 69.2066 14.9408 1034 117.424 800.111 469.494
3037 0 71.1436 14.4356 1027 119.237 800.681 468.119
3038 0 72.1209 16.0009 1154 116.815 800.445 467.637
3039 0 76.2442 15.8307 1207 116.838 801.003 466.778
3040 0 78.0647 17.05 1331 115.12 800.879 467.032
3041 0 80.0931 15.7567 1262 119.48 800.815 464.306
3042 0 83.1198 15.5318 1291 120.036 800.794 463.31
3043 0 83.1095 14.7276 1224 124.225 801.337 461.206
3044 0 89.1948 15.5614 1388 120.293 800.921 460.43
3045 1 44.1328 11.624 513 130.832 801.033 480.349
3046 0 45.0282 12.6587 570 121.011 800.996 480.172
3047 0 47.0547 13.8775 653 124.124 801.648 478.858
3048 0 48.1056 13.8861 668 127.046 801.784 479.722
3049 0 49.0996 14.8677 730 113.866 801.753 477.864
3050 0 48.0423 15.8194 760 121.853 802.305 476.955
3051 0 49.1694 14.4399 710 127.217 801.855 477.503
3052 0 51.0516 14.789 755 125.987 801.556 475.963
3053 0 51.2241 15.6762 803 124.044 802.219 476.01
3054 0 52.1462 14.5169 757 126.357 801.919 476.882
3055 0 54.1132 15.6893 849 121.595 801.946 475.733
3056 0 56.1563 14.9048 837 122.944 801.476 474.278
3057 0 58.1627 16.3679 952 116.349 802.235 474.862
3058 0 57.0312 15.6055 890 120.726 801.415 473.266
3059 0 61.1107 15.251 932 119.31 800.935 472.406
3060 0 60.0936 14.9933 901 121.211 800.782 470.938
3061 0 63.2118 14.9972 948 119.282 801.068 471.942
3062 0 65.2317 14.4868 945 120.405 800.741 471.732
3063 0 65.1293 14.9088 971 122.674 800.58 469.283
3064 0 69.2973 15.6716 1086 119.047 800.641 471.021
3065 0 70.1906 15.8996 1116 120.878 801.119 466.859
3066 0 73.3107 16.1232 1182 120.169 801.035 467.339
3067 0 74.1042 15.1948 1126 124.433 800.872 467.849
3068 0 77.1959 14.8324 1145 126.629 800.776 465.379
3069 0 78.2066 15.0371 1176 126.728 801.504 465.348
3070 0 80.2109 14.9356 1198 129.106 801.45 463.686
3071 1 42.0254 13.5157 568 130.312 801.445 481.9
3072 0 43.0354 13.7329 591 132.932 801.352 480.448
3073 0 44.1019 14.5572 642 132.5 801.526 479.037
3074 0 45.1905 14.5827 659 134.14 800.859 477.719
3075 0 46.019 14.5157 668 136.454 801.244 477.234
3076 0 47.0821 13.7844 649 138.467 801.173 477.445
3077 0 47.0272 14.3747 676 138.633 800.868 477.581
3078 0 51.0439 15.3397 783 135.195 800.773 476.756
3079 0 54.0367 15.6375 845 134.044 800.899 476.735
3080 0 55.0848 15.1221 833 137.628 801.269 475.283
3081 0 56.1113 16.1287 905 136.159 800.792 473.715
3082 0 57.0517 15.372 877 140.266 801.399 473.194
3083 0 59.0747 16.623 982 137.576 800.92 472.426
3084 0 62.0886 16.1543 1003 139.816 801.449 472.215
3085 0 61.0462 16.1353 985 143.098 801.245 470.313
3086 0 63.03 15.2467 961 147.297 801.517 468.587
3087 0 67.0922 15.6054 1047 144.34 800.797 469.096
3088 0 69.0791 17.2266 1190 140.144 801.07 466.385
3089 0 71.2248 15.8091 1126 145.703 801.165 466.104
3090 0 72.1247 15.7366 1135 147.517 801.647 464.233
3091 0 77.0741 16.7242 1289 141.329 800.798 464.485
3092 0 78.079 15.8685 1239 146.592 800.919 460.367
3093 0 81.1125 15.4847 1256 146.216 801.048 460.634
3094 0 86.1905 15.9646 1376 143.645 800.561 458.655
3095 0 88.1358 15.0904 1330 149.123 800.74 456.686
3096 0 91.1204 14.8814 1356 148.287 801.305 456.409
3097 1 44.0553 14.4591 637 150.121 801.852 478.305
3098 0 44.0455 15.0072 661 149.604 801.247 475.837
3099 0 48.0657 14.3346 689 147.522 801.039 475.763
3100 0 49.0277 15.5015 760 144.305 801.429 476.032
3101 0 50.1165 16.0825 806 143.592 801.196 473.794
3102 0 50.0895 15.5721 780 147 800.979 473.278
3103 0 52.0495 15.3316 798 146.935 800.919 472.495
3104 0 55.0397 15.7886 869 143.759 801.097 471.687
3105 0 57.048 15.4607 882 143.653 801.238 471.096
3106 0 57.0338 15.4119 879 145.578 801.212 471.058
3107 0 59.0545 15.4095 910 147.047 801.088 469.143
3108 0 63.0377 16.7836 1058 139.888 801.068 468.63
3109 0 63.0166 15.3293 966 145.811 800.69 467.977
3110 0 66.1068 16.1254 1066 143.276 801.141 466.108
3111 0 67.1131 15.1386 1016 147.092 800.743 466.913
3112 0 68.0734 14.7488 1004 149.903 801.108 464.813
3113 0 72.0662 15.6523 1128 144.957 800.869 464.922
3114 0 74.0332 15.3174 1134 146.635 801.66 463.289
3115 0 78.0849 15.957 1246 143.177 801.52 462.226
3116 0 79.1376 15.6057 1235 145.143 801.156 460.562
3117 0 81.0318 15.5371 1259 146.315 800.954 458.533
3118 0 85.0348 14.4294 1227 147.343 800.588 458.984
3119 0 88.0357 15.1302 1332 145.393 800.717 454.844
3120 0 91.0746 15.0097 1367 143.343 801.083 455.696
3121 1 45.0933 12.6183 569 153.501 801.316 474.049
3122 0 47.0381 13.2021 621 150.145 800.969 475.043
3123 0 48.2498 13.8032 666 149.411 801.35 474.541
3124 0 51.0441 14.321 731 146.646 801.689 474.1
3125 0 53.1044 15.253 810 143.789 801.565 472.462
3126 0 56.0698 13.5724 761 147.193 801.903 470.946
3127 0 57.0411 14.4282 823 145.272 801.783 470.015
3128 0 58.0573 13.435 780 148.783 801.656 468.476
3129 0 61.102 13.4366 821 147.317 801.423 467.629
3130 0 66.1751 14.915 987 140.856 801.439 465.855
3131 0 66.1402 12.9422 856 145.922 801.755 465.945
3132 0 67.2786 13.5259 910 145.443 801.624 463.647
3133 0 72.1037 14.4098 1039 140.958 801.572 461.676
3134 0 73.1546 13.9021 1017 142.088 802.019 461.992
3135 0 78.0411 13.9926 1092 140.916 802.647 458.974
3136 0 82.0828 13.4376 1103 140.806 802.033 459.189
3137 1 43.0973 10.6967 461 132.117 801.668 478.946
3138 0 47.0991 12.1658 573 129.269 802.239 479.49
3139 0 45.0841 12.0885 545 132.694 801.796 479.099
3140 0 50.0927 12.1375 608 129.495 802.118 479.513
3141 0 49.0544 12.0071 589 133.258 802.555 477.689
3142 0 52.0699 12.2528 638 131.412 802.406 476.861
3143 0 54.0393 12.5464 678 130.385 802.127 477.119
3144 0 56.1071 11.9949 673 131.612 802.682 475.302
3145 0 60.1353 12.6215 759 128.743 803.125 475.198
3146 0 58.1067 12.7696 742 132.35 802.116 473.02
3147 0 60.0959 11.9642 719 134.175 801.942 472.36
3148 0 64.2261 12.6273 811 132.445 802.407 470.829
3149 0 64.2431 11.6588 749 136.708 801.852 470.131
3150 0 68.3565 12.8883 881 132.503 802.067 469.49
3151 0 69.2977 12.2371 848 134.291 802.087 466.406
3152 0 72.4599 13.0003 942 133.214 802.454 464.275
3153 0 74.0969 12.9155 957 126.376 800.903 459.06
3154 0 75.1061 11.3573 853 131.351 801.216 462.414
3155 0 79.0802 13.1765 1042 127.94 800.867 463.105
3156 0 79.1752 11.8598 939 133.21 801.14 458.328
3157 0 82.2323 12.8538 1057 129.86 801.274 456.631
3158 0 85.3763 12.5445 1071 130.85 801.286 455.176
3159 1 46.2232 10.882 503 124.545 801.636 475.676
3160 0 50.1155 12.1719 610 120.131 800.987 475.131
3161 0 51.1243 11.7557 601 120.354 801.113 474.938
3162 0 52.0931 10.4428 544 121.585 800.469 474.007
3163 0 55.1383 12.6772 699 115.459 801.215 474.959
3164 0 56.1631 11.2173 630 121.865 801.294 476.414
3165 0 56.055 12.1666 682 120.826 801.411 475.356
3166 0 59.0625 12.3259 728 119.842 800.97 473.213
3167 0 60.0908 12.3813 744 121.868 801.246 474.442
3168 0 63.023 11.9639 754 126.004 800.385 472.048
3169 0 64.1125 11.0119 706 125.215 801.48 473.062
3170 0 66.0585 11.505 760 126.857 801.975 470.405
3171 0 69.1382 11.1516 771 128.73 801.052 468.619
3172 0 73.0904 12.5871 920 124.612 801.518 468.386
3173 0 74.1709 11.3926 845 129.27 801.09 466.032
3174 0 79.0957 10.6959 846 130 801.521 466.043
3175 0 80.2274 11.4425 918 129.761 801.513 464.23
3176 1 43.0178 9.74015 419 127.146 802.523 482.768
3177 0 45.0351 11.3911 513 119.721 802.326 481.472
3178 0 45.0771 11.0256 497 122.608 802.354 482.111
3179 0 46.0343 10.5139 484 124.436 802.223 480.847
3180 0 48.0346 10.9921 528 128.023 803.155 478.595
3181 0 49.1253 11.2162 551 122.465 800.956 479.381
3182 0 49.0315 10.9113 535 122.447 800.665 478.667
3183 0 53.0445 10.9719 582 120.735 800.837 479.567
3184 0 51.0302 9.48457 484 125.438 801.225 478.657
3185 0 55.0251 9.90458 545 123.631 801.228 477.717
3186 0 56.1511 10.9704 616 122.55 801.193 474.45
3187 0 59.0494 11.0077 650 120.728 800.886 476.017
3188 0 60.0371 10.9432 657 121.988 801.076 474.233
3189 0 65.0727 11.1414 725 119.902 802.538 470.607
3190 0 67.0828 12.492 838 116.99 802.023 470.848
3191 0 68.1514 11.6505 794 120.785 802.03 467.501
3192 0 71.0784 12.9294 919 116.405 802.115 468.683
3193 0 73.0995 10.8482 793 121.284 801.822 469.052
3194 0 77.1754 12.2189 943 118.035 801.616 464.89
3195 0 80.1883 11.7972 946 119.666 802.002 463.455
3196 0 82.0937 12.9486 1063 118.976 801.769 460.737
3197 1 45.0133 12.3075 554 118.061 800.487 481
3198 0 46.0463 11.7056 539 118.724 800.371 481
3199 0 47.0577 11.7303 552 120.639 799.703 480.717
3200 0 48.0663 11.7546 565 121.956 800.145 479.632
3201 0 51.0268 12.366 631 120.448 799.094 477.431
3202 0 51.0551 12.5551 641 120.538 798.814 477.477
3203 0 52.014 10.8432 564 126.45 798.693 475.924
3204 0 55.121 11.8648 654 121.651 799.616 476.702
3205 0 55.0749 12.5465 691 121.179 799.713 476.612
3206 0 57.101 12.1014 691 122.081 799.873 475.148
3207 0 58.0674 13.3982 778 119.533 799.392 475.432
3208 0 59.075 13.3051 786 120.296 800.333 474.654
3209 0 60.0817 11.967 719 124.481 800.022 473.159
3210 0 61.0943 12.4398 760 123.616 799.867 472.678
3211 0 65.0495 14.4967 943 116.218 800.15 474.486
3212 0 65.2103 13.6328 889 119.942 801.074 471.871
3213 0 68.2465 13.7443 938 120.103 800.633 470.742
3214 0 71.2268 15.2751 1088 115.112 800.803 470.414
3215 0 74.2494 14.2897 1061 117.88 800.381 469.533
3216 0 74.2019 13.8676 1029 120.99 800.356 466.43
3217 0 75.1346 13.9084 1045 121.602 800.891 464.82
3218 0 77.1658 12.674 978 124.918 800.681 465.137
3219 0 82.1613 13.7778 1132 121.234 800.938 464.608
3220 0 82.1785 12.8988 1060 124.711 801.202 462.221
3221 0 86.2198 14.3703 1239 120.234 800.638 459.751
3222 0 88.1479 13.8971 1225 120.922 801.04 460.038
3223 0 91.1534 13.779 1256 120.658 800.932 460.29
3224 0 96.1021 14.1204 1357 118.021 801.502 457.59
3225 0 97.1264 14.826 1440 111.699 802.368 457.663
3226 0 100.119 14.8723 1489 112.056 802.284 457.817
3227 0 104.077 15.0658 1568 111.307 802.553 454.226
3228 0 107.115 15.8242 1695 108.585 801.602 453.936
3229 0 107.111 15.8341 1696 140.686 800.598 453.818
3230 0 112.247 14.281 1603 113.379 800.996 447.861
3231 0 116.186 13.7452 1597 114.743 800.693 448.329
3232 0 121.301 13.4624 1633 113.146 801.23 444.549
3233 1 63.1503 13.6975 865 119.351 801.666 472.497
3234 0 65.0944 14.2255 926 117.648 800.901 472.229
3235 0 68.0519 14.0481 956 117.729 800.834 470.937
3236 0 69.0639 14.4938 1001 117.705 801.055 469.564
3237 0 71.0952 14.4173 1025 117.777 801.527 470.181
3238 0 71.1484 13.6194 969 121.749 801.148 469.021
3239 0 77.0973 14.7087 1134 117.619 801.384 467.519
3240 0 78.1924 13.39 1047 122.427 801.262 466.024
3241 0 81.1537 13.7024 1112 121.189 801.113 465.43
3242 0 83.1116 13.909 1156 123.159 800.862 461.612
3243 0 87.073 13.816 1203 124.633 800.213 462.843
3244 0 88.1712 13.5872 1198 129.926 800.757 460.259
3245 0 87.1752 12.7559 1112 167.011 800.766 459.023
3246 0 95.1587 15.0485 1432 125.922 800.999 456.5
3247 1 50.0303 12.0127 601 132.637 800.434 478.265
3248 0 53.1173 12.9525 688 129.279 801.078 477.938
3249 0 55.0691 14.0551 774 128.199 801.022 476.31
3250 0 56.1287 14.9122 837 125.793 800.866 477.203
3251 0 57.0894 13.5577 774 130.315 801.41 475.174
3252 0 57.0894 13.6102 777 164.668 801.445 475.274
3253 0 63.0467 14.4655 912 125.547 801.724 473.73
3254 0 65.0385 14.0993 917 127.005 801.7 471.453
3255 0 68.1656 14.7288 1004 120.806 801.781 471.858
3256 0 68.1276 14.6196 996 123.108 801.631 468.673
3257 0 74.1103 14.222 1054 122.62 801.515 469.583
3258 0 74.0465 14.3288 1061 124.077 801.727 467.02
3259 0 76.1 14.113 1074 124.684 802.136 466.334
3260 0 81.0892 15.5878 1264 119.536 801.843 465.106
3261 0 82.1266 14.7334 1210 123.888 801.376 462.119
3262 0 88.2487 13.8132 1219 124.158 801.162 462.815
3263 0 88.2418 15.0382 1327 123.033 801.427 460.158
3264 0 94.2414 15.4072 1452 119.855 801.206 460.689
3265 1 50.1518 12.9806 651 127.134 801.743 479.96
3266 0 50.0369 12.8905 645 129.22 800.896 477.521
3267 0 54.1192 13.6735 740 124.878 800.778 475.664
3268 0 54.1429 15.0343 814 122.179 800.668 474.907
3269 0 55.1132 14.0257 773 124.966 801.325 475.358
3270 0 57.1467 14.0866 805 124.393 801.067 475.97
3271 0 58.2236 14.9081 868 123.088 801.318 472.703
3272 0 62.1422 14.7243 915 121.739 801.4 472.199
3273 0 61.1302 14.2646 872 125.631 801.414 471.274
3274 0 65.0644 13.5404 881 126.637 801.541 470.38
3275 0 67.1 13.0253 874 127.557 801.164 470.289
3276 0 69.1658 14.2556 986 126.02 801.389 465.723
3277 0 72.3335 14.2672 1032 124.495 801.517 466.244
3278 0 75.3618 14.0389 1058 125.179 801.483 464.259
3279 0 77.2393 13.3481 1031 128.183 802 462.465
3280 0 79.2129 14.4673 1146 125.411 801.316 459.384
3281 1 40.0762 12.4263 498 130.685 802.283 480.064
3282 0 43.1897 12.7114 549 127.171 802.291 479.594
3283 0 43.1181 14.008 604 126.227 802.402 478.697
3284 0 44.1061 12.4699 550 130.073 802.222 478.404
3285 0 44.0909 13.4722 594 128.606 801.857 476.604
3286 0 45.1992 13.0312 589 129.74 801.89 476.601
3287 0 49.2464 14.2346 701 125.385 801.668 476.009
3288 0 50.1337 14.8802 746 124.454 801.516 474.157
3289 0 54.0805 14.0901 762 124.634 801.259 473.273
3290 0 54.1329 14.2058 769 125.845 801.393 473.735
3291 0 55.1695 13.6489 753 128.918 801.413 472.141
3292 0 59.236 13.6235 807 126.747 801.534 472.32
3293 0 60.3192 13.6938 826 128.843 801.139 469.625
3294 0 64.1597 14.386 923 125.301 801.462 467.648
3295 0 65.1742 13.0727 852 130.164 801.444 465.82
3296 0 66.3044 13.1967 875 131.519 801.605 465.959
3297 0 70.4015 13.9202 980 129.296 801.921 464.016
3298 0 74.2183 15.3601 1140 124.544 801.797 462.889
3299 0 79.3996 15.6676 1244 124.139 802.018 461.961
3300 0 81.2174 15.3662 1248 129.384 801.86 460.27
3301 0 83.3884 14.8702 1240 131.514 802.552 458.229
3302 1 44.1227 13.8704 612 134.234 802.382 476.319
3303 0 47.2009 14.6396 691 132.065 802.776 475.165
3304 0 49.1716 13.7071 674 134.004 802.772 475.418
3305 0 51.1942 14.5329 744 131.219 802.544 473.844
3306 0 51.1116 13.6173 696 136.04 802.165 472.068
3307 0 51.0397 13.5189 690 138.655 802.646 471.116
3308 0 55.1861 15.1125 834 132.945 802.79 469.294
3309 0 56.133 13.5036 758 137.881 803.144 470.226
3310 0 59.373 13.4573 799 137.962 803.02 468.855
3311 0 60.3566 14.3481 866 136.89 802.506 468.41
3312 0 63.304 14.0749 891 138.591 802.723 467.049
3313 0 65.3484 14.1855 927 139.781 802.616 465.687
3314 0 69.2922 15.4852 1073 134.97 802.911 466.256
3315 0 70.3917 15.3001 1077 138.314 802.327 463.683
3316 0 71.2267 14.3205 1020 141.52 802.399 464.159
3317 0 75.4319 15.5107 1170 138.882 802.336 461.827
3318 0 76.253 15.4879 1181 139.55 803.045 463.723
3319 0 79.3274 14.9507 1186 144.304 802.384 459.983
3320 0 82.441 15.1745 1251 142.756 802.635 461.258
3321 0 86.3751 14.1708 1224 147.152 802.449 458.283
3322 0 88.203 14.3873 1269 148.437 802.671 456.914
3323 0 92.2632 14.6321 1350 147.186 802.314 456.079
3324 1 49.1084 13.5211 664 149.616 802.102 476.13
3325 0 52.0753 13.1732 686 151.179 801.726 470.802
3326 0 52.1014 14.7021 766 147.773 801.817 470.283
3327 0 55.0903 13.7229 756 152.45 801.861 468.122
3328 0 55.241 14.0475 776 152.192 802.416 468.267
3329 0 58.2317 14.7514 859 148.697 802.08 468.799
3330 0 59.3873 13.5551 805 155.109 801.657 467.287
3331 0 64.3758 12.9552 834 154.867 801.607 466.187
3332 0 65.2756 14.9673 977 149.042 801.541 465.502
3333 0 66.3408 14.5762 967 151.789 801.678 465.131
3334 0 68.2274 14.3491 979 152.844 801.619 463.713
3335 0 71.282 13.8043 984 154.072 802.438 463.497
3336 0 73.3926 14.2794 1048 153.455 802.468 462.634
3337 0 77.1915 13.5896 1049 152.828 801.912 461.196
3338 0 80.2647 15.3741 1234 148.488 801.605 459.755
3339 0 82.2764 14.6336 1204 150.613 801.81 459.764
3340 0 85.2154 14.4457 1231 151.838 801.802 457.446
3341 0 88.34 14.331 1266 150.897 801.355 456.577
3342 1 45.1642 10.8936 492 153.636 801.276 476.482
3343 0 47.2194 12.3254 582 149.581 801.856 475.275
3344 0 49.1521 12.4105 610 150.189 801.769 475.557
3345 0 51.2206 12.7293 652 149.348 801.89 477.817
3346 0 53.1309 12.4033 659 148.801 802.246 476.395
3347 0 55.0573 14.0399 773 144.044 802.049 475.379
3348 0 54.0231 13.124 709 148.855 801.838 475.426
3349 0 55.0176 12.9958 715 149.603 802.543 472.817
3350 0 57.2014 13.0591 747 148.7 803.181 467.056
3351 0 60.1253 12.6902 763 148.632 803.498 465.519
3352 0 63.1184 14.1322 892 141.802 803.096 462.808
3353 0 65.0587 13.68 890 142.747 802.66 461.849
3354 0 65.1336 12.9887 846 147.564 802.272 468.87
3355 0 64.144 13.0176 835 149.749 802.323 467.654
3356 0 70.1254 14.2602 1000 142.225 802.212 467.452
3357 0 72.0885 14.0383 1012 142.418 802.683 466.324
3358 0 74.1304 14.4205 1069 141.97 802.093 464.095
3359 0 74.1304 14.5284 1077 150.29 801.081 464.043
3360 0 77.1447 13.0275 1005 146.836 801.722 463.259
3361 0 82.1078 15.5405 1276 136.666 801.54 463.221
3362 0 85.1695 14.0661 1198 140.918 802.078 460.483
3363 0 86.1724 13.357 1151 143.527 802.09 460.096
3364 0 88.258 14.095 1244 142.431 802.065 458.727
3365 0 90.1063 13.7615 1240 144.42 802.041 456.047
3366 0 94.1844 15.1299 1425 138.459 801.79 457.835
3367 0 96.1587 14.2577 1371 143.043 801.229 452.659
3368 0 100.258 14.2732 1431 141.507 800.942 450.593
3369 0 103.124 14.5068 1496 139.463 800.322 448.938
3370 0 107.106 14.0422 1504 140.365 800.636 445.906
3371 1 56.0939 10.8033 606 136.135 800.916 470.229
3372 0 58.2472 11.1765 651 132.952 802.131 470.739
3373 0 62.1853 12.72 791 127.148 801.929 471.25
3374 0 63.1801 12.4565 787 131.305 802.186 468.827
3375 0 65.1008 11.4284 744 132.966 802.254 470.101
3376 0 70.279 13.5887 955 127.335 801.84 468.085
3377 0 71.1316 12.8072 911 130.627 801.505 466.653
3378 0 72.2187 12.0606 871 133.785 802.24 465.11
3379 0 76.1299 12.5443 955 132.279 802.281 465.483
3380 0 75.2213 12.0312 905 136.508 802.077 461.724
3381 0 81.1753 13.6495 1108 129.959 802.1 460.021
3382 0 81.1713 12.024 976 136.497 802.133 459.63
3383 0 87.1472 12.1519 1059 134.545 801.808 458.07
3384 0 86.2404 11.1201 959 138.705 801.498 456.479
3385 0 91.2475 11.6277 1061 135.842 802.272 456.602
3386 1 49.0758 9.29175 456 127.507 803.513 479.333
3387 0 53.106 10.8839 578 120.367 802.671 476.427
3388 0 53.4525 11.0378 590 95.9288 801.68 471.963
3389 0 56.0221 11.7811 660 119.227 802.579 474.477
3390 0 57.0831 12.9285 738 117 802.732 474.439
3391 0 57.0611 11.6717 666 123.044 802.506 473.8
3392 0 60.0849 12.0996 727 121.492 803.351 472.682
3393 0 63.0903 11.7926 744 121.802 803.445 472.569
3394 0 65.1081 12.3487 804 121.825 803.664 470.486
3395 0 68.0747 12.6185 859 121.386 803.851 469.428
3396 0 69.0719 12.1033 836 123.543 803.745 468.312
3397 0 70.0999 12.4679 874 123.3 803.271 468.273
3398 0 70.1683 11.7574 825 128.549 802.913 465.393
3399 0 73.2915 11.3519 832 129.441 802.852 467.851
3400 0 75.1924 11.3974 857 130.334 802.841 466.676
3401 0 77.1817 11.609 896 131.153 802.647 462.515
3402 0 81.2837 11.5644 940 130.896 802.063 460.501
3403 0 81.1129 10.0601 816 133.562 803.077 461.277
3404 0 82.0798 11.0502 907 132.169 802.786 459.914
3405 0 88.2351 11.9454 1054 128.777 802.702 457.061
3406 0 88.0767 10.6952 942 133.265 802.591 457.495
3407 0 93.1702 10.2393 954 133.703 802.386 455.714
3408 1 52.1127 11.3984 594 130.039 802.776 474.389
3409 0 54.1374 12.5606 680 127.922 802.968 475.553
3410 0 54.1069 11.9393 646 131.844 803.305 474.102
3411 0 57.1203 12.7275 727 127.887 802.765 475.692
3412 0 58.0895 12.2397 711 131.731 802.826 471.969
3413 0 58.1089 12.3389 717 132.251 802.805 471.23
3414 0 64.1752 13.1048 841 126.271 802.924 471.414
3415 0 65.2414 12.4308 811 129.702 802.898 470.306
3416 0 65.2486 12.3528 806 134.403 801.885 470.318
3417 0 70.4049 13.8485 975 125.273 802.128 467.585
3418 0 70.4302 13.0484 919 129.197 802.034 463.771
3419 0 71.1717 12.2521 872 130.967 802.515 462.901
3420 0 73.383 11.3105 830 133.614 802.349 463.049
3421 0 74.2395 11.2878 838 133.248 802.945 463.111
3422 0 79.3081 12.2308 970 131.727 802.582 459.478
3423 0 80.2049 12.2561 983 131.415 802.367 460.112
3424 0 82.232 12.0634 992 132.89 801.794 457.679
3425 0 86.159 11.3743 980 133.833 802.206 456.901
3426 0 89.2187 12.2508 1093 131.706 802.016 455.051
3427 1 48.0419 10.5325 506 134.86 803.111 476.472
3428 0 49.1032 10.5085 516 134.669 802.802 475.161
3429 0 51.0354 11.2863 576 131.991 803.288 474.903
3430 0 52.0522 11.6806 608 131.112 803.715 475.488
3431 0 54.0326 12.8256 693 128.165 803.382 473.833
3432 0 55.1022 12.7581 703 128.448 803.579 472.865
3433 0 57.0911 12.4538 711 129.996 803.132 471.076
3434 0 61.0657 13.2808 811 126.592 803.364 470.322
3435 0 62.1137 12.0263 747 130.953 803.671 469.598
3436 0 64.0602 11.7077 750 132.148 804.14 468.316
3437 0 65.0771 12.4775 812 131.282 804.19 467.303
3438 0 67.0881 12.8488 862 130.458 803.354 467.566
3439 0 68.1333 12.2407 834 132.315 803.279 466.966
3440 0 69.0894 11.8542 819 134.745 802.999 465.084
3441 0 75.2258 12.8945 970 130.487 802.38 464.127
3442 0 77.2113 13.5861 1049 130.232 802.417 461.576
3443 0 80.2272 14.1847 1138 127.576 802.663 461.941
3444 0 83.2485 13.3816 1114 130.471 802.498 462.159
3445 0 82.2455 13.0463 1073 134.703 802.485 459.139
3446 0 86.2288 13.986 1206 131.612 802.556 459.473
3447 0 90.2058 13.6355 1230 132.372 801.48 458.619
3448 0 94.2648 12.4543 1174 136.809 800.888 456.219
3449 1 50.0592 10.6873 535 136.234 800.548 477.862
3450 0 53.0602 12.0052 637 132.121 800.229 476.915
3451 0 55.05 12.6067 694 131.242 800.424 475.865
3452 0 56.0536 12.381 694 131.808 801.352 475.267
3453 0 58.0526 12.5231 727 131.252 801.37 473.711
3454 0 60.0329 13.6092 817 127.737 800.732 472.327
3455 0 60.049 11.7737 707 131.197 800.884 471.403
3456 0 61.051 12.4486 760 130.772 800.621 470.347
3457 0 66.103 12.9797 858 131.524 800.02 470.491
3458 0 67.0771 13.5218 907 129.791 799.968 471.364
3459 0 68.0776 13.749 936 130.705 799.971 469.097
3460 0 72.0712 14.5689 1050 127.552 799.927 466.661
3461 0 74.1099 14.546 1078 128.133 799.451 466.417
3462 0 76.1314 15.0661 1147 127.353 799.248 464.994
3463 0 78.0924 14.3932 1124 130.712 799.358 464.44
3464 0 80.1334 14.089 1129 132.785 799.561 462.535
3465 0 81.0743 13.5185 1096 136.292 799.334 461.115
3466 0 88.0828 14.4069 1269 130.995 799.325 460.82
3467 0 90.1289 13.6804 1233 135.08 799.373 459.812
3468 0 93.1706 13.8778 1293 134.574 799.542 457.872
3469 1 51.1917 12.7364 652 133.615 800.293 477.324
3470 0 53.1483 11.9289 634 135.719 800.24 476.191
3471 0 52.0899 12.4592 649 138.565 799.826 475.282
3472 0 56.1398 13.2704 745 132.957 799.834 474.078
3473 0 55.0962 13.7759 759 136.088 801.059 473.075
3474 0 58.0524 13.9184 808 135.02 802.156 473.115
3475 0 61.0526 12.9069 788 139.072 801.918 472.327
3476 0 61.0438 12.6958 775 141.83 802.772 470.814
3477 0 63.0497 13.5449 854 139.638 801.855 469.326
3478 0 65.0411 13.2685 863 140.467 801.822 468.99
3479 0 66.0483 13.6718 903 139.959 801.824 468.347
3480 0 70.0753 12.8719 902 141.01 801.381 467.353
3481 0 71.2055 14.2124 1012 137.916 800.9 465.478
3482 0 73.0958 13.8448 1012 138.821 800.636 465.785
3483 0 76.1894 13.8996 1059 138.714 800.578 463.166
3484 0 78.1367 14.1931 1109 137.066 800.841 463.096
3485 0 81.137 13.3971 1087 140.682 800.976 459.779
3486 0 82.1412 14.1585 1163 137.995 800.843 459.44
3487 0 83.1472 14.3481 1193 137.81 800.474 457.033
3488 0 88.0725 14.0225 1235 139.295 800.981 455.646
3489 0 90.0526 13.4366 1210 137.529 800.522 454.777
3490 1 45.0327 10.8366 488 140.545 799.578 476.59
3491 0 48.2073 11.741 566 137.314 800.466 476.101
3492 0 50.1589 12.0617 605 137.878 800.405 474.858
3493 0 51.0777 11.8251 604 138.954 800.725 477.081
3494 0 50.1818 11.3388 569 142.668 800.253 476.069
3495 0 52.0643 11.8891 619 140.04 800.347 476.2
3496 0 55.1073 11.9222 657 139.335 800.941 475.006
3497 0 57.1314 12.55 717 137.817 800.444 472.291
3498 0 59.0489 13.2263 781 135.029 800.147 471.974
3499 0 62.0958 12.3841 769 137.005 800.19 469.834
3500 0 64.144 13.1111 841 135.182 800.713 469.128
3501 0 63.0615 11.9566 754 141.084 800.466 467.158
3502 0 66.1328 12.2783 812 139.511 801.113 466.329
3503 0 67.0698 11.8981 798 141.803 800.388 464.736
3504 0 72.0351 13.6045 980 135.886 800.408 462.649
3505 0 74.1172 13.1413 974 138.314 800.489 461.726
3506 0 77.0423 12.6554 975 140.538 800.684 460.492
3507 0 80.0781 13.7616 1102 137.361 801.209 459.261
3508 0 79.0366 13.0066 1028 142.3 800.881 456.906
3509 0 84.0993 12.4971 1051 142.52 800.991 457.603
3510 0 87.0355 13.4773 1173 139.839 800.569 456.503
3511 0 89.1171 13.1961 1176 141.338 800.553 454.044
3512 0 91.1354 14.0011 1276 139.475 801.041 452.735
3513 0 94.2084 14.0858 1327 139.954 800.041 449.729
3514 0 96.099 13.4965 1297 141.857 800.845 448.009
3515 0 100.158 13.8281 1385 140.004 801.1 445.155
3516 0 105.12 14.003 1472 141.26 801.686 443.226
3517 0 108.142 13.6025 1471 142.45 801.415 441.865
3518 0 114.128 14.9393 1705 137.401 800.789 441.086
3519 1 60.0243 11.2288 674 143.05 800.368 467.758
3520 0 63.0307 12.3591 779 141.643 801.576 469.357
3521 0 66.1388 13.0483 863 142.666 802.155 466.896
3522 0 69.2017 14.1037 976 139.247 802.161 466.347
3523 0 70.188 12.9224 907 143.748 802.164 465.828
3524 0 75.0732 14.8255 1113 136.852 801.742 463.477
3525 0 76.0958 13.1545 1001 143.271 802.084 462.868
3526 0 79.1465 13.5319 1071 141.987 801.487 461.849
3527 0 82.1635 14.106 1159 140.023 801.492 460.025
3528 0 82.1675 13.0952 1076 138.235 802.274 460.976
3529 0 84.0774 13.0118 1094 138.566 802.494 459.938
3530 0 88.1514 13.023 1148 138.417 802.834 458.452
3531 0 92.1839 13.8527 1277 135.929 802.302 457.442
3532 1 53.0448 12.2161 648 136.147 802.08 475.631
3533 0 53.1101 11.1655 593 142.295 800.997 473.152
3534 0 56.0736 11.0391 619 136.41 801.496 476.985
3535 0 58.2007 13.5909 791 134.805 801.182 475.325
3536 0 58.1528 12.9142 751 140.348 801.142 472.032
3537 0 61.1241 12.9082 789 138.34 801.479 472.772
3538 0 61.1556 11.7896 721 142.857 801.888 471.755
3539 0 64.1951 14.1444 908 135.393 801.742 469.721
3540 0 66.0686 12.4416 822 135.18 801.155 468.743
3541 0 67.1964 11.4292 768 137.507 801.081 467.706
3542 0 69.2337 11.324 784 137.305 801.685 465.939
3543 0 72.2187 12.6698 915 132.4 801.79 465.88
3544 0 75.1313 12.6845 953 131.635 801.271 464.655
3545 0 77.1423 13.1964 1018 130.166 801.393 463.385
3546 0 79.1936 11.958 947 133.382 801.82 462.592
3547 0 82.1298 13.1743 1082 130.866 801.165 460.626
3548 0 84.0604 12.2174 1027 133.195 801.78 458.238
3549 0 89.1802 12.2673 1094 131.725 801.392 456.187
3550 0 91.1507 11.9472 1089 134.364 801.414 452.488
3551 0 92.0741 11.7949 1086 133.826 801.539 453.514
3552 1 52.0608 10.5646 550 122.015 801.398 476.716
3553 0 52.0323 11.2622 586 120.565 800.765 475.529
3554 0 54.1389 11.3597 615 118.38 801.19 474.644
3555 0 54.0617 10.9135 590 129.463 802.105 472.846
3556 0 55.1208 10.3772 572 130.171 802.252 473.906
3557 0 59.1823 11.1351 659 127.47 802.184 470.88
3558 0 61.2723 13.187 808 122.411 802.759 469.517
3559 0 62.1524 12.1958 758 125.953 802.584 468.509
3560 0 64.3697 12.4127 799 123.494 802.264 469.751
3561 0 67.2328 11.9733 805 124.522 802.482 468.117
3562 0 69.2945 11.9346 827 126.122 802.417 465.212
3563 0 71.1894 11.4764 817 127.837 802.295 463.857
3564 0 74.2687 11.1352 827 127.607 802.727 465.324
3565 0 77.2593 12.3739 956 125.977 802.486 462.064
3566 0 77.2044 12.6547 977 126.492 802.299 458.893
3567 0 81.2669 11.3453 922 129.937 802.319 459.363
3568 0 83.1829 12.178 1013 127.835 801.743 458.558
3569 0 86.3834 12.1551 1050 128.499 802.297 456.336
3570 0 87.1588 11.6913 1019 130.518 802.26 453.71
3571 0 92.3159 11.114 1026 130.292 802.792 453.3
3572 0 95.4172 11.696 1116 128.341 802.218 451.04
3573 0 98.3746 10.7853 1061 134.486 802.172 447.206
3574 0 103.37 11.6185 1201 128.002 802.104 448.28
3575 0 105.225 11.4421 1204 129.428 801.939 445.439
3576 0 109.358 12.235 1338 127.942 802.558 444.843
3577 0 110.296 10.6531 1175 125.269 802.725 447.443
3578 1 62.1674 10.4556 650 132.068 802.832 468.2
3579 0 63.1645 10.4964 663 131.047 802.377 470.065
3580 0 65.2855 10.4617 683 131.359 802.628 466.272
3581 0 70.2036 12.1076 850 126.025 801.934 465.899
3582 0 72.3263 11.9459 864 125.902 802.562 465.326
3583 0 73.2903 11.2157 822 128.243 802.068 464.651
3584 0 75.256 11.9858 902 126.902 802.639 461.157
3585 0 75.3375 11.402 859 127.863 802.318 462.158
3586 0 82.2687 12.1067 996 123.873 802.049 460.399
3587 0 84.31 11.9559 1008 123.04 802.189 460.813
3588 0 86.2339 11.2485 970 127.386 801.594 455.754
3589 0 90.4253 12.3417 1116 122.177 801.954 457.305
3590 0 92.4573 11.6054 1073 124.778 801.651 454.246
3591 0 97.3481 13.1898 1284 119.097 801.674 452.806
3592 0 98.5073 12.8011 1261 122.227 801.714 447.198
3593 0 102.584 12.6336 1296 121.01 802.138 446.677
3594 0 104.465 13.2006 1379 119.962 801.862 443.851
3595 0 109.397 12.2764 1343 114.455 801.741 445.409
3596 0 111.23 12.209 1358 112.407 801.12 437.413
3597 0 116.343 12.5491 1460 111.405 801.428 435.96
3598 0 119.453 11.6532 1392 112.718 801.555 437.604
3599 0 122.528 11.8667 1454 114.14 802.271 431.867
3600 1 71.2304 11.6523 830 104.069 801.748 460.03
3601 0 71.0931 10.859 772 116.89 804.027 461.306
3602 0 74.1348 12.2615 909 112.033 804.229 462.458
3603 0 75.1867 11.9702 900 112.873 803.778 460.772
3604 0 79.1048 12.7805 1011 110.314 804.051 458.871
3605 0 81.1562 11.4963 933 114.13 803.935 457.023
3606 0 84.1316 13.0034 1094 110.806 803.62 457.263
3607 0 84.159 12.1437 1022 115.201 803.754 454.351
3608 0 91.1134 12.8302 1169 111.974 803.597 451.297
3609 0 92.2168 13.2405 1221 111.971 804.007 451.077
3610 0 97.1952 12.9225 1256 112.881 803.014 447.694
3611 0 100.22 13.9793 1401 110.951 802.486 444.606
3612 0 100.239 13.4279 1346 113.227 802.342 443.896
3613 0 105.117 12.5003 1314 109.61 802.289 439.059
3614 0 108.106 13.274 1435 108.191 802.499 436.404
3615 1 57.1176 9.7343 556 109.98 801.784 467.896
3616 0 55.1106 10.0344 553 111.121 801.387 463.881
3617 0 61.0851 11.6231 710 106.008 801.421 465.232
3618 0 62.1066 12.8489 798 103.868 802.232 463.496
3619 0 62.2242 10.1407 631 110.122 802.512 463.976
3620 0 69.4577 11.5466 802 106.471 803.031 464.247
3621 0 68.1682 11.457 781 106.131 802.908 460.889
3622 0 71.2392 12.6335 900 103.763 802.606 459.719
3623 0 72.1391 12.06 870 105.848 803.276 458.82
3624 0 75.2015 12.021 904 106.009 803.48 457.445
3625 0 75.063 11.7235 880 109.261 802.253 457.892
3626 0 81.1342 13.4962 1095 103.782 802.295 458.899
3627 0 82.092 13.7529 1129 104.461 802.409 456.141
3628 0 84.146 12.0743 1016 108.01 802.805 453.37
3629 0 89.1711 13.7152 1223 103.311 803.333 449.531
3630 0 90.2105 12.9364 1167 106.237 802.63 447.854
3631 0 92.1601 12.0117 1107 108.683 802.767 448.484
3632 0 97.1515 12.5989 1224 107.002 802.229 447.62
3633 0 100.199 13.7427 1377 105.599 802.663 445.154
3634 0 102.211 12.347 1262 109.37 802.151 446.592
3635 1 56.0484 11.1689 626 110.212 801.911 470.113
3636 0 62.2296 11.6986 728 106.037 803.188 469.992
3637 0 62.2296 11.7147 729 128.51 803.177 469.971
3638 0 62.2539 11.6137 723 110.957 802.448 469.743
3639 0 66.1557 13.9368 922 104.603 802.385 467.937
3640 0 68.3476 12.5388 857 107.522 802.664 468.289
3641 0 70.4236 12.4532 877 107.608 802.751 466.023
3642 0 73.3272 13.4602 987 104.253 803.011 465.585
3643 0 76.5026 14.274 1092 101.917 802.719 463.709
3644 0 79.4777 13.0099 1034 104.998 802.36 461.213
3645 0 80.6125 11.9584 964 107.626 802.158 458.742
3646 0 83.4815 12.8292 1071 105.555 802.327 457.266
3647 0 83.1376 11.0419 918 104.225 802.24 449.076
3648 0 87.5573 11.718 1026 102.357 802.632 448.049
3649 0 91.2465 12.395 1131 101.097 801.905 449.386
3650 0 90.5413 10.128 917 106.904 801.889 449.04
3651 0 95.4081 11.0682 1056 105.233 802.546 445.225
3652 0 95.441 11.0539 1055 124.41 803.566 445.231
3653 0 100.257 11.2412 1127 104.496 801.085 448.794
3654 0 103.39 11.326 1171 105.379 801.633 444.84
3655 0 108.465 12.2804 1332 103.741 801.228 443.565
3656 0 112.401 12.5978 1416 103.015 801.955 442.681
3657 0 115.476 11.9072 1375 105.348 802.042 439.628
3658 1 66.296 10.3324 685 101.945 801.864 470.061
3659 0 69.2382 10.5866 733 101.613 801.809 458.969
3660 0 73.2556 12.7362 933 101.805 801.632 465.834
3661 0 75.1888 13.0472 981 102.262 801.916 464.362
3662 0 75.1127 14.0589 1056 102.538 801.561 463.016
3663 0 79.2103 13.6472 1081 101.71 801.038 462.236
3664 0 82.2039 13.1624 1082 103.155 801.142 458.646
3665 0 82.0857 12.7062 1043 105.898 801.519 458.213
3666 0 86.0623 11.9681 1030 107.65 800.835 455.103
3667 0 90.1102 13.4613 1213 103.504 801.596 455.559
3668 0 92.1266 13.8614 1277 103.98 800.814 452.719
3669 0 98.1942 12.1799 1196 107.128 800.891 451.516
3670 0 101.211 13.7238 1389 104.64 801.345 449.792
3671 0 103.268 13.4311 1387 106.431 801.427 448.016
3672 0 105.167 13.0459 1372 107.896 801.571 446.121
3673 0 108.278 13.0313 1411 108.554 800.766 444.313
3674 0 113.287 13.2848 1505 107.852 801.122 440.441
3675 0 118.223 12.1888 1441 109.65 801.35 441.916
3676 0 122.277 13.8538 1694 106.092 800.813 439.763
3677 0 127.269 13.664 1739 110.505 801.2 439.854
3678 0 127.265 13.6172 1733 135.429 800.193 439.858
3679 0 136.323 12.7712 1741 113.214 800.238 442.157
3680 1 77.2056 12.3307 952 112.801 800.57 465.499
3681 0 80.1982 13.2671 1064 111.493 800.623 466.113
3682 0 83.2338 12.7592 1062 113.816 800.904 460.796
3683 0 85.185 13.4061 1142 113.047 800.715 460.086
3684 0 90.3063 13.0002 1174 113.774 801.068 461.125
3685 0 92.317 13.6161 1257 113.751 801.003 458.154
3686 0 96.2035 14.2199 1368 113.164 801.376 457.84
3687 0 98.3258 13.5671 1334 116.171 801.449 455.706
3688 0 102.176 13.1929 1348 117.712 801.973 452.493
3689 0 106.229 12.8496 1365 117.564 801.124 454.681
3690 0 107.092 12.2792 1315 117.657 801.993 451.724
3691 1 62.0402 11.9439 741 109.381 801.873 477.001
3692 0 62.043 11.1374 691 113.065 801.521 474.201
3693 0 65.0174 13.1196 853 109.164 801.377 474.985
3694 0 66.0413 13.2796 877 115.65 802.075 473.072
3695 0 69.1541 13.0578 903 116.975 801.951 471.307
3696 0 70.1025 13.6086 954 116.28 801.822 471.395
3697 0 71.0427 12.7388 905 121.188 801.856 468.955
3698 0 73.0765 13.698 1001 118.753 801.519 468.444
3699 0 76.0442 14.0576 1069 118.212 801.55 468.399
3700 0 79.0428 13.4611 1064 120.178 801.425 466.845
3701 0 81.0391 14.8817 1206 116.707 801.142 465.852
3702 0 81.0658 13.1991 1070 123.651 800.835 463.808
3703 0 85.1283 13.7792 1173 121.948 800.766 462.084
3704 0 88.104 13.4046 1181 123.389 801.027 461.674
3705 0 92.0977 14.0503 1294 121.541 801.047 461.811
3706 0 94.0797 13.6799 1287 123.318 800.946 458.625
3707 0 96.0936 14.4547 1389 123.08 801.195 457.288
3708 0 99.095 15.0563 1492 121.913 801.595 456.546
3709 0 101.123 14.1511 1431 125.473 800.901 453.637
3710 0 106.148 15.3371 1628 120.499 800.525 454.485
3711 0 108.259 14.0404 1520 123.637 801.02 454.188
3712 0 113.261 14.0119 1587 124.957 801.064 449.48
3713 0 114.127 13.8705 1583 126.622 800.364 445.719
3714 1 63.0988 10.8401 684 123.885 800.947 474.494
3715 0 66.1015 12.98 858 118.133 800.692 472.453
3716 0 68.2765 12.2443 836 119.19 800.067 467.472
3717 0 70.2217 11.8909 835 122.164 800.514 468.56
3718 0 74.135 13.3405 989 119.179 800.28 465.557
3719 0 73.1746 12.641 925 121.923 800.562 468.35
3720 0 77.344 14.1187 1092 117.429 800.096 466.399
3721 0 82.2237 13.0498 1073 119.457 800.403 465.588
3722 0 84.1888 13.7429 1157 117.705 800.303 464.452
3723 0 86.2319 13.0694 1127 121.002 800.007 458.523
3724 0 90.1511 13.8323 1247 118.581 800.111 458.226
3725 0 94.3159 14.0273 1323 119.113 799.811 458.317
3726 0 95.2583 13.6051 1296 123.537 800.289 449.873
3727 0 100.34 15.6967 1575 117.533 800.793 448.88
3728 0 103.277 14.7662 1525 121.506 801.009 448.613
3729 0 106.298 15.1931 1615 120.952 800.711 444.394
3730 0 109.344 15.1357 1655 121.442 800.837 447.453
3731 1 60.2396 11.5705 697 124.735 799.422 468.089
3732 0 62.1288 11.9429 742 122.261 800.101 469.385
3733 0 66.2467 12.8459 851 120.618 800.196 466.482
3734 0 67.1104 14.0217 941 118.431 800.215 467.131
3735 0 70.0675 13.9009 974 117.932 800.331 466.079
3736 0 72.0745 13.0559 941 120.414 800.131 464.825
3737 0 73.0973 14.0771 1029 117.549 799.428 464.783
3738 0 77.0729 14.6225 1127 116.91 799.736 461.844
3739 0 80.1175 14.4038 1154 117.627 799.524 459.629
3740 0 82.1119 13.6886 1124 119.634 799.659 458.367
3741 0 85.126 12.7811 1088 122.585 799.815 457.246
3742 0 86.2446 13.624 1175 121.729 799.54 453.12
3743 0 91.1113 13.2805 1210 120.863 799.669 456.097
3744 0 94.1746 13.3051 1253 121.841 799.63 454.571
3745 0 95.0609 13.6228 1295 122.946 799.798 452.749
3746 0 99.108 13.9646 1384 121.832 800.466 451.507
3747 0 101.17 14.3916 1456 122.817 800.728 447.472
3748 1 54.1328 11.4903 622 123.156 800.161 471.064
3749 0 57.1777 12.0501 689 116.235 801.811 467.399
3750 0 59.2398 13.0993 776 118.593 801.921 470.539
3751 0 60.1753 12.7959 770 119.909 801.734 469.675
3752 0 61.1745 13.5678 830 118.92 801.681 467.805
3753 0 62.046 12.7002 788 122.308 802.713 467.626
3754 0 65.1268 13.0668 851 121.577 801.559 466.991
3755 0 67.141 14.2387 956 118.218 801.816 466.857
3756 0 70.1385 13.3165 934 119.882 801.656 466.752
3757 0 71.0915 12.8989 917 121.065 801.733 465.932
3758 0 72.0795 13.2354 954 121.347 801.408 464.813
3759 0 75.1778 12.6234 949 122.776 802.054 463.292
3760 0 78.1071 12.8797 1006 122.045 801.91 462.805
3761 0 81.1332 13.4593 1092 121.257 802.097 461.558
3762 0 83.1189 14.7139 1223 117.258 802.793 462.358
3763 0 86.2103 13.8731 1196 120.077 802.385 460.663
3764 0 87.13 13.0265 1135 124.027 802.787 458.589
3765 0 90.1194 13.5154 1218 123.14 802.346 454.926
3766 0 93.1495 13.108 1221 123.598 802.54 456.872
3767 0 97.1173 14.0449 1364 121.032 802.081 454.568
3768 0 99.1227 13.9221 1380 121.656 802.381 453.294
3769 0 101.12 13.8251 1398 122.907 802.586 449.787
3770 0 105.099 13.7585 1446 122.821 802.607 449.545
3771 0 107.17 12.9141 1384 124.16 803.394 446.47
3772 0 111.182 13.5094 1502 122.513 803.397 442.314
3773 0 114.189 13.574 1550 121.652 803.127 445.479
3774 0 120.244 12.9154 1553 119.173 803.272 437.268
3775 0 122.192 12.1366 1483 121.548 803.539 435.932
3776 1 68.3359 12.9068 882 112.541 803.23 463.577
3777 0 72.2844 13.2255 956 110.513 802.694 464.312
3778 0 75.1735 12.2916 924 112.091 802.169 465.027
3779 0 78.2674 12.8023 1002 110.658 802.36 462.981
3780 0 79.2331 12.1919 966 115.13 801.958 460.5
3781 0 83.2677 12.706 1058 112.598 802.364 460.561
3782 0 85.2969 12.8023 1092 112.772 802.169 458.708
3783 0 89.2844 12.9698 1158 112.188 802.169 456.419
3784 0 91.3391 13.0722 1194 111.497 802.236 451.845
3785 0 95.2557 13.427 1279 110.528 802.511 452.593
3786 0 95.3614 11.8601 1131 114.822 802.158 452.612
3787 0 100.255 12.6977 1273 112.579 802.372 450.537
3788 0 104.181 12.6414 1317 112.844 803.038 447.32
3789 0 106.476 11.8337 1260 115.733 802.465 444.717
3790 0 110.476 12.1384 1341 117.922 802.413 442.529
3791 0 115.39 11.3875 1314 118.524 802.54 442.869
3792 1 62.3135 10.9928 685 110.962 802.851 467.647
3793 0 65.4821 11.3466 743 113.812 802.338 465.125
3794 0 67.325 11.14 750 116.571 801.881 465.073
3795 0 69.2619 13.0086 901 116.839 802.317 465.172
3796 0 70.3443 13.4766 948 118.159 802.391 465.896
3797 0 73.2201 13.9852 1024 118.201 802.256 464.106
3798 0 74.3163 13.1869 980 120.866 801.991 464.366
3799 0 79.3539 13.8997 1103 118.41 802.165 460.764
3800 0 82.3644 14.448 1190 118.311 802.496 457.241
3801 0 84.3517 12.9102 1089 122.745 802.204 457.196
3802 0 87.3975 13.902 1215 120.544 802.236 456.192
3803 0 89.4689 13.1107 1173 123.897 802.095 452.184
3804 0 91.2983 12.6837 1158 125.709 802.471 450.788
3805 0 95.4251 12.5124 1194 124.613 802.529 449.892
3806 0 98.2733 12.3126 1210 125.869 802.234 449.894
3807 0 101.493 12.4147 1260 127.44 802.745 446.151
3808 1 58.3232 10.7333 626 125.319 802.142 468.877
3809 0 59.1861 12.334 730 120.784 802.245 469.532
3810 0 60.2532 12.713 766 120.47 802.495 467.245
3811 0 64.1612 13.6531 876 120.761 803.373 466.212
3812 0 65.1677 12.2914 801 124.707 802.6 466.499
3813 0 68.2552 12.7023 867 122.549 802.719 465.093
3814 0 70.2224 12.4889 877 123.416 802.998 465.138
3815 0 73.1529 12.8908 943 122.155 802.229 466.503
3816 0 73.2721 11.9008 872 125.859 802.42 466.054
3817 0 76.197 13.3207 1015 121.383 801.603 464.196
3818 0 77.1859 12.1525 938 124.328 801.795 463.031
3819 0 83.231 12.8318 1068 122.207 801.643 461.743
3820 0 84.4044 12.0373 1016 123.708 801.901 460.819
3821 0 88.339 13.4708 1190 120.155 802.237 457.055
3822 0 91.3071 13.3286 1217 119.563 802.267 456.633
3823 0 95.3941 13.8793 1324 118.195 801.85 452.458
3824 0 99.3206 12.7567 1267 119.376 802.468 451.924
3825 1 53.1809 11.79 627 114.29 802.378 475.55
3826 0 54.1374 10.4364 565 117.657 802.956 474.149
3827 0 57.1098 11.7843 673 114.513 803.137 472.889
3828 0 57.0659 12.5294 715 110.285 803.411 471.407
3829 0 60.1999 12.5249 754 108.966 803.434 468.772
3830 0 61.1042 11.9795 732 110.594 803.219 470.525
3831 0 62.0573 13.3586 829 107.73 802.379 472.059
3832 0 66.0342 12.5693 830 108.746 801.639 471.634
3833 0 66.0318 11.6913 772 111.294 801.731 468.412
3834 0 66.0458 11.5677 764 112.675 801.336 467.455
3835 0 72.073 13.4308 968 106.518 801.424 467.273
3836 0 73.0332 10.6664 779 113.377 801.557 466.331
3837 0 74.0787 13.0672 968 110.257 801.262 465.323
3838 0 75.0373 11.6742 876 115.317 801.298 463.735
3839 0 78.1723 12.4469 973 113.195 802.184 463.1
3840 0 81.0955 12.2572 994 113.789 801.892 460.642
3841 0 83.1584 12.1936 1014 112.905 801.908 462.583
3842 0 87.2749 12.5809 1098 112.327 802.474 457.777
3843 0 89.319 12.4386 1111 113.779 801.991 457.048
3844 0 93.2459 12.7298 1187 112.747 802.095 457.291
3845 0 95.1897 11.724 1116 115.582 802.384 454.366
3846 0 99.2453 12.4842 1239 114.132 802.111 454.2
3847 0 102.146 11.4151 1166 117.271 801.867 450.182
3848 1 58.1034 12.2368 711 113.803 802.024 471.579
3849 0 61.0801 12.7046 776 112.119 801.445 473.012
3850 0 60.091 13.0635 785 114.515 801.538 469.808
3851 0 64.2212 12.8307 824 114.786 801.697 467.881
3852 0 66.1753 13.434 889 114.106 801.742 467.217
3853 0 70.1812 14.605 1025 110.563 802.128 465.732
3854 0 72.2555 13.563 980 114.112 801.886 464.956
3855 0 75.2536 14.7634 1111 111.145 802.358 463.174
3856 0 78.3223 14.0701 1102 113.273 801.598 457.817
3857 0 82.4087 14.5252 1197 113.163 801.809 454.652
3858 0 84.311 14.8023 1248 113.02 802.296 457.034
3859 0 85.2686 14.4133 1229 117.479 802.112 453.303
3860 0 90.312 14.7599 1333 115.983 802.281 451.547
3861 0 92.3031 14.5391 1342 116.409 802.428 451.116
3862 0 94.2388 13.7205 1293 118.95 802.626 450.51
3863 0 99.4199 14.2728 1419 116.786 802.221 449.274
3864 0 102.369 14.9948 1535 114.694 802.496 449.777
3865 1 57.0353 11.2737 643 112.639 801.398 465.474
3866 0 60.1272 11.4923 691 107.644 801.954 455.796
3867 0 61.1069 12.4863 763 106.848 801.244 459.882
3868 0 63.086 11.9044 751 108.252 801.469 458.834
3869 0 65.088 12.414 808 111.179 800.969 465.865
3870 0 67.2021 12.8419 863 115.949 800.293 464.896
3871 0 70.1808 14.1064 990 112.926 801.135 466.302
3872 0 74.2055 14.5003 1076 114.298 802.389 463.755
3873 0 73.2922 13.2211 969 119.194 802.198 461.043
3874 0 77.3578 12.6943 982 119.172 801.86 458.559
3875 0 79.3696 12.5993 1000 117.547 801.875 458.647
3876 0 81.518 12.4758 1017 119.036 801.797 456.975
3877 0 86.3475 12.994 1122 114.791 802.338 457.187
3878 0 88.5142 13.4329 1189 113.684 802.225 454.888
3879 0 89.4696 14.0718 1259 113.029 802.282 455.705
3880 0 93.4172 12.9741 1212 115.614 802.454 453.71
3881 0 96.615 12.9586 1252 115.465 801.835 452.839
3882 0 99.5049 13.0446 1298 116.999 801.887 450.143
3883 0 102.375 12.5421 1284 119.477 801.942 447.14
3884 0 106.52 13.5467 1443 117.102 801.729 446.457
3885 0 108.597 12.6339 1372 120.424 802.02 444.831
3886 0 112.495 13.6272 1533 118.151 801.993 444.359
3887 0 116.498 13.0303 1518 120.134 802.646 442.323
3888 1 68.2963 10.6448 727 112.04 802.55 468.253
3889 0 70.5594 12.8544 907 105.939 802.259 466.195
3890 0 70.3174 11.9458 840 108.877 802.15 464.202
3891 0 73.2007 10.9835 804 118.485 801.299 465.851
3892 0 76.3072 12.0041 916 118.367 801.474 461.485
3893 0 81.56 11.8686 968 116.301 801.34 462.13
3894 0 80.4981 11.6276 936 120.967 801.955 457.282
3895 0 85.571 13.1119 1122 112.422 801.516 459.878
3896 0 87.3423 11.5866 1012 116.884 801.605 458.026
3897 0 93.1663 11.6888 1089 110.324 801.365 457.341
3898 0 91.1096 10.5587 962 116.264 801.67 454.838
3899 0 94.1827 11.0955 1045 116.43 800.763 449.461
3900 0 97.3273 11.3226 1102 115.652 800.409 449.315
3901 0 103.304 12.9327 1336 111.57 800.572 448.356
3902 0 104.401 10.6129 1108 117.836 800.859 446.579
3903 0 108.5 10.4609 1135 118.896 800.657 444.27
3904 0 112.251 11.305 1269 118.195 800.818 442.299
3905 0 117.338 12.1018 1420 115.649 800.732 440.757
3906 0 119.338 9.99678 1193 120.557 800.638 440.335
3907 0 125.245 12.5993 1578 114.504 800.075 439.245
3908 1 74.1902 10.6887 793 111.652 800.392 462.356
3909 0 75.2494 10.6712 803 112.308 800.649 462.983
3910 0 79.2213 11.7014 927 109.216 800.545 461.354
3911 0 80.1177 12.4816 1000 108.034 801.321 460.169
3912 0 83.1194 12.1873 1013 108.374 802.433 461.036
3913 0 86.1694 12.0228 1036 108.429 802.372 459.868
3914 0 89.1015 12.9852 1157 106.366 802.626 458.302
3915 0 90.2196 12.0595 1088 109.994 802.103 455.822
3916 0 93.2417 12.3014 1147 108.674 802.252 455.666
3917 0 97.1312 12.4471 1209 108.295 801.378 453.457
3918 0 100.182 11.6089 1163 109.114 801.313 450.463
3919 0 105.169 13.1884 1387 104.944 801.485 450.196
3920 0 107.195 12.5193 1342 107.927 801.539 447.314
3921 0 110.251 11.8457 1306 110.253 801.698 444.163
3922 0 115.136 12.7762 1471 107.415 801.95 443.736
3923 0 118.194 11.0751 1309 113.143 801.744 437.798
3924 0 121.292 11.6908 1418 110.554 801.499 438.511
3925 0 122.239 11.8211 1445 111.68 801.556 435.887
3926 0 128.224 13.0397 1672 108.67 801.588 433.67
3927 0 131.197 12.3174 1616 111.334 801.199 433.123
3928 0 136.284 12.0704 1645 111.942 800.804 430.284
3929 0 140.24 12.2718 1721 110.621 800.985 426.854
3930 0 142.156 11.5155 1637 113.001 800.742 424.736
3931 1 83.0878 11.193 930 109.675 801.432 456.086
3932 0 85.1568 11.5904 987 108.182 801.515 455.152
3933 0 87.161 11.3927 993 109.075 801.081 450.649
3934 0 91.3602 11.1756 1021 110.001 801.138 450.308
3935 0 96.4073 11.7937 1137 113.292 799.401 450.069
3936 0 96.2472 11.2211 1080 114.34 800.403 449.77
3937 0 98.252 9.69955 953 115.749 800.783 449.983
3938 0 105.269 12.0168 1265 109.772 800.786 448.066
3939 0 106.318 11.033 1173 114.08 800.223 445.811
3940 0 111.312 11.2747 1255 112.202 800.972 447.375
3941 0 112.367 11.2399 1263 114.05 800.624 442.489
3942 0 115.393 10.9886 1268 115.052 800.584 439.457
3943 0 120.333 12.241 1473 111.491 800.68 441.425
3944 0 124.286 12.1494 1510 111.758 800.505 437.48
3945 0 129.372 12.5375 1622 109.936 800.976 438.092
