time division length width area intensity CMx CMy
0 0 84.1071 11.3665 956 122.73 814.58 471.64
1 0 86.0752 11.3505 977 121.89 813.877 472.841
2 0 88.1265 11.7104 1032 122.064 814.417 465.876
3 0 91.056 10.6967 974 123.542 813.475 468.03
4 0 94.1286 10.39 978 122.08 814.51 468.595
5 1 52.0496 10.3363 538 115.851 815.968 487.543
6 0 54.0224 10.5697 571 115.354 816.609 486.205
7 0 52.077 9.67798 504 110.774 814.524 488.468
8 0 54.225 10.106 548 108.252 815.199 489.695
9 0 58.1408 11.5926 674 104.34 814.217 486.777
10 0 60.1025 12.1293 729 102.654 814.653 485.948
11 0 62.0803 11.0502 686 105.636 814.564 482.659
12 0 63.0665 9.81503 619 105.297 816.973 483.103
13 0 67.1562 11.4062 766 101.923 816.57 480.262
14 0 70.0958 11.6555 817 100.261 816.168 480.46
15 0 68.153 10.1243 690 103.575 815.73 479.448
16 0 71.217 9.67465 689 103.26 815.694 479.345
17 0 73.1401 10.6645 780 101.894 815.538 476.836
18 0 79.3124 12.6336 1002 98.4661 816.151 473.175
19 0 82.2817 10.5613 869 101.29 816.067 472.719
20 0 84.2802 11.7821 993 100.053 815.725 470.008
21 0 85.1651 11.2018 954 102.482 815.165 457.686
22 0 88.303 9.43343 833 106.019 815.179 447.822
23 0 93.2792 11.2887 1053 104.555 815.283 443.802
24 0 99.4075 12.7556 1268 108.024 815.773 443.459
25 0 104.21 13.6167 1419 106.222 815.735 440.736
26 0 108.424 11.7778 1277 108.281 815.479 441.145
27 0 111.295 12.9656 1443 106.052 815.544 438.396
28 0 114.313 12.457 1424 105.302 815.298 442.583
29 1 62.0952 10.1135 628 100.003 816.817 481.997
30 0 65.2739 11.3062 738 100.549 816.957 480.825
31 0 67.4122 12.3123 830 103.593 816.655 475.416
32 0 68.2319 11.7687 803 100.479 816.719 476.729
33 0 70.1989 12.7068 892 99.2814 816.951 476.169
34 0 73.2928 13.7121 1005 95.5114 816.284 473.604
35 0 75.1523 11.6829 878 99.9385 815.57 474.849
36 0 77.2321 13.8543 1070 96.0252 815.862 472.566
37 0 80.067 13.5636 1086 97.4678 815.542 470.746
38 0 80.2256 10.8444 870 103.061 816.42 472.674
39 0 83.0597 12.473 1036 100.839 816.329 466.166
40 0 88.2108 13.9779 1233 96.6415 816.655 466.486
41 0 88.1518 13.1137 1156 98.705 816.802 461.79
42 0 94.2483 12.9339 1219 98.1583 816.606 460.742
43 0 94.1253 12.2815 1156 100.288 816.455 462.334
44 0 100.223 13.041 1307 98.9097 816.416 459.028
45 0 102.281 12.8177 1311 100.111 816.256 454.197
46 0 108.103 12.2661 1326 101.219 816.53 451.189
47 0 110.239 13.5342 1492 99.7621 816.061 443.975
48 0 115.236 12.392 1428 101.555 816.529 447.463
49 1 64.2038 12.5071 803 103.7 816.633 473.147
50 0 63.2649 12.5978 797 105.469 815.849 472.972
51 0 62.258 12.3839 771 107.658 816.519 469.449
52 0 67.2181 13.0322 876 106.696 815.896 471.084
53 0 69.278 13.4675 933 105.725 815.847 470.88
54 0 72.2244 12.835 927 106.712 815.752 470.088
55 0 73.5459 13.7601 1012 103.187 815.454 469.352
56 0 75.2424 13.1309 988 105.026 815.284 469.337
57 0 78.1563 12.91 1009 106.301 816.4 467.797
58 0 80.4619 13.4598 1083 105.697 816.019 466.129
59 0 83.6513 13.0661 1093 108.048 816.169 464.818
60 0 84.2572 13.4113 1130 108.865 815.213 460.584
61 0 88.2711 13.2546 1170 109.249 815.803 458.75
62 0 91.3285 13.1175 1198 109.381 815.896 458.829
63 0 90.396 11.8257 1069 114.087 816.441 456.861
64 0 94.2929 13.4581 1269 109.302 816.009 456.514
65 0 99.3013 15.035 1493 104.723 816.08 455.106
66 0 102.279 13.7565 1407 107.522 815.428 454.393
67 0 106.262 13.5984 1445 108.904 816.12 452.801
68 0 111.423 14.4584 1611 106.618 816.243 454.374
69 1 57.2386 11.0415 632 112.332 816.404 478.62
70 0 62.3181 11.4413 713 109.33 816.825 474.602
71 0 63.2768 12.3268 780 106.791 816.063 474.542
72 0 62.4793 11.7959 737 111.014 816.345 477.803
73 0 62.4935 11.4892 718 142.118 816.329 477.501
74 0 73.3838 16.2161 1190 96.3983 816.949 471.471
75 0 78.3857 15.6534 1227 95.4833 816.499 469.765
76 0 84.391 15.997 1350 92.82 816.688 467.096
77 0 83.41 16.293 1359 91.5732 816.336 467.974
78 0 82.113 16.0754 1320 95.5939 816.173 469.632
79 0 81.0939 14.1318 1146 102.307 816.162 470.664
80 0 82.278 13.4058 1103 105.854 817.177 471.219
81 0 84.1035 12.1992 1026 106.896 817.195 471.67
82 0 89.3076 12.5969 1125 106.274 816.988 467.854
83 0 91.1419 12.7603 1163 110.452 816.315 427.257
84 0 93.2332 13.9435 1300 108.598 816.797 419.467
85 0 94.2713 12.708 1198 111.897 815.923 417.311
86 0 98.166 14.7098 1444 106.659 815.835 421.568
87 0 100.263 13.3449 1338 109.337 815.811 431.028
88 0 103.252 14.3726 1484 106.229 815.834 434.321
89 0 105.305 13.3991 1411 108.794 816.523 440.556
90 0 106.141 12.3232 1308 108.594 816.989 456.908
91 0 109.162 11.46 1251 110.95 817.14 454.388
92 0 116.328 13.247 1541 105.123 816.326 450.31
93 0 118.404 13.2681 1571 106.307 815.794 445.882
94 0 122.396 14.02 1716 104.235 816.529 447.889
95 0 128.427 13.5563 1741 105.203 815.634 445.304
96 0 131.256 12.7766 1677 107.52 816.116 441.72
97 0 133.221 12.1828 1623 108.308 816.491 438.107
98 0 140.472 14.0171 1969 104.412 816.378 438.758
99 1 74.3355 10.4392 776 94.7835 816.259 474.302
100 0 75.2592 13.0482 982 89.113 815.732 471.031
101 0 78.2772 13.3117 1042 89.5816 815.404 470.054
102 0 80.3023 12.2039 980 91.8724 815.385 469.966
103 0 83.2206 12.1604 1012 92.8281 815.449 468.057
104 0 85.3585 11.1998 956 96.9006 815.729 467.251
105 0 90.2943 15.0286 1357 94.6345 815.357 463.556
106 0 91.1874 12.3153 1123 100.671 815.405 457.38
107 0 95.2349 13.6925 1304 98.1764 815.163 460.602
108 0 100.254 12.8673 1290 98.3736 816.1 461.841
109 0 102.163 13.0967 1338 98.5344 815.221 462.436
110 0 104.166 12.3265 1284 100.296 815.756 461.623
111 0 109.159 12.4406 1358 99.3549 815.664 458.946
112 0 111.188 12.8341 1427 98.7526 816.092 457.009
113 0 113.123 12.1637 1376 98.7507 815.015 455.446
114 0 119.097 11.8223 1408 98.3452 814.482 455.547
115 0 122.167 13.2687 1621 96.5256 814.278 449.696
116 1 67.094 10.0456 674 87.9318 814.829 481.682
117 0 68.1085 10.1603 692 86.1315 815.422 479.491
118 0 71.0874 10.2972 732 85.6544 815.816 480.033
119 0 75.1076 10.678 802 85.0499 815.488 476.625
120 0 77.0739 11.21 864 85.5312 815.646 474.466
121 0 81.2535 12.7871 1039 81.538 815.358 472.068
122 0 87.22 12.692 1107 81.0958 815.294 466.656
123 0 86.1595 14.1482 1219 80.6226 815.271 465.13
124 0 87.1631 11.2203 978 86.9213 814.574 467.57
125 0 90.2567 12.0767 1090 86.1661 815.113 464.117
126 0 90.2872 10.8432 979 89.5046 814.667 463.275
127 0 93.2614 11.9664 1116 88.6918 814.86 462.843
128 0 98.3844 12.2377 1204 89.2533 815.368 459.27
129 0 100.229 11.6434 1167 95.2699 814.374 458.681
130 0 102.309 11.6412 1191 94.9731 815.181 457.398
131 0 106.245 10.5887 1125 97.1342 815.134 456.291
132 0 111.312 11.8765 1322 95.4191 814.97 453.841
133 1 56.2529 9.20842 518 95.4614 815.237 480.726
134 0 60.2257 11.241 677 91.74 814.771 476.744
135 0 60.213 11.6088 699 92.1001 814.918 475.127
136 0 65.0741 11.5714 753 89.3386 815.857 478.98
137 0 64.2513 11.7196 753 92.1872 814.761 477.048
138 0 69.2341 11.7717 815 92.7963 814.448 477.92
139 0 71.2277 12.1301 864 92.8785 814.446 475.112
140 0 72.3737 11.1919 810 94.4926 814.749 473.504
141 0 73.2931 10.8196 793 97.6456 814.372 467.666
142 0 75.3581 10.7752 812 96.2044 814.802 469.468
143 0 79.4757 11.8275 940 92.8287 814.527 470.124
144 0 81.4787 12.1872 993 91.2095 815.585 467.488
145 0 81.1466 11.547 937 90.3735 814.784 469.259
146 0 86.1654 11.977 1032 89.7984 814.628 467.598
147 0 89.0769 10.1373 903 91.4086 814.348 468.814
148 0 90.1436 10.8715 980 91.5388 814.998 466.391
149 0 94.2197 12.0675 1137 88.6244 814.464 464.883
150 0 97.1383 11.1799 1086 90.1584 815.12 462.599
151 0 98.1071 11.3345 1112 84.0495 814.409 460.359
152 0 102.177 9.7576 997 90.2778 815.172 454.142
153 0 105.265 10.0888 1062 89.7947 815.61 454.803
154 1 56.3764 11.7248 661 81.1286 815.135 482.257
155 0 59.2484 10.3632 614 82.1189 815.643 480.961
156 0 58.0868 9.41695 547 82.7751 815.726 482.419
157 0 61.0784 9.6106 587 83.2624 815.494 480.543
158 0 63.0509 10.5788 667 81.9595 815.148 478.154
159 0 66.0811 9.8364 650 81.7015 815.249 477.754
160 0 67.0981 9.53827 640 83.1297 815.25 477.431
161 0 71.0433 11.866 843 80.6026 815.728 476.435
162 0 74.1798 12.3888 919 79.4472 814.9 473.323
163 0 74.0849 10.6904 792 83.6705 813.908 474.378
164 0 76.1429 10.5197 801 85.7091 813.793 471.317
165 0 79.0864 11.7972 933 83.9421 814.85 472.081
166 0 85.1504 12.5073 1065 82.2986 813.796 468.811
167 0 85.102 12.4086 1056 84.2301 814.579 467.307
168 0 85.137 12.2039 1039 86.9346 814.485 468.155
169 0 88.155 11.6499 1027 88.5278 814.27 469.311
170 0 92.1466 11.4274 1053 90.4188 814.212 466.464
171 0 94.3385 9.88991 933 92.4459 814.103 466.911
172 0 97.1739 10.4658 1017 92.2173 814.007 464.617
173 1 50.0155 10.9966 550 87.1164 814.46 487.296
174 0 50.0726 9.58609 480 89.6 815.046 489.131
175 0 53.0954 10.9802 583 87.7822 815.259 485.413
176 0 53.0984 10.5088 558 89.4642 815.108 485.701
177 0 55.1298 11.5727 638 88.2947 815.318 483.708
178 0 57.0563 11.918 680 87.7206 813.593 483.578
179 0 59.0362 12.6024 744 86.6304 813.934 480.085
180 0 60.0542 10.8069 649 90.0139 813.63 480.197
181 0 63.1103 11.6146 733 87.9195 814.036 478.306
182 0 66.0375 13.0986 865 85.3561 814.037 478.94
183 0 65.1492 10.4069 678 89.3732 813.96 476.612
184 0 70.0676 11.2748 790 87.0658 813.839 475.31
185 0 71.0458 12.8509 913 84.4272 813.686 475.124
186 0 73.0731 10.5785 773 87.251 813.784 474.076
187 0 74.1846 11.04 819 87.2845 814.145 472.618
188 0 78.1108 10.6131 829 87.69 813.437 472.893
189 0 78.0992 10.0129 782 86.9655 813.893 474.831
190 0 80.0468 8.50752 681 89.8091 813.401 472.624
191 0 83.1386 10.6449 885 87.0068 814.675 471.181
192 0 84.1445 8.29526 698 89.3209 814.882 473.385
193 0 88.1059 9.35238 824 87.1456 814.132 471.204
194 0 91.0972 10.5711 963 86.4912 814.258 465.823
195 0 93.1211 11.3079 1053 85.2991 814.769 465.629
196 0 96.1418 8.30024 798 89.5013 813.539 460.858
197 0 101.156 11.2796 1141 85.5022 814.368 461.444
198 0 101.153 9.46088 957 88.1599 813.708 449.675
199 0 108.133 9.5808 1036 88.7809 813.42 451.709
200 0 111.205 9.7388 1083 89.2327 813.646 450.693
201 1 63.0633 11.433 721 83.2164 812.84 477.044
202 0 64.1819 10.0184 643 82.2986 814 479.054
203 0 67.0963 10.7607 722 84.1898 813.817 479.198
204 0 71.1034 13.5155 961 80.1613 813.738 476.804
205 0 72.0731 12.0433 868 83.7869 813.373 474.256
206 0 70.0968 10.6139 744 87.4341 813.788 474.68
207 0 76.1551 11.2271 855 86.124 814.106 473.461
208 0 78.1094 8.64173 675 89.8104 813.886 476.73
209 0 82.0966 12.3757 1016 85.0128 814.079 472.047
210 0 85.0811 11.4597 975 87.761 814.241 470.71
211 0 90.1576 13.0771 1179 85.5912 814.413 469.134
212 0 92.1021 12.3993 1142 92.1681 814.62 469.332
213 0 96.0907 12.0823 1161 93.2644 815.011 466.866
214 1 50.0162 10.4366 522 91.6015 814.466 487.215
215 0 51.1903 10.5293 539 91.4916 815.069 486.364
216 0 53.0703 10.7781 572 94.5035 815.031 485.318
217 0 52.034 10.8583 565 88.4372 816.512 486.264
218 0 55.0874 10.5106 579 88.5561 815.62 486.228
219 0 59.0956 13.2836 785 83.4586 815.015 483.49
220 0 59.1333 11.6855 691 86.9363 814.8 484.643
221 0 61.0819 11.591 708 87.3079 814.832 483.551
222 0 64.1037 11.8246 758 87.0858 814.988 481.293
223 0 67.0597 12.1384 814 81.0332 814.587 477.104
224 0 69.1394 13.6247 942 83.8811 814.372 478.222
225 0 69.1656 11.364 786 88.0305 814.593 478.649
226 0 70.0333 11.0662 775 85.3084 814.217 473.627
227 0 74.0934 12.1063 897 87.058 814.117 475.973
228 0 77.0652 11.341 874 88.5526 813.792 475.166
229 0 80.0404 12.2563 981 86.2365 813.5 475.491
230 0 83.1223 10.6229 883 89.0091 813.53 469.944
231 0 86.0943 11.4642 987 87.6808 814.131 471.63
232 1 43.0581 10.4278 449 89.8174 814.564 491.886
233 0 46.1653 10.6357 491 95.5316 815.13 489.568
234 0 50.1722 11.0619 555 98.245 814.782 482.434
235 0 49.1225 11.7665 578 97.0329 813.225 483.761
236 0 52.0746 12.3285 642 97.6028 813.732 483.087
237 0 54.0342 11.9924 648 98.2716 813.272 484.093
238 0 54.0216 12.532 677 99.3634 813.523 482.848
239 0 54.0469 12.7112 687 100.029 813.258 482.252
240 0 56.0418 12.5085 701 101.629 813.151 480.752
241 0 58.0094 14.5321 843 97.8873 813.535 480.953
242 0 59.0711 12.5781 743 102.301 814.814 482.534
243 0 60.1153 13.7569 827 100.956 814.469 482.603
244 0 65.1902 14.2966 932 98.1234 814.557 478.946
245 0 65.0811 13.6599 889 102.224 814.848 480.119
246 0 65.1168 12.8231 835 105.631 814.335 478.298
247 0 68.1233 13.3435 909 103.822 814.156 476.979
248 0 71.1384 14.6475 1042 101.362 814.467 475.643
249 0 73.1531 14.2578 1043 103.011 814.564 474.883
250 0 75.2311 13.5183 1017 105.746 815.255 474.431
251 0 78.0494 13.3505 1042 106.036 814.422 471.471
252 0 79.0602 13.028 1030 107.926 814.282 470.941
253 0 81.1202 13.9793 1134 105.95 814.874 470.921
254 0 83.0547 13.8463 1150 106.301 814.608 469.031
255 0 85.1778 14.2173 1211 106.112 814.652 469.746
256 0 89.084 13.6164 1213 107.7 814.059 465.358
257 0 89.1074 13.2649 1182 110.925 814.603 467.967
258 0 92.1268 12.917 1190 112.748 814.797 467.357
259 0 94.1602 13.4877 1270 111.001 813.708 464.713
260 0 95.199 12.5001 1190 115.127 814.514 463.789
261 0 98.1398 13.6132 1336 110.924 815.138 465.873
262 0 103.07 12.7002 1309 114.95 813.736 461.936
263 0 106.096 12.2342 1298 114.826 813.744 458.059
264 0 108.266 12.4138 1344 113.33 813.694 457.253
265 0 113.192 12.0592 1365 112.996 814.108 453.377
266 1 58.0613 11.6601 677 107.208 813.411 477.808
267 0 61.0629 13.1176 801 111.407 813.674 480.597
268 0 64.06 11.8014 756 114.143 813.562 479.794
269 0 65.1029 12.9487 843 112.499 813.289 477.756
270 0 68.2081 13.7081 935 110.973 813.705 476.747
271 0 71.1008 13.3191 947 111.757 813.767 476.297
272 0 72.1112 13.7565 992 110.631 813.181 474.599
273 0 73.043 12.8554 939 113.802 813.789 474.516
274 0 74.0921 13.2403 981 113.653 814.212 472.303
275 0 80.1784 12.6343 1013 113.467 813.784 470.475
276 0 86.2203 15.0777 1300 104.768 814.521 467.74
277 0 86.1263 14.3626 1237 108.041 814.097 467.37
278 0 88.2627 13.5505 1196 110.622 813.445 466.318
279 0 88.0968 13.0879 1153 112.384 814.794 466.112
280 0 90.1481 13.1118 1182 112.324 814.36 465.591
281 0 95.2558 12.9861 1237 112.454 814.057 460.43
282 0 95.1404 12.4973 1189 114.295 813.621 459.965
283 1 48.2023 11.2235 541 106.518 815.418 481.832
284 0 49.0851 11.6736 573 105.571 814.815 481.096
285 0 51.0317 11.581 591 108.985 815.584 480.254
286 0 53.1581 11.6445 619 107.21 815.294 482.667
287 0 55.0888 11.9625 659 107.325 814.439 479.92
288 0 58.0639 11.8318 687 107.131 814.983 479.163
289 0 58.1682 12.6014 733 106.206 814.94 478.675
290 0 63.0755 12.6832 800 104.545 815.246 478.458
291 0 62.0731 11.8248 734 109.094 815.155 474.294
292 0 65.203 12.024 784 107.472 814.751 476.966
293 0 68.1627 13.4678 918 105.182 814.736 475.978
294 0 68.1567 11.723 799 109.707 814.77 474.688
295 0 71.1118 12.3889 881 108.237 814.41 472.97
296 0 70.1081 12.2382 858 110.917 813.816 477.138
297 0 74.1784 12.5239 929 108.144 813.569 478.72
298 0 76.1178 13.2164 1006 108.25 813.685 473.821
299 0 79.1115 12.6277 999 109.567 813.632 474.036
300 0 81.0946 11.949 969 113.257 814.864 470.753
301 0 84.1066 13.7326 1155 107.632 814.702 471.676
302 0 84.1858 12.0567 1015 113.08 814.258 468.768
303 0 91.0923 13.9529 1271 108.124 814.155 467.248
304 0 90.1461 12.1248 1093 114.041 814.336 463.508
305 0 95.1346 13.0762 1244 111.626 813.772 464.901
306 0 97.1202 13.8179 1342 110.134 813.882 461.89
307 0 102.193 13.6017 1390 110.431 813.568 460.732
308 0 104.17 13.7084 1428 110.429 814.765 458.845
309 0 107.195 13.6574 1464 110.333 814.288 458.245
310 0 109.208 12.7005 1387 113.715 814.141 454.962
311 0 116.103 13.3158 1546 110.11 814.08 453.314
312 0 120.134 14.4422 1735 107.567 814.213 448.658
313 0 123.151 13.4713 1659 109.969 814.819 440.451
314 0 126.163 13.6094 1717 109.603 815.227 442.257
315 0 131.235 12.6719 1663 110.998 814.506 443.183
316 0 136.238 12.7497 1737 109.6 814.993 443.254
317 0 140.23 11.909 1670 113.625 814.37 437.328
318 0 146.332 13.0525 1910 108.876 815.154 440.626
319 0 149.314 13.9571 2084 109.5 815.233 431.032
320 0 154.318 12.8955 1990 111.765 815.311 431.727
321 0 159.35 14.1386 2253 109.224 814.647 424.835
322 0 164.308 12.7992 2103 112.651 814.99 423.072
323 0 171.292 13.1238 2248 110.536 814.616 424.307
324 0 178.29 13.1863 2351 111.421 814.686 417.388
325 0 184.288 14.461 2665 108.776 815.426 414.863
326 0 188.316 14.3429 2701 110.09 815.054 410.272
327 0 195.244 13.4601 2628 112.127 815.336 408.314
328 0 203.314 13.3488 2714 110.781 815.66 411.368
329 0 208.47 14.098 2939 110.453 815.448 400.875
330 0 217.34 14.3232 3113 110.076 815.904 402.603
331 1 64.1375 12.7694 819 95.42 815.598 480.09
332 0 66.1364 13.699 906 96.9371 814.929 480.573
333 0 68.0322 11.9796 815 100.679 815.025 478.215
334 0 70.0531 12.9616 908 98.576 815.102 478.943
335 0 71.1857 12.5587 894 99.5615 814.945 476.702
336 0 77.1774 12.1797 940 99.9138 815.547 474.979
337 0 80.0407 13.793 1104 95.9067 815.559 473.7
338 0 78.106 12.0349 940 100.16 815.083 473.044
339 0 84.1798 13.1148 1104 97.7935 815.12 468.618
340 0 85.1973 12.5943 1073 98.6272 814.604 470.65
341 0 89.3062 11.8693 1060 99.1849 814.614 467.233
342 0 90.1445 11.8587 1069 99.6904 814.85 469.265
343 0 96.1447 13.5525 1303 97.1051 814.11 464.472
344 0 98.1938 13.7381 1349 97.0971 814.653 463.739
345 0 100.077 12.4304 1244 100.725 814.756 461.031
346 0 105.185 13.0247 1370 98.8876 814.685 459.665
347 1 55.316 10.2502 567 96.1764 814.958 481.589
348 0 57.1234 11.2038 640 101.017 815.323 481.4
349 0 59.0736 11.7988 697 99.2511 814.538 482.019
350 0 60.0924 13.2463 796 96.5088 814.416 480.134
351 0 64.1715 13.573 871 94.7107 814.512 478.32
352 0 65.1337 12.482 813 97.5018 814.648 479.632
353 0 66.1352 12.0662 798 98.0251 814.441 475.538
354 0 67.1343 11.9611 803 97.4819 814.288 477.817
355 1 81.2375 15.2639 1240 84.9379 815.095 469.127
356 0 80.2147 14.9225 1197 87.9641 814.422 468.68
357 0 80.4084 15.0606 1211 88.7572 814.341 468.014
358 0 84.344 14.3342 1209 89.9917 814.267 465.184
359 0 81.2032 12.7089 1032 93.0649 813.786 469.685
360 0 85.1232 14.7316 1254 85.2711 814.829 468.35
361 0 91.1211 14.5301 1324 84.6186 814.237 465.462
362 0 87.224 12.2673 1070 90.8112 815.495 468.184
363 0 89.1834 10.6522 950 93.1284 814.608 464.202
364 1 49.1038 11.3637 558 89.6882 814.235 480.751
365 0 52.3582 12.1471 636 92.7044 814.445 486.294
366 0 49.1331 10.5631 519 91.711 815.108 489.16
367 0 51.0964 11.3902 582 90.9588 813.466 481.108
368 0 53.0901 10.6046 563 92.5524 814.325 480.691
369 0 53.0429 10.8591 576 91.6441 814.608 486.795
370 0 55.1016 10.9797 605 89.686 815.012 485.387
371 0 59.1088 12.2486 724 87.8094 814.942 484.069
372 0 63.0323 11.6448 734 91.1294 814.347 471.157
373 0 65.0882 12.7366 829 89.7889 813.822 473.392
374 0 66.0934 12.0284 795 91.6 813.912 476.377
375 0 67.0196 12.474 836 92.6435 814.504 475.081
376 0 70.0888 13.9395 977 90.4104 814.493 475.258
377 0 73.1842 12.0654 883 93.5493 814.729 475.498
378 0 75.17 12.2389 920 94.8815 814.708 471.184
379 0 75.0935 12.3979 931 95.9291 814.302 470.662
380 0 79.1386 11.6504 922 97.7787 814.822 468.465
381 1 40.0509 12.3843 496 96.756 814.31 487.52
382 0 42.0317 9.94487 418 100.529 814.708 487.83
383 0 45.1062 13.2354 597 93.0368 814.571 486.712
384 0 44.1001 10.2267 451 87.2173 815.368 485.452
385 0 45.0533 11.6529 525 85.781 815.507 483.537
386 0 48.1479 11.6724 562 86.1441 814.674 481.578
387 0 46.0556 10.2919 474 90.1181 814.751 481.665
388 0 49.0532 12.3947 608 85.8125 814.954 483.324
389 0 52.048 12.2963 640 91.9562 814.806 486.634
390 0 54.1411 13.9266 754 89.1963 814.31 484.739
391 0 57.0666 12.0561 688 91.8895 814.451 485.597
392 0 58.0815 13.6016 790 87.9405 814.04 481.252
393 0 56.0395 11.8666 665 94.8286 814.438 481.316
394 0 60.084 12.9818 780 91.9782 814.008 482.495
395 0 61.0568 13.2336 808 91.8812 814.717 481.452
396 0 63.0918 13.092 826 92.9201 814.144 480.218
397 0 67.0943 12.9966 872 92.4094 814.661 480.089
398 0 68.2065 13.4591 918 92.4978 814.337 476.332
399 0 72.0937 13.7183 989 92.3802 814.008 476.729
400 0 72.1708 13.759 993 93.8459 813.751 473.565
401 0 76.1439 14.4595 1101 92.05 814.124 470.148
402 0 78.1726 13.3806 1046 94.783 814.38 468.29
403 0 80.2165 13.6256 1093 95.0695 814.06 467.97
404 0 85.1284 14.5897 1242 92.5008 815.093 466.333
405 0 87.0795 14.0217 1221 94.276 814.971 465.754
406 0 89.08 13.0332 1161 96.0904 814.034 463.325
407 0 93.0832 13.2247 1231 94.4159 814.506 466.308
408 0 96.1607 13.1031 1260 95.4794 814.217 462.825
409 0 99.1392 12.9616 1285 99.3588 814.008 461.235
410 0 102.311 12.9508 1325 99.5124 813.855 458.199
411 0 107.11 12.7253 1363 98.7608 813.896 458.702
412 1 56.0307 14.5099 813 93.4084 814.105 482.219
413 0 57.0959 14.0115 800 94.4188 814.569 481.295
414 0 58.0909 11.7402 682 99.0147 814.768 481.367
415 0 62.0155 13.2709 823 95.113 814.016 479.113
416 0 65.1026 13.1946 859 94.3178 814.399 476.951
417 0 65.2222 12.7871 834 96.4628 814.752 475.466
418 0 69.1701 13.8788 960 93.6562 814.036 475.117
419 0 70.1414 13.6866 960 95.249 813.969 473.015
420 0 72.0906 14.3569 1035 94.2483 813.927 469.294
421 0 76.1668 15.2691 1163 91.6217 814.053 468.594
422 0 77.1062 13.851 1068 94.5712 813.802 468.212
423 0 79.1227 13.2073 1045 96.0861 814.198 464.344
424 0 83.1374 14.4219 1199 93.2752 814.292 463.279
425 0 85.1666 12.8454 1094 96.4598 814.543 462.994
426 0 90.2542 14.2597 1287 93 814.392 460.591
427 0 88.0929 13.1225 1156 97.6894 814.183 459.668
428 0 93.1593 12.806 1193 97.5205 814.064 457.759
429 0 98.1432 12.3697 1214 97.2455 813.991 458.681
430 1 47.0732 9.53834 449 92.902 814.167 480.37
431 0 50.1109 8.76057 439 91.0433 814.417 477.87
432 0 52.1533 9.06941 473 89.3362 814.499 480.131
433 0 55.1295 10.7021 590 89.2797 813.893 478.276
434 0 55.0847 9.54892 526 97.1578 814.779 476.669
435 0 59.1714 11.2892 668 90.5284 814.235 476.849
436 0 62.1758 11.8213 735 93.0612 814.231 476.658
437 0 64.098 10.6244 681 96.6667 814.42 474.778
438 0 65.1132 10.1976 664 96.9563 813.819 474.62
439 0 67.1167 10.221 686 97.844 814.634 472.749
440 0 72.0699 11.5444 832 101.407 813.887 475.538
441 0 77.1106 13.4353 1036 100.718 814.241 475.732
442 0 76.134 11.4929 875 106.008 814.782 473.827
443 0 81.0815 13.7146 1112 101.78 814.882 472.239
444 0 84.0837 12.1783 1024 104.21 814.739 471.658
445 0 87.0697 12.7025 1106 102.019 814.304 472.892
446 0 90.1014 13.6513 1230 101.445 814.562 469.673
447 0 94.1319 12.8118 1206 102.411 815.493 465.886
448 1 54.0842 11.4451 619 92.6898 814.753 489.045
449 0 54.0521 12.8395 694 93.9208 814.774 486.484
450 0 54.0805 10.4659 566 90.5636 814.708 487.65
451 0 54.0987 11.2572 609 90.2627 814.675 485.716
452 0 56.0462 10.7233 601 90.5707 815.326 484.94
453 0 59.0523 9.16138 541 91.3179 814.926 488.425
454 0 62.0684 12.0029 745 87.0013 814.501 483.537
455 0 62.0495 10.3788 644 90.7283 814.943 483.107
456 0 65.0466 10.0851 656 90.1265 814.506 482.055
457 0 69.0714 11.09 766 87.5979 815.013 478.684
458 0 71.0937 10.3385 735 88.634 814.88 480.158
459 0 70.2734 8.21079 577 92.0156 814.96 479.166
460 0 76.1342 10.2713 782 88.743 814.371 474.912
461 0 79.2625 10.2192 810 88.284 814.177 476.675
462 0 85.1204 11.2899 961 86.7638 814.363 473.318
463 0 84.1288 9.85394 829 89.7238 814.642 471.382
464 0 89.101 10.6396 948 88.2099 813.82 466.992
465 0 91.2477 9.54544 871 89.7187 813.89 465.293
466 1 49.1155 10.7705 529 86.1342 814.306 487.24
467 0 51.1277 11.4811 587 93.2947 814.486 487.043
468 0 53.3665 9.98754 533 95.8068 814.036 486.06
469 0 55.096 10.1641 560 95.6625 813.368 483.129
470 0 55.1927 9.87449 545 97.0862 813.971 482.117
471 0 59.1331 10.823 640 93.9703 813.77 483.098
472 0 61.1367 11.3516 694 93.3818 814.176 480.999
473 0 63.1617 10.671 674 94.2389 814.254 479.677
474 0 63.0643 10.0057 631 83.4628 815.23 483.748
475 0 61.1378 9.33956 571 84.401 813.83 486.904
476 0 65.1117 10.1057 658 85.4453 813.696 479.967
477 0 69.0656 9.67196 668 85.3997 813.41 480.53
478 0 72.1229 8.45778 610 86.9279 813.164 478.523
479 0 74.0274 10.6582 789 85.3638 813.603 477.189
480 0 77.0361 9.08665 700 87.1014 813.453 478.539
481 0 78.1174 9.70334 758 86.2243 813.748 480.128
482 0 77.0733 6.61708 510 89.3039 814.106 483.359
483 0 87.1839 8.95808 781 89.0986 813.698 472.709
484 0 88.0625 10.6629 939 88.5378 813.96 468.243
485 0 93.1025 10.1823 948 91.1456 813.528 472.7
486 0 94.1104 11.8053 1111 90.8497 814.548 470.532
487 0 95.1884 9.75959 929 95.7761 814.34 467.489
488 0 97.2976 9.52747 927 97.2233 813.841 462.653
489 1 54.1235 11.3259 613 89.7732 814.638 486.483
490 0 55.1652 10.8945 601 90.421 814.532 485.855
491 0 58.1311 9.20334 535 92.6598 814.359 489.322
492 0 59.1012 9.61063 568 94.2095 814.762 483.511
493 0 64.1251 12.2417 785 87.7299 814.302 483.557
494 0 65.0878 11.2617 733 90.3302 814.825 481.173
495 0 63.064 10.6241 670 93.2806 814.29 480.903
496 0 69.1347 12.6275 873 87.4548 813.919 482.62
497 0 70.0544 13.4467 942 86.8779 814.881 480.894
498 0 74.1124 12.1032 897 87.3623 814.012 479.31
499 0 72.0659 10.2129 736 91.3383 814.333 479.58
500 0 76.2454 11.0433 842 90.3028 813.614 474.613
501 0 81.2126 11.4761 932 87.5794 814.07 472.687
502 0 84.1488 9.81594 826 89.9128 813.552 474.728
503 0 85.2033 9.28368 791 90.7712 813.836 473.645
504 1 46.0326 10.0581 463 89.6177 813.574 491.933
505 0 49.0847 12.0608 592 85.5101 814.147 492.083
506 0 47.0975 11.317 533 85.3659 813.91 491.118
507 0 43.0359 10.4332 449 85.7082 814.412 491.697
508 0 48.0521 10.01 481 84.2453 815.603 491.759
509 0 49.0293 10.1572 498 84.5522 814.651 491.707
510 0 46.0778 9.0065 415 87.4602 815.017 490.639
511 0 52.0207 10.7842 561 83.8592 813.369 489.802
512 0 55.0319 10.5212 579 83.6062 813.722 489.499
513 0 55.0542 10.2626 565 85.9487 813.517 485.196
514 0 64.0582 8.39861 538 86.1636 814.035 490.139
515 0 62.1065 11.5608 718 85.2786 813.659 483.664
516 0 62.1868 11.7549 731 85.5677 812.767 482.037
517 0 63.1222 11.8183 746 85.1059 812.925 483.44
518 0 66.073 10.7003 707 86.3791 812.699 482.943
519 0 70.1878 11.5405 810 84.5654 813.565 482.246
520 0 70.2956 11.9069 837 84.4648 813.673 482.464
521 0 71.1398 11.864 844 86.2192 813.617 478.367
522 0 78.1629 11.0666 865 86.8763 813.883 477.19
523 0 78.2777 11.8297 926 86.149 813.158 478.225
524 0 77.2747 10.4174 805 89.1975 814.154 478.113
525 0 81.2579 11.1128 903 88.8328 814.354 476.868
526 0 81.1652 11.6799 948 90.1002 814.254 469.312
527 0 82.1878 9.63647 792 93.8422 813.689 472.899
528 0 83.2799 10.0625 838 94.6718 813.371 467.811
529 0 95.3576 10.9483 1044 91.523 813.719 469.665
530 0 94.3863 10.7431 1014 92.7712 813.264 468.497
531 0 94.0755 10.7892 1015 91.0453 813.362 469
532 0 98.1638 12.0309 1181 89.4826 813.567 462.03
533 0 100.195 10.6393 1066 92.1229 813.148 460.736
534 0 102.146 11.7576 1201 91.9567 812.46 457.049
535 0 107.195 11.036 1183 92.973 812.552 456.213
536 0 112.081 10.9921 1232 92.4148 812.959 458.365
537 0 118.193 11.4812 1357 91.9263 813.232 454.22
538 0 122.283 12.054 1474 91.5801 813.22 455.035
539 1 71.3332 11.3412 809 93.953 813.407 477.666
540 0 74.2113 13.3133 988 90.0779 813.771 479.412
541 0 74.1404 13.3396 989 90.1517 813.998 478.859
542 0 77.1508 12.5209 966 92.0487 813.588 475.468
543 0 81.2211 12.6322 1026 91.6062 814.413 475.883
544 0 83.2449 13.226 1101 90.7003 814.397 474.917
545 0 86.0434 12.8307 1104 91.5353 814.342 474.262
546 0 84.1921 10.9511 922 96.4046 814.749 476.837
547 0 84.1422 10.922 919 98.7062 814.705 475.075
548 0 87.1527 11.0266 961 98.8377 814.262 471.084
549 0 89.1649 11.1815 997 98.9037 814.512 472.843
550 0 93.117 10.4814 976 100.014 814.415 471.445
551 0 97.1678 11.2692 1095 98.6027 814.302 466.902
552 0 99.1324 10.9046 1081 99.9602 814.17 463.758
553 0 106.233 11.9078 1265 97.8111 814.384 460.978
554 0 106.169 11.1803 1187 99.0859 814.519 460.66
555 0 108.194 11.5903 1254 93.1188 814.851 463.136
556 0 111.105 12.4117 1379 94.7157 815.21 458.504
557 0 113.136 11.1547 1262 98.2964 815.263 457.212
558 1 59.154 10.3966 615 90.9236 815.714 483.024
559 0 61.0949 11.032 674 92.7003 815.5 483.905
560 0 61.0452 11.5161 703 94.2703 815.44 482.257
561 0 62.1659 11.4211 710 94.7775 815.148 484.172
562 0 61.0964 11.6537 712 96.4607 815.295 481.968
563 0 63.133 10.66 673 98.4279 814.866 484.245
564 0 62.1102 10.7873 670 99.4194 814.321 480.369
565 0 68.1396 11.9167 812 94.2217 814.507 481.384
566 0 69.1926 10.5792 732 94.6585 814.194 480.765
567 0 74.2947 12.0332 894 90.2785 813.871 479.12
568 0 75.2851 11.3701 856 90.7827 813.917 474.951
569 0 77.1307 10.9684 846 90.2518 813.689 478.105
570 0 80.1756 10.5643 847 90.6116 813.544 477.638
571 0 82.3253 11.8797 978 88.8937 814.084 473.583
572 0 84.2167 11.4942 968 89.8554 813.299 474.358
573 0 84.1908 12.1153 1020 89.5569 814.35 473.542
574 0 85.3113 10.5027 896 93.9788 813.915 472.238
575 0 89.181 11.9532 1066 91.3893 813.448 473.273
576 0 89.1402 11.7343 1046 94.1252 813.051 466.852
577 0 93.1672 11.1091 1035 94.1507 813.405 469.61
578 0 95.1696 10.6126 1010 95.5782 813.519 468.619
579 1 51.0202 9.21204 470 89.9383 814.026 492.947
580 0 55.0812 10.893 600 90.86 814.285 489.255
581 0 55.0602 10.5158 579 91.8066 814.891 490.069
582 0 57.2977 11.2745 646 97.1548 814.002 482.924
583 0 57.1763 9.89921 566 101.044 813.869 482.023
584 0 59.125 10.9429 647 99.3771 813.53 482.227
585 0 60.1893 11.0817 667 99.3523 812.91 482.717
586 0 61.2066 11.6001 710 99.5394 813.544 484.338
587 0 64.2226 13.2819 853 96.231 813.967 484.89
588 0 63.2517 11.9681 757 100.28 813.581 484.347
589 0 67.0839 13.103 879 99.165 814.047 482.587
590 0 68.3119 12.4722 852 100.83 813.845 482.44
591 0 68.2583 11.31 772 105.291 814.227 481.201
592 0 71.1798 11.773 838 104.475 813.478 480.476
593 0 73.1095 12.9258 945 103.432 813.909 477.895
594 0 75.0872 11.8263 888 104.493 814.034 478.305
595 0 77.1393 12.9636 1000 102.043 814.137 478.522
596 0 79.1571 13.6311 1079 101.355 814.158 477.127
597 0 81.118 12.6606 1027 105.248 813.728 474.999
598 0 82.1075 11.8138 970 109.796 813.854 474.315
599 0 85.2231 11.863 1011 109.016 813.128 474.971
600 0 89.1303 13.3288 1188 106.21 813.258 469.769
601 0 92.1465 12.2522 1129 109.43 812.678 470.823
602 0 96.1632 13.1131 1261 107.609 812.802 470.71
603 0 96.2063 12.7642 1228 111.18 812.956 465.556
604 0 101.236 13.0191 1318 109.285 813.89 466.671
605 1 53.0887 11.2642 598 106.65 813.446 488.759
606 0 54.2377 10.3434 561 107.562 813.444 487.392
607 0 57.2014 12.7444 729 92.4829 813.742 487.642
608 0 56.2575 12.1228 682 96.8138 812.566 485.144
609 0 60.1214 12.3417 742 97.1253 812.833 487.241
610 0 58.1132 10.5484 613 106.054 813.331 487.71
611 0 63.106 12.6612 799 99.8723 813.267 487.399
612 0 65.1106 12.0103 782 102.566 813.969 486.249
613 0 66.0928 12.1647 804 106.325 813.978 486.022
614 0 67.0553 13.5858 911 104.203 814.369 484.43
615 0 68.0556 11.2261 764 112.139 814.263 482.496
616 0 70.0852 12.071 846 110.467 814.285 481.558
617 0 72.0526 10.8393 781 112.229 814.401 482.384
618 0 76.0505 12.0841 919 109.215 813.624 478.987
619 0 77.1152 13.2659 1023 106.708 814.346 478.16
620 0 80.0618 11.4786 919 109.635 813.694 476.085
621 0 82.1537 14.0712 1156 102.753 813.694 472.315
622 0 84.0911 12.974 1091 105.838 813.96 470.798
623 0 86.1297 12.1793 1049 108.524 814.05 472.406
624 0 87.0798 12.0809 1052 108.985 813.417 469.62
625 0 92.1108 12.1267 1117 107.875 812.359 470.248
626 0 96.1435 11.6597 1121 106.636 812.11 469.943
627 0 98.2628 12.7006 1248 104.779 810.635 468.914
628 0 103.217 13.8737 1432 103.119 811.379 462.655
629 0 104.121 11.7364 1222 108.448 811.058 464.832
630 0 109.132 12.4803 1362 106.67 811.204 463.305
631 0 111.142 12.4525 1384 107.921 811.572 459.376
632 0 115.095 13.1978 1519 106.619 811.404 457.845
633 0 115.199 11.9098 1372 110.627 810.579 455.13
634 0 118.101 10.9229 1290 113.636 811.704 452.846
635 0 126.175 12.2449 1545 109.795 811.107 450.526
636 0 131.114 12.4166 1628 109.23 811.619 450.001
637 0 136.191 12.6294 1720 108.551 810.724 447.284
638 0 140.204 12.1965 1710 110.185 811.52 443.245
639 0 143.111 12.6894 1816 109.029 811.032 443.092
640 0 150.209 13.6476 2050 106.487 811.524 438.119
641 0 156.145 12.8086 2000 108.236 811.273 438.354
642 0 162.319 12.8081 2079 107.021 811.789 436.434
643 0 166.118 12.2624 2037 110.195 811.035 434.726
644 0 166.279 11.3604 1889 108.45 811.632 431.568
645 0 172.384 11.0045 1897 108.373 812.1 427.254
646 1 94.122 10.7201 1009 101.767 811.413 473.018
647 0 99.1002 10.5247 1043 101.943 811.918 471.85
648 0 103.143 11.1399 1149 101.353 811.967 468.346
649 0 110.263 11.4998 1268 101.338 811.813 463.323
650 0 114.121 10.4626 1194 102.998 811.807 460.774
651 0 118.137 11.2158 1325 103.091 811.636 460.16
652 0 121.127 11.1371 1349 104.432 811.59 456.788
653 0 126.261 11.3416 1432 104.664 811.98 456.681
654 1 63.058 12.0048 757 103.982 810.939 485.095
655 0 64.0706 12.4862 800 102.999 812.74 481.79
656 0 61.1768 9.88937 605 100.162 813.311 485.843
657 0 65.2546 10.0376 655 100.198 813.791 483.719
658 0 68.1199 10.6136 723 97.9142 812.777 483.393
659 0 69.1623 10.8007 747 98.3173 812.608 481.825
660 0 73.1064 10.3685 758 96.1174 813.061 483.094
661 1 164.428 10.0287 1649 110.741 812.579 430.893
662 1 78.1671 10.2473 801 97.7878 813.119 477.561
663 0 83.211 12.3421 1027 94.6456 812.832 475.67
664 0 86.3589 11.7185 1012 97.5721 812.569 471.106
665 1 47.1835 11.3387 535 100.413 812.512 490.484
666 0 49.0256 12.4425 610 100.415 813.767 492.048
667 0 50.0608 12.2052 611 101.242 814.095 490.863
668 0 52.1454 11.7364 612 104.049 813.327 488.59
669 0 52.0833 11.9232 621 104.364 813.11 487.296
670 0 54.0904 13.7917 746 100.298 813.556 488.721
671 0 57.1215 14.4254 824 98.5874 813.295 483.28
672 0 58.1731 12.1706 708 105.89 812.996 484.017
673 0 59.0916 11.8799 702 105.298 813.15 485.55
674 0 63.1024 12.3926 782 102.879 813.786 484.421
675 0 61.0286 12.3549 754 103.095 812.968 482.867
676 0 61.1126 12.387 757 97.1242 814.502 486.398
677 0 63.1187 10.3139 651 100.352 814.542 487.3
678 0 65.0727 11.6946 761 98.5926 813.183 482.694
679 0 67.0966 11.6399 781 98.6594 813.52 481.817
680 0 70.0492 11.3492 795 98.4013 813.664 480.289
681 0 70.0574 10.5485 739 99.9229 813.487 478.43
682 0 75.1239 10.6491 800 97.9738 813.82 477.252
683 0 77.259 10.1865 787 100.088 813.99 476.551
684 0 80.0839 10.1893 816 99.1789 813.703 475.597
685 0 81.0698 11.4839 931 96.9194 814.774 471.236
686 0 85.179 10.0846 859 98.0803 813.601 472.584
687 0 88.1768 11.114 980 96.3286 813.972 472.889
688 0 91.2402 11.815 1078 101.172 813.421 461.933
689 0 90.1944 11.8965 1073 100.043 814.209 457.855
690 0 97.1743 7.35791 715 99.1287 814.365 455.14
691 0 98.0683 7.92305 777 99.3462 815.072 448.846
692 0 106.129 9.46014 1004 97.3795 814.051 454.745
693 1 55.0437 11.8996 655 89.9145 814.693 484.104
694 0 58.0717 11.348 659 90.393 814.757 483.998
695 0 61.1565 12.2473 749 89.8812 814.411 482.493
696 0 62.0835 11.3879 707 91.7214 813.822 481.051
697 0 61.1153 11.1592 682 92.673 813.452 481.626
698 0 65.0684 10.7425 699 93.5079 813.787 480.572
699 0 67.1318 10.9635 736 93.7024 813.967 480.519
700 0 70.1892 11.0273 774 94.3178 813.944 479.535
701 0 73.0845 13.6417 997 90.5366 813.944 475.921
702 0 74.1072 12.266 909 94.8361 813.678 475.029
703 0 78.1897 12.4185 971 96.5304 813.261 466.034
704 0 82.2503 12.7173 1046 95.0134 814.068 471.624
705 0 85.1124 13.9698 1189 93.1707 813.674 470.151
706 0 86.131 12.8641 1108 97.7112 813.673 470.234
707 0 90.3012 14.4406 1304 95.26 813.572 466.747
708 0 94.1819 13.2509 1248 99.1434 813.615 465.138
709 0 96.2285 13.3744 1287 100.599 813.744 458.869
710 1 50.0504 10.8091 541 100.133 814.815 480.854
711 0 50.1245 9.85545 494 103.964 814.895 479.522
712 0 57.0281 11.7661 671 100.654 814.595 484.833
713 0 60.0679 12.4526 748 100.588 814.305 485.917
714 0 60.074 12.5179 752 102.011 813.804 482.23
715 0 62.1639 11.9362 742 103.294 813.306 483.375
716 0 66.0438 12.9762 857 100.875 814.177 481.624
717 0 68.1718 13.0699 891 101.908 814.068 480.217
718 0 70.0741 13.814 968 100.863 815.048 481.028
719 0 72.2197 14.3728 1038 99.9692 814.273 479.182
720 0 75.0844 13.3849 1005 101.928 813.908 478.483
721 0 76.0802 12.3028 936 104.605 814.044 477.485
722 0 78.1545 11.9891 937 105.853 814.667 476.419
723 0 81.3508 12.6612 1030 105.551 814.452 470.056
724 0 82.2185 12.6371 1039 105.43 813.927 472.868
725 0 88.1516 12.8982 1137 104.568 813.686 471.066
726 0 89.1877 13.7575 1227 103.435 814.098 469.192
727 0 91.1367 12.0588 1099 109.438 813.18 467.564
728 0 95.1321 12.9084 1228 105.729 813 468.44
729 0 99.1789 13.2387 1313 105.572 814.462 467.57
730 0 101.226 11.5781 1172 107.75 814.581 466.734
731 0 107.19 11.8574 1271 106.452 814.811 461.507
732 0 109.2 13.141 1435 103.137 814.438 458.698
733 0 113.312 11.2698 1277 105.76 814.326 460.701
734 0 117.177 11.009 1290 104.473 814.041 454.516
735 0 121.394 9.84398 1195 103.41 813.761 453.941
736 0 124.208 9.41967 1170 104.603 813.777 450.944
737 1 68.1612 10.8713 741 95.135 814.003 480.285
738 0 71.069 10.8627 772 95.1101 814.686 479.911
739 0 74.0898 12.8358 951 92.4837 814.798 479.333
740 0 74.1157 12.0352 892 94.9361 814.752 477.192
741 0 79.205 12.5118 991 93.3239 814.614 477.519
742 0 82.1082 11.8746 975 95.7846 813.911 472.401
743 0 86.0729 12.2222 1052 96.1274 814.164 472.74
744 0 89.1457 12.0253 1072 96.209 814.052 470.678
745 0 93.0495 12.1011 1126 96.0453 814.012 471.052
746 1 49.0362 11.5017 564 98.5833 814.138 490.727
747 0 52.075 12.578 655 94.5237 814.426 489.574
748 0 54.0929 11.4987 622 99.4469 813.706 488.968
749 0 53.0668 10.7789 572 92.951 813.572 488.061
750 0 54.1895 11.9765 649 91.0508 813.304 490.384
751 0 58.0252 11.8397 687 92.0946 813.255 488.643
752 0 57.0644 9.65576 551 94.0599 812.955 487.63
753 0 60.0459 11.1082 667 92.5577 813.466 486.627
754 0 64.0905 11.7334 752 90.7686 813.52 485.779
755 0 64.0607 12.0823 774 90.9121 813.435 486.943
756 0 65.114 11.3032 736 92.4674 813.204 483.332
757 0 68.0734 12.2515 834 90.6007 813.852 483.432
758 0 72.0755 15.0675 1086 84.7422 813.766 478.647
759 0 72.0606 11.0601 797 92.5822 813.546 479.848
760 0 73.0419 11.3633 830 93.2398 813.159 480.353
761 0 76.1808 12.7329 970 90.5464 813.339 478.688
762 0 78.0776 11.9368 932 91.6652 813.068 476.114
763 0 80.171 9.56705 767 95.1995 813.103 477.095
764 1 40.0187 10.1203 405 93.5827 812.701 495.279
765 0 44.1532 10.1465 448 92.404 812.982 494.866
766 0 46.0676 10.8753 501 90.7266 812.88 494.495
767 0 43.0947 11.7416 506 93.415 813.816 494.061
768 0 42.0336 9.65894 406 94.9532 813.123 497.736
769 0 46.0573 13.5049 622 89.2862 812.997 494.828
770 0 43.0486 9.9887 430 97.8628 812.86 491.195
771 0 48.0414 10.8865 523 93.0478 813.294 493.136
772 0 50.0311 10.8333 542 92.9428 812.895 492.113
773 0 50.0555 11.0677 554 92.8375 813.433 492.576
774 0 53.061 11.4397 607 92.7496 813.672 489.092
775 0 53.0726 12.0589 640 91.1734 813.616 491.083
776 0 56.1062 10.694 600 92.73 812.798 491.657
777 0 60.045 11.3915 684 92.1096 811.804 488.389
778 0 60.0474 11.0579 664 92.8132 812.455 489.134
779 0 62.0394 11.4443 710 92.8254 812.569 485.492
780 0 65.041 11.8233 769 92.0819 812.183 483.495
781 0 66.1298 10.4189 689 93.746 813.212 481.801
782 0 71.0649 10.6945 760 91.4053 812.3 483.983
783 0 74.0602 11.7607 871 89.5603 812.891 482.807
784 0 76.0484 11.3217 861 90.36 812.787 481.574
785 0 79.0366 12.4879 987 90.0659 813.015 476.092
786 0 81.1056 10.9487 888 92.5811 812.782 478.19
787 1 44.0329 10.6284 468 92.2756 813.13 493.936
788 0 49.0426 11.2963 554 93.1733 813.058 492.264
789 0 50.0388 11.611 581 91.2943 813.427 492.043
790 0 51.0272 12.4443 635 88.8945 811.085 491.172
791 0 54.0469 12.7297 688 87.1381 811.253 490.044
792 0 53.0356 11.464 608 91.6201 810.778 492.002
793 0 54.0573 11.5618 625 94.552 811.882 479.782
794 0 59.0545 14.0548 830 87.9843 812.501 488.729
795 0 59.1183 13.2277 782 90.6458 812.798 488.324
796 0 61.0815 13.5884 830 90.9048 812.188 486.636
797 0 64.0951 11.6702 748 94.4946 813.183 489.001
798 0 64.0498 13.2709 850 93.7506 813.529 485.306
799 0 67.1071 12.0702 810 94.9593 813.559 486.342
800 0 69.0803 12.9849 897 93.1037 812.553 482.308
801 0 71.0382 12.9086 917 95.4308 812.24 481.821
802 0 69.0228 10.3589 715 101.74 813.331 483.315
803 0 74.1985 11.1727 829 100.271 812.809 482.033
804 0 77.0624 12.146 936 101.364 813.513 478.771
805 0 78.1087 11.3432 886 104.884 812.967 476.493
806 0 84.1244 12.5766 1058 101.266 812.249 474.266
807 0 88.2052 11.5866 1022 103.826 812.905 474.758
808 1 47.0185 10.7405 505 101.614 812.624 495.22
809 0 49.0674 11.1479 547 103.046 812.653 491.918
810 0 48.0237 10.0367 482 108.51 812.753 491.458
811 0 50.0653 12.3838 620 95.7032 812.444 489.6
812 0 49.0412 11.2966 554 97.5235 812.374 491.975
813 0 53.0628 11.6466 618 96.3172 812.463 490.576
814 0 54.0482 11.8598 641 96.337 812.764 488.772
815 0 54.0764 11.1694 604 99.2235 811.594 492.177
816 0 55.0634 11.9862 660 98.6318 812.817 489.105
817 0 57.0346 12.3609 705 97.2553 812.427 488.833
818 0 57.175 10.704 612 100.239 812.23 487.82
819 0 62.0435 11.0729 687 98.9796 812.498 485.268
820 0 62.0731 12.3242 765 97.315 812.643 485.308
821 0 64.1867 10.485 673 99.0713 812.181 485.744
822 0 66.0457 10.8107 714 98.5448 812.464 484.346
823 0 68.1514 11.4158 778 96.2198 812.423 481.78
824 0 71.0483 12.2311 869 94.2094 812.315 478.853
825 0 74.1258 10.064 746 97.0013 812.669 480.397
826 0 79.0782 12.241 968 93.3326 812.772 475.812
827 0 81.0827 12.1851 988 93.7864 812.002 474.415
828 0 84.1133 11.4488 963 94.8525 812.216 471.427
829 0 87.0982 10.4135 907 97.5645 812.453 470.568
830 0 91.0861 12.3839 1128 94.023 812.253 467.43
831 0 94.1389 11.7486 1106 95.8743 812.401 468.988
832 0 98.0945 10.4185 1022 102.151 812.449 466.142
833 1 52.023 12.4176 646 95.0341 812.255 490.286
834 0 53.072 11.3619 603 96.7048 813.191 489.182
835 0 55.0862 11.9086 656 96.2759 813.061 486.709
836 0 56.0354 11.582 649 97.2774 813.094 487.88
837 0 58.0522 11.5758 672 97.2098 812.817 483.765
838 0 64.0997 11.5289 739 97.5724 812.012 484.541
839 0 64.092 12.8877 826 95.7918 812.182 482.533
840 0 65.0546 12.6202 821 97.3678 812.074 482.7
841 0 67.0267 12.8904 864 98.3518 812.963 481.769
842 0 70.0616 13.431 941 97.9246 813.436 481.22
843 0 73.0713 12.481 912 101.283 813.277 478.596
844 0 76.1036 13.4553 1024 101.165 814.875 478.573
845 0 76.098 12.773 972 104.919 814.159 479.3
846 0 74.1008 12.456 923 109.07 813.627 478.585
847 0 77.1377 13.5083 1042 107.928 813.647 478.158
848 0 81.0827 12.5304 1016 109.933 813.017 478.074
849 0 85.1612 12.8462 1094 109.748 814.113 476.603
850 0 84.1161 12.5541 1056 112.723 813.84 472.698
851 0 91.0508 13.0477 1188 108.768 814.283 472.152
852 0 92.1131 11.9961 1105 112.616 813.7 470.419
853 0 91.0761 11.6496 1061 113.75 814.174 470.075
854 0 96.0888 12.3844 1190 113.032 814.24 463.091
855 0 100.129 11.5651 1158 112.875 813.921 465.666
856 0 102.122 13.1607 1344 110.164 813.397 461.819
857 0 108.124 11.9215 1289 110.339 812.493 461.209
858 0 109.13 11.4543 1250 112.082 812.676 457.894
859 0 113.206 12.2255 1384 110.845 813.03 453.548
860 0 117.118 11.1511 1306 112.282 813.319 454.47
861 0 121.198 12.2774 1488 110.473 813.066 449.864
862 0 126.21 12.5109 1579 109.619 813.054 446.982
863 0 132.122 11.9208 1575 110.187 812.931 440.091
864 1 67.0571 10.6476 714 103.371 813.735 470.018
865 0 72.1487 10.9496 790 101.446 813.757 471.818
866 0 78.1075 13.3534 1043 103.017 813.748 476.889
867 0 76.0872 10.8822 828 107.758 813.68 477.426
868 0 79.0558 12.1433 960 105.246 813.476 474.574
869 0 82.1368 12.5522 1031 105.405 813.665 474.074
870 0 83.1062 11.9245 991 108.438 813.208 470.506
871 0 88.1129 12.0981 1066 107.372 812.996 472.062
872 0 91.1104 11.8647 1081 108.915 813.133 467.368
873 0 94.0819 12.4891 1175 107.747 813.19 465.554
874 0 98.1428 13.5415 1329 105.713 813.231 465.489
875 0 102.119 13.6801 1397 106.505 813.063 461.656
876 0 106.15 12.7555 1354 108.172 813.209 460.569
877 0 107.114 12.7901 1370 109.728 813.058 454.256
878 0 110.225 12.6831 1398 109.336 812.95 453.428
879 0 116.222 12.6912 1475 105.391 813.227 443.096
880 0 121.208 12.3507 1497 105.904 813.209 441.707
881 0 124.233 12.9032 1603 105.985 813.343 446.294
882 0 126.182 11.9907 1513 108.711 811.654 439.574
883 0 133.146 14.1499 1884 102.955 812.512 436.942
884 0 136.26 12.3147 1678 106.922 812.225 435.583
885 0 138.238 11.1764 1545 110.098 812.492 429.982
886 0 146.214 11.8935 1739 107.956 812.361 429.178
887 0 150.189 10.4934 1576 111.797 812.53 427.979
888 1 92.0841 12.5212 1153 100.307 812.538 469.824
889 0 94.1201 12.2078 1149 99.6963 812.542 467.425
890 0 96.1163 12.2768 1180 99.4559 812.885 466.927
891 0 99.1284 12.2669 1216 100.103 812.84 464.67
892 0 103.229 13.3296 1376 98.7892 813.28 456.866
893 0 106.144 12.9729 1377 99.8751 812.291 455.482
894 0 111.171 13.5377 1505 99.1914 812.801 454.67
895 0 113.149 12.7265 1440 102.644 811.749 453.057
896 0 118.171 14.0897 1665 104.891 811.65 450.607
897 0 119.169 13.4851 1607 108.083 811.65 446.893
898 0 125.105 12.4376 1556 109.083 811.952 445.021
899 0 123.241 10.9622 1351 97.3938 812.536 444.908
900 0 133.166 12.6684 1687 104.983 813.456 442.389
901 0 137.27 12.7049 1744 104.893 813.214 433.919
902 1 159.227 10.3814 1653 107.426 813.491 439.128
903 0 159.159 9.89577 1575 108.61 812.787 438.673
904 0 158.196 9.88648 1564 108.524 812.349 435.439
905 0 164.203 11.5345 1894 105.037 812.329 435.331
906 1 92.1264 12.4611 1148 99.1646 812.659 466.655
907 0 92.1248 13.3189 1227 98.6879 811.879 465.756
908 0 95.1768 12.44 1184 100.86 812.628 463.58
909 0 97.1616 12.7828 1242 102.057 812.799 460.908
910 0 101.067 13.9016 1405 100.235 812.992 459.004
911 0 106.102 14.1468 1501 99.2418 812.949 458.272
912 0 109.041 12.775 1393 103.104 813.447 454.706
913 0 111.148 13.1896 1466 102.191 812.298 451.251
914 0 117.105 13.1506 1540 101.565 812.911 451.588
915 0 118.245 13.7257 1623 101.188 813.516 450.258
916 0 123.27 15.1537 1868 100.391 812.699 440.744
917 1 63.0362 11.7869 743 100.904 813.022 470.729
918 0 70.1385 11.5771 812 100.985 812.895 475.148
919 0 71.0612 14.0302 997 95.5166 813.353 476.265
920 0 75.1482 13.347 1003 96.1884 813.091 474.999
921 0 74.207 13.1389 975 98.8944 813.645 473.851
922 0 78.1397 13.0279 1018 98.5658 813.233 470.698
923 0 83.2308 13.5647 1129 98.1727 813.135 469.66
924 0 82.1846 12.983 1067 100.586 812.805 467.709
925 0 86.2711 12.8316 1107 100.797 813.305 467.802
926 0 89.2565 12.2792 1096 102.331 813.063 463.441
927 0 94.1167 14.0676 1324 97.6201 812.446 462.646
928 0 97.1649 13.1941 1282 99.3775 812.924 460.949
929 0 98.1165 12.7603 1252 100.727 812.936 457.202
930 0 102.168 12.9199 1320 99.8992 813.564 458.531
931 0 105.235 12.0683 1270 102.367 814.395 454.01
932 1 53.0231 10.0145 531 100.518 814.443 481.305
933 0 53.0555 10.8566 576 98.4774 814.354 479.073
934 0 52.0937 9.5981 500 99.776 813.338 479.648
935 0 53.0407 9.06852 481 88.5218 813.836 476.938
936 0 55.0315 9.73988 536 88.0709 812.709 472.243
937 1 126.163 8.86156 1118 104.426 813.682 440.138
938 0 126.212 9.99908 1262 102.719 813.558 438.898
939 1 140.216 7.03203 986 102.809 814.384 450.282
940 0 133.185 10.9547 1459 101.235 813.481 430.222
941 0 140.079 10.5369 1476 100.679 813.062 435.158
942 0 143.169 10.8613 1555 100.796 813.65 434.272
943 0 148.192 12.2071 1809 98.9044 813.409 425.569
944 0 155.157 11.3691 1764 99.7058 812.608 427.458
945 1 71.1446 8.54598 608 92.8355 812.742 462.558
946 0 76.0476 9.30995 708 91.9223 812.941 462.871
947 0 81.2871 11.5147 936 90.4776 812.771 459.93
948 0 85.1047 10.9395 931 94.4404 813.613 455.512
949 0 91.0465 12.3893 1128 97.9539 812.715 459.334
950 0 97.0983 11.6892 1135 103.672 812.921 461.35
951 1 50.0128 10.3574 518 94.6293 814.423 485.282
952 0 52.0993 11.6316 606 92.3399 812.861 481.954
953 0 55.0377 12.228 673 95.9049 811.82 485.584
954 0 58.0685 12.6575 735 95.2912 812.328 484.501
955 0 60.0678 14.2838 858 91.6853 812.084 482.945
956 0 59.0457 11.6181 686 98.6443 811.964 483.348
957 0 64.0412 12.9292 828 95.7995 811.638 481.548
958 0 64.0799 12.0319 771 98.1258 812.261 481.193
959 0 67.1319 12.9894 872 96.2901 812.946 479.273
960 0 69.0855 12.376 855 98.7205 813.212 477.384
961 0 70.0605 12.6605 887 99.9448 812.531 475.195
962 0 73.1731 14.1719 1037 96.2845 814.127 475.891
963 0 74.1403 12.5842 933 100.46 813.049 475.274
964 0 77.1031 12.1396 936 102.405 813.421 473.639
965 0 80.1856 13.1694 1056 100.615 812.622 470.487
966 0 82.1574 13.3281 1095 100.843 812.809 470.241
967 0 85.1389 13.0375 1110 102.042 813.05 470.028
968 0 87.0655 13.3578 1163 102.248 813.088 466.261
969 0 89.2357 11.9235 1064 104.353 814.845 467.07
970 0 93.3159 13.4918 1259 102.756 813.173 463.707
971 0 97.2414 12.9266 1257 103.675 813.604 467.148
972 0 94.2072 12.1541 1145 98.3371 814.063 465.895
973 0 96.0967 10.5415 1013 100.375 814.036 468.016
974 0 101.269 11.1584 1130 99.1796 814.088 462.924
975 0 104.191 11.4597 1194 99.526 812.576 460.015
976 0 109.198 12.0149 1312 94.2965 813.406 454.86
977 0 116.193 13.0645 1518 97.0171 812.788 448.912
978 0 120.333 13.097 1576 101.286 812.654 448.583
979 0 123.23 12.7404 1570 102.325 812.717 446.596
980 0 126.153 12.3739 1561 101.986 812.759 445.828
981 0 131.26 13.6523 1792 99.5977 813.074 446.326
982 0 137.163 12.6201 1731 102.072 812.726 445.712
983 0 143.36 13.1766 1889 100.389 813.282 441.5
984 1 77.0766 11.0539 852 96.3826 812.316 474.559
985 0 81.0511 12.4613 1010 90.1148 812.095 476.562
986 0 84.1516 11.7407 988 92.9686 813.04 471.309
987 0 86.1842 12.7053 1095 91.6886 812.761 468.66
988 0 88.1667 11.2174 989 94.4459 812.51 468.558
989 0 94.1131 11.6668 1098 92.5091 813.199 468.41
990 1 176.485 12.783 2256 99.9025 812.615 428.275
991 1 56.1052 11.728 658 96.1201 812.521 484.64
992 0 58.3029 11.7661 686 93.3674 812.726 484.774
993 0 59.1196 10.8932 644 95.2624 812.519 482.526
994 0 63.1505 11.8447 748 90.8289 812.582 480.82
995 0 65.0601 11.451 745 91.5557 812.57 481.405
996 0 67.0524 13.4671 903 88.8128 812.58 479.909
997 0 70.1052 11.4257 801 93.3683 812.562 477.628
998 0 71.0975 11.7163 833 92.9628 812.259 476.221
999 0 72.1348 12.0469 869 93.214 811.524 475.763
1000 0 76.2117 12.7539 972 91.7562 812.363 474.679
1001 0 81.1797 11.6039 942 101.222 812.497 473.762
1002 0 83.2042 12.6436 1052 100.806 812.323 471.154
1003 0 86.2285 12.6524 1091 100.781 812.32 467.778
1004 0 89.0929 11.1793 996 97.4177 813.456 469.869
1005 0 92.2029 11.5072 1061 96.737 813.516 465.36
1006 0 94.1865 11.2224 1057 97.7881 813.692 461.579
1007 0 97.1874 10.701 1040 98.124 813.83 461.673
1008 1 51.1866 9.33839 478 92.0439 813.822 486.623
1009 0 53.1874 10.7544 572 92.7657 814.028 481.495
1010 0 56.2703 11.4981 647 93.2875 814.147 477.518
1011 0 56.038 11.3316 635 98.7654 814.581 480.997
1012 0 63.1982 10.0003 632 102.193 813.69 482.812
1013 0 64.2477 11.8292 760 98.7145 813.541 481.576
1014 0 61.2044 10.8489 664 101.902 813.539 478.331
1015 0 65.385 10.8588 710 102.225 813.617 479.446
1016 0 68.2353 10.9034 744 102.345 814.272 478.988
1017 0 70.2786 12.8204 901 100.208 814.309 476.275
1018 0 71.1558 11.3413 807 104.384 814.948 474.701
1019 0 72.2042 11.329 818 102.91 814.45 475.722
1020 0 77.1236 12.4864 963 99.7414 813.972 474.605
1021 0 78.0996 12.292 960 99.9844 815.059 474.779
1022 0 79.1311 12.3972 981 100.212 814.087 469.727
1023 0 82.2184 9.53558 784 104.596 814.064 473.134
1024 0 84.1754 12.3789 1042 98.4674 813.599 468.862
1025 0 87.1037 11.8594 1033 101.226 813.941 466.834
1026 0 92.134 12.6012 1161 98.7649 813.544 468.544
1027 0 93.2411 12.3229 1149 95.4134 813.196 464.562
1028 0 96.3829 10.9044 1051 99.53 813.484 459.156
1029 0 99.3162 10.1192 1005 100.734 813.628 460.284
1030 1 52.1797 10.3488 540 89.2926 815.08 482.943
1031 0 52.0503 9.2987 484 92.3202 814.729 484.707
1032 0 53.0658 10.4022 552 94.2609 814.105 484.761
1033 0 56.1176 10.478 588 94.6752 814.435 483.138
1034 0 59.1177 11.8408 700 89.1643 814.063 481.846
1035 0 59.167 12.3041 728 88.989 814.861 483.184
1036 0 62.1029 10.5631 656 92.6951 814.867 481.465
1037 0 65.0579 11.3437 738 92.5732 815.056 479.363
1038 0 69.1775 12.3017 851 90.671 814.76 479.45
1039 0 69.1964 11.8937 823 92.6659 814.379 477.855
1040 0 69.2547 11.3205 784 95.5612 814.531 475.997
1041 0 73.1526 11.0044 805 95.8186 814.953 477.194
1042 0 77.335 13.1118 1014 92.0138 814.243 474.762
1043 0 80.1935 12.7192 1020 94.1912 813.505 473.281
1044 0 84.0856 12.7251 1070 102.492 813.568 473.707
1045 0 84.0759 12.2984 1034 105.326 814.364 470.174
1046 0 86.1871 11.4054 983 101.927 814.553 466.636
1047 0 89.163 11.193 998 102.642 814.462 464.665
1048 0 90.1706 11.4672 1034 102.354 813.983 464.946
1049 0 92.166 11.6637 1075 101.854 814.342 464.355
1050 0 97.2366 12.6701 1232 101.591 813.864 464.946
1051 0 101.306 12.1217 1228 104.711 813.808 462.678
1052 0 101.156 12.6933 1284 105.947 813.326 458.283
1053 0 106.223 11.1369 1183 107.546 813.205 454.721
1054 0 111.253 11.3974 1268 106.888 813.469 454.288
1055 0 113.227 12.1703 1378 105.496 813.194 448.558
1056 1 57.1434 10.8849 622 97.9646 814.177 478.83
1057 0 61.2468 12.9639 794 92.6247 813.651 479.276
1058 0 61.1114 10.5381 644 93.8385 813.846 481.453
1059 0 64.0348 10.6348 681 102.587 814.59 479.899
1060 0 66.1077 11.693 773 99.696 814.334 478.749
1061 0 70.0525 11.1773 783 100.727 814.53 477.452
1062 0 72.091 10.5006 757 101.485 813.956 476.501
1063 0 73.0716 11.9335 872 99.6915 813.749 474.05
1064 0 74.1629 11.1781 829 93.4487 814.396 471.902
1065 0 79.2128 12.0183 952 91.542 814.061 471.876
1066 0 81.104 12.0833 980 92.0163 813.645 471.518
1067 0 83.1446 11.0651 920 95.7196 813.459 470.412
1068 0 85.209 11.7711 1003 96.1974 813.621 465.999
1069 0 87.0994 11.4582 998 97.6754 813.665 464.826
1070 0 90.0917 11.9212 1074 101.211 814.265 464.658
1071 0 94.1648 12.1914 1148 100.026 814.169 465.944
1072 0 96.1273 12.2546 1178 101.818 814.149 461.143
1073 0 99.1088 13.5306 1341 100.268 814.422 456.909
1074 0 103.304 13.5523 1400 101.135 813.628 455.342
1075 0 106.253 12.6208 1341 104.506 813.612 453.524
1076 0 109.213 12.9655 1416 103.941 812.925 452.494
1077 0 116.351 13.8718 1614 101.114 813.062 449.673
1078 1 63.2323 10.8331 685 100.95 814.115 475.599
1079 0 65.2619 10.9712 716 102.676 813.306 474.398
1080 0 67.2136 11.7387 789 101.394 814.034 476.314
1081 0 69.0957 11.6939 808 94.1077 814.428 474.824
1082 0 72.1748 11.2228 810 93.7926 814.785 474.406
1083 0 74.0895 11.5131 853 95.5932 814.635 474.11
1084 0 78.0756 11.4632 895 94.4212 815.263 472.144
1085 0 80.1301 12.3549 990 94.9222 814.515 470.428
1086 0 83.1378 11.944 993 95.9275 814.529 469.604
1087 0 87.0574 12.5435 1092 95.2949 814.331 468.791
1088 0 88.1726 11.2847 995 108.121 814.865 466.684
1089 0 93.1082 11.1805 1041 108.995 814.568 462.65
1090 0 95.1595 11.2022 1066 108.092 814.349 463.603
1091 0 101.107 10.8103 1093 108.253 813.93 461.344
1092 0 104.111 11.2187 1168 106.922 814.979 459.889
1093 0 110.141 11.7485 1294 105.628 813.876 457.321
1094 0 110.251 11.0112 1214 111.261 814.85 455.601
1095 0 114.135 10.3386 1180 104.803 815.053 456.658
1096 0 119.198 11.1076 1324 109.899 814.324 450.854
1097 0 120.1 11.8401 1422 110.404 814.989 446.162
1098 1 59.1458 10.3135 610 99.1688 814.787 481.513
1099 0 62.0341 9.73658 604 100.328 814.839 479.896
1100 0 63.1133 11.3447 716 95.919 814.561 481.856
1101 0 67.1434 11.9446 802 95.9065 814.242 479.424
1102 0 69.0584 11.8016 815 95.6368 814.955 479.324
1103 0 71.1157 11.5727 823 97.3645 814.412 476.227
1104 0 71.0624 11.3281 805 100.497 814.646 474.067
1105 0 74.1123 12.4271 921 98.6764 814.787 472.574
1106 0 77.0978 12.3609 953 98.4911 815.232 471.88
1107 0 80.1509 12.1271 972 99.6656 814.958 470.565
1108 0 81.0953 11.8133 958 102.143 815.609 469.425
1109 0 85.0789 11.7303 998 101.646 814.939 469.049
1110 0 88.1288 12.0505 1062 102.978 814.998 464.912
1111 0 88.0763 10.7975 951 106.313 814.63 463.326
1112 0 92.3017 11.1374 1028 106.654 814.682 463.699
1113 0 100.156 14.9267 1495 105.025 814.069 459.334
1114 0 101.127 12.3804 1252 111.893 814.041 457.634
1115 0 106.167 12.8477 1364 111.345 814.357 456.059
1116 1 58.0524 10.9039 633 104.381 813.858 482.344
1117 0 59.0756 13.6266 805 94.5342 814.32 481.162
1118 0 59.0457 11.381 672 98.7202 814.89 480.318
1119 0 61.1211 10.7492 657 98.7565 815.046 482.554
1120 0 65.1094 11.473 747 98.8246 814.79 478.652
1121 0 66.1287 11.9766 792 98.4141 814.918 478.539
1122 0 69.1532 11.2648 779 98.5879 815.06 478.149
1123 0 73.1254 12.8136 937 96.0758 814.208 474.313
1124 0 77.071 12.6766 977 95.566 814.619 475.55
1125 0 78.0514 11.4284 892 106.821 814.221 472.008
1126 0 80.1091 11.4594 918 102.207 814.206 469.67
1127 1 94.1108 10.5089 989 104.766 814.447 467.527
1128 0 93.1277 10.1796 948 105.594 814.094 465.239
1129 0 93.1234 10.9639 1021 102.666 814.583 468.339
1130 0 93.1542 11.6044 1081 103.046 814.495 464.229
1131 0 98.1911 11.773 1156 102.772 814.35 462.798
1132 0 101.143 13.2387 1339 100.52 814.994 459.291
1133 0 102.224 10.7019 1094 105.687 814.773 459.232
1134 0 108.266 10.8714 1177 105.007 814.683 459.481
1135 0 111.187 12.0068 1335 104.922 814.235 454.414
1136 0 116.219 11.4267 1328 105.439 814.551 455.087
1137 0 120.202 11.0148 1324 106.287 814.486 452.927
1138 0 123.328 13.3951 1652 102.694 814.323 447.444
1139 1 64.0428 10.3993 666 98.2177 813.734 479.667
1140 0 66.1002 11.7397 776 96.0284 814.88 479.084
1141 0 68.065 10.3431 704 98.8295 814.362 477.96
1142 0 71.1217 11.178 795 97.5748 815.07 476.889
1143 0 75.1504 11.6566 876 96.2032 815.092 475.079
1144 0 77.1988 11.0105 850 98.2365 814.291 473.248
1145 0 77.0958 11.8554 914 98.7571 813.912 471.477
1146 0 76.1577 9.99242 761 99.7332 814.682 473.696
1147 0 85.1396 12.8143 1091 95.2126 814.829 470.423
1148 0 88.1066 11.2931 995 99.1498 814.743 464.32
1149 0 91.1587 10.5311 960 100.26 814.88 462.432
1150 0 93.1757 10.6251 990 100.568 813.967 460.65
1151 0 99.2627 12.3108 1222 96.6047 814.68 459.873
1152 0 102.241 12.852 1314 96.1393 814.648 457.069
1153 0 105.191 12.0447 1267 97.94 814.15 456.176
1154 1 56.0519 11.2039 628 93.5414 816.221 482.164
1155 0 58.1772 11.379 662 98.5498 814.627 479.799
1156 0 60.0499 12.0067 721 101.896 815.437 480.327
1157 0 60.1856 11.8301 712 93.8834 815.586 483.395
1158 0 64.0667 13.3455 855 98.2889 815.841 478.899
1159 0 65.0537 13.7886 897 96.7313 815.389 477.444
1160 0 67.1189 13.2005 886 98.114 815.22 476.337
1161 0 70.1363 13.1743 924 97.2836 815.856 476.114
1162 0 74.2731 12.9791 964 95.6214 815.183 473.512
1163 0 77.1186 14.6009 1126 91.9396 815.33 470.567
1164 0 79.0928 12.656 1001 96.9411 815.368 467.275
1165 0 80.4426 11.6481 937 97.4995 814.523 468.007
1166 0 84.1391 12.6933 1068 96.3876 814.23 463.161
1167 0 87.2384 14.1566 1235 92.868 814.726 462.105
1168 0 88.1234 11.8243 1042 97.3733 814.783 460.455
1169 0 91.2557 11.8349 1080 96.1694 814.928 458.645
1170 0 96.1865 12.6109 1213 93.7255 814.915 457.251
1171 1 49.0668 10.2513 503 89.664 814.795 481.807
1172 0 49.0747 10.7591 528 89.3125 814.305 479.534
1173 0 53.088 11.4527 608 86.7336 815.396 480.081
1174 0 55.0697 13.8733 764 82.4123 814.746 482.425
1175 0 56.1059 11.7635 660 87.1455 816.612 486.186
1176 0 56.0586 11.3631 637 88.1837 815.936 485.265
1177 0 59.0783 11.7979 697 92.944 815.887 483.58
1178 0 62.1736 11.9665 744 91.9247 815.892 483.098
1179 0 64.0596 12.0201 770 91.7909 815.47 476.982
1180 0 65.0656 13.3865 871 89.1883 814.507 477.03
1181 0 66.0984 11.3165 748 92.6029 815.324 477.69
1182 0 70.241 13.8238 971 88.103 814.967 475.5
1183 0 73.3076 12.8772 944 89.5604 814.916 473.319
1184 0 73.2536 11.9448 875 91.6903 814.829 471.871
1185 0 74.1248 11.71 868 93.0622 815.007 470.082
1186 0 77.1042 12.8657 992 91.1109 814.857 469.482
1187 0 78.1961 11.3433 887 94.1003 815.379 470.966
1188 0 81.0482 12.0052 973 92.8982 815.839 469.328
1189 0 84.2756 12.9575 1092 91.9451 815.208 466.196
1190 0 86.4516 12.053 1042 93.6468 815.059 465.535
1191 0 89.256 13.1644 1175 92.0477 815.316 465.478
1192 0 92.3219 11.9257 1101 94.4251 814.659 463.886
1193 0 94.3692 12.9385 1221 93.4373 814.273 462.317
1194 0 99.2958 12.5685 1248 94.1851 813.887 461.369
1195 0 102.051 13.7872 1407 92.936 814.705 457.598
1196 0 106.183 12.8458 1364 95.099 814.78 457.098
1197 0 109.12 13.7647 1502 93.765 814.689 456.331
1198 0 113.205 13.5594 1535 94.1707 814.484 454.018
1199 0 118.296 13.2633 1569 95.8375 815.291 450.924
1200 0 119.32 12.9651 1547 96.9334 814.519 447.533
1201 0 125.135 13.7532 1721 94.5752 814.551 449.774
1202 1 59.104 12.9095 763 86.5505 814.796 480.71
1203 0 62.1491 11.4563 712 89.323 815.282 480.402
1204 0 62.0684 10.2468 636 93.9796 814.701 479.843
1205 0 66.1354 12.2476 810 91.2506 814.74 479.512
1206 0 67.1753 12.5046 840 90.8286 814.757 478.356
1207 0 70.0759 12.9859 910 89.9758 815.03 480.123
1208 0 72.1122 12.8272 925 92.5178 815.547 474.845
1209 0 73.1231 11.9114 871 94.7049 816.373 476.412
1210 0 78.0838 12.589 983 93.7457 816.187 472.818
1211 0 80.0942 12.6601 1014 94.3669 816.601 472.317
1212 0 82.069 12.526 1028 95.8979 815.866 470.045
1213 0 87.0972 13.5596 1181 93.9484 815.635 469.327
1214 0 87.1816 12.7206 1109 97.1848 815.49 465.602
1215 0 91.1107 11.1952 1020 99.5441 814.964 468.083
1216 0 94.1016 13.1241 1235 97.217 815.346 464.457
1217 0 96.2056 12.3174 1185 99.8101 815.258 461.749
1218 0 101.155 13.6819 1384 97.69 815.495 462.165
1219 0 103.141 13.816 1425 97.9474 815.434 461.69
1220 0 108.194 14.8807 1610 96.3975 815.635 461.02
1221 0 110.336 14.329 1581 99.9159 815.135 458.002
1222 0 113.128 13.7102 1551 103.273 815.4 455.317
1223 1 59.0724 13.2888 785 96.1427 815.718 484.203
1224 0 61.0591 11.9556 730 100.168 815.822 482.255
1225 0 62.0724 12.4693 774 101.291 815.897 480.181
1226 0 67.0705 14.194 952 96.3876 815.651 480.066
1227 0 66.0677 11.579 765 101.807 815.407 479.165
1228 0 68.0823 12.7346 867 101.36 815.617 476.095
1229 0 71.0653 13.1006 931 99.7132 815.252 476.434
1230 0 72.0771 11.5709 834 103.152 815.831 475.553
1231 0 76.1569 12.7894 974 101.145 816.048 472.746
1232 0 77.085 12.4149 957 102.846 815.288 470.008
1233 0 82.1145 12.6044 1035 101.902 815.613 469.828
1234 0 85.0888 13.3743 1138 101.244 815.514 467.284
1235 0 87.038 13.0748 1138 102.253 815.697 465.244
1236 0 90.1968 12.251 1105 104.417 815.253 466.492
1237 0 93.2244 13.548 1263 102.518 816.059 463.968
1238 0 96.1648 13.3521 1284 103.277 816.08 460.473
1239 0 97.1412 12.3943 1204 106.419 815.913 459.233
1240 0 102.197 14.2372 1455 102.647 816.181 456.9
1241 0 104.171 12.9691 1351 105.853 815.46 454.95
1242 0 106.539 13.0844 1394 106.011 815.594 454.024
1243 0 110.255 13.2873 1465 105.251 815.745 453.506
1244 0 115.372 13.4695 1554 105.19 815.644 450.804
1245 0 118.415 13.0812 1549 108.349 815.293 448.652
1246 0 124.389 12.7423 1585 108.575 815.023 448.613
1247 0 127.294 13.1978 1680 108.554 815.468 446.986
1248 1 65.2073 12.1919 795 105.231 814.81 476.102
1249 0 68.273 12.5965 860 103.519 814.595 474.644
1250 0 71.3787 12.6368 902 104.259 814.57 471.661
1251 0 73.2176 12.4697 913 107.12 814.209 468.857
1252 0 76.306 13.4852 1029 106.014 814.59 469.208
1253 0 77.0724 12.0796 931 109.743 814.423 465.836
1254 0 80.2638 13.194 1059 107.396 814.881 466.54
1255 0 82.2057 13.0891 1076 107.082 814.833 466.099
1256 0 84.1627 13.7472 1157 105.768 815.067 464.074
1257 0 87.2833 13.2786 1159 105.628 814.802 464.601
1258 0 89.1667 13.5589 1209 105.727 814.983 461.26
1259 0 86.1258 11.8896 1024 111.492 814.292 458.748
1260 0 92.1742 13.4528 1240 105.288 814.833 460.227
1261 0 96.2126 14.0106 1348 103.081 814.722 458.355
1262 0 97.1337 13.3527 1297 105.82 815.165 457.958
1263 0 99.2147 12.5586 1246 107.658 814.502 454.374
1264 0 99.2346 11.5282 1144 110.039 815.018 454.149
1265 0 103.205 12.325 1272 108.127 814.421 453.987
1266 0 106.247 12.7157 1351 106.933 814.828 449.044
1267 0 108.12 13.5497 1465 105.515 814.314 445.337
1268 0 113.125 12.0486 1363 107.448 814.998 445.627
1269 0 115.151 11.9929 1381 108.193 815.007 441.446
1270 0 121.116 13.3013 1611 104.667 815.592 440.372
1271 0 124.135 13.4209 1666 104.552 816.171 436.962
1272 1 67.2165 10.7116 720 103.154 815.712 466.119
1273 0 67.1289 12.2302 821 101.837 816.283 462.615
1274 0 65.0355 9.41024 612 106.709 814.93 460.748
1275 0 76.0804 12.1319 923 98.6966 814.822 466.841
1276 0 75.0939 11.2526 845 100.657 815.174 466.633
1277 0 78.1495 10.4543 817 101.756 815.732 461.717
1278 0 79.0422 10.0326 793 102.677 815.441 462.165
1279 0 83.095 12.1307 1008 98.2421 815.157 460.785
1280 0 86.1364 10.8317 933 100.859 814.808 457.954
1281 0 87.0696 11.6459 1014 99.2604 815.049 457.038
1282 0 86.0799 11.7914 1015 100.07 815.066 452.412
1283 0 92.0911 9.8598 908 102.252 814.357 451.946
1284 0 91.1189 11.8526 1080 98.9037 815.286 451.483
1285 0 91.0706 10.0032 911 103.692 815.734 445.16
1286 0 98.1084 10.8655 1066 100.773 815.061 447.463
1287 0 103.151 11.4783 1184 99.3927 815.51 444.768
1288 0 110.176 11.6541 1284 98.3715 815.57 443.761
1289 0 112.163 11.0286 1237 99.2498 816.606 443.948
1290 0 114.16 10.5291 1202 100.79 815.964 441.906
1291 0 120.174 11.5416 1387 98.8399 816.587 439.282
1292 1 73.1105 10.0122 732 89.8142 815.582 471.648
1293 0 76.0887 10.5141 800 96.4788 816.808 472.294
1294 0 74.1609 10.3289 766 93.7141 817.091 474.328
1295 0 78.152 10.1469 793 93.9231 817.072 475.323
1296 0 81.1373 11.043 896 93.5179 817.541 474.093
1297 0 83.1279 10.6102 882 95.7234 817.195 471.995
1298 0 83.1484 10.6196 883 96.6908 817.024 470.556
1299 0 88.1336 12.481 1100 93.4727 816.915 466.869
1300 0 90.1337 11.8158 1065 95.384 816.107 465.479
1301 0 94.1894 11.1796 1053 95.9155 817.208 467.683
1302 0 98.1174 12.4341 1220 94.2279 816.771 466.486
1303 0 99.167 12.3831 1228 95.9039 817.192 463.258
1304 0 102.139 11.5627 1181 97.199 816.246 461.174
1305 0 105.117 12.7001 1335 95.4659 815.805 460.647
1306 0 106.158 10.4844 1113 99.9668 816.742 459.886
1307 0 110.211 11.478 1265 99.1407 816.319 457.953
1308 0 114.229 11.4332 1306 98.7167 816.395 456.604
1309 0 117.178 10.9236 1280 99.232 816.654 457.32
1310 0 120.129 11.3712 1366 98.4158 816.201 452.899
1311 0 123.153 11.5385 1421 99.8839 816.046 447.536
1312 0 128.123 11.2548 1442 99.0527 815.986 448.665
1313 0 133.169 11.5117 1533 98.0744 815.733 446.196
1314 0 138.117 12.6994 1754 96.016 814.438 441.167
1315 0 138.235 10.5834 1463 97.337 814.897 444.414
1316 0 141.238 11.7745 1663 96.7474 815.099 439.341
1317 0 143.2 10.7193 1535 99.7857 815.089 435.083
1318 0 148.292 10.9783 1628 98.9269 815.112 437.619
1319 0 154.205 10.6092 1636 100.556 815.667 431.296
1320 0 157.377 11.2151 1765 100.483 815.134 432.215
1321 0 164.192 12.1869 2001 98.4043 815.136 431.574
1322 0 167.23 10.6082 1774 102.497 814.439 428.036
1323 0 174.286 10.3107 1797 103.921 814.748 420.989
1324 1 99.2362 9.37158 930 90.2978 814.114 467.197
1325 1 55.2108 11.7187 647 85.9969 814.683 484.187
1326 0 57.1479 11.164 638 85.1379 814.831 485.95
1327 0 58.1198 11.0462 642 85.2181 815.179 484.22
1328 0 59.0977 9.20509 544 88.2261 815.176 484.195
1329 0 61.1476 10.0576 615 86.7008 814.797 484.532
1330 0 62.1429 9.71953 604 88.1424 815.349 483.156
1331 0 64.1002 10.5148 674 86.5267 815.377 483.144
1332 0 66.0758 10.4274 689 86.8084 814.811 483.877
1333 0 70.1272 12.1351 851 84.2844 814.813 480.974
1334 0 68.1829 10.7798 735 87.0381 814.365 480.781
1335 0 70.1504 9.70772 681 88.1087 815.012 479.931
1336 0 74.1433 11.6936 867 85.3587 814.505 478.481
1337 0 75.1355 11.2996 849 86.6832 813.746 474.452
1338 0 78.108 10.0374 784 89.1786 814.237 474.96
1339 0 81.1332 12.387 1005 85.4736 813.325 475.55
1340 0 84.1318 11.6365 979 98.0981 813.53 474.039
1341 0 84.2388 10.6839 900 100.222 813.824 472.169
1342 0 92.1422 11.9815 1104 99.3578 813.121 466.097
1343 0 95.253 11.5587 1101 98.842 812.844 471.732
1344 1 49.1272 9.18025 451 94.8448 813.18 493.306
1345 0 51.1205 10.8958 557 94.2011 812.664 489.867
1346 0 52.0731 11.7911 614 90.6433 813.862 484.417
1347 0 52.1158 10.6302 554 90.8285 814.352 491.937
1348 0 54.0229 10.7362 580 90.1069 813.343 490.772
1349 0 55.0856 10.402 573 90.8743 812.803 488.244
1350 0 58.2434 10.6622 621 91 812.721 487.243
1351 0 59.0856 11.9149 704 89.4176 812.112 486.476
1352 0 62.0456 11.4593 711 90.225 812.534 486.554
1353 0 61.2513 10.4488 640 92.8422 812.842 485.116
1354 0 65.0478 12.1757 792 89.6263 812.926 484.741
1355 0 68.2402 10.3605 707 100.173 813.016 484.484
1356 0 71.0888 12.0694 858 95.9627 812.901 483.049
1357 0 72.1838 10.875 785 98.3567 813.279 478.043
1358 0 73.0758 10.0033 731 95.5828 813.239 473.22
1359 0 75.2656 12.715 957 92.3532 812.665 474.503
1360 0 75.1423 10.6465 800 96.985 811.794 475.53
1361 0 79.2863 12.0702 957 94.6876 811.836 471.674
1362 0 82.2296 11.2125 922 95.6876 811.976 471.511
1363 0 84.2073 11.4598 965 95.3513 812.144 471.133
1364 0 92.1978 9.76162 900 97.8667 811.52 468.312
1365 0 93.1995 11.6631 1087 94.4425 811.75 469.224
1366 0 93.19 10.9346 1019 97.3454 811.539 466.36
1367 0 94.2975 10.0851 951 99.1693 811.804 464.517
1368 1 45.1582 10.7843 487 90.9836 812.018 489.273
1369 0 47.1148 10.8459 511 90.8317 812.342 487.329
1370 0 51.0347 10.2479 523 89.3461 812.067 492.142
1371 0 50.1492 11.4458 574 87.3537 811.437 487.709
1372 0 52.0392 10.2615 534 90.7697 811.26 490.532
1373 0 50.0533 10.5487 528 91.9659 811.748 489.526
1374 0 52.0192 10.2078 531 92.6723 811.482 489.731
1375 0 57.0547 11.5328 658 89.3708 811.576 489.535
1376 0 57.0764 11.6511 665 89.994 811.774 488.901
1377 0 58.1088 11.7882 685 89.6774 812.022 485.39
1378 0 62.1387 11.8766 738 87.9715 811.39 487.163
1379 0 63.1516 11.7653 743 89.1144 811.996 484.855
1380 0 65.1298 12.4214 809 88.759 811.323 484.996
1381 0 66.0575 11.3992 753 91.49 811.643 482.745
1382 0 68.0453 11.1984 762 91.4265 810.972 484.081
1383 0 70.1837 12.1111 850 91.1071 811.216 480.345
1384 0 72.0737 11.0859 799 92.7209 811.022 481.562
1385 0 75.053 11.3653 853 93.3025 811.538 479.028
1386 0 77.1629 11.5211 889 92.5107 811.937 480.803
1387 0 79.0985 13.2872 1051 92.019 812.192 476.016
1388 0 82.1365 13.3193 1094 92.6801 811.884 475.426
1389 0 83.0656 14.5668 1210 91.5702 812.218 473.402
1390 0 86.1388 12.6656 1091 95.725 810.996 472.749
1391 0 90.0888 13.2536 1194 94.4908 811.528 473.422
1392 0 91.0513 13.1794 1200 95.845 811.258 472.778
1393 0 94.154 13.5204 1273 95.7274 810.819 468.001
1394 0 95.2375 12.8731 1226 97.9266 811.471 467.852
1395 0 98.161 12.8259 1259 98.5314 811.805 467.529
1396 0 99.1008 12.341 1223 100.422 811.652 466.235
1397 0 103.201 12.4708 1287 99.6892 812.068 462.692
1398 0 108.116 13.4392 1453 97.0716 811.92 465.029
1399 0 110.171 12.3082 1356 100.456 811.664 460.486
1400 0 117.169 12.9898 1522 97.6708 811.303 459.242
1401 0 119.159 13.9813 1666 97.6543 811.545 453.111
1402 0 124.123 13.4786 1673 97.7573 811.016 455.578
1403 1 71.161 11.0173 784 95.0816 811.051 480.577
1404 0 75.2263 13.5591 1020 89.8265 811.009 479.929
1405 0 78.1778 12.9576 1013 91.8302 811.093 478.03
1406 0 78.2543 12.5488 982 93.7424 811.481 476.932
1407 0 82.1848 13.0316 1071 93.451 810.87 476.345
1408 0 84.2992 12.0998 1020 95.6726 811.384 475.432
1409 0 87.1105 11.319 986 98.432 810.8 475.332
1410 0 88.1045 11.8723 1046 98.8585 811.279 474.585
1411 0 91.1844 10.8132 986 102 810.58 472.36
1412 0 96.1653 11.4282 1099 100.254 811.627 471.745
1413 0 98.1395 11.2187 1101 102.318 811.105 468.829
1414 0 98.186 12.1199 1190 101.426 811.059 467.323
1415 0 101.354 12.116 1228 100.954 810.718 466.267
1416 0 102.26 11.5979 1186 100.329 810.695 461.069
1417 0 108.297 12.0778 1308 98.4396 810.818 462.761
1418 0 110.353 11.0011 1214 102.135 810.757 458.043
1419 0 115.267 11.9549 1378 103.458 810.381 455.543
1420 1 64.1674 11.1583 716 96.9874 809.737 479.514
1421 0 67.053 11.7519 788 98.7056 811.046 483.124
1422 0 69.179 12.8796 891 105.441 809.909 479.641
1423 0 71.2849 11.5592 824 108.336 810.248 475.538
1424 0 74.2396 13.6181 1011 103.403 810.477 473.408
1425 0 74.1907 12.2253 907 106.264 810.187 475.258
1426 0 76.0826 13.8665 1055 102.342 810.272 476.044
1427 0 79.2742 12.4378 986 102.322 811.286 478.075
1428 0 79.054 11.9538 945 105.618 811.77 473.441
1429 0 79.1686 12.985 1028 107.202 810.688 469.214
1430 0 84.0619 12.8834 1083 106.994 810.524 471.083
1431 0 86.0678 13.0827 1126 106.433 810.647 470.415
1432 0 84.1383 12.4557 1048 110.402 810.185 464.487
1433 0 90.2268 12.8676 1161 108.634 809.605 463.966
1434 0 91.0601 11.8054 1075 111.074 810.061 462.66
1435 0 95.0414 12.826 1219 108.632 810.169 461.632
1436 0 98.1129 12.5977 1236 109.099 809.841 462.209
1437 0 100.164 12.6992 1272 108.489 810.612 461.61
1438 1 54.0728 9.94954 538 104.613 810.115 485.47
1439 0 55.1235 10.3223 569 104.035 810.67 483.996
1440 0 56.0822 10.7877 605 102.099 810.327 482.549
1441 0 61.1233 11.894 727 104.081 810.886 484.187
1442 0 63.1818 12.2187 772 102.584 810.368 484.329
1443 0 65.0652 11.7574 765 102.95 810.098 484.244
1444 0 67.047 12.8268 860 100.286 810.645 483.019
1445 0 66.0466 12.2489 809 97.4574 810.286 481.786
1446 0 70.0639 12.6313 885 96.8949 810.794 479.04
1447 0 72.0896 12.2625 884 98.5328 810.398 479.052
1448 0 72.087 11.9023 858 100.016 810.16 477.297
1449 0 75.1688 13.024 979 97.7661 810.774 477.298
1450 0 78.0621 13.0537 1019 97.1236 810.034 476.333
1451 0 80.1024 13.6201 1091 97.3291 811.28 473.198
1452 0 82.0655 13.6598 1121 97.5674 811.145 470.664
1453 0 85.2843 13.5312 1154 97.5459 811.672 472.127
1454 0 86.355 12.6223 1090 100.69 811.656 469.565
1455 0 91.0786 13.9111 1267 97.4459 811.505 466.152
1456 0 92.1843 13.2344 1220 98.6975 811.223 465.965
1457 0 91.1975 13.3666 1219 99.6415 811.332 463.284
1458 0 97.1704 13.2859 1291 98.6576 811.005 461.531
1459 0 96.1369 12.6902 1220 101.249 811.398 459.307
1460 0 99.12 12.2579 1215 102.1 810.523 458.077
1461 0 105.107 12.844 1350 99.9141 809.872 454.701
1462 1 59.0563 10.9726 648 94.3318 810.556 482.653
1463 0 61.128 11.3369 693 94.5599 811.017 479.704
1464 0 60.2152 11.3759 685 96.2117 810.826 476.407
1465 0 67.0864 13.3708 897 89.5842 810.547 483.3
1466 0 69.1246 10.9946 760 93.546 810.87 484.046
1467 0 71.0529 12.7933 909 90.9967 811.444 481.322
1468 0 75.0648 11.4568 860 92.4535 810.94 480.086
1469 0 75.1318 14.1485 1063 88.9172 811.748 479.824
1470 0 78.0862 11.7819 920 92.4554 811.097 478.3
1471 0 79.0442 11.7529 929 93.7836 811.749 475.89
1472 0 83.0484 10.6444 884 94.388 811.247 476.309
1473 0 86.0892 11.6275 1001 93.6204 811.739 472.851
1474 0 90.0534 11.4599 1032 92.6531 811.394 474.229
1475 0 94.1113 14.3235 1348 87.6165 811.319 471.113
1476 0 95.1755 12.1565 1157 92.3881 812.033 466.624
1477 0 95.0922 11.4836 1092 93.1227 810.489 466.139
1478 0 99.2935 10.7661 1069 94.7886 810.763 462.336
1479 0 107.091 12.3726 1325 90.7985 811.34 466.263
1480 0 107.171 11.9716 1283 91.364 811.017 464.909
1481 0 113.163 11.1344 1260 92.1548 810.693 463.017
1482 0 116.167 8.57383 996 96.1968 810.808 463.027
1483 1 63.035 10.9146 688 92.577 811.222 484.124
1484 0 65.0614 12.834 835 89.1844 810.695 482.739
1485 0 66.1584 12.1829 806 90.6179 810.256 482.104
1486 0 69.0172 11.1277 768 92.7565 810.339 482.068
1487 0 67.1566 10.4383 701 95.4722 810.486 479.844
1488 0 74.0978 12.524 928 90.6412 809.839 481.06
1489 0 76.1802 11.2365 856 93.4766 810.642 479.264
