time division length width area intensity CMx CMy
0 0 31.0239 11.7329 364 166.717 209.184 475.797
1 0 32.0074 11.5598 370 164.276 209.395 475.724
2 0 34.0561 11.4223 389 164.046 209.278 474.961
3 0 35.054 12.01 421 161.062 209.233 474.126
4 0 37.0263 11.9375 442 158.095 209.271 473.86
5 0 37.0075 12.0516 446 159.123 209.639 474.534
6 0 39.031 12.1954 476 155.857 209.393 473.54
7 0 39.018 12.3533 482 156.313 208.417 472.71
8 0 40.0102 12.4968 500 154.524 207.75 473.602
9 0 41.0223 12.8954 529 152.471 207.59 472.403
10 0 41.032 11.552 474 159.907 207.395 471.901
11 0 42.0664 13.0508 549 151.153 207.497 473.281
12 0 43.0462 12.5911 542 153.122 206.923 472.256
13 0 44.0841 12.6122 556 153.687 207.022 471.597
14 0 44.053 12.8027 564 152.17 206.573 472.534
15 0 46.0167 12.8432 591 151.499 206.658 470.946
16 0 48.0565 13.3801 643 147.804 207.143 471.764
17 0 49.0422 13.4986 662 146.829 207.231 471.113
18 0 51.0239 13.0723 667 146.184 206.979 471.826
19 0 52.0599 14.3489 747 143.391 206.918 470.475
20 0 53.0857 13.5065 717 144.873 206.13 470.379
21 0 55.0126 13.6696 752 143.694 206.636 471.262
22 0 58.0383 13.8185 802 141.849 206.171 468.535
23 0 59.0756 13.4743 796 143.7 206.195 468.526
24 0 60.0856 13.1313 789 143.662 205.513 468.501
25 0 62.083 12.8054 795 144.674 206.133 467.683
26 0 65.0412 13.7144 892 142.043 205.902 464.703
27 0 66.0528 12.7625 843 146.237 205.97 465.383
28 0 69.0638 13.9002 960 142.915 206.078 464.059
29 0 72.1409 13.3073 960 142.401 205.451 463.504
30 0 75.1015 14.314 1075 140.858 205.362 461.889
31 0 76.0627 13.4889 1026 144.454 204.773 462.003
32 0 78.0622 13.438 1049 145.512 205.198 459.744
33 0 82.1087 13.8719 1139 142.55 205.097 458.384
34 0 85.0751 14.0934 1199 141.635 206.058 456.091
35 1 45.0399 12.2558 552 144.991 205.819 476.913
36 0 47.0523 13.7506 647 141.388 205.858 474.457
37 0 48.0527 12.4863 600 144.755 205.248 473.743
38 0 48.0424 13.4048 644 133.862 205.311 476.553
39 0 49.0504 13.1294 644 136.019 204.924 474.228
40 0 51.075 13.862 708 132.9 205.597 473.949
41 0 52.0346 13.1451 684 134.956 205.709 472.674
42 0 56.0393 13.2764 744 132.294 205.423 472.602
43 0 55.1271 13.0607 720 134.269 205.558 470.556
44 0 59.0742 14.2363 841 129.137 205.037 468.866
45 0 62.0943 14.3491 891 128.863 204.663 467.404
46 0 63.0563 13.7496 867 130.223 204.769 467.224
47 0 65.1109 13.6229 887 128.918 204.911 467.036
48 0 69.0648 14.5371 1004 126.279 204.786 464.758
49 0 72.0626 14.7094 1060 124.649 204.48 462.703
50 0 74.089 14.2261 1054 126.94 204.098 462.286
51 0 78.0829 13.1527 1027 127.648 203.844 462.389
52 0 81.2003 13.3251 1082 127.608 203.945 460.082
53 0 83.1023 13.2969 1105 127.382 204.005 460.152
54 1 44.0768 11.117 490 128.082 203.847 478.957
55 0 42.0491 12.8659 541 127.192 204.176 478.022
56 0 45.0281 13.2584 597 124.588 204.015 476.079
57 0 45.0927 13.062 589 118.183 203.998 478.766
58 0 48.0569 12.4852 600 118.978 204.158 477.597
59 0 49.0994 13.4014 658 117.389 204.19 476.175
60 0 52.0516 12.9487 674 116.847 203.961 475.963
61 0 53.0301 13.2378 702 116.396 203.178 474.15
62 0 54.0257 12.0498 651 117.871 202.802 475.401
63 0 55.0564 12.4781 687 117.426 203.421 474.623
64 0 58.089 12.4636 724 116.37 202.471 471.301
65 0 59.0328 12.1458 717 117.197 203.159 471.505
66 0 63.1114 13.5792 857 113.797 203.586 469.508
67 0 64.0849 11.8281 758 118.055 202.889 469.792
68 0 70.1718 14.436 1013 110.216 203.346 466.743
69 0 71.0596 12.8624 914 114.55 202.965 466.085
70 0 73.0512 13.6753 999 114.111 203.209 463.047
71 0 75.0695 12.6816 952 116.756 203.035 464.368
72 0 77.0916 12.3879 955 117.85 202.906 462.485
73 0 82.0704 13.1229 1077 116.375 203.288 459.604
74 0 85.1997 13.6972 1167 115.225 203.209 459.26
75 0 86.1397 13.6522 1176 116.132 203.104 456.159
76 0 90.158 13.188 1189 118.458 203.489 455.9
77 0 93.2664 12.5662 1172 119.753 203.776 453.639
78 0 99.1317 12.6196 1251 118.76 203.423 454.042
79 1 52.1165 12.1075 631 117.973 203.399 474.742
80 0 55.0676 12.9659 714 116.487 202.895 473.368
81 0 57.0374 13.2194 754 119.828 203.381 473.271
82 0 57.0352 13.4829 769 120.533 202.195 472.139
83 0 61.0296 13.731 838 118.017 202.521 470.838
84 0 63.0629 12.7492 804 121.006 203.124 470.128
85 0 64.113 12.1972 782 121.931 202.723 468.746
86 0 67.1181 11.8895 798 121.772 202.179 469.015
87 0 70.0524 12.719 891 119.643 202.108 467.286
88 0 74.0427 13.8569 1026 116.765 202.24 465.298
89 0 77.126 13.8215 1066 116.166 202.714 465.153
90 0 76.1254 12.7159 968 113.243 202.159 465.176
91 0 79.1569 12.6458 1001 112.911 202.109 465.396
92 0 81.0633 12.4101 1006 114.647 202.496 462.121
93 0 82.1186 11.8 969 116.954 202.175 461.189
94 0 86.0762 12.0242 1035 115.646 202.876 461.288
95 0 90.1411 12.425 1120 115.177 202.661 457.955
96 0 93.2138 12.6591 1180 116.495 201.997 455.567
97 0 98.1065 13.9542 1369 115.518 202.142 454.752
98 0 98.0823 11.7248 1150 116.783 202.582 451.844
99 1 50.0694 10.9049 546 117.568 202.405 477.56
100 0 53.0343 12.03 638 114.293 202.041 475.743
101 0 53.0487 11.612 616 116.679 202.005 474.974
102 0 57.0165 12.8559 733 112.693 202.135 472.966
103 0 59.0484 12.7523 753 114.046 201.786 472.036
104 0 60.0514 12.9056 775 114.637 201.95 471.559
105 0 61.0322 11.453 699 119.289 202.227 470.722
106 0 65.1123 12.4093 808 116.65 201.443 469.574
107 0 66.0379 12.9168 853 116.591 201.476 470.094
108 0 69.0266 12.6183 871 118.858 201.181 468.052
109 0 69.1274 12.7012 878 119.61 201.568 466.615
110 0 73.182 12.2708 898 119.833 201.287 466.464
111 0 75.1745 11.6795 878 123.109 201.052 463.607
112 0 78.1786 12.3563 966 121.035 201.096 462.963
113 0 84.2376 13.0583 1100 118.413 201.249 460.86
114 0 87.2035 13.0729 1140 117.855 201.322 460.396
115 0 91.1584 12.8238 1169 119.582 201.33 457.001
116 0 94.2429 12.7967 1206 119.985 201.276 454.223
117 0 96.2057 12.8787 1239 119.818 201.309 454.684
118 0 100.12 12.4451 1246 121.889 201.626 452.158
119 1 52.1001 11.6123 605 122.749 201.26 473.506
120 0 56.0863 12.9622 727 118.012 200.692 473.939
121 0 57.0641 12.6875 724 118.761 201.077 471.472
122 0 59.0146 12.3359 728 117.312 202.098 472.154
123 0 60.0443 11.8746 713 119.917 201.805 471.811
124 0 61.0632 11.6601 712 121.038 202.768 471.657
125 0 63.0761 12.0014 757 120.082 201.63 470.466
126 0 66.0585 12.3678 817 119.39 201.716 469.109
127 0 67.0556 11.7216 786 122.7 201.822 467.3
128 0 71.1572 11.6784 831 122.208 202.753 467.552
129 0 75.0622 13.6287 1023 119.171 202.548 464.223
130 0 76.0932 12.9841 988 121.445 203.016 464.974
131 0 80.0848 13.211 1058 120.492 203.291 462.28
132 0 81.1078 13.2416 1074 121.064 203.299 460.428
133 0 86.0919 14.9027 1283 115.436 202.578 458.79
134 0 89.1118 14.2854 1273 116.77 202.857 457.903
135 0 90.0822 13.3101 1199 122.754 202.617 455.7
136 0 96.0886 14.778 1420 117.356 202.819 454.919
137 0 99.1187 13.8824 1376 120.557 202.397 453.032
138 0 101.159 13.889 1405 120.593 202.705 452.107
139 1 53.1611 12.1517 646 120.271 203.226 475.997
140 0 55.0545 13.0598 719 115.615 203.862 476.118
141 0 57.0233 13.0122 742 115.097 203.085 475.14
142 0 58.0724 13.156 764 115.952 202.342 474.058
143 0 60.0691 13.1349 789 115.929 202.899 472.842
144 0 62.082 13.6271 846 113.84 202.93 473.463
145 0 64.1812 14.35 921 112.326 203.719 470.443
146 0 66.0974 13.3137 880 115.631 202.802 470.081
147 0 68.2036 13.3277 909 116.417 202.913 467.788
148 0 70.1415 12.3037 863 119.469 203.401 467.605
149 0 71.1145 12.7119 904 118.642 203.174 464.211
150 0 74.1882 12.7379 945 119.182 203.397 465.195
151 0 77.0912 12.4787 962 119.034 203.023 463.635
152 0 80.1111 13.706 1098 115.617 202.831 463.792
153 0 84.2211 13.6664 1151 121.297 203.038 459.778
154 0 87.1111 14.3724 1252 114.661 203.249 459.327
155 1 45.0433 10.4566 471 119.881 202.208 479.813
156 0 49.0265 12.0547 591 114.059 202.689 478.729
157 0 49.1081 11.1998 550 117.298 202.231 478.7
158 0 52.0305 12.9347 673 113.229 202.155 474.097
159 0 53.0188 12.637 670 113.824 201.652 475.263
160 0 54.04 13.0089 703 113.044 202.321 474.034
161 0 56.0245 13.3334 747 111.863 202.145 472.561
162 0 56.0565 12.7371 714 114.415 202.349 472.563
163 0 60.012 13.2307 794 111.489 201.712 472.098
164 0 62.0698 13.0659 811 112.827 201.838 469.877
165 0 63.0505 12.7993 807 114.709 202.116 470.03
166 0 63.104 11.8851 750 116.965 202.104 471.161
167 0 66.0735 12.5012 826 117.423 202.918 467.84
168 0 70.1053 12.9805 910 116.051 201.835 465.64
169 0 72.0299 13.1751 949 115.156 202.143 465.954
170 0 75.0477 14.2576 1070 113.348 202.203 463.907
171 0 78.0539 14.3106 1117 113.087 202.291 461.559
172 0 79.0936 13.111 1037 116.748 202.237 461.614
173 0 82.1022 13.1543 1080 117.552 202.14 459.602
174 0 85.135 13.7311 1169 116.019 202.021 457.425
175 0 87.2371 13.6754 1193 115.331 202.186 457.269
176 0 90.1195 13.1159 1182 118.285 201.608 454.52
177 0 94.1403 13.926 1311 115.594 202.013 452.972
178 0 97.0599 12.9199 1254 118.033 202.533 451.387
179 0 99.0604 13.3252 1320 119.709 201.461 448.734
180 1 52.1016 11.3432 591 116.113 200.65 473.914
181 0 56.018 12.2104 684 113.398 203.075 470.835
182 0 57.0597 12.9864 741 116.051 202.413 470.671
183 0 60.0651 12.603 757 116.857 201.917 469.872
184 0 62.0263 12.5753 780 116.456 200.912 470.078
185 0 63.0354 11.9298 752 118.114 201.391 468.778
186 0 65.0375 12.6696 824 116.586 201.675 465.854
187 0 66.126 13.1416 869 115.669 202.679 465.865
188 0 71.155 13.9273 991 111.128 202.527 464.331
189 0 72.0582 13.1422 947 113.518 202.671 463.001
190 0 73.0991 12.7909 935 112.359 202.167 461.991
191 0 78.1278 13.9003 1086 108.692 202.317 460.538
192 0 78.1233 12.9795 1014 110.981 202.217 459.502
193 0 82.0908 12.5836 1033 111.304 202.377 457.851
194 0 85.1484 13.6585 1163 108.013 202.212 458.048
195 0 85.0678 12.6723 1078 107.035 201.825 455.724
196 0 89.0983 12.5479 1118 107.746 201.403 455.162
197 0 90.11 12.4293 1120 108.683 201.733 451.467
198 0 93.0714 13.0652 1216 107.859 201.766 449.879
199 0 100.06 12.7223 1273 106.496 201.573 451.178
200 0 102.12 12.8476 1312 106.622 201.473 447.931
201 0 104.052 13.128 1366 106.568 201.085 447.556
202 1 52.2572 11.7304 613 102.347 202.555 471.483
203 0 51.2062 10.116 518 106.822 202.751 470.956
204 0 56.1066 13.1892 740 99.7878 202.897 469.288
205 0 56.0462 12.2756 688 101.84 200.552 470.407
206 0 62.0718 12.9205 802 98.6085 200.56 470.591
207 0 61.131 14.0845 861 96.6969 200.41 468.784
208 0 62.057 11.9729 743 100.615 200.369 467.521
209 0 63.2354 11.5758 732 102.906 200.566 466.62
210 0 65.04 12.9613 843 99.9798 200.74 466.267
211 0 69.0441 12.9482 894 100.244 200.569 463.568
212 0 71.1218 12.9637 922 100.159 200.703 463.115
213 0 74.16 13.0259 966 100.701 200.035 463.459
214 0 76.153 12.8688 980 102.03 200.163 461.156
215 0 80.0713 13.5754 1087 101.043 199.994 458.419
216 0 83.1417 14.2528 1185 98.7612 200.73 459.548
217 0 83.0703 13.0733 1086 102.762 200.426 456.076
218 0 86.1498 13.8015 1189 101.774 201.108 454.055
219 0 90.0857 13.7314 1237 102.306 200.606 453.039
220 0 93.1106 13.1027 1220 102.734 201.179 454.829
221 0 95.1996 12.3425 1175 106.386 202.331 452.279
222 0 97.0937 11.4529 1112 107.901 201.853 450.176
223 0 101.167 12.5931 1274 105.502 201.819 448.355
224 1 53.061 9.59273 509 101.819 203.09 466.609
225 0 55.0734 10.3498 570 96.1333 202.193 464.325
226 0 56.0421 10.849 608 91.1809 202.163 464.11
227 0 59.0605 10.8194 639 92.3756 201.718 464.941
228 0 61.058 10.1215 618 94.11 201.694 465.856
229 0 64.1393 10.5084 674 92.9214 202.338 462.16
230 0 65.0778 12.1086 788 91.3122 202.22 461.647
231 0 66.1155 10.3002 681 95.1175 202.007 460.963
232 0 69.1349 11.3691 786 93.6005 202.262 456.999
233 0 72.1018 10.5823 763 94.2503 202.702 459.404
234 0 73.0859 10.2072 746 96.4142 202.65 457.552
235 0 77.0825 11.559 891 95.3895 202.559 457.199
236 0 81.0842 11.8149 958 95.3434 202.835 459.339
237 0 83.1542 11.5929 964 97.194 202.552 455.39
238 0 86.1699 12.2897 1059 100.336 202.193 456.578
239 0 88.2738 11.419 1008 102.783 202.206 455.014
240 0 92.1682 13.1173 1209 98.7535 202.017 454.5
241 0 94.2286 11.175 1053 103.622 201.739 451.936
242 1 47.0731 9.4109 443 103.512 202.962 476.865
243 0 49.0357 10.2986 505 102.772 202.697 475.19
244 0 53.0553 11.4221 606 97.8779 202.594 473.954
245 0 53.0982 11.1492 592 98.647 202.929 473.552
246 0 55.0988 11.9785 660 96.797 202.705 473.444
247 0 55.0891 11.7083 645 98.5984 202.225 471.522
248 0 56.1068 12.6544 710 97.1451 202.961 469.411
249 0 59.124 12.4315 735 96.9442 203 469.316
250 0 62.0789 12.7902 794 96.1511 203.804 469.271
251 0 61.1889 13.6136 833 93.7743 203.082 469.043
252 0 63.1322 11.4997 726 99.5193 202.377 467.22
253 0 65.1346 12.5125 815 97.1791 202.207 466.279
254 0 66.1497 12.2147 808 98.5099 202.801 465.548
255 0 69.0769 12.0301 831 97.4609 202.794 464.726
256 0 68.1119 11.5251 785 99.9745 202.813 462.09
257 0 73.1018 12.2432 895 97.4514 202.789 460.415
258 0 76.1576 13.971 1064 94.1316 202.862 461.092
259 0 74.1273 12.3571 916 100.853 201.271 461.641
260 0 77.1107 12.0736 931 101.681 202.059 461.666
261 0 80.1223 12.406 994 101.806 202.207 457.566
262 0 83.071 12.2787 1020 102.054 201.828 457.371
263 0 85.112 11.9372 1016 105.032 202.075 455.117
264 0 89.1374 11.544 1029 103.466 201.41 453.734
265 0 92.1858 12.2687 1131 102.59 201.116 450.967
266 1 48.0721 10.8171 520 101.456 201.119 475.163
267 0 48.046 9.47009 455 103.176 202.103 475.448
268 0 49.0343 11.2982 554 97.4043 203.949 473.291
269 0 49.1864 11.121 547 98.287 203.102 476.276
270 0 49.0331 10.9314 536 100.965 202.547 474.392
271 0 52.0691 13.29 692 95.5882 202.656 474.186
272 0 53.0556 11.3466 602 100.458 202.096 473.776
273 0 55.1056 12.104 667 99.2969 202.052 471.003
274 0 59.049 11.6683 689 99.7315 201.022 471.343
275 0 59.1436 11.5313 682 100.716 201.157 470.853
276 0 61.0276 11.6177 709 101.989 201.812 469.564
277 0 63.0407 13.2295 834 98.7878 201.426 469.966
278 0 66.0431 12.0527 796 101.295 201.508 470.183
279 0 66.0576 11.49 759 102.544 201.584 469.597
280 0 68.0808 11.0016 749 104.479 200.818 467.246
281 0 69.0586 10.9327 755 105.701 201.359 466.086
282 0 74.0503 12.5725 931 101.912 201.137 464.657
283 0 74.0929 10.2169 757 107.018 201.878 465.425
284 0 76.079 10.1999 776 107.93 202.153 464.138
285 0 79.0864 11.4305 904 105.501 201.333 462.694
286 0 84.031 11.1506 937 106.403 201.781 461.055
287 0 87.227 11.258 982 106.167 201.438 458.877
288 0 88.0982 11.7596 1036 106.709 201.605 456.996
289 0 93.0769 12.5702 1170 102.674 201.133 454.463
290 1 46.0354 9.34063 430 107.609 200.491 476
291 0 48.0418 11.0529 531 100.714 201.316 475.475
292 0 50.0194 11.5555 578 99.1644 201.009 474.176
293 0 52.0146 12.4773 649 97.3883 200.889 474.778
294 0 50.1251 11.4713 575 101.565 200.962 473.323
295 0 53.0847 11.8678 630 100.317 201.07 473.189
296 0 57.073 11.862 677 100.786 201.34 470.272
297 0 57.0258 11.7666 671 102.322 201.183 470.581
298 0 62.17 9.7153 604 75.803 201.439 470.139
299 0 63.0739 11.8908 750 102.108 201.384 467.16
300 0 63.072 11.7009 738 104.293 202.134 468.022
301 0 67.0641 12.5701 843 102.393 202.974 466.711
302 0 69.0993 11.5052 795 104.704 202.484 465.931
303 0 72.1187 11.9664 863 102.641 201.411 464.984
304 1 37.0186 9.4277 349 108.739 200.888 480.639
305 0 35.0234 9.96477 349 107.9 201.083 480.86
306 0 37.0491 10.7155 397 106.345 201.982 481.557
307 0 38.0682 10.1397 386 108.241 201.034 480.744
308 0 39.0103 9.86918 385 109.366 200.94 480.758
309 0 41.0158 11.1177 456 107.377 201.531 480.765
310 0 43.0619 11.1235 479 107.044 200.566 479.718
311 0 45.0279 11.4374 515 106.419 201.006 479.06
312 0 46.0503 11.6612 537 106.724 200.842 478.469
313 0 47.1213 12.1601 573 107.037 200.595 477.077
314 0 48.1095 11.5985 558 110.263 200.351 475.382
315 0 50.086 11.8995 596 109.992 200.413 475.898
316 0 51.0414 12.4409 635 108.176 199.63 474.365
317 0 52.0837 11.6735 608 111.327 200.084 475.49
318 0 54.1895 12.5855 682 107.138 200.293 474.585
319 0 55.1158 11.4305 630 110.414 200.106 474.379
320 0 56.1601 11.5562 649 110.367 200.498 473.627
321 0 58.1463 12.2106 710 107.952 201.08 471.263
322 0 59.1573 12.3907 733 109.105 201.132 470.831
323 0 62.127 12.1525 755 108.854 200.535 470.27
324 0 64.0867 12.1866 781 109.348 200.351 469.321
325 0 65.0809 12.6458 823 108.727 200.685 468.476
326 0 68.0897 11.9695 815 110.213 200.984 468.892
327 0 70.0929 11.5704 811 111.141 201.137 465.867
328 0 75.1892 12.7279 957 107.567 200.929 465.786
329 0 76.1724 11.7628 896 110.464 201.814 465.706
330 1 37.078 10.3566 384 114.596 200.94 482.331
331 0 40.1122 11.5676 464 111.466 201.588 481.847
332 0 40.1175 11.1672 448 111.574 201.19 479.98
333 0 41.0365 11.3314 465 110.757 201.587 481.178
334 0 39.0365 11.2715 440 115.561 201.452 481.473
335 0 42.0281 10.9689 461 117.803 201.347 480.095
336 0 45.098 10.9761 495 115.812 201.23 479.923
337 0 46.0123 12.8226 590 112.432 201.827 478.444
338 0 44.0772 10.8673 479 119.213 201.877 478.814
339 0 47.0163 12.1873 573 116.485 201.909 477.869
340 0 49.0382 12.0926 593 116.373 201.568 477.177
341 0 50.044 11.8096 591 117.435 201.367 478.244
342 0 50.0579 12.7652 639 117.474 201.762 476.397
343 0 51.0469 12.5767 642 117.506 202.382 475.815
344 0 54.0707 13.4823 729 113.66 202.535 476.451
345 0 53.157 13.1874 701 116.956 203.061 472.926
346 0 56.2196 12.8425 722 117.079 202.899 473.814
347 0 58.2574 13.0456 760 116.534 202.763 472.775
348 0 60.2195 13.8493 834 115.663 203.002 471.577
349 0 61.1357 12.2842 751 118.426 203.513 471.94
350 0 64.2414 14.0252 901 114.815 203.438 469.325
351 0 64.0797 13.3584 856 118.838 202.975 468.785
352 0 69.1432 13.7396 950 116.205 202.658 466.043
353 0 69.0939 13.2573 916 118.99 203.012 466.052
354 0 69.1475 12.7987 885 122.072 202.707 466.132
355 0 74.2281 12.8792 956 120.98 203.055 464.845
356 0 75.2306 13.6646 1028 119.824 202.07 463.054
357 0 78.0527 14.029 1095 119.698 201.82 461.868
358 0 84.0829 13.4629 1132 118.723 202.155 461.285
359 0 83.0436 13.0534 1084 121.539 202.608 460.482
360 0 86.1185 12.7034 1094 123.688 202.039 457.373
361 1 45.0216 10.8615 489 122.258 202.041 478.877
362 0 47.016 11.6131 546 118.85 201.698 475.403
363 0 47.0804 10.5139 495 116.337 203.622 472.39
364 0 48.1123 9.41547 453 113.203 202.901 473.49
365 0 49.0297 11.1565 547 109.982 202.596 472.742
366 0 51.0391 11.9712 611 107.398 203.002 473.607
367 0 52.0619 11.7744 613 108.827 202.804 471.874
368 0 54.0269 11.4017 616 110.247 202.526 470.081
369 0 56.0318 11.8861 666 109.455 202.958 470.35
370 0 58.0612 11.0573 642 110.917 202.849 469.433
371 0 59.0549 11.5824 684 111.001 203.49 469.154
372 0 61.108 11.3242 692 112.334 203.118 467.049
373 0 66.0528 13.9131 919 117.351 202.497 468.446
374 0 68.0685 14.7645 1005 112.693 203.691 467.376
375 0 70.0908 12.8976 904 116.902 203.819 467.994
376 0 72.0313 13.2442 954 116.955 203.826 466.571
377 0 74.0739 13.1895 977 117.777 203.418 463.228
378 0 79.0736 13.1902 1043 116.018 203.003 464.294
379 0 84.123 13.718 1154 113.556 204.01 462.444
380 0 86.0765 12.9884 1118 115.602 203.439 462.927
381 0 89.0484 12.9255 1151 117.573 203.492 459.271
382 0 91.1056 12.8313 1169 118.947 203.512 458.814
383 1 49.0648 11.9026 584 118.065 204.092 479.507
384 0 50.0385 12.6103 631 120.539 202.826 477.815
385 0 50.0512 11.708 586 113.672 203.696 478.162
386 0 51.0287 11.0722 565 115.917 202.644 479.179
387 0 53.0754 12.1337 644 113.152 203.188 478.637
388 0 56.049 12.4177 696 112.698 203.037 476.078
389 0 58.0604 12.6765 736 112.177 202.342 474.814
390 0 58.0523 11.3691 660 115.658 202.314 474.42
391 0 61.0829 12.524 765 112.965 202.996 472.571
392 0 62.103 12.9623 805 113.005 203.28 470.388
393 0 66.0171 11.1789 738 115.122 203.388 471.435
394 0 68.0706 12.0169 818 113.546 202.708 471.166
395 0 71.0397 12.0918 859 114.194 202.857 468.453
396 0 74.094 12.0928 896 114.402 203.249 467.337
397 0 76.0683 11.9629 910 114.351 203.634 465.786
398 0 77.1035 10.7518 829 117.84 203.678 464.684
399 0 82.1036 12.0823 992 113.484 203.423 462.508
400 1 44.0115 10.3609 456 114.772 203.656 481.3
401 0 45.0173 11.8843 535 110.168 203.637 481.299
402 0 49.0406 12.6426 620 109.826 203.894 479.273
403 0 46.0801 11.7187 540 112.631 203.483 479.904
404 0 48.0302 10.4101 500 113.192 203.344 480.484
405 0 49.0931 11.8754 583 110.902 203.535 478.681
406 0 50.0302 10.4937 525 113.907 202.975 478.284
407 0 53.0437 12.2163 648 109.869 203.597 476.059
408 0 55.1433 11.4973 634 110.716 203.306 475.644
409 0 57.1244 12.0439 688 109.57 202.035 475.087
410 0 56.0451 11.9011 667 111.36 202.558 473.322
411 0 60.0936 11.7151 704 111.379 202.683 474.125
412 0 61.0574 12.0706 737 111.666 202.427 472.071
413 0 62.0598 11.6662 724 112.622 202.624 473.347
414 0 64.0229 11.0898 710 114.542 202.945 471.339
415 0 67.0684 11.2422 754 114.187 203.126 470.336
416 0 71.0547 12.1737 865 111.973 203.178 468.4
417 0 72.1245 11.6881 843 113.788 202.75 465.325
418 0 75.0818 12.4398 934 111.211 202.204 466.467
419 0 77.1044 11.8411 913 113.882 202.803 464.405
420 0 79.0695 11.395 901 114.668 202.782 463.276
421 0 85.062 12.2852 1045 111.896 202.777 461.484
422 0 90.1234 13.4926 1216 109.523 202.702 459.019
423 0 93.108 13.479 1255 109.397 203.271 457.759
424 1 44.0489 11.1013 489 111.292 201.912 481.855
425 0 46.0633 11.8315 545 110.791 203.176 478.517
426 0 48.0455 11.947 574 110.063 203.256 478.399
427 0 50.123 11.4518 574 109.646 202.596 477.984
428 0 51.0733 12.7856 653 107.418 202.279 476.201
429 0 53.0454 12.461 661 108.47 202.062 475.005
430 0 54.0515 12.5621 679 108.51 202.498 476.582
431 0 56.0492 13.4168 752 106.09 203.047 475.108
432 0 56.0203 12.317 690 109.71 202.567 473.345
433 0 58.1155 12.1999 709 110.189 202.495 474.219
434 0 59.0613 12.2077 721 110.092 202.341 475.143
435 0 62.0623 12.8258 796 105.687 203.369 471.477
436 0 63.1121 11.5509 729 109.059 203.418 471.442
437 0 64.1556 11.4253 733 109.922 203.109 470.115
438 0 65.0651 11.9265 776 111.724 202.548 469.736
439 0 68.2315 12.6335 862 110.468 202.74 467.567
440 0 71.0604 12.3698 879 110.703 203.249 467.663
441 0 74.062 11.0043 815 112.795 203.167 467.713
442 0 77.0449 12.4213 957 111.439 202.637 464.178
443 0 79.0863 11.4432 905 113.975 203.05 463.967
444 0 82.1266 13.7227 1127 109.321 202.943 463.121
445 0 83.1184 12.4762 1037 112.261 203.194 462.016
446 0 88.1074 12.428 1095 112.23 203.48 460.024
447 0 91.1782 11.2198 1023 113.082 203.052 461.302
448 0 94.2008 11.7409 1106 113.471 203.506 457.994
449 1 47.1152 11.8221 557 113.887 203.147 476.298
450 0 49.1254 10.748 528 117.568 203.256 476.061
451 0 50.1538 12.023 603 109.365 203.605 475.483
452 0 53.0326 11.5212 611 109.738 203.578 474.352
453 0 55.0414 13.0084 716 106.821 204.345 474.373
454 0 56.1836 13.4025 753 104.636 203.956 473.673
455 0 59.0981 13.0969 774 105.499 204.417 472.477
456 0 62.0563 12.811 795 105.79 203.951 470.639
457 0 62.1345 12.5373 779 107.359 204.096 469.338
458 0 65.0591 12.1582 791 106.717 203.851 469.837
459 0 68.048 13.564 923 103.476 203.973 468.826
460 0 70.0698 12.459 873 105.84 204.069 467.29
461 0 71.0811 12.7601 907 106.736 203.529 465.215
462 0 73.0726 12.1797 890 108.521 203.512 465.099
463 0 77.11 11.6716 900 109.893 203.128 462.933
464 0 80.25 12.2368 982 108.763 203.725 461.761
465 0 83.3416 12.6107 1051 109.172 203.318 456.042
466 0 86.3251 12.2444 1057 108.477 203.084 457.093
467 1 45.2617 9.85381 446 109.155 202.648 474.603
468 0 47.1197 12.2454 577 105.253 203.213 475.752
469 0 48.1304 12.383 596 107.872 204.443 476.889
470 0 51.0759 11.571 591 101.124 204.32 477.338
471 0 50.0814 10.1435 508 105.364 204 477.211
472 0 53.1022 11.3931 605 103.144 204.121 475.012
473 0 54.1526 11.6338 630 103.163 204.337 474.222
474 0 57.0506 12.7781 729 99.3731 204.715 473.088
475 0 58.1397 11.7476 683 102.615 204.549 472.993
476 0 59.0865 12.4225 734 101.154 204.595 473.211
477 0 64.1604 11.7986 757 101.728 204.252 472.328
478 0 64.1107 12.4628 799 101.798 204.781 470.355
479 0 66.0626 11.9886 792 103.021 204.756 469.26
480 0 68.0932 12.2626 835 103.049 204.222 467.141
481 0 69.0842 12.767 882 102.066 203.865 468.022
482 0 72.193 12.0372 869 104.079 204.731 463.291
483 0 75.0721 12.2815 922 104.007 204.105 465.211
484 0 78.1043 12.9698 1013 102.611 204.553 463.03
485 0 79.0796 13.2651 1049 105.994 204.37 464.054
486 0 84.1019 13.0318 1096 104.622 204.716 461.413
487 0 86.0892 13.0795 1126 105.333 205.083 460.351
488 0 86.163 11.8032 1017 109.894 204.599 459.18
489 0 92.1166 13.6023 1253 105.519 204.007 457.503
490 0 94.0726 12.4159 1168 107.573 203.746 458.15
491 0 97.2231 12.1782 1184 108.591 203.906 456.298
492 0 100.204 12.9136 1294 108.014 204.443 451.873
493 0 102.194 13.0341 1332 107.878 203.773 448.935
494 0 108.197 13.4939 1460 105.588 203.355 449.685
495 1 57.0464 11.0787 632 105.752 203.894 475.291
496 0 59.086 11.8302 699 106.954 204.518 472.9
497 0 62.2568 12.8018 797 106.813 204.258 470.906
498 0 65.1355 13.3721 871 104.867 204.183 470.456
499 0 66.3054 11.7336 778 109.183 204.027 470.208
500 0 68.1835 13.0677 891 109.238 204.33 468.293
501 0 70.3132 12.4443 875 113.126 203.581 466.993
502 0 72.3404 13.0494 944 112.713 203.093 466.145
503 0 74.3264 12.5796 935 113.536 203.783 465.193
504 0 77.2552 14.0444 1085 110.784 203.267 463.054
505 0 80.1972 13.4045 1075 112.983 203.412 461.168
506 0 83.5037 13.3287 1113 113.498 203.235 458.824
507 0 85.4537 14.5459 1243 110.692 203.282 459.586
508 0 88.5309 13.9838 1238 113.977 202.799 454.994
509 0 90.4662 13.5852 1229 114.961 203.591 454.461
510 0 95.2138 13.2859 1265 110.092 203.268 455.446
511 0 96.2333 11.8566 1141 107.352 203.24 453.732
512 1 48.0678 10.0483 483 107.807 204.845 479.47
513 0 51.0595 11.5356 589 106.873 204.657 477.764
514 0 51.0529 11.2237 573 108.82 203.326 478.449
515 0 55.0298 13.4291 739 111.559 204.417 475.735
516 0 53.0585 12.2129 648 108.568 204.179 475.239
517 0 54.1749 11.9797 649 110.368 204.025 474.185
518 0 57.1365 11.6563 666 110.015 204.248 473.601
519 0 58.0749 12.6561 735 108.286 204.547 473.731
520 0 61.0742 11.1667 682 110.295 204.449 474.738
521 0 63.1043 12.2654 774 110.986 203.58 469.841
522 0 63.1516 10.7044 676 114.407 204.012 470.728
523 0 67.098 13.3685 897 108.588 203.579 468.724
524 0 69.1283 12.9035 892 109.666 204.392 468.484
525 0 72.0982 13.44 969 109.513 203.776 465.836
526 0 73.0843 12.4924 913 112.837 203.529 466.704
527 0 78.1106 12.9176 1009 111.305 203.584 463.856
528 0 79.082 12.5945 996 113.991 203.581 464.098
529 0 84.1267 12.7665 1074 114.019 204.268 462.9
530 0 85.1131 12.3013 1047 115.989 204.216 459.798
531 0 88.0851 13.3167 1173 112.021 204.55 460.802
532 0 92.2166 13.8478 1277 114.29 203.794 457.685
533 1 49.0738 9.61817 472 120.163 205.021 478.871
534 0 50.1066 11.2959 566 116.396 204.689 477.509
535 0 52.059 12.6395 658 111.149 203.695 477.289
536 0 53.0492 12.1208 643 109.414 203.247 476.364
537 0 56.0223 13.4232 752 104.499 203.102 476.336
538 0 57.0543 13.8114 788 105.5 203.753 473.846
539 0 57.1075 11.8548 677 111.326 203.318 473.464
540 0 57.0721 10.7233 612 114.118 203.636 473.781
541 0 61.0713 11.1836 683 113.389 203.672 471.763
542 0 63.0897 12.1573 767 110.874 203.476 472.09
543 0 64.0769 11.4862 736 113.254 203.618 469.931
544 0 65.0623 11.051 719 115.284 203.708 469.93
545 0 69.0387 11.8195 816 113.8 203.681 467.273
546 0 71.0984 11.3364 806 115.197 203.739 467.387
547 0 73.0569 11.6211 849 114.413 203.392 465.19
548 0 78.148 12.3484 965 111.305 203.937 464.971
549 0 78.0858 12.1533 949 114.101 203.947 463.924
550 0 82.089 11.0977 911 115.113 203.586 463.647
551 0 87.0828 12.2986 1071 112.022 203.783 460.044
552 0 89.0836 11.8653 1057 115.467 203.217 458
553 1 47.0156 9.78398 460 117.872 203.172 478.652
554 0 50.1362 11.768 590 112.778 202.483 476.198
555 0 52.0737 12.1367 632 111.726 202.13 475.897
556 0 53.055 12.2326 649 111.131 202.223 476.492
557 0 53.0906 11.9042 632 113.294 202.226 474.877
558 0 57.0754 11.879 678 111.217 202.615 474.819
559 0 58.0496 12.0586 700 110.067 202.444 474.87
560 0 59.0512 12.142 717 111.02 202.311 472.577
561 0 60.0531 12.1226 728 111.214 202.692 470.904
562 0 62.0657 12.5351 778 110.332 202.568 471.817
563 0 64.0747 11.9548 766 111.879 202.423 468.756
564 0 68.1113 13.0668 890 107.117 202.627 469.963
565 0 70.1394 12.8173 899 107.956 202.778 467.565
566 0 72.0635 12.9608 934 107.128 203.014 467.746
567 0 72.1319 11.9919 865 110.997 202.77 464.362
568 0 77.1372 13.5603 1046 106.042 202.621 465.451
569 0 80.1533 13.2122 1059 106.907 202.593 462.473
570 0 82.1843 12.764 1049 108.36 202.341 462.298
571 0 85.149 12.6954 1081 109.023 202.639 460.146
572 0 86.2412 11.2591 971 113.474 202.735 457.099
573 1 45.038 10.0804 454 109.883 203.808 479.811
574 0 47.0754 11.0036 518 108.411 203.921 479.141
575 0 48.0777 12.0014 577 101.879 203.312 478.208
576 0 48.0384 10.8038 519 105.254 202.626 480.243
577 0 50.0493 11.4487 573 103.742 203.248 479.485
578 0 50.031 9.41416 471 110.355 202.981 479.053
579 0 52.0687 10.9471 570 106.454 202.425 476.844
580 0 53.0575 10.9881 583 105.369 202.993 477.645
581 0 56.048 11.3296 635 104.372 202.865 476.865
582 0 56.0192 11.0141 617 105.413 202.47 476.342
583 0 58.0593 11.2127 651 106.363 202.519 472.562
584 0 59.0229 10.03 592 108.961 201.949 474.203
585 0 60.0287 10.2118 613 108.721 202.573 471.835
586 0 65.0983 11.4442 745 105.066 202.793 471.364
587 0 67.1104 11.7716 790 104.784 202.694 469.934
588 0 69.0655 11.0475 763 106.585 202.921 468.372
589 0 72.0278 12.5091 901 103.971 202.964 467.36
590 0 74.0525 11.8159 875 104.43 203.105 469.703
591 0 76.0935 11.1179 846 108.001 203.199 464.961
592 0 82.1325 10.7874 886 108.143 203.192 463.554
593 0 82.1364 11.6513 957 107.053 203.294 464.003
594 0 83.0724 11.809 981 108.932 202.673 461.182
595 0 87.1258 11.1563 972 109.954 203.397 461.742
596 0 92.0716 13.0225 1199 105.512 203.657 460.081
597 1 48.0339 12.1789 585 107.562 204.391 478.154
598 0 48.0145 10.6218 510 96.498 202.808 475.525
599 0 49.0954 10.6935 525 99.4305 201.922 475.514
600 0 51.1327 10.7368 549 104.08 202.018 479.189
601 0 53.1082 11.5801 615 104.115 202.327 477.855
602 0 53.1429 12.2312 650 103.726 201.94 476.094
603 0 55.0996 11.6879 644 105.14 201.82 476.536
604 0 58.1251 12.0602 701 104.819 202.371 475.12
605 0 59.1532 11.9182 705 106.227 201.949 473.515
606 0 60.0841 11.9999 721 106.773 202.222 471.49
607 0 62.0923 11.7084 727 105.406 202.188 475.572
608 0 64.0472 11.757 753 107.814 202.279 471.276
609 0 67.0386 11.8887 797 106.829 201.928 471.777
610 0 71.0953 12.5606 893 105.073 202.199 470.334
611 0 72.1577 11.461 827 108.018 202.14 468.372
612 0 75.0858 12.2526 920 105.911 202.123 468.874
613 0 77.062 12.6132 972 105.999 202.116 466.059
614 0 80.098 11.6857 936 107.428 202.624 465.776
615 0 79.0659 10.6873 845 113.036 202.512 461.375
616 0 85.0819 12.964 1103 106.29 201.977 461.413
617 0 89.0865 11.4159 1017 113.377 203.712 461.586
618 1 48.0205 10.5996 509 106.967 203.815 482.862
619 0 48.0214 11.9114 572 107.524 204.288 480.596
620 0 52.0239 12.3789 644 110.866 205.008 479.413
621 0 53.0372 12.8023 679 111.657 204.716 477.866
622 0 54.0546 12.3394 667 114.1 204.543 477.1
623 0 56.0241 12.1376 680 113.237 203.819 478.201
624 0 56.0565 12.5052 701 114.93 203.562 476.231
625 0 58.0794 12.2763 713 115.968 203.619 474.303
626 0 60.1314 12.1234 729 114.892 203.173 475.73
627 0 63.0921 13.5041 852 111.708 203.31 473.099
628 0 62.0664 11.9711 743 117.245 202.813 473.429
629 0 64.2546 13.4621 865 113.791 202.406 470.527
630 0 68.1278 12.6967 865 115.267 202.18 471.264
631 0 70.0952 12.9823 910 114.492 202.436 470.653
632 0 71.1361 13.2141 940 116.201 202.103 468.821
633 0 74.1931 13.1683 977 115.325 202.538 469.872
634 0 77.1068 12.8264 989 117.569 202.679 465.769
635 0 79.1633 13.39 1060 116.754 202.597 465.534
636 0 82.1374 13.307 1093 117.503 202.507 463.991
637 1 41.0206 11.0676 454 119.811 203.855 482.645
638 0 44.0309 11.4011 502 119.98 204.243 481.918
639 0 45.0456 12.4096 559 117.329 203.608 481.202
640 0 45.0627 11.5839 522 114.517 200.536 481.05
641 0 46.0606 12.3099 567 111.222 202.189 480.861
642 0 47.1033 11.91 561 112.244 201.531 481.485
643 0 48.05 12.1124 582 112.883 201.93 479.356
644 0 51.0238 12.4256 634 112 201.759 479.489
645 0 51.0182 12.4857 637 113.356 201.911 479.537
646 0 52.0182 11.9574 622 114.908 202.407 480.064
647 0 53.1156 12.7834 679 114.242 201.887 478.309
648 0 55.0747 10.9306 602 118.829 202.532 477.365
649 0 57.0705 11.4595 654 118.58 202.5 475.3
650 0 59.0458 12.2447 723 116.651 202.535 475.213
651 0 63.1464 11.5604 730 116.448 202.286 474.688
652 0 64.0668 12.2997 788 114.728 202.749 473.539
653 0 67.1576 13.58 912 114.248 202.389 472.282
654 0 68.157 13.1168 894 115.469 202.897 470.785
655 0 70.0902 12.8834 903 116.877 202.889 470.493
656 0 71.1112 11.8547 843 120.142 203.164 469.738
657 0 77.1724 13.9558 1077 112.925 202.461 468.561
658 0 78.1151 13.5569 1059 114.86 202.656 466.529
659 0 80.1703 12.7603 1023 117.124 202.563 466.721
660 0 83.2395 13.6233 1134 116.867 202.731 462.648
661 0 86.1458 12.6878 1093 117.93 202.167 463.196
662 0 90.2672 12.7178 1148 116.561 201.614 461.678
663 1 46.0558 11.3775 524 119.859 202.134 480.355
664 0 49.0895 12.1004 594 109.737 201.5 479.576
665 0 52.1862 12.3596 645 107.668 201.713 478.516
666 0 52.0856 12.7674 665 109.017 203.435 479.43
667 0 50.0814 11.5013 576 113.797 203.439 479.681
668 0 52.107 12.8006 667 109.831 203.043 477.667
669 0 53.0882 12.1496 645 111.282 203.138 478.378
670 0 56.0823 12.6956 712 108.971 202.837 478.404
671 0 57.0989 11.121 635 112.899 202.293 477.477
672 0 59.038 11.23 663 111.278 202.471 476.271
673 0 61.0321 11.7151 715 109.604 202.628 474.965
674 0 64.0502 12.6151 808 106.922 202.385 473.678
675 0 66.0606 12.4583 823 107.06 202.631 474.689
676 0 65.1 12.1505 791 111.134 202.627 471.282
677 0 70.0797 13.2135 926 106.903 202.589 471.621
678 0 70.0622 12.1178 849 111.731 202.609 470.237
679 0 73.0704 11.0168 805 114.563 202.329 471.133
680 0 77.1965 12.3063 950 111.547 201.772 466.92
681 0 80.0671 13.0515 1045 109.807 201.734 464.613
682 0 83.0705 13.1094 1089 110.542 202.298 463.758
683 0 84.1552 12.168 1024 113.097 201.99 464.731
684 0 89.0798 12.2811 1094 113.931 202.857 461.807
685 1 44.0586 11.235 495 117.343 202.626 480.614
686 0 48.1064 12.5971 606 113.891 202.503 480.251
687 0 49.0901 12.691 623 108.644 202.419 480.368
688 0 49.0933 11.2643 553 114.904 202.297 481.307
689 0 51.1062 12.6208 645 111.935 202.105 478.715
690 0 52.1312 12.2767 640 112.961 202.372 479.409
691 0 55.0684 12.1849 671 112.367 202.958 478.56
692 0 55.0578 11.5878 638 114.223 202.934 479.03
693 0 56.0826 11.0551 620 117.615 202.874 476.587
694 0 59.0808 12.5083 739 114.724 202.532 474.819
695 0 58.1496 12.3475 718 117.813 202.565 474.94
696 0 63.0349 12.8976 813 116.305 203.081 472.08
697 0 64.0883 12.8729 825 116.663 203.676 472.536
698 0 68.1267 13.3868 912 115.536 203.59 471.259
699 0 71.1136 12.5292 891 117.003 203.394 469.527
700 0 73.0464 13.1834 963 117.105 203.238 467.54
701 0 75.108 12.4088 932 118.512 203.115 468.462
702 0 79.0434 12.9423 1023 118.35 202.761 465.844
703 0 83.0615 13.0506 1084 118.385 202.982 463.068
704 0 84.0339 12.721 1069 120.101 202.57 463.063
705 0 87.0593 12.8074 1115 121.927 202.292 461.671
706 1 45.0177 11.7287 528 124.07 203.434 480.044
707 0 45.0319 11.7472 529 118.363 201.991 475.745
708 0 45.009 12.5086 563 121.391 201.84 480.355
709 0 47.0469 11.9668 563 123.407 202.869 478.847
710 0 50.0224 13.1741 659 118.751 202.912 478.997
711 0 51.0562 11.7909 602 125.837 202.751 478.03
712 0 53.0524 12.252 650 124.895 203.129 478.112
713 0 53.0651 12.9464 687 122.69 203.066 477.479
714 0 57.0455 12.5339 715 123.256 203.464 475.6
715 0 58.0713 13.5695 788 121.944 202.906 474.232
716 0 59.0431 12.2453 723 126.636 203.021 475.155
717 0 61.0252 11.7492 717 129.622 202.603 475.778
718 0 65.0425 12.93 841 126.127 202.13 472.674
719 0 67.0689 13.6725 917 122.876 201.866 472.913
720 0 69.0752 12.7687 882 127.19 201.974 470.755
721 0 72.0594 14.5435 1048 122.275 202.158 468.177
722 0 74.0529 11.9644 886 127.59 201.526 470.107
723 0 78.0802 12.961 1012 124.267 201.29 465.98
724 0 80.1065 13.2574 1062 122.798 201.157 467.374
725 1 44.0323 11.5824 510 128.11 201.153 481.749
726 0 45.0114 11.7526 529 126.875 201.134 481.673
727 0 46.037 12.0772 556 122.838 202.644 480.727
728 0 45.0634 12.4491 561 121.1 202.604 480.677
729 0 49.1347 12.9033 634 117.729 202.759 479.965
730 0 51.0331 13.1679 672 116.104 202.683 478.406
731 0 50.0302 11.7129 586 122.135 202.899 481.247
732 0 52.0666 11.6389 606 123.005 203.338 478.609
733 0 53.0566 12.9673 688 119.286 203.097 478.061
734 0 55.1166 12.0835 666 123 202.878 476.653
735 0 57.1025 13.1518 751 118.75 202.427 475.385
736 0 59.1235 12.7868 756 119.245 203.407 476.013
737 0 62.1216 13.6023 845 116.366 203.131 475.327
738 0 62.1417 12.214 759 121.739 202.937 473.655
739 0 63.1244 12.7209 803 118.87 202.748 475.339
740 0 68.0746 12.266 835 119.751 202.862 473.406
741 0 69.1079 12.6035 871 120.052 202.473 471.876
742 0 73.1295 12.4847 913 118.058 202.226 470.585
743 0 72.188 11.7055 845 122.611 202.453 469.646
744 0 77.0795 12.5714 969 120.211 202.545 469.067
745 0 79.1738 13.1736 1043 120.312 202.031 464.428
746 0 84.0883 12.6296 1062 120.701 201.962 464.476
747 0 86.1609 12.5347 1080 122.785 201.794 463.462
748 0 90.2013 13.2371 1194 120.622 201.523 461.781
749 0 92.1449 11.547 1064 124.67 201.926 461.36
750 1 49.0523 10.5805 519 127.337 202.699 480.272
751 0 50.0716 12.4422 623 124.673 202.884 478.49
752 0 54.0672 12.281 664 124.812 202.858 477.3
753 0 54.0273 12.1975 659 126.615 202.958 478.014
754 0 58.066 13.2263 768 123.69 203.293 475.622
755 0 59.0493 13.1416 776 125.273 202.976 474.456
756 0 61.0738 13.3118 813 124.641 202.745 474.369
757 0 63.037 14.4201 909 121.306 202.629 472.721
758 0 65.0422 13.8064 898 122.714 203.247 473.171
759 0 66.0729 13.3186 880 124.639 203.322 470.594
760 0 69.0648 13.4222 927 124.456 202.481 470.083
761 0 71.1128 13.8512 985 121.899 202.479 471.228
762 0 73.0308 13.6655 998 124.119 202.262 469.183
763 0 75.054 13.9633 1048 122.937 202.126 467.203
764 0 79.0474 14.0296 1109 121.886 202.798 466.032
765 0 81.2139 13.0766 1062 125.237 202.202 465.437
766 0 82.1447 13.598 1117 124.932 202.254 464.035
767 0 85.239 12.7172 1084 127.024 201.711 462.972
768 0 90.2209 13.6443 1231 123.197 202.103 462.864
769 0 92.1838 14.2324 1312 123.288 201.755 459.507
770 0 96.2029 15.696 1510 117.75 202.046 458.392
771 0 100.285 15.2266 1527 119.411 201.908 455.982
772 1 54.0747 12.4642 674 122.521 202.828 477.982
773 0 55.0379 13.1001 721 120.827 202.793 477.341
774 0 56.2536 12.657 712 118.534 201.931 478.435
775 0 58.0793 11.5015 668 108.792 202.864 474.118
776 0 59.0273 12.0792 713 112.675 202.898 475.835
777 0 62.0517 13.1503 816 109.219 203.392 474.511
778 0 64.0879 12.5453 804 110.713 203.031 472.541
779 0 68.0478 13.5052 919 107.39 202.888 472.088
780 0 69.1006 13.9941 967 105.722 202.678 470.322
781 0 70.0401 11.8504 830 111.098 202.219 470.625
782 0 74.1162 12.6693 939 107.285 200.889 467.651
783 0 77.114 11.8396 913 108.849 201.152 466.667
784 0 79.0289 12.0336 951 108.921 201.742 464.315
785 0 82.0782 13.0363 1070 107.039 202.05 463.069
786 0 83.0877 12.3965 1030 109.489 201.975 462.804
787 0 88.1063 12.5757 1108 107.815 202.51 462.519
788 0 90.1527 13.1998 1190 109.162 202.15 459.631
789 0 93.1571 12.3125 1147 110.803 201.819 457.554
790 0 94.2168 11.7495 1107 113.864 202.593 455.752
791 0 100.209 12.3642 1239 114.764 201.727 455.734
792 1 51.1417 12.5338 641 104.579 201.022 478.342
793 0 51.2758 10.9408 561 108.462 201.118 477.016
794 0 53.0305 12.1817 646 105.972 202.539 478.104
795 0 52.179 9.92736 518 113.952 202.819 478.639
796 0 55.1155 12.2289 674 106.249 202.512 477.829
797 0 55.106 12.1947 672 107.987 202.356 477.132
798 0 58.1939 12.0288 700 107.88 202.564 476.606
799 0 58.0641 11.3151 657 110.693 202.763 477.275
800 0 61.0877 12.0482 736 109.598 202.577 475.022
801 0 62.1606 11.6473 724 111.177 202.384 471.445
802 0 64.1183 11.0889 711 112.91 201.996 472.471
803 0 69.1164 12.6019 871 109.284 202.637 471.392
804 0 69.2131 11.154 772 113.009 202.488 472.576
805 0 72.1277 12.0619 870 111.344 201.848 471.279
806 0 74.107 11.0381 818 114.724 201.943 468.785
807 0 76.0977 12.024 915 113.726 202.51 468.166
808 0 80.2703 12.2212 981 113.202 201.96 466.846
809 0 83.1078 12.6703 1053 111.717 201.888 465.879
810 0 86.2665 12.5077 1079 113.55 202.17 463.17
811 0 89.0973 12.3236 1098 114.003 202.596 461.106
812 0 91.3397 11.9882 1095 114.519 201.721 461.782
813 0 96.1053 12.9441 1244 111.557 202.556 457.447
814 0 100.11 12.5761 1259 112.272 202.47 457.209
815 1 56.1218 12.1878 684 112.344 202.952 477.232
816 0 56.1652 11.9825 673 111.352 202.64 477.519
817 0 57.1454 12.5469 717 111.149 202.83 475.377
818 0 60.177 12.6294 760 111.158 202.7 475.392
819 0 62.1756 12.899 802 111.213 203.108 473.849
820 0 63.1265 12.6254 797 111.629 203.211 473.297
821 0 67.1807 13.5604 911 108.544 202.962 470.968
822 0 67.177 12.1024 813 112.583 202.535 470.665
823 0 70.2419 12.2434 860 111.308 202.427 468.377
824 0 74.1625 13.1603 976 108.076 202.52 468.591
825 0 76.0648 12.818 975 109.083 202.558 466.813
826 0 78.1678 13.2535 1036 107.247 202.659 466.438
827 0 80.114 12.5571 1006 114.339 201.909 466.491
828 0 83.333 13.128 1094 114.062 202.617 463.996
829 0 85.3008 12.7549 1088 115.562 202.593 461.45
830 0 86.2446 12.7776 1102 116.659 202.828 457.611
831 0 90.1709 13.6519 1231 113.496 201.95 457.781
832 0 94.2443 12.1917 1149 116.008 201.909 458.501
833 0 94.3427 12.7408 1202 116.46 201.483 454.063
834 0 98.3765 12.4827 1228 115.913 201.425 454.533
835 0 102.175 10.6777 1091 116.55 201.039 453.874
836 0 105.23 12.1923 1283 110.21 201.773 451.113
837 1 54.0812 10.2808 556 103.901 200.547 476.495
838 0 57.2307 12.0914 692 101.855 201.666 471.084
839 0 59.2309 13.2701 786 100.252 201.705 469.645
840 0 60.054 11.7061 703 101.058 201.09 475.819
841 0 61.0633 11.8565 724 101.133 200.91 473.551
842 0 62.1318 10.7352 667 102.724 200.174 474.972
843 0 66.0802 11.6979 773 100.308 200.047 471.62
844 0 69.0554 11.2663 778 99.5527 200.392 471.35
845 0 70.1853 10.7145 752 100.362 200.943 470.121
846 0 73.0357 11.6929 854 98.1932 200.991 467.721
847 0 77.0714 10.8601 837 98.5412 200.626 466.832
848 0 79.1077 11.2505 890 98.009 200.238 465.991
849 0 79.0871 10.912 863 100.079 200.972 461.771
850 0 84.1481 12.0858 1017 98.6814 200.275 460.877
851 0 86.0798 11.9656 1030 99.9398 200.909 458.944
852 0 88.1191 11.9951 1057 101.132 201.285 459.447
853 0 91.0889 11.3845 1037 104.23 201.684 459.587
854 0 95.1303 13.266 1262 101.686 201.683 455.444
855 0 98.1822 12.2527 1203 105.486 201.729 455.126
856 1 51.1054 10.7621 550 102.32 202.556 478.867
857 0 52.117 12.7981 667 100.601 202.043 475.909
858 0 54.1115 11.4763 621 103.692 202.166 476.275
859 0 56.0863 12.2311 686 102.547 201.904 473.825
860 0 57.0294 12.099 690 104.033 202.399 473.619
861 0 60.1229 11.3601 683 105.135 202.133 474.243
862 0 61.0916 13.1769 805 102.656 201.855 472.443
863 0 62.0947 11.5308 716 107.436 201.647 471.858
864 0 65.0466 11.7608 765 108.093 201.458 470.478
865 0 67.169 12.61 847 107.001 201.642 469.073
866 0 70.0859 13.5976 953 104.653 201.77 467.665
867 0 70.0867 11.4572 803 110.869 201.528 468.35
868 0 72.0868 12.9289 932 109.084 201.188 465.47
869 0 77.1923 13.3044 1027 108.261 200.949 466.31
870 0 80.1406 14.3124 1147 107.143 201.393 464.247
871 0 82.1117 14.1636 1163 108.144 201.622 464.46
872 0 84.1007 13.9713 1175 111.389 201.47 460.962
873 0 89.1226 13.9695 1245 112.476 201.464 461.65
874 0 89.0721 12.2261 1089 117.877 201.327 460.607
875 0 94.174 14.144 1332 113.85 201.861 457.688
876 0 96.1088 13.6512 1312 116.204 201.848 454.728
877 0 100.192 12.7356 1276 119.779 201.597 454.861
878 0 104.159 13.9786 1456 117.343 201.35 453.823
879 0 111.101 14.8693 1652 114.63 201.409 452.591
880 1 56.1516 12.021 675 121.224 202.21 477.714
881 0 60.1194 12.5583 755 120.572 202.023 474.26
882 0 61.1232 14.4953 886 119.657 201.342 470.83
883 0 63.1445 13.8413 874 122.215 201.208 472.797
884 0 64.2662 14.082 905 124.045 201.51 471.206
885 0 67.2687 14.1076 949 123.78 201.35 470.175
886 0 67.178 13.3972 900 127.203 201.687 468.874
887 0 72.1655 13.7878 995 124.073 201.554 468.237
888 0 74.1014 13.63 1010 124.579 201.607 468.404
889 0 75.1948 13.0062 978 127.188 201.5 466.058
890 0 79.187 14.2448 1128 123.684 201.573 464.702
891 0 83.165 13.6235 1133 125.034 201.89 464.018
892 0 84.1632 13.961 1175 126.295 201.523 461.903
893 0 87.3155 14.6022 1275 123.652 201.929 461.32
894 0 91.2048 14.7909 1349 123.148 201.862 457.91
895 0 93.1591 14.3303 1335 124.87 201.393 457.115
896 0 96.1079 14.8583 1428 124.078 201.361 456.321
897 0 99.2296 14.7537 1464 125.609 201.818 452.602
898 0 101.214 13.9012 1407 128.082 201.242 451.641
899 0 104.08 13.7778 1434 117.434 201.729 452.932
900 0 105.177 13.3584 1405 120.314 201.603 448.877
901 0 111.15 13.6932 1522 119.651 201.861 451.016
902 0 114.111 12.961 1479 121.978 201.729 449.821
903 1 59.0638 11.5638 683 118.448 202.009 475.811
904 0 63.1322 12.0857 763 115.837 202.624 473.342
905 0 64.0331 12.2124 782 116.51 201.457 472.162
906 0 65.0342 11.9783 779 118.09 201.831 470.299
907 0 69.0363 12.7904 883 113.462 202.06 471.696
908 0 71.0487 13.3711 950 113.358 200.209 469.299
909 0 73.1329 12.4704 912 115.766 200.564 468.639
910 0 75.0666 13.6146 1022 113.163 200.015 464.421
911 0 80.0385 13.556 1085 112.664 200.282 464.498
912 0 82.1054 13.2391 1087 113.224 200.549 462.28
913 0 83.0579 13.7013 1138 113.044 200.696 459.981
914 0 87.1088 13.1674 1147 114.156 201.071 460.9
915 0 90.0795 12.5223 1128 115.847 201.13 458.682
916 0 94.1159 13.664 1286 111.188 200.531 456.137
917 1 49.1497 10.5392 518 114.747 199.788 478.894
918 0 50.0264 11.7938 590 112.469 200.486 477.353
919 0 52.0597 12.6201 657 112.029 202.814 478.33
920 0 52.0922 12.1323 632 113.451 202.894 477.394
921 0 55.0314 12.3747 681 110.853 202.994 476.953
922 0 57.0365 13.9034 793 107.414 202.554 473.498
923 0 59.0853 13.2351 782 108.329 201.748 473.261
924 0 60.0581 11.7886 708 112.304 202.371 474.061
925 0 63.1241 12.7051 802 109.147 202.368 471.403
926 0 65.1271 12.8518 837 109.102 202.363 470.196
927 0 66.0947 12.6788 838 110.115 201.575 469.217
928 0 70.1088 14.4062 1010 105.279 201.639 468.033
929 0 72.0929 13.552 977 108.176 202.122 466.682
930 0 74.127 13.7062 1016 108.299 202.261 465.964
931 0 77.1533 14.4388 1114 106.376 201.699 463.377
932 0 82.1421 14.5967 1199 105.721 202.578 464.689
933 0 82.257 15.2327 1253 105.885 202.599 462.88
934 0 85.1357 13.3199 1134 110.506 202.462 460.701
935 0 88.1618 13.0442 1150 110.423 202.703 461.467
936 0 91.3332 14.7482 1347 107.514 202.732 457.249
937 0 94.2921 13.2143 1246 112.898 202.459 453.599
938 0 96.3256 13.4025 1291 113.081 202.498 455.451
939 1 50.3021 10.9936 553 112.069 201.902 475.698
940 0 50.073 11.4233 572 107.759 201.698 470.79
941 0 52.0439 11.3174 589 100.413 201.727 471.115
942 0 55.1291 11.3189 624 98.3381 201.912 469.625
943 0 56.049 10.6514 597 99.8476 201.697 471.873
944 0 58.0783 11.2607 654 99.6239 201.708 470.928
945 0 61.1408 11.8415 724 98.0552 201.396 468.682
946 0 64.0701 11.3782 729 99.0247 201.492 469.254
947 0 66.0449 12.2795 811 97.217 201.2 467.948
948 0 68.0545 11.6965 796 98.9774 201.437 467.481
949 0 72.1732 12.1929 880 97.6659 201.382 467.015
950 0 74.1077 12.2389 907 98.9504 201.036 466.255
951 0 76.1096 11.7988 898 100.322 201.189 464.444
952 0 79.1445 11.9907 949 100.096 201.511 463.036
953 0 84.1187 12.3754 1041 98.9049 201.331 461.272
954 0 86.1068 11.7877 1015 101.697 201.165 461.851
955 0 88.1177 12.1202 1068 101.187 201.176 458.558
956 1 45.107 10.1536 458 98.5568 201.546 478.959
957 0 48.1304 11.4481 551 98.1307 201.96 478.784
958 0 48.0593 11.6315 559 97.9445 201.44 477.084
959 0 52.0579 10.7957 562 98.7278 201.888 477.107
960 0 52.0781 11.1755 582 99.2509 201.735 476.799
961 0 54.0143 13.3853 723 102.581 202.245 477.881
962 0 54.0711 11.5219 623 107.136 201.169 478.493
963 0 55.1012 11.7057 645 109.802 201.532 476.583
964 0 57.1404 11.988 685 110.153 201.432 474.632
965 0 58.1397 12.6592 736 109.181 201.393 475.01
966 0 60.0787 12.6334 759 109.202 201.08 475.087
967 0 61.0952 12.3414 754 110.324 200.515 473.964
968 0 64.1162 12.9297 829 109.223 200.742 472.93
969 0 66.0593 12.4131 820 111.611 200.833 471.901
970 0 67.1104 13.2766 891 111.227 201.397 469.396
971 0 69.0512 14.0041 967 109.917 200.633 470.573
972 0 71.1128 12.445 885 114.84 200.368 470.128
973 0 73.0579 13.6604 998 113.972 200.982 466.474
974 0 77.061 14.8194 1142 110.542 201.032 465.192
975 0 79.0577 14.5337 1149 112.32 201.762 466.111
976 0 81.0521 13.9417 1130 114.414 201.713 463.447
977 0 83.0519 12.5464 1042 119.503 201.908 463.177
978 0 86.0947 13.218 1138 118.857 201.968 461.712
979 0 91.1189 12.8843 1174 114.59 201.799 458.289
980 1 46.0868 12.0425 555 115.378 202.888 479.82
981 0 49.1281 12.0094 590 119.478 202.578 480.217
982 0 52.1006 12.9941 677 115.804 203.058 479.517
983 0 52.1204 12.5095 652 119.874 202.46 477.515
984 0 55.0896 12.8518 708 118.234 202.335 476.842
985 0 56.0889 12.5693 705 118.282 202.445 478.174
986 0 58.0582 14.9333 867 112.867 202.461 475.777
987 0 58.1912 13.6447 794 118.851 202.272 473.997
988 0 60.1311 13.3375 802 119.213 202.95 474.823
989 0 63.1437 13.6197 860 117.592 202.408 473.357
990 0 63.0644 13.4466 848 120.534 201.94 471.943
991 0 66.0356 13.4624 889 119.286 201.459 472.508
992 0 71.0976 14.3887 1023 115.007 201.73 470.436
993 0 70.0665 12.431 871 123.039 201.682 468.231
994 0 73.0406 14.1839 1036 117.738 201.816 468.302
995 0 75.0465 14.2578 1070 118.039 202.178 466.885
996 0 78.0577 13.4644 1051 119.929 201.676 466.397
997 0 80.0403 13.0559 1045 121.647 201.948 465.599
998 0 83.0857 13.1671 1094 123.04 201.86 462.054
999 1 43.0662 11.0295 475 123.476 202.116 481.124
1000 0 45.1228 12.5436 566 124.837 201.894 481.09
1001 0 47.1362 13.9383 657 118.224 201.577 479.495
1002 0 47.0769 11.5768 545 125.084 201.255 480.462
1003 0 51.0771 14.5858 745 116.595 201.769 477.877
1004 0 52.0894 13.7072 714 119.399 201.41 477.793
1005 0 52.0954 13.4369 700 121.346 201.114 477.991
1006 0 54.0771 13.1294 710 122.639 201.151 476.648
1007 0 58.0416 13.3008 772 119.769 201.266 476.407
1008 0 59.1907 14.4279 854 117.765 201 474.856
1009 0 60.0892 14.0957 847 118.815 200.347 473.503
1010 0 62.1367 13.6473 848 119.988 201.274 473.629
1011 0 65.1798 12.642 824 122.66 200.994 472.072
1012 0 66.1306 13.8816 918 118.755 200.91 472.135
1013 0 67.221 13.1953 887 122.997 201.209 469.531
1014 0 71.0811 13.6182 968 121.092 201.07 468.321
1015 0 72.127 14.5022 1046 120.12 200.877 466.525
1016 0 77.3338 12.9568 1002 122.88 201.231 467.791
1017 0 77.157 13.5049 1042 123.346 201.592 465.905
1018 0 81.188 14.2016 1153 122.222 201.741 465.088
1019 0 85.1853 13.8169 1177 123.353 201.43 462.732
1020 0 88.1899 14.8543 1310 122.004 200.712 459.273
1021 0 91.2619 15.0337 1372 122.06 201.404 460.264
1022 1 48.1234 12.8004 616 132.321 201.588 479.833
1023 0 49.158 12.8565 632 134.899 202.011 478.044
1024 0 50.1353 12.9849 651 134.871 201.447 478.651
1025 0 52.0933 12.9383 674 134.543 201.194 477.954
1026 0 56.0721 13.34 748 131.751 201.206 475.941
1027 0 56.0629 13.6275 764 132.953 200.912 475.404
1028 0 56.1462 13.0552 733 135.618 201.091 474.708
1029 0 60.1158 13.84 832 132.382 200.805 474.251
1030 0 62.075 14.1764 880 131.972 201.082 473.087
1031 0 63.117 13.4195 847 137.68 201.298 472.234
1032 0 64.1702 14.0096 899 136.091 201.059 471.19
1033 0 66.1918 12.7508 844 139.451 200.56 472.332
1034 0 69.1329 14.6095 1010 135.415 200.276 469.995
1035 0 70.2084 13.6024 955 141.288 200.507 469.439
1036 0 72.1537 13.6514 985 143.647 201.147 467.188
1037 0 74.2211 14.9418 1109 140.236 201.082 466.113
1038 0 76.1966 13.8458 1055 143.31 200.96 466.851
1039 0 79.2452 14.2469 1129 140.714 201.315 464.657
1040 0 82.2909 14.6067 1202 133.205 200.488 462.636
1041 0 85.1823 15.0383 1281 132.945 200.817 461.706
1042 0 85.1997 13.6503 1163 140.187 200.905 460.304
1043 0 88.1707 13.6213 1201 139.668 200.65 460.442
1044 0 93.134 14.5489 1355 137.133 200.853 457.072
1045 0 96.1286 14.1373 1359 139.316 200.972 455.992
1046 1 49.1002 12.1995 599 145.043 201.023 479.12
1047 0 52.0328 12.0885 629 145.496 200.949 477.644
1048 0 54.1585 13.4051 726 143.752 200.328 476.251
1049 0 54.052 13.8015 746 143.489 200.52 474.135
1050 0 59.1442 13.8982 822 140.85 200.662 474.662
1051 0 59.1632 13.9445 825 141.204 201.427 472.918
1052 0 63.1163 13.594 858 141.415 201.221 472.52
1053 0 64.1088 13.7267 880 141.311 201.505 471.38
1054 0 65.074 14.0148 912 141.246 201.331 468.302
1055 0 69.1218 13.3677 924 141.098 200.71 468.167
1056 0 69.0984 14.1682 979 140.724 201.022 466.784
1057 0 73.1932 14.25 1043 139.638 200.691 465.663
1058 0 74.0588 13.9484 1033 141.128 201.14 465.05
1059 0 76.1058 13.4812 1026 143 201.07 464.673
1060 0 79.1062 13.8927 1099 143.482 200.509 461.862
1061 0 83.1773 14.1986 1181 140.689 200.555 460.362
1062 0 86.1338 13.8389 1192 142.617 201.152 458.727
1063 0 88.1058 13.3589 1177 144.346 201.332 458.23
1064 0 90.1333 13.4356 1211 142.432 201.718 455.446
1065 0 92.0631 12.3937 1141 142.314 201.398 451.896
1066 1 49.0898 8.77983 431 134.002 201.436 471.499
1067 0 52.0793 11.2713 587 125.55 201.985 471.448
1068 0 54.0622 11.6347 629 116.455 202.66 473.146
1069 0 55.0363 11.0654 609 116.703 202.072 473.351
1070 0 56.1074 10.3551 581 118.804 201.941 472.933
1071 0 58.0658 10.2298 594 119.695 201.798 469.224
1072 0 60.0879 10.6677 641 118.984 201.811 471.285
1073 0 63.0648 12.0035 757 118.391 202.071 469.523
1074 0 64.083 12.9051 827 126.816 201.643 471.797
1075 0 67.0844 12.7004 852 127.302 201.285 471.143
1076 0 69.1062 13.2694 917 127.881 201.436 468.297
1077 0 71.0427 11.6972 831 132.681 201.653 469.199
1078 0 74.0726 12.3393 914 130.771 201.209 467.934
1079 0 77.1801 13.2547 1023 129.423 201.4 466.843
1080 0 80.125 12.9672 1039 129.874 202.208 465.387
1081 0 82.1028 12.935 1062 129.267 202.308 463.416
1082 0 85.0399 13.4995 1148 128.967 201.773 461.069
1083 0 86.1276 12.9924 1119 132.584 201.181 458.817
1084 0 89.0339 12.849 1144 131.76 202.29 459.488
1085 1 48.0431 11.5937 557 138.995 201.729 478.68
1086 0 48.0702 11.8577 570 138.296 201.911 479.149
1087 0 50.0124 12.017 601 133.188 201.483 480.276
1088 0 52.0211 12.3412 642 131.545 202.363 477.724
1089 0 52.0559 12.1408 632 130.772 202.731 476.954
1090 0 54.026 13.8267 747 125.64 202.435 475.747
1091 0 57.0282 12.5376 715 128.242 203.094 476.302
1092 0 58.0312 12.9413 751 126.594 202.831 475.84
1093 0 59.0531 12.1924 720 130.006 202.385 473.754
1094 0 60.1798 12.23 736 128.531 202.239 472.279
1095 0 64.0912 12.4822 800 125.567 201.52 472.178
1096 0 66.1182 12.3869 819 125.203 201.652 471.827
1097 0 67.1105 12.323 827 125.952 202.096 469.84
1098 0 70.1522 12.8578 902 124.326 202.194 468.853
1099 0 72.0869 12.693 915 123.972 202.155 467.634
1100 0 70.149 11.333 795 131.313 202.029 466.424
1101 0 76.1579 12.4084 945 126.167 201.797 465.701
1102 0 77.1575 12.1181 935 127.383 202.126 463.987
1103 1 40.0399 10.7643 431 126.852 202.589 483.151
1104 0 42.0722 10.4344 439 124.74 202.925 482.61
1105 0 43.0596 10.4738 451 132.57 203.051 481.874
1106 0 45.0819 11.6676 526 130.755 202.933 481.736
1107 0 42.0563 9.84394 414 127.79 202.374 483.157
1108 0 45.0765 11.3585 512 124.219 202.605 481.156
1109 0 46.0618 10.8116 498 124.637 201.904 480.986
1110 0 48.0327 11.2632 541 122.046 202.152 480.599
1111 0 49.0928 11.5903 569 121.394 202.452 478.339
1112 0 51.09 11.6461 595 119.973 202.138 479.904
1113 0 53.0442 11.8392 628 119.986 201.739 478.237
1114 0 55.0706 12.0391 663 118.87 202.038 476.617
1115 0 57.1331 12.3921 708 116.888 201.766 477.284
1116 0 57.1525 11.898 680 120.54 201.724 474.853
1117 0 59.0474 12.7694 754 117.622 202.338 474.2
1118 0 59.1155 9.74363 576 126.547 202.375 473.082
1119 0 62.1159 11.3337 704 121.645 202.18 472.812
1120 0 63.1393 11.8151 746 120.517 202.568 471.784
1121 0 67.0803 13.208 886 116.729 201.653 470.823
1122 0 67.272 11.2974 760 121.226 201.643 472.068
1123 0 70.1456 11.5189 808 120.163 201.802 470.901
1124 0 73.228 11.949 875 120.031 201.689 466.595
1125 0 74.1669 11.5685 858 121.745 202.1 466.048
1126 0 78.2496 12.3196 964 119.791 201.717 463.226
1127 0 81.2444 13.1824 1071 118.584 201.35 458.686
1128 1 42.2189 11.2746 476 122.899 201.032 479.193
1129 0 43.1053 11.1587 481 115.36 202.43 479.775
1130 0 45.0148 12.5292 564 112.262 201.489 480.333
1131 0 46.0719 12.8712 593 113.012 202.052 479.508
1132 0 49.0781 11.227 551 115.241 202.924 477.871
1133 0 49.1026 11.6491 572 116.065 203.227 477.93
1134 0 53.1515 13.6591 726 109.923 202.475 476.439
1135 0 53.0707 13.3219 707 111.907 202.709 474.68
1136 0 55.0724 11.7119 645 115.904 201.378 475.953
1137 0 55.0594 11.7146 645 118.513 201.367 474.842
1138 0 57.0833 12.946 739 114.825 201.271 474.417
1139 0 58.0662 12.038 699 116.907 201.69 474.093
1140 0 61.1101 12.5838 769 115.664 201.819 473.036
1141 0 63.0718 12.0498 760 116.418 201.412 472.928
1142 0 63.1124 12.2005 770 117.712 201.144 470.816
1143 0 67.1453 12.4804 838 116.014 201.71 471.474
1144 0 68.1105 13.2725 904 114.611 201.146 469.662
1145 0 71.101 12.1236 862 116.813 201.465 468.469
1146 0 76.0596 13.989 1064 111.29 201.257 467.18
1147 0 77.1734 12.1674 939 116.292 200.715 466.843
1148 0 79.0604 12.598 996 116.673 200.003 462.718
1149 0 81.1433 13.3837 1086 115.622 199.47 462.997
1150 0 83.0948 12.1909 1013 117.805 199.787 462.169
1151 0 89.1007 13.2098 1177 116.983 199.329 460.81
1152 0 90.1545 12.4342 1121 119.302 200.237 458.251
1153 0 96.1534 13.3849 1287 115.006 200.229 457.663
1154 0 99.1735 12.7857 1268 116.079 200.096 455.251
1155 0 101.438 12.3917 1257 117.08 200.341 452.906
1156 0 106.265 13.3534 1419 114.345 199.975 450.148
1157 1 56.1715 13.8326 777 107.53 201.524 472.356
1158 0 58.2078 12.7131 740 114.199 201.107 471.193
1159 0 62.1642 12.9335 804 118.169 200.335 472.111
1160 0 62.2898 12.5542 782 120.439 200.065 470.038
1161 0 66.1382 13.5625 897 117.548 200.669 469.944
1162 0 67.2244 12.1682 818 121.461 200.522 469.357
1163 0 71.1214 12.1201 862 121.775 200.229 467.633
1164 0 74.1362 12.9356 959 116.867 200.696 467.222
1165 0 75.1172 12.4339 934 117.8 200.645 465.155
1166 0 77.0939 13.503 1041 115.344 201.202 465.06
1167 0 80.0896 12.099 969 116.307 200.441 464.575
1168 0 82.0831 12.1462 997 118.424 200.991 459.444
1169 0 86.0581 12.5264 1078 115.745 200.016 460.466
1170 0 88.1449 12.2639 1081 116.539 201.164 459.123
1171 0 91.2296 11.8273 1079 116.618 200.854 456.445
1172 0 94.1224 11.3682 1070 116.589 201.22 456.292
1173 0 99.0701 10.2049 1011 119.516 201.151 455.389
1174 1 53.0229 11.561 613 112.38 201.026 476.485
1175 0 54.0624 12.3006 665 111.119 201.021 476.979
1176 0 54.1105 11.495 622 111.469 200.031 476.588
1177 0 57.0163 12.8735 734 107.422 200.138 474.935
1178 0 58.0201 13.0989 760 107.936 200.343 472.059
1179 0 59.0487 12.0748 713 111.266 200.468 471.095
1180 0 62.0897 11.8216 734 111.034 201.057 471.879
1181 0 65.1117 14.0374 914 105.054 200.846 470.394
1182 0 63.031 11.0422 696 114.257 200.69 469.073
1183 0 67.0643 11.6605 782 111.821 201.37 468.855
1184 0 69.0585 12.0767 834 112.143 200.916 468.242
1185 0 72.1173 11.4952 829 113.572 200.744 465.277
1186 0 74.1004 10.7692 798 114.828 201.124 468.779
1187 0 77.1453 11.3033 872 114.749 200.705 463.664
1188 0 80.1328 12.0425 965 113.709 200.265 463.259
1189 0 83.092 10.362 861 116.209 199.846 464.487
1190 0 85.1861 12.009 1023 114.929 199.9 460.287
1191 0 90.1378 13.2242 1192 111.204 200.512 460.914
1192 0 91.1681 11.8682 1082 116.029 200.328 458.012
1193 0 96.2355 12.3967 1193 114.464 200.13 456.209
1194 1 53.0646 11.1374 591 118.406 199.54 475.849
1195 0 54.0141 10.9786 593 120.899 199.374 476.53
1196 0 57.0132 11.8745 677 114.935 199.851 474.629
1197 0 58.0759 12.432 722 114.838 201.648 474.278
1198 0 58.0612 12.8313 745 115.619 201.864 474.148
1199 0 60.0504 12.7726 767 115.894 201.631 474.456
1200 0 61.0481 10.8931 665 121.075 201.811 474.414
1201 0 64.107 11.6368 746 119.335 202.259 470.57
1202 0 64.1992 11.7758 756 118.659 202.067 472.604
1203 0 68.0465 12.5649 855 117.511 201.902 470.288
1204 0 69.0843 11.03 762 120.308 201.887 468.194
1205 0 74.0853 13.039 966 114.8 201.474 466.355
1206 0 75.0378 12.7003 953 120.222 202.153 466.121
1207 0 77.1257 13.0825 1009 119.678 202 466.949
1208 0 78.0811 11.6417 909 126 201.661 465.206
1209 0 84.0563 12.3727 1040 121.425 201.423 464.268
1210 0 87.0743 12.7248 1108 122.124 201.398 461.302
1211 0 87.1237 12.4076 1081 125.204 201.4 461.181
1212 0 93.1654 14.1362 1317 120.229 201.067 458.345
1213 0 96.1348 13.6891 1316 122.965 201.647 457.823
1214 1 54.0598 13.1706 712 125.712 201.375 475.524
1215 0 53.0414 11.0857 588 129.383 201.131 474.121
1216 0 56.0894 12.908 724 115.834 200.751 470.048
1217 0 59.0552 12.3782 731 109.092 200.446 468.963
1218 0 58.0264 11.4603 665 110.938 200.738 467.472
1219 0 61.0547 12.8737 786 108.771 200.692 470.216
1220 0 61.0568 12.5293 765 111.082 201.637 467.276
1221 0 66.0408 12.5226 827 109.643 201.489 465.383
1222 0 67.0452 11.9919 804 112.876 201.04 465.075
1223 0 69.0353 13.0947 904 110.128 201.14 466.35
1224 0 74.176 14.2769 1059 106.15 200.941 463.89
1225 0 76.1014 13.0484 993 111.319 201.216 462.32
1226 0 79.1425 13.1156 1038 110.609 201.215 463.232
1227 0 80.0527 13.0789 1047 111.937 201.631 459.541
1228 0 84.1143 11.7221 986 115.163 201.082 458.499
1229 0 86.0699 12.2459 1054 115.322 200.425 457.282
1230 0 91.0944 13.5903 1238 110.799 201.085 457.312
1231 0 93.1081 14.0052 1304 108.696 200.66 457.409
1232 0 95.0685 12.896 1226 113.407 200.719 454.466
1233 0 99.1458 14.3829 1426 110.705 201.027 451.027
1234 1 53.032 11.7665 624 108.966 200.849 472.008
1235 0 55.1857 11.5247 636 112.025 200.851 472.008
1236 0 58.0772 12.2251 710 108.269 200.065 472.554
1237 0 60.0878 12.9311 777 106.314 199.716 470.866
1238 0 60.0728 12.9343 777 136.434 198.716 470.866
1239 0 64.0352 11.8841 761 111.834 200.026 468.836
1240 0 65.0247 12.5183 814 110.154 199.593 468.843
1241 0 68.022 13.3339 907 107.555 199.615 467.709
1242 0 70.0514 14.0326 983 105.686 199.712 467.66
1243 0 70.0446 11.8496 830 112.949 199.866 464.266
1244 0 75.0475 12.8852 967 108.672 200.117 466.71
1245 0 75.176 13.076 983 110.165 200.455 462.077
1246 0 79.061 12.8002 1012 110.838 200.53 461.713
1247 0 81.1887 11.7997 958 112.517 200.268 461.772
1248 0 85.1135 14.0518 1196 108.543 200.16 459.354
1249 0 88.1032 12.4286 1095 112.524 200.705 458.185
1250 0 91.0906 11.7465 1070 115.38 199.836 457.361
1251 0 93.0821 11.9464 1112 116.469 199.577 455.192
1252 1 50.0541 11.6074 581 106.67 200.511 478.077
1253 0 50.1166 12.8301 643 110.621 199.188 478.603
1254 0 51.0924 12.0957 618 107.777 200.141 476.157
1255 0 54.1398 11.2117 607 109.28 200.792 475.705
1256 0 55.0553 12.2059 672 107.914 200.872 475.332
1257 0 58.0562 11.7472 682 108.116 200.565 473.138
1258 0 58.0981 11.3773 661 111.024 200.327 472.006
1259 0 59.1305 12.6162 746 108.155 200.186 472.349
1260 0 63.0509 13.608 858 107.528 200.818 472.993
1261 0 65.0532 13.6811 890 105.118 200.974 471.06
1262 0 67.0932 12.3858 831 108.187 200.576 470.477
1263 0 68.0687 12.4727 849 108.642 200.581 469.293
1264 0 71.0699 13.7048 974 105.341 200.746 469.207
1265 0 72.219 12.7252 919 109.169 201.507 467.852
1266 0 75.1927 12.7273 957 109.887 200.465 465.689
1267 0 78.2425 12.8447 1005 110.415 201.097 463.943
1268 0 81.1528 12.3101 999 110.829 201.128 464.207
1269 0 84.216 12.5154 1054 112.051 200.729 463.558
1270 0 87.3261 13.9019 1214 110.175 200.157 459.491
1271 0 91.3894 12.6492 1156 113.127 200.253 458.163
1272 0 94.3061 12.873 1214 113.722 199.636 454.297
1273 1 49.1362 11.1323 547 108.967 199.996 476.016
1274 0 50.2722 12.2533 616 107.795 200.693 476.006
1275 0 52.2023 12.3175 643 107.781 200.547 477.19
1276 0 55.0678 13.5469 746 103.395 200.456 476.295
1277 0 57.0844 12.8406 733 106.105 200.722 475.154
1278 0 57.0704 12.0378 687 108.866 200.25 473.968
1279 0 61.043 12.0571 736 109.792 200.156 473.674
1280 0 63.112 11.7569 742 110.19 200.53 473.124
1281 0 65.2114 12.6205 823 109.473 200.211 471.651
1282 0 67.3283 12.2534 825 110.692 200.367 470.48
1283 0 70.3647 13.2026 929 109.277 200.779 468.165
1284 0 68.5767 12.0012 823 114.999 200.652 465.694
1285 0 69.2607 11.8249 819 114.824 200.502 466.411
1286 0 77.499 12.2453 949 115.384 200.234 461.887
1287 0 76.1793 12.6937 967 116.821 200.343 460.218
1288 0 81.365 12.745 1037 116.313 200.019 459.921
1289 0 81.3262 12.579 1023 118.466 200.4 457.877
1290 0 86.3975 12.755 1102 117.77 200.497 456.769
1291 0 90.2771 13.0487 1178 116.744 200.284 455.509
1292 0 92.3091 11.754 1085 119.236 200.291 456.562
1293 0 94.3081 12.1092 1142 120.623 200.37 452.973
1294 0 96.3482 12.6728 1221 120.568 200.116 449.982
1295 0 101.242 12.327 1248 121.385 200.216 450
1296 0 103.197 11.6282 1200 122.986 200.359 448.765
1297 0 107.231 12.4311 1333 121.894 200.166 446.203
1298 0 112.342 13.7171 1541 118.04 199.914 444.382
1299 0 115.276 13.6281 1571 117.956 199.97 443.428
1300 0 120.248 13.2726 1596 117.247 199.955 444.076
1301 0 123.361 12.2892 1516 120.427 200.092 441.092
1302 0 127.272 12.4301 1582 120.89 199.93 436.015
1303 0 132.343 12.4449 1647 119.962 200.128 435.868
1304 0 136.189 12.0641 1643 121.567 200.01 433.376
1305 0 141.288 12.1171 1712 120.97 199.727 432.437
1306 0 146.282 12.5852 1841 120.715 200.334 429.099
1307 0 150.218 12.9013 1938 121.366 199.834 424.459
1308 0 156.253 14.3805 2247 116.344 200.264 425.53
1309 0 160.279 12.8027 2052 121.062 201.257 420.587
1310 0 167.316 12.826 2146 120.985 200.556 416.176
1311 0 172.296 12.9196 2226 120.653 200.354 412.426
1312 0 178.425 13.5127 2411 120.065 200.662 406.838
1313 0 185.337 13.9746 2590 117.825 199.925 408.327
1314 0 191.32 14.2223 2721 118.433 199.963 402.893
1315 0 198.369 14.8612 2948 117.412 199.58 398.362
1316 0 205.231 13.9599 2865 120.75 200.42 394.318
1317 0 212.415 14.7165 3126 118.502 200.19 394.935
1318 0 220.388 15.3956 3393 117.817 200.014 388.985
1319 1 165.384 13.0061 2151 123.066 200.225 417.03
1320 0 170.373 13.4294 2288 124.186 199.41 415.271
1321 0 174.437 13.5235 2359 126.93 200.008 410.434
1322 0 183.426 13.7167 2516 127.944 199.82 404.476
1323 0 190.748 13.8088 2634 126.335 199.31 401.132
1324 0 196.624 14.0726 2767 125.47 199.743 399.516
1325 0 203.651 14.0436 2860 126.649 199.514 392.405
1326 0 209.603 13.3538 2799 127.751 199.369 393.34
1327 0 218.501 14.6269 3196 123.302 199.618 390.513
1328 0 227.668 14.6441 3334 124.975 199.593 383.939
1329 0 235.606 14.9402 3520 124.905 199.497 379.901
1330 1 49.3862 11.5822 572 113.904 200.157 472.163
1331 0 52.3444 12.7425 667 110.307 199.297 470.613
1332 0 52.2383 11.907 622 113.891 199.133 471.161
1333 0 54.2529 11.428 620 114.853 198.885 470.31
1334 0 57.1139 12.3613 706 111.829 199.007 469.816
1335 0 60.5938 12.394 751 111.059 198.995 470.284
1336 0 60.3617 12.1766 735 113.792 198.778 467.82
1337 0 61.4001 11.6938 718 115.142 199.095 467.386
1338 0 64.3074 12.4869 803 113.167 199.401 466.186
1339 0 64.2755 10.7817 693 117.361 199.304 465.655
1340 0 69.4148 11.2944 784 116.54 199.679 464.426
1341 0 73.2888 12.9078 946 111.611 199.165 462.014
1342 0 73.3221 10.9108 800 116.85 199.459 460.683
1343 0 78.54 12.4141 975 113.173 199.677 459.572
1344 0 82.489 12.5108 1032 111.642 199.298 458.837
1345 1 44.3203 11.9133 528 109.665 200.047 475.559
1346 0 47.3042 12.7473 603 106.308 199.902 475.705
1347 0 47.1382 11.5193 543 112.842 199.258 474.169
1348 0 51.1132 11.8169 604 110.157 200.765 478.197
1349 0 49.3139 12.4306 613 111.786 199.951 471.794
1350 0 51.208 13.2987 681 109.677 200.28 472.536
1351 0 54.146 13.6483 739 108.218 200.145 469.348
1352 0 57.5142 15.1093 869 102.863 200.152 469.353
1353 0 60.4737 15.1305 915 102.762 200.513 467.723
1354 0 56.379 12.1144 683 115.059 199.857 469.81
1355 0 61.3017 14.4042 883 107.864 199.104 468.285
1356 0 61.4621 15.1475 931 107.284 199.521 468.329
1357 0 63.3267 13.533 857 111.334 199.599 467.614
1358 0 64.4008 14.4408 930 110.575 199.958 465.841
1359 0 65.2612 13.7448 897 112.32 199.582 465.133
1360 0 67.4079 14.479 976 110.33 199.607 464.931
1361 0 69.2324 13.7219 950 112.648 198.9 463.304
1362 0 71.4542 13.911 994 113.009 199.63 462.251
1363 0 73.3489 13.9607 1024 112.022 199.538 462.419
1364 0 76.1809 13.3892 1020 114.49 199.64 461.163
1365 0 79.3727 13.1531 1044 114.864 199.719 460.877
1366 0 82.3252 14.5035 1194 112.734 200.082 458.7
1367 0 84.3393 14.6788 1238 114.382 200.27 454.385
1368 0 88.5379 14.6265 1295 113.854 199.854 454.57
1369 0 92.5115 13.5983 1258 116.641 200.129 452.611
1370 0 93.4132 14.8908 1391 112.62 199.588 451.728
1371 1 55.254 12.7412 704 117.801 200.088 468.922
1372 0 53.1558 12.9807 690 117.767 199.786 466.528
1373 0 55.0564 12.7324 701 116.825 199.802 468.054
1374 0 57.1023 12.0661 689 121.54 199.358 468.283
1375 0 60.108 12.3112 740 122.632 199.796 469.245
1376 0 62.4436 13.5322 845 119.542 200.462 467.036
1377 0 65.4593 13.2143 865 120.568 200.24 464.659
1378 0 65.3958 12.9366 846 122.66 200.129 461.947
1379 0 70.3125 14.3502 1009 118.704 200.547 462.535
1380 0 70.4358 12.9764 914 121.74 200.923 461.342
1381 0 72.13 12.3111 888 114.684 201.273 459.998
1382 0 74.037 12.7774 946 116.092 200.996 463.555
1383 0 78.2246 13.5252 1058 113.6 199.98 462.224
1384 0 81.1827 13.8453 1124 112.702 200.422 459.34
1385 0 82.1542 12.2453 1006 116.502 200.741 460.079
1386 0 85.2109 12.6627 1079 116.393 201.33 458.345
1387 0 88.1785 12.2819 1083 116.279 201.176 457.722
1388 1 51.1373 10.7945 552 106.446 202.237 478.661
1389 0 49.2194 10.8291 533 112.069 201.831 476.505
1390 0 53.1578 11.8891 632 112.244 202.481 475.378
1391 0 53.0352 11.1247 590 109.842 200.883 476.898
1392 0 53.0363 11.2753 598 110.712 200.679 475.212
1393 0 55.0786 11.5653 637 111.192 200.498 473.286
1394 0 59.0875 11.813 698 109.206 200.358 474.218
1395 0 60.1117 12.1441 730 109.385 199.915 472.11
1396 0 62.1828 11.418 710 110.901 199.737 472.441
1397 0 64.1036 12.4018 795 109.201 200.036 470.611
1398 0 66.04 12.2653 810 110.194 199.438 469.552
1399 0 65.0979 10.8606 707 115.491 199.644 466.372
1400 0 70.0592 12.4609 873 111.857 199.781 467.048
1401 0 70.0687 12.4735 874 113.18 199.949 466.103
1402 0 71.1282 10.5584 751 118.839 200.012 463.268
1403 0 73.1272 11.7193 857 116.187 199.748 465.13
1404 0 77.1482 12.5343 967 114.542 199.688 462.779
1405 0 78.119 11.9689 935 117.712 199.424 459.493
1406 0 82.0922 11.9743 983 117.698 199.244 459.974
1407 0 82.1119 12.1176 995 118.614 199.453 457.999
1408 0 84.1106 11.2471 946 119.707 199.235 456.406
1409 0 89.175 12.6829 1131 115.233 199.265 456.014
1410 0 91.1868 12.6992 1158 116.02 199.322 453.959
1411 0 93.2461 12.1506 1133 118.543 199.674 449.833
1412 0 97.1181 12.5208 1216 117.78 199.159 450.284
1413 0 99.4125 11.8597 1179 120.265 199.198 447.964
1414 0 101.443 11.8293 1200 121.668 199.135 445.085
1415 0 104.646 12.1935 1276 120.034 199.274 446.459
1416 1 60.2707 11.382 686 116.208 198.943 468.144
1417 0 61.0458 11.5978 708 112.743 199.203 468.41
1418 0 62.1139 10.7061 665 115.316 198.654 466.195
1419 0 64.0471 10.5703 677 115.105 198.978 466.124
1420 0 67.0616 11.7802 790 111.813 199.222 463.615
1421 0 70.0682 10.4041 729 114.641 199.302 463.715
1422 0 71.0661 11.3697 808 112.788 199.015 462.766
1423 0 74.0522 11.5189 853 112.57 199.188 459.744
1424 0 77.0543 11.4984 886 111.405 199.676 459.335
1425 0 80.1052 12.4711 999 110 200.086 458.415
1426 0 82.0444 11.9204 978 111.894 200.965 457.563
1427 0 83.1046 10.4567 869 115.652 200.473 456.366
1428 0 85.0738 11.2255 955 114.83 200.266 452.695
1429 0 90.0513 12.0265 1083 112.304 200.074 452.324
1430 0 93.1268 11.6615 1086 112.312 200.012 449.83
1431 0 97.048 12.3341 1197 110.399 200.254 448.003
1432 0 100.085 12.0297 1204 110.902 200.192 446.326
1433 0 103.085 12.4945 1288 109.849 200.008 444.186
1434 0 106.205 11.3554 1206 119.599 199.871 443.503
1435 1 58.0711 10.1772 591 110.271 200.181 466.841
1436 0 62.0335 11.0424 685 108.304 200.384 464.374
1437 0 63.1032 11.4574 723 107.866 200.427 462.497
1438 0 65.0682 12.6944 826 105.623 200.259 462.504
1439 0 67.0894 11.1046 745 109.238 200.188 461.67
1440 0 70.0824 10.7873 756 108.95 199.735 461.48
1441 0 71.0658 11.5668 822 108.416 199.99 458.253
1442 0 73.0369 9.84434 719 112.359 200.065 459.937
1443 0 75.0721 10.6964 803 110.197 200.039 460.367
1444 0 76.1776 10.528 802 111.305 200.193 458.994
1445 0 80.1246 10.5211 843 111.676 200.204 457.832
1446 0 80.1015 11.7101 938 110.719 200.048 454.259
1447 0 87.1957 12.5235 1092 107.685 200.952 455.126
1448 0 87.1952 11.4915 1002 112.246 201.934 450.628
1449 0 92.1795 12.9096 1190 106.329 202.053 451.718
1450 0 93.2083 12.6598 1180 107.836 201.869 450.651
1451 0 97.1383 13.1771 1280 106.095 201.509 450.003
1452 0 94.1597 11.831 1114 135.342 200.481 446.986
1453 0 101.221 11.3712 1151 111.683 201.598 448.422
1454 0 104.216 11.4666 1195 114.287 201.166 444.145
1455 0 110.13 12.1765 1341 111.552 201.913 444.975
1456 1 64.0824 10.3929 666 114.143 199.947 464.778
1457 0 61.1105 9.98191 610 108.133 200.2 459.275
1458 0 62.0303 9.01172 559 111.184 199.682 458.782
1459 0 67.0722 11.3162 759 115.274 199.796 465.895
1460 0 69.0498 11.1514 770 117.052 199.582 463.47
1461 0 70.0604 11.3473 795 115.881 200.187 463.414
1462 0 72.0392 11.5631 833 113.594 199.894 463.396
1463 0 71.063 10.4133 740 111.743 200.611 463.514
1464 0 73.049 11.0337 806 113.222 200.346 463.607
1465 0 76.0656 11.1877 851 113.354 201.012 461.284
1466 0 80.1047 11.2353 900 114.098 201.039 461.289
1467 0 82.0769 12.0497 989 113.708 200.65 460.2
1468 0 82.0569 10.9436 898 117.647 200.45 458.538
1469 0 80.0551 7.70719 617 99.5057 201.906 463.246
1470 0 88.1646 10.8093 953 118.801 201.566 455.853
1471 0 91.1351 11.1044 1012 117.673 201.501 455.614
1472 0 94.2379 11.3861 1073 118.26 199.925 451.226
1473 0 96.2609 11.2299 1081 119.894 200.056 449.468
1474 0 101.2 12.2332 1238 117.47 199.847 441.107
1475 0 104.345 12.2287 1276 118.142 199.868 443.958
1476 0 109.254 13.9034 1519 114.9 199.963 443.174
1477 1 64.1279 12.1008 776 114.133 199.724 467.224
1478 0 65.1501 11.8803 774 113.966 199.809 467.35
1479 0 66.188 11.2558 745 117.404 199.903 464.902
1480 0 68.1221 12.918 880 110.397 199.735 468.058
1481 0 70.0652 12.3599 866 112.142 199.209 464.684
1482 0 70.0383 11.9649 838 113.746 199.098 465.347
1483 0 72.1093 11.8293 853 114.355 199.103 463.403
1484 0 73.0636 11.2642 823 116.363 199.219 464.002
1485 0 77.0524 11.8621 914 114.661 199.531 461.312
1486 0 80.0654 11.9277 955 113.742 199.663 460.453
1487 0 82.0401 12.3232 1011 113.225 199.418 460.62
1488 0 85.0681 12.5899 1071 112.479 199.037 459.519
1489 0 85.0451 12.3346 1049 114.29 199.564 457.639
1490 0 91.1072 13.5445 1234 109.653 199.556 457.316
1491 0 93.0452 11.6288 1082 109.57 200.201 439.666
1492 0 96.1107 12.8602 1236 107.043 199.56 451.977
1493 0 99.1587 12.3035 1220 109.471 200.191 449.037
1494 0 105.08 12.5999 1324 108.221 200.144 450.101
1495 0 104.094 12.3062 1281 111.606 199.641 448.695
1496 1 53.2993 11.0133 587 108.825 199.503 469.457
1497 0 53.1782 11.076 589 108.582 199.47 470.878
1498 0 57.098 11.0862 633 111.664 198.946 473.035
1499 0 56.0949 11.5697 649 112.464 198.94 474.365
1500 0 57.053 12.059 688 112.015 199.266 472.533
1501 0 58.084 11.6383 676 113.172 198.667 473.691
1502 0 62.0897 12.2243 759 109.451 199.058 472.883
1503 0 63.0296 12.3275 777 103.027 199.691 470.176
1504 0 66.1444 11.3237 749 104.824 199.618 470.535
1505 0 65.1554 13.0304 849 103.442 199.826 468.77
1506 0 64.0655 12.2999 788 106.201 199.279 467.423
1507 0 65.0447 11.7919 767 111.57 199.872 469.008
1508 0 65.0423 11.5924 754 113.174 199.605 467.359
1509 0 66.041 11.72 774 116.217 199.125 467.13
1510 0 70.0828 12.2569 859 108.919 199.577 464.946
1511 0 72.0777 11.5847 835 109.329 199.726 465.065
1512 0 74.0665 11.7192 868 110.008 199.528 462.995
1513 0 77.1274 12.6025 972 106.282 199.14 462.329
1514 0 81.1805 12.4045 1007 105.795 199.569 461.562
1515 0 81.292 13.1624 1070 105.007 199.232 460.016
1516 0 84.2542 14.3732 1211 103.171 199.063 456.153
1517 0 85.2324 11.4276 974 112.3 198.952 456.383
1518 0 90.2022 12.9376 1167 109.672 199.526 456.323
1519 1 47.0588 10.0088 471 113.299 199.618 478.839
1520 0 49.1435 11.7818 579 111.458 199.178 470.857
1521 0 51.1185 11.757 601 112.1 199.095 474.113
1522 0 53.0473 11.3484 602 112.939 199.066 477.548
1523 0 56.1622 11.4668 644 112.947 198.421 474.197
1524 0 57.155 12.0024 686 113.716 198.576 472.542
1525 0 57.0706 12.0903 690 115.628 199.272 472.319
1526 0 58.2232 11.6448 678 118.236 199.04 472.77
1527 0 61.0943 13.2582 810 114.775 198.605 471.284
1528 0 62.055 11.4737 712 119.528 198.61 473.702
1529 0 63.0095 13.5694 855 116.91 199.849 469.999
1530 0 65.1283 11.224 731 124.466 199.933 470.743
1531 0 66.1474 12.2907 813 122.824 200.005 467.876
1532 0 68.0558 12.6514 861 122.302 199.829 469.861
1533 0 71.1441 12.313 876 124.462 199.982 467.978
1534 0 74.0462 13.6266 1009 121.654 200.521 466.816
1535 0 77.0841 12.8691 992 124.506 200.366 467.571
1536 0 78.0734 12.5651 981 128.097 199.43 465.203
1537 0 80.1507 12.3767 992 129.778 199.647 463.918
1538 0 83.071 11.8934 988 130.814 200.18 464.033
1539 0 86.1149 13.2149 1138 129.564 199.819 460.201
1540 0 90.1334 14.0126 1263 130.442 199.555 458.952
1541 1 49.1794 11.4276 562 136.84 199 477.384
1542 0 48.1766 11.188 539 133.482 199.651 476.306
1543 0 52.2022 12.3941 647 135.028 200.124 478.96
1544 0 54.1979 13.0632 708 133.281 198.944 476.419
1545 0 56.285 12.6854 714 134.106 199.265 475.864
1546 0 55.1449 11.5514 637 140.918 199.518 474.641
1547 0 59.2261 13.8284 819 130.613 199.59 474.789
1548 0 60.2573 12.3802 746 135.708 199.165 474.539
1549 0 61.2302 12.5265 767 136.368 199.064 472.614
1550 0 63.1715 13.028 823 132.815 198.372 473.216
1551 0 65.1687 13.5188 881 130.754 198.448 469.829
1552 0 67.1819 13.6793 919 129.527 198.542 470.333
1553 0 69.1639 13.8801 960 128.565 198.562 468.637
1554 0 71.2779 12.9072 920 131.715 198.384 467.46
1555 0 72.309 14.1476 1023 128.55 198.398 466.339
1556 0 75.3772 14.3147 1079 127.558 198.026 463.665
1557 0 77.3095 13.349 1032 130.65 198.6 462.901
1558 0 77.4316 12.4368 963 134.163 198.081 459.737
1559 0 83.2635 13.7395 1144 128.116 198.281 458.559
1560 0 85.5826 14.1618 1212 126.744 198.125 456.753
1561 0 88.3851 13.328 1178 127.799 197.795 455.022
1562 0 91.4184 12.9186 1181 125.847 197.712 452.869
1563 0 93.1235 12.6499 1178 123.376 197.785 451.585
1564 1 51.0403 11.1285 568 112.894 198.676 477.88
1565 0 52.0606 10.3725 540 113.513 198.869 477.694
1566 0 56.0745 10.9854 616 112.256 199.208 473.602
1567 0 58.0529 11.0417 641 110.832 198.281 473.799
1568 0 59.1683 13.6391 807 105.14 198.38 472.851
1569 0 60.1625 11.6019 698 107.792 196.996 470.718
1570 0 64.1826 11.6075 745 106.991 196.944 469.474
1571 0 65.2159 11.7456 766 107.739 197.287 468.399
1572 0 67.1233 11.6949 785 107.089 197.246 468.657
1573 0 69.0804 12.1742 841 106.338 197.071 466.565
1574 0 69.0814 11.3924 787 109.208 197.789 464.855
1575 0 72.0508 12.5189 902 105.905 198.075 465.716
1576 0 74.2394 11.7323 871 107.93 197.801 462.123
1577 0 76.185 12.2596 934 107.066 197.397 462.467
1578 0 80.1115 11.7212 939 109.415 197.669 458.47
1579 0 82.1885 12.2767 1009 108.204 196.675 459.347
1580 0 85.3266 11.7197 1000 110.141 197.309 455.352
1581 0 88.2323 12.1837 1075 108.073 196.863 457.876
1582 0 92.3076 12.2308 1129 109.027 197.725 451.749
1583 0 94.1346 11.9085 1121 110.761 197.575 452.822
1584 0 97.1149 12.1403 1179 110.418 197.608 453.192
1585 0 96.1127 12.2773 1180 142.913 196.624 453.032
1586 1 54.0834 11.6302 629 105.604 197.973 474.285
1587 0 57.1306 11.5 657 104.676 197.549 474.268
1588 0 58.1514 11.9 692 104.137 198.877 470.607
1589 0 60.0425 13.1573 790 101.401 198.782 471.904
1590 0 61.168 11.0679 677 105.981 199.024 470.938
1591 0 63.1484 11.7818 744 104.832 198.61 469.532
1592 0 65.1776 11.8139 770 104.208 199.331 469.366
1593 0 67.1092 12.2636 823 103.64 199.067 466.803
1594 0 69.1595 13.0712 904 102.461 199.314 464.711
1595 0 71.1123 12.1217 862 105.384 199.677 464.336
1596 0 73.1523 11.9887 877 106.153 198.824 461.753
1597 0 75.3943 10.7435 810 108.509 199.236 462.459
1598 0 78.2577 12.74 997 105.119 199.409 460.847
1599 0 81.2057 12.2528 995 106.69 199.376 461.802
1600 0 82.2543 11.6954 962 108.482 199.817 459.476
1601 0 86.1025 13.3097 1146 105.883 199.361 454.5
1602 0 88.1394 12.3554 1089 109.629 199.297 457.263
1603 0 92.1667 13.1284 1210 108.607 198.715 455.825
1604 0 95.2329 13.0942 1247 108.7 198.918 454.747
1605 0 98.2351 11.0551 1086 114.163 198.754 453.125
1606 1 56.0417 10.7242 601 112.641 198.887 474.326
1607 0 57.0623 11.5488 659 112.003 199.314 470.86
1608 0 58.0206 10.9444 635 114.787 199.202 471.769
1609 0 61.0535 12.6119 770 114.877 199.371 459.353
1610 0 63.1884 12.5339 792 115.765 199.178 466.393
1611 0 65.1671 12.6598 825 116.213 198.852 466.475
1612 0 67.1146 12.799 859 115.924 198.158 467.66
1613 0 69.1034 12.7201 879 116.48 198.703 467.243
1614 0 71.1529 13.2672 944 114.659 199.128 466.288
1615 0 72.1139 12.9101 931 116.783 198.281 464.73
1616 0 75.093 14.8616 1116 111.23 197.958 465.974
1617 0 76.058 13.2268 1006 116.41 196.709 464.489
1618 0 78.1564 13.3322 1042 116.921 196.707 462.269
1619 0 78.1913 13.3135 1041 118.197 196.671 461.516
1620 0 82.2599 13.4087 1103 117.386 197.413 460.733
1621 0 87.3827 13.9616 1220 115.087 197.504 456.822
1622 0 89.4017 13.7246 1227 115.358 197.174 457.898
1623 0 91.2856 13.6823 1249 116.1 197.781 454.732
1624 0 92.5061 13.4261 1242 117.47 197.556 452.568
1625 0 97.3245 14.1074 1373 114.734 197.302 452.851
1626 0 101.198 13.9133 1408 112.803 198.452 449.873
1627 0 101.205 13.9124 1408 152.497 198.45 449.848
1628 0 107.136 12.6848 1359 109.227 198.06 446.517
1629 1 58.0579 10.8512 630 107.078 198.781 471.554
1630 0 62.2473 12.0648 751 103.976 198.288 468.21
1631 0 62.1694 12.8842 801 105.61 198.114 464.713
1632 0 64.0369 11.8994 762 104.78 198.171 469.471
1633 0 65.1279 12.1453 791 104.301 198.766 465.416
1634 0 69.1179 11.7046 809 104.394 198.889 465.418
1635 0 72.2834 12.8245 927 98.4531 199.303 463.04
1636 0 72.0493 11.4921 828 102.641 199.175 459.92
1637 0 76.2479 11.7905 899 101.029 199.34 461.229
1638 0 75.2017 11.1833 841 104.269 198.732 457.432
1639 0 81.1347 11.6473 945 102.378 198.247 458.376
1640 0 84.2222 12.657 1066 101.63 198.934 458.056
1641 0 85.1639 11.2841 961 107.941 199.186 456.358
1642 0 88.1449 12.4908 1101 105.545 199.559 455.979
1643 0 93.1178 12.6829 1181 104.323 199.272 454.386
1644 0 94.0727 12.6179 1187 104.554 198.709 455.229
1645 0 98.1487 11.8188 1160 106.11 198.174 452.68
1646 0 103.155 12.9417 1335 104.137 198.365 451.527
1647 0 103.183 10.6025 1094 109.937 198.208 446.633
1648 0 105.138 13.5821 1428 104.833 197.002 446.533
1649 0 112.216 11.6382 1306 109.48 197.018 433.676
1650 1 64.1172 12.2588 786 104.478 197 468.704
1651 0 68.1638 11.7218 799 104.652 196.073 468.133
1652 0 69.1653 12.4774 863 103.709 196.728 466.702
1653 0 72.1141 12.2168 881 103.16 196.274 467.066
1654 0 75.0594 13.3494 1002 100.722 196.514 463.081
1655 0 77.0822 13.1159 1011 101.33 196.748 464.485
1656 0 78.1653 12.2561 958 103.329 196.843 462.505
1657 0 81.123 12.0681 979 103.76 196.386 460.68
1658 0 86.1019 12.2065 1051 102.686 195.782 459.96
1659 0 86.0705 12.6873 1092 103.213 195.864 457.374
1660 0 93.1963 12.9082 1203 101.83 195.993 456.411
1661 0 93.1653 12.6871 1182 103.554 196.66 454.842
1662 0 96.1166 12.7241 1223 103.321 196.536 454.285
1663 0 100.225 12.3822 1241 104.302 196.396 453.739
1664 0 103.135 12.983 1339 104.588 196.166 451.965
1665 0 105.169 12.361 1300 107.295 196.261 448.797
1666 0 110.202 12.5406 1382 107.749 196.399 449.608
1667 1 59.0286 10.9777 648 109.224 196.15 472.792
1668 0 62.0965 11.6271 722 106.683 196.042 471.861
1669 0 63.1271 11.6273 734 104.743 196.661 471.247
1670 0 64.0564 11.1933 717 106.305 196.686 470.208
1671 0 67.106 13.0391 875 101.529 196.393 469.499
1672 0 69.038 13.2246 913 101.094 195.853 469.003
1673 0 70.0815 12.1287 850 105.493 196.041 466.604
1674 0 73.1331 12.9627 948 105.764 196.889 464.926
1675 0 73.1073 12.8441 939 108.324 197.022 464.495
1676 0 79.0583 13.4205 1061 107.53 196.729 464.136
1677 0 80.0676 14.1506 1133 106.474 196.434 463.99
1678 0 84.061 13.1928 1109 108.747 196.66 460.948
1679 0 82.0423 13.4687 1105 110.748 196.515 460.222
1680 0 87.032 14.5694 1268 107.358 197.006 457.506
1681 0 90.0687 13.634 1228 109.634 197.109 457.798
1682 0 93.1234 13.8526 1290 109.512 196.826 456.35
1683 0 96.0872 14.7678 1419 107.819 196.832 455.744
1684 0 98.1221 14.7571 1448 109.109 196.499 454.693
1685 0 100.255 14.8123 1485 111.041 196.734 450.544
1686 0 102.2 13.7573 1406 116.614 196.275 450.994
1687 0 107.262 13.7794 1478 116.03 197.012 448.501
1688 0 112.38 15.0472 1691 112.791 197.092 449.429
1689 0 114.344 14.64 1674 115.56 196.781 444.692
1690 0 115.262 14.185 1635 118.856 196.461 445.986
1691 0 121.266 15.4371 1872 115.622 196.379 445.233
1692 0 123.274 15.5588 1918 117.828 197.239 441.266
1693 0 126.288 14.9104 1883 120.75 196.531 441.419
1694 0 131.263 14.7719 1939 120.785 196.425 438.367
1695 0 136.301 14.8275 2021 122.961 196.828 435.45
1696 0 141.347 14.6519 2071 123.791 197.255 426.988
1697 0 143.376 13.9563 2001 124.677 197.549 428.424
1698 1 78.0832 10.4248 814 115.878 198.052 462.797
1699 0 80.1915 10.6121 851 117.949 198.316 460.884
1700 0 84.1355 11.1843 941 115.361 197.813 430.005
1701 0 86.3093 11.3545 980 114.062 198.754 456.392
1702 0 88.2958 10.8952 962 116.843 198.292 451.952
1703 0 90.1771 11.5883 1045 116.641 197.852 453.455
1704 0 94.2613 11.6166 1095 113.671 197.841 452.031
1705 0 96.2278 11.1506 1073 116.661 197.868 456.749
1706 0 100.237 12.4006 1243 115.952 197.922 446.899
1707 0 105.211 12.4512 1310 116.498 198.269 445.534
1708 0 107.253 11.8038 1266 119.345 198.085 447.662
1709 0 108.141 12.234 1323 121.893 197.933 445.443
1710 0 110.092 12.208 1344 122.818 198.007 447.135
1711 0 117.146 12.4631 1460 123.184 197.501 445.025
1712 0 122.117 13.3478 1630 120.015 198.103 443.26
1713 1 68.1146 10.6879 728 116.243 198.543 472.431
1714 0 67.0679 11.4362 767 111.352 197.106 468.021
1715 0 70.1429 11.3483 796 115.994 196.612 467.044
1716 0 74.1308 11.8709 880 107.662 197.074 465.62
1717 0 74.0969 11.3095 838 110.167 196.979 463.813
1718 0 77.1213 11.7477 906 110.114 196.605 462.89
1719 0 80.176 12.9964 1042 105.495 198.31 463.934
1720 0 81.2918 10.6038 862 113.282 197.087 452.899
1721 0 86.3985 13.0211 1125 105.836 198.391 458.204
1722 0 87.1989 11.7433 1024 110.81 198.415 456.54
1723 0 87.2188 10.789 941 114.511 198.648 452.388
1724 0 92.3633 11.9203 1101 112.277 198.474 448.748
1725 0 95.1995 12.7312 1212 110.584 198.087 448.898
1726 0 98.5355 11.0417 1088 117.05 197.873 445.752
1727 0 102.168 12.5088 1278 112.221 198.009 446.062
1728 0 106.472 13.3181 1418 118.742 197.996 432.169
1729 0 109.269 12.8124 1400 119.541 198.194 433.49
1730 0 112.153 12.8129 1437 119.885 198.619 441.165
1731 1 62.2588 12.3677 770 119.497 199.132 471.057
1732 0 62.1972 12.2996 765 120.425 198.264 469.031
1733 0 64.1304 12.0692 774 120.677 198.623 464.981
1734 0 64.1304 12.0692 774 150.244 198.623 464.981
1735 0 67.0701 11.2718 756 125.028 198.963 464.958
1736 0 70.103 12.0394 844 121.826 198.489 464.385
1737 0 72.0922 11.4021 822 123.901 199.136 461.771
1738 0 76.1027 13.3767 1018 117.065 198.859 462.106
1739 0 74.0916 11.8502 878 123.592 198.812 461.323
1740 0 79.1261 13.4722 1066 118.175 198.573 459.647
1741 0 83.1371 13.0507 1085 118.898 198.909 459.137
1742 0 85.0866 13.2336 1126 117.952 198.842 458.4
1743 0 85.0747 13.2237 1125 150.402 199.83 458.19
1744 0 87.0568 12.6699 1103 121.238 198.936 452.997
1745 0 90.2108 12.1826 1099 121.545 198.102 452.243
1746 0 94.1238 13.4716 1268 118.319 197.644 450.067
1747 0 96.1575 12.2195 1175 121.48 197.499 447.343
1748 0 98.1871 12.9549 1272 119.911 196.929 447.203
1749 0 104.296 13.4425 1402 117.845 197.189 429.974
1750 1 58.1147 11.3052 657 118.793 197.531 445.332
1751 0 59.0951 10.3562 612 121.172 197.554 446.433
1752 0 59.1116 11.436 676 118.464 197.858 464.701
1753 0 61.0976 11.9808 732 118.331 198.907 462.272
1754 0 62.0761 11.8886 738 118.423 199.061 463.679
1755 0 63.0587 12.4646 786 119.201 198.95 460.506
1756 0 63.0761 11.1294 702 123.738 199.313 460.905
1757 0 66.0676 12.0634 797 120.757 199.044 460.739
1758 0 70.0923 13.2967 932 116.321 198.785 458.623
1759 0 72.0675 12.0165 866 120.925 198.625 458.149
1760 0 72.0589 11.56 833 123.555 198.759 456.321
1761 0 73.1061 12.2698 897 122.223 199.011 454.244
1762 0 76.0168 13.2471 1007 118.992 198.345 454.1
1763 0 79.0762 13.1392 1039 119.156 198.364 455.049
1764 0 80.1096 11.709 938 123.898 198.916 451.907
1765 0 84.0992 12.4496 1047 121.861 198.138 450.382
1766 0 85.0918 11.9871 1020 123.246 197.825 448.384
1767 0 88.0789 12.9316 1139 120.032 198.071 447.123
1768 0 92.0618 12.9587 1193 120.125 198.309 447.162
1769 0 95.1125 13.0898 1245 119.435 198.043 444.724
1770 0 96.0561 11.639 1118 122.412 197.693 442.903
1771 0 100.139 13.2615 1328 117.935 197.727 445.479
1772 0 103.118 13.6154 1404 116.976 197.806 444.511
1773 1 55.081 9.40434 518 118.986 197.668 465.625
1774 0 54.0678 9.54357 516 120.089 197.905 463.791
1775 0 58.0583 10.8684 631 116.263 198.428 464.582
1776 0 61.0547 11.8746 725 112.735 197.408 463.859
1777 0 62.1027 11.0462 686 114.415 197.832 463.822
1778 0 66.0626 13.7445 908 114.974 197.574 468.286
1779 0 67.085 13.5649 910 111.656 197.303 470.548
1780 0 70.2317 13.128 922 113.396 197.03 467.413
1781 0 74.1287 12.3164 913 114.081 196.997 450.061
1782 0 74.11 12.7648 946 113.307 197.392 457.091
1783 0 78.1016 12.3813 967 114.745 197.677 459.091
1784 0 80.0959 12.947 1037 112.716 197.391 462.844
1785 0 82.1846 13.0316 1071 113.25 197.281 460.287
1786 0 85.1637 13.5739 1156 112.822 198.138 459.653
1787 0 87.1294 13.4168 1169 113.366 197.036 460.596
1788 0 90.185 15.4793 1396 109.764 197.56 457.277
1789 0 93.1394 13.8395 1289 113.004 197.281 458.04
1790 0 96.1798 14.7432 1418 112.489 197.659 454.733
1791 0 99.1918 14.4165 1430 113.668 197.899 454.24
1792 0 101.187 15.0612 1524 111.98 196.835 454.674
1793 0 105.13 15.1526 1593 113.21 196.969 449.328
1794 0 108.135 14.0843 1523 115.72 197.001 451.03
1795 0 109.118 14.2231 1552 117.432 197.204 446.474
1796 0 114.202 13.949 1593 117.876 197.328 447.547
1797 0 117.195 13.0211 1526 115.858 197.72 444.206
1798 0 123.181 14.7425 1816 110.857 197.811 439.115
1799 0 127.19 15.064 1916 113.899 198.258 440.665
1800 0 131.332 14.6652 1926 116.891 198.184 439.94
1801 0 136.205 15.4032 2098 116.195 198.684 434.89
1802 0 139.14 13.8638 1929 119.578 198.574 431.242
1803 0 145.285 14.1033 2049 117.732 198.789 430.649
1804 1 78.1309 12.0183 939 114.297 199.487 463.75
1805 0 84.0639 14.37 1208 107.99 199.048 461.877
1806 0 85.1189 12.1712 1036 105.279 198.486 457.764
1807 0 87.0505 12.8776 1121 103.882 197.972 455.449
1808 0 92.1796 13.3001 1226 103.114 198.418 456.039
1809 0 95.1421 13.2854 1264 103.128 198.11 455.223
1810 0 98.1149 13.3313 1308 104.833 198.903 450.668
1811 0 100.098 11.9682 1198 108.814 198.537 451.391
1812 0 105.142 12.8492 1351 106.582 197.679 443.985
1813 0 109.09 12.4118 1354 112.352 197.061 449.242
1814 0 114.126 13.5639 1548 111.794 197.596 449.5
1815 1 61.0801 12.8847 787 114.46 197.427 473.478
1816 0 64.1237 13.0217 835 114.083 197.568 473.12
1817 0 66.071 12.7893 845 115.738 197.773 471.015
1818 0 68.0697 13.2364 901 112.255 197.97 469.959
1819 0 69.1582 14.6765 1015 109.276 197.642 468.89
1820 0 72.0846 14.705 1060 108.876 197.461 465.978
1821 0 76.2153 13.9867 1066 110.238 197.997 465.531
1822 0 77.1644 13.8795 1071 111.106 198.098 465.556
1823 0 78.1838 13.5706 1061 113.008 198.019 463.623
1824 0 81.143 13.9507 1132 111.879 198.076 464.027
1825 0 86.2161 14.3825 1240 110.598 198.413 462.04
1826 0 88.1774 15.2647 1346 108.497 198.302 460.981
1827 0 90.297 13.5553 1224 114.565 198.058 448.723
1828 0 93.1207 13.8745 1292 113.636 197.934 458.389
1829 0 93.1888 12.8771 1200 117.395 197.803 457.226
1830 0 97.3187 14.0364 1366 114.02 197.983 456.321
1831 0 100.226 14.1081 1414 114.745 197.844 455.709
1832 0 104.26 14.3295 1494 115.31 197.665 452.983
1833 0 108.228 14.7096 1592 116.899 197.733 449.584
1834 1 60.1533 11.2546 677 123.973 197.934 469.47
1835 0 62.1928 11.8342 736 120.079 197.724 465.068
1836 0 63.2551 11.588 733 121.033 197.861 464.225
1837 0 67.2394 12.2845 826 119.501 197.855 463.85
1838 0 70.3412 12.5247 881 120.019 198.514 462.062
1839 0 70.2251 12.7163 893 121.489 198.426 460.345
1840 0 73.1884 13.8547 1014 119.109 198.506 460.003
1841 0 76.2721 12.9798 990 122.261 198.072 458.821
1842 0 77.4095 12.5437 971 125.176 198.072 459.673
1843 0 80.2234 13.1134 1052 124.705 197.791 458.241
1844 0 83.2805 13.1003 1091 122.231 197.869 457.092
1845 0 85.1971 13.1342 1119 123.62 198.105 455.119
1846 0 92.1424 13.8807 1279 119.595 198.471 454.555
1847 0 95.2631 15.116 1440 118.092 198.287 450.681
1848 0 95.2182 14.0519 1338 122.274 198.172 451.297
1849 0 100.218 13.0815 1311 121.958 197.952 451.887
1850 0 104.201 14.0785 1467 119.93 197.742 448.34
1851 0 105.261 13.4903 1420 123.813 197.919 447.913
1852 0 111.264 14.4252 1605 121.031 197.907 438.383
1853 0 112.175 12.6588 1420 127.36 197.106 438.582
1854 0 117.294 14.2888 1676 122.325 197.016 440.78
1855 0 121.394 13.9216 1690 123.14 197.517 440.116
1856 0 123.385 13.1296 1620 125.191 197.454 438.9
1857 1 71.3162 12.1291 865 126.772 197.088 464.129
1858 0 73.085 13.1491 961 116.402 198.619 463.015
1859 0 73.1879 12.2288 895 116.903 198.162 462.773
1860 0 76.2301 12.7115 969 115.118 197.808 461.005
1861 0 82.1684 14.3364 1178 110.75 198.288 459.539
1862 0 83.1928 13.2704 1104 115.056 198.331 458.222
1863 0 86.2319 12.6519 1091 116.858 197.873 460.559
1864 0 90.2727 13.3595 1206 116.429 197.172 455.495
1865 0 91.1884 13.1267 1197 120.432 197.989 454.409
1866 0 93.2379 12.2804 1145 123.072 197.547 450.233
1867 0 95.285 11.7227 1117 123.603 197.216 449.482
1868 0 100.264 11.9584 1199 124.757 197.422 449.038
1869 0 105.459 13.1142 1383 121.559 197.612 448.249
1870 0 110.201 13.4482 1482 120.461 197.276 445.542
1871 0 111.23 12.6314 1405 123.198 197.949 443.853
1872 0 117.225 14.4593 1695 116.009 197.355 443.571
1873 0 121.146 13.5787 1645 117.434 197.719 444.184
1874 0 125.193 12.9321 1619 120.115 197.158 439.668
1875 0 128.165 12.9052 1654 122.129 197.767 437.661
1876 0 134.154 13.4547 1805 121.474 197.689 437.679
1877 1 70.087 11.6712 818 118.787 198.265 468.581
1878 0 71.0625 13.1715 936 117.423 198.553 464.95
1879 0 76.1291 12.8597 979 117.18 198.221 466.177
1880 0 77.0812 13.0901 1009 117.457 197.744 466.125
1881 0 77.0812 13.129 1012 153.745 198.752 466.092
1882 0 84.0612 12.9192 1086 119.414 198.009 462.029
1883 0 87.118 13.0857 1140 118.964 198.319 458.472
1884 0 90.1234 12.9489 1167 119.966 199.192 456.136
1885 0 93.1079 13.5327 1260 118.829 198.383 454.28
1886 0 97.1454 13.1041 1273 117.776 198.782 458.256
1887 0 100.121 12.7346 1275 120.536 198.803 453.26
1888 0 104.17 13.3628 1392 118.374 198.577 451.194
1889 0 108.252 13.33 1443 119.107 198.401 449.378
1890 1 62.2061 10.6903 665 116.362 198.161 472.355
1891 0 62.1366 12.2472 761 113.074 198.208 471.436
1892 0 66.1633 12.7261 842 109.429 198.514 471.166
1893 0 65.1002 13.2565 863 110.768 198.998 469.505
1894 0 67.0923 11.3575 762 114.017 198.518 469.402
1895 0 69.2163 13.2483 917 110.291 198.465 464.487
1896 0 73.0661 12.7966 935 110.161 198.596 467.512
1897 0 73.1237 12.0071 878 112.052 197.957 466.574
1898 0 78.1068 12.5213 978 111.425 198.591 466.359
1899 0 78.102 12.4453 972 112.372 199.072 463.968
1900 0 82.0694 11.9167 978 114.21 199.086 462.71
1901 0 85.219 12.9901 1107 111.162 199.023 463.263
1902 0 87.1405 12.784 1114 113.613 198.884 459.485
1903 0 92.1776 13.1594 1213 111.42 198.838 460.401
1904 0 94.1238 12.1755 1146 115.366 198.853 456.526
1905 0 96.1446 13.3341 1282 113.831 197.819 455.845
1906 0 99.2202 12.7797 1268 116.713 198.472 453.935
1907 0 104.134 13.6843 1425 115.17 198.836 451.651
1908 1 59.1983 12.247 725 119.364 198.999 474.888
1909 0 60.0743 12.2681 737 121.581 198.84 473.406
1910 0 64.0779 13.624 873 118.913 198.778 470.08
1911 0 66.1406 13.683 905 118.057 199.293 470.964
1912 0 68.0453 13.3147 906 118.578 198.946 470.889
1913 0 69.0925 12.7076 878 119.784 198.682 469.895
1914 0 73.2261 13.4515 985 117.222 199.094 467.742
1915 0 75.1357 13.2427 995 118.182 198.979 466.217
1916 0 77.1688 13.3862 1033 117.192 199.248 465.598
1917 0 79.1624 13.6934 1084 116.293 199.194 464.37
1918 0 82.0496 13.0531 1071 117.721 198.816 462.541
1919 0 85.0414 13.417 1141 116.234 198.921 461.187
1920 0 88.1373 13.0024 1146 116.777 199.117 461.921
1921 0 90.1468 12.3354 1112 118.721 199.117 461.106
1922 0 95.1027 13.7851 1311 115.33 198.725 455.14
1923 1 54.0326 12.0483 651 115.768 199.284 477.378
1924 0 54.1316 12.1925 660 114.223 198.223 477.5
1925 0 56.069 12.6451 709 112.748 198.269 476.078
1926 0 60.0532 13.5047 811 109.667 198.012 474.801
1927 0 61.027 13.6005 830 108.924 198.575 474.208
1928 0 63.0973 14.1844 895 106.902 198.147 475.004
1929 0 64.1373 12.8942 827 111.256 198.295 472.983
1930 0 66.0435 13.8545 915 109.461 198.711 470.727
1931 0 66.1192 11.6608 771 117.341 198.62 470.506
1932 0 71.1195 12.7251 905 123.298 197.463 469.931
1933 0 75.1297 13.1905 991 120.144 197.548 468.416
1934 0 77.1823 13.2155 1020 121.661 198.352 467.936
1935 0 80.2757 12.6813 1018 122.33 198.067 466.068
1936 0 82.3152 12.9867 1069 121.588 197.534 464.567
1937 0 85.1785 13.4776 1148 121.565 197.417 462.905
1938 0 89.2464 13.1546 1174 122.13 197.925 463.444
1939 0 90.1567 14.9739 1350 119.04 197.713 461.809
1940 0 91.2497 13.0302 1189 125.402 197.733 460.768
1941 0 96.2797 12.8064 1233 126.504 197.116 451.358
1942 0 99.2962 13.8072 1371 122.101 198.024 455.454
1943 1 55.1162 12.2469 675 127.505 197.819 475.708
1944 0 54.1444 13.8334 749 118.093 198.666 472.327
1945 0 56.1155 13.4544 755 119.106 198.903 473.457
1946 0 61.0759 13.5405 827 108.936 198.665 469.904
1947 0 60.2131 13.0204 784 114.866 198.741 471.328
1948 0 61.0661 11.0372 674 121.436 198.564 471.629
1949 0 63.0742 11.32 714 122.412 197.829 467.472
1950 0 67.2502 12.5353 843 118.017 197.527 462.133
1951 0 68.1624 13.7612 938 115.625 197.812 467.449
1952 0 69.2101 12.3392 854 120.157 197.576 467.658
1953 0 72.164 13.4 967 118.711 197.524 465.494
1954 0 73.1183 12.8422 939 122.57 196.972 443.249
1955 0 78.1262 12.531 979 120.999 197.629 449.309
1956 0 80.239 13.7464 1103 117.452 197.507 457.271
1957 0 83.1038 13.7419 1142 116.916 198.004 461.994
1958 0 86.1695 13.2297 1140 118.524 198.168 459.032
1959 0 87.2834 13.3702 1167 120.139 197.906 460.123
1960 0 90.1323 14.4232 1300 119.74 197.401 457.372
1961 0 94.119 14.1204 1329 120.367 197.789 457.236
1962 0 97.3993 13.6346 1328 121.111 198.422 456.252
1963 1 53.0889 14.6923 780 117.105 198.271 477.308
1964 0 55.2124 13.7469 759 117.7 198.026 475.841
1965 0 54.0943 11.8497 641 121.362 198.435 472.523
1966 0 57.0865 12.3322 704 118.76 198.057 461.987
1967 0 60.0743 12.8175 770 117.336 198.603 461.495
1968 0 62.0144 13.2066 819 116.836 198.778 464.905
1969 0 65.1594 13.0756 852 114.92 199.014 466.104
1970 0 64.0662 12.5651 805 117.788 198.925 469.77
1971 0 68.0666 13.4868 918 117.973 198.962 469.218
1972 0 70.0753 13.3285 934 118.293 199.064 468.585
1973 0 75.1152 14.3247 1076 120.013 198.314 466.263
1974 0 76.1074 13.0211 991 121.134 197.971 462.33
1975 0 77.1215 13.4593 1038 120.476 197.785 461.815
1976 0 82.1162 12.7989 1051 120.879 198.028 460.71
1977 0 83.0308 13.2722 1102 121.598 197.941 460.205
1978 0 86.029 13.5884 1169 119.755 197.466 458.08
1979 0 88.1327 14.4555 1274 117.488 196.881 456.122
1980 0 91.241 14.1274 1289 117.47 197.163 455.711
1981 0 93.2132 13.8607 1292 119.241 197.125 454.149
1982 0 96.1125 13.9004 1336 118.573 197.992 453.232
1983 0 101.244 14.6281 1481 114.178 197.945 452.093
1984 0 102.246 14.25 1457 116.712 197.844 450.301
1985 0 105.247 13.9482 1468 117.508 198.392 450.475
1986 0 107.249 13.0071 1395 121.192 198.085 448.472
1987 0 112.248 15.0114 1685 115.53 197.882 446.994
1988 0 113.28 13.6212 1543 118.854 197.332 444.18
1989 0 119.146 15.1327 1803 114.477 197.859 441.282
1990 0 122.199 13.6499 1668 118.511 197.912 438.834
1991 0 127.144 12.8515 1634 118.841 198.425 439.551
1992 0 131.139 13.9547 1830 116.825 197.593 436.938
1993 0 135.3 13.6512 1847 117.557 197.663 433.95
1994 0 142.234 13.97 1987 116.585 198.157 431.358
1995 0 147.256 14.8517 2187 114.598 198.448 428.808
1996 0 152.272 14.2902 2176 115.696 197.841 429.222
1997 0 158.116 14.0783 2226 116.921 198.039 423.624
1998 0 163.299 14.2989 2335 115.351 198.246 422.592
1999 0 169.25 14.1271 2391 117.627 198.13 415.88
2000 1 78.0628 14.514 1133 121.808 197.571 458.754
2001 0 83.2937 14.2748 1189 122.475 197.64 456.522
2002 0 84.1092 15.1113 1271 121.953 197.554 454.522
2003 0 87.2079 13.6112 1187 125.103 197.666 455.236
2004 0 90.2452 15.5465 1403 119.863 197.574 452.467
2005 0 92.123 14.8606 1369 122.815 198.161 450.03
2006 0 97.254 15.8657 1543 119.868 197.944 449.367
2007 0 100.25 15.6408 1568 121.156 197.395 446.672
2008 0 103.152 15.3173 1580 121.996 197.868 445.916
2009 0 106.206 15.4135 1637 122.902 198.007 443.764
2010 0 109.21 15.3649 1678 123.44 197.819 443.952
2011 0 114.36 14.5856 1668 124.825 197.924 443.68
2012 0 117.224 15.1932 1781 123.377 198.234 440.613
2013 0 121.43 15.2516 1852 123.942 198.028 437.703
2014 0 123.305 14.744 1818 125.474 198.162 436.799
2015 0 129.474 15.339 1986 123.46 197.845 435.179
2016 0 132.612 15.0816 2000 124.56 197.427 434.984
2017 0 136.368 14.6442 1997 126.295 198.112 433.997
2018 0 143.37 15.2403 2185 124.792 198.159 430.727
2019 0 146.308 15.2692 2234 126.386 198.031 426.363
2020 0 152.352 14.158 2157 128.939 197.544 427.045
2021 0 157.435 14.6346 2304 128.034 197.747 422.65
2022 0 160.262 14.47 2319 129.335 197.375 422.106
2023 0 167.329 15.6518 2619 127.019 197.626 417.014
2024 0 172.406 15.1329 2609 128.372 198.077 414.917
2025 0 179.5 15.0418 2700 128.043 198.014 416.352
2026 0 184.554 14.7328 2719 128.48 197.917 410.531
2027 0 191.769 15.1328 2902 127.621 198.358 407.694
2028 0 198.528 14.0837 2796 129.971 198.347 403.904
2029 0 206.374 13.839 2856 130.811 198.171 400.212
2030 0 218.406 15.1736 3314 125.723 197.892 396.415
2031 0 225.586 15.4043 3475 124.396 197.702 393.3
2032 1 62.1901 14.6647 912 135.552 198.196 465.203
2033 0 64.5438 15.168 979 134.266 198.933 464.794
2034 0 67.305 15.3777 1035 133.98 197.93 463.131
2035 0 68.3408 14.7496 1008 138.187 197.394 460.496
2036 0 72.4357 14.3576 1040 137.987 197.861 460.437
2037 0 74.2823 14.4045 1070 138.863 197.454 459.333
2038 0 76.2368 15.5043 1182 136.069 198.176 458.87
2039 0 80.3804 14.7424 1185 140.332 198.089 455.462
2040 0 83.2865 14.9844 1248 139.067 198.245 455.312
2041 0 87.4774 14.1408 1237 141.668 198.395 454.209
2042 0 87.2854 14.5385 1269 142.222 198.925 452.503
2043 1 48.2616 11.1269 537 142.994 198.562 470.991
2044 0 51.125 13.066 668 137.133 197.991 470.055
2045 0 54.2925 13.4457 730 134.323 198.345 469.523
2046 0 55.1456 13.7092 756 134.209 198.616 467.972
2047 0 57.2615 12.2945 704 138.729 198.249 466.653
2048 0 59.4253 13.2435 787 134.117 198.095 466.694
2049 0 59.2833 13.1572 780 137.497 197.66 465.299
2050 0 63.2063 12.9576 819 135.752 198.399 464.569
2051 0 66.0924 13.4509 889 133.848 198.229 463.993
2052 0 68.1425 13.0022 886 135.626 198.264 461.737
2053 0 70.2616 12.9516 910 135.557 198.389 461.429
2054 0 71.2894 13.4242 957 136.885 198.395 458.817
2055 0 75.1151 13.9786 1050 135.028 197.634 456.737
2056 0 80.2187 14.2984 1147 133.178 197.259 457.356
2057 0 82.2956 13.4394 1106 136.882 196.722 456.458
2058 0 85.095 15.277 1300 132.402 197.449 454.498
2059 0 86.1392 14.4417 1244 137.174 197.338 453.567
2060 0 89.0916 13.8285 1232 139.286 196.429 451.593
2061 0 89.0671 13.3607 1190 142.405 196.851 451.803
2062 0 93.1003 14.2427 1326 139.139 197.314 452.099
2063 0 99.1957 14.2446 1413 138.175 197.013 448.05
2064 0 103.099 14.5783 1503 135.713 197.373 446.568
2065 0 105.11 15.2031 1598 135.461 197.394 444.64
2066 0 109.227 14.7034 1606 136.701 197.324 444.255
2067 0 112.142 14.6244 1640 137.386 197.891 440.522
2068 0 115.213 14.2692 1644 139.651 197.192 439.799
2069 0 119.173 14.1055 1681 139.778 196.935 437.695
2070 0 123.182 14.2796 1759 139.691 197.196 434.903
2071 0 131.181 14.7201 1931 136.862 196.953 433.673
2072 1 70.0562 11.0483 774 130.974 197.857 463.518
2073 0 74.0517 11.2489 833 129.988 197.412 462.517
2074 0 74.1257 11.1163 824 131.441 196.975 460.133
2075 0 76.1821 12.3126 938 130.419 197.078 457.533
2076 0 81.0884 12.1472 985 128.147 197.851 458.078
2077 0 83.1395 12.3046 1023 126.969 197.232 456.691
2078 0 82.1212 11.483 943 129.159 196.662 454.858
2079 0 86.219 11.9811 1033 126.63 197.171 457.477
2080 0 89.1677 12.6727 1130 124.465 197.362 453.532
2081 0 88.2037 11.1106 980 130.268 197.045 450.842
2082 0 92.273 12.1271 1119 125.238 197.225 448.43
2083 0 91.2128 11.7637 1073 130.459 197.511 450.098
2084 0 96.2783 11.4252 1100 130.005 196.973 448.872
2085 0 99.1633 11.8491 1175 128.031 197.237 447.237
2086 0 103.214 12.4401 1284 125.452 197.706 444.241
2087 0 104.137 11.0143 1147 129.021 197.947 439.895
2088 0 108.215 11.9207 1290 123.505 197.88 441.992
2089 1 66.0356 8.04112 531 113.655 197.2 468.058
2090 0 67.1555 10.3044 692 111.052 197.344 465.24
2091 0 69.1561 10.4112 720 109.626 197.667 465.618
2092 0 69.1051 9.43491 652 113.431 197.604 462.403
2093 0 72.1213 10.3853 749 111.113 197.87 460.187
2094 0 73.2242 9.38215 687 117.509 197.406 458.486
2095 0 77.1928 8.51116 657 116.659 197.473 458.508
2096 0 81.1597 8.79747 714 115.917 197.643 459.695
2097 0 82.1945 8.30956 683 118.884 197.862 456.401
2098 0 85.1888 8.41659 717 119.07 197.159 454.972
2099 0 87.3409 8.90763 778 117.216 197.383 452.79
2100 0 90.2674 8.85148 799 117.593 196.596 451.686
2101 0 92.1676 8.72323 804 117.119 196.719 452.143
2102 0 94.258 7.61739 718 119.805 197.13 449.345
2103 0 98.311 9.28686 913 117.021 196.726 449.996
2104 0 101.319 9.72174 985 115.442 196.854 448.447
2105 0 106.413 9.48189 1009 115.152 197.095 447.157
2106 0 107.276 6.85151 735 120.71 196.706 445.698
2107 0 114.373 9.09302 1040 116.265 196.562 442.5
2108 0 117.455 9.27161 1089 115.855 196.903 438.748
2109 0 116.369 5.01854 584 118.161 198.005 453.622
2110 0 125.331 7.78738 976 118.472 197.201 436.52
2111 0 129.499 8.91898 1155 117.087 197.053 435.934
2112 0 128.452 7.94848 1021 126.247 197.677 433.07
2113 0 133.4 8.68818 1159 124.295 197.17 432.64
2114 1 241.58 11.9215 2880 139.044 197.372 362.988
2115 0 249.745 12.4047 3098 137.054 197.263 362.973
2116 0 257.849 12.581 3244 136.938 197.325 356.35
2117 0 266.743 13.9273 3715 132.364 196.911 355.989
2118 0 274.648 13.0385 3581 135.579 197.019 352.307
2119 0 281.894 13.6221 3840 134.402 196.143 344.09
2120 0 289.951 12.8918 3738 136.596 196.577 341.141
2121 0 301.081 14.0494 4230 132.83 196.665 338.967
2122 0 307.847 13.0779 4026 136.824 196.949 334.56
2123 0 316.94 13.867 4395 135.632 196.947 321.125
2124 0 326.898 14.139 4622 133.956 196.98 325.709
2125 0 334.952 11.951 4003 141.186 196.437 309.782
2126 0 347.157 13.069 4537 138.013 196.667 310.719
2127 0 359.052 13.1374 4717 138.194 196.596 304.49
2128 0 410.717 13.0917 5377 139.741 197.251 271.381
2129 1 51.0577 8.42184 430 108.165 197.821 472.416
2130 0 52.0274 8.36098 435 107.731 198.179 472.915
2131 0 56.1261 9.95971 559 104.358 198.018 471.816
2132 0 52.2821 8.01421 419 110.971 196.007 471.931
2133 0 53.1268 9.14793 486 108.447 196.064 472.835
2134 1 65.2405 11.0974 724 98.7224 196.366 473.522
2135 0 64.1697 10.332 663 101.567 196.339 472.287
2136 0 67.1501 11.5115 773 99.3907 196.489 469.972
2137 0 67.1428 10.5894 711 101.761 196.546 470.623
2138 0 68.2764 10.8969 744 101.148 196.219 468.966
2139 0 72.163 11.28 814 99.5848 196.203 468.857
2140 0 72.235 11.0058 795 101.751 196.182 467.786
2141 0 75.1287 11.9794 900 100.94 196.308 467.02
2142 0 76.161 10.8061 823 103.216 196.248 465.436
2143 0 78.2384 11.1454 872 104.422 196.552 463.802
2144 0 79.1216 11.2359 889 105.112 196.062 462.874
2145 0 83.1407 11.234 934 106.078 196.23 461.786
2146 0 83.0742 11.2069 931 107.898 196.127 460.943
2147 0 85.1245 11.2893 961 111.541 196.214 458.968
2148 0 88.096 12.3161 1085 108.553 196.818 456.769
2149 0 90.1973 11.5635 1043 109.858 196.681 456.602
2150 0 94.1197 12.9941 1223 106.618 196.128 451.863
2151 0 94.1197 12.9516 1219 140.502 195.116 451.891
2152 0 96.059 12.3153 1183 109.936 197.068 451.663
2153 0 100.061 11.1732 1118 112.305 196.565 452.478
2154 0 102.094 11.8028 1205 111.943 196.579 448.066
2155 0 105.274 12.9756 1366 109.668 197.173 446.657
2156 0 110.273 12.8681 1419 110.116 197.846 443.591
2157 1 55.339 10.8965 603 108.181 198.39 470.862
2158 0 57.3665 11.1912 642 108.053 197.997 469.202
2159 0 60.3587 12.5417 757 103.859 197.859 469.715
2160 0 57.1296 10.5725 604 105.666 198.373 467.624
2161 0 63.1794 11.6494 736 100.837 197.629 468.485
2162 0 62.1176 11.4621 712 103.302 197.74 466.152
2163 0 65.1693 11.2937 736 103.37 197.512 465.789
2164 0 68.1694 11.2807 769 103.551 197.3 463.71
2165 0 67.2374 10.7827 725 106.174 197.022 462.847
2166 0 70.1479 11.547 810 105.617 196.815 462.805
2167 0 71.0861 11.3524 807 106.441 197.078 462.307
2168 0 77.1512 13.8041 1065 99.5793 197.111 462.325
2169 0 77.0823 11.2737 869 107.522 196.732 461.312
2170 0 82.087 12.2675 1007 103.427 197.303 460.072
2171 0 82.2078 10.6803 878 109.544 197.31 456.308
2172 0 86.0466 11.1219 957 110.45 197.193 454.287
2173 0 88.1469 11.4241 1007 110.466 197.451 453.397
2174 1 46.0742 8.9421 412 104.942 198.43 472.126
2175 0 48.1085 11.578 557 101.106 198.262 478.436
2176 0 49.2735 12.0755 595 103.77 198.521 476.497
2177 0 49.1409 11.6603 573 105.766 199.061 476.524
2178 0 52.1323 11.5667 603 104.789 198.612 476.07
2179 0 53.1352 11.4237 607 105.532 198.407 475.234
2180 0 54.1544 11.2456 609 106.53 198.798 474.795
2181 0 57.1475 11.3216 647 104.764 198.219 474.247
2182 0 57.1548 11.4076 652 105.175 197.939 472.156
2183 0 62.0944 11.8046 733 102.374 197.715 466.432
2184 0 63.0679 12.986 819 99.851 197.962 469.074
2185 0 67.1063 12.2492 822 100.679 198.321 469.819
2186 0 69.0998 13.2128 913 99.4447 197.742 467.025
2187 0 72.0974 12.0115 866 101.551 197.79 465.988
2188 0 73.0913 10.9315 799 105.273 197.748 464.834
2189 0 78.1393 11.5051 899 103.228 198.123 464.101
2190 1 41.0618 11.5679 475 105.762 198.787 480.552
2191 0 40.028 11.2171 449 107.795 196.109 482.41
2192 0 44.1348 10.6265 469 108.8 194.868 474.279
2193 0 42.0249 11.2076 471 108.002 195.14 479.949
2194 0 44.068 11.4142 503 106.775 195.861 478.505
2195 0 47.3694 11.4631 543 106.424 195.805 478.19
2196 0 48.0997 11.497 553 107.042 195.901 477.939
2197 0 50.1637 12.838 644 103.276 195.733 475.896
2198 0 52.1267 13.1411 685 102.609 195.311 475.772
2199 0 53.067 13.2474 703 103.464 195.407 476.339
2200 0 53.0576 11.4404 607 109.491 196.105 475.926
2201 0 53.168 11.6423 619 109.955 195.233 473.751
2202 0 58.127 13.2469 770 104.308 194.996 473.245
2203 0 58.1169 12.9222 751 106.368 194.996 471.844
2204 0 59.1007 12.8932 762 108.49 195.419 469.97
2205 0 63.1772 13.1851 833 106.101 196.181 468.648
2206 0 62.2029 12.202 759 111.099 195.688 468.747
2207 0 67.0911 13.1463 882 108.977 195.918 449.264
2208 0 70.0869 12.5844 882 111.071 196.046 455.094
2209 0 70.1827 12.1825 855 113.573 195.512 459.035
2210 0 72.1418 13.0438 941 113.388 195.659 463.047
2211 0 75.1751 12.5041 940 115.939 195.765 461.802
2212 0 78.2282 13.5245 1058 113.882 196.132 463.076
2213 0 81.1586 13.3073 1080 115.508 196.119 461.565
2214 0 83.1157 13.9324 1158 114.439 195.7 459.901
2215 0 86.161 13.2659 1143 117.054 195.111 461.748
2216 0 89.0711 14.9207 1329 113.612 195.746 458.877
2217 0 90.0341 13.3838 1205 120.709 195.756 456.436
2218 0 93.0531 13.0248 1212 121.378 196.273 452.561
2219 0 95.1402 13.9583 1328 119.645 195.799 454.097
2220 0 98.1016 13.2414 1299 121.16 196.209 450.242
2221 0 102.077 13.0783 1335 120.852 196.281 448.755
2222 0 105.135 14.6194 1537 112.907 197.04 443.459
2223 1 54.0703 10.098 546 112.848 197.249 471.41
2224 0 56.1124 10.8176 607 111.023 197.301 469.957
2225 0 58.1839 10.3637 603 109.453 198.209 470.287
2226 0 60.2644 11.3666 685 107.82 198.015 468.926
2227 0 62.1938 11.3355 705 107.679 197.949 464.304
2228 0 63.12 10.583 668 110.289 197.157 468.708
2229 0 67.2057 11.9782 805 105.39 196.65 465.836
2230 0 69.1397 11.1803 773 108.097 197.127 466.176
2231 0 71.136 12.1879 867 107.476 197.359 464.188
2232 0 73.1557 12.2615 897 107.187 196.942 464.049
2233 0 73.1301 11.6231 850 110.552 197.155 461.514
2234 0 77.1007 12.3994 956 108.451 197.736 464.173
2235 0 79.1307 11.8791 940 111.131 197.614 462.499
2236 0 80.1045 12.1966 977 111.468 197.745 461.052
2237 0 85.0868 12.2933 1046 109.991 197.032 460.292
2238 0 87.1752 12.4921 1089 110.947 196.507 459.645
2239 0 88.1198 12.6986 1119 112.587 197.422 456.243
2240 0 91.1374 12.7171 1159 111.731 197.482 458.116
2241 0 94.2444 12.9239 1218 112.208 197.166 453.422
2242 0 97.2295 11.91 1158 114.997 197.229 453.866
2243 0 98.228 12.1147 1190 114.657 196.848 450.515
2244 0 101.13 12.2219 1236 114.561 197.374 449.283
2245 0 104.134 12.6087 1313 114.871 196.706 438.312
2246 0 108.099 12.8863 1393 114.493 196.938 442.47
2247 0 111.12 12.365 1374 116.773 196.697 446.133
2248 1 57.0372 11.2909 644 121.658 195.708 475.787
2249 0 60.0782 11.9844 720 119.696 196.037 472.924
2250 0 62.107 12.0115 746 119.382 195.725 472.273
2251 0 63.165 13.3302 842 116.555 195.936 470.032
2252 0 66.1499 12.8798 852 116.871 195.986 467.803
2253 0 68.1329 14.0314 956 113.877 196.306 466.899
2254 0 71.1151 13.6399 970 110.241 196.523 456.449
2255 0 73.1577 13.136 961 112.969 196.793 455.793
2256 0 75.0927 11.9985 901 117.41 197.214 456.93
2257 0 77.1701 12.4271 959 115.996 195.618 459.965
2258 0 78.1459 12.3743 967 117.687 196.171 462.337
2259 0 82.1577 12.756 1048 117.033 196.594 457.79
2260 0 85.1105 14.3343 1220 112.54 196.55 462.244
2261 0 86.0904 14.2989 1231 114.165 196.887 462.587
2262 0 89.1308 13.6316 1215 116.383 196.74 462.665
2263 0 91.1422 12.9468 1180 119.573 196.177 460.811
2264 0 95.2161 13.3906 1275 120.943 196.045 462.605
2265 0 98.1219 13.2386 1299 122.313 195.31 463.667
2266 0 99.1216 13.095 1298 123.587 194.95 462.649
2267 0 104.171 14.0538 1464 120.466 194.969 462.726
2268 0 108.086 13.3968 1448 122.836 194.39 459.395
2269 0 110.339 12.7244 1404 131.949 193.77 459.015
2270 0 114.158 13.7003 1564 129.824 193.23 456.657
2271 0 118.22 13.0688 1545 132.076 193.803 454.397
2272 0 121.177 13.0553 1582 132.843 193.661 453.779
2273 0 126.21 13.2477 1672 133.01 193.685 450.711
2274 1 71.1081 11.2927 803 125.729 193.253 481.037
2275 0 74.0834 13.1473 974 124.09 193.28 479.571
2276 0 76.0961 12.8653 979 124.143 193.591 477.05
2277 0 77.1008 12.8403 990 126.033 193.358 475.363
2278 0 80.111 13.3315 1068 123.965 193.263 472.513
2279 0 83.1021 13.2247 1099 124.899 192.384 471.286
2280 0 87.2352 13.3432 1164 118.519 191.948 468.371
2281 0 89.1289 13.0373 1162 120.319 191.386 466.371
2282 0 90.0947 12.3537 1113 123.721 192.075 465.672
2283 0 95.1558 13.0943 1246 120.9 192.1 464.38
2284 0 96.1441 13.0117 1251 122.718 191.488 463.924
2285 0 100.098 12.4278 1244 126.611 191.479 461.756
2286 0 105.137 13.7821 1449 119.741 191.382 458.981
2287 0 108.194 13.753 1488 119.31 190.486 454.47
2288 0 114.201 13.9403 1592 121.593 189.524 454.606
2289 0 113.249 13.6071 1541 125.047 189.834 456.088
2290 0 118.185 14.0204 1657 124.043 190.393 456.746
2291 0 120.093 13.8393 1662 125.518 190.378 454.85
2292 0 125.162 13.6623 1710 126.572 190.088 453.242
2293 0 128.168 12.1871 1562 130.97 190.281 453.982
2294 0 135.256 13.4856 1824 127.985 190.671 450.147
2295 0 139.296 13.3385 1858 130.204 190.568 446.102
2296 0 146.23 14.1148 2064 126.373 190.855 444.803
2297 0 150.195 13.2095 1984 129.564 190.938 440.485
2298 1 79.1115 11.6924 925 121.583 190.76 478.799
2299 0 81.1339 11.3516 921 122.068 190.256 477.47
2300 0 84.2086 12.6947 1069 119.062 191.302 475.468
2301 0 87.079 12.0925 1053 117.161 190.349 469.85
2302 0 90.0874 11.8885 1071 117.198 190.691 470.077
2303 0 93.1502 12.5281 1167 115.867 190.3 467.61
2304 0 96.2078 13.0863 1259 113.504 190.406 463.542
2305 0 98.2743 12.8416 1262 114.82 190.947 464.742
2306 0 102.319 13.712 1403 111.399 190.208 463.899
2307 0 104.209 13.78 1436 111.81 190.017 462.43
2308 0 109.322 13.7667 1505 111.015 189.978 447.941
2309 0 112.194 13.2984 1492 112.547 189.771 449.119
2310 0 113.23 12.6645 1434 114.623 189.706 454.705
2311 0 120.251 13.5633 1631 112.516 190.351 452.167
2312 0 125.14 13.2811 1662 112.785 190.823 448.222
2313 0 129.094 13.7885 1780 110.732 191.038 447.877
2314 0 132.286 14.015 1854 110.037 191.358 441.707
2315 0 136.109 13.717 1867 110.538 191.063 444.655
2316 1 71.0558 9.51365 676 109.999 191.984 479.712
2317 0 75.097 11.332 851 104.465 191.617 479.672
2318 0 76.1817 11.0394 841 106.974 191.856 474.81
2319 0 78.0705 12.6296 986 104.218 192.011 472.13
2320 0 80.0486 12.0677 966 102.861 189.893 475.808
2321 0 83.1698 12.5045 1040 100.668 189.682 469.551
2322 0 84.0869 10.5843 890 101.047 190.225 465.989
2323 0 88.1236 11.4952 1013 99.1471 190.748 465.399
2324 0 91.099 10.7685 981 98.9297 191.211 467.037
2325 0 92.2339 10.6035 978 100.617 191.069 461.184
2326 0 97.1645 11.1049 1079 99.835 191.263 460.578
2327 0 100.199 11.9363 1196 98.5903 190.905 455.923
2328 0 103.132 11.4804 1184 100.223 191.024 457.225
2329 1 54.1477 10.102 547 96.6325 190.74 482.455
2330 0 57.1252 11.2735 644 96.5155 190.38 482.531
2331 0 58.0497 10.9906 638 102.911 190.491 484.183
2332 0 61.1709 13.1762 806 97.531 190.185 481.135
2333 0 63.0982 11.9338 753 99.3665 190.482 481.159
2334 0 64.0899 11.0782 710 101.099 190.721 481.097
2335 0 67.0767 13.164 883 96.3658 190.082 477.019
2336 0 69.1089 11.8509 819 99.8486 190.574 476.513
2337 0 70.1043 11.5827 812 96.3264 191.644 472.728
2338 0 74.1486 12.5289 929 93.5135 191.623 472.262
2339 0 74.0848 11.8648 879 97.4323 191.841 470.829
2340 0 77.0881 11.9344 920 98.1478 191.835 470.27
2341 0 79.1472 10.9795 869 102.031 191.235 469.743
2342 0 81.1582 11.2496 913 102.941 191.72 467.87
2343 0 85.1003 13.5722 1155 98.7602 191.78 465.825
2344 0 87.1028 13.6505 1189 99.6754 192.167 467.177
2345 0 92.165 13.1829 1215 102.016 192.079 463.426
2346 0 93.2868 11.8559 1106 106.964 192.835 458.807
2347 1 47.1131 8.99963 424 103.399 192.45 480.184
2348 0 49.1415 10.8462 533 100.811 191.846 480.923
2349 0 52.0391 11.2992 588 103.876 191.046 481.59
2350 0 54.0659 12.6512 684 107.345 191.602 478.687
2351 0 54.0544 12.2839 664 106.238 192.377 480.479
2352 0 55.0997 12.9583 714 105.289 192.23 478.062
2353 0 56.0229 11.8701 665 108.925 191.821 477.672
2354 0 59.0423 12.8552 759 105.576 192.66 476.798
2355 0 60.0464 12.9566 778 106.064 192.724 475.996
2356 0 62.0548 13.3108 826 105.308 193.203 474.305
2357 0 63.0892 13.1084 827 107.189 192.707 474.37
2358 0 64.0525 13.7543 881 105.149 193.425 474.091
2359 0 67.0858 12.1635 816 109.011 194.262 471.946
2360 0 70.1188 13.363 937 106.429 194.012 471.089
2361 0 71.0643 12.7912 909 109.083 193.567 468.847
2362 0 72.1055 12.8007 923 109.04 193.497 466.621
2363 0 77.2071 12.1362 937 107.453 193.934 452.621
2364 0 78.1289 11.4554 895 107.215 194.625 453.309
2365 0 81.1526 12.1623 987 105.359 194.268 455.701
2366 1 43.0239 10.7847 464 106.073 194.541 474.386
2367 0 45.1545 11.6046 524 104.351 195.592 475.395
2368 0 45.158 10.6515 481 109.077 194.649 474.692
2369 0 46.0234 11.8201 544 106.432 195.401 474.96
2370 0 47.0138 10.4437 491 110.784 195.697 474.043
2371 0 49.0543 10.947 537 109.493 196.002 474.395
2372 0 49.0376 10.3594 508 111.939 195.947 473.069
2373 0 52.1595 12.711 663 106.391 196.116 472.44
2374 0 53.0386 10.9166 579 111.484 196.292 472.402
2375 0 53.1269 11.3314 602 111.223 196.415 471.611
2376 0 56.0643 12.0933 678 109.438 196.485 469.792
2377 0 59.0384 10.7557 635 112.373 196.176 469.877
2378 0 58.0321 11.0973 644 112.876 196.904 467.141
2379 0 63.0189 11.7901 743 109.365 196.931 468.583
2380 0 65.0596 12.3118 801 106.668 197.012 468.975
2381 0 66.0696 12.3355 815 108.906 196.102 466.326
2382 0 69.1067 13.0523 902 106.579 196.564 466.405
2383 0 69.0515 12.0345 831 110.105 196.626 463.443
2384 0 73.0755 13.1918 964 106.868 196.781 463.241
2385 0 75.0606 12.35 927 109.557 196.458 460.865
2386 0 79.107 12.8813 1019 108.276 196.357 459.195
2387 0 81.0522 11.9676 970 111.399 196.828 450.484
2388 0 83.0525 12.45 1034 111.245 196.404 449.284
2389 0 88.1157 13.4709 1187 108.76 195.971 444.843
2390 0 90.1145 12.7393 1148 110.404 195.999 446.989
2391 0 95.1418 13.359 1271 108.61 196.302 445.557
2392 0 96.1235 12.8376 1234 111.66 196.306 446.637
2393 1 49.0474 11.2748 553 105.722 195.62 477.011
2394 0 49.0439 11.1737 548 143.816 193.622 477.051
2395 0 52.2274 12.1392 634 110.114 194.853 472.344
2396 0 55.2166 12.4238 686 109.936 194.459 472.064
2397 0 57.0654 13.4057 765 103.031 194.672 476.429
2398 0 58.0871 13.1182 762 107.382 194.526 474.946
2399 0 59.1269 13.1074 775 105.434 194.458 473.262
2400 0 62.1381 12.5366 779 102.972 195.087 459.951
2401 0 62.0868 11.8222 734 105.131 195.486 466.798
2402 0 65.1699 11.8153 770 104.568 195.804 466.316
2403 0 67.1098 12.5168 840 102.887 195.475 463.018
2404 0 68.1066 11.4086 777 104.241 194.802 463.582
2405 0 71.0937 12.4062 882 103.209 195.24 461.395
2406 0 74.1071 12.7788 947 102.528 195.31 460.732
2407 0 77.0996 12.6849 978 103.469 195.957 458.246
2408 0 80.1982 11.6836 937 105.719 195.604 459.121
2409 0 81.1696 12.5786 1021 104.74 195.318 456.411
2410 0 84.1405 12.8594 1082 103.939 195.83 456.409
2411 0 87.1649 13.354 1164 104.902 195.492 453.09
2412 0 88.1541 11.6047 1023 111.836 196.007 451.119
2413 0 90.2055 11.9172 1075 111.356 195.69 451.117
2414 0 96.1479 13.5104 1299 106.21 195.009 448.327
2415 0 100.345 12.7161 1276 108.449 194.907 446.654
2416 1 54.2103 11.0127 597 107.735 194.727 473.343
2417 0 54.1988 11.4394 620 109.063 194.274 472.445
2418 0 55.1003 11.96 659 110.666 194.121 473.757
2419 0 58.2769 11.4968 670 112.97 195.085 472.457
2420 0 59.0555 12.2089 721 112.168 196.223 473.108
2421 0 64.1599 13.1546 844 107.488 196.97 471.494
2422 0 64.1024 12.168 780 112.177 196.815 446.772
2423 0 67.1042 12.9351 868 109.675 196.509 450.537
2424 0 69.1782 11.998 830 113.337 196.648 451.373
2425 0 73.1354 13.14 961 109.598 196.649 456.712
2426 0 72.1705 12.803 924 112.165 197.285 466.848
2427 0 76.1473 13.6052 1036 111.631 196.729 463.484
2428 0 78.097 12.4973 976 115.307 196.986 462.614
2429 0 81.101 12.4906 1013 115.917 196.958 463.905
2430 0 82.2409 12.6822 1043 116.837 196.538 461.596
2431 0 87.1669 12.9407 1128 116.817 196.767 459.061
2432 0 90.1105 13.4391 1211 116.147 196.036 452.259
2433 0 93.1837 13.1246 1223 116.861 196.467 457.585
2434 0 96.1336 13.2732 1276 121.601 196.624 454.831
2435 1 53.0104 9.84712 522 127.718 196.31 478.213
2436 0 53.0615 12.5138 664 122.962 194.863 475.801
2437 0 54.0432 11.5648 625 116.194 195.624 477.611
2438 0 56.0356 12.8668 721 114.334 195.358 476.198
2439 0 59.0385 12.4326 734 114.892 195.001 476.071
2440 0 58.0249 12.1327 704 117.973 194.761 473.572
2441 0 60.0412 12.0417 723 117.993 194.736 472.82
2442 0 63.0728 12.7947 807 115.969 194.227 472.204
2443 0 62.0709 12.1796 756 146.91 193.245 471.308
2444 0 68.0967 11.8802 809 120.496 194.094 468.921
2445 0 71.1115 12.4312 884 118.949 194.614 469.157
2446 0 74.1402 12.2875 911 120.42 193.959 463.823
2447 0 75.1173 13.1128 985 118.482 194.965 467.378
2448 0 77.0692 12.8456 990 119.741 195.318 465.737
2449 0 79.1602 13.1253 1039 120.401 193.898 463.35
2450 0 80.0705 12.464 998 122.164 193.946 461.689
2451 0 83.0331 13.043 1083 121.366 194.706 462.249
2452 0 86.0717 13.2215 1138 121.231 193.432 459.728
2453 0 90.0502 12.9705 1168 121.063 193.991 457.946
2454 0 90.056 12.5255 1128 124.131 193.996 455.736
2455 0 96.1216 13.5974 1307 119.572 194.726 455.718
2456 0 98.1035 12.9047 1266 123.253 194.113 451.553
2457 0 100.139 13.1218 1314 125.288 194.26 449.388
2458 0 106.096 13.3181 1413 124.129 194.815 434.892
2459 0 108.078 12.639 1366 126.687 193.988 435.377
2460 1 56.0987 10.642 597 127.333 196.496 469.563
2461 0 60.1385 12.0389 724 121.526 197.026 471.014
2462 0 61.0561 11.039 674 118.344 197.329 472.139
2463 0 62.0292 12.1072 751 124.032 198.005 470.402
2464 0 65.0456 12.3759 805 122.119 197.79 469.545
2465 0 67.053 12.3634 829 121.528 198.152 467.261
2466 0 69.0835 12.6369 873 120.893 197.915 466.537
2467 0 70.0393 13.2783 930 119.554 198.278 465.395
2468 0 72.0742 11.9877 864 122.97 197.723 465.059
2469 0 76.0708 13.3165 1013 119.228 198.36 462.233
2470 0 77.0768 13.519 1042 119.444 198.423 461.947
2471 0 80.0867 13.3605 1070 116.981 198.206 461.657
2472 0 82.0366 13.3111 1092 117.327 197.69 460.295
2473 0 84.0483 14.0871 1184 115.275 197.989 457.362
2474 0 86.0923 13.2532 1141 118.266 197.545 456.36
2475 0 88.0784 13.7264 1209 116.637 197.254 455.988
2476 0 92.0847 13.6613 1258 114.476 197.682 454.572
2477 0 93.1173 13.1769 1227 113.43 197.233 453.353
2478 0 96.1082 12.59 1210 115.001 197.067 453.488
2479 0 99.128 12.7613 1265 115.74 197.013 449.404
2480 0 103.179 14.1793 1463 111.643 196.886 450.519
2481 0 104.129 13.1663 1371 115.753 196.737 448.924
2482 0 107.097 13.4738 1443 116.612 196.974 447.692
2483 0 111.177 13.483 1499 115.947 196.715 446.511
2484 1 59.0226 10.5892 625 119.088 197.709 470.258
2485 0 61.1305 10.0768 616 122.034 196.524 469.836
2486 0 64.0596 12.1762 780 116.903 197.246 468.435
2487 0 67.0567 13.1978 885 113.661 197.48 466.602
2488 0 69.049 11.7887 814 116.536 197.969 466.443
2489 0 71.0435 12.2882 873 116.029 197.591 464.32
2490 0 74.0652 11.6924 866 115.574 197.699 463.955
2491 0 75.0985 13.2493 995 113.219 198.051 460.885
2492 0 78.0888 12.6523 988 114.43 198.429 461.185
2493 0 80.0818 11.6631 934 117.694 198.086 460.276
2494 0 82.1293 12.7238 1045 115.627 197.435 458.017
2495 0 85.1288 14.4369 1229 112.219 197.5 456.566
2496 0 87.1165 13.8206 1204 114.341 197.138 457.129
2497 0 89.1767 13.2658 1183 116.805 197.173 453.738
2498 0 91.1864 12.8967 1176 118.312 197.436 452.23
2499 0 94.3087 13.6149 1284 116.231 196.935 451.999
2500 0 96.3296 13.5265 1303 116.473 196.593 450.848
2501 0 101.27 13.8244 1400 115.721 197.34 449.701
2502 0 101.373 13.1396 1332 118.956 195.79 444.601
2503 0 105.355 12.8612 1355 118.799 195.948 445.423
2504 0 108.343 13.0604 1415 117.457 196.261 441.929
2505 1 58.0694 10.6424 618 105.837 197.561 463.629
2506 0 59.0461 12.1431 717 106.891 198.271 469.531
2507 0 61.0818 13.1627 804 103.557 197.896 468.621
2508 0 63.1091 12.0426 760 105.068 197.946 468.918
2509 0 63.107 11.9321 753 105.942 197.999 467.224
2510 0 67.0721 12.0467 808 105.281 197.802 465.334
2511 0 70.0594 12.6607 887 103.548 197.997 465.731
2512 0 70.116 11.2243 787 108.075 197.676 465.947
2513 0 73.0944 12.4496 910 104.854 197.418 464.469
2514 0 76.087 13.064 994 103.511 197.885 461.908
2515 0 79.1104 12.5521 993 105.174 197.609 460.138
2516 0 80.1865 12.9448 1038 104.354 196.927 459.09
2517 0 84.1655 12.7606 1074 105.42 196.738 458.523
2518 0 88.12 12.6419 1114 105.056 197.174 457.154
2519 0 90.2022 12.1283 1094 107.725 197.275 454.144
2520 0 93.0921 12.5575 1169 106.876 197.584 453.672
2521 0 96.1665 14.2045 1366 104.088 196.83 452.969
2522 0 99.3438 13.3073 1322 110.226 196.842 450.395
2523 0 103.115 12.1805 1256 108.701 197.093 439.674
2524 0 105.268 12.3589 1301 108.677 197.618 444.935
2525 1 56.0435 12.5438 703 106.43 197.946 471.886
2526 0 57.0807 12.2283 698 107.788 197.999 472.421
2527 0 57.0956 10.4912 599 113.209 198.297 470.88
2528 0 61.0789 12.5412 766 107.11 198.236 470.484
2529 0 63.1509 13.254 837 106.125 198.633 468.073
2530 0 65.0762 14.4139 938 103.321 197.924 467.301
2531 0 66.0579 11.5505 763 110.869 197.963 466.699
2532 0 68.0339 12.6408 860 107.573 198.327 465.601
2533 0 71.045 12.6258 897 108.116 197.964 463.408
2534 0 75.0474 11.9258 895 108.102 198.749 462.334
2535 0 75.0855 11.7466 882 109.876 197.991 462.298
2536 0 77.1266 12.1748 939 107.857 197.859 461.006
2537 0 82.2746 11.9113 980 107.67 198.098 454.856
2538 0 84.229 12.371 1042 106.269 197.498 459.133
2539 1 43.1503 12.0046 518 104.127 197.137 477.813
2540 0 43.1724 11.3035 488 101.842 196.416 471.971
2541 0 44.0176 10.6321 468 98.5385 198.306 476.188
2542 0 46.0631 11.9401 550 96.4055 198.629 475.758
2543 0 45.0447 10.7005 482 95.612 197.998 473.84
2544 0 46.0967 11.1071 512 94.1543 197.111 472.408
2545 0 47.0751 10.0053 471 96.5074 197.437 471.514
2546 0 46.0807 10.3514 477 97.3606 197.782 471.17
2547 0 50.0363 9.29326 465 98.4925 197.787 470.624
2548 0 50.0319 10.8131 541 96.3623 198.209 469.492
2549 0 53.21 11.0881 590 95.3271 197.454 469.315
2550 0 54.0234 11.8652 641 94.4384 197.513 467.669
2551 0 55.1101 11.0688 610 96.3689 197.726 468.889
2552 0 55.0262 10.5768 582 98.5515 197.763 468.595
2553 0 59.0428 10.5686 624 97.7051 197.494 463.984
2554 0 59.1247 11.5857 685 97.0686 198.15 463.4
2555 0 61.133 11.6304 711 97.0788 198.928 463.73
2556 0 62.1878 11.3366 705 98.9206 197.404 462.535
2557 0 65.1428 11.8202 770 97.3779 197.565 462.388
2558 0 69.1909 12.1548 841 97.0143 197.91 461.397
2559 0 71.1374 11.6816 831 98.0866 197.474 460.892
2560 0 74.1447 11.6529 864 98.9502 197.959 459.179
2561 0 73.1719 10.6598 780 102.197 198.355 456.899
2562 0 76.1444 12.2662 934 98.0471 197.458 455.899
2563 0 79.1584 11.5844 917 100.121 197.234 457.197
2564 0 83.2065 12.0063 999 99.2222 197.201 455.422
2565 0 85.1213 11.2545 958 102.277 197.542 453.528
2566 1 45.1082 10.3529 467 99.8587 197.692 471.987
2567 0 46.1075 10.584 488 100.242 197.637 471.672
2568 0 45.1504 9.94454 449 100.18 197.067 471.935
2569 0 47.1253 11.3315 534 96.6442 197.309 470.502
2570 0 50.2094 10.6554 535 98.1103 197.542 469.712
2571 0 51.1192 10.7592 550 98.0909 197.393 467.924
2572 0 53.1577 11.8327 629 96.4213 197.548 468.102
2573 0 53.1382 11.1219 591 98.9459 197.535 465.215
2574 0 56.1352 10.8132 607 99.5321 197.847 466.038
2575 0 59.0963 11.9128 704 95.8551 197.763 465.501
2576 0 59.1861 11.4216 676 97.7175 197.339 463.87
2577 0 63.1053 11.7264 740 96.5378 197.289 465.65
2578 0 65.0463 12.3297 802 95.7993 197.444 465.748
2579 0 66.073 11.8808 785 97.4076 197.172 463.869
2580 0 68.0807 11.883 809 97.9085 197.487 464.11
2581 0 70.1842 10.7289 753 101.454 197.255 460.951
2582 0 73.1055 13.4874 986 96.0223 197.277 460.742
2583 0 76.0598 12.3324 938 99.4403 197.437 458.823
2584 0 78.104 12.4706 974 100.601 197.674 457.211
2585 0 80.1771 11.8238 948 103.089 197.631 457.77
2586 0 82.1577 13.0359 1071 101.465 197.132 455.173
2587 1 42.0276 11.1117 467 101.788 198.06 479.011
2588 0 42.0446 9.44235 397 107.307 198.025 478.126
2589 0 44.0601 12.256 540 103.376 198.085 475.3
2590 0 47.0525 12.1141 570 104.798 198.158 476.156
2591 0 48.0819 10.8981 524 106.391 198.078 475.38
2592 0 48.1059 12.4309 598 105.035 197.659 460.948
2593 0 51.1215 12.617 645 103.416 198.24 465.774
2594 0 49.0899 12.4262 610 105.685 198.162 469.313
2595 0 53.1126 12.3888 658 104.321 198.312 473.228
2596 0 53.0599 12.4953 663 104.87 198.044 473.291
2597 0 54.0481 12.2299 661 105.744 197.955 471.271
2598 0 57.129 13.2332 756 102.067 197.803 471.455
2599 0 59.0696 12.2229 722 104.547 197.542 469.891
2600 0 58.0656 11.8487 688 104.314 198.051 464.603
2601 0 61.0553 13.021 795 104.813 198.074 467.659
2602 0 65.0556 12.3279 802 106.384 197.323 467.597
2603 0 67.1134 13.4399 902 104.949 197.715 465.47
2604 0 70.0819 13.6983 960 104.379 197.303 464.781
2605 0 71.1066 12.7555 907 108.159 197.506 463.97
2606 0 75.1206 13.658 1026 106.391 197.44 462.161
2607 0 76.0436 11.9142 906 107.528 197.125 448.525
2608 1 40.0506 10.0623 403 103.385 197.583 470.087
2609 0 42.0162 10.8768 457 101.611 197.869 470.225
2610 0 42.0719 11.5517 486 103.807 197.817 472.533
2611 0 42.0307 12.9429 544 98.818 197.693 473.108
2612 0 45.1415 12.494 564 98.8014 197.603 474.954
2613 0 46.1126 11.8623 547 100.174 197.47 475.715
2614 0 44.0635 11.0976 489 104.162 198.014 475.002
2615 0 46.0475 11.5099 530 104.383 197.93 472.86
2616 0 47.0674 12.4077 584 103.678 197.587 472.954
2617 0 49.0819 12.1022 594 104.981 197.099 472.279
2618 0 50.0698 11.8235 592 105.799 197.789 472.186
2619 0 52.0367 12.0492 627 105.646 197.501 471.86
2620 0 52.0261 11.5519 601 108.334 197.188 470.181
2621 0 52.0767 12.5584 654 108.214 197.133 468.575
2622 0 57.1845 12.8531 735 105.929 196.961 469.278
2623 0 57.167 12.6996 726 107.612 197.114 468.198
2624 0 61.1088 13.3041 813 106.649 196.517 461.658
2625 0 63.0217 13.7889 869 106.132 196.574 463.054
2626 0 64.0486 13.115 840 108.11 196.56 463.977
2627 0 65.0126 12.536 815 110.834 196.696 463.601
2628 0 69.0194 14.054 970 106.527 196.94 462.844
2629 0 71.0607 13.9318 990 108.774 196.652 458.194
2630 0 73.0605 13.3177 973 110.739 196.242 459.335
2631 0 74.0835 13.8762 1028 111.315 195.745 458.884
2632 0 76.093 14.0749 1071 111.128 196.386 456.182
2633 0 78.0594 12.8236 1001 115.801 195.896 455.371
2634 0 82.0907 12.9125 1060 118.871 195.928 456.798
2635 0 85.1681 13.9254 1186 119.003 195.602 454.06
2636 0 90.1174 15.846 1428 117.714 195.536 456.328
2637 0 92.0677 15.0324 1384 120.246 195.315 456.139
2638 0 95.129 14.6433 1393 120.492 194.962 456.956
2639 0 98.1266 14.308 1404 118.848 194.47 454.969
2640 1 51.0339 11.894 607 126.415 194.555 474.552
2641 0 53.1782 11.5085 612 115.662 195.842 472.173
2642 0 58.1308 13.9857 813 109.315 195.763 471.105
2643 0 59.1188 12.7371 753 113.065 194.906 471.418
2644 0 62.1726 12.7387 792 112.778 194.739 471.058
2645 0 63.0697 12.9539 817 113.387 194.154 467.859
2646 0 67.1721 13.4431 903 110.278 194.673 465.895
2647 0 68.0933 12.5269 853 113.397 194.989 468.438
2648 0 71.1438 13.1283 934 112.241 194.627 465.321
2649 0 73.1266 13.5655 992 111.34 194.552 464.701
2650 0 75.1152 12.4609 936 114.54 194.574 463.566
2651 0 78.1365 13.3612 1044 112.097 195.087 461.212
2652 0 82.1306 12.6506 1039 112.871 194.634 462.823
2653 0 82.1138 13.9319 1144 112.501 194.367 459.615
2654 0 86.1667 13.6944 1180 112.381 194.189 457.896
2655 0 91.1076 13.2371 1206 112.828 194.575 459.24
2656 0 92.1749 13.6046 1254 113.048 194.104 457.194
2657 0 95.1341 13.5283 1287 113.274 193.706 456.197
2658 1 48.054 11.2166 539 106.974 195.063 479.035
2659 0 51.0361 11.5017 587 107.48 194.807 480.891
2660 0 52.087 11.7112 610 106.125 195.102 477.154
2661 0 53.1473 11.5716 615 99.7496 195.367 474.4
2662 0 57.0716 12.3179 703 98.4125 195.942 470.698
2663 0 57.121 12.1497 694 99.9957 195.442 470.867
2664 0 59.172 10.4948 621 102.723 195.515 471.316
2665 0 60.1533 11.5538 695 101.862 195.872 471.128
2666 0 61.1131 11.6669 713 103.153 195.281 469.036
2667 0 66.1801 12.466 825 100.379 195.138 468.015
2668 0 67.1377 11.8711 797 103.738 195.341 464.716
2669 0 69.1641 12.3185 852 103.674 195.398 468.59
2670 0 72.0486 12.7275 917 103.401 195.73 468.225
2671 0 73.116 12.446 910 105.211 195.712 465.431
2672 0 76.1253 12.2693 934 105.805 196.015 465.551
2673 0 77.1052 11.9447 921 107.942 195.013 463.107
2674 0 82.2045 13.7219 1128 104.145 195.983 460.381
2675 0 86.1402 13.1878 1136 105.235 195.282 461.761
2676 0 86.1707 11.9762 1032 109.486 195.515 460.939
2677 0 91.1051 13.0618 1190 107.658 195.074 459.334
2678 1 44.0801 12.0463 531 108.322 195.582 480.96
2679 0 46.0622 11.5713 533 112.469 195.705 480.006
2680 0 47.0773 13.6159 641 109.006 195.643 478.362
2681 0 49.1501 12.0651 593 114.592 194.583 480.455
2682 0 52.1879 12.9724 677 111.759 195.043 479.352
2683 0 55.116 12.5009 689 113.702 194.338 476.464
2684 0 56.2691 13.7198 772 111.973 195.504 473.013
2685 0 57.2139 13.1262 751 115.137 194.967 474.358
2686 0 59.1047 12.3171 728 117.952 194.615 474.251
2687 0 60.1145 13.1915 793 117.439 194.467 472.048
2688 0 64.2426 12.3283 792 118.952 195.112 472.487
2689 0 66.1755 12.1646 805 119.678 194.944 471.801
2690 0 65.1648 13.3508 870 120.21 195.072 470.077
2691 0 69.1175 13.846 957 118.891 195.046 469.638
2692 0 73.1966 13.2247 968 120.223 195.842 468.959
2693 0 70.0969 13.0534 915 124.825 195.152 467.024
2694 0 76.2753 13.5037 1030 121.67 195.489 466.911
2695 0 75.1384 12.7099 955 127.127 195.114 464.707
2696 0 80.1683 13.3968 1074 124.104 195.006 464.197
2697 0 80.1856 13.344 1070 126.364 195.384 462.626
2698 0 85.1458 13.8233 1177 124.42 195.602 460.063
2699 0 87.158 13.4354 1171 126.148 195.777 459.558
2700 0 89.1923 13.5438 1208 126.44 195.949 459.373
2701 1 50.0601 10.3476 518 121.259 196.423 478.481
2702 0 49.0247 11.8104 579 122.25 197.19 479.028
2703 0 51.0126 11.7814 601 122.411 196.146 477.165
2704 0 51.0234 13.6016 694 111.718 194.54 477.035
2705 0 50.0614 11.5658 579 116.91 194.176 477.435
2706 0 54.0524 12.1919 659 114.414 194.279 477.187
2707 0 57.0282 12.5552 716 112.12 194.701 475.524
2708 0 56.0118 11.319 634 116.252 194.396 474.644
2709 0 61.1295 12.9888 794 110.63 194.417 473.77
2710 0 62.0572 11.9084 739 113.507 194.394 469.18
2711 0 64.0727 13.0945 839 109.528 194.713 472.269
2712 0 64.0422 11.7735 754 113.711 194.477 471.724
2713 0 67.0972 12.7576 856 109.222 194.468 469.751
2714 0 71.0258 12.1927 866 109.254 194.531 470.327
2715 0 71.0501 12.1182 861 109.735 194.113 467.515
2716 0 74.159 11.8394 878 104.579 194.793 442.716
2717 0 76.1159 10.484 798 107.66 195.919 452.216
2718 0 78.1101 11.5222 900 105.848 195.558 462.132
2719 0 81.1209 10.6261 862 107.034 194.921 459.181
2720 0 83.1851 10.2302 851 105.898 196.382 457.341
2721 0 87.1433 11.3835 992 103.573 196.233 455.747
2722 1 46.0833 10.8499 500 101.262 196.542 478.57
2723 0 46.108 11.3212 522 108.883 196.841 478.274
2724 0 47.1676 12.4662 588 105.762 196.815 478.099
2725 0 50.0914 11.9382 598 104.612 196.838 477.96
2726 0 51.131 11.715 599 104.225 197.205 475.245
2727 0 51.1131 11.6213 594 104.623 196.838 475.816
2728 0 52.0841 10.3295 538 107.861 196.381 474.55
2729 0 55.063 11.7865 649 103.695 196.103 473.908
2730 0 57.0735 11.7918 673 104.098 197.214 472.551
2731 0 59.0945 12.4039 733 102.499 196.632 470.771
2732 0 61.1267 11.468 701 104.317 196.274 471.146
2733 0 61.1297 11.8437 724 104.488 196.279 470.957
2734 0 64.068 12.0185 770 104.103 196.465 468.538
2735 0 68.1867 11.9525 815 103.307 196.21 469.22
2736 0 69.1062 12.1552 840 103.862 196.201 467.704
2737 0 70.1567 12.016 843 105.097 195.792 466.523
2738 0 73.1266 12.9775 949 102.877 195.789 464.701
2739 0 76.0743 12.4089 944 104.758 196.554 464.058
2740 0 78.1369 11.0831 866 109.121 196.308 454.679
2741 0 79.0879 12.9097 1021 106.572 196.329 462.988
2742 1 43.115 12.3159 531 111.595 196.418 479.058
2743 0 43.1797 11.0932 479 108.392 195.881 472.983
2744 0 42.0731 10.5055 442 103.303 196.204 475.029
2745 0 46.0546 11.3995 525 99.5676 196.457 473.194
2746 0 45.0865 9.69247 437 103.835 196.538 475.183
2747 0 49.0772 11.6144 570 100.128 196.679 469.284
2748 0 50.033 12.1919 610 116.297 197.289 475.962
2749 0 54.0669 13.7237 742 110.744 197.185 474.478
2750 0 53.0411 11.689 620 117.065 197.927 474.781
2751 0 55.025 12.7033 699 116.207 197.362 468.897
2752 0 59.0785 13.6429 806 112.077 197.985 472.495
2753 0 57.0569 13.285 758 116.719 197.517 472.821
2754 0 59.0217 14.0457 829 115.448 197.761 471.9
2755 0 62.057 14.1322 877 116.049 197.43 470.626
2756 0 65.0646 13.6787 890 117.896 196.894 460.398
2757 0 67.0937 13.7867 925 116.838 197.603 468.491
2758 0 69.0415 14.8461 1025 114.194 197.626 468.011
2759 0 71.1227 14.7773 1051 115.878 197.437 466.356
2760 0 74.1431 14.0269 1040 118.112 196.907 466.652
2761 0 75.206 13.7755 1036 119.699 197.126 465.84
2762 0 78.0727 14.6786 1146 118.208 197.257 463.145
2763 0 80.258 13.17 1057 124.253 196.252 462.752
2764 0 84.1326 13.8829 1168 121.993 196.213 460.277
2765 0 87.2147 13.6904 1194 122.831 195.865 460.426
2766 0 91.4925 14.6788 1343 115.216 195.381 455.774
2767 1 46.2059 12.8122 592 113.414 194.51 477.713
2768 0 46.2087 12.8114 592 153.883 194.51 477.713
2769 0 51.0467 13.1056 669 113.342 196.502 478.411
2770 0 49.0353 12.0933 593 118.078 196.361 478.331
2771 0 53.0815 13.0742 694 113.367 197.122 476.912
2772 0 56.05 12.8457 720 113.578 196.85 468.624
2773 0 58.0443 12.8695 747 113.446 196.565 470.438
2774 0 60.1286 13.0055 782 112.134 196.318 474.142
2775 0 61.1369 13.5761 830 110.858 196.46 475.798
2776 0 63.0824 13.8073 871 111.181 196.419 473.755
2777 0 67.1118 14.3641 964 108.211 195.698 473.687
2778 0 68.212 14.4843 988 109.015 196.256 470.551
2779 0 71.0891 13.1806 937 112.81 195.907 469.941
2780 0 73.1276 13.0594 955 114.044 195.995 468.666
2781 0 75.1379 14.8394 1115 108.908 195.872 468.308
2782 0 78.0554 14.336 1119 110.379 196.003 466.225
2783 0 81.1444 14.5666 1182 108.615 195.975 466.272
2784 0 83.1257 13.1848 1096 114.193 195.509 462.345
2785 0 86.1184 13.0518 1124 113.87 195.963 461.992
2786 0 87.2562 13.7755 1202 115.666 195.418 458.674
2787 0 91.1065 13.3031 1212 118.546 196.003 459.665
2788 0 94.2038 13.2266 1246 116.681 196.023 458.723
2789 1 48.228 11.7152 565 120.834 196.354 479.322
2790 0 52.0135 11.7662 612 121.402 196.729 477.699
2791 0 54.1274 13.3389 722 115.622 195.697 477.494
2792 0 54.1245 12.9147 699 117.624 196.02 476.514
2793 0 54.1372 13.8537 750 114.021 196.056 476.291
2794 0 55.1122 13.155 725 117.815 196.673 474.982
2795 0 56.1302 13.344 749 117.834 196.817 474.931
2796 0 58.1615 13.5829 790 117.418 196.681 472.789
2797 0 61.0698 12.8378 784 119.219 196.33 471.861
2798 0 63.0839 13.8863 876 116.374 196.168 471.158
2799 0 64.1382 12.7849 820 120.451 196.543 470.484
2800 0 67.0626 13.3159 893 119.169 195.775 461.608
2801 0 67.0823 13.0288 874 120.794 195.968 468.227
2802 0 70.0719 12.9724 909 120.748 196.198 467.535
2803 0 71.0749 13.7461 977 118.964 196.043 467.088
2804 0 74.079 13.1076 971 119.939 195.975 466.475
2805 0 77.0688 13.5982 1048 118.172 195.956 458.28
2806 0 81.0704 14.6909 1191 114.496 195.787 456.95
2807 0 85.1685 13.7844 1174 115.076 195.989 459.124
2808 0 84.1391 14.2383 1198 115.476 196.517 460.025
2809 0 89.2557 13.4557 1201 117.568 196.154 460.022
2810 0 91.0874 14.9417 1361 114.433 195.883 457.833
2811 0 93.1161 13.3167 1240 119.332 195.31 456.265
2812 0 99.1562 13.7964 1368 117.336 195.654 455.198
2813 0 101.081 13.4248 1357 118.477 195.735 452.887
2814 1 55.0598 12.5318 690 120.259 195.67 475.471
2815 0 55.2205 12.0426 665 122.842 194.579 472.598
2816 0 55.2219 12.984 717 120.749 195.304 473.665
2817 0 59.0525 13.6658 807 119.081 195.591 473.295
2818 0 59.2678 12.8906 764 121.933 195.119 471.945
2819 0 61.1773 13.2892 813 120.898 194.6 471.331
2820 0 63.1464 13.6983 865 120.545 194.867 469.394
2821 0 66.184 13.538 896 120.693 194.632 468.338
2822 0 70.1724 13.7091 962 119.002 194.809 469.078
2823 0 70.2131 13.2311 929 122.474 194.982 466.459
2824 0 71.2392 13.195 940 122.446 194.455 466.843
2825 0 75.1572 13.8111 1038 120.625 194.485 465.212
2826 0 77.2577 14.6005 1128 119.168 194.719 464.527
2827 0 80.2229 13.7118 1100 120.524 194.894 463.233
2828 0 85.1919 13.945 1188 119.411 195.198 455.693
2829 0 86.0621 13.467 1159 121.084 194.602 456.6
2830 0 90.1005 15.0277 1354 116.689 194.352 457.179
2831 0 93.2309 13.6865 1276 118.498 194.625 455.829
2832 0 97.1101 14.1386 1373 116.178 194.346 455.435
2833 0 98.2638 14.2372 1399 115.655 194.615 454.035
2834 0 101.253 13.5897 1376 118.219 195.552 453.92
2835 1 55.0434 11.6272 640 118.673 196.317 475.297
2836 0 57.1721 13.1008 749 115.765 194.801 473.993
2837 0 59.1814 11.6253 688 118.858 194.613 475.045
2838 0 61.161 13.3582 817 115.277 194.023 471.871
2839 0 65.0782 13.5068 879 113.634 194.179 472.048
2840 0 67.0758 13.2388 888 114.547 193.921 470.547
2841 0 68.0817 12.7934 871 115.635 193.884 469.117
2842 0 70.0736 13.6285 955 113.819 193.651 469.047
2843 0 74.088 13.484 999 114.474 193.615 465.544
2844 0 76.0469 14.0308 1067 113.317 193.699 466.14
2845 0 77.1214 12.7332 982 116.722 193.044 465.497
2846 0 81.175 13.28 1078 115.804 193.391 461.711
2847 0 82.2309 12.2338 1006 117.852 193.738 460.904
2848 0 87.2454 13.6168 1188 114.46 193.653 458.962
2849 0 90.2492 12.5098 1129 116.375 193.128 460.434
2850 0 94.1904 13.5683 1278 113.228 193.261 457.57
2851 1 50.1123 11.5541 579 113.335 193.266 477.665
2852 0 53.2491 12.1504 647 110.934 194.116 476.986
2853 0 53.2606 11.4156 608 113.822 194.339 474.9
2854 0 56.121 12.0632 677 112.055 195.476 473.591
2855 0 57.0689 12.2133 697 112.098 195.225 470.91
2856 0 60.0413 12.7079 763 109.857 195.738 472.693
2857 0 61.0429 12.4503 760 112.186 195.934 470.737
2858 0 64.0823 13.155 843 109.93 195.472 471.132
2859 0 66.0858 12.741 842 110.906 195.872 468.92
2860 0 67.1128 12.7696 857 110.28 195.221 469.426
2861 0 72.2139 13.2384 956 108.49 195.132 467.548
2862 0 73.0192 12.2981 898 110.62 195.141 468.095
2863 0 76.2203 13.9989 1067 105.343 195.758 467.037
2864 0 78.0242 12.432 970 110.291 195.064 464.106
2865 0 81.0827 12.6907 1029 102.109 194.759 465.025
2866 0 82.0782 13.0363 1070 102.502 194.627 462.695
2867 0 85.1043 11.3155 963 106.385 194.81 455.246
2868 0 88.0804 12.8292 1130 103.536 194.767 455.719
2869 0 89.1271 11.8931 1060 106.272 195.199 458.511
2870 0 92.2067 12.2334 1128 105.386 194.157 456.289
2871 0 96.177 12.2794 1181 104.662 194.769 455.888
2872 0 99.1506 12.0826 1198 105.468 194.157 454.701
2873 1 54.125 11.3256 613 106.824 195.648 476.284
2874 0 54.0804 13.2395 716 103.324 195.887 474.932
2875 0 57.0929 12.3833 707 102.86 195.871 466.792
2876 0 56.064 11.0588 620 108.031 196.297 474.079
2877 0 61.0816 12.9499 791 102.24 196.459 472.8
2878 0 62.153 12.244 761 104.862 195.928 470.865
2879 0 63.1055 11.9799 756 106.427 195.59 471.212
2880 0 66.2212 11.8995 788 106.471 195.977 469.72
2881 0 65.15 13.1236 855 105.676 195.401 468.718
2882 0 69.0958 12.2439 846 106.072 195.222 467.335
2883 0 71.1246 13.0756 930 104.349 195.903 467.345
2884 0 72.2339 12.5011 903 106.925 195.138 465.813
2885 0 74.0891 13.2813 984 105.23 194.104 465.761
2886 0 77.082 12.4153 957 107.718 193.543 465.121
2887 0 79.1402 11.7008 926 105.983 193.678 453.49
2888 0 84.2965 12.7052 1071 101.148 193.14 458.831
2889 0 84.1674 12.1662 1024 105.669 193.968 455.245
2890 0 86.3304 12.5332 1082 105.17 193.943 452.99
2891 0 91.2685 11.8113 1078 105.321 193.555 454.217
2892 0 93.171 11.8814 1107 105.101 193.572 453.352
2893 0 98.2669 12.7917 1257 103.406 193.977 450.309
2894 0 102.194 13.5918 1389 101.874 193.356 449.43
2895 1 55.1489 11.2604 621 104.565 193.823 470.06
2896 0 60.1865 13.2089 795 105.732 192.974 468.976
2897 0 59.1718 13.0468 772 108.031 193.155 471.124
2898 0 59.0766 12.3399 729 111.347 193.34 473.872
2899 0 62.0473 13.2157 820 109.18 193.285 471.873
2900 0 64.1161 12.337 791 111.755 193.757 470.312
2901 0 66.1201 13.8687 917 108 193.628 469.961
2902 0 69.1057 12.7341 880 109.281 193.182 460.799
2903 0 69.1356 13.4084 927 108.244 193.715 469.276
2904 0 71.0813 12.957 921 110.291 193.899 466.972
2905 0 73.0565 12.9078 943 111.091 193.585 467.094
2906 0 74.0966 13.4419 996 110.504 193.726 465.904
2907 0 78.154 14.9449 1168 105.443 193.864 464.501
2908 0 79.0879 13.2258 1046 111.84 193.805 462.494
2909 0 81.1178 12.7839 1037 113.483 193.799 460.653
2910 0 86.0561 13.2704 1142 110.729 193.701 460.778
2911 0 89.0664 15.1909 1353 106.164 193.676 458.25
2912 0 91.0952 13.4255 1223 110.622 193.668 457.058
2913 0 94.0547 14.1939 1335 109.509 194.156 454.213
2914 0 97.1608 14.1415 1374 109.444 193.74 438.031
2915 0 99.0621 14.0619 1393 108.798 194.085 447.68
2916 0 100.201 13.2733 1330 111.896 195.607 451.856
2917 0 108.097 14.0337 1517 107.568 195.386 450.163
2918 0 109.093 13.4931 1472 109.603 195.531 447.241
2919 0 112.115 14.1998 1592 107.399 194.992 444.742
2920 1 59.0523 10.55 623 111.111 194.735 473.555
2921 0 63.1415 12.2582 774 106.885 196.019 469.609
2922 0 64.1495 13.4685 864 106.647 195.902 467.698
2923 0 64.0982 13.6509 875 106.04 196.61 466.973
2924 0 66.0605 12.7459 842 108.11 196.391 465.22
2925 0 70.0554 13.3894 938 105.746 195.897 463.71
2926 0 70.0878 13.2405 928 107.886 193.839 464.779
2927 0 70.1105 12.5088 877 110.716 193.982 462.452
2928 0 76.1063 12.7453 970 107.676 193.854 462.178
2929 0 78.0765 12.6286 986 108.285 193.538 456.513
2930 0 79.0752 13.4429 1063 106.641 193.845 457.199
2931 0 83.1158 13.9925 1163 104.2 193.715 455.814
2932 0 87.2501 12.5272 1093 106.253 193.617 455.113
2933 0 87.3246 12.5165 1093 106.38 193.648 453.996
2934 0 92.1971 13.2651 1223 104.201 194.08 452.553
2935 0 93.1364 12.1113 1128 108.098 193.931 450.656
2936 0 98.2647 12.8225 1260 106.844 194.418 450.963
2937 0 102.263 13.8075 1412 111.033 193.774 451.467
2938 0 106.269 13.4093 1425 105.599 194.746 448.747
2939 1 59.1038 11.4037 674 111.699 195.381 469.881
2940 0 59.2201 11.6177 688 112.972 196.331 465.645
2941 0 62.0935 13.1415 816 108.409 196.281 464.453
2942 0 64.1122 11.8074 757 111.793 196.477 464.013
2943 0 66.1752 13.0109 861 108.113 196.182 462.688
2944 0 67.1591 13.133 882 109.028 196.535 460.805
2945 0 70.2268 13.4564 945 106.917 195.369 459.437
2946 0 75.2697 14.6141 1100 102.84 195.484 460.267
2947 0 75.3317 13.341 1005 107.396 195.209 457.161
2948 0 78.2477 12.1537 951 109.217 195.331 458.283
2949 0 81.2132 13.0151 1057 107.27 194.165 455.822
2950 0 85.3264 13.3019 1135 105.983 194.327 455.58
2951 0 87.2117 12.6015 1099 106.852 194.728 457.66
2952 0 89.2008 13.1837 1176 106.998 194.105 453.688
2953 0 93.1721 12.1066 1128 108.831 194.323 455.341
2954 0 96.2505 12.561 1209 108.538 194.398 451.539
2955 0 101.278 12.52 1268 107.857 193.969 449.542
2956 0 101.373 11.8474 1201 110.833 193.83 446.306
2957 1 53.1188 9.77056 519 108.975 194.696 470.933
2958 0 55.0434 11.1003 611 105.244 195.349 469.612
2959 0 58.0282 8.96116 520 99.1173 195.129 468.375
2960 0 59.1949 11.555 684 103.458 194.047 469.496
2961 0 60.0959 12.297 739 101.796 194.382 467.018
2962 0 62.0607 11.4888 713 105.241 194.425 469.495
2963 0 64.1277 10.5571 677 87.2112 194.708 469.581
2964 0 67.1069 11.7276 787 104.515 193.859 465.722
2965 0 69.2845 13.1487 911 101.648 194.215 463.802
2966 0 70.2998 11.2945 794 106.083 193.843 462.144
2967 0 72.264 10.5308 761 108.265 194.426 460.042
2968 0 75.6026 11.3488 858 107.063 194.001 458.22
2969 0 78.3723 12.4917 979 106.208 194.324 454.58
2970 0 79.1976 11.4271 905 110.439 194.033 458.08
2971 0 82.143 11.4435 940 111.389 193.193 453.85
2972 0 85.1302 11.8877 1012 110.909 192.825 454.673
2973 0 87.0621 12.2901 1070 110.755 192.375 454.323
2974 0 89.063 12.1375 1081 112.016 192.716 450.822
2975 0 90.1136 12.8948 1162 111.459 191.932 449.421
2976 0 95.0936 11.2731 1072 115.257 192.396 447.018
2977 0 95.2935 11.9735 1141 114.67 192.779 441.553
2978 0 99.287 11.9955 1191 114.32 192.509 441.039
2979 0 104.36 11.9969 1252 114.363 192.446 440.129
2980 0 105.198 12.89 1356 114.528 192.74 436.024
2981 0 107.209 11.8274 1268 118.085 192.845 433.292
2982 1 60.1189 9.29823 559 114.766 192.646 458.61
2983 0 64.0467 10.3987 666 113.36 192.887 459.29
2984 0 68.0471 10.7132 729 111.267 192.497 460.453
2985 0 67.0264 10.9061 731 112.369 192.71 457.973
2986 0 70.0544 11.6481 816 111.342 193.056 457.251
2987 0 71.0405 11.3597 807 114.429 192.269 455.035
2988 0 74.0594 11.7743 872 112.687 192.263 456.721
2989 0 75.0415 12.1533 912 112.31 192.24 455.048
2990 0 76.0519 11.5973 882 115.156 191.956 452.337
2991 0 80.0588 11.0919 888 115.407 192.293 450.097
2992 0 86.1075 13.1928 1136 108.702 192.211 450.772
2993 0 87.0969 12.8363 1118 111.11 192.062 447.473
2994 0 87.0716 11.3355 987 116.744 191.928 445.881
2995 0 92.0946 13.1604 1212 110.252 191.836 447.075
2996 0 95.1466 12.2653 1167 112.799 191.816 444.523
2997 0 99.1254 12.9129 1280 111.868 192.649 442.448
2998 0 103.054 12.2266 1260 113.643 192.351 427.229
2999 0 110.212 11.5596 1274 112.399 192.785 438.642
3000 1 51.1327 9.3091 476 106.939 193.074 463.975
3001 0 53.2626 8.48626 452 107.954 193.666 465.241
3002 0 53.0911 9.00339 478 101.046 193.513 464.067
3003 0 54.092 8.33765 451 100.643 194.204 468.064
3004 0 56.2203 10.0675 566 99.5583 193.857 466.527
3005 0 56.1049 9.25052 519 102.303 194.227 464.006
3006 0 58.0921 7.67747 446 103.706 194.392 465.657
3007 0 60.0768 8.38926 504 101.095 194.242 466.712
3008 0 66.0956 9.97041 659 99.5964 193.287 464.405
3009 0 66.1364 10.2667 679 100.922 193.769 459.857
3010 0 69.1605 9.62978 666 101.892 193.503 462.964
3011 0 72.0831 9.61391 693 101.304 193.179 459.558
3012 0 74.1504 9.52119 706 101.822 193.405 457.98
3013 0 77.1148 10.9836 847 98.7792 194.074 457.502
3014 0 77.3147 9.4678 732 102.134 193.462 457.357
3015 0 80.096 8.56473 686 104.176 193.267 456.529
3016 0 84.121 10.4136 876 102.002 193.083 456.111
3017 0 87.1059 10.2519 893 103.744 193.733 457.363
3018 0 90.154 9.23974 833 106.299 194.2 455.044
3019 0 94.2942 11.4323 1078 102.408 194.276 452.026
3020 1 49.0295 10.3203 506 100.366 194.958 472.563
3021 0 50.0907 9.58262 480 97.6333 193.727 466.538
3022 0 52.0849 10.3485 539 93.6642 193.892 468.098
3023 0 54.0261 9.82859 531 95.5386 193.629 468.915
3024 0 54.101 10.4434 565 96.2142 193.758 467.327
3025 0 57.1625 11.3361 648 95.1219 194.003 468.4
3026 0 57.155 11.1451 637 96.8932 193.578 467.148
3027 0 57.1345 10.379 593 99.7943 194.002 466.722
3028 0 59.0935 10.8472 641 99.4477 194.697 468.285
3029 0 64.1025 11.7936 756 97.1587 194.18 466.552
3030 0 65.1433 11.9736 780 97.1667 193.878 465.335
3031 0 65.1281 12.2067 795 98.0164 193.908 464.244
3032 0 66.0755 11.0782 732 100.712 193.949 463.542
3033 0 70.1188 11.9084 835 99.4347 193.838 457.651
3034 0 70.1805 11.043 775 101.803 193.928 462.388
3035 0 72.0852 10.8205 780 104.908 194.287 459.585
3036 0 75.1233 13.3248 1001 99.8102 193.692 459.653
3037 0 75.1101 11.9425 897 109.09 194.407 456.379
3038 0 77.0714 10.4319 804 111.108 194.047 457.104
3039 0 81.0987 12.047 977 105.766 194.609 452.357
3040 0 84.1535 12.1564 1023 106.205 194.497 454.006
3041 0 85.1712 11.835 1008 110.791 194.553 456.089
3042 0 94.1704 14.4738 1363 111.141 194.765 459.155
3043 0 93.1551 14.0733 1311 113.756 195.096 452.817
3044 0 97.1999 14.2284 1383 113.195 194.84 454.288
3045 0 99.1118 13.6513 1353 113.436 194.746 452.909
3046 1 52.0288 11.1285 579 108.221 195.81 475.724
3047 0 55.0501 12.5159 689 109.421 196.032 475.057
3048 0 55.0742 12.5104 689 107.068 196.019 475.965
3049 0 54.0787 11.9086 644 100.826 196.087 476.764
3050 0 54.1283 13.5789 735 104.876 196.456 472.977
3051 0 56.0512 12.9524 726 106.227 196.127 475.179
3052 0 57.102 12.8892 736 106.341 195.571 474.299
3053 0 59.0686 14.1022 833 102.248 196.411 473.79
3054 0 58.0725 12.4327 722 108.157 196.114 473.565
3055 0 61.0909 13.5863 830 103.142 196.157 472.167
3056 0 64.1078 12.2138 783 104.926 195.729 471.98
3057 0 65.0905 12.7976 833 103.166 196.437 469.097
3058 0 68.1456 12.6934 865 102.258 195.705 467.926
3059 0 68.0793 13.3521 909 101.422 195.256 468.04
3060 0 70.1875 12.3384 866 103.865 195.143 465.188
3061 0 71.0877 12.5901 895 104.455 195.383 466.293
3062 0 74.1827 13.1163 973 103.918 194.895 456.294
3063 0 77.0573 13.2758 1023 103.69 194.697 458.264
3064 0 78.1764 12.5869 984 106.951 194.739 459.922
3065 0 81.0885 14.626 1186 101.932 195.123 461.454
3066 0 84.0843 13.32 1120 105.813 195.203 459.737
3067 0 85.0904 13.4563 1145 107.231 195.059 459.39
3068 0 84.0922 12.0939 1017 113.118 194.894 458.947
3069 0 90.1594 13.0325 1175 110.933 195.563 457.294
3070 0 93.1479 13.6986 1276 111.172 195.308 455.103
3071 1 50.0513 11.4682 574 116.007 196.239 477.223
3072 0 49.0601 10.6808 524 110.086 195.777 471.613
3073 0 48.0226 11.1822 537 109.425 195.691 469.866
3074 0 51.2692 9.967 511 107.634 194.632 470.313
3075 0 51.1055 11.4665 586 105.379 195.051 471.087
3076 0 52.1734 10.6568 556 108.995 194.941 468.369
3077 0 56.0733 11.4136 640 107.184 194.67 469.488
3078 0 56.1159 12.8484 721 105.523 194.512 466.14
3079 0 57.1589 11.2668 644 110.025 194.581 467.04
3080 0 58.1009 11.3768 661 111.106 194.927 466.371
3081 0 62.0424 11.5244 715 110.592 194.287 463.603
3082 0 64.0384 11.5243 738 110.93 195.016 465.03
3083 0 65.0718 12.4171 808 110.562 194.48 463.286
3084 0 66.1 11.1498 737 115.22 195.073 462.765
3085 0 68.0731 12.134 826 113.395 194.798 459.245
3086 0 71.0307 12.741 905 112.008 195.232 458.4
3087 0 72.1353 12.3241 889 114.02 194.287 459.81
3088 0 75.0575 12.8568 965 112.742 194.608 453.893
3089 0 76.0822 12.0265 915 114.748 194.731 456.699
3090 0 79.1027 12.882 1019 112.782 195.238 456.029
3091 0 81.0503 12.8932 1045 112.898 194.235 455.418
3092 0 83.0599 12.0636 1002 117.343 194.171 452.954
3093 0 87.0938 13.296 1158 114.088 194.203 451.344
3094 0 87.1241 12.2699 1069 118.76 193.869 448.169
3095 0 90.1448 12.613 1137 123.582 194.184 446.011
3096 0 93.0511 12.1869 1134 128.481 195.16 445.764
3097 1 50.1466 12.6629 635 128.304 194.924 470.654
3098 0 53.2786 11.468 611 122.417 194.668 463.843
3099 0 54.1917 12.585 682 118.375 194.418 464.93
3100 0 53.0569 11.2898 599 115.175 194.815 466.668
3101 0 57.0402 11.9565 682 112.792 194.617 465.919
3102 0 58.0588 12.3668 718 112.419 194.655 464.845
3103 0 62.0289 12.5909 781 110.944 194.661 464.456
3104 0 63.0859 11.4289 721 113.835 194.903 464.68
3105 0 65.0715 12.1559 791 112.901 194.85 461.006
3106 0 68.2121 12.5784 858 111.422 194.9 461.256
3107 0 69.082 12.0002 829 113.551 194.858 462.396
3108 0 71.0443 13.2171 939 111.637 194.761 458.645
3109 0 74.0542 12.9905 962 111.407 194.295 458.659
3110 0 76.049 12.9785 987 112.267 194.894 457.896
3111 0 79.0425 12.4743 986 114.273 194.06 448.33
3112 0 79.0973 12.4151 982 114.805 194.825 454.846
3113 0 83.2285 12.5077 1041 114.758 194.594 452.615
3114 0 89.0706 11.6537 1038 116.677 195.362 451.758
3115 0 90.0819 12.966 1168 114.413 195.158 449.08
3116 0 93.1047 13.7265 1278 112.204 194.784 446.018
3117 0 96.1957 11.2479 1082 120.108 194.376 432.267
3118 0 99.1534 12.9496 1284 115.973 193.952 441.884
3119 0 103.145 13.195 1361 116.556 194.177 439.751
3120 1 54.1447 11.2476 609 114.81 194.663 467.885
3121 0 55.1482 11.0974 612 119.121 194.724 466.562
3122 0 57.0642 11.4082 651 111.516 194.343 464.584
3123 0 58.088 12.2573 712 110.624 194.973 463.841
3124 0 62.0551 11.0225 684 112.575 195.219 463.155
3125 0 63.0417 11.8493 747 112.764 195.403 447.293
3126 0 65.0464 11.2843 734 113.455 195.726 456.775
3127 0 69.0691 11.5392 797 113.184 195.934 458.045
3128 0 71.0404 12.5985 895 110.045 195.267 460.859
3129 0 74.1376 11.9912 889 111.548 195.04 459.917
3130 0 76.0187 12.9179 982 110.284 195.112 457.265
3131 0 79.0518 13.7125 1084 108.189 195.268 451.501
3132 0 82.0714 12.7816 1049 110.193 195.173 455.439
3133 0 84.0731 14.0354 1180 107.658 195.244 454.247
3134 0 86.0938 13.7524 1184 108.98 195.751 454.477
3135 0 89.0473 13.0492 1162 111.694 196.299 452.479
3136 0 91.1034 13.2597 1208 111.727 195.988 452.237
3137 0 93.1135 12.2539 1141 114.492 195.53 449.152
3138 0 97.171 13.008 1264 113.184 196.029 448.999
3139 0 100.045 14.0138 1402 112.414 195.569 444.991
3140 0 103.153 12.2439 1263 114.568 196.15 444.112
3141 0 109.111 13.2984 1451 111.704 196.479 441.474
3142 0 111.097 12.5927 1399 114.447 195.991 441.886
3143 1 58.0525 10.8695 631 110.455 196.583 468.458
3144 0 61.0889 11.6224 710 109.013 196.175 468.558
3145 0 63.0877 12.1735 768 107.099 196.333 468.086
3146 0 64.0764 11.8921 762 106.828 195.521 467.663
3147 0 68.0668 11.9001 810 106.931 195.202 466.46
3148 0 69.0825 11.0448 763 110.271 195.675 464.081
3149 0 69.1809 11.0291 763 112.275 194.975 463.849
3150 0 74.0508 11.9107 882 111.638 195.06 441.615
3151 0 77.1335 12.1867 940 110.378 194.746 441.788
3152 0 79.0835 12.0758 955 109.924 195.422 455.83
3153 0 80.0971 11.8981 953 110.423 194.908 458.13
3154 0 84.1155 12.4828 1050 109.146 195.011 456.753
3155 0 87.0385 12.5806 1095 110.447 195.208 455.275
3156 0 88.0763 12.2167 1076 112.783 195.347 451.849
3157 0 93.2197 12.0683 1125 113.644 195.295 448.775
3158 0 95.0583 12.3082 1170 113.549 195.351 446.694
3159 0 99.1326 12.7002 1259 113.03 195.573 436.817
3160 0 102.148 12.6386 1291 113.637 195.03 444.436
3161 0 102.106 12.5752 1284 116.034 195.158 442.156
3162 0 107.269 12.6131 1353 117.803 195.178 442.678
3163 0 112.145 12.2966 1379 115.737 195.603 442.666
3164 0 113.161 11.9475 1352 119.194 195.385 436.359
3165 0 120.186 12.3392 1483 118.623 195.131 433.155
3166 1 65.1354 10.9925 716 120.52 195.814 470.135
3167 0 67.0988 13.0107 873 117.388 194.529 469.497
3168 0 69.1423 12.872 890 115.353 194.976 467.235
3169 0 70.1355 12.5899 883 116.989 195.133 466.478
3170 0 75.0744 13.147 987 108.275 195.18 462.8
3171 0 77.1988 12.7981 988 109.645 194.14 461.743
3172 0 80.0406 12.5686 1006 112.168 195.177 461.859
3173 0 82.0776 12.8902 1058 110.576 194.283 458.45
3174 0 86.1159 12.309 1060 111.319 194.71 457.399
3175 0 90.1887 13.2943 1199 108.783 194.674 455.198
3176 0 92.0763 13.1739 1213 109.857 195.261 455.524
3177 0 95.1222 13.3302 1268 108.75 194.393 453.632
3178 0 99.2081 12.4183 1232 111.14 194.188 451.367
3179 0 102.08 12.6469 1291 111.39 194.497 453.122
3180 0 104.099 11.9982 1249 113.321 194.906 451.791
3181 0 110.081 13.0631 1438 111.617 193.947 450.173
3182 0 111.071 12.2804 1364 113.533 194.276 449.419
3183 0 115.161 12.7995 1474 113.777 194.11 442.809
3184 0 118.25 12.2791 1452 115.309 194.231 439.864
3185 0 124.141 12.8402 1594 113.406 193.977 437.862
3186 1 66.293 9.17141 608 112.268 194.776 463.377
3187 0 71.2187 11.7946 840 107.507 194.718 461.737
3188 0 75.2095 11.0092 828 106.973 194.388 462.764
3189 0 74.2702 10.8119 803 108.649 194.917 458.924
3190 0 78.1743 12.0884 945 106.249 194.966 459.266
3191 0 80.2651 11.0384 886 110.291 194.659 457.872
3192 0 83.238 10.2838 856 112.544 194.821 454.737
3193 0 86.3607 12.3436 1066 108.338 194.437 454.414
3194 0 89.3056 11.7238 1047 110.887 194.503 454.122
3195 0 90.1253 11.8169 1065 112.263 195.127 452.488
3196 0 94.2139 11.113 1047 113.366 194.539 450.103
3197 0 98.1665 13.1511 1291 109.121 194.433 447.214
3198 0 101.121 12.0351 1217 112.058 194.56 450.247
3199 0 104.097 12.4115 1292 112.602 194.853 447.878
3200 0 108.193 12.2743 1328 112.614 194.765 445.297
3201 0 111.219 12.2461 1362 112.532 194.483 439.413
3202 0 117.183 13.2954 1558 109.792 194.073 440.487
3203 1 62.0926 10.9353 679 114.747 193.801 471.496
3204 0 64.0297 11.6977 749 112.461 193.577 471.615
3205 0 65.1159 12.0094 782 112.5 195.07 470.05
3206 0 68.1411 13.3987 913 110.073 195.154 468.083
3207 0 71.0112 12.998 923 116.406 194.694 465.62
3208 0 71.0405 12.7251 904 117.472 195.561 466.338
3209 0 73.0697 12.9876 949 117.224 195.128 464.872
3210 0 74.1519 13.4858 1000 117.016 194.881 460.694
3211 0 80.0446 12.8428 1028 116.433 194.97 462.986
3212 0 83.0678 13.194 1096 115.855 194.986 459.953
3213 0 87.2716 13.2918 1160 114.391 193.859 458.094
3214 0 89.2506 13.7478 1227 113.735 194.095 456.363
3215 0 92.152 13.0654 1204 116.103 193.702 453.827
3216 0 94.2281 12.9155 1217 116.068 193.744 452.577
3217 0 97.2741 13.4465 1308 114.642 194.43 451.141
3218 0 100.189 14.0335 1406 114.349 194.069 449.317
3219 0 104.273 14.4525 1507 113.105 194.328 447.767
3220 0 105.347 13.878 1462 114.873 194.608 447.163
3221 0 108.224 13.509 1462 117.256 193.999 435.445
3222 0 113.272 14.9198 1690 113.605 194.349 443.157
3223 0 116.352 13.8288 1609 115.838 194.176 443.836
3224 0 119.245 14.6086 1742 114.513 194.026 440.236
3225 0 118.245 14.6645 1734 147.651 194.048 440.159
3226 0 126.351 13.9532 1763 115.479 194.702 435.159
3227 0 131.212 13.7411 1803 114.108 194.988 434.975
3228 0 136.202 15.6752 2135 107.615 193.923 435.832
3229 0 136.203 15.6678 2134 143.84 193.92 435.926
3230 1 70.1397 13.4018 940 108.376 194.247 463.235
3231 0 72.2117 13.3635 965 112.562 193.592 464.815
3232 0 75.1832 13.5802 1021 112.553 193.769 462.417
3233 0 75.1011 13.7681 1034 114.391 194.023 461.338
3234 0 78.173 12.8049 1001 115.285 193.842 461.669
3235 0 82.0747 13.0735 1073 115.077 193.958 460.438
3236 0 84.1104 13.6131 1145 114.794 194.19 457.659
3237 0 88.1956 14.0823 1242 111.941 194.587 458.609
3238 0 91.0988 13.6775 1246 113.829 194.183 434.081
3239 0 93.1141 13.6821 1274 114.001 194.39 441.622
3240 0 95.1639 13.3874 1274 116.171 194.431 439.951
3241 0 98.1227 13.8398 1358 116.057 194.425 438.469
3242 0 101.154 13.6228 1378 117.507 194.231 440.078
3243 0 105.107 14.1094 1483 117.871 193.554 448.426
3244 0 107.161 13.6897 1467 122.021 194.203 446.782
3245 0 108.161 14.2473 1541 151.846 195.226 447.724
3246 0 114.171 14.0491 1604 113.016 194.492 437.908
3247 0 119.139 14.3614 1711 115.8 193.933 439.618
3248 1 61.0575 10.3345 631 111.233 194.369 466.905
3249 0 63.0613 10.8149 682 113.087 194.686 435.928
3250 0 65.0803 11.1093 723 110.696 194.533 440.066
3251 0 67.1493 11.5712 777 107.717 195.158 456.885
3252 0 69.0571 11.8308 817 107.306 195.459 462.471
3253 0 73.0497 10.6503 778 109.629 195.374 462.127
3254 0 74.1346 10.8586 805 109.934 195.431 461.516
3255 0 78.0844 12.3328 963 107.251 195.396 461.031
3256 0 78.1171 11.9948 937 110.58 195.328 458.762
3257 0 81.0645 12.8416 1041 108.91 195.155 457.618
3258 0 84.124 12.3033 1035 109.609 195.482 458.835
3259 0 85.1384 12.1919 1038 110.692 195.956 458.351
3260 0 88.1424 11.7197 1033 112.847 195.687 455.652
3261 0 91.1029 12.1621 1108 111.941 195.491 455.588
3262 0 93.1122 12.7803 1190 111.001 195.005 454.041
3263 0 96.1117 12.1733 1170 113.515 195.249 451.633
3264 0 100.193 13.1745 1320 111.361 194.551 445.229
3265 0 103.18 12.9677 1338 112.265 195.378 447.92
3266 0 105.112 12.7864 1344 114.216 194.641 446.256
3267 0 108.089 12.3417 1334 116.292 194.825 445.103
3268 0 110.134 12.4848 1375 117.764 194.89 446.019
3269 0 116.105 12.3595 1435 118.776 195.243 445.412
3270 1 65.0881 12.9056 840 115.142 195.804 469.294
3271 0 65.1541 12.8311 836 114.699 196.012 469.757
3272 0 68.0683 12.6491 861 115.463 196.197 468.505
3273 0 71.0827 12.9708 922 113.174 196.094 467.513
3274 0 70.1304 13.7458 964 113.461 196.334 466.399
3275 0 75.0404 14.6321 1098 108.85 195.874 466.389
3276 0 76.0715 12.7512 970 116.79 195.976 455.697
3277 0 78.1615 13.9967 1094 113.451 196.231 462.979
3278 0 80.0296 14.3197 1146 113.294 196.213 462.303
3279 0 84.1486 13.4405 1131 116.177 196.866 459.612
3280 0 85.1289 13.5442 1153 117.774 196.277 456.738
3281 0 87.1327 13.841 1206 118.307 196.543 456.368
3282 0 90.1292 14.2129 1281 117.398 196.715 453.091
3283 0 94.2148 15.1993 1432 114.242 196.525 448.438
3284 0 97.1441 14.2366 1383 117.978 196.256 443.543
3285 0 99.1647 13.9465 1383 118.683 196.302 451.388
3286 0 105.233 13.95 1468 117.928 196.091 435.879
3287 0 107.205 14.7754 1584 116.52 196.139 444.741
3288 1 57.0851 11.8069 674 124.708 194.791 474.387
3289 0 57.2558 12.0861 692 121.4 195.585 466.532
3290 0 58.256 11.6039 676 118.43 195.075 464.265
3291 0 60.0301 11.5442 693 119.097 195.423 465.03
3292 0 62.0396 10.8479 673 120.244 195.801 463.602
3293 0 64.0787 12.4847 800 115.819 195.382 464.527
3294 0 68.1379 10.7282 731 118.78 195.691 463.278
3295 0 70.0566 11.8761 832 116.88 195.562 460.959
3296 0 70.0371 11.2797 790 119.596 195.69 459.418
3297 0 76.1154 11.4037 868 116.823 195.831 459.41
3298 0 77.2003 11.93 921 115.341 195.615 459.622
3299 0 83.2561 12.3955 1032 112.178 195.614 436.067
3300 0 83.1435 11.847 985 115.901 195.939 453.301
3301 0 89.2231 13.3373 1190 116.978 196.942 458.624
3302 0 90.2993 12.5915 1137 120.652 196.453 457.617
3303 1 51.072 13.1383 671 120.852 197.301 476.405
3304 0 51.0589 13.1417 671 121.593 197.656 477.091
3305 0 54.0629 12.7814 691 122.556 195.168 473.368
3306 0 54.0946 12.9218 699 123.847 194.662 471.834
3307 0 56.0146 12.3004 689 126.295 195.433 472.779
3308 0 58.0778 12.1733 707 126.065 196.256 472.191
3309 0 60.2112 14.3993 867 118.591 197.272 471.247
3310 0 61.1285 13.578 830 121.933 196.964 470.812
3311 0 63.093 13.8843 876 121.352 196.432 469.647
3312 0 64.0998 13.6818 877 122.693 196.558 468.617
3313 0 66.1045 13.4787 891 123.383 196.383 468.668
3314 0 71.1311 14.7896 1052 118.193 196.69 467.752
3315 0 71.1047 13.3043 946 123.24 195.949 466.359
3316 0 74.1356 14.3521 1064 120.422 196.128 465.551
3317 0 76.1866 15.1208 1152 119.128 195.99 464.668
3318 0 78.1951 13.5686 1061 124.562 196.618 463.011
3319 0 81.3157 15.1508 1232 120.796 195.873 461.725
3320 0 84.2301 14.3773 1211 123.752 196.092 460.812
3321 0 86.2584 13.8769 1197 126.06 195.9 458.301
3322 0 88.2019 14.4215 1272 125.59 196.128 457.908
3323 0 92.2915 13.6199 1257 128.098 195.795 456.113
3324 0 95.257 15.264 1454 123.061 195.917 457.213
3325 1 51.2062 11.8345 606 128.865 196.63 476.282
3326 0 51.1787 10.9616 561 127.907 196.654 474.18
3327 0 51.077 11.4533 585 123.786 196.432 470.814
3328 0 53.1352 11.913 633 123.087 196.915 470.626
3329 0 54.0856 11.0381 597 121.883 196.392 469.881
3330 0 55.1428 10.627 586 120.278 195.993 471.119
3331 0 57.0989 11.016 629 119.998 195.776 468.723
3332 0 59.0779 11.104 656 120.238 195.845 468.692
3333 0 62.0423 11.2826 700 119.41 195.761 467.534
3334 0 63.1105 11.6621 736 119.825 195.666 465.11
3335 0 66.0557 12.4592 823 116.748 196.448 464.609
3336 0 68.2167 11.1703 762 120.265 196.51 462.361
3337 0 71.1335 12.104 861 117.567 195.913 462.262
3338 0 72.0666 11.4478 825 121.485 195.638 458.628
3339 0 76.1216 11.705 891 119.462 196.001 457.859
3340 0 78.0959 11.345 886 121.218 196.064 458.734
3341 0 83.1307 11.8729 987 119.869 195.554 456.315
3342 0 86.1828 12.6127 1087 119.016 195.807 454.371
3343 0 87.2297 11.9913 1046 121.3 196.337 454.168
3344 0 92.1188 12.6359 1164 125.726 196.552 458.02
3345 1 52.189 12.244 639 128.186 195.571 477.377
3346 0 54.2703 13.1564 714 127.472 196.532 474.06
3347 0 55.0887 13.0517 719 128.586 196.428 461.236
3348 0 55.0668 13.4201 739 130.317 196.399 461.465
3349 0 58.0455 13.455 781 128.563 196.972 461.063
3350 0 58.0803 12.7754 742 132.642 196.838 460.965
3351 0 61.0541 14.1186 862 127.683 197.046 463.028
3352 0 62.0979 13.9457 866 128.344 196.745 465.468
3353 0 64.0501 13.6612 875 129.863 196.448 466.543
3354 0 65.0284 13.6402 887 130.362 196.43 469.985
3355 0 68.0554 14.2531 970 128.802 196.439 468.907
3356 0 69.0504 13.5264 934 131.286 196.473 468.638
3357 0 73.1247 13.4838 986 130.213 196.793 467.249
3358 0 76.1188 14.5562 1108 126.771 196.133 467.042
3359 0 76.1293 14.1995 1081 130.75 195.104 463.152
3360 0 78.1026 14.3145 1118 129.674 195.575 464.707
3361 0 83.1605 14.0571 1169 129.749 195.34 461.399
3362 0 86.1162 16.4429 1416 122.265 195.548 450.995
3363 0 87.0922 13.7096 1194 131.058 195.661 453.634
3364 0 91.1717 14.1052 1286 130.244 195.558 453.887
3365 0 91.1636 13.0973 1194 133.462 195.634 457.064
3366 0 94.138 13.8308 1302 124.071 195.239 455.501
3367 0 97.1215 13.478 1309 126.238 194.677 452.125
3368 0 102.205 13.8448 1415 125.593 194.78 448.356
3369 0 106.14 13.0959 1390 125.236 194.069 434.871
3370 0 108.149 13.4907 1459 124.443 194.396 435.101
3371 0 111.136 13.0291 1448 126.965 194.43 437.672
3372 1 58.1498 10.387 604 121.575 194.944 469.075
3373 0 61.0688 12.3958 757 118.592 194.941 468.209
3374 0 63.1503 14.2359 899 125.066 194.605 468.762
3375 0 65.1858 13.2084 861 127.006 195.626 470.98
3376 0 69.1034 15.4406 1067 121.834 194.973 454.573
3377 0 70.2073 13.0186 914 129.603 194.683 456.788
3378 0 71.1685 13.8404 985 128.031 195.588 458.93
3379 0 72.1209 14.1845 1023 128.283 195.72 464.227
3380 0 75.1545 13.3724 1005 130.779 195.445 464.259
3381 0 79.2481 13.5902 1077 128.882 195.223 464.723
3382 0 80.1292 13.94 1117 128.415 195.264 462.914
3383 0 84.2383 14.9101 1256 124.515 195.035 460.822
3384 0 86.1573 13.9164 1199 128.603 194.64 459.789
3385 0 89.2178 13.383 1194 126.309 195.493 460.157
3386 0 91.1401 12.8045 1167 126.093 195.854 459.194
3387 0 94.1515 12.8623 1211 125.252 195.138 456.023
3388 0 96.2848 13.8755 1336 101.286 194.705 452.058
3389 1 52.0551 12.0641 628 124.893 194.134 476.834
3390 0 53.0854 11.717 622 130.008 196.162 469.122
3391 0 52.0768 11.3294 590 124.659 195.375 471.993
3392 0 53.0514 11.9695 635 124.427 196.414 469.291
3393 0 59.0628 13.6126 804 126.055 196.016 473.774
3394 0 60.0223 12.1955 732 131.15 196.182 472.714
3395 0 61.1826 13.3862 819 128.177 195.943 471.552
3396 0 64.1217 13.7551 882 125.617 196.34 471.524
3397 0 66.08 14.9213 986 123.271 195.675 470.324
3398 0 67.0834 13.5205 907 127.368 195.579 469.707
3399 0 69.1123 13.4998 933 127.731 195.62 467.409
3400 0 69.1697 12.6645 876 132.024 195.667 465.482
3401 0 74.0872 13.3491 989 128.446 195.25 464.799
3402 0 75.1517 13.5859 1021 129.324 195.259 463.33
3403 0 77.0822 14.1278 1089 129.615 195.45 463.33
3404 0 82.09 14.3014 1174 127.949 195.284 460.946
3405 0 86.118 14.3872 1239 127.564 195.423 459.489
3406 0 90.1958 13.6037 1227 129.75 194.996 459.396
3407 0 90.2452 13.2971 1200 131.882 195.179 456.861
3408 1 44.0863 11.1372 491 134.921 194.552 479.599
3409 0 45.0722 10.4499 471 122.843 195.389 473.915
3410 0 48.1795 10.3364 498 121.586 195.542 473.157
3411 0 51.0369 11.9325 609 117.212 195.714 461.795
3412 0 50.2489 12.0401 605 119.145 195.939 470.818
3413 0 52.0481 11.7583 612 121.142 195.126 478.895
3414 0 53.1736 12.1489 646 119.994 195.964 471.892
3415 0 57.0469 12.2706 700 118.939 195.717 474.06
3416 0 59.0345 13.2973 785 116.285 195.383 474.555
3417 0 59.0479 12.837 758 121.686 195.724 472.708
3418 0 61.0502 12.0393 735 123.103 195.645 472.804
3419 0 65.1698 13.7641 897 117.87 194.921 465.854
3420 0 67.0862 13.356 896 120.674 194.945 449.666
3421 0 68.0739 13.7644 937 121.678 195.053 450.005
3422 0 70.0595 13.3601 936 124.009 195.379 453.268
3423 0 73.2437 13.6394 999 123.963 194.615 459.602
3424 0 76.177 13.8624 1056 124.124 194.212 460.833
3425 0 80.2424 13.858 1112 124.149 194.504 461.981
3426 0 81.2184 15.0089 1219 123.345 194.368 460.78
3427 0 83.2926 13.0984 1091 130.139 194.745 460.963
3428 0 85.3439 14.0256 1197 128.259 194.43 457.983
3429 0 89.179 14.2074 1267 127.65 194.549 456.527
3430 0 93.2716 14.2702 1331 126.862 194.816 455.338
3431 0 95.26 14.5077 1382 126.323 194.644 454.744
3432 0 99.1573 14.3207 1420 127.985 194.765 450.149
3433 1 51.2068 11.6977 599 129.492 194.746 473.554
3434 0 54.1689 12.5902 682 125.707 194.853 472.821
3435 0 52.0712 12.4445 648 128.451 195.978 475.106
3436 0 57.0549 13.3205 760 124.363 196.279 474.72
3437 0 59.0168 12.7421 752 125.387 196.303 474.136
3438 0 57.0241 13.6784 780 128.083 195.486 473.528
3439 0 61.1256 13.6113 832 126.167 195.404 472.454
3440 0 65.0887 13.8273 900 124.516 195.081 471.844
3441 0 64.0973 12.871 825 127.686 194.544 472.847
3442 0 65.1037 13.4247 874 128.529 194.709 470.079
3443 0 67.0661 13.9564 936 127.109 195.022 468.868
3444 0 69.0789 13.5208 934 127.83 195.018 468.315
3445 0 70.1565 13.3701 938 129.461 195.122 468.777
3446 0 73.107 14.0342 1026 129.817 195.255 466.374
3447 0 77.1246 14.1589 1092 127.949 195.186 464.102
3448 0 79.1744 14.828 1174 127.318 194.997 464.072
3449 0 81.143 13.9137 1129 129.302 195.265 465.9
3450 0 82.0791 13.0118 1068 133.472 194.813 463.416
3451 0 86.1633 13.2191 1139 132.435 195.083 460.437
3452 0 87.0813 13.8491 1206 135.751 195.983 459.934
3453 0 89.0727 13.9773 1245 133.766 195.872 460.164
3454 0 95.1381 14.8206 1410 132.174 195.352 455.265
3455 0 97.1497 14.5034 1409 132.155 195.314 456.732
3456 0 101.177 14.1039 1427 134.296 195.144 454.411
3457 1 52.0613 13.8875 723 134.918 195.477 476.595
3458 0 55.0967 13.921 767 135.73 194.334 475.18
3459 0 56.0838 14.9954 841 132.253 194.857 474.801
3460 0 58.0959 15.4056 895 133.042 194.683 473.604
3461 0 60.1637 14.3608 864 138.373 194.057 473.219
3462 0 62.1382 14.1459 879 138.898 193.935 468.47
3463 0 64.2405 14.5858 937 138.086 193.432 470.212
3464 0 63.2134 13.7629 870 143.889 194.131 471.141
3465 0 68.2781 13.2253 903 144.023 193.577 469.967
3466 0 70.1365 14.372 1008 140.583 193.135 464.706
3467 0 72.1039 13.6886 987 141.796 193.133 467.315
3468 0 76.1565 13.3541 1017 141.442 192.61 465.143
3469 0 79.0804 13.442 1063 136.647 192.587 463.003
3470 0 79.0712 12.2927 972 140.51 192.684 462.48
3471 1 43.0896 13.0194 561 135.068 194.661 483.389
3472 0 44.0475 13.3038 586 139.662 194.98 481.908
3473 0 46.0295 13.5348 623 137.788 194.876 478.958
3474 0 47.0348 14.5212 683 138.117 195.369 479.562
3475 0 49.0846 13.2832 652 140.078 195.267 479.764
3476 0 50.105 12.2742 615 143.291 196.104 478.946
3477 0 51.1751 13.2486 678 141.392 195.304 477.027
3478 0 51.0917 13.2507 677 143.356 195.446 477.106
3479 0 55.0331 14.1551 779 138.502 195.347 476.43
3480 0 57.1267 12.5511 717 143.866 194.958 475.035
3481 0 59.092 14.3336 847 137.677 195.444 471.93
3482 0 59.1391 13.7134 811 140.821 195.287 473.075
3483 0 61.0683 13.968 853 141.644 195.178 473.149
3484 0 64.1379 14.4065 924 140.393 195.415 472.167
3485 0 64.1402 13.907 892 144.748 195.472 471.929
3486 0 64.1776 13.7743 884 148.594 195.276 470.436
3487 0 68.2416 15.2839 1043 142.896 194.692 468.173
3488 0 71.224 13.1416 936 149.047 194.956 469.581
3489 0 74.118 14.5849 1081 143.229 194.19 467.621
3490 0 75.1218 15.0955 1134 141.909 193.96 467.22
3491 0 78.2733 13.9 1088 145.747 194.5 462.912
3492 0 79.2266 14.0736 1115 148.208 194.114 444.997
3493 0 84.4297 13.5497 1144 149.204 194.793 445.389
3494 1 41.109 12.5277 515 150.243 194.65 466.082
3495 0 43.0553 12.542 540 144.952 194.543 473.083
3496 0 41.1161 13.6929 563 137.249 195.895 477.604
3497 0 42.0125 12.9009 542 146.445 195.205 482.109
3498 0 42.0318 13.5612 570 152.504 194.795 483.184
3499 0 42.0464 12.6051 530 160.828 194.74 483.821
3500 0 44.0197 13.8802 611 153.09 195.236 482.542
3501 0 44.0253 13.038 574 157.049 194.876 482.564
3502 0 47.0593 13.0474 614 153.919 195.497 482.259
3503 0 49.0287 13.3799 656 153.979 194.866 480.846
3504 0 48.0588 13.7956 663 157.107 195.065 481.63
3505 0 50.0111 13.477 674 158.902 195.172 480.76
3506 0 51.0657 15.3723 785 153.222 194.906 478.859
3507 0 52.0179 14.2259 740 159.561 195.362 479.012
3508 0 50.0332 14.8102 741 165.008 195.258 478.638
3509 0 51.0364 14.1076 720 170.226 195.374 479.812
3510 0 51.023 13.1705 672 174.43 194.854 479.344
3511 0 54.0342 13.3989 724 171.152 194.99 477.867
3512 0 57.0488 14.3561 819 165.419 195.369 477.689
3513 0 56.0941 13.8874 779 177.454 193.44 436.608
3514 0 59.0932 14.0964 833 171.495 194.232 443.801
3515 0 59.0761 13.6265 805 175.394 194.499 445.002
3516 0 61.0766 14.9157 911 173.716 195.091 445.274
3517 1 30.0417 12.2829 369 191.702 194.285 459.686
3518 0 31.0061 12.8684 399 191.358 193.837 459.449
3519 0 32.0123 13.1199 420 189.771 194.012 459.064
3520 0 34.0968 13.139 448 188.098 194.569 460.44
3521 0 33.1674 13.0851 434 194.154 195.071 460.809
3522 0 34.1212 12.9245 441 195.075 194.941 461.42
3523 0 36.056 13.063 471 192.04 194.936 462.839
3524 0 35.0915 13.479 473 193.063 194.524 462.67
3525 0 35.1644 13.4511 473 200.106 195.019 462.148
3526 0 36.1684 13.7136 496 199.774 194.411 462.331
3527 0 36.0972 13.4082 484 202.023 194.667 461.62
3528 0 38.031 13.7782 524 196.218 194.258 461.897
3529 0 40.0548 14.1057 565 189.819 194.483 461.572
3530 0 40.028 15.2393 610 186.505 194.731 461.108
3531 0 42.0499 14.1261 594 189.884 194.335 461.109
3532 0 42.0118 13.8771 583 192.602 194.082 460.808
3533 0 44.0463 14.235 627 188.276 194.598 460.898
3534 0 44.0433 14.3268 631 187.231 194.501 461.618
3535 0 45.0214 14.6819 661 185.958 194.445 460.899
3536 0 46.0588 15.1328 697 183.57 194.413 459.34
3537 0 49.0282 14.3795 705 183.152 194.667 459.895
3538 0 48.0726 15.4142 741 181.938 195.161 458.637
3539 0 49.0651 14.1445 694 188.379 194.997 458.671
3540 0 51.0508 14.9851 765 182.867 194.497 458.024
3541 0 54.0523 14.6155 790 182.599 194.382 458.118
3542 0 56.1269 15.8569 890 175.39 194.794 457.936
3543 0 57.0986 14.5713 832 181.255 194.904 457.203
3544 0 57.0727 14.1924 810 186.327 194.577 455.922
3545 0 59.1574 15.4841 916 179.842 194.443 456.252
3546 0 62.1119 14.6993 913 183.183 194.867 455.84
3547 0 63.0943 15.77 995 178.205 194.207 457.145
3548 1 34.0496 11.8357 403 190.347 194.955 471.888
3549 0 34.0663 13.0041 443 187.131 194.49 472.51
3550 0 36.0692 12.7255 459 190.63 194.619 473.373
3551 0 35.0185 14.1925 497 186.366 194.978 475.427
3552 0 35.0634 14.1743 497 187.529 194.915 477.807
3553 0 38.0707 15.1035 575 180.136 194.377 479.174
3554 0 39.0299 14.9116 582 180.94 194.624 479.32
3555 0 39.0406 14.6514 572 183.659 194.969 479.182
3556 0 40.025 14.5659 583 184.041 194.986 479.65
3557 0 41.0172 15.3838 631 181.035 195.046 479.208
3558 0 42.0692 16.4253 691 174.062 195.213 479.735
3559 0 41.0297 15.2085 624 182.306 195.303 478.986
3560 0 43.0508 15.0288 647 181.716 194.895 478.151
3561 0 45.0697 15.5537 701 177.996 195.241 478.864
3562 0 46.0644 15.7823 727 177.801 195.232 478.103
3563 0 45.0538 15.8921 716 179.346 195.284 477.936
3564 0 47.1459 15.1657 715 179.857 195.698 478.141
3565 0 48.0731 15.4764 744 179.155 195.661 476.901
3566 0 50.0349 15.5092 776 175.153 195.469 477.102
3567 0 53.1707 15.6101 830 173.97 195.442 475.058
3568 0 54.0402 15.1739 820 175.057 194.946 474.862
3569 0 55.0487 15.895 875 172.207 195.581 473.951
3570 0 57.1344 15.4198 881 171.608 195.496 473.561
3571 0 58.0438 16.4186 953 169.318 196.244 471.805
3572 0 61.0508 16.3143 996 168.55 195.66 470.904
3573 0 62.1099 15.7946 981 171.254 195.701 470.895
3574 0 63.0832 16.5971 1047 169.314 195.521 469.37
3575 0 66.1623 16.9734 1123 165.81 195.411 467.364
3576 0 69.0446 16.9166 1168 164.47 195.932 467.761
3577 0 70.1087 16.56 1161 166.86 195.737 466.053
3578 0 73.1234 16.5611 1211 166.361 195.253 464.614
3579 0 75.088 16.8869 1268 165.721 195.51 463.785
3580 0 78.0939 16.6979 1304 163.525 195.831 462.926
3581 0 80.1027 17.6523 1414 161.113 195.196 461.707
3582 0 82.0667 17.5833 1443 161.789 195.895 458.389
3583 0 84.1624 17.5256 1475 162.116 195.386 457.801
3584 0 88.1535 16.1196 1421 165.594 196.028 457.66
3585 0 89.0659 16.92 1507 163.725 195.672 454.991
3586 0 94.0624 18.2007 1712 157.009 195.457 450.827
3587 0 97.0729 17.0387 1654 160.676 195.649 451.138
3588 0 101.155 17.1618 1736 160.932 195.13 448.915
3589 0 105.187 16.8461 1772 160.805 195.423 446.12
3590 0 108.106 16.3358 1766 162.753 194.955 444.536
3591 0 112.132 15.9901 1793 161.663 195.084 441.436
3592 1 61.0286 13.0267 795 165.694 195.644 464.687
3593 0 64.0234 13.2295 847 162.237 196.207 465.348
3594 0 67.0225 13.7267 920 154.868 196.055 461.793
3595 0 67.03 13.5313 907 157.693 196.172 460.499
3596 0 69.0715 12.8997 891 160.195 195.661 458.504
3597 0 70.0706 12.4446 872 162.334 196.057 457.538
3598 0 75.0487 12.4986 938 160.606 196.033 454.151
3599 0 78.0836 13.6136 1063 157.817 196.659 452.254
3600 0 79.0904 11.8978 941 162.413 196.193 451.455
3601 0 81.0802 12.1731 987 161.088 196.741 450.276
3602 0 85.1233 12.2763 1045 159.825 196.891 448.978
3603 1 44.0674 9.44009 416 137.95 197.3 474.733
3604 0 46.0647 10.8109 498 145.402 197.855 475.888
3605 0 49.0415 11.4801 563 141.508 197.488 474.169
3606 0 50.0588 11.7062 586 134.696 197.242 475.188
3607 0 53.0245 11.655 618 133.875 197.531 473.256
3608 0 55.0697 12.7293 701 129.792 197.243 471.538
3609 0 56.0969 11.8188 663 131.507 197.588 470.769
3610 0 57.0343 11.2213 640 134.333 196.692 469.497
3611 0 60.0467 10.8416 651 144.066 195.823 468.157
3612 0 63.0574 10.9107 688 142.218 195.429 466.828
3613 0 65.0431 10.4392 679 134.384 195.239 466.121
3614 0 65.0548 12.0514 784 131.538 195.388 464.779
3615 0 68.0915 10.5887 721 133.576 195.449 463.997
3616 0 71.1278 9.96797 709 134.866 195.575 463.477
3617 0 70.0614 9.83423 689 132.01 195.396 466.417
3618 0 76.0858 11.7368 893 126.193 195.731 463.282
3619 0 75.104 9.50682 714 132.744 196.164 460.345
3620 0 80.122 11.2329 900 127.403 196.828 457.92
3621 0 83.1757 10.4237 867 127.179 196.685 457.138
3622 0 85.0643 10.4157 886 127.851 196.29 455.378
3623 0 88.0467 8.9498 788 131.013 197.037 453.595
3624 1 47.036 8.84428 416 118.32 196.873 476.649
3625 0 51.0568 10.596 541 112.54 196.444 475.475
3626 0 53.0161 10.8646 576 111.79 196.406 473.109
3627 0 55.0762 11.6929 644 109.795 196.384 474.155
3628 0 56.0736 10.9142 612 112.041 196.324 473.711
3629 0 58.1992 9.02074 525 125.678 196.465 471.65
3630 0 61.1148 10.3085 630 122.148 195.765 469.706
3631 0 60.1024 10.2325 615 122.636 196.515 468.291
3632 0 65.1267 10.5947 690 119.793 196.39 468.316
3633 0 66.0753 10.8664 718 120.891 196.955 466.62
3634 0 69.097 10.4925 725 121.032 196.487 463.873
3635 0 73.0749 8.94972 654 124.125 196.758 463.48
3636 0 75.0283 10.2894 772 120.448 197.37 463.733
3637 0 74.019 10.3757 768 125.22 198.387 463.695
3638 1 37.0054 7.72861 286 111.045 196.038 484.591
3639 0 39.0298 9.12124 356 111.008 196.815 480.756
3640 0 40.0337 8.44289 338 112.737 196.775 482.592
3641 0 42.0145 11.1152 467 107.201 197.137 479.527
3642 0 43.0675 10.4023 448 110.464 196.808 481.944
3643 0 43.0733 9.44901 407 113.219 196.604 479.553
3644 0 46.0837 10.7413 495 111.549 196.497 478
3645 0 46.0448 9.75137 449 116.43 196.305 478.356
3646 0 48.1039 10.3318 497 115.557 197.103 476.256
3647 0 47.1492 10.7319 506 115.97 197.267 476.534
3648 0 50.0645 10.9658 549 114.993 197.255 474.377
3649 0 53.0406 12.7638 677 109.256 196.928 477.936
3650 0 54.0678 11.1157 601 115.92 196.892 476.055
3651 0 58.1224 12.6629 736 110.992 197.5 475.121
3652 0 59.1772 11.3388 671 115.598 196.894 474.125
3653 0 60.0215 11.6458 699 115.007 196.122 474.282
3654 0 63.1015 12.3927 782 112.965 196.706 472.381
3655 0 64.0657 10.817 693 118.333 196.258 472.12
3656 0 66.0583 11.0508 730 119.09 196.837 459.94
3657 0 67.077 11.7328 787 117.011 197.011 469.404
3658 0 67.1037 10.8787 730 120.067 196.737 471.408
3659 0 73.0453 12.0062 877 116.392 196.408 465.784
3660 0 71.2012 11.7554 837 119.805 196.435 467.302
3661 0 74.1273 11.7231 869 120.272 196.549 467.322
3662 0 75.1518 11.2971 849 124.127 196.313 464.075
3663 0 77.0578 12.017 926 122.21 195.841 464.341
3664 0 79.1401 10.6773 845 126.024 195.936 463.857
3665 0 82.0946 11.5842 951 122.944 196.143 463.995
3666 0 84.1621 10.5629 889 125.94 194.929 455.994
3667 0 87.1296 10.6623 929 123.789 195.944 458.045
3668 0 92.196 11.1718 1030 121.752 195.104 455.872
3669 1 46.0734 9.6151 443 114.018 195.707 479.856
3670 0 47.0247 10.1011 475 112.417 196.084 478.663
3671 0 50.0931 11.0594 554 109.159 195.123 470.155
3672 0 51.0741 10.3575 529 112.837 194.975 474.592
3673 0 50.0484 10.4499 523 115.472 194.249 473.138
3674 0 51.1298 10.5027 537 115.315 194.81 474.238
3675 0 56.1677 9.47163 532 116.724 195.043 473.694
3676 0 57.1737 11.4563 655 111.992 194.577 472.576
3677 0 58.2102 12.0941 704 110.963 194.097 470.398
3678 0 58.221 12.1777 709 118.669 194.094 470.44
3679 0 62.2142 10.6085 660 115.585 194.126 468.405
3680 0 63.1671 10.7968 682 116.003 194.377 467.68
3681 0 65.2612 11.5076 751 114.708 194.141 466.575
3682 0 67.2023 11.3687 764 114.955 193.978 464.495
3683 0 70.2184 11.0085 773 115.695 193.78 464.591
3684 0 72.1984 10.8313 782 116.142 194.087 463.536
3685 0 76.1582 11.6862 890 115.058 193.874 461.901
3686 0 80.2182 11.0075 883 117.268 194.003 456.435
3687 0 81.2628 11.2721 916 117.771 194.033 457.802
3688 1 41.2261 9.9694 411 124.552 194.842 478.265
3689 0 43.1719 11.6279 502 113.631 193.5 481.504
3690 0 44.1247 11.3089 499 116.743 193.766 482.327
3691 0 46.1109 11.2988 521 115.645 193.693 481.741
3692 0 45.0886 11.0893 500 117.252 193.536 481.128
3693 0 48.0544 10.6338 511 117.464 193.207 481.223
3694 0 49.1067 11.139 547 117.241 193.729 480.132
3695 0 49.217 10.7483 529 119.885 193.56 478.664
3696 0 52.0921 10.7118 558 119.301 193.534 478.548
3697 0 54.0989 11.479 621 117.548 193.731 476.663
3698 0 57.2273 11.6902 669 116.205 193.507 477.26
3699 0 55.0835 11.6006 639 119.108 193.495 476.268
3700 0 59.0922 11.5244 681 117.601 193.53 474.596
3701 0 59.0903 10.1201 598 121.045 193.259 475.107
3702 0 62.1082 11.1418 692 119.432 193.065 472.929
3703 0 64.1014 12.371 793 116.581 193.598 472.691
3704 0 65.1 11.1213 724 119.996 193.812 472.819
3705 0 69.0783 11.5955 801 117.97 194.157 471.772
3706 0 70.096 12.2832 861 116.877 193.995 470.364
3707 0 72.1368 12.6981 916 117.695 194.19 468.286
3708 0 73.0655 10.5111 768 122.999 194.656 467.109
3709 0 78.1128 11.9315 932 118.913 194.107 465.973
3710 1 41.1294 10.5764 435 120.586 192.933 481.225
3711 0 45.2044 12.2112 552 115.208 193.404 479.88
3712 0 43.1325 11.5458 498 121.11 193.908 479.946
3713 0 45.1426 10.6773 482 120.786 193.131 481.137
3714 0 50.1285 12.2485 614 116.114 193.378 472.008
3715 0 51.1177 11.9137 609 116.933 193.082 450.458
3716 0 50.1621 12.3001 617 118.232 193.159 451.107
3717 0 54.1781 12.9019 699 114.924 193.139 453.608
3718 0 54.1887 12.3827 671 120.225 193.022 455.013
3719 0 56.2145 12.2033 686 120.793 193.261 459.179
3720 0 58.1521 13.4647 783 115.948 192.928 462.262
3721 0 57.2285 12.8957 738 119.942 193.194 466.928
3722 0 59.1243 12.9896 768 119.801 193.21 469.371
3723 0 63.0953 13.5192 853 117.043 193.638 472.623
3724 0 64.2319 13.0932 841 118.302 193.598 468.881
3725 0 65.1402 12.4808 813 121.53 193.807 468.938
3726 0 69.1499 13.2321 915 118.51 194.307 468.331
3727 0 73.1865 12.5023 915 119.109 194.867 468.056
3728 0 74.2677 12.1318 901 122.069 194.108 460.337
3729 0 77.1864 12.8909 995 120.236 193.907 458.49
3730 1 40.0815 10.9527 439 118.118 194.779 476.868
3731 0 41.1042 10.0476 413 123.206 194.041 474.722
3732 0 42.0279 11.3258 476 118.742 194.943 477.261
3733 0 44.0545 11.6674 514 117.226 195.167 476.016
3734 0 45.0524 10.4989 473 121.85 195.729 467.29
3735 0 46.082 11.8918 548 119.133 195.898 467.518
3736 0 48.0746 10.9205 525 121.682 195.81 468.829
3737 0 48.1252 11.6155 559 121.533 195.052 469.002
3738 0 49.0992 10.489 515 126.994 195.217 468.384
3739 0 52.086 11.673 608 122.16 195.041 469
3740 0 56.1704 11.7322 659 119.228 195.329 469.722
3741 0 57.1437 11.1998 640 122.752 195.334 466.613
3742 0 56.0649 11.3797 638 124.519 194.997 463.995
3743 0 60.1066 12.0286 723 122.408 195.08 462.811
3744 0 60.1037 13.3103 800 120.399 195.051 464.57
3745 0 63.0352 12.3106 776 123.845 195.227 461.977
3746 0 65.1152 11.4413 745 126.46 195.807 460.905
3747 0 68.1013 12.5695 856 123.654 195.803 459.697
3748 0 71.0672 11.8901 845 125.44 194.836 458.109
3749 0 71.0798 11.3534 807 129.853 195.669 456.524
3750 0 76.1896 12.482 951 125.706 196.241 455.963
3751 0 81.1449 12.5824 1021 123.12 196.124 455.385
3752 0 83.2426 12.2413 1019 123.951 195.845 453.82
3753 1 41.1128 10.1671 418 122.388 196.77 473.316
3754 0 42.1717 10.2438 432 121.968 196.102 470.102
3755 0 46.0238 11.342 522 119.766 196.109 474.946
3756 0 48.0283 11.9929 576 116.385 195.222 474
3757 0 48.0884 11.9987 577 118.451 195.302 472.263
3758 0 52.0246 11.3216 589 122.581 196.428 474.28
3759 0 52.0559 12.2369 637 122.655 197.182 474.179
3760 0 53.0231 12.0514 639 124.161 196.43 473.989
3761 0 55.036 11.5016 633 125.281 196.548 473.668
3762 0 56.0713 12.4128 696 124.187 197.983 465.325
3763 0 57.0248 11.9948 684 125.136 196.512 471.39
3764 0 60.0692 13.1681 791 121.619 197.427 470.282
3765 0 61.0959 12.2594 749 125.949 197.393 468.701
3766 0 64.0928 13.3244 854 121.808 197.582 468.308
3767 0 66.0779 12.0767 798 125.034 197.174 467.393
3768 0 66.0326 12.2061 806 126.51 197.233 465.584
3769 0 71.0772 11.79 838 125.951 197.471 464.066
3770 0 74.0725 13.2168 979 121.774 197.444 463.834
3771 0 74.1106 12.9131 957 123.74 197.414 462.596
3772 0 75.1198 12.0075 902 127.397 197.385 462.693
3773 0 79.1746 12.5545 994 126.498 197.752 461.09
3774 0 80.0849 12.1871 976 127.84 197.304 457.258
3775 0 85.0641 13.096 1114 123.566 197.44 458.804
3776 1 44.0971 10.2274 451 123.847 198.477 478.357
3777 0 45.0282 10.7932 486 123.173 197.986 477.856
3778 0 47.0457 11.1381 524 122.649 197.681 476.288
3779 0 46.0752 10.7867 497 125.034 197.853 473.543
3780 0 49.0646 11.5562 567 121.637 197.351 475.6
3781 0 51.1416 12.0254 615 120.839 197.58 473.211
3782 0 51.1424 11.8102 604 122.387 197.308 472.593
3783 0 53.1474 12.1361 645 120.045 195.429 474.984
3784 0 54.132 12.0261 651 119.286 195.217 474.765
3785 0 55.1263 12.3534 681 119.885 195.571 473.198
3786 0 57.0608 11.7243 669 122.966 195.277 473.221
3787 0 58.156 12.604 733 120.719 195.46 470.988
3788 0 62.0722 13.0332 809 118.356 196.031 470.571
3789 0 62.113 12.6061 783 120.769 195.361 470.281
3790 0 63.1323 12.26 774 122.735 195.31 467.543
3791 0 66.1258 12.6879 839 119.396 195.379 469.754
3792 0 67.0481 12.2897 824 121.46 196.102 466.46
3793 0 71.067 13.1285 933 118.238 195.695 465.949
3794 0 72.1065 12.4815 900 120.97 195.456 463.833
3795 0 75.0355 13.2337 993 116.915 195.974 464.54
3796 0 77.0392 13.0193 1003 119.079 196.046 462.219
3797 0 79.1287 13.3453 1056 119.726 196.044 459.937
3798 0 81.1565 12.1494 986 123.497 196.279 457.532
3799 0 86.1057 13.3325 1148 119.168 195.923 457.543
3800 0 88.0559 12.7533 1123 122.354 196.056 454.331
3801 0 90.1022 12.8743 1160 121.984 196.158 455.558
3802 1 46.2116 10.6034 490 127.431 196.58 474.367
3803 0 49.2306 12.0047 591 123.709 196.464 473.597
3804 0 48.1328 11.7591 566 126.504 196.601 473.032
3805 0 52.1185 13.2007 688 128.965 195.134 472.984
3806 0 55.0714 13.9455 768 126.04 194.852 471.849
3807 0 56.0537 13.0767 733 130.445 195.486 472.939
3808 0 57.08 12.9467 739 133.522 194.847 471.329
3809 0 59.0491 13.2771 784 132.421 194.889 470.764
3810 0 61.1345 13.4294 821 132.739 194.952 469.384
3811 0 63.1454 13.651 862 134.041 195.148 468.14
3812 0 64.09 13.169 844 136.45 194.707 466.604
3813 0 64.0975 13.7915 884 135.517 194.682 466.964
3814 0 70.0709 14.5995 1023 130.875 195.287 466.736
3815 0 71.0334 14.3031 1016 133.742 195.593 465.094
3816 0 73.1255 14.4546 1057 134.376 196 464.436
3817 0 74.1172 14.2072 1053 137.053 195.32 464.146
3818 0 78.2516 13.9294 1090 137.768 195.464 461.894
3819 0 79.2804 14.6064 1158 138.201 195.316 460.443
3820 0 83.1781 14.1383 1176 139.023 195.422 458.65
3821 1 45.0679 10.939 493 137.773 195.627 476.6
3822 0 45.1622 11.0491 499 125.503 196.297 473.09
3823 0 46.1837 10.1334 468 130.209 195.56 472.897
3824 0 49.0943 12.0788 593 122.013 196.912 473.518
3825 0 51.066 10.8095 552 126.922 196.922 473.882
3826 0 52.0865 12.1529 633 124.392 196.4 474.071
3827 0 52.0884 11.6725 608 125.816 196.222 473.026
3828 0 53.0414 11.0857 588 128.019 196.226 472.673
3829 0 55.0584 9.60797 529 132.2 196.807 471.378
3830 0 56.1095 11.3528 637 129.099 196.573 468.347
3831 0 57.1352 12.1291 693 127.56 197.108 468.149
3832 0 62.0632 11.8105 733 127.15 196.431 465.737
3833 0 64.1395 12.239 785 126.087 196.738 464.801
3834 0 66.1095 12.6608 837 126.393 196.324 463.714
3835 0 67.1142 12.6203 847 126.6 196.169 463.022
3836 0 69.0551 12.5986 870 127.146 196.27 463.059
3837 0 71.089 12.1397 863 130.874 195.926 460.307
3838 0 76.0832 12.4995 951 131.681 196.289 461.454
3839 0 78.118 12.1995 953 132.01 196.679 460.805
3840 0 80.1938 11.9087 955 132.574 196.204 460.525
3841 0 86.2605 12.3231 1063 128.276 196.214 459.556
3842 0 88.1794 13.9942 1234 123.835 196.562 455.742
3843 1 46.0297 11.4708 528 127.655 196.78 477.561
3844 0 48.1291 12.1133 583 125.245 194.873 476.395
3845 0 49.1169 13.0709 642 123.198 195.142 472.861
3846 0 50.0247 12.074 604 135.255 194.411 473.429
3847 0 53.0637 12.3813 657 133.099 194.169 471.875
3848 0 53.0723 12.4924 663 133.285 194.25 470.716
3849 0 54.0391 12.454 673 131.973 193.701 472.048
3850 0 55.0299 11.8844 654 134.323 193.841 470.76
3851 0 58.0504 13.0748 759 130.163 193.997 470.435
3852 0 60.0148 12.3636 742 131.875 193.907 469.593
3853 0 63.0284 13.2163 833 127.163 194.224 468.586
3854 0 66.0899 13.9356 921 125.275 193.998 466.795
3855 0 67.0256 13.8305 927 125.359 194.32 466.627
3856 0 68.0294 13.5971 925 126.906 193.638 464.699
3857 0 70.0641 13.0024 911 128.838 193.887 460.695
3858 0 71.0685 11.9884 852 132.116 194.37 463.269
3859 0 76.0506 13.662 1039 125.98 194.188 462.717
3860 0 78.0451 12.7875 998 129.287 194.555 462.308
3861 0 80.1575 13.985 1121 126.205 196.152 462.2
3862 0 82.1384 13.9277 1144 127.263 196.185 458.453
3863 0 84.2053 13.2177 1113 129.687 196.075 458.62
3864 0 86.1328 13.4095 1155 130.158 196.249 457.096
3865 0 91.168 13.7 1249 128.532 196.255 455.904
3866 0 93.1271 14.142 1317 128.258 196.178 445.407
3867 0 96.1102 14.192 1364 127.852 195.806 451.067
3868 0 97.3086 12.9896 1264 132.69 196.153 451.904
3869 0 102.189 15.1288 1546 126.74 195.831 449.92
3870 0 102.153 13.5091 1380 122.367 194.942 441.396
3871 0 108.174 12.9976 1406 120.632 195.289 444.119
3872 0 112.166 12.0001 1346 121.429 196.184 440.596
3873 0 115.202 13.4806 1553 116.827 195.924 439.42
3874 1 63.0892 11.9196 752 113.926 195.863 464.874
3875 0 65.1461 12.2033 795 114.73 195.526 462.642
3876 0 67.1257 11.2922 758 115.049 196.096 462.397
3877 0 69.0824 12.2318 845 112.741 196.57 462.638
3878 0 71.1247 12.471 887 113.717 196.451 458.49
3879 0 72.0795 11.3625 819 117.297 196.455 458.811
3880 0 75.0562 11.4581 860 117.566 196.741 460.216
3881 0 76.1383 12.1358 924 117.6 195.996 458.337
3882 0 81.1152 12.3528 1002 117.089 196.063 458.05
3883 0 82.0964 12.0955 993 119.691 196.12 454.471
3884 0 85.1539 12.2836 1046 119.51 195.904 456.035
3885 0 88.1584 12.1146 1068 120.216 196.243 453.56
3886 0 88.1476 12.445 1097 122.182 196.133 451.285
3887 0 93.1511 13.6767 1274 119.861 196.597 449.561
3888 0 96.0655 13.0015 1249 124.11 195.639 435.965
3889 0 96.0506 13.3888 1286 125.752 195.214 439.156
3890 0 100.117 13.8838 1390 124.391 195.261 444.208
3891 0 103.08 12.825 1322 128.154 194.905 445.11
3892 0 107.102 13.249 1419 127.84 194.972 441.979
3893 0 114.18 15.7033 1793 130.33 195.055 445.874
3894 0 117.151 15.9368 1867 130.152 196.06 443.801
3895 1 61.0763 12.2306 747 139.755 195.663 468.727
3896 0 65.1115 13.93 907 131.264 195.776 469.496
3897 0 65.0673 13.4476 875 133.786 196.136 468.527
3898 0 70.0539 14.0606 985 131.227 196.535 466.591
3899 0 71.0888 14.4608 1028 130.772 195.747 464.338
3900 0 72.044 13.8804 1000 132.919 195.696 463.508
3901 0 73.0715 13.0831 956 135.874 195.88 463.38
3902 0 76.0957 12.9442 985 134.952 196.124 462.934
3903 0 80.0423 13.7802 1103 131.907 195.85 460.746
3904 0 80.1252 12.7426 1021 136.106 195.939 459.451
3905 0 86.0601 14.118 1215 130.052 195.621 439.077
3906 0 88.1362 12.8551 1133 133.426 195.628 446.465
3907 0 90.1643 13.8192 1246 131.641 194.869 447.064
3908 0 91.1729 13.2934 1212 133.762 194.978 450.108
3909 0 98.3414 14.287 1405 128.405 195.065 453.956
3910 0 99.1992 14.7179 1460 128.461 194.182 452.262
3911 0 102.257 13.2802 1358 132.459 194.871 443.289
3912 1 53.1405 11.8177 628 129.866 195.406 467.613
3913 0 53.0462 11.0658 587 133.273 195.453 462.133
3914 0 56.0679 12.5919 706 127.415 194.969 471.255
3915 0 61.1224 12.8758 787 125.052 193.313 466.032
3916 0 61.0321 12.5344 765 126.957 193.533 468.937
3917 0 62.0304 12.2521 760 128.176 192.616 471.797
3918 0 65.0612 12.1117 788 127.058 192.713 471.291
3919 0 66.0736 11.9564 790 112.81 194.304 457.838
3920 0 68.1139 12.5378 854 112.377 194.363 457.364
3921 0 71.0596 12.4121 882 112.98 194.389 456.05
3922 0 73.0721 11.0986 811 116.19 194.549 456.457
3923 0 74.1172 12.9659 961 112.564 194.576 455.213
3924 0 78.0747 11.5915 905 114.895 194.136 455.376
3925 0 78.0963 11.4858 897 116.802 194.307 455.406
3926 0 80.05 12.2673 982 117.394 194.074 452.577
3927 0 83.0882 12.1076 1006 117.643 193.904 452.806
3928 0 87.0558 12.4058 1080 117.618 193.378 453.589
3929 0 89.0804 13.325 1187 115.542 193.617 452.826
3930 0 91.1043 12.3485 1125 119.683 193.485 452.559
3931 0 92.1351 11.8739 1094 123.144 193.929 449.594
3932 0 97.2151 11.6854 1136 123.136 193.755 450.856
3933 0 99.1574 11.7087 1161 124.064 193.061 448.442
3934 0 103.162 12.2139 1260 122.957 193.268 452.021
3935 0 108.141 12.9276 1398 123.302 192.775 449.873
3936 1 58.0473 11.3184 657 118.306 193.414 475.202
3937 0 60.0742 11.4359 687 117.917 193.148 474.147
3938 0 60.0216 11.196 672 119.635 193.574 473.99
3939 0 64.0242 11.9017 762 113.978 194.025 472.255
3940 0 64.0921 11.3275 726 116.295 194.713 469.394
3941 0 68.0465 12.1681 828 112.967 194.185 468.971
3942 0 68.063 11.6216 791 115.102 194.63 468.135
3943 0 70.1313 11.6923 820 115.28 194.517 467.913
3944 0 71.0712 11.1719 794 116.924 194.423 463.596
3945 0 76.0896 11.4208 869 116.243 194.704 461.704
