time division length width area intensity CMx CMy
0 0 57.1327 13.3724 764 170.419 662.815 464.165
1 0 59.0974 13.2831 785 170.201 663.261 462.786
2 0 60.0849 12.8818 774 172.102 663.043 462.381
3 1 29.0474 11.5329 335 169.713 663.275 476.746
4 0 31.0114 11.8988 369 168.607 664.187 475.415
5 0 32.0092 12.1215 388 169.168 664.335 475.186
6 0 32.0369 11.8613 380 170.795 663.642 474.466
7 0 34.0336 12.4583 424 165.835 663.87 474.439
8 0 34.02 11.5814 394 169.332 662.302 475.31
9 0 37.0847 14.1568 525 158.981 662.762 474.04
10 0 36.0282 12.4902 450 170.929 662.507 474.631
11 0 39.0924 14.632 572 156.024 662.425 475.659
12 0 39.2234 13.0789 513 163.819 661.832 475.094
13 0 39.0825 12.9982 508 167.215 662.104 474.809
14 0 41.0818 14.4833 595 158.667 661.546 474.41
15 0 41.0818 14.532 597 160.539 661.523 474.461
16 0 44.0084 14.4972 638 156.182 662.428 474.118
17 0 44.0598 14.0945 621 159.486 661.989 473.781
18 0 45.0809 13.8861 626 160.978 661.783 473.275
19 0 47.0658 14.1079 664 158.947 661.535 472.3
20 0 47.1657 13.9508 658 162.097 660.666 471.72
21 0 49.0835 14.1799 696 160.523 661.145 474.036
22 0 51.2243 15.2271 780 153.514 660.591 472.842
23 0 51.0353 13.7944 704 159.911 660.689 472.55
24 0 53.0951 14.54 772 156.098 659.997 471.083
25 0 55.0673 14.9453 823 154.043 660.521 470.64
26 0 55.0305 14.8463 817 155.585 660.378 470.835
27 0 58.1176 15.1417 880 153.658 660.501 468
28 0 60.0617 15.4508 928 151.741 660.727 468.145
29 0 61.0377 13.549 827 161.475 660.44 467.74
30 0 64.0923 13.7458 881 159.627 660.496 466.279
31 0 66.1045 13.751 909 158.431 659.919 466.227
32 0 68.1401 13.3842 912 160.082 660.148 464.877
33 0 71.1001 14.4444 1027 155.435 660.099 463.579
34 0 71.221 13.6336 971 158.248 660.906 461.463
35 0 77.2029 14.0927 1088 153.101 660.594 460.93
36 0 79.3447 14.0022 1111 153.968 660.499 459.168
37 0 81.3346 15.0981 1228 149.97 659.825 457.919
38 0 83.2475 14.2827 1189 152.736 659.708 457.279
39 0 86.2221 14.9846 1292 149.978 659.219 454.254
40 1 44.1102 12.8995 569 152.135 660.682 474.606
41 0 46.0509 13.4199 618 147.343 660.56 474.88
42 0 49.0269 13.2784 651 149.018 660.313 475.292
43 0 49.0901 13.2002 648 144.954 660.747 475.992
44 0 52.1289 12.8527 670 146.14 660.261 474.567
45 0 52.0434 13.8154 719 144.259 659.754 473.901
46 0 54.0354 13.5837 734 146.451 660.099 471.92
47 0 56.1272 13.6476 766 145.939 660.115 471.851
48 0 56.0908 13.8882 779 146.743 660.009 470.601
49 0 60.0762 14.5149 872 144.79 659.638 468.312
50 0 63.093 13.7733 869 146.335 659.183 467.957
51 0 65.02 14.8877 968 143.343 658.854 467.482
52 0 67.0836 13.4161 900 149.863 658.794 465.884
53 0 69.0381 13.7895 952 148.046 658.54 464.924
54 0 71.0403 14.5692 1035 145.722 658.209 462.567
55 0 75.0555 14.1495 1062 145.108 658.376 462.563
56 0 75.102 12.8758 967 149.934 658.809 460.278
57 0 81.0724 13.4078 1087 146.413 658.471 459.983
58 0 85.058 15.319 1303 138.877 658.73 458.87
59 0 88.0775 14.8506 1308 139.313 658.935 459.43
60 0 91.1116 14.5645 1327 139.422 658.562 455.642
61 0 94.1366 14.0222 1320 140.863 657.613 454.972
62 1 46.0217 12.5158 576 134.955 656.589 478.823
63 0 46.0228 12.4504 573 133.475 657.284 476.487
64 0 47.0075 12.6788 596 129.827 656.562 478.205
65 0 48.0138 12.8505 617 127.963 657.812 478.099
66 0 52.0719 13.827 720 123.099 658.465 477.01
67 0 52.0835 13.8432 721 133.681 658.452 477.018
68 0 56.0856 13.3724 750 123.96 658.081 474.053
69 0 56.0222 12.5843 705 124.965 657.852 475.121
70 0 57.02 11.9081 679 126.847 658.146 474.43
71 0 60.0449 12.9237 776 124.374 657.964 472.214
72 0 61.047 12.3839 756 125.985 657.767 472.179
73 0 65.0163 12.2431 796 125.485 658.236 470.103
74 0 66.0829 11.531 762 126.957 658.144 469.881
75 0 68.0427 12.6832 863 124.403 657.834 466.897
76 0 70.1264 11.9356 837 126.038 658.204 466.519
77 0 73.0353 12.4597 910 124.424 658.462 464.527
78 0 77.0488 12.5894 970 122.961 658.029 465.048
79 0 79.222 11.4615 908 125.793 657.631 462.239
80 0 83.1551 11.665 970 124.458 657.254 461.671
81 1 42.0313 10.3256 434 122.293 657.362 483.032
82 0 44.0369 12.1943 537 116.635 657.244 480.188
83 0 45.0293 12.3253 555 114.791 658.009 479.485
84 0 46.0659 11.7006 539 116.579 658.618 479.514
85 0 47.0196 12.2928 578 115.746 658.367 477.941
86 0 50.0426 12.7491 638 114.277 657.71 477.795
87 0 50.0396 12.1504 608 117.067 657.541 477.975
88 0 53.0165 12.9394 686 113.596 657.466 475.071
89 0 54.0432 13.0266 704 114.83 657.338 476.79
90 0 53.0239 11.8249 627 119.947 656.788 476.408
91 0 57.0611 10.9006 622 122.199 656.904 475.32
92 0 61.0646 11.9873 732 119.005 656.887 473.441
93 0 60.075 12.501 751 120.711 657.048 471.111
94 0 65.0367 12.5314 815 119.609 657.307 471.951
95 0 66.0399 12.1139 800 121.06 657.295 470.446
96 0 68.0481 11.8446 806 121.558 656.633 470.49
97 0 72.1507 12.1135 874 121.32 657.265 467.725
98 0 75.1076 12.7151 955 120.701 657.41 466.614
99 0 77.1034 13.0215 1004 120.667 657.264 464.924
100 0 80.054 13.3785 1071 118.914 656.778 464.168
101 1 37.0192 11.0213 408 123.216 657.245 483.794
102 0 41.0444 12.0357 494 118.291 657.265 482.565
103 0 42.06 10.9368 460 120.62 656.448 483.278
104 0 44.0164 14.0629 619 113.633 657.59 482.22
105 0 45.0104 11.2641 507 120.919 658.331 482.197
106 0 45.036 12.5899 567 118.524 657.633 481.594
107 0 47.0301 12.5451 590 118.151 657.497 480.956
108 0 49.0336 12.7871 627 118.131 657.15 480.153
109 0 50.0585 11.5265 577 122.334 657.428 479.175
110 0 51.0833 13.155 672 119.115 657.363 477.171
111 0 53.02 12.4859 662 120.397 657.006 478.636
112 0 57.0298 12.1866 695 120.163 656.968 476.276
113 0 57.0131 11.7341 669 122.919 657.429 476.975
114 0 59.16 13.1001 775 119.965 657.334 474.874
115 0 61.0966 13.1104 801 120.007 657.467 473.905
116 0 62.045 12.5071 776 121.522 656.988 472.072
117 0 64.0371 13.2267 847 119.76 657.24 470.968
118 0 65.1586 12.5386 817 121.501 657.454 472.476
119 0 68.1731 13.4071 914 119.468 657.084 468.885
120 0 67.1132 11.6669 783 124.931 656.706 470.419
121 0 70.1737 11.1295 781 124.616 656.479 469.818
122 0 71.1078 11.6865 831 124.609 656.533 466.14
123 0 75.1142 12.2081 917 123.119 656.426 465.357
124 0 78.1222 12.506 977 121.397 657.118 463.512
125 0 81.0666 12.1012 981 120.109 656.325 463.351
126 0 83.1381 13.255 1102 118.028 656.235 460.897
127 0 85.1098 11.0446 940 123.595 656.351 460.518
128 0 88.1202 11.5411 1017 122.618 657.251 459.79
129 0 91.0937 11.1753 1018 123.694 656.671 457.204
130 1 47.1026 11.4856 541 120.181 656.834 478.351
131 0 48.0678 11.7542 565 117.982 657.407 479.975
132 0 50.0524 12.8465 643 117.423 656.949 477.389
133 0 50.0258 12.2737 614 119.678 657.695 474.946
134 0 53.011 11.2995 599 121.915 658.431 475.471
135 0 56.0306 12.0827 677 119.91 657.929 476.102
136 0 59.0458 12.3464 729 119.35 658.13 475.617
137 0 58.044 12.2321 710 122.67 657.714 471.8
138 0 62.0541 12.2313 759 121.121 657.983 472.858
139 0 65.0429 12.6993 826 120.202 658.039 471.414
140 0 66.175 12.5727 832 120.345 658.358 471.103
141 0 67.0875 13.0427 875 119.467 657.387 468.843
142 0 71.1636 13.1247 934 119.817 657.352 466.77
143 0 72.1207 12.9921 937 119.397 657.33 465.44
144 0 76.0848 12.4861 950 119.207 657.438 466.882
145 0 79.1383 12.3076 974 117.704 658.572 463.938
146 0 79.1383 12.3076 974 140.314 659.563 464.079
147 0 82.1922 11.1081 913 120.839 657.888 461.789
148 0 87.1263 12.1433 1058 116.531 658.337 460.434
149 0 90.1746 11.7106 1056 117.521 657.986 458.2
150 0 94.1355 12.397 1167 117.601 657.84 456.839
151 1 53.13 12.1024 643 116.782 658.173 477.003
152 0 54.0917 11.9242 645 116.202 658.2 475.953
153 0 55.1372 12.1878 672 117.049 657.768 473.137
154 0 56.1298 13.2728 745 112.874 658.537 472.275
155 0 57.1636 12.3155 704 115.223 657.526 473.318
156 0 62.1531 14.062 874 108.811 657.856 471.911
157 0 62.1594 11.6475 724 115.779 657.605 469.519
158 0 65.1186 13.437 875 110.187 657.514 468.803
159 0 68.1616 12.7051 866 112.89 657.005 467.524
160 0 69.2007 12.6444 875 113.574 657.062 466.271
161 0 73.2321 12.4809 914 112.326 657.275 463.907
162 0 75.2389 12.7726 961 113.708 657.164 462.533
163 0 76.1158 12.3627 941 119.514 655.846 465.107
164 0 79.0438 12.2211 966 120.119 655.441 461.661
165 0 84.0815 12.3333 1037 117.307 655.888 461.056
166 0 84.1252 10.841 912 124.014 656.225 459.821
167 1 45.043 11.6777 526 120.534 656.411 477.036
168 0 47.095 12.6977 598 120.095 656.635 475.906
169 0 50.1409 12.8638 645 117.526 658.84 476.552
170 0 49.0207 12.0153 589 122.263 656.085 474.806
171 0 52.1758 12.6304 659 118.513 657.129 476.129
172 0 54.2359 11.8372 642 122.243 656.771 473.274
173 0 56.161 12.1971 685 121.185 656.482 471.286
174 0 57.1083 13.238 756 119.29 656.689 470.843
175 0 60.1653 11.751 707 121.777 656.653 471.495
176 0 59.284 11.5039 682 123.814 656.579 470.641
177 0 62.1585 12.2912 764 122.551 656.548 470.84
178 0 64.1216 12.7102 815 121.847 657.028 468.506
179 0 67.3145 12.0182 809 123.031 655.975 468.224
180 0 69.1571 12.609 872 121.747 656.13 466.644
181 0 72.1011 12.5796 907 119.297 657.323 465.613
182 0 74.3192 12.8231 953 121.427 656.184 463.837
183 0 75.3024 13.1735 992 121.615 656.511 463.126
184 0 79.2206 12.7113 1007 122.961 656.238 461.875
185 0 81.2908 11.7848 958 126.297 656.797 460.586
186 0 85.3463 13.1933 1126 122.835 656.805 458.668
187 0 86.1773 12.0797 1041 128.26 656.833 454.75
188 0 90.3541 11.8755 1073 125.473 656.758 456.834
189 0 93.1552 13.1823 1228 121.033 657.119 454.068
190 0 96.1884 12.4859 1201 118.476 655.86 449.475
191 1 47.0937 10.4048 490 112.365 656.98 476.286
192 0 49.0289 11.4422 561 109.291 656.642 476.148
193 0 49.0629 10.1298 497 112.095 656.515 474.517
194 0 51.0317 11.0324 563 119.65 656.142 474.735
195 0 54.0567 12.3759 669 109.43 656.342 473.813
196 0 56.1338 11.437 642 112.207 656.424 473.469
197 0 55.1494 11.3329 625 112.846 656.413 472.835
198 0 58.0673 12.1239 704 111.354 656.537 470.274
199 0 61.1244 12.4827 763 109.763 656.212 470.802
200 0 63.1239 13.1963 833 108.018 656.017 468.146
201 0 65.1522 13.4301 875 107.752 655.662 466.992
202 0 65.1207 11.5939 755 113.543 655.554 467.077
203 0 68.0954 11.7629 801 112.745 655.588 467.717
204 0 72.1032 13.1478 948 109.951 656.15 464.691
205 0 74.1669 13.4696 999 110.346 655.618 463.255
206 0 78.2152 13.7441 1075 109.641 655.66 461.961
207 0 80.1212 11.6948 937 113.335 655.472 463.013
208 0 83.1087 12.3814 1029 111.819 655.482 460.189
209 0 84.0882 13.5453 1139 110.342 655.778 459.845
210 0 89.0617 13.2942 1184 110.03 655.971 456.638
211 0 91.2463 12.7348 1162 112.133 655.705 454.651
212 0 94.1367 13.0767 1231 111.806 655.934 454.465
213 0 98.1275 11.1386 1093 117.727 655.488 453.685
214 1 52.0961 10.7494 560 107.893 654.955 475.568
215 0 50.017 10.3365 517 115.387 655.528 474.733
216 0 55.1178 12.9359 713 110.663 656.846 469.212
217 0 57.0494 11.639 664 110.232 655.233 472.349
218 0 58.0528 11.3001 656 109.744 655.768 472.527
219 0 59.0664 12.2066 721 108.863 655.06 472.072
220 0 59.1043 10.1008 597 112.412 655.57 472.154
221 0 63.0521 10.2931 649 112.854 655.941 471.706
222 0 67.058 11.6466 781 108.576 655.314 468.695
223 0 68.0406 12.0957 823 108.566 655.269 465.461
224 0 71.0954 12.659 900 106.427 656.246 466.724
225 0 71.0789 12.043 856 108.814 656.027 465.985
226 0 74.1225 10.4287 773 111.373 656.235 465.801
227 0 78.0956 11.5628 903 110.485 656.063 461.371
228 0 79.0919 11.9102 942 110.293 655.956 461.809
229 0 84.102 11.6406 979 110.485 656.288 460.253
230 0 87.1755 12.6985 1107 109.547 656.1 458.146
231 0 88.0505 12.5383 1104 110.505 656.101 453.807
232 0 91.1347 12.3992 1130 113.747 656.198 454.973
233 0 95.1172 11.9221 1134 116.274 656.463 452.831
234 0 97.1691 13.5743 1319 112.725 656.676 449.193
235 1 54.0896 11.3885 616 107.985 656.706 471.903
236 0 55.3625 12.4452 689 106.852 656.993 467.364
237 0 57.4017 12.5083 718 108.765 656.642 467.992
238 0 58.1695 12.412 722 109.573 657.535 469.32
239 0 59.0604 12.4618 736 108.61 657.709 471.249
240 0 58.0749 11.6746 678 111.937 657.49 467.617
241 0 64.1337 13.8461 888 105.023 657.096 467.193
242 0 64.1046 13.0412 836 108.437 657.621 466.209
243 0 66.1192 12.6589 837 108.811 657.363 464.924
244 0 68.0775 12.6914 864 108.659 657.26 462.661
245 0 70.1186 13.6911 960 106.945 657.718 462.84
246 0 72.0723 12.6123 909 110.613 657.579 461.635
247 0 76.0948 13.8643 1055 107.044 657.123 459.944
248 0 78.1405 13.8341 1081 106.686 657.535 457.604
249 0 78.0529 11.8253 923 112.693 657.816 457.94
250 0 82.068 13.3426 1095 108.402 658.237 455.843
251 0 84.1863 13.9571 1175 107.406 657.726 454.631
252 0 87.128 12.9809 1131 109.727 656.798 448.781
253 0 88.1258 13.5942 1198 109.591 655.277 449.302
254 0 92.1159 14.5795 1343 106.799 656.201 450.398
255 0 93.1189 12.2317 1139 113.18 656.296 447.796
256 0 97.1175 13.4785 1309 110.346 656.372 447.101
257 0 103.118 13.567 1399 109.211 656.285 447.033
258 0 104.161 13.4599 1402 109.566 656.431 441.14
259 0 109.216 12.8736 1406 110.777 656.162 441.883
260 1 54.1643 9.2681 502 111.683 655.9 467.185
261 0 58.1163 10.9092 634 108.729 655.849 465.858
262 0 62.2001 12.3794 770 103.713 656.488 469.361
263 0 63.193 11.9317 754 105.622 656.635 467.138
264 0 61.0588 10.8911 665 110.095 656.174 466.026
265 0 65.1598 12.5537 818 105.851 656.133 466.271
266 0 67.0987 10.9242 733 109.523 656.75 464.814
267 0 73.1738 11.4659 839 106.359 656.839 463.816
268 0 73.0438 13.1154 958 104.054 657.03 460.532
269 0 74.0503 10.5604 782 109.543 656.609 462.307
270 0 78.099 11.3574 887 108.913 656.355 458.651
271 0 80.2194 10.8453 870 109.754 656.413 458.575
272 0 86.1001 11.9744 1031 106.186 656.321 458.572
273 0 87.1537 12.3345 1075 106.807 655.807 455.183
274 0 91.1308 12.1474 1107 107.407 656.026 456.046
275 1 46.0386 10.665 491 111.226 655.666 472.138
276 0 48.1014 11.9331 574 106.908 655.739 469.847
277 0 49.0677 10.8422 532 109.842 655.6 467.56
278 0 53.1838 11.8645 631 109.575 656.181 471.281
279 0 56.1754 12.728 715 107.892 656.316 470.657
280 0 56.1919 11.8167 664 110.786 656.187 469.998
281 0 57.0381 13.2017 753 106.858 656.297 471.122
282 0 58.0588 12.694 737 110.235 655.795 470.676
283 0 59.0762 11.4936 679 113.496 655.973 470.807
284 0 62.1386 12.6331 785 110.761 656.218 468.764
285 0 63.0716 12.2718 774 112.377 655.528 467.416
286 0 66.0748 13.0912 865 111.659 656.124 466.651
287 0 67.1259 12.3797 831 113.852 655.526 466.757
288 0 70.1242 13.2622 930 112.518 656.092 464.103
289 0 72.162 13.539 977 113.157 656.146 462.221
290 0 76.0598 13.0292 991 114.161 656.05 462.448
291 0 78.0967 13.8162 1079 113.307 656.159 460.415
292 0 81.0475 13.6587 1107 113.98 655.69 459.098
293 0 82.1458 12.4291 1021 117.801 655.874 459.333
294 0 84.1247 12.9926 1093 118.306 655.837 455.788
295 0 87.0892 12.7111 1107 119.417 655.896 453.603
296 0 91.1518 12.7809 1165 119.947 656.312 452.552
297 0 93.2219 12.658 1180 120.29 655.814 451.371
298 0 95.2014 14.4746 1378 85.2946 656.175 448.039
299 0 102.106 13.7112 1400 117.323 656.254 447.276
300 1 52.0393 10.7995 562 116.521 656.443 470.418
301 0 52.0887 10.5973 552 116.679 657.085 467.576
302 0 52.0887 10.6165 553 144.631 657.09 467.62
303 0 56.1112 10.7822 605 116.007 658.05 471.344
304 0 59.108 12.2488 724 112.425 658.069 469.26
305 0 62.0626 12.6646 786 109.682 658.045 470.355
306 0 61.0477 11.4337 698 112.709 658.602 470.358
307 0 64.1629 11.4241 733 114.091 657.716 466.647
308 0 64.1077 11.5275 739 114.103 657.828 466.327
309 0 67.1749 12.5196 841 111.389 657.962 465.012
310 0 70.1023 12.2535 859 105.31 657.1 466.031
311 0 72.0834 10.6821 770 107.875 657.483 466.86
312 0 73.1733 10.728 785 108.622 657.07 464.047
313 0 78.1484 11.7853 921 105.36 656.836 462.194
314 0 80.093 11.1745 895 107.284 656.44 461.853
315 0 82.0908 10.4397 857 109.592 656.445 459.785
316 0 85.2324 11.7678 1003 106.349 655.6 459.598
317 1 43.0182 9.27514 399 107.459 656.471 478.434
318 0 46.0197 9.75669 449 107.717 654.855 478.303
319 0 47.0076 11.8917 559 105.134 654.662 477.408
320 0 48.1533 11.4426 551 104.753 657.022 476.211
321 0 50.0848 11.6602 584 104.622 657.502 476.12
322 0 50.1661 11.9802 601 104.531 657.627 475.794
323 0 51.1129 12.267 627 103.225 657.083 476.357
324 0 54.0938 11.5355 624 106.151 656.663 474.25
325 0 54.1321 11.2318 608 108.987 657.035 474.332
326 0 55.0735 11.3122 623 109.18 657.321 475.095
327 0 57.1315 11.2722 644 109.104 657.407 474.151
328 0 58.0888 12.171 707 108.266 657.182 473.928
329 0 61.0938 11.6051 709 110.299 657.87 471.214
330 0 62.07 11.8898 738 111.869 657.24 469.913
331 0 63.142 11.6563 736 112.537 657.731 470.774
332 0 67.0848 12.0445 808 111.537 657.554 469.839
333 0 69.1804 11.2026 775 113.466 657.581 467.185
334 0 69.1423 11.3389 784 116.753 657.829 466.784
335 0 73.1364 12.8254 938 112.746 657.607 465.557
336 0 75.0765 14.079 1057 111.342 657.411 463.516
337 0 78.1252 12.2624 958 116.215 657.625 462.688
338 0 80.1337 11.7678 943 117.318 657.609 461.229
339 0 85.1031 13.1605 1120 112.918 657.729 459.352
340 0 85.1216 11.9711 1019 117.395 656.507 460.166
341 0 87.135 12.0044 1046 118.315 657.214 457.432
342 0 91.1158 11.9628 1090 117.677 657.471 456.613
343 0 94.1073 12.5282 1179 117.477 657.581 453.205
344 0 98.1482 12.1449 1192 118.685 657.556 451.124
345 1 52.019 10.3424 538 118.68 658.416 476.928
346 0 55.2046 12.1186 669 115.946 657.432 474.561
347 0 58.0983 12.6682 736 119.082 657.44 473.626
348 0 57.1406 11.813 675 124.856 656.437 472.633
349 0 60.0753 12.0682 725 123.869 656.87 472.841
350 0 62.0914 13.2386 822 121.597 657.044 470.125
351 0 63.169 12.3953 783 124.738 656.287 470.057
352 0 67.0552 14.1078 946 119.691 656.067 469.15
353 0 70.1705 13.1822 925 122.852 656.395 469.214
354 0 71.1415 13.3396 949 125.14 656.214 467.005
355 0 73.1266 13.1416 961 127.02 656.56 465.84
356 0 75.1545 12.8136 963 128.596 655.725 465.985
357 0 78.1395 13.2199 1033 127.902 656.15 464.424
358 0 80.1698 13.434 1077 129.575 656.937 461.723
359 0 83.0766 13.6139 1131 128.989 657.106 462.127
360 0 85.1214 12.1239 1032 133.901 656.821 461.986
361 0 89.0329 12.063 1074 135.381 656.373 458.773
362 0 90.0941 13.2528 1194 132.561 656.187 459.337
363 1 46.0547 11.0521 509 134.515 656.754 477.692
364 0 49.1005 11.9958 589 132.302 656.859 477.406
365 0 48.0338 12.0957 581 131.912 656.134 476
366 0 50.0452 11.6295 582 127.509 656.675 477.32
367 0 50.0096 12.3176 616 127.834 656.487 476.36
368 0 53.0328 12.6525 671 125.405 656.423 475.638
369 0 53.0485 12.6488 671 127.101 656.799 474.174
370 0 55.0609 12.6406 696 126.289 656.721 474.68
371 0 57.067 12.8446 733 126.065 657.308 473.742
372 0 60.0601 13.7196 824 121.955 656.982 473.494
373 0 62.0439 13.3615 829 122.299 656.943 472.914
374 0 62.0403 13.8297 858 122.568 656.731 471.353
375 0 63.0654 13.0499 823 126.869 657.077 469.903
376 0 67.0513 13.7059 919 123.047 657.477 471.224
377 0 67.0973 13.9648 937 124.252 657.047 469.518
378 0 68.0653 13.5311 921 125.689 656.524 468.22
379 0 72.0507 13.8236 996 123.858 657.533 466.92
380 0 74.0906 13.8749 1028 125.351 656.951 464.24
381 0 75.093 12.4779 937 128.818 657.162 465.079
382 0 78.0635 13.2328 1033 127.931 657.021 463.89
383 0 81.0821 12.7525 1034 128.91 657.162 462.472
384 0 84.0556 12.7773 1074 129.227 656.73 460.16
385 0 87.0578 12.7042 1106 129.585 656.52 459.01
386 0 92.0541 12.5578 1156 127.535 656.647 458.888
387 0 96.1856 11.7585 1131 128.602 657.054 457.859
388 1 50.0371 10.8919 545 127.958 656.897 476.473
389 0 52.1613 12.2888 641 124.493 656.243 475.853
390 0 53.0366 13.123 696 123.055 656.088 474.093
391 0 56.107 12.7613 716 122.543 656.222 473.824
392 0 58.0581 12.6425 734 123.198 656.59 473.741
393 0 58.0346 12.2513 711 124.947 656.736 473.812
394 0 61.0339 12.6651 773 122.928 655.999 472.499
395 0 64.0921 13.8395 887 119.64 655.967 471.484
396 0 65.102 13.6555 889 120.263 656.435 469.269
397 0 68.0518 13.4309 914 121.259 656.752 468.62
398 0 69.0604 12.9452 894 123.687 656.87 465.422
399 0 73.0416 14.2521 1041 118.589 656.643 466.406
400 0 75.0802 12.7197 955 123.108 656.592 464.774
401 0 77.0648 13.5211 1042 120.679 656.506 464.22
402 0 81.0595 14.2488 1155 118.484 656.73 462.922
403 0 83.0949 13.5026 1122 121.18 656.441 462.366
404 0 86.1054 13.0305 1122 123.205 656.285 459.805
405 0 88.1212 13.0616 1151 123.32 656.534 459.2
406 1 47.0278 12.2055 574 120.469 656.185 479.681
407 0 49.0785 11.614 570 123.811 657.211 478.721
408 0 49.2067 11.7667 579 125.161 658.933 474.831
409 0 52.0203 12.9565 674 121.102 659.125 476.651
410 0 52.0464 12.0469 627 124.346 659.234 476.309
411 0 55.0655 11.6407 641 125.367 659.505 474.863
412 0 58.0238 12.8395 745 121.107 659.052 473.843
413 0 56.1028 13.2435 743 122.641 658.991 472.284
414 0 59.0484 11.6853 690 126.351 659.288 472.51
415 0 61.1052 12.8794 787 121.963 659.567 472
416 0 63.0465 12.4511 785 122.8 659.506 472.006
417 0 65.0563 13.0349 848 121.565 658.947 470.445
418 0 67.0361 14.619 980 117.276 658.467 470.383
419 0 70.0824 13.0989 918 121.863 659.236 468.082
420 0 71.0404 13.1756 936 123.178 659.091 465.897
421 0 73.1282 13.1413 961 124.036 658.701 465.087
422 0 74.0534 12.8826 954 125.466 658.731 463.927
423 0 78.0741 14.9473 1167 119.23 659.051 462.883
424 0 78.2021 13.6697 1069 124.26 658.038 460.388
425 0 83.1703 13.5385 1126 123.607 657.686 460.868
426 0 85.1196 13.4282 1143 125.032 658.033 458.992
427 0 88.0953 13.2016 1163 125.496 657.902 458.54
428 0 92.1377 13.8705 1278 123.013 657.408 457.306
429 0 94.1465 13.1391 1237 125.918 656.996 454.648
430 0 97.127 13.8067 1341 124.753 657.883 453.878
431 1 50.0305 10.5736 529 125.155 657.467 476.819
432 0 52.0136 11.6508 606 120.371 656.919 475.574
433 0 53.0677 11.7963 626 117.024 656.831 475.125
434 0 56.0616 11.6836 655 117.092 656.812 475.887
435 0 57.0721 13.0887 747 114.691 657.244 474.631
436 0 59.0974 12.0987 715 116.067 657.196 474.119
437 0 61.1241 14.3642 878 109.903 656.788 472.899
438 0 61.0612 12.6267 771 116.639 656.253 472.594
439 0 63.0917 12.8543 811 115.486 656.586 469.787
440 0 65.0769 12.6927 826 116.374 656.861 467.947
441 0 67.0861 12.2231 820 116.367 656.995 468.649
442 0 72.0411 13.4784 971 111.875 656.389 467.9
443 0 70.0241 12.51 876 117.735 657.059 467.38
444 0 73.0852 13.108 958 124.929 657.193 465.568
445 0 75.0404 12.953 972 124.366 657.545 464.321
446 0 79.1349 12.8894 1020 123.318 657.937 464.197
447 0 83.2382 13.2391 1102 122.111 657.424 460.625
448 0 86.0718 11.9668 1030 123.943 657.778 461.764
449 0 86.1154 12.5297 1079 124.065 657.238 457.526
450 0 90.1102 11.8078 1064 124.772 657.226 457.174
451 0 93.1118 13.0918 1219 119.572 657.482 455.495
452 0 96.04 12.703 1220 120.511 657.973 453.315
453 0 99.1595 12.5253 1242 119.109 658.787 451.385
454 1 52.0561 11.9486 622 115.432 658.707 474.169
455 0 55.062 11.7504 647 115.628 659.238 475.849
456 0 57.0318 12.344 704 112.304 658.847 474.222
457 0 58.1102 11.8224 687 105.879 657.911 469.956
458 0 57.064 11.4783 655 106.118 657.965 468.318
459 0 59.0631 11.1237 657 105.711 658.549 468.834
460 0 62.072 11.1806 694 106.331 658.513 464.344
461 0 66.09 12.2409 809 102.902 658.129 466.329
462 0 64.0917 11.9204 764 104.843 658.084 463.247
463 0 68.0667 11.9442 813 103.938 657.877 464.22
464 0 69.1393 11.3684 786 106.415 658.541 462.438
465 0 71.0605 11.7224 833 106.676 658.825 461.532
466 0 75.1383 12.2441 920 105.607 658.173 460.83
467 0 77.0931 12.2709 946 106.428 658.441 460.554
468 0 81.143 14.0862 1143 102.951 658.284 459.088
469 0 82.1457 12.7091 1044 107.825 658.607 457.432
470 0 85.056 12.0744 1027 110.485 658.322 452.958
471 0 87.0716 12.0935 1053 110.929 658.145 453.61
472 0 90.1671 13.6081 1227 112.176 658.056 452.941
473 0 93.129 12.3162 1147 117.201 658.228 450.126
474 0 96.1328 12.9716 1247 114.962 658.503 451.891
475 0 98.1536 11.3699 1116 121.375 658.349 444.858
476 0 104.194 12.4863 1301 118.397 658.409 443.543
477 1 52.1118 9.09584 474 112.359 658.19 470.939
478 0 57.1502 12.5634 718 104.678 659.141 470.773
479 0 59.1313 11.9395 706 113.725 658.612 468.936
480 0 60.0573 12.5047 751 118.289 657.666 469.767
481 0 63.0299 11.8991 750 118.665 656.664 468.744
482 0 64.0407 11.8206 757 119.799 657.551 466.133
483 0 66.0717 11.9567 790 121.433 657.524 465.858
484 0 70.1287 11.8069 828 118.954 657.562 466.184
485 0 72.0537 13.4344 968 116.282 657.83 466.263
486 0 73.1474 11.4837 840 118.336 658.649 460.323
487 0 75.1138 11.223 843 116.043 659.098 461.374
488 0 76.0666 11.0824 843 117.039 658.958 460.123
489 0 82.1724 11.3298 931 115.398 658.502 457.437
490 0 82.13 11.153 916 117.286 657.739 453.965
491 0 87.0852 12.1146 1055 114.585 657.902 453.62
492 0 87.0932 10.4141 907 118.276 658.51 453.093
493 1 47.0455 10.8618 511 105.247 658.464 474.728
494 0 49.0635 9.31446 457 108.313 658.081 472.54
495 0 52.0834 10.4448 544 106.401 657.744 473.89
496 0 52.0311 11.6853 608 113.796 658.742 475.15
497 0 55.0616 11.9502 658 112.038 659.377 475.176
498 0 58.0617 12.2284 710 111.513 659.094 474.975
499 0 57.1161 11.3453 648 117.958 658.827 471.554
500 0 60.0873 11.0173 662 120.231 659.257 474.44
501 0 63.023 12.6779 799 119.815 658.374 471.288
502 0 63.0601 11.1481 703 125.202 657.835 471.498
503 0 66.0868 12.1355 802 122.201 658.504 471.14
504 0 66.0868 12.1053 800 132.08 659.5 471.02
505 0 71.1737 11.9567 851 125.147 658.244 467.564
506 0 73.0542 13.4558 983 120.685 658.185 467.127
507 0 77.0886 12.7256 981 123.393 658.247 466.355
508 0 79.0993 12.124 959 124.867 658.146 466.687
509 0 81.28 12.2047 992 126.459 658.63 463.278
510 0 84.112 12.6498 1064 125.747 657.663 459.962
511 0 86.1252 12.4354 1071 127.313 657.79 458.314
512 1 44.0253 10.1305 446 126.641 659.489 480.563
513 0 43.0298 9.38883 404 132.139 659.639 478.015
514 0 43.0426 9.15373 394 119.997 658.178 473.68
515 0 44.2119 8.48188 375 118.12 659.053 475.971
516 0 46.1756 10.0053 462 115.442 659.054 477.76
517 0 49.1902 10.8152 532 114.97 658.981 475.385
518 0 50.0963 11.1186 557 120.479 659.443 478.259
519 0 51.056 12.3394 630 118.938 659.543 477.265
520 0 51.0604 11.3395 579 122.589 659.212 474.979
521 0 55.102 11.9052 656 118.782 658.575 475.753
522 0 55.0823 10.7112 590 122.303 658.959 474.478
523 0 56.125 10.9755 616 122.378 658.411 473.881
524 0 57.1171 11.6077 663 122.062 659.282 473.891
525 0 61.0822 12.8024 782 118.573 658.629 473.061
526 0 62.0914 12.0467 748 121.392 658.253 471.583
527 0 63.1843 12.0758 763 121.37 658.468 471.699
528 0 67.065 13.6286 914 116.626 658.261 470.906
529 0 69.0375 12.5729 868 121.238 658.794 468.808
530 0 70.1804 11.4134 801 124.926 658.834 468.381
531 0 74.0681 12.664 938 121.351 659.314 467.981
532 0 75.0741 12.481 937 123.509 658.259 466.557
533 0 78.0746 13.692 1069 121.067 658.656 464.675
534 0 80.1026 13.1456 1053 122.199 658.848 464.91
535 0 81.0705 12.3966 1005 124.824 658.21 463.614
536 0 83.096 12.299 1022 126.646 658.161 460.447
537 0 85.0965 12.0216 1023 127.314 658.168 460.17
538 0 89.066 11.5195 1026 128.502 658.303 457.749
539 1 48.202 11.1199 536 123.948 658.47 478.998
540 0 49.0358 11.7465 576 122.764 658.793 477.948
541 0 49.0488 12.0492 591 124.499 658.475 476.318
542 0 54.0668 12.7805 691 118.392 658.776 476.716
543 0 54.095 12.0898 654 121.261 658.748 476.641
544 0 57.1143 12.9039 737 118.81 658.631 473.68
545 0 59.082 13.642 806 117.501 658.847 474.289
546 0 60.0678 13.0353 783 119.773 658.63 471.922
547 0 61.1021 11.358 694 124.13 658.202 473.316
548 0 65.1012 12.8876 839 118.868 658.768 471.269
549 0 67.1233 13.438 902 117.479 658.774 470.724
550 0 69.1993 12.4568 862 122.39 658.353 469.843
551 0 69.1048 12.7632 882 122.039 658.471 468.781
552 0 72.1639 13.0121 939 121.809 658.144 467.806
553 0 74.05 12.9237 957 120.298 657.177 466.057
554 0 76.1356 14.0801 1072 117.079 657.496 466.222
555 0 79.0654 13.2801 1050 118.649 657.537 465.277
556 0 81.1374 13.7298 1114 118.675 657.675 462.4
557 0 84.047 12.8856 1083 120.83 657.56 460.175
558 0 86.1106 12.9485 1115 120.596 657.817 459.089
559 0 90.0782 14.0878 1269 115.652 657.841 458.672
560 0 93.1202 13.2624 1235 117.126 657.535 457.381
561 0 96.2129 13.7819 1326 115.548 657.922 456.667
562 0 99.1224 12.6107 1250 120.702 657.619 454.766
563 0 103.142 13.4572 1388 118.546 657.736 452.012
564 1 53.098 11.2245 596 110.768 658.654 475.757
565 0 55.1314 11.9895 661 123.97 658.601 474.746
566 0 58.2203 13.9642 813 120.945 658.771 474.771
567 0 56.1364 10.6526 598 122.488 658.978 475.642
568 0 58.1017 11.8241 687 119.266 658.504 475.223
569 0 62.1511 10.571 657 120.839 658.349 474.425
570 0 63.0601 10.6882 674 117.559 658.307 474.54
571 0 67.086 11.1051 745 116.376 658.521 472.254
572 0 68.1378 11.917 812 115.422 658.68 471.212
573 0 69.1303 10.7044 740 119.223 658.915 469.924
574 0 72.1022 12.1078 873 116.808 658.8 467.75
575 0 73.0927 11.6564 852 118.245 657.38 468.539
576 0 78.0355 12.3149 961 115.304 657.204 465.559
577 0 80.1222 13.2922 1065 114.256 657.729 464.599
578 0 82.084 13.0111 1068 116.903 658.739 461.051
579 0 86.1661 12.7428 1098 117.325 658.231 461.142
580 0 87.2162 13.048 1138 116.593 658.748 460.472
581 0 91.0715 12.2102 1112 119.434 658.534 457.707
582 0 93.1871 12.1905 1136 120.346 657.949 456.582
583 0 96.2231 12.5334 1206 120.873 657.83 455.357
584 0 100.059 13.0823 1309 117.995 657.206 455.42
585 0 103.155 12.6121 1301 121.098 657.916 451.991
586 0 104.188 12.2279 1274 123.224 657.872 451.098
587 0 109.172 12.3841 1352 122.147 657.536 449.461
588 0 112.157 12.5805 1411 122.996 657.636 446.652
589 0 116.235 12.7415 1481 122.231 657.453 446.436
590 0 123.22 13.2122 1628 120.698 657.3 440.891
591 0 124.227 11.4629 1424 126.308 657.176 435.638
592 1 66.0654 10.8377 716 114.758 657.691 465.341
593 0 70.0449 12.2207 856 109.518 657.265 463.315
594 0 71.1439 10.1906 725 118.408 656.946 462.843
595 0 75.1668 10.2971 774 118.022 657.606 461.864
596 0 79.1116 11.6165 919 114.884 657.666 461.872
597 0 82.1787 11.8644 975 115.478 657.638 459.069
598 0 84.1909 12.4004 1044 115.66 657.738 457.274
599 0 84.0648 11.2413 945 120.058 657.887 453.72
600 0 88.1494 12.2406 1079 113.883 657.624 456.591
601 0 89.0496 11.0388 983 119.059 657.802 456.755
602 0 94.1272 12.6531 1191 119.543 657.517 456.792
603 0 96.0961 12.7477 1225 122.027 657.322 454.967
604 0 99.1756 13.2996 1319 122.268 657.654 453.416
605 0 103.098 12.9585 1336 121.879 657.534 455.025
606 0 106.213 13.1152 1393 121.604 658.303 453.298
607 0 109.079 11.918 1300 124.495 658.22 452.49
608 0 113.183 13.8448 1567 122.272 658.271 447.542
609 0 115.18 13.2314 1524 124.177 657.883 447.254
610 0 120.166 13.2983 1598 123.647 657.85 444.902
611 0 123.168 13.8266 1703 123.549 658.038 441.941
612 0 126.189 11.9186 1504 128.727 658.152 441.983
613 0 131.223 13.801 1811 123.878 658.21 437.293
614 0 136.122 14.0315 1910 123.08 658.555 438.655
615 0 140.15 13.6568 1914 126.479 658.092 433.317
616 0 146.162 13.9297 2036 125.423 657.482 433.461
617 0 147.17 15.1594 2231 128.922 658.192 428.974
618 0 153.215 13.5887 2082 133.9 657.679 426.788
619 0 159.401 14.636 2333 132.31 658.162 423.015
620 0 167.275 14.5449 2433 132.279 658.674 422.609
621 0 169.278 14.2783 2417 133.899 658.345 418.868
622 0 175.241 14.4087 2525 134.507 657.989 413.317
623 0 180.224 14.3044 2578 134.695 657.313 414.663
624 0 185.424 14.2269 2638 135.691 657.133 410.113
625 0 192.284 14.4682 2782 135.664 657.059 403.142
626 0 196.347 13.2062 2593 139.843 656.702 399.801
627 0 204.386 14.2182 2906 136.065 656.946 399.191
628 0 210.377 13.7753 2898 138.278 656.452 394.881
629 0 219.439 14.7285 3232 134.579 656.712 392.487
630 0 223.374 14.1422 3159 137.011 656.423 388.311
631 0 233.304 14.929 3483 133.472 656.6 383.845
632 0 241.535 13.4639 3252 139.879 656.243 375.432
633 0 251.345 14.4264 3626 135.918 656.601 372.85
634 0 258.273 13.2263 3416 139.994 656.785 369.573
635 1 268.261 12.54 3364 141.374 656.707 370.148
636 0 278.421 14.0435 3910 137.174 656.696 362.517
637 0 288.378 14.259 4112 136.631 656.942 353.122
638 0 296.405 12.9553 3840 141.082 657.147 346.122
639 1 314.643 17.8266 5609 123.601 656.525 333.165
640 1 346.209 25.8168 8938 99.1704 656.159 307.477
641 0 345.75 25.0065 8646 102.435 656.521 302.058
642 0 343.636 16.2556 5586 127.854 655.712 320.49
643 0 343.662 11.9798 4117 139.848 656.083 334.291
644 0 342.593 9.41934 3227 144.479 655.827 346.799
645 0 344.678 10.9349 3769 140.897 656.184 342.491
646 1 323.651 9.75432 3157 141.393 656.6 353.948
647 0 324.585 7.48956 2431 140.251 656.204 371.779
648 0 319.676 8.57743 2742 145.56 655.769 344.032
649 1 79.2399 9.60375 761 111.991 656.909 458.892
650 0 78.1907 10.193 797 109.142 656.935 454.075
651 0 85.1599 10.2983 877 113.395 654.863 460.599
652 0 87.0693 10.7386 935 111.166 655.296 458.563
653 0 89.11 10.9528 976 111.873 654.788 454.196
654 0 94.1145 10.806 1017 110.794 655.559 454.211
655 0 97.3424 10.273 1000 103.661 656.686 453.267
656 0 98.2032 9.67382 950 109.182 656.969 448.233
657 0 105.205 10.9691 1154 107.565 656.392 448.594
658 0 103.281 10.5925 1094 106.714 656.296 448.881
659 0 105.388 10.4186 1098 107.062 656.321 448.96
660 0 104.371 7.55955 789 112.592 656.292 450.691
661 1 56.1268 10.1734 571 100.026 655.706 474.814
662 0 57.1192 10.5043 600 102.277 655.173 473.11
663 0 62.1722 10.7604 669 95.8714 655.84 475.221
664 0 61.111 9.60547 587 92.1482 656.712 467.76
665 0 64.0811 10.0186 642 91.3442 658.1 466.093
666 0 65.1484 10.8521 707 90.9066 657.837 466.945
667 0 68.2113 12.3 839 87.882 657.923 464.787
668 0 69.1702 12.3897 857 88.5683 657.603 463.98
669 0 69.2156 11.6592 807 91.2503 657.527 462.498
670 0 73.0914 12.4365 909 89.319 656.959 460.383
671 0 75.0866 12.0794 907 90.7585 656.088 460.365
672 0 76.1615 11.7776 897 91.8763 656.437 458.008
673 0 78.1975 10.1666 795 95.6038 656.599 458.314
674 0 82.1028 11.3516 932 93.4496 656.833 456.219
675 0 85.1534 11.767 1002 93.5669 657.03 455.857
676 0 88.1368 13.2748 1170 91.4026 657.079 455.828
677 0 91.1711 11.9226 1087 95.6983 657.065 452.593
678 0 91.1721 12.0651 1100 97.1118 656.85 454.395
679 1 49.0528 9.27572 455 96.0418 657.171 474.565
680 0 53.0564 10.4983 557 94.9964 657.088 473.874
681 0 53.164 10.5899 563 101.87 656.869 471.556
682 0 56.0419 10.9561 614 103.932 658.285 473.41
683 0 58.0555 12.2297 710 103.772 657.862 473.527
684 0 59.1046 12.131 717 105.962 658.855 472.188
685 0 61.1225 12.2868 751 104.507 658.188 474.566
686 0 61.1135 11.585 708 104.444 657.914 475.031
687 0 64.1554 11.4877 737 101.537 657.75 476.1
688 0 64.165 11.2367 721 101.295 657.272 472.657
689 0 65.1531 11.2197 731 100.698 657.053 472.39
690 0 68.1933 11.3794 776 100.353 657.33 471.103
691 0 71.1349 11.6258 827 99.0447 657.85 472.156
692 0 71.1487 10.5835 753 101.313 657.781 471.224
693 0 75.0782 12.9731 974 96.9887 657.515 466.503
694 0 76.1926 11.4447 872 100.391 657.343 465.768
695 0 80.0852 12.2619 982 98.5947 657.155 465.01
696 0 83.1537 13.1684 1095 96.3233 657.599 463.012
697 0 88.2464 12.1818 1075 97.6986 658.034 463.322
698 0 88.2898 11.1564 985 101.904 657.999 461.598
699 1 48.0384 10.8455 521 100.522 658.524 481.046
700 0 47.0526 11.4553 539 101.896 658.291 479.412
701 0 49.1684 11.4301 562 99.6139 656.45 479.212
702 0 51.0584 11.5946 592 98.5845 655.963 477.459
703 0 50.0371 10.6521 533 102.567 656.203 478.394
704 0 54.013 11.9416 645 100.07 655.916 477.544
705 0 56.0728 11.9844 672 100.201 655.682 476.845
706 0 56.0705 12.4486 698 100.655 656.466 475.463
707 0 59.0608 12.6988 750 99.188 655.76 475.711
708 0 60.0723 11.9023 715 102.759 655.859 474.164
709 0 63.0718 11.7168 739 103.322 655.865 474.31
710 0 65.0424 12.7455 829 100.673 656.198 473.543
711 0 65.0539 12.6511 823 103.236 655.94 471.827
712 0 67.059 13.585 911 101.761 656.243 470.323
713 0 69.087 12.2599 847 106.375 656.207 470.155
714 0 73.1585 13.4913 987 103.476 656.712 468.496
715 0 74.1195 14.3147 1061 102.757 656.228 467.228
716 0 77.0392 12.9155 995 106.584 656.345 463.953
717 0 79.128 12.6377 1000 108.13 656.842 465.122
718 0 81.0646 12.4098 1006 110.125 656.993 462.903
719 0 84.0805 12.3453 1038 110.571 656.779 460.908
720 0 88.2094 12.7084 1121 109.979 656.83 460.13
721 0 91.1003 12.9089 1176 119.185 658.184 460.066
722 1 47.0264 12.1421 571 109.433 658.044 481.886
723 0 49.0253 11.3207 555 107.874 657.55 480.328
724 0 51.2116 11.3841 583 107.822 657.902 479.034
725 0 53.1818 12.4855 664 105.295 657.7 477.502
726 0 53.0739 11.3992 605 107.962 657.77 477.59
727 0 57.1145 12.8689 735 103.128 657.418 476.807
728 0 59.1053 11.3526 671 107.128 657.349 476.45
729 0 60.1895 12.0951 728 106.135 657.49 474.137
730 0 62.1196 12.492 776 105.276 657.353 471.825
731 0 63.1415 13.2243 835 104.016 657.8 471.851
732 0 66.119 11.812 781 106.625 658.091 472.087
733 0 67.0915 11.8793 797 106.913 657.824 471.373
734 0 70.1888 12.1244 851 106.078 657.692 471.149
735 0 72.1501 11.7671 849 106.973 657.21 468.18
736 0 75.1872 11.9701 900 115.642 657.942 466.682
737 0 77.2792 11.8919 919 114.461 657.647 465.39
738 0 79.1749 12.0619 955 114.712 657.408 463.259
739 0 83.2369 11.4973 957 113.186 657.399 466.423
740 0 86.1217 12.5288 1079 112.597 657.496 461.954
741 0 88.1919 10.8853 960 114.799 657.175 464.052
742 0 91.1291 12.7292 1160 111.888 656.733 459.091
743 0 92.1899 12.9949 1198 111.498 656.623 454.644
744 0 95.1257 12.699 1208 109.332 657.494 454.651
745 0 99.3181 13.1698 1308 108.588 656.443 454.145
746 0 101.091 13.5027 1365 109.108 656.203 454.308
747 1 56.1111 11.0139 618 113.243 657.125 479.117
748 0 57.0878 12.1917 696 113.96 657.263 475.661
749 0 59.212 11.8895 704 113.413 656.094 472.205
750 0 59.2407 12.5758 745 114.502 656.722 472.085
751 0 60.126 13.1723 792 114.037 656.92 471.955
752 0 63.1852 12.2814 776 115.245 657.014 472.929
753 0 63.1783 14.0554 888 113.37 657.218 471.505
754 0 67.2186 13.5082 908 114.465 657.545 470.546
755 0 68.1582 13.1166 894 116.384 657.394 470.746
756 0 69.2808 13.6257 944 116.386 657.022 467.571
757 0 72.1139 14.2691 1029 114.037 657.114 467.07
758 0 74.1649 13.6048 1009 117.294 657.236 465.2
759 0 76.191 13.978 1065 116.985 657.387 464.992
760 0 79.2028 14.9237 1182 114.168 656.589 464.285
761 0 82.1396 14.451 1187 116.424 656.605 461.356
762 0 82.2631 13.5905 1118 119.664 656.636 461.56
763 0 85.2297 13.446 1146 120.818 656.325 458.795
764 0 88.1534 13.5559 1195 122.16 656.916 456.173
765 0 89.1943 13.3641 1192 123.018 656.803 456.305
766 0 92.3703 13.6083 1257 122.658 656.797 453.742
767 0 97.1553 13.8026 1341 122.09 656.065 451.248
768 0 101.248 14.4102 1459 119.218 656.585 450.451
769 0 103.222 12.4973 1290 124.614 656.376 449.045
770 1 53.104 11.1856 594 122.8 657.19 473.221
771 0 57.0643 13.2833 758 117.887 656.996 472.096
772 0 58.1039 11.686 679 123.52 657.409 469.766
773 0 62.1636 14.1723 881 115.966 657.936 469.747
774 0 63.0463 12.8001 807 120.777 657.423 468.33
775 0 66.1444 12.4878 826 122 657.57 465.552
776 0 66.0865 12.5744 831 122.4 657.354 466.641
777 0 69.1077 13.6164 941 120.312 657.993 464.154
778 0 71.2083 13.7765 981 121.423 657.78 461.76
779 0 74.0871 12.7957 948 122.259 657.508 462.079
780 0 79.0508 13.8772 1097 113.935 656.912 461.135
781 0 78.0775 13.461 1051 117.677 656.37 456.777
782 0 83.3081 13.144 1095 118.973 656.13 456.99
783 0 85.1724 13.2085 1125 119.028 656.373 457.659
784 0 88.0544 13.2305 1165 119.741 656.711 453.636
785 0 92.1329 14.7179 1356 115.527 656.872 450.334
786 0 94.2915 13.7128 1293 118.941 656.802 449.145
787 1 49.2358 10.7036 527 116.979 656.59 470.939
788 0 51.1964 11.1531 571 114.018 656.893 472.438
789 0 52.126 11.1653 582 108.211 656.545 472.844
790 0 53.0483 11.6498 618 116.136 657.631 477.786
791 0 57.0309 11.1694 637 117.818 657.397 474.786
792 0 59.0717 12.8149 757 115.009 657.238 474.192
793 0 63.0781 11.9059 751 116.798 657.784 474.217
794 0 63.0841 12.7608 805 118.343 657.563 470.437
795 0 66.1425 12.3219 815 119.481 657.475 470.898
796 0 69.1826 13.8763 960 115.221 657.223 469.705
797 0 69.0893 12.3174 851 120.522 657.234 467.797
798 0 73.1564 13.56 992 117.608 656.965 466.913
799 0 73.1322 11.4177 835 124.69 657.18 466.455
800 0 78.2058 13.7586 1076 119.107 656.771 464.423
801 0 79.118 12.1717 963 124.159 656.802 464.764
802 0 84.0917 13.3545 1123 121.768 656.324 461.63
803 0 86.1398 13.7799 1187 122.412 656.908 459.988
804 0 89.1157 13.7911 1229 122.672 656.658 460.222
805 0 92.2336 13.7043 1264 122.725 656.003 457.239
806 0 96.1416 14.3226 1377 122.161 656.093 455.275
807 0 97.161 12.7726 1241 128.392 656.608 453.697
808 0 101.246 13.9364 1411 125.435 656.106 451.344
809 1 52.1536 11.6195 606 117.88 656.772 475.662
810 0 53.2467 12.0007 639 119.308 657.006 476.581
811 0 56.2172 11.7758 662 125.417 657.402 475.698
812 0 59.1246 12.702 751 121.441 657.357 475.124
813 0 61.0834 12.1473 742 123.142 658.137 473.922
814 0 63.1115 11.7887 744 123.263 658.066 474.141
815 0 62.1383 12.2469 761 125.188 657.938 471.731
816 0 65.0411 11.7003 761 125.761 657.656 470.911
817 0 69.073 13.131 907 120.786 657.826 469.817
818 0 70.2097 13.0181 914 122.466 657.256 468.892
819 0 73.1822 12.1341 888 124.141 657.51 468.399
820 0 73.1671 12.0819 884 143.79 657.494 468.411
821 0 74.1701 12.2961 912 123.786 657.753 467.091
822 0 77.1616 11.8453 914 125.749 657.174 463.742
823 0 79.1215 11.9563 946 125.174 657.294 464.136
824 0 82.1566 12.3423 1014 124.67 657.269 462.317
825 0 85.193 11.3155 964 125.457 657.299 462.425
826 0 86.1654 10.6539 918 128.249 657.22 461.181
827 0 90.1915 12.1963 1100 124.114 656.169 458.561
828 0 92.1792 10.9895 1013 124.795 657.026 458.232
829 0 94.2117 10.7948 1017 127.484 656.439 456.775
830 0 97.2681 10.7743 1048 127.565 656.842 455.958
831 0 102.267 10.7464 1099 127.349 656.001 452.684
832 1 54.169 11.1318 603 116.428 657.033 477.511
833 0 56.201 11.6368 654 115.136 657.052 475.905
834 0 57.0869 12.5773 718 114.777 656.269 474.467
835 0 59.0563 12.632 746 112.972 656.438 474.334
836 0 60.0678 10.6713 641 116.257 657.115 473.691
837 0 62.1114 12.5098 777 111.974 656.665 470.335
838 0 66.0914 12.1952 806 110.51 657.079 469.16
839 0 68.0611 12.3125 838 110.339 657.018 466.989
840 0 70.146 12.0035 842 111.672 657.378 467.152
841 0 72.0609 13.4886 972 108.241 657.022 465.917
842 0 75.0434 12.0064 901 120.282 656.6 464.19
843 0 79.0914 11.7333 928 120.513 656.376 462.921
844 0 78.1162 10.4844 819 123.449 656.768 463.573
845 0 82.1216 10.7889 886 122.827 657.089 461.037
846 0 84.111 10.7001 900 123.266 656.984 457.017
847 0 88.0837 11.5572 1018 119.041 656.519 460.932
848 0 91.0835 11.3303 1032 120.587 655.998 456.925
849 0 94.1872 11.3816 1072 120.479 656.55 454.418
850 0 97.1343 9.945 966 122.612 655.682 456.151
851 1 50.1354 9.87326 495 116.172 657.123 478.832
852 0 52.0362 10.4927 546 115.515 657.469 476.297
853 0 54.0461 10.3615 560 114.452 657.625 475.388
854 0 58.0338 12.5616 729 111.731 657.918 476.368
855 0 59.0275 11.4353 675 116.361 657.914 473.667
856 0 61.0352 10.3711 633 116.736 657.934 475.455
857 0 62.0405 12.1372 753 113.862 657.916 473.384
858 0 64.0994 12.3402 791 115.493 657.885 470.12
859 0 66.0579 12.3982 819 114.72 657.648 468.499
860 0 67.0654 12.5251 840 116.386 657.938 466.233
861 0 70.0902 12.113 849 117.756 657.768 467.786
862 0 72.0289 12.3423 889 117.924 657.508 467.177
863 0 75.1498 13.0007 977 116.259 657.217 465.43
864 0 78.0953 11.9597 934 120.53 656.974 465.746
865 0 80.1094 12.9573 1038 119.156 656.947 464.555
866 0 82.0547 13.4057 1100 118.728 657.141 461.591
867 0 85.0872 13.0689 1112 119.117 656.881 463.406
868 0 86.1149 12.7736 1100 114.79 656.045 460.495
869 0 88.098 12.1115 1067 117.013 655.86 460.532
870 1 47.033 10.5883 498 117.651 656.701 480.578
871 0 48.0774 10.7951 519 117.254 657.044 479.466
872 0 47.0906 11.5097 542 116.518 657.041 479.365
873 0 49.1132 11.4837 564 114.271 657.051 478.849
874 0 50.0454 11.3497 568 116.283 656.893 478.354
875 0 52.1276 11.7596 613 115.845 657.483 476.271
876 0 52.0305 12.3581 643 114.834 657.345 475.95
877 0 55.0211 11.959 658 117.017 657.48 475.035
878 0 57.1122 11.7138 669 116.587 657.283 475.362
879 0 56.0477 10.8479 608 121.194 657.27 473.643
880 0 58.1434 11.7296 682 119.421 657.474 473.243
881 0 61.1897 11.6686 714 117.591 657.172 474.218
882 0 61.0802 11.1002 678 120.752 656.479 472.99
883 0 64.0498 12.0687 773 118.58 656.577 471.864
884 0 65.0989 11.2905 735 121.635 657.137 471.718
885 0 69.1249 12.0941 836 119.182 657.242 468.115
886 0 71.0443 11.2606 800 120.719 657.335 468.399
887 0 73.1703 12.2181 894 119.249 657.051 466.634
888 0 73.1132 12.8157 937 120.1 656.963 464.15
889 0 75.1164 11.7418 882 122.757 656.54 462.011
890 0 82.1306 12.9063 1060 118.239 656.574 461.917
891 0 83.0577 13.5448 1125 115.724 657.319 460.683
892 0 85.0778 12.0831 1028 121.662 656.89 457.307
893 0 86.0804 13.2086 1137 118.184 657.332 457.248
894 0 89.1214 13.0945 1167 118.701 657.5 453.378
895 0 93.2097 13.3784 1247 117.825 656.759 451.774
896 0 93.1342 12.0149 1119 123.055 656.746 452.548
897 0 95.1584 10.9607 1043 124.875 657.208 451.596
898 0 94.1624 10.9173 1028 143.73 658.222 452.094
899 1 54.069 10.6161 574 114.211 657.084 469.929
900 0 57.0194 10.628 606 117.464 657.026 475.094
901 0 57.0373 12.1499 693 115.645 657.088 473.864
902 0 62.0664 12.4866 775 112.525 656.937 474.079
903 0 62.0299 12.5262 777 114.57 656.616 471.977
904 0 64.034 11.8687 760 115.818 657.084 472.089
905 0 68.0471 12.7706 869 113.215 655.999 471.614
906 0 68.0661 12.5172 852 116.972 656.911 470.607
907 0 69.0586 12.4532 860 118.938 656.73 468.869
908 0 71.0776 12.3527 878 122.416 656.379 466.694
909 0 74.0691 11.8808 880 123.367 656.72 467.451
910 0 74.0809 12.0814 895 124.037 656.399 465.777
911 0 79.1163 12.1467 961 123.33 656.421 466.015
912 0 81.1267 12.7332 1033 122.864 656.639 464.027
913 0 82.1214 12.2745 1008 124.425 656.424 463.728
914 0 86.1122 12.1818 1049 125.571 656.777 460.511
915 0 87.0941 11.0455 962 128.603 656.919 461.063
916 0 91.1685 12.965 1182 123.614 656.578 457.394
917 1 49.0243 10.1786 499 127.2 656.82 478.08
918 0 50.0176 10.5963 530 123.936 657.136 477.194
919 0 52.1009 12.495 651 118.009 657.648 477.521
920 0 56.0211 12.6559 709 120.924 657.928 475.333
921 0 55.0429 12.2268 673 123.218 658.303 474.768
922 0 57.0567 11.7076 668 123.63 657.663 474.28
923 0 58.0225 11.823 686 123.825 657.039 471.166
924 0 59.0429 11.4493 676 125.59 657.241 471.049
925 0 63.0177 11.7745 742 121.833 657.302 472.305
926 0 64.0255 13.0417 835 118.753 657.285 471.01
927 0 66.0605 13.0032 859 119.409 656.563 468.051
928 0 69.0513 12.0635 833 120.7 656.702 467.676
929 0 70.0717 12.2161 856 120.706 657.326 467.209
930 0 73.0324 12.9395 945 118.023 657.444 466.052
931 0 75.0516 12.7779 959 117.905 656.723 464.825
932 0 78.0676 12.4379 971 118.806 655.52 464.185
933 0 81.0937 12.2451 993 117.091 655.578 464.246
934 0 83.0689 11.978 995 118.027 655.456 460.043
935 0 84.1387 11.4692 965 120.182 655.588 456.777
936 0 87.12 11.9031 1037 118.842 655.98 456.719
937 1 49.1922 9.98127 491 114.947 656.32 478.807
938 0 49.0184 11.5671 567 110.275 657.295 477.757
939 0 51.0963 10.627 543 109.392 656.897 478.046
940 0 52.0175 11.7653 612 107.941 657.428 476.252
941 0 54.0952 13.1805 713 103.676 657.278 475.784
942 0 56.0939 11.6768 655 107.337 656.566 473.539
943 0 57.0738 11.8969 679 106.517 656.423 472.728
944 0 60.0503 11.4737 689 106.981 656.438 471.302
945 0 62.0561 12.2148 758 105.495 656.245 470.784
946 0 64.0847 12.7175 815 104.632 656.438 470.54
947 0 66.0912 13.1788 871 102.925 656.359 470.194
948 0 68.1406 12.078 823 114.592 655.846 466.448
949 0 68.0978 10.9548 746 117.357 655.903 468.465
950 0 74.2233 12.3546 917 113.072 655.979 466.959
951 0 77.0465 11.1751 861 114.859 656.195 466.232
952 0 82.2336 12.2699 1009 112.172 656.48 464.597
953 0 82.1549 12.0382 989 114.932 656.269 461.039
954 0 86.1492 12.3739 1066 112.78 656.365 462.871
955 0 90.1817 12.2863 1108 113.557 656.225 458.044
956 1 48.0946 10.1675 489 113.182 658.08 480.037
957 0 49.1133 10.6081 521 113.871 658.424 479.77
958 0 50.0347 11.7319 587 113.886 657.733 477.549
959 0 54.105 12.3279 667 110.148 658.186 477.964
960 0 53.0336 12.8786 683 111.941 657.821 476.357
961 0 54.0165 12.6998 686 112.889 658.525 475.774
962 0 55.0601 11.8053 650 116.808 658.157 474.451
963 0 58.0555 13.7971 801 111.271 658.331 474.181
964 0 59.0705 11.7825 696 117.155 658.253 474.177
965 0 61.0384 12.1399 741 116.495 658.113 471.629
966 0 63.0385 12.9762 818 113.74 657.954 470.487
967 0 65.0475 13.1596 856 113.03 657.357 470.437
968 0 67.0635 13.4499 902 112.922 657.608 469.212
969 0 67.0517 12.3487 828 116.726 657.703 466.627
970 0 71.0797 13.3653 950 112.824 658.089 467.124
971 0 73.0513 13.6343 996 111.258 657.506 466.54
972 0 75.0771 13.1998 991 112.817 657.11 463.765
973 0 77.0653 13.9492 1075 111.553 657.607 463.18
974 0 79.1815 13.7658 1090 112.212 657.484 461.25
975 0 82.1059 13.1294 1078 113.771 658.172 462.222
976 0 84.1564 13.5819 1143 112.8 657.895 458.745
977 0 85.1314 13.4498 1145 114.6 657.976 457.778
978 0 90.2049 14.3784 1297 114.365 657.21 456.97
979 0 92.3195 14.0165 1294 116.403 656.896 455.607
980 0 95.462 14.7388 1407 116.03 657.285 453.889
981 0 99.2472 13.0785 1298 118.773 657.142 451.586
982 0 101.058 12.1712 1230 114.703 656.487 449.378
983 1 53.0664 11.985 636 110.074 656.113 472.715
984 0 53.1045 11.4491 608 114.594 655.618 477.938
985 0 56.096 12.6569 710 114.766 655.914 473.701
986 0 58.0631 13.1926 766 112.777 655.894 472.564
987 0 59.1364 12.7502 754 114.918 655.757 470.159
988 0 61.089 11.8679 725 117.114 656.306 470.748
989 0 64.0428 12.7259 815 113.761 655.869 470.432
990 0 66.06 12.852 849 114.544 656.114 468.146
991 0 67.1404 13.9707 938 113.102 655.68 466.205
992 0 69.1473 13.0591 903 115.846 655.855 466.607
993 0 71.0774 13.6752 972 115.993 655.878 464.722
994 0 72.1141 12.813 924 119.065 656.145 464.728
995 0 76.0608 13.7653 1047 117.65 656.536 463.684
996 0 77.0504 13.6015 1048 119.615 656.037 463.662
997 0 80.1127 13.6558 1094 119.54 656.378 463.347
998 0 82.1325 14.1479 1162 120.724 656.231 460.888
999 0 83.0624 13.0384 1083 124.673 656.175 460.453
1000 0 88.0465 13.4134 1181 123.23 656.1 458.469
1001 0 90.1126 14.2932 1288 121.942 656.076 457.41
1002 0 95.1743 14.0794 1340 123.416 655.852 455.615
1003 0 97.044 14.0246 1361 128.211 656.154 454.043
1004 0 100.092 13.2179 1323 130.887 655.853 452.255
1005 0 103.165 13.3282 1375 130.651 655.585 450.281
1006 1 54.0863 10.8715 588 128.524 655.31 475.189
1007 0 57.1066 12.1877 696 123.885 658.052 472.286
1008 0 59.1272 12.5154 740 121.654 657.722 472.386
1009 0 62.1202 12.4919 776 123.294 657.032 470.92
1010 0 63.0544 12.7509 804 124.017 657.879 469.823
1011 0 65.1103 13.1623 857 123.156 657.363 468.83
1012 0 67.0839 13.2819 891 121.731 657.287 467.93
1013 0 67.1324 12.9595 870 124.377 657.103 466.624
1014 0 70.1671 12.456 874 123.866 656.937 465.421
1015 0 72.2126 12.297 888 125.33 656.816 464.381
1016 0 73.2074 12.7719 935 124.152 656.699 463.203
1017 0 75.156 13.6782 1028 122.304 656.854 462.566
1018 0 78.4001 13.0485 1023 123.126 657.123 461.347
1019 0 83.2024 12.5357 1043 122.968 656.963 461.096
1020 0 84.239 13.0818 1102 120.929 656.102 457.093
1021 0 88.1837 13.2678 1170 119.654 656.654 457.093
1022 0 90.0918 13.12 1182 120.578 656.61 455.012
1023 1 48.0273 10.6398 511 118.446 658.043 477.231
1024 0 51.0286 12.2676 626 110.371 657.289 478.072
1025 0 52.1436 12.2546 639 106.631 657.218 478.354
1026 0 54.0426 13.3413 721 105.043 656.885 474.853
1027 0 53.0746 12.2469 650 110.092 656.629 473.888
1028 0 56.1421 12.6643 711 108.519 656.591 473.156
1029 0 58.1104 13.612 791 105.025 656.319 473.71
1030 0 61.1137 12.9267 790 106.518 656.565 472.182
1031 0 63.0724 11.5106 726 109.73 656.788 471.861
1032 0 65.0736 12.5704 818 106.74 656.787 468.952
1033 0 67.0565 12.2882 824 108.131 656.416 469.362
1034 0 68.0937 11.5135 784 108.526 656.161 469.01
1035 0 71.143 13.2972 946 106.669 656.367 466.722
1036 0 73.1138 13.4721 985 107.86 656.922 466.083
1037 0 75.1796 12.3039 925 110.636 656.882 465.461
1038 0 78.0883 13.6896 1069 107.663 656.705 465.759
1039 0 80.1077 12.5831 1008 112.562 657.019 462.027
1040 0 85.0425 13.3345 1134 109.845 656.188 461.786
1041 0 87.0959 13.2383 1153 111.654 656.449 461.003
1042 0 88.0684 13.5804 1196 113.421 656.61 459.273
1043 0 92.0743 13.1959 1215 113.995 656.384 457.878
1044 1 47.05 11.9022 560 113.557 657.062 478.204
1045 0 50.0442 10.8704 544 107.682 656.829 475.667
1046 0 51.0899 11.9789 612 112.44 656.703 474.567
1047 0 53.093 12.6759 673 102.614 656.679 472.284
1048 0 53.0672 10.7034 568 118.935 656.354 474.614
1049 0 57.1923 12.0471 689 112.689 656.567 475.659
1050 0 59.2296 13.034 772 112.532 656.648 473.083
1051 0 60.1624 12.1837 733 112.718 656.379 470.374
1052 0 63.1672 13.7413 868 108.891 655.961 471.167
1053 0 64.0863 12.0619 773 113.414 656.314 470.617
1054 0 66.0309 13.312 879 110.666 656.303 467.589
1055 0 68.2021 12.6096 860 111.164 655.865 465.955
1056 0 73.103 12.202 892 111.099 656.258 468.512
1057 0 75.1095 14.3124 1075 107.315 655.803 465.064
1058 0 76.2 12.336 940 113.209 656.277 462.85
1059 0 79.211 12.776 1012 111.716 656.289 463.358
1060 0 82.1679 13.5698 1115 109.921 656.004 461.555
1061 0 86.2814 13.5371 1168 110.527 656.292 458.669
1062 0 89.2502 13.4678 1202 110.192 656.71 457.908
1063 0 92.0994 14.4735 1333 106.584 656.578 456.006
1064 0 94.1484 14.0417 1322 107.55 656.812 455.988
1065 0 97.2162 13.2077 1284 109.375 656.379 449.864
1066 0 101.177 13.2738 1343 109.382 656.361 449.859
1067 0 104.149 13.1158 1366 111.734 657.562 448.34
1068 0 109.095 12.347 1347 116.301 656.961 447.775
1069 1 55.0632 12.8035 705 105.377 656.511 472.885
1070 0 58.051 12.9541 752 114.594 657.688 471.961
1071 0 61.0637 12.8063 782 111.405 657.394 472.629
1072 0 62.0489 12.2645 761 112.792 657.47 471.363
1073 0 65.1603 12.9834 846 111.287 657.71 470.655
1074 0 67.0381 13.0821 877 111.387 657.083 468.298
1075 0 68.1094 12.1129 825 113.978 657.088 467.608
1076 0 72.1001 13.3148 960 110.415 657.377 468.091
1077 0 72.104 12.1769 878 113.994 657.394 466.37
1078 0 76.1106 12.4161 945 111.599 657.099 465.435
1079 0 80.0898 12.7981 1025 110.746 657.393 463.945
1080 0 84.1064 13.3402 1122 108.949 657.879 463.305
1081 0 88.0862 13.43 1183 107.251 657.433 462.169
1082 0 89.1116 12.5461 1118 110.784 657.059 459.407
1083 1 48.0556 11.2162 539 111.022 656.675 479.614
1084 0 47.0479 11.3926 536 112.61 656.261 478.851
1085 0 51.0492 13.4576 687 105.466 656.932 475.792
1086 0 52.0173 14.3029 744 104.141 657.224 477.228
1087 0 53.0632 12.193 647 110.348 657.297 476.674
1088 0 53.0703 11.758 624 112.761 657.048 476.189
1089 0 56.1669 12.3204 692 110.215 657.584 474.069
1090 0 58.1355 13.9674 812 106.308 657.342 472.909
1091 0 60.3033 12.4703 752 109.761 657.934 470.367
1092 0 60.0942 13.6286 819 108.259 657.518 470.277
1093 0 61.0942 13.2909 812 110.007 655.594 471.272
1094 0 65.027 13.8558 901 108.226 655.517 469.767
1095 0 67.0345 12.3071 825 110.938 654.912 468.241
1096 0 68.0168 12.9527 881 110.504 655.073 468.776
1097 0 71.038 12.7256 904 111.116 655.309 468.403
1098 0 73.092 12.6416 924 111.899 655.579 465.238
1099 0 76.1284 12.9912 989 111.335 655.429 464.166
1100 0 78.1851 12.1506 950 113.985 655.386 461.26
1101 0 79.1379 12.1055 958 114.589 655.121 459.841
1102 0 83.1332 13.1596 1094 112 655.551 460.52
1103 0 86.087 12.7081 1094 112.256 655.647 461.818
1104 0 89.2759 11.8621 1059 114.69 656.195 458.071
1105 0 91.1309 11.8511 1080 115.346 656.146 457.381
1106 0 94.2559 12.3069 1160 114.76 656.128 454.637
1107 1 51.1813 11.1564 571 113.553 656.18 476.264
1108 0 50.1659 10.0666 505 106.277 656.168 469.509
1109 0 53.1246 9.84477 523 103.979 656.811 470.239
1110 0 54.1581 8.9368 484 102.312 656.349 470.236
1111 0 56.1505 10.2225 574 100.714 656.613 467.77
1112 0 57.1024 10.7876 616 100.974 656.469 468.218
1113 0 60.1664 10.7036 644 99.9193 656.109 467.848
1114 0 65.1817 10.8926 710 99.7099 656.442 466.928
1115 0 65.1563 10.0681 656 101.648 656.197 465.535
1116 0 67.2268 10.8736 731 100.752 655.967 466.215
1117 0 72.1679 9.86589 712 102.52 656.663 465.103
1119 0 71.1477 9.96519 709 105.549 656.477 461.214
1120 0 75.0956 10.6531 800 104.286 656.489 460.78
1121 0 78.1447 10.2886 804 103.838 657.112 460.389
1122 0 81.2102 11.3163 919 102.447 656.047 457.034
1123 0 85.1209 11.607 988 101.225 656.029 460.883
1124 0 90.159 12.5223 1129 99.7839 656.214 458.974
1125 0 93.2169 10.8028 1007 108.001 656.532 447.381
1126 1 52.0506 11.7578 612 97.8497 656.484 471.619
1127 0 53.0564 11.2522 597 107.762 657.052 475.095
1128 0 57.134 11.9719 684 103.952 656.396 474.427
1129 0 59.0517 11.7524 694 104.128 655.785 475.601
1130 0 62.0481 11.7006 726 103.895 655.935 473.415
1131 0 61.0776 11.3135 691 105.81 656.004 471.886
1132 0 64.0421 13.8034 884 99.7975 656.611 469.351
1133 0 67.2723 11.2825 759 105.96 656.926 469.12
1134 0 70.0715 12.4159 870 103.444 656.215 469.318
1135 0 71.0312 11.5161 818 106.001 656.44 467.059
1136 0 75.121 11.4881 863 105.423 656.278 466.569
1137 0 78.0745 11.6427 909 102.121 655.953 462.068
1138 0 81.1668 11.0883 900 103.496 655.938 460.552
1139 0 83.111 10.6244 883 104.446 656.347 459.638
1140 0 86.0673 11.3632 978 104.438 656.559 458.676
1141 0 90.0544 12.1038 1090 103.054 656.261 456.392
1142 1 50.1003 11.6367 583 99.9228 655.911 477.75
1143 0 49.1077 11.5461 567 105.57 656.693 478.734
1144 0 51.047 12.5375 640 109.534 655.198 474.489
1145 0 54.0384 12.5096 676 106.928 655.973 475.417
1146 0 54.0149 12.2003 659 108.596 655.956 475.498
1147 0 57.0837 13.489 770 105.547 655.514 473.592
1148 0 55.0847 12.272 676 110.917 654.688 473.012
1149 0 58.0739 13.4828 783 107.711 654.222 471.959
1150 0 58.048 12.5241 727 110.725 654.287 471.179
1151 0 63.1002 12.5515 792 109.047 654.309 469.865
1152 0 64.092 13.5898 871 107.721 654.623 469.859
1153 0 69.1025 13.5451 936 107.09 654.625 466.722
1154 0 69.0454 13.5708 937 107.869 654.628 465.207
1155 0 72.0253 14.1478 1019 107.094 654.404 464.045
1156 0 74.0838 13.9437 1033 107.96 654.201 463.137
1157 0 77.0738 13.5584 1045 107.743 655.005 461.903
1158 0 78.0502 12.4535 972 111.539 654.84 459.841
1159 0 83.1224 14.1117 1173 108.278 654.918 458.669
1160 0 86.0809 13.2666 1142 109.778 654.485 458.673
1161 0 89.0857 14.2447 1269 109.414 655.047 455.451
1162 0 92.2352 13.2379 1221 112.715 654.994 452.552
1163 1 48.0959 11.6226 559 111.56 655.014 474.263
1164 0 48.0802 11.2728 542 109.304 655.661 471.697
1165 0 49.134 12.1911 599 108.922 655.551 472.274
1166 0 52.2002 11.839 618 104.715 656.395 471.608
1167 0 53.154 10.9681 583 111.974 655.237 470.787
1168 0 55.1104 11.5223 635 111.857 655.813 469.03
1169 0 57.2175 11.7447 672 110.193 654.964 471.265
1170 0 59.1595 11.0549 654 110.807 656.086 471.306
1171 0 60.3137 10.2962 621 114.225 655.494 466.802
1172 0 63.2216 12.0687 763 109.742 655.874 467.232
1173 0 65.2472 11.3568 741 112.568 655.908 466.258
1174 0 68.2569 11.2516 768 112.336 655.858 463.99
1175 0 68.1795 11.4404 780 113.386 655.885 462.164
1176 0 71.2654 11.2116 799 113.181 655.395 462.934
1177 0 74.1117 10.4977 778 115.586 655.246 459.359
1178 0 75.1975 11.7956 887 113.719 655.418 460.132
1179 0 83.2765 12.4045 1033 112.307 655.477 457.56
1180 0 85.2153 12.2396 1043 113.348 656.243 455.961
1181 0 86.1097 12.5886 1084 113.861 655.688 454.22
1182 0 88.2793 12.1319 1071 115.246 655.57 451.64
1183 1 47.2349 9.48451 448 108.708 656.594 475.5
1184 0 49.0874 11.6323 571 111.387 657.487 477.417
1185 0 52.0305 12.8771 670 109.037 657.546 477.33
1186 0 53.0893 11.9986 637 111.871 657.568 477.135
1187 0 55.1281 12.3712 682 111.891 657.324 474.182
1188 0 56.1192 12.5982 707 112.318 656.986 473.458
1189 0 60.0797 13.4488 808 109.228 656.575 472.84
1190 0 61.097 12.0464 736 112.515 656.605 474.212
1191 0 62.1038 12.2698 762 114.215 656.991 470.77
1192 0 65.0569 12.9271 841 112.385 656.904 469.548
1193 0 68.085 14.0706 958 109.434 656.8 468.53
1194 0 68.0966 13.055 889 113.343 656.604 467.073
1195 0 71.0841 12.7877 909 115.121 656.328 467.029
1196 0 73.2384 13.4765 987 112.915 656.421 465.72
1197 0 76.1785 13.6521 1040 113.606 656.187 464.556
1198 0 76.1359 13.6861 1042 116.203 656.836 462.497
1199 0 81.0934 14.5388 1179 113.201 656.737 462.581
1200 0 83.1623 14.1771 1179 115.605 656.992 462.092
1201 0 84.0927 12.7241 1070 119.638 656.466 461.042
1202 1 44.0451 11.1477 491 122.301 656.986 480.409
1203 0 47.0446 11.5635 544 121.41 656.934 479.836
1204 0 49.1023 13.9097 683 117.833 656.698 476.259
1205 0 51.0832 12.7243 650 122.265 656.018 476.275
1206 0 52.0949 12.8036 667 123.652 655.436 474.579
1207 0 52.0929 12.804 667 144.348 656.43 474.624
1208 0 56.057 12.7906 717 122.964 654.805 474.268
1209 0 55.1033 13.7741 759 121.941 654.598 474.157
1210 0 57.0483 13.322 760 123.058 654.903 472.876
1211 0 60.0705 14.2166 854 119.093 654.984 473.115
1212 0 63.0467 13.1173 827 120.769 654.7 472.054
1213 0 64.1239 13.9729 896 120.046 655.286 469.675
1214 0 66.0863 13.1646 870 122.211 654.745 469.717
1215 0 67.1073 13.5455 909 121.091 654.728 468.51
1216 0 73.0577 14.0985 1030 116.707 655.25 467.588
1217 0 74.1531 13.4991 1001 119.516 655.265 463.89
1218 0 75.1326 13.7889 1036 119.181 655.425 463.858
1219 0 79.175 14.108 1117 117.57 654.936 463.437
1220 0 80.2671 13.8662 1113 119.762 655.95 461.279
1221 0 83.1945 13.7389 1143 119.489 655.78 459.613
1222 0 85.1456 13.4828 1148 120.557 655.463 460.169
1223 0 88.1568 13.7482 1212 121.24 655.513 456.394
1224 0 92.4393 14.1282 1306 118.756 655.426 457.642
1225 0 94.2943 13.8078 1302 121.784 655.248 451.817
1226 0 98.4624 14.5233 1430 117.506 655.257 450.51
1227 0 101.362 13.7033 1389 118.467 656.055 450.587
1228 0 107.494 13.7589 1479 114.348 655.63 450.084
1229 0 107.278 11.9782 1285 123.679 655.04 445.752
1230 1 58.3212 10.0478 586 117.608 655.824 469.49
1231 0 59.1946 11.4031 675 115.744 655.876 471.99
1232 0 64.1706 11.5162 739 107.655 655.963 471.681
1233 0 64.1803 11.047 709 110.334 656.23 470.547
1234 0 65.1666 12.1074 789 108.337 656.136 469.852
1235 0 69.158 12.71 879 108.135 656.295 466.769
1236 0 70.1761 11.8844 834 107.224 655.766 465.585
1237 0 72.1597 11.6409 840 108.019 655.396 464.485
1238 0 75.2322 10.8065 813 109.009 655.3 464.601
1239 0 78.23 11.6707 913 108.796 655.71 461.843
1240 0 78.1737 10.7453 840 112.113 655.162 458.842
1241 0 83.1272 11.8012 981 111.525 655.228 459.927
1242 0 86.1257 11.7154 1009 112.259 655.243 456.7
1243 0 89.1825 12.7491 1137 111.051 655.368 456.288
1244 0 92.2225 11.4614 1057 113.342 655.531 455.908
1245 0 99.1895 13.3684 1326 107.136 655.692 454.89
1246 0 100.203 12.4547 1248 111.078 655.716 452.913
1247 0 103.196 13.1303 1355 109.667 655.441 450.674
1248 0 105.212 12.1564 1279 109.756 655.212 445.987
1249 0 110.137 12.3301 1358 109.463 655.822 444.906
1250 0 113.137 11.5877 1311 111.993 654.941 442.629
1251 0 118.122 12.3686 1461 109.841 654.32 442.372
1252 1 63.218 8.63679 546 112.311 655.264 466.778
1253 0 65.1577 11.7561 766 107.574 654.815 466.033
1254 0 69.0743 11.5528 798 106.605 655.524 468.005
1255 0 68.086 10.5308 717 111.784 656.771 471.126
1256 0 71.1386 11.0489 786 111.275 656.583 468.44
1257 0 74.1357 12.1264 899 108.663 656.095 467.024
1258 0 75.0853 11.1207 835 112.35 655.866 465.841
1259 0 79.1412 12.6735 1003 109.148 655.71 463.615
1260 0 80.2701 11.1499 895 112.161 655.951 464.909
1261 0 83.1492 11.4493 952 113.143 656.638 460.764
1262 0 86.1895 12.1477 1047 110.84 656.191 460.52
1263 0 90.2474 12.1222 1094 111.154 656.235 457.887
1264 0 93.2097 12.1983 1137 107.297 655.865 452.268
1265 0 98.1755 12.3045 1208 107.171 656.63 454.631
1266 0 99.2073 10.9468 1086 111.06 655.815 451.66
1267 0 99.2131 10.9159 1083 129.27 655.826 451.835
1268 0 105.23 10.6909 1125 116.573 656.11 450.199
1269 1 55.1005 10.617 585 107.814 656.472 472.952
1270 0 59.143 10.8381 641 107.318 655.401 470.697
1271 0 60.1802 13.5593 816 112.449 656.118 470.545
1272 0 63.2141 14.2373 900 109.461 655.396 471.026
1273 0 64.2067 13.8148 887 110.62 655.605 469.915
1274 0 65.1311 12.8664 838 113.585 656.16 469.675
1275 0 69.1626 13.0273 901 112.683 655.586 468.522
1276 0 70.1088 13.636 956 111.75 655.819 467.692
1277 0 71.0565 13.1304 933 113.657 656.737 465.558
1278 0 75.0897 14.8622 1116 108.423 656.068 463.645
1279 0 75.0804 13.5854 1020 114.312 656.1 463.654
1280 0 78.0553 13.5545 1058 114.544 656.327 463.309
1281 0 82.0675 14.0738 1155 114.125 656.042 461.024
1282 0 83.0847 13.8894 1154 115.586 656.285 459.18
1283 0 84.1298 14.0378 1181 116.616 656.837 458.339
1284 0 88.1067 13.4723 1187 118.036 656.829 458.997
1285 0 91.1601 14.48 1320 116.298 656.228 455.377
1286 0 91.1706 12.4602 1136 124.219 655.699 454.785
1287 0 95.1635 13.3665 1272 121.957 655.709 453.486
1288 0 100.213 13.2019 1323 121.613 655.265 452.816
1289 0 104.16 13.4504 1401 122.168 655.449 449.497
1290 1 54.0736 12.0206 650 126.742 655.045 471.848
1291 0 58.1074 12.0811 702 127.38 654.822 469.127
1292 0 59.0878 14.0469 830 121.861 655.277 471.254
1293 0 63.0767 13.2537 836 123.11 655.433 469.106
1294 0 64.0695 12.7518 817 125.067 655.39 467.169
1295 0 67.1826 14.4234 969 119.529 655.428 466.107
1296 0 68.2435 14.2285 971 120.387 655.63 464.337
1297 0 71.1263 13.9611 993 120.994 655.283 462.685
1298 0 75.1814 14.179 1066 118.029 655.368 462.67
1299 0 76.1988 13.0842 997 121.671 655.274 462.814
1300 0 79.0696 13.7474 1087 119.634 655.346 461.051
1301 0 82.0898 13.7289 1127 119.531 655.642 459.413
1302 0 85.04 13.7582 1170 119.989 655.893 457.933
1303 1 42.0138 11.9485 502 118.845 655.779 479.426
1304 0 45.0503 13.0743 589 116.367 655.771 477.778
1305 0 45.0444 12.1436 547 119.601 655.218 476.974
1306 0 47.0816 12.9987 612 119.232 656.098 476.686
1307 0 48.1087 12.4302 598 121.687 655.507 475.891
1308 0 47.0829 12.1488 572 124.267 655.869 474.96
1309 0 51.1321 13.5727 694 120.677 656.744 474.497
1310 0 52.07 14.0964 734 119.631 656.04 473.691
1311 0 54.0831 14.2189 769 120 655.987 472.255
1312 0 55.0847 13.6335 751 123.418 656.164 472.132
1313 0 54.0758 13.8324 748 124.873 655.48 470.473
1314 0 58.0188 13.6335 791 125.274 655.331 469.011
1315 0 60.0332 14.7585 886 122.213 655.023 468.503
1316 0 60.083 13.4314 807 128.696 655.974 467.859
1317 0 62.1566 13.4982 839 129.437 655.635 466.774
1318 0 66.0769 14.2259 940 125.838 655.547 467.164
1319 0 68.0704 14.8376 1010 125.941 655.898 464.784
1320 0 71.1019 13.8815 987 129.025 654.893 463.416
1321 0 75.047 15.4436 1159 124.713 655.607 463.856
1322 0 76.1098 15.3988 1172 126.445 655.526 462.488
1323 0 78.0529 14.2083 1109 130.62 655.094 461.6
1324 0 82.1544 15.0327 1235 128.745 655.547 461.006
1325 0 86.1023 17.4095 1499 121.364 655.292 457.747
1326 0 87.1012 15.1663 1321 129.164 654.8 458.787
1327 0 88.3501 15.2235 1345 127.575 655.15 458.66
1328 0 92.0668 15.5865 1435 126.906 655.417 457.296
1329 0 96.1626 16.0249 1541 125.333 655.331 455.704
1330 0 99.1355 15.9378 1580 125.609 655.406 453.475
1331 1 53.0329 14.1233 749 136.53 655.359 474.649
1332 0 56.0406 14.6858 823 134.761 655.243 474.211
1333 0 59.0385 16.0404 947 130.642 654.827 473.952
1334 0 61.0906 14.4376 882 136.206 654.847 471.811
1335 0 63.0715 16.0294 1011 132.014 654.849 471.381
1336 0 64.1334 15.0468 965 136.688 654.559 470.137
1337 0 67.1538 16.6186 1116 132.102 654.846 463.511
1338 0 69.04 15.4114 1064 136.836 655.142 464.401
1339 0 70.103 14.4644 1014 142.522 655.214 462.367
1340 0 73.0408 15.4297 1127 141.539 655.373 458.745
1341 0 75.1802 15.8286 1190 139.925 654.941 459.292
1342 0 78.0722 14.73 1150 143.065 655.063 459.482
1343 0 80.0593 15.4635 1238 140.875 655.392 458.192
1344 0 83.129 15.7947 1313 139.211 654.971 455.149
1345 0 86.0754 15.498 1334 139.343 655.261 455.867
1346 0 87.1461 14.5618 1269 143.748 655.217 454.185
1347 0 90.1056 15.5928 1405 138.595 654.874 455.198
1348 0 93.1901 15.6669 1460 140.573 655.388 454.147
1349 0 96.1388 15.5608 1496 142.891 655.209 449.92
1350 0 101.098 16.0141 1619 140.968 655.689 450.088
1351 0 104.209 14.6437 1526 145.067 655.512 447.595
1352 1 55.1582 12.4914 689 147.194 655.906 473.443
1353 0 55.0744 13.4545 741 147.049 656.362 471.663
1354 0 58.1755 14.2156 827 143.765 655.643 469.489
1355 0 62.0752 15.2396 946 135.907 654.968 469.847
1356 0 62.2207 15.9754 994 135.198 655.373 467.946
1357 0 61.1062 14.5321 888 140.036 655.548 468.106
1358 0 68.1429 14.7337 1004 135.872 655.729 465.922
1359 0 71.2265 15.1488 1079 134.781 655.178 462.835
1360 0 72.1518 15.1486 1093 135.77 655.216 462.07
1361 0 75.1747 15.4041 1158 134.255 654.432 460.905
1362 0 78.2329 14.917 1167 135.572 655.036 459.254
1363 0 82.1271 15.5369 1276 132.429 654.797 457.987
1364 0 79.0822 13.9981 1107 141.155 654.635 453.344
1365 0 86.3255 14.8855 1285 135.811 654.792 455.879
1366 0 87.1061 15.0047 1307 137.64 655.137 453.944
1367 0 91.1346 15.4936 1412 135.738 655.234 452.129
1368 0 97.1291 15.6184 1517 133.557 654.784 447.755
1369 0 96.2641 15.1666 1460 136.929 655.134 449.803
1370 0 100.102 15.7639 1578 134.593 654.627 447.347
1371 0 104.114 15.2717 1590 135.829 655.421 446.991
1372 0 107.265 15.224 1633 136.276 655.178 444.399
1373 0 111.137 15.2335 1693 135.804 655.129 444.248
1374 0 114.147 15.8042 1804 135.493 654.512 441.819
1375 0 119.323 15.0348 1794 135.96 654.585 440.26
1376 0 123.279 15.4203 1901 134.946 655.053 437.756
1377 0 127.306 14.5162 1848 138.31 654.703 437.387
1378 0 132.145 15.3619 2030 135.554 654.736 433.616
1379 0 137.16 14.9242 2047 138.204 654.919 433.448
1380 0 143.261 15.0216 2152 138.285 655.284 429.065
1381 0 150.116 15.3615 2306 139.605 655.086 424.017
1382 0 155.102 14.7967 2295 140.291 655.375 423.973
1383 1 78.074 13.5641 1059 142.221 654.588 459.774
1384 0 82.0999 14.2997 1174 139.838 654.701 456.589
1385 0 83.1607 14.5381 1209 139.986 654.877 455.325
1386 0 87.0976 14.9947 1306 137.692 655.431 452.777
1387 0 92.1663 14.6908 1354 136.329 655.511 450.093
1388 0 93.2042 14.6131 1362 137.742 655.755 447.841
1389 0 99.1403 14.2424 1412 136.769 655.519 446.611
1390 0 103.155 13.4846 1391 139.178 656.656 444.288
1391 0 106.079 14.3289 1520 138.187 655.188 440.687
1392 0 113.23 14.3425 1624 135.889 655.179 440.285
1393 0 115.379 13.8673 1600 139.968 654.972 435.558
1394 0 120.11 14.1453 1699 140.607 654.84 435.51
1395 0 123.149 14.2835 1759 142.039 654.386 431.472
1396 0 129.22 14.278 1845 142.336 654.268 428.878
1397 1 79.3542 13.7359 1090 136.91 654.765 456.33
1398 0 82.1946 13.4924 1109 139.157 654.243 452.151
1399 0 86.1632 13.6137 1173 138.472 654.391 450.655
1400 0 85.1808 13.395 1141 140.945 654.414 449.258
1401 0 89.3595 13.261 1185 139.603 654.533 449.43
1402 0 93.3354 13.8318 1291 138.004 654.591 446.589
1403 0 94.1531 13.9029 1309 138.18 654.276 445.705
1404 0 97.1255 12.8185 1245 141.481 654.222 442.386
1405 0 104.291 13.4815 1406 138.038 653.755 439.272
1406 0 107.31 13.5775 1457 136.861 653.476 437.046
1407 0 109.124 13.5809 1482 135.93 653.75 437.246
1408 0 116.213 12.8988 1499 135.963 653.618 434.036
1409 0 116.166 13.0159 1512 136.39 653.796 432.028
1410 1 65.097 11.4752 747 137.114 654.104 456.803
1411 0 65.1562 11.1578 727 138.631 654.409 457.099
1412 0 65.0917 12.1675 792 138.871 653.942 454.179
1413 0 69.1006 13.7191 948 132.992 654.065 451.945
1414 0 71.1544 13.3794 952 134.132 654.027 452.355
1415 0 74.0879 13.9699 1035 130.681 654.271 450.53
1416 0 73.0743 13.2605 969 135.642 654.347 447.15
1417 0 77.059 13.8465 1067 132.802 654.251 448.135
1418 0 82.0659 13.2942 1091 132.775 653.313 446.236
1419 0 79.05 12.7894 1011 137.907 653.601 444.223
1420 0 85.1126 13.3823 1139 134.083 653.821 441.86
1421 0 87.1097 12.8344 1118 137.49 653.891 440.895
1422 0 88.0692 13.478 1187 136.133 653.498 438.493
1423 0 93.0705 12.9902 1209 135.187 653.725 436.47
1424 0 93.0714 13.076 1217 156.659 654.721 436.675
1425 0 99.1159 13.0958 1298 136.167 654.418 435.178
1426 0 104.157 13.0668 1361 135.918 655.356 432.956
1427 0 104.15 12.7796 1331 138.072 654.898 430.932
1428 0 109.075 12.5235 1366 139.152 654.666 427.445
1429 0 115.131 12.5248 1442 138.228 654.795 426.217
1430 0 117.093 12.8445 1504 137.852 654.525 423.907
1431 0 122.265 12.6773 1550 138.519 654.768 419.748
1432 0 132.162 12.8555 1699 139.064 654.564 420.85
1433 1 77.1596 10.1737 785 125.91 654.573 456.266
1434 0 78.2578 9.69872 759 128.323 654.486 452.689
1435 0 80.1614 9.85511 790 126.934 654.329 452.409
1436 0 85.0739 11.3431 965 124.232 654.838 451.075
1437 0 88.0844 11.5117 1014 125.536 654.724 449.474
1438 0 86.1703 10.8042 931 128.932 654.591 446.522
1439 0 92.1576 10.9161 1006 127.242 654.85 446.197
1440 0 94.2363 11.7364 1106 125.312 654.453 446.014
1441 0 97.2033 11.6251 1130 126.204 654.652 442.537
1442 0 100.254 12.0094 1204 125.6 654.887 440.532
1443 0 102.296 10.8215 1107 128.234 654.577 439.933
1444 0 104.275 11.1628 1164 127.224 654.826 437.271
1445 0 108.357 11.4529 1241 126.902 654.665 435.683
1446 0 110.371 10.6369 1174 129.543 654.357 432.769
1447 0 116.372 12.3827 1441 124.74 654.895 432.92
1448 0 119.46 10.7986 1290 129.098 655.466 429.633
1449 0 123.307 11.0294 1360 127.654 655.954 432.017
1450 0 129.206 10.5723 1366 130.496 655.642 424.974
1451 1 78.1465 9.96846 779 115.546 656.285 453.868
1452 0 78.1392 10.059 786 116.041 656.289 454.375
1453 0 84.1075 8.28701 697 119.314 656.3 452.485
1454 0 87.0819 9.60016 836 116.898 655.788 449.995
1455 0 88.1097 8.50077 749 119.159 655.921 449.626
1456 0 92.2318 8.05579 743 120.868 655.266 452.094
1457 0 97.377 11.1731 1088 114.487 654.316 447.167
1458 0 97.3831 8.61546 839 119.88 654.338 447.832
1459 0 102.365 8.87025 908 119.635 654.575 445.562
1460 0 100.181 8.16524 818 122.51 654.346 443.139
1461 0 106.439 9.84598 1048 117.331 655.281 443.518
1462 0 109.421 9.02934 988 117.992 654.959 443.777
1463 0 112.675 8.21835 926 118.35 654.969 443.694
1464 0 115.392 7.05422 814 118.145 654.585 440.644
1465 0 118.431 7.27849 862 116.523 654.964 441.52
1466 0 123.345 8.34245 1029 114.609 654.865 436.884
1467 0 121.475 5.63077 684 118.585 654.284 440.939
1468 1 71.1314 8.44915 601 110.473 653.536 460.632
1469 0 72.1226 9.22041 665 91.185 654.364 459.592
1470 0 71.1125 8.08578 575 114.212 654.04 458.315
1471 0 76.2568 8.99592 686 113.204 654.431 457.315
1472 0 79.0761 7.62557 603 117.076 655.844 457.494
1473 0 75.1292 7.161 538 118.955 655.773 453.357
1474 0 86.1226 9.54453 822 111.991 655.432 453.991
1475 0 82.1189 8.28067 680 115.104 655.166 451.637
1476 0 85.2797 7.8096 666 116.018 655.207 451.146
1477 0 91.2689 8.75435 799 114.701 655.18 446.991
1478 0 94.3109 10.1367 956 111.38 654.894 447.566
1479 0 98.3583 10.5634 1039 107.516 655.438 451.27
1480 0 102.404 12.3335 1263 106.073 655.067 445.572
1481 0 105.494 11.1286 1174 109.802 654.422 447.186
1482 0 104.248 9.75562 1017 114.381 654.324 441.767
1483 0 108.338 10.2734 1113 113.765 654.43 443.812
1484 1 62.0858 10.3727 644 110.272 653.438 468.584
1485 0 64.0356 8.65144 554 112.576 653.458 469.466
1486 0 64.0598 8.83549 566 113.246 653.85 462.929
1487 0 67.0766 10.57 709 95.9196 655.907 467.237
1488 0 64.045 9.10298 583 104.501 655.374 470.202
1489 0 65.068 9.25186 602 105.568 655.968 468.331
1490 0 71.1316 11.9075 847 100.164 656.079 467.856
1491 0 73.0743 10.6056 775 97.9794 656.288 465.712
1492 0 75.1143 11.7554 883 97.829 655.698 464.531
1493 0 80.1069 11.4347 916 98.2828 656.179 463.301
1494 0 81.1773 11.7274 952 98.7805 655.951 459.384
1495 0 82.1762 10.5748 869 102.419 655.544 458.532
1496 0 85.1174 11.584 986 99.3529 655.032 456.68
1497 0 89.0936 11.1119 990 100.808 655.337 457.045
1498 0 91.1786 11.0772 1010 101.463 655.082 451.383
1499 0 94.0805 12.1067 1139 101.019 655.083 457.067
1500 0 97.0727 11.6614 1132 103.285 655.045 451.02
1501 0 101.202 12.0254 1217 101.807 654.567 452.641
1502 1 56.0837 9.91375 556 100.937 655.329 470.39
1503 0 57.051 9.30747 531 103.674 655.917 473.657
1504 0 59.0552 11.5993 685 103.215 655.902 469.974
1505 0 59.086 10.1547 600 98.4133 655.313 470.52
1506 0 60.1288 10.2114 614 99.2101 654.788 469.935
1507 0 61.1462 11.219 686 100.856 655.404 469.222
1508 0 63.0896 12.0622 761 98.9908 655.51 470.122
1509 0 64.1319 12.1468 779 101.157 655.06 469.616
1510 0 66.1369 11.2343 743 102.357 655.486 469.914
1511 0 68.0634 11.4746 781 101.302 655.277 467.858
1512 0 70.173 11.5856 813 99.722 655.113 467.376
1513 0 72.1588 10.56 762 101.581 654.871 465.911
1514 0 74.1344 11.3847 844 99.8318 655.235 465.428
1515 0 73.1401 10.35 757 102.579 654.914 465.205
1516 0 78.2754 12.175 953 98.1616 654.637 462.952
1517 0 78.1719 12.1655 951 99.7823 654.467 460.905
1518 0 80.1354 10.5821 848 104.061 654.877 458.611
1519 0 82.1506 11.5885 952 103.682 654.485 458.989
1520 0 84.0731 12.1085 1018 104.527 654.6 457.712
1521 0 87.2263 12.3357 1076 106.413 654.629 456.913
1522 0 88.0801 12.6816 1117 108.489 654.579 457.759
1523 0 93.0729 13.151 1224 108.264 654.387 456.532
1524 0 94.215 12.7262 1199 113.158 654.489 455.498
1525 0 97.2094 13.7435 1336 112.312 655.237 455.066
1526 0 101.165 13.9476 1411 120.498 654.967 456.758
1527 0 102.073 13.2846 1356 127.958 655.044 455.184
1528 1 55.0688 11.9305 657 126.706 655.309 479.522
1529 0 55.1398 11.8608 654 118.627 653.538 477.936
1530 0 57.1711 12.9961 743 115.97 653.474 477.38
1531 0 59.1415 11.7515 695 111.967 654.485 475.41
1532 0 58.0938 11.7396 682 114.006 654.569 474.818
1533 0 60.0708 11.0203 662 116.074 654.766 474.829
1534 0 64.0961 12.2784 787 113.316 655.262 472.954
1535 0 65.0928 11.86 772 115.317 655.013 472.588
1536 0 67.093 11.8492 795 116.775 654.243 470.36
1537 0 69.08 12.2901 849 116.274 654.371 470.736
1538 0 71.062 11.8207 840 122.688 654.524 470.705
1539 0 74.1095 12.7244 943 115.488 654.581 469.801
1540 0 74.1933 11.8474 879 122.768 653.876 470.985
1541 0 76.1614 12.7099 968 119.106 653.676 469.83
1542 0 80.2611 11.5498 927 117.81 653.831 468.038
1543 0 83.2056 12.7515 1061 115.772 654 465.038
1544 0 86.1442 12.4326 1071 117.702 652.936 463.906
1545 0 87.2117 12.7276 1110 116.692 653.35 464.016
1546 0 90.2535 11.9331 1077 119.496 653.724 462.24
1547 0 94.2045 13.3008 1253 116.197 653.895 460.168
1548 0 97.1534 11.6517 1132 124.473 653.535 458.235
1549 0 100.189 12.736 1276 118.745 653.433 456.243
1550 0 104.096 13.5837 1414 113.019 652.667 454.021
1551 1 56.0709 10.8434 608 116.479 652.97 479.906
1552 0 60.0278 11.9611 718 120.994 653.292 477.174
1553 0 60.1209 11.8262 711 113.416 652.954 474.096
1554 0 63.2076 13.0839 827 110.403 653.203 471.549
1555 0 64.195 13.6615 877 109.689 652.838 469.943
1556 0 67.1245 13.3036 893 111.554 652.45 467.052
1557 0 68.2519 12.7322 869 115.166 652.86 468.28
1558 0 73.1008 13.3377 975 118.419 652.199 468.16
1559 0 72.0604 12.4479 897 122.416 652.419 464.368
1560 0 78.2143 13.3352 1043 119.385 652.324 462.021
1561 0 79.2422 13.9193 1103 119.41 652.194 461.157
1562 0 82.1986 12.3481 1015 122.013 652.335 460.876
1563 0 85.379 13.6099 1162 119.725 652.345 458.707
1564 0 87.2837 12.614 1101 122.391 652.167 457.458
1565 0 90.2484 13.075 1180 120.559 652.415 456.448
1566 0 93.1939 12.3721 1153 123.628 651.906 453.402
1567 0 100.168 13.7569 1378 118.862 652.607 452.742
1568 1 53.3173 13.354 712 119.24 652.414 474.551
1569 0 54.3712 13.2607 721 120.311 651.843 473.44
1570 0 56.3365 13.6679 770 119.665 651.727 472.248
1571 0 57.2753 14.7184 843 118.287 652.06 470.319
1572 0 60.3616 15.1918 917 116.83 651.956 470.7
1573 0 60.1175 14.0725 846 120.861 651.583 469.21
1574 0 65.2875 13.6626 892 121.12 652.039 467.786
1575 0 67.2861 12.8407 864 121.372 652.193 469.451
1576 0 69.2239 14.0269 971 120.433 652.331 466.747
1577 0 71.2204 14.2656 1016 121.237 652.156 465.147
1578 0 72.2635 13.4646 973 124.839 652.405 463.714
1579 0 76.4922 13.6223 1042 123.877 651.447 463.13
1580 0 81.2243 15.3279 1245 118.412 652.037 462.767
1581 0 83.4385 13.9624 1165 121.953 651.591 461.632
1582 0 86.4668 13.8435 1197 124.157 652.464 457.564
1583 0 88.2602 14.1287 1247 124.372 651.763 455.321
1584 0 93.4161 14.5478 1359 122.379 651.453 454.497
1585 0 93.4161 14.5478 1359 167.318 650.464 454.581
1586 0 101.314 14.5982 1479 122.433 651.693 453.277
1587 0 103.267 13.6151 1406 126.682 651.613 450.568
1588 1 55.2881 13.1131 725 124.714 651.346 473.243
1589 0 55.1795 12.414 685 129.412 651.988 472.152
1590 0 57.1914 14.0056 801 125.732 651.627 470.709
1591 0 61.1461 14.7843 904 122.059 651.168 469.295
1592 0 62.1791 13.7506 855 126.543 651.945 466.742
1593 0 65.1815 14.8202 966 121.704 651.703 467.168
1594 0 68.2428 14.2139 970 123.694 652.107 465.51
1595 0 70.1707 13.5099 948 125.608 652.384 464.546
1596 0 71.149 13.0852 931 128.389 651.754 463.676
1597 0 73.0997 14.1587 1035 125.091 651.891 462.203
1598 0 77.1836 14.2906 1103 124.517 652.199 461.921
1599 0 79.2509 13.6024 1078 126.091 652.147 460.72
1600 0 82.1449 14.864 1221 123.327 652.597 458.238
1601 0 85.1247 13.6976 1166 126.098 652.316 456.043
1602 0 87.24 14.4658 1262 124.329 652.126 456.695
1603 0 90.0628 14.6564 1320 124.389 651.671 453.939
1604 0 92.2263 14.0849 1299 127.186 652.135 451.348
1605 0 91.1479 13.6591 1245 130.534 652.067 450.224
1606 0 97.1111 14.3341 1392 127.506 651.976 450.461
1607 0 100.077 14.199 1421 129.32 652.324 446.05
1608 0 104.141 13.8178 1439 129.535 652.23 446.651
1609 0 101.081 13.1677 1331 134.906 652.019 441.865
1610 0 108.123 14.9737 1619 128.715 651.95 440.918
1611 0 110.128 14.9463 1646 129.198 651.713 439.28
1612 0 114.14 14.8502 1695 129.532 651.758 435.12
1613 0 117.205 14.1546 1659 131.218 652.234 432.277
1614 0 120.191 13.7698 1655 132.982 652.433 427.511
1615 0 126.227 14.0145 1769 131.556 651.57 427.558
1616 0 126.233 13.9425 1760 167.17 650.558 427.485
1617 1 71.2448 11.0745 789 117.283 652.218 453.364
1618 0 74.2722 12.2522 910 114.427 652.169 455.696
1619 0 77.2017 12.5127 966 115.572 651.944 452.974
1620 0 83.1392 13.0985 1089 121.958 652.316 456.704
1621 0 86.2076 12.6323 1089 123.795 652.092 453.586
1622 0 89.1995 12.1974 1088 124.186 651.885 453.469
1623 0 92.1779 11.7816 1086 124.774 652.178 450.944
1624 0 89.137 12.0377 1073 125.13 651.923 448.396
1625 0 93.1729 13.4481 1253 122.152 651.558 445.716
1626 0 96.0728 12.9485 1244 123.121 652.183 444.695
1627 0 96.0728 12.9589 1245 146.782 653.173 444.731
1628 0 100.092 12.0089 1202 128.783 652.007 437.572
1629 0 107.145 12.1984 1307 127.62 652.021 435.347
1630 0 109.128 12.4167 1355 126.725 651.477 435.865
1631 0 116.196 13.4945 1568 124.729 651.663 431.841
1632 1 65.2965 9.2348 603 117.866 651.471 454.988
1633 0 64.167 9.78697 628 115.729 651.965 458.158
1634 0 74.0666 10.6796 791 119.515 652.57 461.315
1635 0 75.1718 10.2698 772 121.617 653.053 460.003
1636 0 78.2159 11.903 931 117.866 652.71 459.412
1637 0 79.1143 10.1752 805 122.671 652.923 458.676
1638 0 82.0917 11.7551 965 119.377 652.421 456.196
1639 0 84.1448 10.9573 922 120.888 651.951 454.829
1640 0 86.1262 10.1015 870 123.484 652.654 453.792
1641 0 91.1942 11.2727 1028 120.847 652.819 453.006
1642 0 93.1851 10.5382 982 121.963 653.26 452.848
1643 0 95.0943 11.3677 1081 119.96 653.282 451.057
1644 0 97.3508 9.90233 964 124.023 652.765 447.268
1645 0 99.2394 10.4193 1034 122.574 652.484 447.391
1646 0 104.234 12.1073 1262 119.062 652.739 444.282
1647 0 106.224 10.1766 1081 124.883 652.879 442.892
1648 0 104.1 13.0356 1357 113.398 652.77 441.557
1649 1 116.191 11.3262 1316 120.119 652.769 440.337
1650 0 116.168 9.9855 1160 122.744 652.528 437.272
1651 0 120.318 11.2951 1359 119.137 651.394 435.175
1652 1 65.227 8.44742 551 107.198 651.759 464.475
1653 0 69.1634 9.02212 624 105.309 651.861 462.726
1654 0 72.1263 7.12639 514 109.85 651.903 462.488
1655 0 74.0902 8.51664 631 107.366 652.036 463.834
1656 0 75.0894 8.80284 661 107.952 652.304 460.475
1657 0 80.2042 10.6603 855 104.654 652.007 457.441
1658 0 80.1123 8.01375 642 110.385 651.251 459.098
1659 0 81.1374 7.92483 643 111.535 651.435 455.485
1660 0 87.2502 10.2922 898 107.95 651.528 454.773
1661 0 91.1284 10.8638 990 108.4 652.202 451.912
1662 0 94.184 9.56638 901 111.764 652.254 451.058
1663 0 95.0669 9.82466 934 112.514 652.026 448.929
1664 0 99.1538 10.6703 1058 112.704 651.499 447.879
1665 0 101.119 10.6112 1073 114.069 651.488 447.112
1666 0 104.16 9.76379 1017 118.029 651.599 445.322
1667 0 108.212 10.8398 1173 116.633 652.006 443.612
1668 1 61.0829 9.56078 584 107.384 651.057 471.219
1669 0 60.3211 9.26708 559 109.834 651.617 467.174
1670 0 65.0482 9.97722 649 116.282 650.775 466.227
1671 0 63.15 9.96041 629 110.817 651.377 469.526
1672 0 66.079 9.83671 650 111.842 650.294 466.705
1673 0 69.1068 10.5634 730 110.252 650.655 468.371
1674 0 72.129 10.6476 768 110.125 651.551 466.151
1675 0 74.1105 10.2819 762 111.301 651.857 463.154
1676 0 76.0812 10.7385 817 111.531 651.67 463.328
1677 0 77.0862 10.391 801 112.576 651.404 462.584
1678 0 82.2018 11.2285 923 109.367 651.737 460.563
1679 0 82.0661 8.77341 720 110.058 651.946 456.878
1680 0 86.144 9.65825 832 106.535 652.98 450.185
1681 0 88.1117 9.60145 846 106.389 652.422 449.323
1682 0 90.1726 8.49482 766 108.634 652.119 450.277
1683 0 92.2509 9.30072 858 108.784 652.192 446.266
1684 0 96.2474 9.89118 952 108.73 651.843 445.644
1685 0 101.116 10.6412 1076 108.643 651.635 448.214
1686 0 101.181 9.74492 986 112.193 651.344 447.435
1687 0 107.108 10.3727 1111 110.951 651.855 445.495
1688 0 112.108 11.034 1237 110.598 651.829 443.34
1689 1 57.0903 9.10837 520 108.938 651.531 470.485
1690 0 60.128 9.08062 546 111.026 651.005 471.313
1691 0 63.0826 10.0186 632 110.916 651.21 469.731
1692 0 65.0848 10.9396 712 105.662 651.98 467.566
1693 0 68.0455 10.9633 746 105.105 651.255 468.208
1694 0 66.1584 11.155 738 105.537 651.287 465.92
1695 0 70.1398 11.2062 786 105.218 651.725 465.429
1696 0 73.1126 11.1745 817 104.898 652.197 463.999
1697 0 73.2002 10.0546 736 106.188 652.765 457.751
1698 0 78.1071 10.6008 828 104.339 652.643 459.899
1699 0 80.1464 12.3274 988 102.545 652.877 460.942
1700 0 80.1473 11.0921 889 105.281 652.325 456.759
1701 0 85.0804 11.2834 960 104.906 652.915 459.317
1702 0 86.065 11.3635 978 107.003 653.137 456.093
1703 0 89.0999 11.908 1061 105.592 652.74 457.385
1704 0 92.1024 11.4872 1058 104.392 652.637 455.505
1705 0 95.1436 11.9293 1135 103.21 652.812 454.87
1706 0 98.0846 11.9489 1172 103.773 652.569 451.58
1707 0 100.138 12.5028 1252 103.812 652.885 451.843
1708 0 101.302 12.6157 1278 105.358 652.635 452.755
1709 0 107.174 14.3412 1537 100.763 652.332 445.414
1710 0 108.162 13.7664 1489 104.561 652.41 451.308
1711 0 109.183 11.1465 1217 110.605 652.112 449.726
1712 0 113.22 11.7559 1331 113.497 652.718 445.76
1713 0 116.192 12.0663 1402 115.49 652.631 443.714
1714 0 123.284 12.5807 1551 115.968 652.591 443.005
1715 1 64.5322 11.5601 746 108.421 652.733 470.782
1716 0 69.6633 13.1633 917 108.739 652.674 465.742
1717 0 69.3925 12.0186 834 106.147 652.578 467.571
1718 0 73.3536 12.9782 952 103.994 651.961 467.782
1719 0 75.3935 10.9161 823 109.016 652.694 468.273
1720 0 77.4351 12.6041 976 106.939 651.825 463.881
1721 0 78.1418 12.4005 969 111.931 652.944 463.9
1722 0 80.255 11.912 956 114 653.231 462.539
1723 0 84.3083 12.0985 1020 114.109 653.585 460.784
1724 0 86.2 12.0186 1036 113.377 653.613 462.097
1725 0 88.3309 11.8532 1047 115.85 653.196 459.767
1726 0 88.3309 11.7852 1041 153.463 652.193 459.764
1727 0 93.4774 10.9759 1026 119.964 653.021 455.019
1728 0 97.6448 12.7093 1241 115.603 653.193 454.127
1729 0 100.418 12.6172 1267 116.444 653.237 452.635
1730 0 101.429 11.8507 1202 119.864 653.25 453.921
1731 0 103.364 11.5901 1198 122.935 653.16 448.931
1732 0 107.47 12.3756 1330 121.465 652.628 447.422
1733 0 110.276 12.4234 1370 121.131 653.232 443.461
1734 0 110.276 12.4688 1375 146.879 654.233 443.553
1735 0 115.253 12.4335 1433 122.849 653.07 441.826
1736 1 63.2774 10.7305 679 115.689 652.667 471.14
1737 0 64.2385 9.68267 622 120.444 653.193 470.458
1738 0 69.1335 12.1215 838 117.469 652.81 467.062
1739 0 70.2059 12.3494 867 116.935 652.806 467.052
1740 0 74.3451 12.9935 966 114.878 652.97 464.652
1741 0 74.1889 13.2904 986 116.767 653.203 463.229
1742 0 78.4252 12.7255 998 116.829 653.352 463.235
1743 0 78.4259 12.7509 1000 153.803 654.383 463.115
1744 0 81.3084 12.5202 1018 117.524 653.303 461.951
1745 0 86.31 12.2581 1058 117.064 652.706 459.391
1746 0 88.4181 12.8933 1140 115.467 652.435 456.942
1747 0 91.4242 12.524 1145 116.716 652.21 454.696
1748 0 94.4092 13.4415 1269 113.148 651.902 455.708
1749 0 94.3507 12.3582 1166 117.439 652.288 453.167
1750 0 97.304 12.5278 1219 117.082 652.039 449.766
1751 0 103.39 14.0149 1449 111.657 651.958 448.37
1752 0 105.287 12.8601 1354 114.584 651.966 447.557
1753 1 59.1291 11.6525 689 108.909 653.221 470.253
1754 0 60.1781 11.7983 710 108.007 653.289 471.641
1755 0 62.1822 11.3537 706 109.188 653.225 469.632
1756 0 62.1476 12.1002 752 107.94 653.265 471.529
1757 0 65.1878 12.441 811 107.456 653.171 468.43
1758 0 65.0518 11.7137 762 110.479 652.856 468.104
1759 0 70.1047 12.8379 900 107.464 652.699 467.314
1760 0 70.1647 12.0858 848 110.557 652.935 464.568
1761 0 72.1295 12.8796 929 109.515 653.147 465.699
1762 0 73.1919 12.2691 898 110.756 652.406 465.22
1763 0 77.3358 12.5556 971 109.51 652.685 461.666
1764 0 76.1965 12.2709 935 112.547 653.378 460.432
1765 0 82.2336 12.7442 1048 110.852 652.694 460.809
1766 0 85.316 13.4324 1146 110.037 652.294 458.101
1767 0 87.1874 12.6394 1102 112.424 652.415 456.135
1768 0 89.3312 12.5376 1120 112.422 652.81 457.304
1769 0 90.2492 13.2744 1198 111.688 652.636 455.979
1770 0 94.2817 13.0142 1227 112.861 652.324 453.803
1771 0 95.2386 11.8229 1126 116.597 652.377 452.191
1772 0 98.1457 13.0316 1279 113.981 652.394 451.833
1773 0 102.205 12.4847 1276 114.755 652.071 448.98
1774 0 105.23 12.696 1336 115.509 652.331 446.579
1775 0 111.393 14.184 1580 113.187 652.362 440.332
1776 1 62.17 9.12015 567 113.626 651.869 467.406
1777 0 67.3162 11.5871 780 108.929 652.705 464.394
1778 0 70.5762 12.3554 872 105.794 652.747 466.849
1779 0 71.2101 12.4982 890 107.833 652.639 463.887
1780 0 74.1794 11.944 886 110.395 652.808 461.795
1781 0 77.1799 13.0086 1004 107.692 652.787 461.918
1782 0 80.1888 12.3459 990 111.219 653.206 461.577
1783 0 81.1954 11.577 940 114.386 652.887 458.282
1784 0 84.1598 11.7515 989 113.598 652.943 457.856
1785 0 85.2687 11.5634 986 115.714 652.822 457.011
1786 0 89.4571 11.7263 1049 116.201 653.638 454.629
1787 0 93.1884 12.4479 1160 114.708 652.547 451.392
1788 0 95.2759 12.1857 1161 115.24 653.162 452.224
1789 1 53.1795 11.8467 630 106.417 653.071 474.159
1790 0 56.1668 12.5697 706 104.925 653.416 473.571
1791 0 58.4127 13.1992 771 103.809 653.715 471.265
1792 0 57.1764 11.963 684 108.121 653.18 474.697
1793 0 59.1339 12.0405 712 109.112 652.896 471.687
1794 0 60.1048 11.846 712 109.93 653.08 472.624
1795 0 63.1991 11.6457 736 110.576 653.315 471.723
1796 0 67.1642 13.3553 897 107.709 653.332 469.184
1797 0 67.168 11.8658 797 112.177 653.276 469.755
1798 0 69.1019 11.9678 827 112.64 653.083 468.561
1799 0 70.2316 12.5727 883 112.479 653.325 466.387
1800 0 72.3486 12.4398 900 113.459 652.619 462.403
1801 0 75.4235 13.2452 999 111.067 652.698 460.883
1802 0 79.4241 13.4594 1069 110.501 652.586 457.217
1803 0 80.3655 12.7916 1028 112.036 652.825 458.43
1804 0 84.3571 13.5258 1141 110.117 652.975 457.498
1805 0 85.4589 13.2344 1131 111.301 652.799 454.494
1806 0 89.4021 13.1429 1175 110.89 652.775 454.014
1807 0 90.4336 11.9093 1077 113.576 652.323 452.266
1808 0 92.4154 12.0434 1113 112.969 652.745 452.591
1809 0 96.3468 12.7041 1224 111.064 652.517 450.248
1810 0 98.1894 12.4963 1227 112.096 653.258 446.379
1811 0 104.538 12.914 1350 109.264 652.847 447.64
1812 1 59.5032 13.1926 785 102.262 652.41 469.084
1813 0 62.0893 12.5142 777 104.329 652.587 470.315
1814 0 61.1076 11.2752 689 107.427 653.181 469.965
1815 0 64.2425 12.2193 785 105.456 653.326 468.431
1816 0 68.1406 12.0633 822 104.915 653.538 467.459
1817 0 68.1516 12.2668 836 105.196 653.688 466.056
1818 0 71.2647 11.7169 835 105.462 653.74 463.611
1819 0 73.4374 11.697 859 105.237 653.39 463.669
1820 0 76.2893 12.3477 942 104.045 653.089 461.305
1821 0 79.3625 12.739 1011 102.011 653.666 462.233
1822 0 81.5273 10.3278 842 105.637 653.569 462.049
1823 0 85.369 11.4913 981 103.465 653.466 459.008
1824 0 89.4476 13.2144 1182 99.5854 653.559 458.866
1825 0 88.1539 13.0113 1147 101.415 653.656 456.647
1826 0 92.3496 12.8208 1184 101.431 653.368 453.906
1827 0 97.3329 12.2466 1192 101.743 653.341 454.982
1828 0 99.2069 11.8742 1178 103.306 653.216 452.035
1829 0 101.311 11.8645 1202 103.972 652.974 450.149
1830 0 105.328 13.1304 1383 101.918 653.141 449.598
1831 0 108.194 13.1339 1421 102.902 652.898 450.397
1832 0 111.192 12.6358 1405 107.041 652.737 443.587
1833 1 65.1163 12.7157 828 101.24 653.598 471.39
1834 0 68.1491 13.0743 891 100.637 653.714 469.699
1835 0 71.1492 12.3965 882 103.159 653.158 469.949
1836 0 73.2123 13.0443 955 103.535 653.463 467.672
1837 0 75.1624 13.0384 980 104.688 653.427 465.712
1838 0 76.1079 12.3903 943 107.406 653.692 464.859
1839 0 81.2251 12.964 1053 106.364 653.75 463.89
1840 0 82.1051 11.3757 934 111.331 653.713 462.476
1841 0 87.1956 13.0855 1141 107.212 653.425 463.252
1842 0 91.2487 13.0632 1192 108.137 653.331 461.638
1843 0 95.1157 12.3954 1179 110.157 653.215 459.269
1844 0 97.1695 12.9876 1262 110.634 653.071 455.648
1845 1 48.0802 11.044 531 110.663 653.388 481.077
1846 0 50.0374 12.6905 635 109.176 653.384 479.408
1847 0 51.0786 13.1953 674 109.504 653.206 477.626
1848 0 53.0507 13.5719 720 109.296 653.218 477.41
1849 0 57.0539 13.2506 756 109.192 653.537 477.09
1850 0 57.0682 13.4401 767 110.329 653.228 476.768
1851 0 60.0624 13.9022 835 109.72 653.107 475.08
1852 0 60.0968 13.0955 787 112.936 653.612 475.23
1853 0 61.0602 12.1519 742 115.912 652.941 474.513
1854 0 64.1249 12.2573 786 117.639 652.595 472.767
1855 0 68.1022 14.0524 957 113.257 652.927 472.556
1856 0 69.0282 13.9508 963 115.97 652.852 470.306
1857 0 72.1113 13.0077 938 117.779 652.786 470.179
1858 0 74.161 12.6482 938 119.913 653.28 467.205
1859 0 77.0565 13.0424 1005 118.134 653.226 466.548
1860 1 42.1149 11.7773 496 117.946 652.754 483.446
1861 0 42.0344 12.2281 514 119.146 653.352 483.021
1862 0 43.0093 12.9507 557 118.497 653.504 484.499
1863 0 45.0923 13.7718 621 116.417 653.113 481.021
1864 0 47.0902 13.7821 649 116.413 652.274 479.71
1865 0 51.0997 14.1879 725 116.145 653.046 475.528
1866 0 51.1221 12.9103 660 120.917 652.629 475.786
1867 0 53.0559 14.6072 775 116.943 652.503 475.663
1868 0 55.044 13.5346 745 123.42 652.655 478.035
1869 0 61.0542 16.9685 1036 110.46 653.211 467.324
1870 0 61.0176 15.9954 976 116.002 652.67 468.439
1871 0 60.0367 13.8749 833 124.226 653.571 471.724
1872 0 59.0447 13.4474 794 124.935 653.078 475.179
1873 0 62.104 14.8461 922 121.534 653.522 472.634
1874 0 65.0305 14.0242 912 121.995 652.804 474.535
1875 0 65.0274 13.625 886 125.613 653.146 473.571
1876 0 69.0464 14.1934 980 123.053 652.922 471.812
1877 0 72.0931 15.2858 1102 119.792 653.049 469.743
1878 0 73.071 14.9444 1092 120.806 653.21 470.322
1879 0 76.0604 15.159 1153 120.786 652.716 468.214
1880 0 77.0349 14.5908 1124 123.657 652.419 467.698
1881 0 80.2006 15.9226 1277 120.163 652.616 464.425
1882 0 83.0573 14.4479 1200 122.563 652.451 465.628
1883 0 86.1289 14.7686 1272 122.345 652.441 464.421
1884 0 88.024 14.4392 1271 124.209 653.116 463.645
1885 0 92.0753 14.1189 1300 125.064 652.315 461.119
1886 0 94.0871 15.1668 1427 122.554 652.725 460.591
1887 0 98.0665 14.1741 1390 125.564 652.712 458.36
1888 0 100.089 14.1574 1417 125.565 652.431 456.801
1889 0 106.121 14.8227 1573 122.673 652.363 454.624
1890 0 109.152 14.9241 1629 123.519 651.769 450.906
1891 0 114.146 14.1573 1616 125.76 652.154 448.524
1892 0 119.19 15.7479 1877 120.898 652.247 448.084
1893 0 124.138 14.7416 1830 123.388 652.116 446.761
1894 0 127.184 15.1512 1927 122.639 651.711 442.363
1895 1 67.1366 14.0907 946 121.827 652.207 473.268
1896 0 70.0684 15.3136 1073 119.144 652.442 471.636
1897 0 70.0707 13.8432 970 126.133 651.925 469.737
1898 0 75.1166 14.7504 1108 124.137 652.619 468.88
1899 0 76.1445 14.3412 1092 125.859 652.804 467.486
1900 0 79.059 14.8623 1175 123.906 652.864 467.386
1901 0 81.0658 13.9393 1130 126.547 652.764 465.969
1902 0 86.1739 15.1438 1305 122.415 652.735 464.292
1903 0 87.1342 14.3916 1254 125.377 652.691 462.266
1904 0 92.1132 14.4713 1333 123.053 652.611 463.575
1905 0 93.1394 14.8272 1381 123.713 651.741 459.684
1906 0 95.1137 14.572 1386 123.664 652.434 459.204
1907 0 99.0724 13.9797 1385 125.136 652.791 457.097
1908 0 102.086 14.811 1512 122.8 653.093 454.679
1909 0 107.203 14.5052 1555 122.789 652.527 453.336
1910 0 111.245 14.6344 1628 122.592 652.477 449.678
1911 0 114.176 14.3638 1640 123.462 652.993 449.307
1912 0 120.306 15.3858 1851 120.935 652.627 446.65
1913 0 126.363 14.1577 1789 122.391 652.354 445.72
1914 1 62.099 13.3658 830 122.024 653.006 473.97
1915 0 65.0883 13.2896 865 121.718 652.816 472.334
1916 0 69.1676 14.5733 1008 121.148 652.885 470.736
1917 0 71.1591 14.6573 1043 120.706 652.716 469.052
1918 0 73.095 14.6522 1071 119.866 652.373 468.479
1919 0 74.1082 13.6962 1015 122.34 652.59 467.869
1920 0 77.1697 12.8677 993 123.747 652.821 467.396
1921 0 82.1954 14.0276 1153 121.232 652.691 466.062
1922 0 84.2059 14.6308 1232 120.811 653.011 463.278
1923 0 87.2056 14.0473 1225 122.527 653.432 461.557
1924 0 88.2465 13.9609 1232 122.486 652.606 462.631
1925 0 91.1075 12.8859 1174 126.463 652.953 460.932
1926 0 94.2386 15.1742 1430 122.148 652.658 456.677
1927 0 99.2089 14.1822 1407 122.618 653.213 459.461
1928 0 102.107 14.1126 1441 125.126 652.804 455.332
1929 0 104.205 13.5214 1409 126.962 652.75 455.228
1930 0 108.199 13.8818 1502 127.852 653.16 453.97
1931 0 114.364 14.3489 1641 127.355 652.981 449.069
1932 0 114.186 12.865 1469 134.469 652.391 447.69
1933 0 120.11 13.6042 1634 130.225 652.549 446.285
1934 0 126.273 14.2786 1803 129.384 653.104 442.936
1935 0 131.252 13.5693 1781 132.467 652.477 439.409
1936 0 135.193 14.3943 1946 129.526 651.934 437.836
1937 0 137.154 13.1385 1802 134.802 651.982 434.536
1938 0 143.21 13.6443 1954 131.941 652.44 437.788
1939 0 147.173 13.9564 2054 133.789 652.21 428.892
1940 0 152.231 13.2168 2012 136.729 652.143 427.18
1941 0 158.209 14.7716 2337 132.453 652.048 427.341
1942 1 169.217 12.4751 2111 137.689 652.513 426.823
1943 0 169.265 13.7477 2327 137.406 652.505 420.056
1944 0 173.155 14.4784 2507 136.666 652.805 417.173
1945 0 180.253 14.4907 2612 137.176 652.887 414.395
1946 0 185.294 15.899 2946 134.934 653.058 413.978
1947 0 192.299 15.9959 3076 136.053 653.135 411.136
1948 0 198.405 14.6317 2903 141.951 652.755 406.141
1949 1 152.181 13.7928 2099 143.458 652.444 432.786
1950 0 158.224 13.5378 2142 143.232 652.159 430.722
1951 0 163.234 13.5756 2216 145.442 652.294 426.153
1952 0 168.342 13.532 2278 146.018 652.107 425.081
1953 0 176.187 14.6776 2586 143.552 651.979 419.466
1954 0 181.207 14.889 2698 141.904 651.629 418.464
1955 0 189.268 14.4874 2742 144.135 652.09 414.92
1956 0 196.408 14.1491 2779 145.08 651.903 415.054
1957 0 203.368 14.014 2850 146.325 652.242 409.309
1958 0 212.299 14.5644 3092 143.556 652.553 406.404
1959 0 221.346 14.5248 3215 143.915 652.035 400.257
1960 0 229.323 14.0849 3230 142.926 651.647 402.739
1961 1 185.305 13.9499 2585 141.798 651.832 421.382
1962 0 193.358 15.7428 3044 135.812 652.324 413.704
1963 0 198.225 14.8216 2938 139.601 652.198 411.285
1964 0 206.257 15.2916 3154 139.54 652.215 406.048
1965 0 214.359 15.2828 3276 138.428 652.585 402.547
1966 0 223.34 15.8413 3538 136.359 652.071 399.072
1967 0 231.361 14.9809 3466 138.286 652.586 399.565
1968 0 237.427 15.0447 3572 138.67 652.78 392.438
1969 0 245.396 14.2382 3494 140.69 653.059 388.791
1970 1 58.0736 15.4459 897 144.225 652.904 476.474
1971 0 59.1677 14.6533 867 148.842 652.927 475.957
1972 0 63.098 15.7533 994 143.327 653.031 475.242
1973 0 64.2187 15.0891 969 146.251 652.979 474.075
1974 0 66.1757 14.5975 966 148.484 652.649 472.066
1975 0 70.3831 16.3107 1148 142.593 652.561 470.863
1976 0 72.2109 16.0225 1157 144.289 652.86 469.684
1977 0 75.2271 16.1511 1215 143.648 652.668 468.46
1978 0 77.3131 16.7501 1295 142.635 652.287 465.044
1979 0 82.2006 16.5206 1358 140.767 651.624 465.989
1980 0 85.1647 16.063 1368 141.488 652.036 464.768
1981 0 86.1304 16.0222 1380 141.825 652.017 463.122
1982 1 43.1096 14.8227 639 154.228 653.363 481.474
1983 0 45.1133 15.2283 687 149.544 653.175 481.987
1984 0 48.0637 17.3312 833 143.445 653.032 479.873
1985 0 49.17 15.4566 760 149.903 653.486 479.199
1986 0 51.2166 15.9519 817 148.723 653.05 477.546
1987 0 52.1879 16.0765 839 149.88 653.06 477.242
1988 0 55.2357 15.0808 833 150.48 652.559 476.765
1989 0 58.2133 17.4874 1018 141.019 653.028 475.982
1990 0 56.2384 16.3589 920 148.765 653.23 474.405
1991 0 59.241 17.2178 1020 144.702 653.577 472.999
1992 0 62.3732 16.738 1044 145.578 652.748 471.783
1993 0 63.2218 16.9878 1074 144.784 652.759 472.062
1994 0 64.2315 15.9579 1025 149.736 653.228 471.362
1995 0 65.2167 15.8088 1031 151.191 653.418 470.43
1996 0 65.2622 15.7978 1031 182.067 653.435 470.477
1997 0 70.3806 16.2687 1145 150.573 653.1 468.213
1998 0 71.1418 15.6729 1115 152.893 653.173 467.735
1999 0 74.2508 16.3231 1212 151.639 652.984 465.948
2000 0 76.255 16.0252 1222 152.651 652.624 464.309
2001 0 81.3207 16.8592 1371 148.305 652.751 463.982
2002 0 83.2532 16.5039 1374 151.266 652.689 461.469
2003 0 84.3274 15.7244 1326 153.904 652.842 460.626
2004 0 88.3494 16.6159 1468 149.119 652.665 458.279
2005 0 92.2255 17.0777 1575 147.901 653.337 457.293
2006 0 94.3544 16.1201 1521 153.195 653.263 457.099
2007 0 96.293 15.3801 1481 157.96 652.687 454.92
2008 0 101.446 15.6043 1583 156.395 652.95 453.214
2009 0 102.335 14.9997 1535 160.571 653.109 452.577
2010 1 54.4794 14.042 765 159.982 653.044 475.276
2011 0 58.5177 14.3546 840 158.527 652.931 474.337
2012 0 58.342 15.1349 883 157.315 653.188 473.22
2013 0 61.4508 14.4994 891 158.033 652.912 472.634
2014 0 63.6562 15.1281 963 156.67 653.073 470.587
2015 0 64.4534 15.3444 989 156.557 652.632 470.464
2016 0 65.319 14.6818 959 158.539 652.193 470.448
2017 0 68.6501 15.5863 1070 156.3 652.969 467.945
2018 0 70.3185 14.9747 1053 158.839 652.992 467.049
2019 0 72.2749 14.8599 1074 159.351 652.986 465.972
2020 0 74.3277 14.7724 1098 160.595 652.543 464.035
2021 0 75.217 15.1694 1141 158.992 652.624 463.588
2022 0 79.2874 15.0339 1192 158.366 652.234 462.492
2023 1 43.3647 13.4211 582 158.782 652.845 480.278
2024 0 46.1253 14.1571 653 156.538 653.026 479.243
2025 0 48.3638 13.9154 673 157.777 653.025 477.872
2026 0 50.1887 15.2026 763 151.404 652.782 476.855
2027 0 51.3533 15.0915 775 153.403 653.255 475.956
2028 0 52.3765 14.6822 769 155.925 653.268 475.12
2029 0 56.1835 14.5594 818 155.598 653.031 474.88
2030 0 56.174 14.6865 825 156.732 652.878 474.206
2031 0 56.1716 14.5091 815 159.172 652.876 472.688
2032 0 59.2168 15.2322 902 156.295 652.716 470.981
2033 0 60.3425 14.6994 887 158.515 653.439 472.171
2034 0 64.2986 14.7748 950 156.565 652.348 471.464
2035 0 64.2717 14.9055 958 158.451 651.875 470.294
2036 0 64.162 14.9621 960 160.077 652.442 468.347
2037 0 66.1848 14.1422 936 163.178 652.003 467.726
2038 0 71.3134 15.5651 1110 156.465 652.672 467.225
2039 0 71.2454 15.1729 1081 161.8 652.612 465.6
2040 0 75.4962 15.471 1168 160.557 652.691 464.164
2041 0 76.3019 15.36 1172 162.338 652.947 463.495
2042 0 77.2088 15.2055 1174 163.087 653.416 463.712
2043 0 81.314 15.0282 1222 162.928 652.727 462.628
2044 0 84.2672 14.5727 1228 166.109 652.313 461.377
2045 0 86.4973 14.1507 1224 166.905 652.703 459.523
2046 0 90.2084 14.9654 1350 163.759 652.95 459.228
2047 1 48.1104 13.9679 672 159.936 652.759 478.513
2048 0 51.1008 13.4245 686 160.988 652.522 477.437
2049 0 50.3632 14.1373 712 164.392 652.122 476.16
2050 0 53.2491 14.1599 754 162.275 652.836 475.475
2051 0 53.2662 13.7798 734 166.233 652.831 474.437
2052 0 55.2373 12.9079 713 168.477 652.875 473.431
2053 0 58.3026 13.1384 766 167.138 653.067 472.128
2054 0 58.1485 13.2591 771 167.895 653.065 472.608
2055 0 62.2295 13.868 863 165.401 652.372 471.301
2056 0 62.262 13.1541 819 169.759 652.055 469.64
2057 0 65.4798 13.8363 906 167.57 651.549 469.006
2058 0 67.1774 14.5585 978 165.625 652.382 466.93
2059 0 68.2964 13.9392 952 169.829 652.273 465.834
2060 0 71.2988 13.773 982 168.581 651.397 465.011
2061 0 72.5125 13.9976 1015 171.104 651.727 463.11
2062 0 74.3569 13.7445 1022 171.691 652.295 463.715
2063 0 76.4729 13.9657 1068 171.807 651.904 461.809
2064 0 81.3727 14.6487 1192 166.009 652.225 462.044
2065 0 83.4622 15.1326 1263 165.835 652.17 460.419
2066 0 85.2145 14.2229 1212 169.795 652.124 458.043
2067 0 86.4106 13.8062 1193 171.418 652.638 457.313
2068 0 88.1545 13.5104 1191 173.221 651.956 455.196
2069 0 91.1607 13.9753 1274 172.71 651.457 452.122
2070 0 96.1543 13.9463 1341 171.629 651.805 451.547
2071 0 99.1909 13.4287 1332 172.638 651.648 450.221
2072 0 103.281 13.3616 1380 172.208 652.299 447.722
2073 0 105.272 13.7549 1448 170.894 651.863 445.951
2074 0 111.156 14.7811 1643 167.572 651.433 444.018
2075 0 115.189 13.3172 1534 171.62 651.67 444.558
2076 1 64.07 12.0025 769 150.246 652.375 469.982
2077 0 64.0726 11.1904 717 154.704 651.693 467.098
2078 0 68.1236 12.125 826 150.989 651.142 466.837
2079 0 70.1297 11.493 806 150.882 651.656 466.948
2080 0 73.1465 11.4975 841 149.546 651.767 465.605
2081 0 76.1759 10.6727 813 151.525 651.293 464.646
2082 0 76.1423 10.9006 830 153.753 651.553 460.276
2083 0 80.2507 11.1027 891 150.624 651.715 461.517
2084 0 80.1011 10.5117 842 151.527 651.285 462.452
2085 0 84.2231 11.1727 941 152.047 651.642 458.898
2086 0 87.2073 11.2147 978 150.26 651.979 458.672
2087 0 87.1771 10.1976 889 153.138 652.317 458.27
2088 0 92.1929 8.24358 760 156.072 652.116 457.48
2089 0 93.1468 10.7035 997 151.014 651.37 454.942
2090 0 97.1785 10.7843 1048 152.162 651.46 452.184
2091 1 148.388 13.0873 1942 171.171 651.666 420.02
2092 0 152.411 13.1946 2011 171.217 651.615 417.378
2093 0 157.28 12.6716 1993 173.562 652.037 415.381
2094 0 160.455 13.873 2226 173.597 651.473 410.475
2095 0 169.333 13.3524 2261 172.286 651.591 409.918
2096 0 173.546 13.4547 2335 173.608 651.775 406.427
2097 0 178.469 12.7641 2278 176.601 651.968 404.235
2098 0 185.438 13.5247 2508 175.159 651.247 399.859
2099 0 189.677 14.2558 2704 172.534 651.473 398.554
2100 0 193.483 12.5127 2421 180.018 650.736 392.876
2101 0 202.597 13.5589 2747 175.288 650.745 390.922
2102 0 207.495 13.7594 2855 175.133 651.149 388.187
2103 0 214.567 14.1122 3028 175.254 650.921 383.185
2104 0 219.65 13.1027 2878 179.183 650.818 378.583
2105 0 229.569 14.0698 3230 173.768 651.06 377.543
2106 0 236.86 14.0842 3336 174.187 650.629 373.561
2107 0 243.112 13.8907 3377 176.326 650.41 364.867
2108 0 251.011 14.0193 3519 174.117 650.76 363.174
2109 0 261.091 14.5543 3800 171.93 651.254 360.246
2110 1 216.71 10.3226 2237 177.303 650.751 381.346
2111 0 226.735 11.2907 2560 173.443 651.259 378.798
2112 0 232.897 10.9963 2561 174.704 651.3 372.176
2113 0 241.115 11.3183 2729 174.302 650.841 362.517
2114 1 42.0128 8.90205 374 114.128 652.939 478.73
2115 0 43.0143 5.85852 252 117.754 653.448 481.77
2116 0 42.0141 5.92659 249 103.871 652.45 481.691
2117 0 47.024 8.61262 405 115.054 653.368 476.128
2118 0 48.1945 8.75618 422 114.756 651.588 475.164
2119 0 40.0387 7.59266 304 119.99 650.908 482.309
2120 0 40.0497 5.26845 211 122.773 651.848 485.076
2121 0 40.0887 5.38806 216 124.75 651.944 483.694
2122 0 40.0091 2.69939 108 125.519 652.25 489.565
2123 0 41.0284 3.19291 131 122.992 652.229 488.588
2124 0 41.0448 3.84945 158 120.722 652.608 487.709
2125 0 41.0752 5.42906 223 121.372 651.937 484.17
2126 0 41.0621 4.21313 173 123.046 652.358 484.289
2127 0 31.0509 6.66647 207 120.908 652.164 484.889
2128 0 32.0814 6.6082 212 120.222 652.179 484.665
2129 0 28.0428 7.73817 217 116.396 652.221 487.871
2130 0 27.0711 5.61485 152 120.868 652.612 487.875
2131 0 27.0366 7.69327 208 117.572 652.13 487.447
2132 0 421.767 16.1108 6795 165.693 650.906 257.097
2133 0 420.011 4.67131 1962 185.122 651.969 297.419
2134 1 143.78 10.5995 1524 120.033 652.051 426.532
2135 0 141.825 7.97462 1131 130.352 652.057 422.625
2136 0 144.594 7.2894 1054 132.44 651.915 421.446
2137 1 109.323 7.26287 794 128.754 652.242 448.389
2138 0 109.449 7.79355 853 127.447 652.011 446.608
2139 0 110.38 9.63034 1063 121.992 651.838 440.848
2140 0 112.407 9.99934 1124 121.827 651.471 442.149
2141 0 114.542 11.0702 1268 119.795 651.267 441.978
2142 0 113.361 10.2945 1167 122.693 651.185 440.776
2143 0 117.563 10.9643 1289 120.664 651.385 439.656
2144 1 175.006 8.19973 1435 134.536 650.975 419.928
2145 0 173.785 6.46776 1124 137.23 651.076 426.146
2146 0 175.104 8.00666 1402 138.375 650.877 411.457
2147 0 175.116 9.63361 1687 132.478 650.799 413.458
2148 0 179.095 9.06779 1624 133.98 651.272 408.385
2149 0 185.027 11.3713 2104 128.919 651.007 406.416
2150 0 187.057 11.1196 2080 129.07 650.499 410.285
2151 0 187.021 11.0148 2060 158.427 650.514 410.02
2152 1 77.2351 8.28638 640 112.467 651.611 466.422
2153 0 77.0655 7.44821 574 112.798 651.044 468.866
2154 0 77.1687 8.2676 638 111.796 651.034 466.083
2155 0 77.1727 9.32973 720 109.814 650.872 463.533
2156 1 208.871 11.7728 2459 129.497 651.32 394.553
2157 0 209.87 10.5017 2204 132.122 651.363 396.034
2158 0 216.629 11.5128 2494 130.429 651.293 391.65
2159 1 115.407 8.81231 1017 122.966 651.435 442.039
2160 0 115.429 9.37374 1082 121.201 651.891 443.189
2161 0 118.368 10.3913 1230 118.846 651.654 438.439
2162 0 117.353 10.8391 1272 117.42 651.916 440.097
2163 0 115.642 8.05072 931 123.02 651.613 443.716
2164 1 157.4 6.8996 1086 132.493 651.493 426.465
2165 0 157.579 8.68138 1368 130.898 651.048 421.603
2166 0 156.648 6.10924 957 132.992 651.121 431.497
2167 1 118.543 6.7992 806 130.819 651.264 433.953
2168 0 123.565 9.08832 1123 123.342 651.069 437.315
2169 0 123.377 7.08397 874 129.285 650.859 436.023
2170 1 167.554 10.8562 1819 127.759 651.342 415.496
2171 0 170.577 9.19817 1569 130.768 651.621 418.711
2172 0 172.65 9.3484 1614 134.403 651.48 405.559
2173 0 173.458 9.05119 1570 133.883 651.693 411.089
2174 0 180.568 11.3088 2042 129.093 651.391 406.36
2175 0 186.446 11.1346 2076 127.204 651.323 407.997
2176 0 184.351 9.42224 1737 133.439 651.659 401.537
2177 0 190.466 10.5898 2017 129.235 652.103 404.497
2178 0 193.49 10.7654 2083 128.985 651.612 402.588
2179 0 196.76 9.64628 1898 131.334 651.411 402.302
2180 0 199.451 11.2358 2241 128.52 651.75 397.773
2181 0 204.37 10.0162 2047 130.433 651.245 398.346
2182 0 208.393 10.7873 2248 128.267 651.021 393.104
2183 0 212.491 11.3416 2410 126.288 650.861 393.386
2184 1 151.27 9.92265 1501 122.394 651.213 421.807
2185 0 153.317 10.9316 1676 120.635 651.508 419.483
2186 0 155.301 11.1718 1735 120.839 650.952 418.937
2187 0 154.333 8.55943 1321 126.301 650.998 419.936
2188 0 159.271 9.49328 1512 125.313 650.901 416.671
2189 0 163.377 10.2401 1673 123.19 651.163 416.198
2190 0 169.269 10.2913 1742 123.011 650.816 413.943
2191 0 169.454 9.34768 1584 126.426 650.677 411.816
2192 0 171.479 9.83795 1687 125.989 650.455 410.418
2193 1 133.294 7.40468 987 123.719 650.61 425.2
2194 0 138.448 10.4082 1441 114.708 651.555 430.189
2195 0 136.556 9.35147 1277 115.557 651.262 431.077
2196 0 137.491 10.4734 1440 114.291 651.381 427.565
2197 0 137.575 8.62804 1187 119.496 651.274 422.843
2198 0 138.315 7.48292 1035 121.594 650.838 422.977
2199 0 143.32 8.88919 1274 115.95 650.99 429.935
2200 0 144.589 8.38928 1213 119.864 651.111 420.905
2201 0 146.332 9.92266 1452 115.804 650.853 423.113
2202 0 148.765 9.16207 1363 116.781 650.473 421.554
2203 0 151.4 10.6737 1616 114.145 650.296 418.965
2204 0 151.398 9.27355 1404 117.588 650.828 419.331
2205 0 154.4 9.27458 1432 118.262 651.513 417.089
2206 0 158.445 10.7545 1704 113.06 651.18 421.179
2207 0 160.34 8.79383 1410 119.061 651.241 411.24
2208 0 161.416 10.1601 1640 115.295 651.617 415.564
2209 0 163.493 9.48667 1551 117.846 650.792 408.849
2210 0 169.528 10.7121 1816 114.912 650.918 410.849
2211 0 170.507 9.75329 1663 117.322 650.836 407.042
2212 0 174.28 9.75443 1700 116.561 651.495 411.492
2213 0 175.409 10.7349 1883 117.084 651.447 400.46
2214 0 177.52 9.45808 1679 119.887 651.091 402.047
2215 1 138.426 8.34384 1155 114.513 650.579 424.496
2216 1 88.1915 8.40217 741 96.6235 651.93 451.733
2217 0 84.0914 6.18375 520 98.0462 651.973 459.19
2218 1 137.469 8.82378 1213 112.989 651.685 421.443
2219 0 140.33 10.3755 1456 108.311 651.36 429.212
2220 0 140.395 10.0288 1408 111.205 651.662 425.661
2221 0 141.272 9.82502 1388 111.527 651.427 426.236
2222 0 144.352 10.038 1449 110.979 651.099 426.276
2223 0 146.626 9.81409 1439 110.917 651.067 426.284
2224 0 147.267 9.71702 1431 112.44 650.73 421.989
2225 0 149.61 9.73864 1457 112.098 651.621 424.722
2226 0 153.383 7.18461 1102 117.756 651.539 424.864
2227 0 152.475 9.14248 1394 114.574 651.479 416.841
2228 0 157.445 10.6641 1679 111.462 650.702 418.784
2229 0 160.439 9.69837 1556 113.758 650.183 414.123
2230 0 160.421 9.88648 1586 114.26 650.596 413.421
2231 0 164.549 8.78157 1445 117.5 651.023 411.194
2232 0 167.399 10.0598 1684 115.173 650.468 408.037
2233 1 128.487 6.66992 857 113.555 650.653 429.575
2234 0 130.346 8.94544 1166 109.322 651.207 426.932
2235 0 128.29 7.81046 1002 109.438 651.624 431.533
2236 0 130.395 8.76568 1143 109.1 651.927 429.533
2237 0 129.425 6.37436 825 115.759 651.087 421.102
2238 0 132.354 8.86261 1173 109.927 650.75 422.392
2239 0 134.312 9.813 1318 107.606 651.592 427.436
2240 0 136.281 8.86402 1208 108.935 651.481 426.768
2241 0 135.643 7.446 1010 114.048 651.19 417.687
2242 0 139.378 8.59535 1198 111.599 651.27 423.056
2243 0 140.465 8.41488 1182 110.899 651.005 423.312
2244 0 141.397 7.99875 1131 113.168 651.469 419.586
2245 0 142.331 8.17812 1164 112.51 650.983 420.542
2246 0 145.202 6.00543 872 116.242 651.392 424.469
2247 0 147.391 9.07787 1338 112.551 651.472 415.96
2248 1 78.0366 7.70152 601 94.5391 652.18 462.953
2249 0 82.0632 5.78822 475 95.1011 652.335 465.949
2250 0 79.075 7.006 554 94.3195 652.186 460.782
2251 0 78.1343 6.45043 504 94.3472 652.282 461.129
2252 0 79.0545 3.82015 302 96.3675 652.523 465.45
2253 0 81.0783 5.72287 464 94.2069 652.679 460.545
2254 0 81.1536 5.92703 481 93.9751 652.57 461.447
2255 0 80.1335 5.71546 458 94.2926 652.825 462.59
2256 0 81.116 5.76952 468 93.609 653.162 463.363
2257 1 131.331 7.95702 1045 109.769 650.309 431.313
2258 0 127.267 4.43162 564 120.791 651.126 419.296
2259 0 130.41 6.05017 789 111.91 651.783 434.674
2260 0 130.232 7.06434 920 110.995 651.426 427.701
2261 0 132.361 5.51521 730 116.478 650.79 422.579
2262 0 134.366 6.95119 934 109.499 650.889 434.399
2263 0 134.363 6.8397 919 128.979 650.871 434.04
2264 0 136.383 5.99783 818 117.474 650.226 430.998
2265 1 81.0994 8.23681 668 93.1228 650.434 471.141
2266 0 73.1324 6.45405 472 94.8962 650.201 474.528
2267 0 78.1328 4.73553 370 97.6514 650.268 473.341
2268 0 75.1156 5.2985 398 93.804 649.899 478.455
2269 0 78.0565 5.35509 418 94.4904 649.672 476.462
2270 0 74.0446 6.36103 471 93.3992 648.924 475.178
2271 0 75.1549 4.7768 359 95.0975 648.869 475.724
2272 0 81.1069 4.00706 325 94.3169 648.88 481.585
2273 0 79.1722 7.04793 558 92.543 649.03 473.41
2274 0 76.0941 5.37492 409 93.577 648.042 478.374
2275 0 82.0744 4.5081 370 94.6108 647.905 477.23
2276 0 82.0981 4.90876 403 93.8809 648.246 476.712
2277 1 71.0398 4.43413 315 96 647.81 470.441
2278 0 78.073 4.59826 359 93.3788 647.925 476.916
2279 0 79.0879 6.80256 538 91.8903 646.922 473.082
2280 0 78.109 3.61034 282 95.9184 646.699 466.706
2281 0 77.0209 2.99919 231 91.7229 646.416 485.758
2282 0 77.1416 3.81118 294 94.1395 647.017 474.245
2283 0 79.1191 6.85044 542 90.6255 646.745 470.164
2284 0 74.1049 7.30046 541 90.7671 645.935 465.776
2285 0 76.0741 5.38948 410 92.8195 646.454 472.605
2286 0 81.0674 4.37907 355 93.1887 646.958 467.758
2287 0 73.0963 5.13022 375 93.4907 646.112 464.941
2288 0 71.0565 5.4323 386 93.9482 644.832 464.453
2289 0 77.0507 6.33349 488 93.5266 645.412 471.035
2290 0 78.0971 5.09622 398 93.098 646.196 477.485
2291 0 78.1022 4.96785 388 100.758 647.206 477.521
2292 0 71.0826 4.36112 310 94.5065 645.61 475.11
2293 0 74.1403 6.36631 472 92.0996 645.845 472.519
2294 0 79.0677 5.43837 430 93.1977 646.249 475.742
2295 0 77.1153 3.17706 245 92.8327 646.102 482.376
2296 0 79.1488 6.29195 498 91.6627 646.416 470.06
2297 0 80.1432 5.19071 416 91.1034 646.459 477.683
2298 0 77.0431 5.46448 421 92.0214 645.995 467.76
2299 0 78.0415 4.0235 314 91.0414 645.796 482.564
2300 0 75.094 5.14023 386 91.5622 646.251 473.679
2301 0 80.096 4.03266 323 92.4768 646.13 468.297
2302 0 81.1639 6.18501 502 90.1494 646.568 465.327
2303 0 79.0735 5.02064 397 90.8539 646.003 469.297
2304 0 82.1309 4.93115 405 89.3506 646.094 473.99
2305 0 81.061 4.4411 360 90.1167 646.603 474.839
2306 0 79.1353 6.48257 513 88.9786 645.992 470.437
2307 0 82.0563 7.43392 610 87.6492 645.78 470.934
2308 0 80.0726 5.86967 470 88.1362 645.928 474.264
2309 0 78.0671 7.31422 571 86.732 645.413 473.417
2310 0 77.0819 4.0217 310 90.4032 645.313 473.132
2311 0 73.0738 2.92855 214 94.6589 645.654 469.379
2312 0 83.0618 7.81346 649 88.0693 645.168 472.538
2313 0 78.0827 6.18575 483 90.4037 645.466 470.629
2314 0 78.1005 6.19714 484 87.2562 645.99 479.998
2315 0 79.0691 5.19798 411 89.9927 645.827 475.998
2316 0 81.1039 7.74315 628 86.7596 645.965 471.083
2317 0 81.0461 7.27981 590 87.2492 645.642 471.854
2318 0 83.0472 6.79131 564 87.305 645.904 474.007
2319 0 79.053 5.36349 424 89.3844 646.052 468.314
2320 0 79.0588 4.60417 364 88.6511 646.302 477.934
2321 0 80.0904 5.68108 455 88.1758 645.89 471.371
2322 0 78.0584 3.85609 301 89.8272 646.419 475.365
2323 0 78.1652 7.22828 565 86.1558 646.752 471.996
2324 0 82.0575 6.86104 563 87.1137 647.153 468.753
2325 0 78.0733 2.98438 233 88.9142 646.524 481.292
2326 0 82.0929 5.55468 456 88.6623 646.408 458.417
2327 1 138.451 4.1531 575 128.503 645.386 414.282
2328 0 142.535 5.80209 827 122.694 645.644 415.206
2329 0 139.833 7.96667 1114 116.094 645.707 419.769
2330 0 131.312 4.01335 527 147.725 645.213 390.389
2331 0 147.387 5.83496 860 129.091 646.356 411.629
2332 0 150.385 7.28129 1095 120.54 645.711 413.204
2333 0 148.368 6.81414 1011 123.815 645.957 404.698
2334 0 146.642 5.81008 852 128.906 645.594 398.526
2335 0 153.451 8.39357 1288 116.9 644.993 412.975
2336 0 154.457 6.79153 1049 124.063 645.482 400.455
2337 0 155.542 6.40983 997 125.454 646.168 398.34
2338 0 159.306 5.41726 863 129.759 645.883 392.45
