time division length width area intensity CMx CMy
0 0 39.0227 11.993 468 170.855 891.72 474.483
1 0 40.0233 13.0424 522 166.569 891.983 473.868
2 0 41.0427 12.8159 526 169.409 891.686 472.606
3 0 43.0153 13.0884 563 167.215 891.627 472.156
4 0 45.0491 13.7627 620 163.334 891.615 471.274
5 0 45.0217 13.438 605 166.336 891.99 471.979
6 0 47.0203 14.5256 683 162.899 891.939 470.094
7 0 48.0464 13.0291 626 168.321 891.409 469.575
8 0 50.031 14.0713 704 161.607 890.551 470.041
9 0 50.1195 14.8445 744 160.056 890.407 469.477
10 0 50.0292 13.0324 652 170.557 890.276 468.663
11 0 53.0307 14.0485 745 163.169 890.451 468.562
12 0 53.0299 13.747 729 165.709 889.823 468.667
13 0 55.0395 13.4267 739 166.861 890.227 468.556
14 0 55.0395 13.4631 741 163.78 891.208 468.601
15 0 57.0549 13.7061 782 165.316 889.503 467.757
16 0 61.0737 15.1129 923 157.845 890.034 466.074
17 0 61.036 14.1883 866 163.43 890.051 465.358
18 0 65.0733 14.2301 926 159.887 889.712 466.015
19 0 66.0225 14.2982 944 159.867 889.614 463.454
20 0 70.1054 15.006 1052 154.586 888.742 463.157
21 0 72.0447 15.3099 1103 153.605 889.175 463.306
22 0 75.0411 14.2589 1070 155.31 888.634 460.974
23 0 76.0854 14.1946 1080 156.33 888.596 460.685
24 0 80.1844 14.317 1148 157.216 887.919 460.016
25 1 40.0374 12.5133 501 158.651 888.733 478
26 0 42.0203 12.8747 541 154.619 888.628 478.551
27 0 43.1 13.3643 576 150.684 888.542 477.915
28 0 45.0134 13.5515 610 151.19 888.518 476.915
29 0 45.0312 14.4567 651 146.127 888.258 476.406
30 0 47.0522 13.5806 639 148.213 888.329 475.897
31 0 49.0141 14.098 691 144.518 887.818 476.116
32 0 49.0282 13.4413 659 146.595 888.058 475.507
33 0 53.039 13.9897 742 142.225 887.931 473.951
34 0 54.0751 13.6477 738 142.785 888.905 473.243
35 0 56.0891 13.8886 779 140.182 888.706 472.513
36 0 57.1394 13.5108 772 141.246 888.652 472.31
37 0 60.0503 13.7052 823 139.819 888.034 470.998
38 0 66.0216 17.0096 1123 127.77 887.791 463.394
39 0 65.0548 14.6645 954 138.47 887.254 463.488
40 0 66.1234 14.6847 971 139.254 887.73 464.473
41 0 69.0645 14.5082 1002 141.882 887.954 464.187
42 0 73.1457 15.2162 1113 140.314 887.8 464.69
43 0 75.0823 15.5962 1171 139.312 887.833 463.633
44 0 76.1765 14.322 1091 145.213 887.389 461.482
45 0 78.1101 14.646 1144 144.284 887.045 461.202
46 0 80.0944 14.87 1191 145.372 887.153 459.358
47 0 85.1417 15.8559 1350 140.446 887.261 458.834
48 0 88.1059 16.1737 1425 138.275 887.145 456.827
49 0 90.0578 15.8121 1424 140.402 886.639 456.537
50 0 93.0659 15.4837 1441 140.874 886.117 454.647
51 0 96.0777 14.863 1428 142.203 886.038 453.841
52 0 99.1146 13.893 1377 146.146 886.194 450.668
53 0 104.155 13.5663 1413 146.338 886.197 450.139
54 0 108.104 14.7174 1591 143.285 885.794 447.194
55 0 113.117 14.843 1679 142.478 885.837 444.27
56 0 116.164 13.0591 1517 147.388 886.067 442.51
57 1 61.0454 12.1057 739 137.897 885.966 472.157
58 0 64.0626 12.8936 826 135.109 886.206 470.976
59 0 67.0508 13.4376 901 135.304 886.445 463.723
60 0 71.1021 13.0235 926 135.357 885.935 464.693
61 0 73.0908 12.8607 940 137.277 885.861 465.739
62 0 75.046 13.3518 1002 136.533 885.438 464.255
63 0 79.1119 13.5125 1069 136.354 885.967 462.058
64 0 84.1321 13.7284 1155 135.401 885.25 462.019
65 0 84.1252 13.3967 1127 139.427 885.96 459.24
66 0 89.03 13.7369 1223 136.786 886.332 457.74
67 0 89.0309 13.7031 1220 146.128 887.327 457.797
68 0 95.0851 14.4923 1378 133.964 886.173 452.263
69 0 99.1758 13.1988 1309 136.203 886.034 455.537
70 0 103.142 12.7689 1317 138.907 885.957 450.38
71 0 107.041 13.7517 1472 137.1 885.883 449.505
72 0 110.161 12.9991 1432 140.182 885.825 446.631
73 1 61.0563 12.6768 774 132.496 886.385 473.127
74 0 62.027 12.946 803 132.43 886.055 470.758
75 0 63.0236 12.4398 784 130.964 886.149 470.33
76 0 64.0405 13.5383 867 129.326 886.391 469.865
77 0 67.0347 13.6795 917 128.515 886.702 466.888
78 0 68.0429 12.0512 820 134.046 885.979 467.124
79 0 74.0676 12.8936 955 129.865 885.698 465.863
80 0 76.0434 13.3345 1014 129.809 885.51 464.758
81 0 80.0356 12.6194 1010 133.285 886.001 461.756
82 0 82.095 12.8875 1058 129.866 884.994 459.702
83 0 84.1686 12.7839 1076 126.265 885.206 455.13
84 0 86.0569 12.6893 1092 132.003 885.603 456.136
85 0 92.0638 13.7188 1263 131.235 885.447 454.271
86 0 95.0512 14.6237 1390 131.327 884.337 455.408
87 0 98.0661 13.7662 1350 133.953 884.213 452.466
88 0 102.083 15.311 1563 130.011 884.234 451.155
89 0 106.111 13.3257 1414 136.403 884.339 449.008
90 1 54.0877 10.8342 586 128.131 884.024 478.84
91 0 57.08 12.9292 738 124.19 884.404 473.976
92 0 56.124 12.508 702 118.462 884.889 466.699
93 0 55.0572 11.4245 629 116.601 884.913 468.242
94 0 60.1499 11.754 707 114.976 885.219 468.388
95 0 62.0708 10.6814 663 116.925 885.302 468.552
96 0 62.0675 9.92467 616 119.804 884.266 469.157
97 0 64.1765 11.0632 710 117.427 884.873 468.1
98 0 67.0659 11.2576 755 118.632 884.979 464.446
99 0 71.0784 12.3948 881 115.469 885.085 464.061
100 0 72.0822 10.8487 782 119.611 884.719 464.991
101 0 75.0884 13.4375 1009 122.724 885.352 464.798
102 0 76.06 11.5961 882 127.655 884.337 463.571
103 0 81.0557 13.5709 1100 124.604 883.857 462.314
104 0 83.1132 12.6334 1050 129.571 884.294 460.041
105 0 87.0386 12.9138 1124 128.611 885.003 459.663
106 0 88.1521 12.9209 1139 129.135 884.607 456.695
107 0 91.1546 13.2851 1211 127.742 884.694 454.522
108 0 95.1606 13.0201 1239 129.128 884.177 454.389
109 0 99.1584 13.6852 1357 126.483 884.461 453.067
110 0 100.2 12.2355 1226 130.529 884.106 449.356
111 0 104.249 12.6332 1317 127.774 883.981 444.889
112 1 57.1363 10.1687 581 120.12 884.415 468.365
113 0 61.091 10.8363 662 111.26 884.376 468.958
114 0 59.0385 11.5857 684 117.181 885.02 471.132
115 0 64.0468 12.0537 772 115.535 885.048 469.773
116 0 65.0681 11.342 738 117.103 885.016 469.767
117 0 68.062 11.5483 786 117.008 884.98 465.949
118 0 72.0942 12.3172 888 117.53 885.25 466.521
119 0 74.1593 12.0416 893 116.044 884.825 465.703
120 0 76.1308 13.0302 992 115.333 884.602 462.93
121 0 80.0682 12.2521 981 117.304 884.534 462.463
122 0 83.1072 12.7907 1063 123.887 884.636 460.323
123 0 83.0545 12.3172 1023 126.542 884.128 459.42
124 0 88.1727 13.0653 1152 123.582 884.819 457.076
125 0 92.1833 12.3992 1143 124.206 883.984 458.201
126 0 92.2244 12.3395 1138 123.941 884.003 457.799
127 0 95.1776 12.4819 1188 124.774 883.929 454.601
128 0 99.1029 12.4719 1236 124.07 884.758 453.223
129 0 103.101 12.7448 1314 123.955 884.407 450.381
130 0 103.075 13.2234 1363 125.145 884.672 446.403
131 0 107.232 12.3284 1322 126.143 884.98 446.602
132 0 109.222 11.3255 1237 128.649 885.225 447.49
133 0 115.084 13.6856 1575 122.406 884.751 445.43
134 0 118.145 12.4508 1471 125.19 885.091 440.663
135 1 61.101 12.5694 768 117.531 884.68 471.621
136 0 62.0618 12.407 770 118.939 885.356 469.647
137 0 63.0388 11.6912 737 117.464 884.829 471.928
138 0 66.1491 12.366 818 116.521 885.092 468.697
139 0 69.1551 12.002 830 117.712 885.02 469.994
140 0 71.1006 12.9816 923 118.408 885.908 467.813
141 0 73.0545 12.7713 933 119.519 885.093 463.196
142 0 75.2381 12.3209 927 120.37 884.579 464.575
143 0 79.0859 13.0744 1034 118.146 884.472 462.325
144 0 82.26 11.7919 970 122.77 884.451 461.103
145 0 88.1354 13.9104 1226 116.69 885.302 460.2
146 0 87.1356 14.0012 1220 135.377 885.336 460.052
147 0 93.1194 13.8424 1289 119.442 885 456.681
148 0 96.1491 13.6663 1314 121.553 885.735 453.013
149 0 99.0917 12.7559 1264 123.898 885.319 451.488
150 1 49.1132 11.1172 546 122.009 885.399 476.353
151 0 51.0343 12.7365 650 116.034 885.829 474.715
152 0 53.0229 13.315 706 118.525 884.652 474.717
153 0 54.0454 12.323 666 122.072 884.857 473.869
154 0 57.0489 12.5857 718 121.042 885.528 472.993
155 0 60.0437 12.6408 759 120.542 884.385 471.675
156 0 61.0665 12.8876 787 119.972 884.938 472.853
157 0 62.0293 12.7843 793 122.52 884.661 470.661
158 0 63.1053 12.4078 783 125.124 884.488 469.708
159 0 65.0905 12.2291 796 125.781 885.58 468.627
160 0 67.1565 13.0441 876 124.726 885.515 467.765
161 0 68.2272 13.2792 906 125.666 885.464 466.741
162 0 73.1362 15.2319 1114 120.23 885.62 465.598
163 0 74.131 13.9618 1035 125.423 884.877 463.135
164 0 75.151 13.0404 980 128.628 885.085 463.505
165 0 79.193 13.8143 1094 127.73 885.314 461.995
166 0 79.193 13.8017 1093 159.112 886.31 461.973
167 0 82.1291 13.6127 1118 130.952 886.048 458.733
168 0 84.2194 12.3725 1042 133.888 885.568 459.327
169 0 87.1759 13.5244 1179 130.333 885.98 456.554
170 0 92.1386 13.8053 1272 129.262 885.952 455.612
171 0 90.1287 12.8039 1154 133.915 885.154 453.394
172 0 94.3136 13.243 1249 132.572 884.99 452.262
173 0 99.1803 14.0955 1398 130.052 884.391 451.046
174 1 51.1193 9.89841 506 131.186 884.64 475.095
175 0 54.1101 11.6614 631 126.414 885.168 474.022
176 0 56.0281 12.4759 699 122.873 885.558 472.531
177 0 57.0907 11.7707 672 119.579 883.847 474.094
178 0 59.0479 12.1765 719 118.008 884.327 473.527
179 0 61.0862 12.3923 757 118.226 883.33 471.563
180 0 65.0916 15.3783 1001 111.959 883.389 468.723
181 0 65.1407 13.0333 849 120.96 884.323 467.393
182 0 67.0836 13.3565 896 120.417 883.32 467.308
183 0 67.112 11.5777 777 125.062 883.887 467.692
184 0 71.0827 12.2111 868 124.077 883.759 465.929
185 0 73.1054 12.2426 895 126.131 884.177 465.127
186 0 76.0463 12.9 981 124.654 884.302 462.524
187 0 77.0474 12.4599 960 129.115 884.364 461.242
188 0 80.0572 12.2787 983 129.707 884.194 461.085
189 0 82.0791 12.159 998 134.638 885.296 459.818
190 0 88.0505 14.6507 1290 126.566 884.476 457.411
191 0 88.1447 12.5476 1106 133.447 885.193 457.762
192 0 93.1324 13.7546 1281 128.593 884.492 455.358
193 0 92.1174 12.3646 1139 134.545 884.664 454.631
194 1 51.1 10.9198 558 129.075 884.72 473.927
195 0 51.1243 11.4427 585 120.904 885.082 473.728
196 0 54.1236 11.3444 614 122.078 883.938 473.226
197 0 53.1668 11.5486 614 117.886 885.855 474.326
198 0 57.0931 12.3132 703 114.865 885.947 473.522
199 0 57.0258 11.5386 658 117.932 885.087 473.468
200 0 57.0689 11.1269 635 119.827 884.643 471.411
201 0 60.0602 12.0879 726 116.566 884.594 470.687
202 0 61.0432 10.9103 666 119.224 884.038 470.913
203 0 63.0879 10.9054 688 119.839 884.999 468.337
204 0 64.2169 11.8816 763 118.654 885.042 467.844
205 0 68.0831 12.7785 870 116.448 884.692 466.33
206 0 69.1222 11.8486 819 120.967 884.308 465.017
207 0 71.1085 11.7567 836 119.441 884.051 465.25
208 0 75.0876 12.7984 961 119.389 883.344 464.337
209 0 78.0541 12.9654 1012 122.387 883.255 461.517
210 0 81.0279 13.6126 1103 122.213 883.452 460.198
211 0 82.0938 12.3152 1011 127.5 882.92 458.199
212 0 84.1891 12.5788 1059 126.361 883.195 456.957
213 0 86.044 12.8771 1108 125.978 882.653 454.838
214 0 90.0912 12.6871 1143 123.718 882.807 453.525
215 0 92.1382 12.1448 1119 126.152 882.915 450.777
216 1 52.0406 10.6648 555 121.321 883.831 474.67
217 0 52.0647 11.4473 596 119.73 883.849 472.461
218 0 55.3163 11.6783 646 116.768 885.211 471.234
219 0 56.058 12.38 694 116.88 883.566 470.415
220 0 55.0669 11.0956 611 112.524 884.133 475.043
221 0 58.0354 11.5274 669 112.903 884.723 472.964
222 0 59.0182 12.2504 723 111.898 883.855 471.065
223 0 60.0549 10.7235 644 114.882 883.849 470.669
224 0 65.0455 12.0377 783 110.433 884.706 469.341
225 0 66.0581 11.4596 757 112.003 884.63 468.834
226 0 69.0165 12.6347 872 109.033 884.534 468.154
227 0 71.0349 11.7829 837 112.289 884.292 466.62
228 0 72.0279 11.44 824 114.079 884.257 464.751
229 0 77.103 12.2044 941 111.914 884.631 462.641
230 0 79.088 12.1131 958 114.219 884.615 460.9
231 0 83.1187 12.8611 1069 113.711 884.423 458.186
232 0 87.1514 12.8168 1117 113.527 884.924 457.912
233 0 89.1391 12.7105 1133 114.255 885.368 455.605
234 0 92.1582 13.1079 1208 116.248 885.497 452.056
235 0 99.0991 14.0466 1392 114.674 884.9 451.788
236 0 99.113 12.0872 1198 121.084 884.225 450.646
237 1 50.1246 10.9128 547 116.676 883.916 475.298
238 0 52.1077 11.9176 621 113.889 884.441 475.562
239 0 55.2139 11.1566 616 116.968 885.469 472.167
240 0 57.1425 13.4401 768 112.417 884.207 472.319
241 0 57.1212 11.1867 639 115.557 883.158 473.723
242 0 57.0319 11.6075 662 114.47 883.557 473.663
243 0 60.0732 10.8534 652 115.334 883.647 472.41
244 0 64.0592 11.4738 735 111.698 883.71 473.834
245 0 63.0552 11.7992 744 116.253 883.864 470.339
246 0 65.0435 12.5301 815 114.661 883.697 469.531
247 0 69.0752 13.6807 945 111.58 883.803 467.931
248 0 70.0513 12.1768 853 114.783 884.334 467.941
249 0 72.0814 11.709 844 117.897 884.323 465.789
250 0 77.1111 13.6038 1049 114.179 885.036 463.194
251 0 81.1235 13.1405 1066 116.193 884.451 462.74
252 0 81.1801 13.0328 1058 118.705 883.688 459.278
253 0 85.1575 13.8567 1180 118.664 883.903 457.168
254 0 90.1689 14.2954 1289 117.582 884.581 457.663
255 0 93.2468 14.0487 1310 118.86 884.592 453.884
256 0 94.2586 13.0704 1232 120.239 884.662 454.046
257 1 49.0254 11.545 566 112.477 885.981 477.618
258 0 50.0631 12.1447 608 110.737 886.056 475.609
259 0 53.0577 11.0446 586 112.363 885.783 476.184
260 0 52.0702 10.5819 551 113.327 885.238 477.169
261 0 54.0518 10.8785 588 112.645 885.23 474.713
262 0 54.0291 12.0676 652 112.633 885.04 472.857
263 0 56.0813 11.5546 648 111.755 886.289 473.227
264 0 59.0359 11.4845 678 111.366 884.615 472.04
265 0 60.0621 11.1551 670 113.134 884.088 471.322
266 0 63.0427 12.6105 795 110.406 884.813 469.474
267 0 64.0348 13.8831 889 108.294 885.027 470.073
268 0 68.0617 12.2095 831 111.533 885.089 469.26
269 0 70.0907 12.4125 870 112.039 884.583 467.082
270 0 72.0539 12.685 914 112.895 884.288 467.018
271 0 76.2151 13.2913 1013 112.164 884.336 464.69
272 0 77.1209 12.6684 977 115.353 884.314 464.312
273 0 79.1239 12.7522 1009 118.955 883.811 460.619
274 0 83.1836 13.332 1109 116.467 884.031 460.274
275 0 86.1439 12.8274 1105 118.076 884.377 457.775
276 0 88.1253 12.7205 1121 118.681 884.813 456.133
277 0 90.1123 11.4191 1029 122.655 884.503 455.605
278 0 94.2097 12.3979 1168 119.815 884.665 455.93
279 0 98.1227 12.7697 1253 120.613 884.735 453.095
280 0 98.1073 12.629 1239 122.222 884.716 451.494
281 0 102.128 13.1698 1345 121.61 884.948 447.789
282 0 105.102 12.7876 1344 121.19 884.586 449.882
283 0 108.179 13.0247 1409 121.281 884.639 447.767
284 0 112.164 12.2766 1377 123.975 884.901 444.976
285 0 117.125 12.9093 1512 121.027 884.135 441.425
286 1 61.1357 11.4827 702 115.734 885.815 470.044
287 0 65.0597 11.5432 751 115.377 883.808 469.064
288 0 65.1977 11.5802 755 117.201 885.163 466.808
289 0 70.0664 13.1447 921 109.882 884.384 466.379
290 0 70.1514 11.1188 780 110.717 884.474 466.936
291 0 73.1201 10.3528 757 111.457 885.902 467.057
292 0 77.0713 13.5459 1044 103.84 885.378 464.381
293 0 77.1683 11.4425 883 110.737 885.343 462.903
294 0 80.1807 12.7712 1024 109.94 885.131 459.108
295 0 83.2285 11.9791 997 112.849 885.298 459.698
296 0 88.1793 12.8148 1130 115.869 885.792 459.869
297 0 91.1138 11.9521 1089 118.881 885.376 457.137
298 0 93.2106 13.6894 1276 85.5031 885.143 455.751
299 0 96.1298 12.6704 1218 119.08 884.687 454.585
300 0 101.193 14.0919 1426 115.792 885.83 451.116
301 0 102.097 12.3608 1262 121.144 885.635 449.63
302 0 102.098 12.3998 1266 149.239 884.633 449.596
303 0 111.334 14.452 1609 116.161 885.227 446.257
304 0 114.141 12.9401 1477 119.599 885.428 445.542
305 0 118.177 13.3867 1582 116.257 885.296 443.807
306 1 63.0738 12.0811 762 111.459 886.442 469.4
307 0 65.0538 11.3752 740 114.061 885.751 467.572
308 0 68.036 13.1401 894 108.867 885.957 467.66
309 0 70.083 12.3425 865 111.837 886.42 466.4
310 0 73.0992 13.3244 974 108.652 885.412 465.485
311 0 73.085 12.0271 879 112.016 885.936 464.066
312 0 78.0569 12.35 964 110.257 885.71 464.209
313 0 80.2035 12.8797 1033 110.578 884.977 461.776
314 0 80.2276 12.6764 1017 112.938 884.636 460.572
315 0 83.1433 12.5326 1042 112.893 884.726 458.86
316 0 88.2058 14.1941 1252 107.864 883.732 457.847
317 0 92.2122 13.8702 1279 109.189 884.322 456.751
318 0 89.1656 11.8768 1059 116.047 884.161 450.502
319 0 96.1547 13.5511 1303 110.279 883.933 450.899
320 0 98.2201 13.3781 1314 109.838 884.35 452.437
321 1 50.0409 10.2316 512 107.273 885.701 476.273
322 0 52.0508 11.0661 576 101.675 884.634 477.066
323 0 53.0594 11.5719 614 99.9951 883.948 473.783
324 0 54.1199 9.22026 499 102.577 884.904 475.573
325 0 55.0598 10.4069 573 100.257 885.18 475.176
326 0 55.1077 10.7789 594 100.966 885.503 473.699
327 0 58.1526 10.1629 591 100.941 885.431 471.428
328 0 58.097 11.2398 653 100.335 885.113 470.946
329 0 62.0973 11.015 684 100.636 885.961 469.474
330 0 61.1016 10.6216 649 121.524 886.901 468.767
331 0 66.0884 11.8024 780 99.3308 885.579 467.747
332 0 67.0977 11.1628 749 99.1028 885.33 468.425
333 0 68.105 10.8215 737 100.3 885.297 465.122
334 0 70.1664 10.4751 735 101.57 885.464 463.857
335 0 74.1298 10.8998 808 100.012 885.345 463.895
336 0 76.1084 10.8267 824 100.235 885.07 459.089
337 0 78.1003 10.9219 853 98.6553 885.205 457.295
338 0 81.1121 11.9341 968 97.3295 885.418 457.119
339 0 83.1601 11.4478 952 102.093 885.311 457.221
340 0 85.1879 10.1071 861 105.803 885.057 453.778
341 0 91.1115 11.8756 1082 103.193 884.733 454.285
342 0 91.1431 10.884 992 108.568 885.03 451.517
343 1 52.0367 10.1082 526 100.011 885.7 478.16
344 0 53.0338 10.1068 536 105.312 886.45 473.78
345 0 54.0971 9.57537 518 110.133 884.647 471.627
346 0 58.1849 12.7696 743 103.995 886.022 471.923
347 0 59.0419 10.5518 623 108.356 886.286 471.056
348 0 60.0657 11.8703 713 105.621 886.356 470.717
349 0 61.0367 11.4685 700 106.12 887.017 471.223
350 0 64.0575 10.3969 666 108.237 886.329 470.619
351 0 65.136 11.2687 734 107.168 886.155 468.262
352 0 68.0294 10.7601 732 107.592 885.355 468.122
353 0 71.0527 10.8933 774 107.199 886.169 466.915
354 0 74.1991 13.1403 975 103.501 885.721 465.932
355 0 77.1935 12.3326 952 104.213 886.261 466.613
356 0 76.0566 10.7946 821 109.56 885.43 463.375
357 0 79.0475 11.335 896 108.999 885.885 460.993
358 0 82.0415 11.7014 960 107.21 886.644 461.888
359 0 86.0656 12.4208 1069 106.457 886.775 458.978
360 0 89.0779 11.7201 1044 108.26 886.462 459.739
361 0 88.0844 12.0226 1059 110.158 886.5 453.427
362 0 92.1729 13.2252 1219 106.932 886.114 455.371
363 0 97.2072 12.3756 1203 109.854 886.223 453.729
364 0 98.2208 13.6427 1340 110.484 885.895 448.458
365 0 102.2 12.5538 1283 110.495 885.488 451.871
366 1 54.0609 10.1367 548 109.597 886.969 474.611
367 0 57.1028 11.0327 630 109.021 886.66 473.7
368 0 59.1138 10.0315 593 108.781 886.18 469.314
369 0 61.0758 12.3126 752 107.61 885.632 470.6
370 0 63.0622 12.5273 790 107.405 885.677 470.18
371 0 64.1271 11.7735 755 109.823 886.024 469.846
372 0 67.0698 14.0152 940 105.346 885.051 467.97
373 0 69.0274 13.2411 914 107.084 884.95 469.681
374 0 70.0603 12.318 863 110.127 884.699 466.305
375 0 72.0995 11.6783 842 111.652 885.001 466.878
376 0 76.1216 13.7543 1047 107.744 885.318 463.94
377 0 80.0828 12.4746 999 110.059 885.26 463.221
378 0 83.203 12.9563 1078 109.171 884.8 461.386
379 0 83.1161 11.3335 942 112.976 885.525 461.508
380 0 88.0728 11.9674 1054 111.204 884.907 460.26
381 0 90.1328 11.9823 1080 112.212 885.381 458.182
382 0 94.1315 13.5236 1273 109.037 885.463 456.905
383 0 96.1866 11.9663 1151 111.533 886.065 453.827
384 0 100.171 12.5386 1256 111.073 885.559 452.92
385 1 52.1106 10.0363 523 109.753 886.22 478.925
386 0 52.0892 11.5187 600 106.752 886.195 473.723
387 0 54.027 11.8089 638 105.122 886.636 475.089
388 0 56.0666 12.1641 682 98.4575 886.447 476.1
389 0 55.0885 11.1457 614 101.849 885.643 475.668
390 0 58.016 10.997 638 101.229 885.484 474.893
391 0 57.0241 10.6622 608 102.809 885.414 470.74
392 0 61.013 10.424 636 102.214 885.871 471.248
393 0 63.0137 11.315 713 101.201 886.241 469.067
394 0 66.0478 10.4621 691 102.326 885.438 469.302
395 0 67.0738 11.4799 770 101.852 885.639 468.095
396 0 71.0676 12.1574 864 101.503 886.034 466.301
397 0 73.0843 11.5073 841 103.559 886.444 465.289
398 0 75.1689 11.2147 843 104.724 886.33 463.97
399 0 78.1469 11.4272 893 105.809 886.186 463.365
400 0 82.1064 12.155 998 105.496 885.926 461.636
401 0 83.1165 11.6102 965 108.793 885.622 458.482
402 0 87.1857 12.2268 1066 111.183 886.051 457.823
403 0 90.1164 12.7502 1149 109.939 885.765 457.333
404 0 92.0789 11.8811 1094 108.963 885.255 454.05
405 1 49.0802 11.4506 562 101.267 885.979 478.103
406 0 52.1504 11.7545 613 99.2953 886.034 478.005
407 0 50.0788 10.6033 531 104.028 886.878 478.104
408 0 53.17 12.5635 668 102.71 887.049 475.157
409 0 55.2972 11.7547 650 103.505 886.268 475.68
410 0 58.191 11.6513 678 103.83 886.574 474.062
411 0 57.1532 12.7377 728 102.751 886.691 474.769
412 0 60.1373 12.2719 738 102.568 886.321 474.486
413 0 63.131 11.8325 747 103.404 886.431 472.395
414 0 64.3404 11.3459 730 105.103 886.663 471.584
415 0 66.2741 12.6143 836 103.282 886.556 469.878
416 0 68.2313 11.7835 804 105.815 886.521 468.133
417 0 72.2488 12.8307 927 104.597 886.154 465.782
418 0 74.2201 12.0453 894 106.597 885.682 466.474
419 0 76.2601 12.182 929 107.124 886.346 464.922
420 0 80.4551 13.1253 1056 105.509 886.089 462.848
421 0 83.1046 11.3953 947 104.025 885.937 462.347
422 0 86.1066 12.2871 1058 103.917 886.146 460.488
423 0 87.133 12.2342 1066 104.799 886.621 460.932
424 0 91.106 11.6128 1058 107.919 885.561 456.613
425 1 47.022 10.5482 496 104.623 885.482 479.046
426 0 49.1054 11.0579 543 105.21 885.392 478.632
427 0 49.0888 10.6338 522 103.326 885.883 478.816
428 0 52.0439 12.1244 631 103.057 886.306 475.101
429 0 53.0628 12.6077 669 102.09 885.688 476.776
430 0 55.0778 12.7093 700 102.39 886.216 475.029
431 0 57.0363 11.9924 684 104.281 886.681 474.525
432 0 60.0379 11.8592 712 104.216 886.348 473.035
433 0 60.1376 12.6876 763 103.864 886.325 471.025
434 0 62.1723 13.1087 815 102.912 886.323 470.429
435 0 65.2028 13.4657 878 102.638 886.71 469.632
436 0 66.109 12.2676 811 106.566 886.825 469.222
437 0 67.1257 12.3202 827 108.388 886.32 467.404
438 0 73.221 13.9987 1025 104.925 885.615 465.719
439 0 74.1439 12.8534 953 108.831 886.005 463.544
440 0 77.1769 13.6828 1056 107.424 886.506 464.74
441 0 79.1664 13.3264 1055 111.727 886.224 462.379
442 0 84.1436 14.6535 1233 108.025 884.999 462.062
443 0 83.1141 13.8605 1152 110.23 885.957 456.022
444 0 87.1358 12.7043 1107 113.298 885.969 455.165
445 0 90.1609 12.7883 1153 112.678 886.188 452.623
446 0 92.0867 12.5534 1156 115.063 886.413 448.705
447 0 97.191 12.6452 1229 116.274 885.511 449.657
448 1 50.1055 11.356 569 115.677 886.895 476.042
449 0 51.1229 10.5432 539 104.019 885.622 472.165
450 0 54.2242 13.0385 707 112.485 885.501 474.878
451 0 55.1143 12.3198 679 114.987 885.907 476.044
452 0 57.115 12.6062 720 114.378 886.678 475.067
453 0 60.1882 12.7766 769 112.849 886.873 474.893
454 0 61.1547 12.869 787 113.437 886.447 473.318
455 0 64.1775 13.6652 877 111.477 886.95 471.528
456 0 64.1558 12.5943 808 114.894 886.551 471.739
457 0 65.1168 11.5331 751 119.015 886.611 470.463
458 0 70.1757 14.0077 983 110.787 886.447 469.501
459 0 66.0569 12.9131 853 117.145 886.489 466.649
460 0 72.1009 12.2745 885 115.831 886.656 468.085
461 0 74.1335 12.9901 963 115.335 886.65 465.327
462 0 79.1226 13.7634 1089 111.729 886.186 465.822
463 0 79.1293 12.5238 991 116.365 885.999 463.684
464 0 83.0959 13.8876 1154 112.729 886.714 461.571
465 0 82.1072 12.8978 1059 116.404 886.656 460.151
466 0 86.1272 12.946 1115 115.511 886.042 460.413
467 0 90.2579 14.5583 1314 112.097 886.202 456.754
468 0 90.2579 14.5029 1309 137.286 886.199 456.694
469 0 95.1688 13.765 1310 111.176 886.321 455.844
470 0 97.1498 12.3006 1195 111.65 885.448 455.608
471 0 100.156 12.191 1221 111.074 885.266 454.916
472 1 57.0226 11.6796 666 105.841 885.296 475.38
473 0 58.0705 11.8993 691 106.91 885.809 474.155
474 0 62.107 12.6395 785 108.52 885.732 472.739
475 0 62.2047 12.9572 806 111.247 886.216 469.525
476 0 64.1363 11.803 757 113.609 886.157 470.888
477 0 68.1424 13.2223 901 107.821 885.937 469.047
478 0 68.1109 11.7309 799 110.92 886.687 466.103
479 0 70.1061 12.4098 870 102.967 886.455 468.051
480 0 73.0568 12.8393 938 102.006 886.065 468.468
481 0 74.1048 13.0086 964 103.223 885.596 466.939
482 0 78.0858 13.3955 1046 102.682 886.509 465.17
483 0 80.1815 12.1474 974 107.322 885.959 462.328
484 0 84.0825 12.0834 1016 108.112 886.459 461.851
485 0 84.1727 11.9041 1002 111.606 886.468 460.158
486 0 89.2406 12.0909 1079 109.719 887.037 459.377
487 0 92.1849 12.5726 1159 111.183 887.166 453.302
488 0 95.207 12.121 1154 111.38 886.969 455.347
489 0 99.2518 11.7882 1170 112.195 886.455 453.933
490 0 101.319 11.755 1191 113.71 886.032 450.421
491 0 103.275 11.6389 1202 115.575 886.218 448.964
492 1 51.2291 11.634 596 105.448 887.332 474.428
493 0 53.1142 11.8801 631 107.418 886.132 475.274
494 0 55.1454 11.8233 652 103.597 886.782 477.242
495 0 54.1241 10.4575 566 108.553 886.617 474.871
496 0 58.0993 11.9967 697 105.3 886.615 473.852
497 0 60.0518 13.2552 796 102.256 887.714 473.807
498 0 62.1696 12.096 752 104.14 887.475 473.723
499 0 65.0315 12.4094 807 105.783 887.418 470.149
500 0 68.0346 13.2286 900 106.768 887.788 468.529
501 0 68.0544 12.7839 870 111.067 887.029 467.436
502 0 73.0836 12.7662 933 110.163 886.636 467.514
503 0 74.2498 11.7845 875 114.191 887.357 466.437
504 0 74.2457 11.7044 869 141.099 887.356 466.4
505 0 80.1597 11.2775 904 115.969 886.975 463.092
506 0 81.1145 11.6502 945 115.36 886.953 462.304
507 0 83.2344 12.1464 1011 114.889 887.136 461.445
508 0 87.2459 11.0607 965 117.822 886.795 458.547
509 0 90.2541 12.0327 1086 116.423 887.347 456.397
510 0 93.1527 11.8408 1103 116.452 886.428 456.237
511 0 95.0987 12.5028 1189 115.78 885.982 453.741
512 0 98.1733 11.5917 1138 118.547 886.487 450.821
513 0 102.2 11.409 1166 120.537 886.775 450.972
514 0 106.273 12.9667 1378 118.454 886.6 451
515 0 109.294 11.2632 1231 122.846 886.746 446.494
516 0 112.308 12.2609 1377 121.666 886.355 444.471
517 0 117.263 11.4785 1346 124.048 886.227 442.88
518 1 64.0959 12.3565 792 114.509 886.787 468.114
519 0 61.0829 10.7722 658 113.682 885.445 461.881
520 0 65.059 10.9439 712 112.685 885.183 463.308
521 0 69.1006 11.2734 779 111.487 884.665 463.747
522 0 70.1821 11.4132 801 111.393 885.197 462.94
523 0 73.0892 12.8336 938 108.761 884.841 459.918
524 0 78.0488 12.5562 980 110.976 885.456 465.236
525 0 80.0785 12.3878 992 113.921 884.915 461.588
526 0 82.1098 12.5076 1027 114.806 885.12 462.463
527 0 85.2089 12.5808 1072 118.369 885.712 458.405
528 0 89.1608 12.3148 1098 118.172 885.493 461.182
529 0 94.1857 12.3798 1166 118.597 885.93 457.894
530 0 94.2243 12.0139 1132 120.655 885.951 455.076
531 0 96.2023 11.6421 1120 121.981 886.554 452.433
532 1 54.1143 9.53537 516 118.645 885.452 475.368
533 0 51.0294 10.2882 525 114.507 887.263 468.789
534 0 55.0384 12.0825 665 108.734 886.65 478.448
535 0 56.0515 11.2575 631 111.597 886.01 475.891
536 0 60.0939 11.7483 706 109.499 885.965 475.006
537 0 61.0412 9.74751 595 113.494 885.449 474.857
538 0 63.0602 11.3384 715 111.062 885.031 471.491
539 0 66.0898 11.8173 781 109.02 884.129 471.022
540 0 69.1046 12.4449 860 106.599 884.492 471.574
541 0 71.0532 10.5836 752 111.664 884.396 469.918
542 0 72.0773 11.7652 848 110.729 884.5 466.303
543 0 77.056 12.3676 953 107.776 884.483 467.316
544 0 79.287 11.8809 942 111.014 884.705 463.51
545 0 82.0818 12.4997 1026 111.632 884.695 459.671
546 0 87.0988 13.0082 1133 109.576 884.635 460.827
547 0 88.0972 13.0538 1150 111.797 884.23 459.338
548 0 91.1329 11.7082 1067 114.958 885.742 459.948
549 0 93.0971 12.2453 1140 116.272 885.659 456.232
550 0 96.1385 11.7227 1127 118.429 885.398 454.937
551 0 101.124 12.8851 1303 115.254 885.635 452.082
552 0 105.235 12.5719 1323 117.834 885.231 449.902
553 1 56.0746 11.8592 665 112.998 884.123 474.392
554 0 58.0884 10.8111 628 115.325 884.185 474.518
555 0 58.0596 10.937 635 111.625 885.324 475.244
556 0 60.0199 11.7294 704 110.378 885.359 475.246
557 0 62.035 12.1544 754 110.298 884.607 473.092
558 0 64.1024 12.948 830 109.245 884.947 470.68
559 0 64.0483 10.8356 694 114.014 884.906 472.424
560 0 65.1065 11.5964 755 113.641 884.554 470.928
561 0 70.0855 12.7416 893 110.749 884.718 468.639
562 0 72.0568 11.824 852 114.129 884.573 467.805
563 0 74.0456 13.5727 1005 110.083 884.591 466.339
564 0 75.1161 11.7152 880 114.292 884.845 467.623
565 0 77.1218 11.8903 917 116.4 885.109 464.77
566 0 81.0696 12.8161 1039 112.676 885.154 461.448
567 0 83.179 12.1545 1011 115.007 884.952 458.942
568 0 85.1034 12.3497 1051 114.559 884.691 457.826
569 0 89.1588 12.102 1079 115.361 884.627 456.348
570 0 93.1125 12.4151 1156 115.157 884.41 454.518
571 0 94.1496 12.3633 1164 115.657 884.774 451.635
572 0 98.1407 14.1226 1386 112.356 885.108 450.611
573 1 49.0111 9.7325 477 108.633 884.662 476.503
574 0 50.0401 10.5915 530 106.919 884.915 474.442
575 0 49.0841 9.67726 475 97.5347 885.644 473.269
576 0 51.0599 10.4387 533 96.2627 885.587 471.023
577 0 52.0908 9.27226 483 98.8427 886.248 471.613
578 0 53.1326 9.16575 487 101.441 886.09 470.462
579 0 55.1514 8.93903 493 102.617 886.347 472.059
580 0 57.0681 9.56751 546 100.324 886.751 471.863
581 0 59.0688 8.98952 531 102.209 886.488 468.906
582 0 64.0679 10.4108 667 98.4258 885.795 470.049
583 0 62.0844 8.00523 497 101.179 885.519 467.549
584 0 64.0539 9.99159 640 98.3609 884.875 465.628
585 0 66.0427 9.46357 625 99.8816 885.578 463.019
586 0 67.1396 10.7537 722 99.259 885.672 461.04
587 0 67.0364 9.57689 642 100.836 885.24 463.623
588 0 73.1613 11.0168 806 99.5695 885.289 459.218
589 0 74.0527 11.9645 886 100.675 885.126 455.623
590 0 79.0842 12.5057 989 99.7745 885.537 459.035
591 0 82.0988 11.9125 978 109.057 885.865 462.586
592 0 85.1267 12.8514 1094 108.352 885.886 460.766
593 0 86.169 11.7908 1016 114.291 885.917 458.359
594 0 91.0883 12.1091 1103 114.576 885.325 456.126
595 0 95.2275 12.6119 1201 113.618 885.471 453.426
596 0 99.1865 11.6044 1151 115.356 885.838 453.831
597 0 101.189 12.9856 1314 112.489 885.167 449.107
598 1 55.0967 11.6341 641 106.435 884.548 475.056
599 0 55.1374 11.8431 653 109.342 885.766 473.06
600 0 57.2289 11.4977 658 111.239 886.059 473.957
601 0 59.18 12.538 742 110.584 886.209 472.403
602 0 62.1766 11.0813 689 113.152 885.659 471.605
603 0 65.2286 11.5593 754 112.586 885.698 471.131
604 0 67.1584 11.4059 766 114.731 886.155 468.762
605 0 68.246 11.0776 756 116.848 885.771 467.56
606 0 72.2711 11.8581 857 115.224 886.016 466.95
607 0 76.2293 12.3443 941 115.507 886.23 464.525
608 0 79.2528 12.4538 987 116.271 885.941 464.468
609 0 82.2019 11.7029 962 117.878 885.641 465.04
610 1 43.0308 9.57454 412 119.517 887.017 480.481
611 0 44.0542 10.6233 468 117.335 886.872 481.271
612 0 46.0427 12.6839 584 113.337 886.962 480.563
613 0 45.0067 11.3094 509 108.658 886.098 479.868
614 0 47.0132 11.6776 549 109.06 886.958 480.366
615 0 50.059 11.6862 585 109.161 886.785 481.388
616 0 51.0641 12.8858 658 106.693 886.079 479.666
617 0 49.0245 12.3 603 114.033 886.964 476.723
618 0 52.1027 11.7844 614 113.08 886.422 478.774
619 0 54.0472 12.5076 676 111.888 886.756 477.914
620 0 54.0278 10.2355 553 117.501 887.318 477.844
621 0 57.0397 11.4131 651 114.134 886.995 476.773
622 0 58.0831 9.76187 567 118.328 886.776 475.152
623 0 62.0807 11.1629 693 114.035 886.189 473.911
624 0 62.0522 11.3614 705 113.512 885.965 473.928
625 0 67.0394 11.799 791 110.77 886.04 472.781
626 0 69.0741 11.8858 821 109.175 885.7 471.476
627 0 72.1347 11.5894 836 109.932 885.886 471.019
628 0 75.1224 11.7408 882 110.147 885.544 469.222
629 0 76.1241 10.9689 835 112.218 885.563 467.684
630 0 79.1712 11.0267 873 114.145 885.01 463.589
631 1 43.017 9.81009 422 114.422 886.422 482.597
632 0 46.0361 12.0558 555 109.396 886.094 481.816
633 0 46.075 11.5247 531 111.226 886.495 480.279
634 0 46.0285 12.7964 589 106.876 886.43 481.998
635 0 48.0521 12.6529 608 108.595 886.413 478.766
636 0 49.0238 12.7285 624 109.204 886.329 478.603
637 0 51.052 12.262 626 109.588 886.762 480.848
638 0 50.0511 12.1276 607 112.799 887.12 478.082
639 0 54.0734 12.7604 690 110.925 886.328 477.168
640 0 54.0855 11.8516 641 112.791 885.282 477.725
641 0 55.0452 12.4988 688 111.846 886.214 476.821
642 0 57.0745 13.1057 748 110.38 885.456 476.877
643 0 59.1366 14.0015 828 108.606 885.627 473.71
644 0 60.0188 12.3461 741 112.738 885.359 474.119
645 0 60.1131 12.1937 733 114.276 885.668 473.446
646 0 65.1361 13.2185 861 111.714 886.049 471.898
647 0 67.0937 12.7881 858 112.873 885.562 472.323
648 0 70.1486 12.9582 909 113.311 885.429 470.12
649 0 70.1242 12.0215 843 117.314 885.325 469.938
650 0 75.1737 13.4356 1010 113.305 885.266 468.358
651 0 74.07 13.3792 991 115.545 885.26 468.148
652 0 79.2254 13.0009 1030 115.109 885.59 464.559
653 0 82.1161 13.9071 1142 113.814 884.685 460.464
654 0 82.0938 13.1679 1081 114.786 885.256 457.6
655 0 85.2178 11.8989 1014 117.5 885.285 455.363
656 0 89.1195 13.667 1218 113.177 885.452 451.837
657 0 91.1455 12.0357 1097 115.89 884.953 456.409
658 1 48.0494 10.9887 528 109.394 886.038 473.159
659 0 45.0757 9.8501 444 113.583 885.89 471.712
660 0 51.0897 11.5288 589 111.209 885.997 470.789
661 0 53.053 12.7608 677 108.728 885.631 470.634
662 0 52.101 10.9595 571 109.94 884.063 474.618
663 0 56.1099 11.424 641 109.376 884.326 472.321
664 0 57.0809 10.8968 622 109.895 884.601 472.592
665 0 59.084 11.9152 704 109.216 884.778 470.247
666 0 61.0762 13.0002 794 107.646 884.705 470.437
667 0 63.0597 11.8776 749 111.65 885.15 470.339
668 0 64.0973 12.2938 788 112.258 884.859 469.362
669 0 68.1623 12.925 881 109.793 884.825 468.321
670 0 69.0602 12.6991 877 113.336 884.591 466.896
671 0 71.1136 13.0777 930 113.41 884.226 465.413
672 0 74.0712 11.7725 872 116.733 884.194 464.498
673 0 77.1032 13.6181 1050 109.474 884.494 464.052
674 0 79.122 12.1332 960 113.133 884.15 462.666
675 0 83.2307 12.8438 1069 113.11 884.404 460.511
676 0 86.1857 13.1576 1134 114.133 884.327 457.499
677 0 89.1502 12.1705 1085 118.626 884.388 456.367
678 1 46.0306 11.0796 510 110.4 885.288 479.41
679 0 47.0402 12.3511 581 112.518 885.181 480.601
680 0 50.1047 13.0926 656 117.805 885.224 481.276
681 0 50.0395 12.4701 624 118.37 884.7 482.319
682 0 52.1318 13.2549 691 118.606 885.446 479.763
683 0 52.0578 12.1788 634 123.822 885.336 478.923
684 0 54.0462 13.1739 712 120.302 886.192 478.869
685 0 53.0882 10.6238 564 126.757 885.454 478.285
686 0 58.0531 14.7451 856 114.563 885.56 477.07
687 0 60.114 13.4411 808 117.778 885.38 476.876
688 0 61.1594 12.6718 775 118.493 885.128 477.265
689 0 63.0938 12.9173 815 117.536 885.07 473.941
690 0 64.0423 12.3668 792 119.369 885.288 472.909
691 0 68.0692 11.9437 813 119.845 885.839 470.94
692 0 69.0781 12.7247 879 117.27 885.646 471.504
693 0 71.1193 13.1188 933 116.316 885.699 470.602
694 0 74.0645 12.7726 946 117.134 885.415 468.205
695 0 77.0901 14.2301 1097 113.078 885.018 466.934
696 0 79.2067 12.5747 996 117.366 885.485 466.477
697 0 83.1402 12.6172 1049 117.457 886.084 464.2
698 0 86.0912 12.9049 1111 118.232 886.01 461.189
699 0 91.0979 13.491 1229 115.897 885.749 459.701
700 1 47.0329 10.2694 483 117.161 886.433 481.865
701 0 51.0137 12.2712 626 111.452 886.359 480.161
702 0 50.0295 11.6931 585 114.533 886.009 479.923
703 0 52.0706 11.9069 620 113.326 883.842 478.665
704 0 55.0772 12.6187 695 112.737 883.148 476.273
705 0 55.0269 12.3758 681 115.204 882.962 474.799
706 0 57.0387 11.799 673 116.18 883.679 474.874
707 0 59.0268 12.9263 763 113.035 883.223 473.616
708 0 63.0439 12.5309 790 112.029 883.261 474.034
709 0 64.0464 12.5534 804 112.709 883.336 473.735
710 0 65.0727 13.3543 869 112.194 884.258 470.953
711 0 66.1911 12.7812 846 114.53 883.908 470.914
712 0 69.143 13.7107 948 112.654 884.109 469.371
713 0 72.1559 14.1083 1018 111.967 884.182 469.669
714 0 73.1336 13.2771 971 115.749 884.586 466.656
715 0 76.1028 13.2321 1007 116.274 884.243 466.211
716 0 78.1353 12.4528 973 120.097 884.499 463.263
717 0 81.1822 14.0918 1144 115.749 885.212 463.58
718 0 83.2379 13.4914 1123 117.272 885.32 463.308
719 0 87.1584 13.7336 1197 117.499 885.048 461.672
720 0 90.2445 14.1726 1279 118.075 885.137 459.116
721 0 93.2901 13.324 1243 120.6 885.11 456.776
722 1 48.0176 11.3083 543 114.517 883.645 479.639
723 0 50.0693 12.263 614 114.907 884.021 477.888
724 0 53.0936 12.8641 683 111.905 883.613 477.761
725 0 55.0549 12.5148 689 116.524 883.624 476.498
726 0 57.03 12.4496 710 116.051 883.483 476.355
727 0 56.0699 12.5023 701 117.569 883.414 476.05
728 0 60.0307 12.0105 721 117.583 883.436 475.194
729 0 62.0532 13.7463 853 113.203 883.633 474.149
730 0 64.0407 13.226 847 113.765 883.451 472.623
731 0 63.048 11.7054 738 114.447 884.172 472.667
732 0 64.0217 11.2462 720 114.222 884.415 472.828
733 0 68.0873 11.779 802 113.103 884.208 470.101
734 0 71.0875 12.1962 867 113.434 884.023 469.067
735 0 76.0845 13.301 1012 109.534 883.826 470.641
736 0 75.1753 12.7036 955 117.453 884.669 466.058
737 0 80.1912 13.1561 1055 114.85 884.38 464.102
738 0 82.1538 13.0609 1073 115.914 884.399 464.136
739 1 40.0998 10.8729 436 117.195 883.959 483.413
740 0 43.0445 11.3836 490 116.002 884.257 480.759
741 0 45.0348 12.4126 559 115.25 883.662 481.252
742 0 47.0439 11.4787 540 118.343 882.915 480.828
743 0 47.0987 11.9324 562 118.324 883.19 479.502
744 0 50.0299 13.2521 663 114.629 883.302 478.695
745 0 50.0153 11.9164 596 118.497 882.96 478.661
746 0 51.0365 12.2461 625 119.832 882.755 477.798
747 0 50.0757 11.6424 583 115.16 883.623 478.321
748 0 52.0607 11.064 576 114.755 883.378 478.264
749 0 53.0824 10.9453 581 114.663 883.731 478.812
750 0 56.0992 12.2462 687 112.092 883.801 476.157
751 0 57.0551 9.92023 566 116.701 883.818 476.449
752 0 61.1188 11.3222 692 111.851 883.893 475.468
753 0 64.094 12.076 774 111.11 884.18 473.574
754 0 65.0512 12.298 800 112.014 884.49 471.476
755 0 67.1037 12.9948 872 110.771 884.431 469.823
756 0 69.0572 10.7737 744 115.952 884.058 469.665
757 0 73.1021 12.7493 932 111.315 884.084 468.665
758 0 76.103 12.8247 976 110.566 884.04 466.234
759 0 80.0846 12.6866 1016 111.398 884.112 465.196
760 0 81.0518 11.6592 945 115.288 883.357 465.642
761 0 86.0537 13.3521 1149 111.882 883.496 463.551
762 0 87.1017 14.0985 1228 117.489 883.956 463.008
763 0 90.1032 12.7409 1148 123.363 883.544 459.608
764 0 94.1029 12.9858 1222 122.044 884.094 458.622
765 0 98.1955 14.3897 1413 117.863 884.199 457
766 1 49.0637 12.0456 591 117.587 884.47 480.959
767 0 52.1934 12.7602 666 117.21 885.024 476.631
768 0 54.1259 12.1753 659 116.935 886.14 479.25
769 0 53.0975 12.9196 686 119.413 885.815 475.359
770 0 56.1874 12.9032 725 118.606 886.241 476.055
771 0 58.2324 13.4633 784 116.982 885.952 475.814
772 0 59.2056 13.0562 773 118.251 886.348 476.916
773 0 61.184 13.1734 806 120.151 886.022 473.368
774 0 63.1509 13.5073 853 118.669 885.771 473.414
775 0 66.162 13.5727 898 118.416 886.19 472.59
776 0 67.1512 14.0429 943 118.876 885.632 470.548
777 0 69.1442 13.3344 922 121.047 886.266 469.166
778 0 73.1612 13.4908 987 119.354 885.967 470.096
779 0 74.1744 13.2121 980 122.257 885.545 467.17
780 0 76.1794 13.4551 1025 122.452 885.326 464.633
781 0 77.2051 11.5407 891 127.356 884.836 465.701
782 0 80.1849 12.2467 982 125.054 884.569 465.699
783 0 82.1011 12.107 994 126.447 884.688 462.642
784 0 86.2879 12.9103 1114 122.807 885.034 460.496
785 0 89.1471 13.1019 1168 121.633 885.208 460.954
786 0 92.1855 12.9088 1190 122.736 884.938 458.504
787 0 96.2523 12.5711 1210 123.654 884.684 455.558
788 0 101.185 13.243 1340 120.624 884.374 456.051
789 0 103.268 12.5498 1296 123.139 884.035 450.92
790 0 105.242 13.8158 1454 119.225 884.605 450.968
791 0 111.276 11.9702 1332 121.464 884.098 452.152
792 1 60.0763 12.9335 777 113.625 884.125 473.973
793 0 61.1386 11.3349 693 117.329 884.175 472.313
794 0 63.0376 12.9129 814 111.844 885.952 474.184
795 0 64.0674 11.6284 745 116.813 885.858 472.216
796 0 69.0346 12.2547 846 114.013 885.599 469.909
797 0 71.1072 13.8805 987 110.463 885.454 467.708
798 0 73.0974 11.9293 872 115.708 885.494 467.706
799 0 76.0958 13.2727 1010 113.087 885.687 466.92
800 0 78.1951 12.5455 981 115.278 885.495 466.465
801 0 81.2159 13.2733 1078 113.084 885.437 464.868
802 0 83.1365 13.2673 1103 114.122 884.515 462.646
803 0 85.1811 12.8197 1092 116.94 885.188 460.881
804 0 88.1926 12.1325 1070 117.004 884.76 461.312
805 0 91.2045 12.3568 1127 117.249 884.368 459.051
806 0 94.1923 12.6125 1188 117.898 884.391 456.665
807 0 96.2012 12.6402 1216 118.336 884.603 455.084
808 0 101.198 13.1031 1326 117.512 884.307 453.02
809 1 50.1153 10.2963 516 115.473 885.498 479.017
810 0 53.0992 11.7516 624 110.394 885.925 478.808
811 0 55.0348 11.4291 629 113.03 886.477 478.169
812 0 55.0576 11.0066 606 114.238 885.614 478.337
813 0 56.0485 11.5793 649 114.789 886.279 475.529
814 0 57.0411 11.6057 662 114.887 886.228 474.55
815 0 60.0435 11.0253 662 116.813 886.228 473.727
816 0 62.041 12.3789 768 114.923 885.803 472.904
817 0 66.0982 13.3438 882 111.476 886.206 473.095
818 0 66.0411 11.7805 778 118.071 886.01 473.449
819 0 69.0598 12.7281 879 116.379 886.173 471.903
820 0 69.0598 12.7281 879 148.531 886.143 471.984
821 0 73.111 13.924 1018 116.198 886.208 468.533
822 0 76.1069 12.7715 972 120.094 885.691 467.376
823 0 78.1202 14.7849 1155 116.28 885.591 465.551
824 0 81.1246 13.9908 1135 118.204 885.608 465.79
825 0 82.0691 13.2693 1089 121.694 885.559 462.793
826 0 86.1298 13.4332 1157 120.901 885.659 462.899
827 0 90.1977 14.3241 1292 118.515 884.699 459.976
828 0 90.2567 12.7636 1152 124.457 885.111 459.508
829 0 96.2694 14.0543 1353 118.863 884.72 457.5
830 0 98.1637 13.671 1342 115.05 885.06 458.99
831 0 99.198 12.5103 1241 119.776 884.276 454.91
832 0 105.22 13.2864 1398 121.619 884.253 453.806
833 0 108.144 13.1029 1417 121.31 884.675 453.554
834 0 109.152 12.4872 1363 116.735 884.376 448.573
835 1 59.154 10.9038 645 115.95 884.871 476.54
836 0 61.1266 12.106 740 117.562 884.032 474.43
837 0 63.0633 11.2902 712 109.055 883.77 469.288
838 0 61.1503 9.89366 605 109.942 884.076 468.352
839 0 66.0959 10.8933 720 107.408 884.333 468.061
840 0 67.0653 11.0788 743 106.19 884.221 469.038
841 0 69.0739 9.72871 672 109.249 883.945 465.388
842 0 73.0425 11.1579 815 106.761 883.071 463.121
843 0 74.0661 10.9902 814 109.28 882.741 460.011
844 0 77.0634 10.5108 810 110.432 883.062 458.588
845 0 82.084 10.3674 851 109.673 883.544 460.984
846 0 86.0592 11.3991 981 108.622 883.468 456.601
847 0 85.1313 10.9008 928 111.528 882.836 450.794
848 0 91.226 11.9264 1088 108.269 882.475 450.411
849 0 92.0844 10.599 976 112.366 883 451.551
850 1 48.129 10.3264 497 108.763 881.964 473.944
851 0 51.0377 10.6196 542 105.175 883.066 475.192
852 0 53.1006 11.3181 601 104.082 883.512 471.897
853 0 56.0671 11.7003 656 109.98 883.099 475.264
854 0 57.1056 12.8884 736 107.416 883.196 476.827
855 0 60.0339 12.6762 761 108.377 883.039 475.21
856 0 62.141 13.7429 854 105.263 883.211 474.441
857 0 62.0453 12.9905 806 109.489 883.409 471.949
858 0 63.0544 12.291 775 107.938 883.4 471.108
859 0 66.1639 12.1819 806 108.455 883.046 470.385
860 0 69.0446 12.8613 888 107.447 883.5 470.767
861 0 69.087 12.3323 852 112.305 883.33 468.461
862 0 73.1045 13.7201 1003 109.366 883.118 468.044
863 0 74.0958 12.7133 942 113.15 882.887 466.81
864 0 77.0689 12.4434 959 116.631 882.641 466.401
865 0 82.0616 13.1121 1076 115.965 882.725 463.593
866 0 84.0807 12.5475 1055 115.367 882.994 461.095
867 0 86.1149 13.5981 1171 113.652 882.646 457.295
868 0 91.3129 13.2949 1214 113.769 882.602 458.294
869 0 91.1628 12.7245 1160 119.433 882.34 457.94
870 1 49.1337 11.2346 552 113.866 882.741 481.837
871 0 50.2692 11.5777 582 114.871 883.107 478.864
872 0 49.0502 11.9266 585 116.179 882.786 477.234
873 0 53.1954 12.3883 659 115.085 883.768 480.736
874 0 54.1181 11.5488 625 117.171 883.542 479.198
875 0 56.1686 13.2458 744 113.198 884.12 478.254
876 0 59.1608 14.0127 829 110.917 884.238 476.573
877 0 61.219 13.6232 834 111.338 884.064 475.536
878 0 59.2607 13.0103 771 114.939 883.895 474.916
879 0 63.2355 13.2679 839 112.778 883.993 474.088
880 0 64.1062 12.8381 823 113.676 884.094 473.162
881 0 67.1621 13.2217 888 111.59 883.955 471.464
882 0 70.2321 13.8825 975 110.686 883.391 469.429
883 0 69.0673 12.0173 830 115.965 883.471 468.69
884 0 73.2495 13.5155 990 112.173 883.984 466.981
885 0 74.1033 12.3881 918 114.723 883.984 465.52
886 0 77.2979 13.2863 1027 112.291 884.323 465.05
887 0 78.2581 11.1937 876 115.218 884.268 463.226
888 0 84.2845 13.6087 1147 109.262 884.386 462.379
889 1 42.0156 9.99628 420 107.802 885.3 482.193
890 0 42.0277 10.2789 432 103.104 884.139 481.877
891 0 42.1866 11.2121 473 103.945 884.51 481.877
892 0 45.0663 11.2501 507 103.763 884.647 481.813
893 0 48.0833 11.792 567 100.894 885.254 481.496
894 0 47.1053 11.3363 534 104.629 884.779 480.322
895 0 50.0718 11.5035 576 104.101 884.071 478.778
896 0 52.141 11.7374 612 104.974 883.766 478.526
897 0 54.1277 11.0664 599 107 884.421 477.756
898 0 54.0523 11.1559 603 107.217 884.36 475.968
899 0 56.108 11.1571 626 108.404 883.982 475.184
900 0 60.0483 12.4733 749 106.206 884.08 474.754
901 0 62.1019 12.8499 798 106.46 884.184 472.961
902 0 65.1025 12.1347 790 107.738 884.116 473.077
903 0 67.0908 11.9987 805 108.689 883.783 471.329
904 0 69.1503 12.3644 855 109.149 884.248 469.111
905 0 71.1366 12.6939 903 109.001 883.13 470.402
906 0 75.1157 12.9001 969 112.214 883.9 467.106
907 0 78.1096 13.353 1043 111.023 883.809 465.525
908 1 42.1309 9.85026 415 110.072 883.236 486.894
909 0 42.0939 10.7854 454 112.595 883.436 482.771
910 0 46.0857 11.9126 549 108.157 883.348 483.404
911 0 48.0394 12.0734 580 108.924 883.134 481.341
912 0 49.1353 12.4554 612 107.993 883.433 480.842
913 0 50.1168 12.0918 606 109.977 883.342 480.472
914 0 53.1242 12.4237 660 109.429 883.982 478.947
915 0 52.0999 11.0173 574 114.301 883.909 479.432
916 0 56.1829 13.3315 749 108.083 883.872 476.583
917 0 56.1546 12.056 677 112.204 883.623 478.03
918 0 58.1976 12.7325 741 111.356 883.854 476.677
919 0 59.1496 11.8175 699 115.067 884.136 476.904
920 0 62.0606 13.1323 815 111.093 884.363 475.598
921 0 62.0749 12.0822 750 114.803 884.56 474.277
922 0 66.0344 12.7509 842 111.931 884.1 472.524
923 0 67.0318 12.3971 831 114.108 883.532 472.229
924 0 68.0707 12.1785 829 117.258 884.072 472.3
925 0 70.2072 13.275 932 114.849 884.633 468.71
926 0 73.2515 11.5629 847 117.799 884.625 468.22
927 0 75.2261 10.7941 812 120.296 883.943 466.507
928 0 80.3039 12.2036 980 116.408 884.031 465.009
929 0 81.2838 11.4906 934 119.143 884.564 463.945
930 1 41.1526 10.2059 420 115.131 885.371 483.29
931 0 44.0389 11.0357 486 112.218 884.58 482.132
932 0 45.0448 12.1657 548 112.513 885.484 480.927
933 0 49.084 11.1442 547 107.276 884.967 476.342
934 0 49.0882 13.2211 649 114.085 883.689 480.353
935 0 49.0823 12.6318 620 118.132 883.871 479.135
936 0 51.1019 13.1502 672 117.649 883.751 476.866
937 0 54.0471 14.9499 808 111.808 883.822 476.791
938 0 53.0797 13.2254 702 119.212 884.12 476.936
939 0 55.049 12.5706 692 121.766 883.559 476.808
940 0 56.0559 11.7383 658 124.489 884.275 476.728
941 0 59.0553 12.6661 748 122.918 883.832 474.047
942 0 61.034 12.7306 777 123.12 883.569 473.263
943 0 65.0562 13.9418 907 120.003 883.571 471.066
944 0 67.0495 12.9009 865 123.14 883.48 471.891
945 0 69.0297 12.893 890 122.215 883.133 471.043
946 0 71.0964 13.545 963 121.069 883.434 469.343
947 0 75.0981 13.3958 1006 119.074 883.171 470.195
948 0 77.0634 13.7938 1063 121.322 883.431 465.815
949 0 78.2494 13.9554 1092 123.851 883.736 463.967
950 0 83.4589 13.8392 1155 123.662 884.033 462.134
951 0 87.2632 14.3245 1250 122.152 884.291 461.254
952 0 89.185 14.5316 1296 122.177 884.47 459.87
953 0 91.1551 13.1753 1201 124.613 884.309 457.966
954 1 48.0379 10.4293 501 122.95 884.086 476.958
955 0 49.0273 11.463 562 115.849 884.578 473.742
956 0 51.1334 12.0469 616 115.726 884.683 473.708
957 0 53.0766 12.5668 667 113.882 885.195 474.219
958 0 55.1673 11.9999 662 115.642 884.509 471.997
959 0 55.075 12.4921 688 114.483 884.795 470.786
960 0 59.0981 12.8431 759 112.747 884.47 470.158
961 0 59.0492 11.9731 707 116.117 884.638 469.256
962 0 62.0332 13.5573 841 112.289 884.298 467.535
963 0 64.0814 12.0784 774 116.13 884.625 469.07
964 0 67.1712 13.4582 904 113.751 884.481 465.945
965 0 68.0407 11.3461 772 119.446 884.461 464.71
966 0 72.123 12.4371 897 115.996 884.177 467.761
967 0 74.1606 12.9853 963 114.225 883.795 463.865
968 0 77.0906 13.3868 1032 113.638 884.005 464.422
969 0 79.0648 13.2802 1050 114.725 883.956 463.304
970 0 83.11 14.3304 1191 111.736 884.416 460.411
971 0 86.1724 12.8928 1111 115.385 883.822 459.421
972 0 89.1426 14.4824 1291 113.664 883.455 458.97
973 0 92.2022 13.6982 1263 117.576 883.902 456.908
974 0 95.2079 13.1187 1249 118.045 884.053 456.491
975 1 49.0723 11.9416 586 112.594 884.631 478.937
976 0 51.1426 12.866 658 107.097 884.549 478.088
977 0 52.0457 13.1423 684 106.482 884.858 476.763
978 0 53.087 12.1499 645 109.084 885.017 476.876
979 0 55.051 11.7527 647 111.053 884.51 476.691
980 0 58.0961 12.5654 730 108.938 884.703 475.738
981 0 58.09 10.8797 632 112.824 884.253 474.809
982 0 60.1183 11.8766 714 111.629 884.479 474.176
983 0 64.0943 13.1837 845 108.644 884.213 473.092
984 0 67.1212 13.2745 891 107.612 884.108 472.644
985 0 67.1113 13.4404 902 108.774 884.034 469.346
986 0 71.0848 13.8004 981 108.357 884.046 468.434
987 0 72.1203 12.6594 913 112.117 884.013 467.872
988 0 76.136 13.7254 1045 110.222 884.529 466.876
989 0 78.087 13.5618 1059 110.839 884.109 465.003
990 0 79.1332 13.3825 1059 112.499 884.293 462.26
991 0 84.2387 13.2837 1119 111.45 883.73 463.679
992 0 86.1347 13.3628 1151 113.317 883.924 460.4
993 0 89.0768 13.6848 1219 113.802 884.089 457.285
994 0 91.1308 13.0801 1192 115.678 884.695 457.458
995 0 94.0526 13.2904 1250 118.67 884.575 457.872
996 0 97.0787 13.0822 1270 118.238 884.192 457.097
997 0 101.145 12.8726 1302 119.088 884.432 454.014
998 0 105.167 12.5515 1320 122.214 884.63 452.562
999 1 59.1703 11.6782 691 121.935 885.24 472.149
1000 0 62.1375 12.9551 805 117.979 885.275 470.974
1001 0 65.1096 14.4679 942 118.262 885.058 467.66
1002 0 68.1872 14.0056 955 121.323 884.04 470.084
1003 0 70.1477 14.9399 1048 119.743 884.584 467.482
1004 0 74.2462 15.3004 1136 117.477 884.21 467.869
1005 0 76.1162 14.1888 1080 121.276 883.987 465.988
1006 0 77.0952 13.8011 1064 123.715 883.762 463.579
1007 0 82.1757 14.7976 1216 120.372 884.216 462.795
1008 0 83.2194 13.5305 1126 124.653 883.782 462.306
1009 0 87.1069 15.0046 1307 121.571 883.083 459.745
1010 0 90.2024 13.3699 1206 124.691 883.82 460.447
1011 0 94.2398 15.4712 1458 119.755 883.883 456.28
1012 0 97.2115 14.1238 1373 122.462 883.771 456.704
1013 0 101.284 13.5954 1377 124.669 884.367 453.581
1014 1 52.3248 12.4798 653 116.606 885.158 476.21
1015 0 52.0688 11.4656 597 112.414 884.283 473.117
1016 0 49.0864 11.4084 560 117.136 883.898 469.905
1017 0 52.1289 10.6083 553 117.617 884.427 471.04
1018 0 55.1218 11.7739 649 113.125 884.68 472.698
1019 0 58.2381 12.2257 712 112.242 884.364 470.847
1020 0 58.1513 10.8338 630 117.368 883.183 465.865
1021 0 61.1581 11.4784 702 115.788 883.852 465.07
1022 0 62.1305 11.9104 740 115.116 883.764 464.477
1023 0 68.1055 11.306 770 115.461 884.581 466.409
1024 0 69.0581 11.9899 828 115.915 883.917 464.136
1025 0 72.0375 11.9521 861 115.451 883.374 463.925
1026 0 73.0631 13.1941 964 115.707 883.391 461.298
1027 0 76.0777 11.646 886 120.316 883.044 460.34
1028 0 77.0728 11.5605 891 121.903 883.341 458.281
1029 0 83.1335 12.8588 1069 113.916 883.417 457.535
1030 0 85.0907 11.8579 1009 117.764 883.824 457.972
1031 0 90.1496 13.0006 1172 119.795 883.52 455.026
1032 0 94.0675 12.2678 1154 120.484 883.66 454.415
1033 0 98.0544 12.9316 1268 118.979 883.216 452.847
1034 0 99.0478 12.4687 1235 123.225 882.858 447.943
1035 1 53.0359 10.2383 543 112.285 883.374 474.503
1036 0 55.0904 10.6552 587 115.622 884.739 473.813
1037 0 59.0738 12.2728 725 109.63 884.2 472.101
1038 0 57.063 10.6198 606 117.228 883.779 476.041
1039 0 60.0965 11.8476 712 115 884.292 472.569
1040 0 64.0734 11.9862 768 114.073 883.426 471.997
1041 0 65.0326 13.0089 846 112.336 883.702 470.539
1042 0 66.0913 10.7578 711 117.651 883.865 470.806
1043 0 68.0868 12.3078 838 114.714 883.504 467.507
1044 0 72.1372 11.8108 852 114.788 883.843 468
1045 0 74.044 12.0064 889 114.431 884.025 467.571
1046 0 75.1377 11.3126 850 116.204 884.392 463.951
1047 0 80.1501 11.4785 920 113.326 884.257 462.708
1048 0 82.0845 10.5379 865 115.832 883.502 461.154
1049 0 85.1011 11.9152 1014 113.798 883.936 456.613
1050 0 86.1217 11.6231 1001 114.863 884.017 455.059
1051 0 92.1555 11.7519 1083 113.325 884.764 455.014
1052 0 93.096 12.2562 1141 113.38 884.13 451.277
1053 0 96.2756 11.8306 1139 116.752 884.584 447.742
1054 0 100.28 12.6845 1272 114.921 884.167 447.473
1055 0 104.206 13.5693 1414 116.288 883.264 447.524
1056 0 109.208 13.3049 1453 116.041 883.393 445.633
1057 0 111.218 12.6599 1408 116.482 883.312 444.195
1058 1 57.088 10.1948 582 107.216 883.624 473.811
1059 0 59.0893 10.408 615 106.672 883.876 472.626
1060 0 63.1757 10.9219 690 104.616 883.152 470.474
1061 0 63.0716 11.1461 703 104.477 883.67 470.088
1062 0 64.1015 11.7782 755 104.048 884.148 468.612
1063 0 67.0394 11.8289 793 104.158 884.793 468.487
1064 0 69.0717 11.1913 773 105.89 884.697 466.352
1065 0 71.0948 11.548 821 105.536 884.396 465.535
1066 0 75.2973 11.7534 885 103.575 884.634 465.108
1067 0 77.2815 11.801 912 105.765 884.939 462.268
1068 0 78.3364 12.3314 966 105.462 884.266 460.88
1069 0 81.2502 11.0769 900 107.98 883.771 459.601
1070 0 85.1771 12.2099 1040 105.895 884.22 459.85
1071 0 87.2975 11.9591 1044 107.626 884.782 456.822
1072 0 91.2083 10.0649 918 110.867 884.986 458.103
1073 0 92.2213 11.364 1048 110.347 884.628 454.537
1074 0 91.1185 10.404 948 113.321 883.16 453.792
1075 0 99.1072 11.2404 1114 111.228 883.364 453.538
1076 0 102.062 12.4238 1268 110.699 883.532 448.599
1077 0 108.093 10.5187 1137 113.8 883.533 451.641
1078 0 111.093 11.4498 1272 114.171 882.977 445.117
1079 1 60.0765 12.0846 726 105.763 883.354 463.183
1080 0 61.1212 12.238 748 106.243 885.905 468.63
1081 0 61.2859 11.5035 705 111.264 884.827 468.745
1082 0 68.1556 12.7649 870 106.7 884.76 468.084
1083 0 67.2421 13.2358 890 106.254 884.227 466.011
1084 0 69.2413 11.7704 815 108.877 885.172 466.665
1085 0 70.1207 12.0079 842 105.966 885.078 467.264
1086 0 73.1285 12.6216 923 105.04 885.633 467.567
1087 0 74.1902 11.9827 889 110.013 885.199 462.744
1088 0 78.1925 13.5179 1057 106.956 884.891 462.061
1089 0 79.2131 11.6016 919 112.038 885.219 460.743
1090 0 84.1657 12.4873 1051 109.668 884.884 460.953
1091 0 84.1617 13.4978 1136 108.96 885.504 459.438
1092 0 87.1403 12.8299 1118 110.879 885.218 457.275
1093 0 91.2061 13.0364 1189 110.573 884.642 454.636
1094 0 92.1337 12.3408 1137 112.752 884.697 453.806
1095 0 95.1777 11.8305 1126 113.742 884.152 454.102
1096 0 98.1821 12.4972 1227 110.179 884.428 451.411
1097 0 101.167 12.1581 1230 112.076 884.547 447.837
1098 0 104.198 12.1403 1265 112.608 884.686 446.719
1099 0 108.189 11.8866 1286 113.001 884.68 447.566
1100 0 112.103 12.9792 1455 109.751 884.667 448.379
1101 1 63.0757 10.4002 656 108.276 884.587 472.134
1102 0 64.0391 9.65035 618 110.032 885.523 470.812
1103 0 64.092 10.4693 671 100.773 884.127 464.224
1104 0 68.0748 10.9585 746 103.304 885.835 464.717
1105 0 71.0623 11.8628 843 102.364 885.797 462.771
1106 0 70.1257 11.4794 805 104.619 885.806 460.46
1107 0 72.0606 11.4764 827 105.37 885.347 459.044
1108 0 73.051 11.4577 837 106.086 885.468 458.245
1109 0 80.0864 12.7987 1025 102.1 884.801 458.561
1110 0 82.0905 13.8871 1140 100.074 884.865 458.76
1111 0 85.1604 11.2963 962 105.758 884.478 454.391
1112 0 88.1132 12.5066 1102 98.3457 883.071 454.025
1113 0 90.041 10.7618 969 103.711 882.557 452.455
1114 0 95.0505 11.1414 1059 105.329 882.823 451.936
1115 0 99.076 12.122 1201 106.992 882.4 450.126
1116 1 48.0904 8.98309 432 111.542 881.731 479.331
1117 0 53.1357 11.8941 632 105.87 882.377 476.723
1118 0 52.0716 12.502 651 107.18 882.447 475.23
1119 0 53.1234 11.7839 626 110.26 882.748 474.575
1120 0 55.0389 12.2641 675 108.41 883.321 476.277
1121 0 56.0399 11.7416 658 110.467 882.536 475.571
1122 0 59.0921 13.7243 811 106.289 882.634 474.401
1123 0 59.0703 11.7149 692 112.172 882.788 472.299
1124 0 61.2137 13.8368 847 107.966 883.253 470.008
1125 0 62.1547 11.8736 738 112.6 883.584 471.835
1126 0 63.1595 12.6188 797 111.7 883.339 471.611
1127 0 67.1986 11.8306 795 112.673 883.275 470.98
1128 0 68.1027 12.8776 877 112.406 883.696 468.945
1129 0 69.1383 12.7426 881 113.678 883.219 467.986
1130 0 70.1351 12.9179 906 114.442 883.426 467.217
1131 0 74.1874 13.3176 988 113.921 883.559 466.23
1132 0 75.1439 14.0796 1058 112.708 883.827 464.32
1133 0 77.1966 12.2415 945 118.462 884.27 462.767
1134 0 79.1164 13.0946 1036 116.426 883.485 464.9
1135 0 83.0425 13.6918 1137 113.945 883.662 461.995
1136 0 86.0547 13.6192 1172 114.684 883.398 463.222
1137 0 87.1339 13.703 1194 117.493 883.52 457.821
1138 0 90.0669 12.8127 1154 119.603 883.319 459.062
1139 0 93.3178 13.4272 1253 118.578 883.915 455.391
1140 1 51.1812 10.668 546 116.802 884.738 478.317
1141 0 55.3161 11.4433 633 114.929 884.852 473.959
1142 0 55.3196 11.0449 611 109.424 884.178 468.504
1143 0 56.0969 10.4462 586 108.655 884.186 469.437
1144 0 55.0619 10.8605 598 109.629 883.455 467.069
1145 0 58.0945 10.5173 611 108.663 884.121 468.411
1146 0 62.1226 11.4612 712 105.334 883.965 468.205
1147 0 62.1752 10.7117 666 108.392 883.341 464.404
1148 0 66.1069 11.4663 758 105.488 882.509 462.843
1149 0 65.1183 11.2257 731 108.033 881.915 461.068
1150 0 68.1533 10.359 706 108.296 881.989 460.87
1151 0 73.0887 10.3983 760 107.239 881.77 459.217
1152 0 76.1195 11.0747 843 105.251 882.59 457.699
1153 0 79.0638 10.2575 811 101.222 882.625 457.924
1154 0 82.1715 10.3564 851 99.8743 883.261 458.656
1155 0 84.1054 11.1883 941 99.0595 883.312 459.944
1156 0 86.1613 10.283 886 103.737 882.834 454.516
1157 0 87.1684 10.6116 925 104.252 883.645 452.325
1158 0 93.1933 11.4279 1065 104.577 883.246 449.579
1159 0 95.124 11.0908 1055 108.304 883.117 445.584
1160 1 51.0362 8.38621 428 99.736 883.047 469.766
1161 0 54.0391 10.2518 554 100.292 884.341 468.435
1162 0 55.0172 9.37889 516 107.775 884.891 466.374
1163 0 56.0854 9.61035 539 99.6104 884.033 469.853
1164 0 58.0647 10.1266 588 99.2619 884.211 468.255
1165 0 59.0677 9.80232 579 101.447 884.174 466.655
1166 0 62.0342 10.1234 628 101.369 884.592 466.344
1167 0 62.0685 9.73119 604 102.856 883.776 464.662
1168 0 67.0778 10.3462 694 101.28 884.17 463.195
1169 0 71.2047 10.6173 756 99.6614 883.254 464.151
1170 0 72.0327 11.0783 798 99.3258 884.264 463.352
1171 0 76.0682 11.4897 874 99.9108 883.437 459.651
1172 0 77.1248 12.0584 930 100.019 883.668 459.376
1173 0 80.0945 10.8122 866 103.359 883.615 458.994
1174 0 82.1611 11.4896 944 102.586 883.73 457.724
1175 0 88.153 11.6048 1023 102.893 883.485 455.648
1176 0 90.1099 11.0421 995 105.707 882.942 454.471
1177 1 47.1015 8.85323 417 101.631 883.909 476.213
1178 0 48.0665 10.5895 509 102.141 883.804 476.279
1179 0 49.0275 10.9326 536 109.882 883.664 476.582
1180 0 54.072 12.8347 694 111.729 882.569 473.608
1181 0 55.0451 11.5723 637 115.743 882.259 473.226
1182 0 55.1025 11.5421 636 116.723 883.302 473.344
1183 0 54.0173 10.7743 582 114.158 884.153 474.943
1184 0 55.0939 11.6891 644 111.543 885.413 473.149
1185 0 58.0588 11.8328 687 110.942 885.562 471.271
1186 0 62.0788 12.2103 758 108.104 885.355 472.311
1187 0 62.0345 11.0745 687 111.157 885.272 470.033
1188 0 63.0141 11.7593 741 109.985 884.966 470.969
1189 0 68.1344 11.037 752 110.463 884.569 469.001
1190 0 67.0833 11.2845 757 111.369 884.539 468.203
1191 0 68.0611 11.5044 783 111.831 885.061 465.895
1192 0 73.1116 9.97106 729 111.678 884.975 466.711
1193 0 76.0916 13.2341 1007 105.48 884.658 463.972
1194 0 76.0916 13.1683 1002 123.507 883.644 464.02
1195 0 82.1646 12.3898 1018 110.851 884.119 462.141
1196 0 86.3304 13.4483 1161 110.241 884.296 458.885
1197 0 87.2678 12.2153 1066 113.256 883.944 459.034
1198 0 92.1762 13.0728 1205 110.735 884.554 457.152
1199 1 49.0147 10.3846 509 111.837 885.371 476.821
1200 0 51.2141 13.5509 694 104.601 883.82 476.081
1201 0 51.1501 11.8279 605 102.884 882.788 476.441
1202 0 51.0576 11.301 577 104.298 882.889 475.929
1203 0 53.063 10.8927 578 104.208 882.753 476.822
1204 0 54.0533 11.1372 602 104.811 882.769 476.206
1205 0 54.1188 10.5693 572 106.502 882.243 476.073
1206 0 57.2065 11.5197 659 105.225 883.091 473.219
1207 0 57.2065 11.4323 654 129.91 884.096 473.327
1208 0 61.1942 12.4031 759 102.452 882.765 472.863
1209 0 60.0791 11.0854 666 106.598 882.569 470.934
1210 0 66.0215 12.7686 843 104.795 882.451 469.47
1211 0 67.056 13.2874 891 104.128 882.391 468.569
1212 0 70.0953 12.8254 899 105.231 882.259 468.471
1213 0 72.0881 12.4986 901 107.673 883.282 467.225
1214 0 74.1105 13.0886 970 108.138 882.437 464.626
1215 0 76.0698 12.4359 946 109.809 882.147 462.605
1216 0 81.1423 12.854 1043 110.097 882.666 461.392
1217 0 85.1638 12.8693 1096 110.38 882.852 462.041
1218 0 86.2299 14.1134 1217 109.594 882.743 459.039
1219 1 45.1829 11.5309 521 111.161 883.616 479.76
1220 0 45.2075 12.7855 578 110.223 884.317 478.957
1221 0 46.1694 11.2412 519 115.349 884.177 479.601
1222 0 48.1493 14.0812 678 110.23 883.239 476.92
1223 0 50.073 11.623 582 116.631 885.254 475.021
1224 0 50.0294 12.0529 603 116.929 884.977 475.925
1225 0 53.0124 12.2613 650 116.14 884.475 475.751
1226 0 55.0345 12.5739 692 114.76 884.824 474.955
1227 0 55.0704 11.5852 638 112.392 885.149 476.238
1228 0 58.1285 13.0229 757 109.235 884.687 475.045
1229 0 59.0801 12.2884 726 112.61 884.012 473.941
1230 0 60.0685 12.0862 726 113.748 884.579 473.828
1231 0 63.1099 12.8348 810 110.735 884.014 472.7
1232 0 65.1749 12.9805 846 110.423 884.046 472.772
1233 0 66.2592 12.5266 830 112.898 884.504 471.635
1234 0 68.1164 12.4052 845 114.851 884.289 469.619
1235 0 72.1444 13.2928 959 113.304 884.499 469.269
1236 0 73.2157 12.9207 946 115.254 883.47 467.267
1237 0 75.2271 11.8441 891 117.697 883.045 466.508
1238 0 79.1651 12.0887 957 117.424 883.032 465.499
1239 0 80.1913 12.3081 987 119.534 883.365 464.963
1240 0 83.2799 12.9203 1076 118.886 882.776 461.665
1241 0 86.3533 14.2438 1230 116.489 882.662 458.611
1242 0 91.2844 13.6168 1243 116.944 882.776 459.715
1243 0 93.2327 12.9461 1207 119.563 883 457.351
1244 0 95.5282 12.4989 1194 120.618 882.667 454.265
1245 0 98.384 13.6811 1346 117.589 882.701 449.495
1246 0 100.088 12.619 1263 119.485 882.379 448.113
1247 0 104.195 13.1772 1373 113.765 883.299 447.144
1248 1 55.0906 11.9258 657 110.475 883.898 467.531
1249 0 57.3552 11.8559 680 110.568 883.751 469.024
1250 0 58.179 11.4646 667 112.846 882.991 467.942
1251 0 60.1921 12.1278 730 111.312 882.626 466.889
1252 0 62.2196 12.1987 759 111.557 883.545 465.279
1253 0 62.2 11.2058 697 115.35 882.967 463.516
1254 0 64.1645 11.6264 746 114.571 883.35 464.339
1255 0 68.2029 11.803 805 113.843 884.017 463.912
1256 0 68.207 11.2012 764 118.623 883.927 460.242
1257 0 72.0979 11.1376 803 117.677 883.57 460.308
1258 0 76.1446 12.5813 958 115.16 883.395 459.382
1259 0 75.2337 12.1887 917 118.016 883.306 457.145
1260 0 78.1615 12.2055 954 118.655 883.565 456.247
1261 0 81.1482 13.7896 1119 116.352 884.274 453.5
1262 0 85.1126 12.3836 1054 121.589 884.057 451.391
1263 0 90.1573 13.3655 1205 118.543 883.989 451.724
1264 1 47.0293 10.5679 497 113.571 884.759 473.529
1265 0 48.1609 9.17757 442 115.695 884.131 474.163
1266 0 49.2649 10.677 526 114.259 883.338 470.027
1267 0 49.2649 10.6567 525 143.642 882.331 470.063
1268 0 51.1514 9.87265 505 107.911 883.853 473.568
1269 0 53.1041 9.09535 483 108.139 883.389 473.242
1270 0 54.0809 10.2994 557 106.878 882.413 472.156
1271 0 56.1295 9.63842 541 110.268 883.218 469.187
1272 0 57.1 11.2785 644 107.593 882.446 467.211
1273 0 60.0993 10.699 643 108.292 883.003 466.908
1274 0 62.0829 10.9048 677 108.295 883.205 467.406
1275 0 63.1494 11.0373 697 109.073 882.994 466.29
1276 0 64.1231 11.0569 709 110.357 882.666 464.233
1277 0 69.1375 11.1228 769 109.46 883.125 465.612
1278 0 70.0782 11.6869 819 109.888 882.525 462.596
1279 0 72.2012 11.1494 805 110.948 882.475 464.234
1280 0 75.2364 11.9091 896 113.289 882.808 459.58
1281 0 74.1495 10.762 798 121.198 882.308 457.14
1282 0 80.1365 10.9563 878 119.849 883.099 456.787
1283 1 41.0582 9.74226 400 109.46 883.102 477.6
1284 0 43.0846 10.9088 470 117.015 882.33 481.123
1285 0 45.0866 12.11 546 115.654 882.209 478.553
1286 0 46.1067 11.8421 546 114.211 882.119 479.951
1287 0 45.0415 11.0121 496 119.958 882.333 477.718
1288 0 48.1034 12.4108 597 115.59 881.972 477.538
1289 0 49.0791 12.0418 591 117.115 882.393 475.772
1290 0 51.0485 13.2031 674 113.602 882.555 475.24
1291 0 52.0768 12.2511 638 117.466 882.31 475.516
1292 0 54.0131 12.8302 693 114.9 882.234 474.857
1293 0 55.0475 11.808 650 119.023 882.371 474.018
1294 0 55.0475 11.8806 654 130.127 882.372 474.096
1295 0 56.0235 10.9954 616 122.839 882.333 472.82
1296 0 60.0566 12.2051 733 119.55 882.603 470.336
1297 0 63.0448 12.5784 793 118.088 882.281 470.676
1298 0 62.0547 13.0208 808 118.327 882.163 470.036
1299 0 66.0494 12.3998 819 119.518 882.348 468.542
1300 0 66.0951 11.0901 733 122.347 882.273 469.577
1301 0 69.0681 12.1909 842 121.416 882.311 466.318
1302 0 73.103 12.5576 918 117.239 882.305 466.709
1303 0 75.059 13.3095 999 116.443 882.426 462.928
1304 0 78.0568 13.0162 1016 117.451 882.279 463.812
1305 0 81.1791 14.4988 1177 114.669 882.106 461.005
1306 0 81.0392 12.4508 1009 120.557 882.456 458.036
1307 0 86.1596 13.6723 1178 113.839 881.971 457.343
1308 1 42.0371 10.4907 441 105.941 883.27 474.524
1309 0 44.1097 10.4285 460 107.452 884.172 470.833
1310 0 45.0539 10.4763 472 109.784 882.886 480.824
1311 0 47.0253 11.1217 523 108.61 882.96 478.099
1312 0 48.0813 10.6278 511 109.589 883.45 477.325
1313 0 49.1075 11.1796 549 107.594 882.721 475.459
1314 0 48.0812 10.6695 513 109.232 882.509 474.421
1315 0 49.1408 10.1341 498 108.024 882.169 473.793
1316 0 53.0728 10.7023 568 105.201 883.04 476.033
1317 0 55.1195 11.974 660 103.068 882.882 472.624
1318 0 58.1063 10.8078 628 104.64 882.64 473.701
1319 0 58.0939 11.3093 657 104.365 883.027 470.233
1320 0 60.0746 11.2194 674 103.954 882.018 471.226
1321 0 63.0656 12.8913 813 100.984 882.771 469.312
1322 0 65.1019 11.1825 728 103.731 882.75 466.529
1323 0 68.0265 11.6572 793 102.338 882.535 466.992
1324 0 70.0789 12.3432 865 101.527 882.639 464.516
1325 0 72.057 12.2403 882 102.698 882.397 462.995
1326 0 73.13 12.6624 926 102.347 882.374 460.524
1327 0 78.1756 13.4057 1048 100.281 882.544 462.432
1328 0 78.1305 11.4552 895 105.358 882.732 460.741
1329 0 81.0864 13.2821 1077 102.332 882.808 457.124
1330 0 81.1017 10.419 845 107.794 882.904 454.317
1331 0 86.1655 11.4547 987 106.464 882.649 453.245
1332 1 44.0841 10.117 446 98.2668 882.688 476.935
1333 0 44.1579 12.1383 536 101.146 881.918 479.218
1334 0 47.1227 11.3321 534 105.303 882.056 476.318
1335 0 48.0789 11.7723 566 108.8 881.806 478.325
1336 0 48.0607 11.4439 550 111.062 881.456 476.753
1337 0 51.0971 12.1338 620 109.852 881.85 474.369
1338 0 53.042 12.4241 659 109.51 882.754 473.915
1339 0 55.0319 11.9567 658 110.41 882.704 472.783
1340 0 56.0565 12.7728 716 110.751 882.872 472.028
1341 0 58.1502 11.9346 694 112.075 882.271 471.17
1342 0 60.1866 12.3616 744 112.066 882.493 468.017
1343 0 62.1348 11.4589 712 113.784 882.706 468.823
1344 0 65.1146 13.8832 904 109.393 882.506 465.598
1345 0 67.0491 13.1694 883 111.686 882.895 464.718
1346 0 69.0675 12.0896 835 114.966 882.849 463.582
1347 0 71.0791 14.4206 1025 109.015 882.518 462.217
1348 0 75.1172 13.6587 1026 111.281 883.036 460.952
1349 0 76.0582 12.5562 955 114.594 882.852 460.702
1350 0 79.095 11.8339 936 115.52 883.252 457.988
1351 0 83.0459 13.7274 1140 111.634 883.006 457.03
1352 0 85.0534 13.0153 1107 113.027 882.989 457.449
1353 0 90.115 14.1042 1271 110.734 883.341 456.105
1354 0 90.0642 13.2128 1190 115.021 882.757 452.536
1355 1 50.1005 11.1376 558 111.448 882.762 476.869
1356 0 46.0844 9.2005 424 106.804 883.212 470.587
1357 0 48.0502 10.489 504 101.288 883.544 469.742
1358 0 53.0683 11.0612 587 99.2658 883.175 470.014
1359 0 53.0683 11.1366 591 121.694 882.178 470.102
1360 0 56.0255 9.78127 548 101.943 882.805 469.21
1361 0 60.0973 11.8142 710 98.4451 882.024 466.979
1362 0 61.0664 10.4149 636 101.781 882.91 467.596
1363 0 64.0446 10.0555 644 102.627 882.632 466.253
1364 0 66.1582 10.5505 698 100.691 882.723 464.394
1365 0 64.0803 9.61293 616 104.779 882.519 462.468
1366 0 71.2766 11.8833 847 99.3896 882.978 461.698
1367 0 74.084 11.5409 855 101.305 883.473 461.331
1368 0 78.1525 12.1941 953 100.708 883.098 461.345
1369 0 80.0702 10.828 867 105.257 883.216 459.248
1370 0 84.1016 12.9011 1085 103.231 882.485 453.486
1371 0 87.1609 11.7599 1025 107.359 882.917 455.607
1372 1 45.0712 10.4501 471 98.5796 883.877 477.151
1373 0 48.1987 11.1829 539 103.288 882.887 478.033
1374 0 49.0553 12.0272 590 100.071 882.41 478.683
1375 0 51.1195 12.3436 631 99.9176 881.832 476.674
1376 0 53.1309 12.4598 662 102.843 882.27 477.997
1377 0 53.1091 12.1448 645 105.671 881.795 476.695
1378 0 54.0318 11.2526 608 108.979 881.829 478.044
1379 0 55.1284 12.3348 680 109.171 882.146 475.294
1380 0 57.0648 12.2142 697 108.71 882.535 474.129
1381 0 58.0349 12.458 723 110.324 882.531 472.148
1382 0 59.0442 11.6184 686 112.128 882.615 473.902
1383 0 62.0473 12.9901 806 109.233 881.696 471.908
1384 0 65.153 12.7085 828 110.099 882.013 471.638
1385 0 65.1096 11.688 761 114.053 882.158 470.442
1386 0 69.1091 12.7335 880 110.861 882.883 468.592
1387 0 70.2769 12.3227 866 112.742 882.96 467.697
1388 0 72.2377 11.3929 823 114.122 883.213 470.761
1389 0 75.0292 11.9553 897 114.101 882.563 466.232
1390 0 77.1713 12.2584 946 114.518 883.632 464.818
1391 0 81.1243 13.695 1111 112.744 882.23 461.043
1392 0 81.0671 13.1619 1067 114.72 882.266 462.862
1393 0 83.0704 10.9185 907 121.914 882.058 457.882
1394 0 88.1511 13.613 1200 114.511 882.257 459.223
1395 0 91.0992 13.0846 1192 115.65 881.774 456.825
1396 1 51.2257 11.5567 592 113.603 882.527 473.723
1397 0 49.072 9.8223 482 116.203 882.066 473.55
1398 0 50.3491 10.8443 546 115.771 881.888 468.995
1399 0 51.1225 11.5605 591 114.073 881.743 471.597
1400 0 54.1392 11.729 635 113.137 881.833 471.261
1401 0 53.1245 10.6354 565 117.085 882.023 470.198
1402 0 56.1545 11.8779 667 113.289 882.246 470.336
1403 0 59.1506 12.0033 710 113.107 881.932 467.696
1404 0 61.1547 11.6753 714 114.324 881.859 466.697
1405 0 61.1592 11.6744 714 115.258 881.475 465.459
1406 0 64.0907 12.6696 812 112.823 881.17 461.282
1407 0 67.151 11.6007 779 114.544 881.484 461.619
1408 0 67.0715 12.3898 831 114.111 881.23 459.099
1409 0 72.0969 13.357 963 110.585 881.518 460.498
1410 0 72.1153 12.1333 875 114.379 881.597 459.963
1411 0 74.079 10.9883 814 117.9 881.873 455.555
1412 0 77.105 11.6465 898 117.084 881.552 452.638
1413 0 77.2102 12.589 972 115.021 881.662 452.711
1414 0 82.088 12.2795 1008 115.885 881.647 451.675
1415 0 82.1359 12.808 1052 115.128 881.916 450.337
1416 0 84.2141 11.8508 998 114.018 882.153 448.836
1417 0 87.1484 11.8992 1037 115.465 882.136 447.798
1418 0 91.1117 11.4914 1047 116.459 881.323 446.77
1419 0 90.0759 10.8131 974 119.862 881.553 444.557
1420 0 94.1549 10.6845 1006 120.567 881.73 442.314
1421 0 101.162 12.1093 1225 115.891 881.922 443.629
1422 1 51.0168 10.7612 549 109.435 882.501 467.25
1423 0 53.062 10.4972 557 111.138 882.573 462.582
1424 0 58.0948 10.173 591 105.584 882.423 460.657
1425 0 59.0705 10.3436 611 107.046 882.828 463.547
1426 0 60.0534 9.97446 599 108.262 884.018 464.462
1427 0 61.0859 9.47846 579 110.468 883.295 461.086
1428 0 65.0881 11.5536 752 105.521 883.142 463.047
1429 0 68.0871 11.5 783 106.752 883.193 459.732
1430 0 71.0768 11.2414 799 107.625 883.049 457.171
1431 0 73.1401 10.5824 774 108.826 883.376 459.123
1432 0 73.1184 10.4215 762 112.398 883.093 453.626
1433 0 77.2467 11.405 881 111.253 882.842 453.195
1434 0 79.0551 10.8152 855 113.439 882.522 452.986
1435 0 83.1524 12.2787 1021 110.428 882.591 451.714
1436 0 84.0709 11.7163 985 113.836 882.958 451.034
1437 0 87.233 11.3604 991 115.871 882.761 448.892
1438 0 89.1709 11.5845 1033 118.787 882.796 445.492
1439 0 94.173 12.5514 1182 115.787 882.904 444.298
1440 0 94.1946 11.5824 1091 121.157 882.351 440.721
1441 0 100.239 12.5799 1261 118.119 882.425 442.756
1442 0 106.122 13.6729 1451 115.726 883.112 440.82
1443 0 105.185 12.1975 1283 120.652 882.863 437.587
1444 1 56.0826 9.16505 514 114.051 884.105 465.074
1445 0 59.0919 9.76446 577 118.414 884.095 463.555
1446 0 59.0435 8.85787 523 119.124 883.797 460.887
1447 0 67.0802 11.8068 792 102.73 883.058 460.631
1448 0 64.1151 10.0912 647 108.539 883.575 459.827
1449 0 67.1248 12.1416 815 103.631 883.656 457.151
1450 0 72.1142 11.1074 801 104.861 883.19 455.767
1451 0 74.0916 11.5803 858 107.589 882.732 455.713
1452 0 72.0918 10.4728 755 125.507 881.678 456.03
1453 0 81.0812 12.469 1011 102.937 883.544 453.774
1454 0 84.1196 11.6025 976 103.864 883.153 456.383
1455 0 88.1754 10.8307 955 107.177 883.41 452.77
1456 0 93.1243 10.9316 1018 109.619 882.976 450.307
1457 0 97.1634 10.1479 986 110.856 883.11 450.241
1458 0 100.132 10.8557 1087 109.086 883.089 449.077
1459 0 102.198 10.421 1065 110.924 882.832 444.819
1460 0 109.213 12.4069 1355 105.835 882.628 442.63
1461 1 56.0529 11.0075 617 101.23 885.028 470.229
1462 0 58.159 11.1247 647 108.263 884.439 472.386
1463 0 59.1135 11.571 684 112.344 884.933 469.374
1464 0 61.2398 11.9203 730 110.186 884.625 471.473
1465 0 64.1818 11.9037 764 111.963 885.056 468.072
1466 0 67.4263 12.7992 863 108.65 884.886 467.956
1467 0 68.3402 12.1744 832 110.641 884.335 467.19
1468 0 70.2328 12.8857 905 110.477 883.799 465.757
1469 0 74.3415 12.4829 928 93.3211 884.589 465.677
1470 0 76.0972 13.5222 1029 107.864 884.43 462.585
1471 0 77.1939 13.0192 1005 109.123 884.344 463.952
1472 0 81.2228 12.6689 1029 109.907 884.003 462.75
1473 0 83.2394 12.0135 1000 112.546 883.985 460.224
1474 0 85.2232 12.8134 1092 111.428 883.682 458.082
1475 0 90.1869 13.3722 1206 109.304 883.657 456.56
1476 1 47.0637 10.9639 516 110.316 884.508 477.721
1477 0 47.0755 11.1735 526 110.802 884.8 476.403
1478 0 50.0444 11.6097 581 108.952 884.926 477.358
1479 0 52.1899 13.2401 691 105.292 884.784 476.541
1480 0 53.3839 12.0448 643 109.115 884.39 476.008
1481 0 56.251 13.0131 732 107.373 883.645 473.607
1482 0 57.2403 12.9454 741 108.282 883.444 473.879
1483 0 57.1047 12.2582 700 111.286 883.137 473.46
1484 0 60.2142 13.1032 789 110.123 883.52 472.753
1485 0 61.2447 12.997 796 110.994 883.927 472.226
1486 0 63.1374 13.9854 883 108.863 883.957 472.23
1487 0 65.1838 12.1963 795 113.591 883.53 471.61
1488 0 70.259 13.009 914 111.3 883.009 470.168
1489 0 69.1467 13.4786 932 113.548 883.426 466.085
1490 0 71.2471 13.2497 944 114.526 883.039 465.499
1491 0 74.2824 12.3582 918 118.031 883.241 464.947
1492 0 76.3766 13.931 1064 117.117 882.552 463.305
1493 0 79.2387 12.5444 994 121.786 883.016 461.608
1494 0 85.2304 13.6454 1163 117.755 882.784 462.99
1495 1 44.2654 10.0756 446 122.906 882.161 478.608
1496 0 48.2094 13.4829 650 110.312 881.903 479.926
1497 0 50.131 13.0857 656 116.543 882.643 480.088
1498 0 51.0431 13.3221 680 118.209 883.801 479.529
1499 0 51.1167 13.2833 679 120.689 884.194 478.432
1500 0 53.0601 12.4764 662 121.937 883.911 477.524
1501 0 56.0837 13.3372 748 119.71 883.269 476.729
1502 0 57.0546 13.0051 742 120.964 883.687 475.899
1503 0 58.023 14.0978 818 111.053 883.516 474.323
1504 0 58.0877 12.5156 727 117.506 883.279 474.713
1505 0 58.0352 12.458 723 119.887 883.173 474.992
1506 0 60.0185 12.3962 744 122.038 882.688 473.171
1507 0 59.046 12.431 734 127.219 883.309 473.023
1508 0 60.0931 12.9799 780 126.001 883.073 474.171
1509 0 61.0595 13.1839 805 128.158 883.262 472.87
1510 0 64.0659 12.6432 810 127.442 883.288 472.281
1511 0 65.1081 12.917 841 126.323 883.162 470.967
1512 0 70.0379 13.1357 920 122.908 883.098 472.128
1513 0 70.0316 13.2226 926 122.661 883.536 469.684
1514 0 72.0469 13.519 974 123.228 884.039 466.575
1515 0 76.1656 13.0374 993 121.455 883.803 467.748
1516 0 78.0967 14.5845 1139 118.183 883.671 466.779
1517 0 79.152 13.8721 1098 122.225 883.474 463.91
1518 0 80.0867 13.5104 1082 125.741 883.736 462.043
1519 0 83.1043 14.0667 1169 124.991 883.401 462.165
1520 0 84.0425 13.5527 1139 129.126 883.529 460.883
1521 0 88.0237 14.462 1273 125.863 883.628 461.802
1522 0 90.0806 13.3214 1200 130.624 883.268 459.418
1523 1 50.0256 11.9139 596 132.7 883.257 480.535
1524 0 52.0359 12.6259 657 131.234 883.244 480.405
1525 0 53.0729 12.756 677 132.928 882.965 478.461
1526 0 53.0786 12.4344 660 130.286 882.189 478.164
1527 0 56.0527 13.2554 743 134.314 882.984 477.215
1528 0 58.0372 13.9393 809 132.381 882.536 477.863
1529 0 57.0198 12.9604 739 137.911 882.894 477.299
1530 0 60.1336 12.2727 738 140.344 883.061 474.035
1531 0 63.021 13.2971 838 136.729 883.141 474.893
1532 0 64.0383 13.0547 836 139.894 882.822 473.823
1533 0 66.0567 13.7155 906 139.023 882.98 472.067
1534 0 66.0748 12.6977 839 144.011 883.642 471.89
1535 0 68.109 14.6236 996 139.233 883.426 470.61
1536 0 72.0686 13.9589 1006 140.053 882.667 469.973
1537 0 71.0395 12.9365 919 145.131 882.879 469.63
1538 0 75.0504 13.1778 989 144.304 883.292 466.038
1539 0 78.0398 13.4931 1053 142.768 882.835 466.759
1540 0 80.0757 13.0876 1048 144.323 882.749 465.874
1541 0 82.0554 12.5403 1029 145.683 882.347 463.468
1542 0 85.0774 13.3526 1136 142.305 882.246 461.425
1543 0 90.0739 13.1337 1183 141.428 882.244 460.139
1544 0 93.189 12.6088 1175 144.066 881.211 458.869
1545 1 48.0942 11.4151 549 140.038 881.763 480.838
1546 0 49.0462 12.111 594 138.554 882.391 481.33
1547 0 51.1298 11.7544 601 139.245 882.589 475.346
1548 0 52.0409 10.4341 543 130.057 881.692 472.89
1549 0 52.0386 10.3961 541 124.885 880.671 472.745
1550 0 50.0689 9.58679 480 124.492 880.727 472.835
1551 0 55.0239 10.868 598 119.274 881.09 473.375
1552 0 56.0996 10.9448 614 121.127 881.166 471.702
1553 0 58.1271 11.2168 652 118.991 881.261 472.824
1554 0 59.0613 10.2774 607 120.339 881.129 470.763
1555 0 63.1004 11.87 749 116.382 881.19 470.825
1556 0 63.053 11.0383 696 117.648 880.973 470.397
1557 0 69.2256 11.3109 783 115.659 881.502 467.805
1558 0 68.1871 10.9258 745 117.142 880.995 464.923
1559 0 73.0788 12.8218 937 111.91 881.316 462.877
1560 0 74.1195 11.36 842 115.286 881.084 461.679
1561 0 78.146 11.7856 921 113.339 881.076 463.651
1562 0 79.1742 10.7737 853 117.215 880.96 459.819
1563 0 84.191 12.2935 1035 114.749 880.805 459.03
1564 0 87.1589 12.047 1050 115.054 880.69 457.3
1565 1 45.1755 10.6695 482 115.16 881.421 478.73
1566 0 48.1818 12.4944 602 119.081 880.266 478.061
1567 0 49.1428 12.1076 595 120.462 881.249 477.313
1568 0 52.0685 12.8677 670 113.785 881.839 479.228
1569 0 54.1293 14.1144 764 110.678 881.22 475.221
1570 0 55.0719 12.8741 709 114.227 881.02 476.698
1571 0 57.1111 13.3249 761 112.403 881.553 474.974
1572 0 57.2439 12.6302 723 115.438 881.144 476.519
1573 0 60.073 12.2851 738 114.669 880.92 475.027
1574 0 62.0803 12.0811 750 115.38 881.265 472.399
1575 0 67.1153 13.3502 896 110.357 881.701 470.935
1576 0 67.1475 13.2097 887 112.337 881.747 467.618
1577 0 70.1193 12.6641 888 113.448 881.59 469.37
1578 0 71.145 13.0016 925 114.088 881.83 466.31
1579 0 76.1157 12.6781 965 113.891 880.675 465.668
1580 0 79.0738 13.2914 1051 115.156 880.364 464.598
1581 0 82.0517 12.7846 1049 120.588 879.655 465.157
1582 0 87.1202 13.9577 1216 118.803 880.44 460.591
1583 0 88.1425 14.4085 1270 119.028 879.882 458.966
1584 0 94.3085 13.986 1319 118.214 880.261 458.569
1585 0 94.3085 13.9224 1313 151.785 880.254 458.649
1586 0 101.271 14.1107 1429 119.134 880.662 452.828
1587 1 54.2837 11.3478 616 121.881 881.047 475.161
1588 0 59.3809 13.3208 791 116.631 880.751 473.716
1589 0 61.3849 14.5801 895 113.065 881.178 473.182
1590 0 61.0959 13.9453 852 116.109 879.937 473.076
1591 0 62.0153 13.2709 823 118.719 878.917 471.318
1592 0 64.0399 12.9294 828 118.669 879.79 470.185
1593 0 65.0301 12.9478 842 119.682 879.613 468.26
1594 0 69.0961 13.0253 900 118.977 880.494 469.76
1595 0 72.1836 13.244 956 117.747 880.616 467.985
1596 0 76.0868 13.064 994 117.477 880.106 466.039
1597 0 76.0651 13.6462 1038 117.204 880.214 465.602
1598 0 79.0877 14.2753 1129 115.464 880.599 465.417
1599 0 82.0967 13.5937 1116 117.564 880.617 462.38
1600 0 85.157 13.4927 1149 117.041 881 460.738
1601 0 88.1114 13.4829 1188 116.926 880.585 460.583
1602 0 92.0638 15.0113 1382 113.575 879.942 457.427
1603 0 95.1465 13.7367 1307 117.122 879.534 456.348
1604 0 97.0803 12.6596 1229 119.672 879.975 456.086
1605 0 101.238 13.9967 1417 116.968 879.915 453.298
1606 0 104.173 13.0936 1364 119.674 879.675 452.218
1607 1 59.0103 11.5912 684 115.806 879.925 475.247
1608 0 61.107 12.1426 742 109.392 881.228 468.879
1609 0 60.0326 11.5271 692 109.863 881.614 468.429
1610 0 63.0704 13.0965 826 106.824 881.512 469.031
1611 0 65.0807 12.9071 840 107.84 881.121 465.614
1612 0 66.1331 11.1744 739 102.92 879.857 467.245
1613 0 70.1297 11.6641 818 101.762 880.361 466.186
1614 0 74.0629 11.8548 878 101.362 880.555 465.322
1615 0 75.0429 12.9926 975 99.8154 879.814 464.626
1616 0 75.0497 13.0047 976 117.7 878.807 464.614
1617 0 80.1211 11.882 952 103.438 880.245 460.925
1618 0 81.1499 10.7579 873 107.172 880.245 458.558
1619 0 86.1266 12.5513 1081 105.126 880.077 457.324
1620 0 88.1817 11.567 1020 108.074 880.55 453.554
1621 0 91.2891 11.3267 1034 110.342 880.34 451.563
1622 0 94.1322 11.8025 1111 110.779 880.035 449.869
1623 0 97.2101 11.2951 1098 112.411 880.132 447.893
1624 0 101.146 11.3202 1145 113.153 879.833 447.991
1625 0 105.226 12.0787 1271 114.079 879.535 446.31
1626 1 58.098 9.75938 567 111.282 880.295 472.487
1627 0 58.097 9.82839 571 122.974 881.299 472.63
1628 0 61.0693 10.4471 638 116.514 881.252 463.616
1629 0 66.0335 12.7511 842 110.243 881.069 463.71
1630 0 67.0802 12.5671 843 108.308 880.776 467.301
1631 0 70.0463 12.8629 901 110.315 881.065 467.847
1632 0 72.0977 13.1766 950 109.982 880.817 466.785
1633 0 72.1037 13.6054 981 109.113 881.437 467.067
1634 0 76.15 12.7512 971 112.83 881.183 466.119
1635 0 81.1599 12.6663 1028 113.526 881.303 463.338
1636 0 82.2425 13.7034 1127 112.363 881.17 460.459
1637 0 86.1234 12.5285 1079 114.828 881.33 459.637
1638 0 89.1203 13.2293 1179 112.792 880.907 459.398
1639 0 92.2818 13.2962 1227 111.74 880.557 459.443
1640 0 93.2567 14.4869 1351 110.033 881.241 459.97
1641 0 96.1034 13.4126 1289 113.244 881.455 456.849
1642 0 100.161 14.4167 1444 109.407 881.948 457.057
1643 0 103.288 13.3027 1374 112.334 881.798 454.493
1644 0 103.315 13.2798 1372 113.103 881.223 453.974
1645 0 109.202 13.0309 1423 112.8 880.71 451.064
1646 0 115.319 14.6463 1689 108.761 880.597 449.173
1647 0 117.221 13.7347 1610 112.6 880.899 446.435
1648 0 121.264 14.4313 1750 106.709 880.802 444.521
1649 0 126.473 14.6118 1848 109.572 880.844 435.989
1650 1 67.1145 11.3984 765 117.736 880.729 460.804
1651 0 70.1731 12.1414 852 103.185 879.511 465.478
1652 0 72.1582 10.7541 776 105.982 879.972 467.798
1653 0 75.1457 11.8437 890 104.655 879.94 465.856
1654 0 77.2019 12.3183 951 104.36 879.989 462.76
1655 0 80.2427 12.2254 981 105.729 880.346 462.496
1656 0 82.1765 12.4367 1022 106.162 880.409 461.483
1657 0 85.1643 12.5757 1071 107.108 879.908 460.838
1658 0 87.167 11.8164 1030 110.111 879.417 461.315
1659 0 89.1141 11.7265 1045 111.338 879.49 461.43
1660 0 94.1019 13.156 1238 108.936 879.648 457.116
1661 0 95.2227 12.266 1168 112.969 880.266 454.582
1662 0 101.158 13.0489 1320 111.761 880.269 454.851
1663 0 103.188 13.897 1434 111.495 880.195 454.626
1664 0 108.198 12.2091 1321 117.939 879.737 450.865
1665 0 112.368 11.8895 1336 121.144 879.867 449.658
1666 1 61.1701 13.7159 839 114.288 880.206 472.913
1667 0 62.201 13.2795 826 117.729 880.616 471.684
1668 0 64.2021 13.0525 838 111.646 880.779 470.093
1669 0 66.1187 12.7649 844 114.864 879.731 469.063
1670 0 69.0974 13.7921 953 112.468 880.142 470.157
1671 0 72.3528 13.2407 958 113.783 879.788 466.577
1672 0 74.2396 12.7964 950 116.326 879.276 465.128
1673 0 77.1082 13.293 1025 117.237 879.55 465.582
1674 0 80.2606 13.3191 1069 117.625 880.428 464.886
1675 0 81.1175 13.388 1086 120.048 880.543 463.491
1676 0 83.1607 13.1553 1094 124.043 880.55 460.697
1677 0 87.1548 12.6442 1102 127.029 880.092 456.485
1678 0 88.1224 12.0287 1060 132.523 880.327 454.824
1679 0 93.1021 13.0717 1217 131.205 880.193 453.954
1680 0 96.2479 12.925 1244 131.501 880.666 454.184
1681 1 51.0746 11.1406 569 128.515 880.689 475.503
1682 0 52.1221 11.2812 588 131.961 880.509 474.976
1683 0 55.1273 12.6979 700 128.541 880.401 475.479
1684 0 56.1433 12.9312 726 128.525 879.785 474.358
1685 0 59.1377 12.2595 725 131.172 879.854 472.884
1686 0 61.2898 13.787 845 127.533 879.491 472.393
1687 0 62.2107 12.9881 808 131.473 880.026 470.6
1688 0 64.1484 13.6247 874 129.779 880.061 471.698
1689 0 67.0705 13.6424 915 128.893 879.821 469.385
1690 0 70.1906 13.8765 974 128.293 879.453 468.893
1691 0 73.2274 14.3662 1052 126.715 879.176 467.282
1692 0 76.0944 14.3243 1090 127.357 880.45 467.243
1693 0 76.1621 14.1803 1080 130.495 879.757 465.329
1694 0 80.0623 13.8392 1108 130.402 879.668 463.445
1695 0 82.1205 15.5503 1277 126.181 880.081 461.907
1696 0 84.1299 13.1582 1107 134.059 880.342 459.804
1697 0 87.1237 14.1752 1235 133.356 880.052 456.916
1698 0 90.1212 14.1032 1271 132.016 879.991 456.097
1699 0 94.2663 14.9682 1411 129.344 880.193 453.534
1700 0 96.1575 14.1851 1364 130.863 879.49 454.864
1701 0 98.2491 14.7381 1448 130.274 879.91 451.719
1702 0 101.185 14.7353 1491 130.258 879.574 448.184
1703 0 107.148 14.634 1568 128.753 879.085 446.901
1704 0 110.211 14.4268 1590 125.377 878.981 443.904
1705 0 113.176 13.616 1541 127.118 879.288 442.986
1706 0 117.2 13.4897 1581 126.324 879.106 441.114
1707 1 62.0865 10.6142 659 122.687 879.727 472.299
1708 0 65.0409 10.1936 663 118.9 879.819 466.041
1709 0 67.1017 12.0861 811 115.829 879.816 464.434
1710 0 70.1225 10.7811 756 117.079 879.63 465.677
1711 0 74.1094 12.7649 946 115.637 879.043 465.044
1712 0 75.1271 11.82 888 117.341 879.597 464.241
1713 0 78.0983 12.7147 993 116.8 879.746 459.446
1714 0 81.0999 12.0222 975 118.854 879.508 460.23
1715 0 83.2408 12.4458 1036 120.565 879.57 459.173
1716 0 86.1604 12.5232 1079 122.032 879.807 459.328
1717 0 91.2389 13.1523 1200 120.51 880.251 453.393
1718 0 92.2691 13.0596 1205 122.226 879.859 455.74
1719 0 96.2094 13.1796 1268 122.17 880.403 453.817
1720 0 97.301 11.9012 1158 127.059 879.772 452.053
1721 0 100.324 12.4895 1253 126.725 880.781 451.587
1722 0 105.136 13.4397 1413 126.519 880.187 449.512
1723 0 110.089 13.1349 1446 130.467 880.278 445.337
1724 1 60.1923 10.6824 643 121.776 880.97 474.201
1725 0 60.2043 10.1156 609 124.325 881.176 473.273
1726 0 63.2554 12.1254 767 122.056 880.92 469.842
1727 0 64.1446 10.944 702 118.326 881.557 467.632
1728 0 69.1693 12.361 855 114.448 881.684 468.004
1729 0 71.1628 10.7078 762 117.886 881.787 466.84
1730 0 75.2056 11.7278 882 115.95 881.738 465.672
1731 0 76.1658 11.3831 867 118.216 881.698 464.354
1732 0 78.1542 11.183 874 119 880.971 463.86
1733 0 79.1715 11.1151 880 121.207 881.423 463.605
1734 0 79.1706 11.09 878 140.006 881.418 463.562
1735 0 86.1402 11.2839 972 123.883 881.028 458.542
1736 0 88.2851 11.3949 1006 123.424 880.451 458.117
1737 0 93.2794 11.9319 1113 123.461 880.636 453.567
1738 0 96.2268 12.7615 1228 121.385 880.478 450.825
1739 0 99.3425 11.2842 1121 124.091 880.481 452.521
1740 0 102.312 12.1393 1242 121.693 880.416 452.098
1741 0 104.218 12.6273 1316 121.609 880.593 449.6
1742 0 107.262 11.6258 1247 124.577 880.617 445.008
1743 0 107.266 11.5227 1236 133.292 881.619 444.938
1744 0 115.288 11.996 1383 124.525 880.47 440.75
1745 0 120.473 11.6955 1409 123.14 880.076 442.478
1746 0 124.292 10.3788 1290 123.752 880.307 435.498
1747 0 125.129 9.93375 1243 125.242 880.216 434.272
1748 1 72.0805 10.9877 792 110.836 880.586 468.282
1749 0 73.1177 10.5994 775 116.884 880.849 465.641
1750 0 75.0846 11.7334 881 111.681 880.636 462.421
1751 0 79.1908 12.1984 966 110.43 880.295 461.565
1752 0 84.0874 12.9389 1088 107.597 880.642 460.812
1753 0 86.1448 12.6415 1089 108.835 880.978 457.358
1754 0 88.2532 11.9203 1052 110.406 881.134 454.738
1755 0 92.1594 10.7423 990 112.817 881.053 454.51
1756 0 95.2894 11.3759 1084 111.279 881.394 453.363
1757 0 96.2107 11.6099 1117 111.534 881.019 448.589
1758 0 100.187 12.836 1286 108.114 880.969 447.92
1759 0 104.158 11.0025 1146 112.896 880.715 448.106
1760 0 106.208 11.5339 1225 111.193 880.869 447.127
1761 0 110.161 11.2381 1238 111.347 881.04 443.863
1762 0 112.328 12.0451 1353 113.533 880.124 443.795
1763 0 114.239 11.5635 1321 114.45 880.248 442.014
1764 0 118.244 12.5672 1486 111.215 880.893 444.908
1765 0 124.217 12.6472 1571 115.675 879.912 441.783
1766 1 67.1476 10.112 679 114.411 880.716 468.374
1767 0 68.1242 10.4955 715 114.663 879.708 467.011
1768 0 67.0687 10.1836 683 107.817 880.899 459.127
1769 0 68.1076 10.4247 710 106.703 880.668 458.189
1770 0 73.143 10.8144 791 104.938 880.406 457.48
1771 0 76.1097 10.8396 825 114.267 880.422 464.429
1772 0 80.2575 12.1359 974 107.015 880.125 461.612
1773 0 83.0812 11.7837 979 108.842 880.005 459.987
1774 0 87.1848 12.0204 1048 111.922 880.467 459.528
1775 0 89.2281 12.1262 1082 108.731 880.079 458.621
1776 0 93.2391 12.3124 1148 108.342 879.171 455.449
1777 0 97.2619 13.2837 1292 105.996 879.559 455.572
1778 0 97.1859 12.2446 1190 108.987 879.35 454.186
1779 0 103.178 14.6253 1509 102.82 879.01 451.586
1780 0 106.246 12.1511 1291 109.372 879.124 447.431
1781 0 109.208 12.1511 1327 110.902 878.975 446.85
1782 0 111.308 12.4429 1385 111.649 879.427 443.838
1783 0 116.236 13.1199 1525 109.527 879.542 444.684
1784 1 61.1449 10.6959 654 109.205 879.281 469.061
1785 0 64.1379 11.1323 714 107.737 879.055 467.28
1786 0 65.1287 12.8975 840 102.051 882.651 465.686
1787 0 67.085 12.2084 819 102.929 881.309 465.999
1788 0 70.0992 12.1685 853 102.844 881.756 465.016
1789 0 72.1277 11.8678 856 102.278 881.602 466.148
1790 0 75.1638 13.0781 983 99.1445 881.874 466.682
1791 0 77.2356 12.9344 999 101.07 881.96 463.185
1792 0 78.2476 13.3295 1043 101.145 880.852 461.381
1793 0 79.1169 12.9302 1023 104.028 880.585 459.512
1794 0 85.1545 14.0803 1199 101.29 880.737 459.55
1795 0 86.1555 12.9185 1113 107.12 881.005 458.216
1796 0 88.2808 12.6415 1116 109.994 880.961 458.328
1797 0 91.2353 12.2102 1114 112.697 880.865 455.092
1798 0 94.1621 13.6892 1289 110.039 880.55 452.604
1799 0 98.2544 13.7195 1348 110.179 880.435 451.554
1800 0 99.251 13.8538 1375 111.721 880.006 449.423
1801 0 102.265 13.5726 1388 113.257 880.401 449.116
1802 0 105.286 13.8765 1461 114.274 880.621 446.821
1803 0 107.198 13.1719 1412 117.461 880.593 445.098
1804 0 110.287 13.6825 1509 116.482 880.685 442.764
1805 0 113.161 14.2452 1612 115.482 880.329 444.843
1806 0 117.195 13.8487 1623 117.07 880.373 442.199
1807 0 120.189 14.1611 1702 116.094 879.934 442.896
1808 0 124.19 13.3183 1654 118.771 880.402 440.328
1809 0 128.3 12.8371 1647 120.403 880.002 437.852
1810 0 134.238 15.2044 2041 115.084 880.673 434.254
1811 0 138.233 14.2658 1972 118.686 880.546 432.399
1812 0 142.292 14.7444 2098 118.973 880.077 427.245
1813 0 148.232 14.4705 2145 119.746 880.634 425.496
1814 1 84.0721 10.9192 918 111.061 881.822 457.676
1815 0 85.1182 10.5618 899 103.776 880.654 455.533
1816 0 88.1474 11.6169 1024 101.958 880.578 453.72
1817 0 91.1648 10.6291 969 104.702 880.778 452.456
1818 0 95.1738 11.4948 1094 103.261 880.931 453.669
1819 0 97.1951 10.5561 1026 107.227 880.521 450.16
1820 0 99.1549 10.9324 1084 106.981 880.289 449.924
1821 0 102.304 10.0876 1032 109.413 880.717 446.909
1822 0 105.206 10.8169 1138 107.559 880.732 447.486
1823 0 109.134 11.4904 1254 107.195 880.628 444.904
1824 0 112.152 12.064 1353 107.664 880.796 440.525
1825 0 113.279 10.4256 1181 112.053 880.931 439.03
1826 0 115.106 11.042 1271 114.186 880.746 436.656
1827 0 118.291 11.3618 1344 114.52 880.682 435.351
1828 0 122.396 12.4351 1522 112.154 880.723 436.095
1829 0 126.201 11.0142 1390 114.548 880.381 436.014
1830 0 132.176 12.9373 1710 104.868 880.599 431.07
1831 0 134.19 11.7743 1580 107 880.546 427.249
1832 0 142.189 13.0601 1857 104.057 880.539 429.236
1833 0 146.213 12.2355 1789 109.693 880.262 424.105
1834 0 148.209 12.8062 1898 113.358 880.119 421.745
1835 0 153.26 11.9209 1827 109.196 879.885 419.21
1836 1 86.0442 12.0636 1038 102.474 880.243 453.408
1837 0 87.0929 10.9309 952 105.689 880.159 452.109
1838 0 90.1589 11.3134 1020 105.303 880.473 450.764
1839 0 94.132 10.7402 1011 108.254 880.372 447.527
1840 0 94.132 10.6553 1003 128.378 880.372 447.404
1841 0 98.1225 11.6895 1147 109.742 879.968 444.609
1842 0 104.098 11.4892 1196 111.532 879.977 443.844
1843 0 108.075 10.8073 1168 113.785 879.672 442.678
1844 0 109.164 11.5606 1262 114.092 879.56 437.973
1845 0 115.162 11.6531 1342 113.627 879.908 438.314
1846 0 119.173 12.0078 1431 121.03 880.748 437.328
1847 1 64.1083 11.621 745 110.631 881.85 467.37
1848 0 67.0588 11.7509 788 108.772 881.811 463.074
1849 0 70.2082 12.6196 886 103.728 881.883 465.901
1850 0 72.1828 12.69 916 104.047 881.476 464.197
1851 0 73.1928 12.8565 941 105.05 881.004 464.724
1852 0 75.2528 10.7239 807 110.095 881.411 467.477
1853 0 78.2124 12.9136 1010 107.814 880.409 463.054
1854 0 80.3799 12.1921 980 109.988 880.08 463.595
1855 0 85.2724 11.5629 986 111.247 880.337 462.293
1856 0 86.3101 12.1307 1047 111.872 880.245 458.548
1857 0 89.2932 12.2966 1098 111.551 879.903 458.575
1858 0 91.3476 11.7573 1074 113.987 880.638 456.284
1859 0 93.3215 10.8657 1014 116.997 880.489 454.171
1860 1 51.1814 9.92549 508 115.209 880.813 475.331
1861 0 54.1192 10.3475 560 114.852 881.248 474.955
1862 0 55.1525 12.7827 705 110.098 881.118 473.813
1863 0 58.1262 11.475 667 115.666 879.94 473.136
1864 0 58.1346 12.4022 721 115.133 879.657 472.234
1865 0 58.2383 11.2297 654 118.92 880.378 472.445
1866 0 60.0883 12.1321 729 116.908 880.011 471.927
1867 0 63.2558 12.4099 785 116.619 879.912 469.906
1868 0 64.1541 12.922 829 116.967 880.198 470.537
1869 0 65.1514 13.0772 852 118.636 880.507 468.42
1870 0 68.2073 13.283 906 118.304 880.297 468.6
1871 0 69.1154 14.0056 968 118.204 880.99 466.889
1872 0 71.1099 13.458 957 118.005 880.273 467.103
1873 0 77.257 13.6039 1051 117.618 880.75 464.906
1874 0 76.1312 13.3979 1020 120.261 879.996 465.831
1875 0 76.1535 13.4071 1021 156.145 879.006 465.723
1876 0 81.3389 13.4007 1090 123.212 880.368 463.329
1877 0 84.2718 13.1954 1112 124.512 880.529 461.026
1878 0 86.1267 14.0491 1210 123.976 880.984 458.877
1879 0 87.1715 14.4198 1257 124.84 880.7 458.471
1880 0 89.103 14.545 1296 125.513 880.268 458.081
1881 0 93.0849 14.2558 1327 127.274 880.354 455.839
1882 0 95.063 13.5489 1288 129.859 880.083 455.391
1883 0 97.0475 13.6222 1322 131.052 880.067 453.968
1884 0 102.12 14.7277 1504 129.132 880.883 450.911
1885 0 105.172 15.023 1580 129.068 880.377 451.465
1886 0 108.14 14.6385 1583 131.026 880.773 449.39
1887 0 109.07 13.7802 1503 135.713 880.759 446.623
1888 0 114.162 13.3583 1525 134.896 880.767 447.156
1889 1 62.0859 11.6291 722 128.924 881.76 471.258
1890 0 64.1219 12.4606 799 127.313 881.001 465.339
1891 0 66.1346 12.8375 849 123.711 881.158 462.413
1892 0 71.041 12.9503 920 127.166 881.742 466.852
1893 0 72.0723 13.1257 946 127.636 881.942 464.761
1894 0 75.0263 13.7818 1034 125.656 881.168 464.745
1895 0 77.0864 13.7508 1060 125.729 881.264 463.929
1896 0 79.1855 13.2474 1049 126.752 881.121 462.53
1897 0 82.1265 12.9434 1063 127.995 880.841 460.553
1898 0 85.1895 13.2293 1127 126.706 881.253 460.563
1899 0 86.1652 14.3329 1235 126.079 881.7 457.355
1900 0 87.1674 13.1586 1147 130.701 881.437 455.813
1901 0 92.1268 12.9821 1196 129.319 881.461 457.65
1902 0 94.1901 13.1649 1240 129.796 881.415 455.624
1903 0 97.1696 14.0476 1365 127.812 881.262 454.409
1904 0 98.171 14.4136 1415 128.014 881.228 454.551
1905 0 102.207 14.0793 1439 129.712 880.174 449.875
1906 0 104.138 14.692 1530 129.188 880.793 448.699
1907 0 104.151 14.7478 1536 146.006 881.79 448.699
1908 0 111.233 15.544 1729 126.714 881.245 445.184
1909 0 115.166 13.7541 1584 131.276 880.867 445.977
1910 0 118.289 13.3572 1580 133.234 880.535 441.659
1911 0 124.205 13.8803 1724 131.045 881.175 438.064
1912 0 127.325 13.5323 1723 132.329 880.621 436.174
1913 1 72.1637 12.2638 885 124.945 880.259 464.368
1914 0 71.0315 10.7136 761 114.962 880.514 459.94
1915 0 74.0588 10.4647 775 112.627 880.476 460.652
1916 0 76.0619 11.5038 875 111.801 880.938 457.949
1917 0 80.065 10.3291 827 113.95 880.846 458.602
1918 0 82.071 9.88168 811 116.694 880.38 455.737
1919 0 83.103 10.505 873 117.258 880.523 452.316
1920 0 85.0844 10.9891 935 118.242 880.574 448.258
1921 0 88.1715 10.7064 944 119.789 880.542 449.444
1922 0 93.0881 10.4202 970 120.329 880.418 448.099
1923 0 92.1391 10.495 967 121.809 880.987 443.458
1924 0 96.3919 10.3224 995 121.236 880.253 444.473
1925 0 101.256 10.9722 1111 120.42 880.669 440.329
1926 0 108.224 11.7257 1269 118.478 880.54 439.781
1927 0 114.088 12.017 1371 120.544 880.827 444.491
1928 1 63.0954 10.5079 663 118.315 881.704 467.196
1929 0 66.0703 10.7159 708 117.958 881.9 466.59
1930 0 67.1628 11.8816 798 115.593 881.336 465.14
1931 0 71.0534 12.0051 853 117.975 880.285 464.923
1932 0 70.0624 10.4336 731 125.019 879.72 463.075
1933 0 75.1259 12.0598 906 119.674 880.274 463.521
1934 0 76.0957 11.6958 890 123.947 880.772 461.725
1935 0 78.1707 11.0399 863 127.489 880.926 458.975
1936 0 82.2596 10.8559 893 126.944 880.268 458.606
1937 0 87.2189 13.0476 1138 121.688 880.431 457.666
1938 0 89.198 12.7469 1137 123.765 880.717 456.909
1939 0 92.3253 13.2358 1222 122.866 880.479 456.859
1940 0 93.158 12.57 1171 124.989 880.642 457.578
1941 0 93.276 11.5571 1078 131.39 880.196 453.209
1942 0 99.3596 13.2146 1313 126.38 880.49 452.783
1943 0 101.288 12.7754 1294 129.063 880.001 448.665
1944 0 103.314 11.8668 1226 132.661 880.395 449.188
1945 0 108.321 12.4722 1351 130.873 880.421 446.848
1946 0 111.268 13.0317 1450 131.177 880.695 443.27
1947 0 114.374 13.2722 1518 131.928 880.513 442.662
1948 1 66.1223 11.1914 740 129.599 880.311 463.316
1949 0 67.1616 11.2267 754 132.653 879.984 467.101
1950 0 68.15 11.9883 817 128.338 879.453 463.727
1951 0 73.1146 13.5404 990 126.446 879.938 465.226
1952 0 73.1146 13.5951 994 136.594 880.948 465.367
1953 0 76.0978 12.9964 989 130.444 879.838 463.019
1954 0 82.1819 14.5896 1199 123.744 879.425 461.217
1955 0 83.2551 12.5158 1042 129.797 879.934 460.186
1956 0 86.3346 14.2932 1234 125.836 879.788 458.253
1957 0 86.2325 12.5359 1081 133.185 880.14 458.584
1958 0 91.1976 12.4016 1131 133.778 880.47 455.805
1959 0 93.2193 13.9671 1302 130.648 880.16 455.127
1960 0 98.2359 13.1622 1293 131.789 879.661 452.368
1961 0 100.146 13.7599 1378 130.092 879.84 449.907
1962 0 105.086 13.5413 1423 128.221 880.375 450.56
1963 0 108.129 13.1324 1420 129.602 880.154 448.456
1964 1 61.1313 11.7452 718 127.877 880.43 459.638
1965 0 63.2292 11.6718 738 128.22 881.748 460.618
1966 0 65.2422 12.354 806 124.55 881.038 463.919
1967 0 65.1342 12.5126 815 128.762 881.62 461.395
1968 0 70.3299 13.7637 968 124.029 881.838 464.298
1969 0 69.2444 14.5571 1008 123.192 881.982 465.525
1970 0 71.2449 13.629 971 126.767 881.445 464.442
1971 0 73.2993 12.9333 948 128.318 881.523 464.665
1972 0 76.1801 13.8881 1058 125.553 881.716 461.371
1973 0 79.1469 14.0119 1109 125.099 881.742 461.965
1974 0 80.155 13.6236 1092 127.228 881.374 459.387
1975 0 83.1256 13.3894 1113 126.765 881.201 458.148
1976 0 82.1635 11.8544 974 128.962 881.386 453.587
1977 0 87.187 13.5112 1178 124.568 881.226 451.738
1978 0 89.1322 11.7803 1050 130.865 880.843 450.409
1979 0 93.15 13.9345 1298 126.332 880.41 453.706
1980 0 95.2823 12.6991 1210 132.554 881.007 451.184
1981 0 97.1243 13.5908 1320 130.907 880.785 452.127
1982 0 99.162 12.1417 1204 136.844 881.604 449.745
1983 0 103.151 12.6417 1304 133.414 881.518 449.361
1984 0 105.163 13.3222 1401 133.762 881.336 443.513
1985 0 105.159 13.3321 1402 153.529 880.346 443.434
1986 0 113.218 12.551 1421 133.828 881.821 443.083
1987 0 117.162 12.4017 1453 135.799 881.581 440.039
1988 1 64.117 10.2469 657 134.813 881.814 463.393
1989 0 69.1879 10.5221 728 130.668 882.135 462.848
1990 0 69.1128 10.3165 713 130.867 881.966 458.146
1991 0 72.0989 12.2609 884 127.676 882.757 463.003
1992 0 74.0827 11.0147 816 128.668 881.772 462.543
1993 0 76.1852 12.0758 920 127.02 881.887 458.92
1994 0 82.2726 12.021 989 125.68 882.317 458.563
1995 0 82.2076 13.5754 1116 124.557 882.264 454.685
1996 0 82.2198 13.5126 1111 139.701 883.257 454.706
1997 0 88.1965 12.1207 1069 128.455 881.863 451.276
1998 0 89.2523 13.5907 1213 124.357 881.953 449.415
1999 0 93.1637 11.6676 1087 128.289 881.809 448.081
2000 0 95.1593 12.127 1154 125.172 881.581 448.617
2001 0 98.1082 11.9154 1169 124.976 881.744 447.042
2002 0 99.2483 10.8415 1076 125.649 880.112 448.503
2003 0 102.443 11.4014 1168 124.77 880.254 444.483
2004 0 107.277 12.286 1318 121.273 880.315 442.099
2005 0 111.266 11.8635 1320 121.77 880.965 441.955
2006 0 116.41 11.8117 1375 121.386 880.895 438.669
2007 0 117.314 10.6296 1247 124.262 880.258 434.57
2008 1 67.3303 10.2777 692 120.954 880.421 458.266
2009 0 68.3216 11.5483 789 118.219 880.316 457.873
2010 0 72.2889 11.1082 803 117.658 880.081 457.432
2011 0 74.2259 12.179 904 114.885 880.263 458.32
2012 0 78.129 11.353 887 116.585 880.413 455.61
2013 0 79.1556 12.2796 972 115.092 880.325 455.424
2014 0 82.1507 12.5258 1029 114.812 880.36 451.921
2015 0 87.2412 12.3795 1080 114.332 879.94 452.647
2016 0 86.137 12.5498 1081 115.783 879.611 448.411
2017 0 92.278 13.2426 1222 113.475 880.615 449.457
2018 0 92.1668 12.1085 1116 116.685 880.625 449.613
2019 0 98.4016 14.766 1453 112.908 880.854 448.877
2020 0 101.344 13.1828 1336 117.06 880.223 447.237
2021 0 102.352 13.2582 1357 118.584 880.352 442.216
2022 0 103.226 12.6712 1308 122.469 879.735 440.612
2023 0 106.363 12.7206 1353 123.286 880.045 439.187
2024 0 111.437 14.0617 1567 119.673 880.533 436.569
2025 0 113.321 13.2367 1500 123.652 880.385 434.47
2026 0 115.423 13.5935 1569 122.139 880.224 433.503
2027 0 121.306 13.5855 1648 121.627 880.819 432.641
2028 1 67.1781 10.6136 713 122.439 880.676 458.02
2029 0 67.151 12.107 813 120.204 880.445 457.496
2030 0 74.2663 12.1724 904 118.106 880.749 461.259
2031 0 76.1771 13.3373 1016 115.374 880.657 460.524
2032 0 78.1664 12.3327 964 118.53 880.18 459.901
2033 0 80.2044 12.9295 1037 118.23 881.009 458.992
2034 0 80.1413 12.2908 985 120.24 879.89 458.669
2035 0 83.2584 12.6954 1057 118.878 879.619 457.132
2036 0 87.2295 12.7709 1114 118.311 880.198 456.854
2037 0 87.0915 11.6085 1011 123.031 879.654 454.689
2038 0 91.0847 13.3173 1213 121.89 880.187 457.861
2039 0 93.1087 13.9299 1297 121.921 880.146 456.589
2040 0 96.1629 14.6938 1413 121.48 880.259 453.025
2041 0 99.168 13.3813 1327 125.073 880.475 451.732
2042 0 101.299 13.2183 1339 126.909 881.062 449.873
2043 0 105.192 13.1093 1379 127.099 880.331 448.627
2044 0 109.24 13.3102 1454 126.892 880.068 446.051
2045 0 111.188 13.1849 1466 128.044 880.394 444.19
2046 1 64.1335 12.7079 815 125.032 881.229 468.804
2047 0 64.211 11.3532 729 123.641 881.34 467.66
2048 0 67.1735 12.4007 833 119.565 880.924 465.759
2049 0 70.1298 12.0348 844 112.44 880.383 464.675
2050 0 71.045 11.6405 827 113.994 881.05 461.135
2051 0 73.0613 12.1268 886 115.33 880.972 461.559
2052 0 74.1101 11.9552 886 117.492 880.884 457.852
2053 0 78.1102 11.5606 903 117.409 881.076 460.069
2054 0 82.097 13.1795 1082 115.45 881.273 457.938
2055 0 85.2009 11.7722 1003 118.772 880.612 456.322
2056 0 87.0753 12.3571 1076 118.66 880.135 455.112
2057 0 91.1627 12.9658 1182 119.004 879.503 452.019
2058 0 93.1711 11.5916 1080 121.497 880.44 452.587
2059 0 96.1081 13.7033 1317 116.972 880.04 451.166
2060 0 98.1567 12.9793 1274 119.721 879.321 450.767
2061 0 101.163 12.9197 1307 122.39 879.728 448.969
2062 0 101.163 12.9197 1307 137.14 880.727 448.917
2063 0 107.137 12.9834 1391 127.017 879.446 447.787
2064 0 111.106 13.4377 1493 131.405 879.68 448.271
2065 0 115.105 13.8917 1599 129.183 879.739 449.138
2066 0 117.12 14.1393 1656 130.257 879.661 442.918
2067 0 119.12 12.9029 1537 133.328 880.572 443.266
2068 0 124.201 13.607 1690 130.852 879.904 441.822
2069 0 128.331 14.2834 1833 129.302 879.702 438.367
2070 0 131.377 14.3708 1888 130.008 880.005 436.685
2071 0 136.286 13.6625 1862 131.113 879.438 435.085
2072 0 142.242 13.6387 1940 130.047 880.068 431.936
2073 0 146.256 13.3807 1957 129.076 880.185 428.889
2074 1 79.1124 12.5391 992 127.299 880.381 462.477
2075 0 82.1239 12.956 1064 129.265 880.654 464.285
2076 0 84.0353 12.6614 1064 131.485 881.326 459.677
2077 0 86.0832 12.9991 1119 133.217 880.952 458.878
2078 0 91.0658 13.2102 1203 131.451 880.253 458.528
2079 0 93.0692 13.6565 1271 131.862 880.657 456.219
2080 0 95.0846 13.1041 1246 133.266 880.682 455.101
2081 0 99.1221 13.0546 1294 133.118 880.247 454.798
2082 0 102.104 12.8203 1309 133.694 880.439 454.277
2083 0 104.231 13.0288 1358 135.081 880.392 451.386
2084 1 205.445 13.3953 2752 139.795 879.543 400.785
2085 0 213.686 12.5746 2687 140.579 879.917 400.292
2086 0 221.541 13.361 2960 137.603 880.258 394.676
2087 0 227.523 12.3548 2811 141.075 880.617 389.42
2088 0 235.453 12.1001 2849 140.894 880.455 386.555
2089 0 246.344 12.925 3184 139.458 879.691 382.009
2090 1 66.1167 11.5704 765 126.553 880.574 470.971
2091 0 70.0784 12.5431 879 123.668 880.865 468.737
2092 0 71.0604 11.638 827 128.849 880.895 468.501
2093 0 72.0991 11.3594 819 129.578 881.294 466.683
2094 0 78.0559 12.8754 1005 126.684 880.77 463.89
2095 0 79.145 11.0051 871 128.431 880.916 466.445
2096 0 84.0661 12.0025 1009 126.517 880.773 464.2
2097 0 87.0736 13.391 1166 125.374 881.129 462.054
2098 0 91.1201 13.5755 1237 126.607 880.913 456.736
2099 0 93.1386 14.5912 1359 123.999 881.057 455.806
2100 0 97.1733 13.8515 1346 125.768 880.382 455.401
2101 0 98.1995 14.9084 1464 123.916 880.316 452.323
2102 0 100.179 12.5875 1261 130.02 880.762 453.749
2103 0 103.138 12.8953 1330 131.026 880.098 451.091
2104 0 105.215 13.1635 1385 131.086 879.983 450.225
2105 0 109.237 13.045 1425 131.879 880.085 447.139
2106 0 112.247 12.9001 1448 131.181 879.675 448.61
2107 0 116.136 12.8298 1490 129.226 879.197 444.701
2108 1 64.1603 11.7207 752 124.664 879.621 472.899
2109 0 66.1912 11.8294 783 121.987 879.617 470.475
2110 0 65.0427 12.1766 792 120.432 878.804 471.148
2111 0 69.0694 13.291 918 117.607 879.3 469.392
2112 0 70.0623 12.6887 889 120.237 879.327 467.683
2113 0 74.0457 13.5187 1001 117.309 878.786 466.215
2114 0 76.0811 13.8405 1053 116.37 879.845 465.964
2115 0 77.0844 13.0506 1006 119.898 879.686 464.296
2116 0 77.0867 12.8686 992 141.354 879.686 463.9
2117 0 85.0466 13.3574 1136 118.033 879.124 459.152
2118 0 87.1889 13.4421 1172 118.467 879.253 457.915
2119 0 89.1511 11.8675 1058 122.684 878.348 458.919
2120 0 94.0546 12.4502 1171 119.899 878.88 458.281
2121 1 48.0623 10.7777 518 123.83 879.164 479.32
2122 0 50.0508 12.4074 621 120.839 879.19 476.812
2123 0 50.1414 10.5901 531 125.13 879.211 476.077
2124 0 55.0873 13.2698 731 117.536 879.885 475.62
2125 0 55.0749 12.5829 693 118.775 879.115 474.96
2126 0 56.1802 13.0295 732 118.665 880.158 472.717
2127 0 57.1582 13.2614 758 118.891 879.947 474.858
2128 0 57.1333 12.1645 695 122.999 880.259 473.187
2129 0 59.1721 11.9651 708 124.819 880.088 471.404
2130 0 62.1041 12.8977 801 122.07 880.218 470.001
2131 0 63.1812 11.3167 715 124.975 879.94 472.653
2132 0 65.1521 13.3994 873 120.245 879.792 467.08
2133 0 66.3579 11.4531 760 125.438 879.992 469.966
2134 0 70.2229 12.973 911 120.988 880.192 468.319
2135 0 72.148 12.5714 907 123.215 880.218 466.454
2136 0 75.1216 12.9523 973 121.989 879.861 466.789
2137 0 75.2563 12.4508 937 127.021 880.156 464.686
2138 0 81.1825 13.5744 1102 121.078 879.66 464.932
2139 0 83.1398 14.8665 1236 120.346 879.63 461.057
2140 0 85.2149 13.9412 1188 124.392 879.485 459.629
2141 0 88.3434 15.0209 1327 124.059 879.495 453.942
2142 0 88.372 13.7261 1213 128.312 879.44 455.148
2143 0 94.1918 15.2136 1433 121.99 879.695 454.487
2144 0 94.1546 13.4353 1265 128.99 879.195 451.095
2145 0 99.2819 14.343 1424 124.946 879.258 450.52
2146 0 102.452 15.373 1575 120.916 879.158 450.893
2147 0 104.363 13.7118 1431 126.572 879.159 447.658
2148 0 108.345 14.1031 1528 123.857 879.575 446.53
2149 0 110.269 14.2017 1566 124.655 879.326 445.504
2150 0 114.382 14.4428 1652 124.693 878.665 441.151
2151 0 114.382 14.4516 1653 151.674 878.653 441.252
2152 1 61.1103 13.7456 840 126.686 880.123 467.517
2153 0 63.0637 14.6677 925 124.412 879.502 464.83
2154 0 66.1839 15.6231 1034 120.098 879.468 464.365
2155 0 67.1629 14.0852 946 124.367 879.308 464.267
2156 0 69.0914 14.9223 1031 122.49 880.038 461.726
2157 0 73.1375 15.1085 1105 119.949 880.12 461.847
2158 0 74.2924 13.7565 1022 124.334 879.915 460.158
2159 0 74.062 14.7309 1091 122.015 879.647 460.92
2160 0 80.1984 15.0377 1206 119.037 880.118 458.903
2161 0 80.1452 14.6235 1172 120.643 879.881 459.128
2162 0 84.1443 15.2714 1285 117.857 880.078 457.314
2163 0 88.0939 14.4051 1269 119.305 879.907 456.97
2164 0 90.1402 15.2318 1373 117.272 879.637 453.229
2165 0 92.2498 13.6586 1260 121.921 879.224 453.938
2166 0 96.1756 14.7647 1420 118.854 879.139 451.83
2167 0 99.2221 13.5555 1345 122.265 879.313 450.161
2168 0 101.134 14.2187 1438 120.695 878.992 448.181
2169 0 102.181 13.897 1420 122.965 878.765 445.645
2170 0 106.214 14.4236 1532 121.095 879.118 442.95
2171 0 111.143 13.3432 1483 123.749 879.299 439.611
2172 0 113.156 13.6979 1550 122.192 879.19 437.352
2173 0 120.073 14.1165 1695 118.29 879.328 435.7
2174 1 65.2276 12.8167 836 120.074 879.461 462.368
2175 0 66.1164 11.873 785 121.502 879.455 462.268
2176 0 69.1678 13.142 909 116.416 879.909 463.545
2177 0 71.2109 14.0849 1003 114.209 880.48 459.646
2178 0 73.1538 13.2324 968 116.253 879.882 458.808
2179 0 75.2749 12.8064 964 117.885 879.582 456.443
2180 0 79.1978 14.0408 1112 113.571 880.003 457.542
2181 0 84.2191 14.8541 1251 110.168 879.424 456.938
2182 0 86.0841 13.359 1150 114.322 879.217 453.318
2183 0 90.1303 15.178 1368 109.344 879.158 450.832
2184 0 93.2248 13.2905 1239 114.349 879.334 447.577
2185 0 96.2141 14.5405 1399 111.33 879.757 446.509
2186 0 98.1821 12.9759 1274 115.954 879.151 444.735
2187 0 102.175 13.428 1372 114.12 879.219 443.939
2188 0 104.195 12.8221 1336 117.046 879.099 442.269
2189 0 103.318 12.7181 1314 119.295 879.371 438.925
2190 0 113.167 14.2356 1611 113.655 879.387 439.166
2191 0 116.312 13.8163 1607 115.404 879.167 436.709
2192 0 118.245 13.4213 1587 117.078 878.942 433.159
2193 0 119.334 12.6117 1505 120.179 879.092 431.595
2194 0 128.179 13.8166 1771 114.907 879.909 431.202
2195 0 133.273 13.7162 1828 115.216 879.56 427.875
2196 0 133.148 12.1368 1616 120.572 879.619 426.572
2197 0 143.2 14.3924 2061 113.672 879.711 425.531
2198 0 148.44 14.329 2127 115.438 879.305 421.922
2199 0 153.216 13.1252 2011 119.748 879.106 419.201
2200 0 158.199 12.5728 1989 121.572 879.208 419.703
2201 0 164.347 13.8914 2283 122.102 878.734 412.658
2202 1 87.1181 12.5806 1096 120.621 878.801 447.401
2203 0 90.1402 12.3807 1116 122.676 878.78 445.638
2204 0 93.1693 13.4916 1257 119.841 879.201 446.045
2205 0 98.1173 13.6265 1337 118.515 879.8 445.786
2206 0 99.1277 13.2657 1315 120.92 879.457 445.344
2207 0 102.115 13.5729 1386 120.409 879.676 442.098
2208 0 108.164 14.441 1562 116.551 880.038 442.367
2209 0 111.176 14.8504 1651 115.591 879.383 441.004
2210 0 114.164 13.9537 1593 119.023 879.511 437.539
2211 0 117.128 13.8481 1622 119.983 879.487 436.94
2212 0 118.138 13.0356 1540 123.363 880.04 435.125
2213 0 118.138 13.0187 1538 154.995 879.039 434.943
2214 0 129.162 14.2302 1838 118.857 879.509 429.825
2215 0 133.238 12.8567 1713 122.531 878.915 429.72
2216 0 140.21 13.6795 1918 119.92 879.579 425.623
2217 0 144.115 13.066 1883 121.639 879.579 425.247
2218 0 149.176 14.4662 2158 118.746 880.133 421.354
2219 0 156.165 13.4409 2099 121.214 879.614 418.502
2220 1 86.2446 9.35711 807 125.223 879.999 447.752
2221 0 89.1233 11.9946 1069 124.233 879.99 448.581
2222 0 92.1279 11.6251 1071 129.721 880.235 448.59
2223 0 100.139 12.6724 1269 125.772 880.117 448.858
2224 0 100.11 12.3864 1240 129.054 878.283 434.088
2225 0 103.238 12.6988 1311 126.23 880.385 430.23
2226 0 108.213 11.9949 1298 131.692 880.216 432.522
2227 0 109.229 13.1009 1431 128.897 880.165 434.196
2228 0 110.268 13.0682 1441 130.703 879.303 437.056
2229 0 116.237 13.6703 1589 127.689 878.713 437.592
2230 0 118.225 13.931 1647 128.334 878.809 437.157
2231 0 121.343 13.0374 1582 130.46 879.111 436.693
2232 0 126.257 13.8131 1744 128.46 878.647 434.598
2233 0 129.295 13.4885 1744 129.811 878.883 430.622
2234 0 132.287 12.2914 1626 133.528 879.394 430.265
2235 0 137.422 12.458 1712 133.075 879.251 422.548
2236 0 139.224 11.6216 1618 133.083 879.695 418.259
2237 1 79.0953 9.2673 733 116.905 879.722 452.454
2238 0 83.2152 10.0102 833 113.703 878.562 446.276
2239 0 88.1959 11.0776 977 116.408 880.596 454.372
2240 0 90.1072 9.87712 890 117.08 880.144 456.392
2241 0 92.1106 10.3028 949 117.787 879.924 452.34
2242 0 97.2787 11.5339 1122 114.2 880.075 451.701
2243 0 99.1898 11.4528 1136 114.271 879.799 447.541
2244 0 99.1249 8.49433 842 122.247 880.33 445.424
2245 0 104.107 11.2672 1173 117.47 879.66 441.708
2246 0 107.14 9.42692 1010 121.025 880.08 445.93
2247 0 112.195 10.4906 1177 119.412 880.06 443.518
2248 0 116.184 10.5866 1230 120.422 879.754 438.224
2249 0 116.148 10.7018 1243 121.1 879.796 436.934
2250 0 123.14 11.2961 1391 118.105 879.769 434.157
2251 0 124.126 10.9244 1356 118.934 880.027 432.74
2252 0 130.127 10.9355 1423 118.786 880.316 429.486
2253 0 132.205 10.0526 1329 122.229 880.388 425.88
2254 0 136.293 11.1671 1522 119.798 880.304 427.816
2255 0 139.255 10.9942 1531 120.882 880.306 419.274
2256 0 147.305 10.4409 1538 120.592 879.886 422.128
2257 1 91.1941 9.67168 882 114.4 879.012 453.491
2258 0 92.1144 10.1287 933 116.362 879.533 450.091
2259 0 94.0705 10.2689 966 108.728 879.098 455.186
2260 0 94.1579 7.7848 733 112.962 879.033 453.84
2261 0 98.0642 8.65759 849 112.802 878.442 450.264
2262 0 103.094 9.86481 1017 109.452 878.639 451.595
2263 0 103.093 9.82608 1013 110.163 878.641 451.506
2264 0 105.225 10.1877 1072 114.169 879.166 447.846
2265 0 109.17 9.29746 1015 119.51 878.032 444.993
2266 0 114.328 10.7935 1234 115.446 877.69 447.759
2267 0 119.148 9.31615 1110 116.237 877.582 446.352
2268 0 124.423 9.49184 1181 113.804 876.547 449.577
2269 1 73.0912 11.1368 814 110.756 877.453 473.404
2270 0 74.0819 9.51649 705 114.617 876.716 472.794
2271 0 77.0997 11.751 906 110.594 876.572 472.066
2272 0 80.2105 9.91142 795 115.011 876.506 471.326
2273 0 81.098 8.87814 720 119.414 876.767 469.75
2274 0 77.1298 9.08858 701 121.175 876.084 463.581
2275 0 87.1174 11.1229 969 114.342 875.759 466.429
2276 0 91.1745 11.2422 1025 113.041 875.338 467.354
2277 0 91.0835 10.0457 915 117.308 875.099 465.393
2278 0 96.2939 11.0287 1062 114.335 874.766 462.218
2279 0 103.171 11.796 1217 110.662 872.631 464.495
2280 0 103.121 13.0235 1343 108.309 872.574 462.217
2281 0 108.154 12.741 1378 108.384 871.941 457.877
2282 0 111.196 12.0238 1337 109.08 872.671 459.312
2283 0 114.295 11.5403 1319 110.368 872.697 458.193
2284 0 117.354 12.2109 1433 109.488 872.201 449.934
2285 0 120.238 10.7204 1289 113.037 872.512 453.386
2286 1 65.031 10.9794 714 104.078 873.038 479.084
2287 0 66.0361 10.3428 683 107.246 872.214 479.785
2288 0 65.1517 8.9637 584 101.664 873.503 472.509
2289 0 65.1284 10.748 700 96.8114 872.753 473.813
2290 0 62.0882 7.71483 479 105.491 873.188 470.117
2291 0 62.0882 7.71483 479 135.1 874.2 470.102
2292 0 72.227 9.94088 718 97.9972 873.503 471.753
2293 0 73.0731 10.1132 739 100.783 873.031 469.394
2294 0 75.2407 9.2636 697 102.443 873.581 470.514
2295 0 78.1529 9.75012 762 101.147 873.547 469.606
2296 0 82.2556 9.90814 815 99.3092 873.94 469.627
2297 0 83.1999 10.4207 867 99.3587 873.945 465.528
2298 0 88.107 11.0207 971 97.0855 873.75 466.106
2299 0 92.165 10.6765 984 97.44 873.258 465.229
2300 0 89.2478 8.60526 768 103.24 873.626 458.219
2301 0 94.158 9.12297 859 101.76 873.362 456.747
2302 0 93.2189 8.37813 781 104.777 873.699 454.02
2303 0 99.3621 9.19868 914 103.437 873.414 460.434
2304 0 102.274 10.6675 1091 101.857 873.322 460.711
2305 0 108.355 10.5671 1145 100.625 873.94 456.905
2306 0 109.543 11.8036 1293 98.703 873.373 456.76
2307 0 115.432 12.7781 1475 97.4095 873.582 454.423
2308 0 116.379 11.4883 1337 100.447 873.497 452.313
2309 0 121.383 12.613 1531 99.6826 873.342 453.163
2310 0 124.343 11.1305 1384 101.513 873.429 452.489
2311 0 125.463 10.2102 1281 103.728 873.532 447.959
2312 1 68.155 10.2854 701 94.9458 873.953 481.295
2313 0 72.2512 10.9202 789 96.142 873.606 480.217
2314 0 73.2644 11.0558 810 101.698 873.87 473.146
2315 0 74.2533 11.38 845 101.645 873.934 475.852
2316 0 77.1679 10.9761 847 103.37 873.863 470.694
2317 0 78.3955 11.2379 881 102.827 873.289 471.628
2318 0 81.2219 11.5732 940 101.855 874.395 470.554
2319 0 84.2353 11.3848 959 102.33 874.383 470.056
2320 0 88.2431 12.6355 1115 99.7112 874.501 469.931
2321 0 91.3092 12.4303 1135 100.655 874.07 465.219
2322 0 94.3363 11.8936 1122 101.195 874.639 466.797
2323 0 95.1958 11.4396 1089 103.576 875.21 464.503
2324 0 96.2311 11.3581 1093 105.091 875.327 458.971
2325 0 101.295 11.8663 1202 103.155 874.597 460.935
2326 0 103.21 12.2857 1268 102.638 874.98 462.127
2327 0 108.208 12.0324 1302 103.59 874.911 458.022
2328 0 108.275 11.831 1281 104.65 874.272 455.944
2329 0 115.531 13.1653 1521 100.984 874.292 455.953
2330 0 116.436 12.8912 1501 102.989 873.966 452.866
2331 0 121.796 12.9151 1573 103.195 874.605 447.955
2332 0 120.229 10.9457 1316 107.22 874.027 443.448
2333 1 73.2336 10.7055 784 91.9439 874.68 477.369
2334 0 74.2858 11.3211 841 93.8193 873.812 471.697
2335 0 75.2294 11.0462 831 94.0313 873.398 472.658
2336 0 78.4027 12.0021 941 93.8916 873.743 468.402
2337 0 80.4159 11.0426 888 95.4268 874.384 470.895
2338 0 82.2616 10.8313 891 96.8507 874.205 468.385
2339 0 84.2651 12.0572 1016 96.435 874.236 465.219
2340 0 86.2498 11.6986 1009 97.3657 874.324 465.121
2341 0 91.2551 12.2295 1116 97.5179 873.884 463.843
2342 0 94.2715 12.5383 1182 97.6447 874.992 460.431
2343 0 97.4001 12.7207 1239 99.2591 875.071 457.87
2344 0 99.2984 12.0344 1195 101.263 875.528 458.159
2345 0 105.322 11.4031 1201 103.275 875.19 457.021
2346 0 106.605 12.2603 1307 103.344 875.29 451.735
2347 1 62.3194 10.9436 682 99.3622 875.636 476.306
2348 0 63.2091 10.489 663 100.344 875.694 472.339
2349 0 63.2949 10.7434 680 100.875 875.568 473.406
2350 0 66.1729 10.9713 726 99.0344 876.737 473.818
2351 0 68.1991 12.3609 843 98.2396 877.227 472.011
2352 0 70.2392 12.1869 856 101.194 876.821 468.223
2353 0 71.2404 12.0999 862 102.817 876.74 469.552
2354 0 74.3894 11.9372 888 103.389 877.385 468.056
2355 0 76.4232 11.541 882 105.863 877.029 464.831
2356 0 79.2931 12.9393 1026 103.439 877.313 462.892
2357 0 81.5962 11.9246 973 106.391 876.716 462.451
2358 0 83.403 13.6446 1138 103.596 877.586 460.854
2359 0 84.7099 12.4779 1057 106.918 878.102 459.326
2360 0 87.4634 11.9593 1046 109.408 877.645 456.554
2361 0 90.4923 13.3602 1209 106.309 877.31 456.183
2362 0 94.4313 12.6971 1199 107.437 877.006 455.434
2363 0 98.5473 13.1815 1299 106.908 877.528 451.617
2364 0 100.532 12.4737 1254 109.474 877.695 449.266
2365 0 103.552 13.2494 1372 108.745 877.337 448.223
2366 0 103.549 13.3077 1378 141.073 876.318 448.187
2367 0 113.383 14.4907 1643 106.847 877.741 444.491
2368 1 61.2053 10.2279 626 111.081 878.113 470.262
2369 0 64.2555 11.8122 759 107.523 878.373 470.487
2370 0 65.2477 12.123 791 111.126 876.999 464.155
2371 0 66.1814 12.7982 847 109.273 877.256 462.766
2372 0 68.1608 12.2358 834 109.952 877.301 463.513
2373 0 71.2098 12.4281 885 109.564 877.579 461.369
2374 0 72.1988 12.3132 889 111.313 878.055 458.939
2375 0 76.2949 12.6221 963 107.778 877.266 460.223
2376 0 78.3157 12.8071 1003 108.513 877.375 456.837
2377 0 79.4556 12.4094 986 110.148 877.22 455.457
2378 0 83.3119 12.3872 1032 109.79 877.959 454.619
2379 0 83.3697 12.8344 1070 109.775 878.1 452.235
2380 0 86.3596 11.6026 1002 111.273 878.184 452.531
2381 0 90.4773 12.1025 1095 110.396 877.29 450.835
2382 0 92.2773 12.3866 1143 110.354 877.674 450.654
2383 0 96.4107 12.8098 1235 108.087 877.649 451.762
2384 0 99.3561 13.0239 1294 108.817 878.067 446.541
2385 0 103.319 14.2568 1473 106.857 877.756 447.096
2386 0 106.227 13.5652 1441 109.197 877.627 443.836
2387 0 108.305 11.5968 1256 113.991 878.141 443.149
2388 0 111.225 9.57519 1065 118.862 877.944 441.685
2389 0 118.318 12.2044 1444 113.255 877.605 440.033
2390 1 64.1393 10.2277 656 109.896 877.581 466.986
2391 0 66.3146 11.6867 775 106.858 878.286 462.138
2392 0 68.1137 11.5395 786 108.98 877.326 463.696
2393 0 69.0796 9.88714 683 112.473 876.649 464.23
2394 0 69.0796 9.84371 680 151.044 876.643 464.271
2395 0 75.0619 12.9626 973 109.144 877.057 462.98
2396 0 77.1869 12.2041 942 111.287 876.689 461.079
2397 0 81.0841 13.7635 1116 106.938 877.11 461.935
2398 0 84.1624 13.3789 1126 107.675 876.863 457.56
2399 0 86.1627 13.1495 1133 108.954 876.67 456.605
2400 0 87.0907 13.1472 1145 108.686 876.584 454.401
2401 0 91.0598 11.7615 1071 111.538 876.949 453.904
2402 0 91.0799 11.8687 1081 112.11 877.245 451.808
2403 0 95.0974 12.0824 1149 109.928 876.987 453.161
2404 0 97.0467 13.2204 1283 108.045 876.405 452.329
2405 0 101.211 13.2199 1338 109.051 876.841 450.226
2406 0 102.056 11.6504 1189 114.146 876.919 446.808
2407 0 104.071 12.6741 1319 112.827 877.635 447.133
2408 0 106.086 12.2354 1298 114.039 877.47 444.012
2409 0 113.086 13.6533 1544 109.461 877.093 444.164
2410 0 114.107 11.9712 1366 114.137 877.69 442.996
2411 0 115.181 11.2432 1295 117.483 877.465 438.821
2412 0 121.075 11.4309 1384 114.689 877.85 441.902
2413 0 125.172 12.8064 1603 113.136 877.978 435.327
2414 0 125.27 11.4154 1430 117.517 877.726 429.718
2415 1 69.0859 10.1613 702 104.761 878.118 454.027
2416 0 69.06 8.38401 579 109.256 878.63 451.52
2417 0 73.0632 9.77237 714 101.416 876.717 451.58
2418 0 72.1127 10.1785 734 100.86 877.076 449.638
2419 0 78.0444 9.82774 767 102.025 877.619 450.164
2420 0 82.049 10.1768 835 101.62 877.691 447.747
2421 0 80.0547 9.60593 769 105.39 877.583 443.785
2422 0 89.0481 9.85983 878 102.858 877.953 443.982
2423 0 90.4089 9.30218 841 105.25 878.224 444.424
2424 0 93.2009 10.6115 989 103.379 878.413 443.975
2425 0 98.23 11.8192 1161 101.515 878.198 441.871
2426 0 101.367 10.5754 1072 106.34 878.849 442.959
2427 0 106.604 11.1535 1189 108.564 878.404 446.376
2428 0 110.253 10.6301 1172 109.276 878.476 444.521
2429 0 114.316 10.6022 1212 110.488 878.403 441.117
2430 0 117.342 11.2576 1321 112.077 877.096 438.849
2431 0 118.305 11.7155 1386 107.497 878.532 433.054
2432 0 123.32 10.858 1339 106.165 876.996 436.751
2433 0 126.307 12.1766 1538 104.073 877.267 435.037
2434 1 73.0477 9.44589 690 107.751 876.638 461.12
2435 0 75.2865 9.84241 741 107.1 876.432 463.202
2436 0 77.3065 10.3355 799 106.379 877.198 460.2
2437 0 81.2417 10.5611 858 105.762 877.164 455.845
2438 0 84.1965 11.5444 972 103.642 877.235 455.862
2439 0 85.1513 10.7573 916 106.772 877.062 452.947
2440 0 89.3673 12.5661 1123 103.38 877.074 451.505
2441 0 90.3081 10.8739 982 108.145 877.603 450.331
2442 0 93.3927 10.0008 934 109.806 877.469 453.899
2443 0 97.4892 11.7757 1148 106.45 877.668 451.929
2444 0 102.538 13.2048 1354 103.816 877.554 451.231
2445 0 103.417 12.5898 1302 107.035 877.12 447.018
2446 0 109.743 12.6113 1384 107.636 877.479 448.655
2447 0 109.411 11.0409 1208 113.315 877.295 445.033
2448 0 113.718 10.7283 1220 114.7 877.643 441.783
2449 0 116.435 11.7748 1371 112.925 877.286 438.958
2450 0 121.508 11.2256 1364 111.918 877.301 438.621
2451 0 121.46 10.736 1304 113.985 877.046 435.388
2452 0 127.472 12.0419 1535 112.002 876.73 432.423
2453 0 129.736 12.2633 1591 110.064 877.463 436.656
2454 1 75.5169 10.1964 770 110.87 877.632 456.192
2455 0 76.3167 10.653 813 111.704 878.304 454.346
2456 0 81.0602 12.9903 1053 103.876 876.888 455.038
2457 0 82.1652 12.2071 1003 106.885 876.884 451.616
2458 0 84.1509 12.9886 1093 104.625 877.771 452.5
2459 0 88.1599 13.5663 1196 102.742 876.914 451.072
2460 0 90.1083 11.9967 1081 106.667 876.687 449.268
2461 0 92.1716 12.1404 1119 106.471 877.36 445.068
2462 0 95.2036 12.1109 1153 106.436 877.447 444.785
2463 0 95.2036 12.1424 1156 132.259 877.458 444.627
2464 0 103.39 13.0767 1352 103.74 878.143 437.641
2465 0 103.288 12.1021 1250 106.286 878.514 436.678
2466 0 110.288 12.8754 1420 103.265 878.37 437.408
2467 0 113.187 12.5103 1416 104.1 878.577 435.959
2468 0 116.409 11.3393 1320 107.533 878.276 430.757
2469 0 121.175 11.8919 1441 102.206 878.211 435.702
2470 1 62.1339 11.3304 704 105.057 877.881 461.141
2471 0 65.0863 11.7075 762 102.13 877.526 459.43
2472 0 65.0725 11.2336 731 103.528 877.13 458.285
2473 0 67.0623 11.6459 781 102.501 877.47 457.516
2474 0 72.0512 11.3392 817 102.788 877.016 456.761
2475 0 71.0618 12.2429 870 100.668 876.869 457.643
2476 0 74.1472 11.9357 885 101.244 877.341 456.58
2477 0 76.0833 11.1457 848 103.44 877.139 454.884
2478 0 78.1522 12.7188 994 99.3058 876.953 455.457
2479 0 79.189 11.8198 936 101.973 877.189 450.842
2480 0 82.0484 13.4677 1105 98.1919 877.334 450.073
2481 0 85.1293 11.8643 1010 100.205 877.101 447.286
2482 0 86.0912 12.6378 1088 98.6866 877.319 444.134
2483 0 86.1271 11.5875 998 102.659 877.394 442.982
2484 0 92.1215 11.6042 1069 101.69 877.178 443.159
2485 0 94.095 12.4449 1171 100.346 877.129 440.261
2486 0 96.095 13.1016 1259 99.9158 877.507 437.246
2487 0 97.1907 10.7932 1049 103.178 877.275 436.649
2488 0 105.215 12.2891 1293 97.9281 877.808 436.203
2489 0 105.213 12.0613 1269 99.7967 877.55 433.468
2490 0 109.117 12.3263 1345 97.5695 877.767 431.667
2491 0 114.181 12.086 1380 98.4268 878.181 431.848
2492 0 113.173 12.7592 1444 96.509 878.868 428.38
2493 0 116.174 12.7568 1482 96.087 878.763 427.19
2494 0 120.14 12.8767 1547 95.0078 878.187 422.172
2495 0 127.183 12.8554 1635 98.0489 877.856 425.687
2496 1 72.0605 9.81121 707 97.4979 877.734 452.604
2497 0 76.1436 12.7391 970 92.8567 878.058 450.265
2498 0 73.1289 10.3926 760 100.129 878.634 447.432
2499 0 76.109 11.6281 885 96.5887 878.322 447.992
2500 0 81.0681 11.8542 961 95.7846 877.973 447.912
2501 0 82.1468 10.7734 885 98.6328 878.22 446.868
2502 0 86.2672 11.1398 961 98.1415 877.42 445.529
2503 0 85.2818 11.4561 977 98.7042 877.581 442.836
2504 0 88.2432 10.1198 893 101.408 877.851 441.306
2505 0 89.1511 11.6992 1043 99.3941 877.951 437.186
2506 0 96.2483 11.2106 1079 98.5672 878.361 440.983
2507 0 92.151 9.25655 853 101.451 878.229 437.186
2508 0 99.2146 10.3815 1030 98.9117 878.461 437.182
2509 0 106.272 10.6425 1131 98.0911 878.499 435.687
2510 0 109.189 12.8218 1400 96.3329 878.376 433.281
2511 0 109.162 10.4432 1140 101.74 878.38 434.528
2512 0 112.3 10.8727 1221 101.841 878.057 430.298
2513 0 117.21 11.9614 1402 98.1912 878.344 433.246
2514 0 120.284 10.7745 1296 101.093 878.867 430.72
2515 0 122.487 11.0461 1353 103.957 878.503 421.973
2516 0 129.315 10.1999 1319 101.553 878.23 426.34
2517 1 69.1065 8.23367 569 101.446 877.503 450.615
2518 0 72.1283 10.7447 775 96.351 877.649 450.645
2519 0 70.1635 8.82225 619 96.9564 878.517 447.906
2520 0 76.1526 10.0325 764 94.3887 878.74 447.671
2521 0 77.134 10.4882 809 93.974 878.283 447.472
2522 0 79.132 10.3751 821 95.6602 878.513 441.781
2523 0 85.2068 9.63538 821 96.0901 878.167 445.438
2524 0 88.1174 9.96398 878 97.9692 878.248 446.14
2525 0 91.1002 10.7684 981 99.0499 877.812 443.467
2526 0 94.1568 10.2064 961 100.285 878.775 439.88
2527 0 99.1329 9.18968 911 103.379 879.068 433.849
2528 0 101.198 9.13059 924 103.737 878.838 432.003
2529 0 103.29 9.31359 962 104.097 879.326 432.695
2530 0 105.154 9.00584 947 106.122 878.838 429.194
2531 0 113.169 11.5668 1309 100.853 878.897 431.034
2532 0 120.169 8.05531 968 109.789 879.424 422.148
2533 1 69.2276 10.0105 693 102.922 879.323 457.838
2534 0 73.1911 10.7937 790 103.704 879.23 457.863
2535 0 72.1251 11.5494 833 104.465 878.964 455.556
2536 0 73.1806 11.1915 819 103.656 880.493 455.768
2537 0 76.1719 10.8176 824 105.214 880.82 455.142
2538 0 80.1728 12.1113 971 105.218 880.519 456.377
2539 0 83.2998 11.3686 947 107.975 880.408 454.591
2540 0 83.1191 12.6445 1051 107.038 880.385 451.953
2541 0 90.2755 13.2594 1197 105.182 879.956 452.239
2542 0 91.3268 12.2637 1120 110.37 879.973 449.419
2543 0 93.5245 12.0396 1126 110.724 879.607 449.544
2544 0 96.4029 12.3855 1194 110.587 879.848 447.521
2545 0 100.369 12.7529 1280 110.162 879.879 445.583
2546 0 105.473 12.8753 1358 109.936 880.102 444.572
2547 0 107.347 12.8835 1383 109.766 879.671 443.767
2548 1 122.292 11.5297 1410 110.887 879.987 439.316
2549 0 113.267 11.6538 1320 112.641 879.543 430.893
2550 0 115.306 11.9681 1380 113.48 879.674 430.222
2551 0 123.286 11.8748 1464 113.059 879.553 435.682
2552 0 127.535 13.6825 1745 108.385 879.787 435.534
2553 0 128.141 13.5008 1730 105.208 880.416 433.16
2554 0 132.392 13.7848 1825 104.943 879.815 429.756
2555 0 133.462 12.2207 1631 111.242 880.289 429.656
2556 0 136.454 11.3298 1546 112.024 878.968 430.953
2557 0 142.304 11.5808 1648 112.001 879.359 426.935
2558 0 146.245 12.3218 1802 109.385 880.068 427.214
2559 0 150.404 11.6021 1745 111.076 879.604 424.982
2560 1 85.147 12.9541 1103 105.953 880.749 452.518
2561 0 85.0848 10.6012 902 110.829 881.16 452.513
2562 0 91.3252 12.8661 1175 104.742 879.54 447.554
2563 0 91.2766 12.61 1151 107.672 879.557 444.865
2564 0 94.3392 12.3385 1164 107.645 879.303 445.928
2565 0 98.3601 12.9931 1278 105.463 879.512 445.331
2566 0 101.324 13.3927 1357 104.918 878.8 442.743
2567 0 103.375 12.769 1320 107.106 878.872 441.93
2568 0 108.42 12.6821 1375 106.338 878.439 438.711
2569 0 111.341 12.3315 1373 103.456 879.045 442.278
2570 0 115.436 13.436 1551 103.362 878.961 435.607
2571 0 117.407 12.5546 1474 106.057 878.919 434.201
2572 0 120.288 11.8715 1428 106.636 878.861 435.225
2573 0 124.262 11.7574 1461 106.512 878.667 423.191
2574 0 129.242 11.1341 1439 104.862 879.01 428.275
2575 1 73.2015 9.27576 679 99.7349 878.863 454.691
2576 0 75.0965 11.2122 842 95.4703 878.162 457.344
2577 0 77.0648 10.0954 778 98.3085 878.604 456.069
2578 0 80.1358 11.8549 950 96.5642 878.305 454.585
2579 0 81.1967 10.4068 845 100.355 877.897 452.807
2580 0 84.0677 11.1934 941 99.4793 878.17 452.075
2581 0 85.108 11.6793 994 100.142 877.907 447.531
2582 0 89.0316 11.3892 1014 100.247 878.02 448.491
2583 0 91.2099 11.8847 1084 99.893 878.161 447.484
2584 0 94.1429 11.2701 1061 101.397 878.556 444.958
2585 0 97.2651 13.0057 1265 98.1375 878.719 444.553
2586 0 99.1492 13.0611 1295 98.7467 878.252 444.486
2587 0 100.195 10.5295 1055 105.339 878.609 440.532
2588 0 105.175 12.1417 1277 102.904 878.908 439.629
2589 0 109.401 11.7183 1282 104.319 879.035 436.239
2590 0 112.253 12.3739 1389 103.167 878.967 435.728
2591 0 114.24 12.8589 1469 102.922 878.863 431.946
2592 0 118.163 11.6365 1375 104.328 878.727 434.534
2593 0 121.244 11.2501 1364 105.933 879.355 430.306
2594 0 124.266 11.0086 1368 107.996 879.344 429.221
2595 0 131.247 12.7393 1672 106.416 879.438 429.101
2596 1 78.2613 10.5544 826 105.168 879.604 452.688
2597 0 83.3298 12.1565 1013 102.677 879.83 454.103
2598 0 85.338 13.1009 1118 103.033 879.929 453.439
2599 0 88.2335 11.9456 1054 106.357 880.156 451.331
2600 0 89.2658 13.1741 1176 103.872 880.604 452.382
2601 0 89.2004 12.8923 1150 107.48 880.541 447.705
2602 0 94.2864 11.5817 1092 109.645 879.743 448.653
2603 0 98.1389 12.8084 1257 107.284 880.064 447.508
2604 0 99.2681 12.7231 1263 109.257 879.616 444.941
2605 0 102.328 11.5804 1185 112.37 879.877 445.214
2606 0 104.271 11.7578 1226 113.633 879.716 443.464
2607 0 108.209 13.095 1417 110.802 879.541 442.643
2608 0 111.319 13.2591 1476 111.148 878.845 440.174
2609 0 114.291 13.6056 1555 111.294 879.124 438.041
2610 0 117.246 12.8959 1512 113.552 878.825 435.472
2611 0 121.19 13.483 1634 112.462 878.57 434.809
2612 0 122.188 12.4726 1524 116.199 878.524 433.049
2613 0 124.164 11.6942 1452 118.437 878.293 426.566
2614 0 130.14 12.6786 1650 116.701 878.922 429.484
2615 1 78.3915 10.2052 800 111.375 880.148 457.661
2616 0 70.193 10.3144 724 113.239 878.936 449.25
2617 0 77.0845 11.7274 904 106.316 878.269 451.801
2618 0 77.1365 10.825 835 110.729 878.801 447.588
2619 0 80.1978 12.0951 970 106.886 878.591 448.01
2620 0 82.1841 10.8658 893 109.667 878.356 445.271
2621 0 83.1382 10.8614 903 111.086 878.333 444.322
2622 0 86.0989 12.6134 1086 106.715 878.184 442.914
2623 0 86.1022 12.6013 1085 137.14 878.199 442.932
2624 0 94.1923 11.4871 1082 108.207 877.845 439.454
2625 0 94.137 11.5364 1086 107.59 877.887 439.841
2626 0 94.1905 10.0966 951 111.307 877.768 436.338
2627 0 98.2171 13.0222 1279 104.999 878.117 437.628
2628 0 104.131 12.5995 1312 104.692 878.347 436.011
2629 0 107.21 11.1744 1198 107.739 878.931 432.194
2630 0 110.197 11.2707 1242 107.708 878.475 431.356
2631 0 111.21 11.4198 1270 107.996 878.267 425.13
2632 0 122.259 10.7804 1318 105.608 879.011 428.146
2633 0 126.224 9.29301 1173 106.988 879.172 431.199
2634 0 133.351 10.0187 1336 109.025 879.03 429.956
2635 0 129.289 9.97763 1290 110.437 878.96 433.457
2636 0 137.317 10.6542 1463 109.275 879.038 431.983
2637 0 140.437 11.984 1683 106.298 878.794 431.822
2638 0 143.208 10.6977 1532 109.01 878.525 431.334
2639 1 83.1884 10.7106 891 107.685 878.504 457.458
2640 0 87.2072 11.1344 971 106.311 878.685 457.631
2641 0 87.263 11.6888 1020 107.191 879.062 454.463
2642 0 92.2735 12.5713 1160 104.988 878.707 451.622
2643 0 97.2368 12.9272 1257 103.666 878.272 451.634
2644 0 98.2894 13.0126 1279 104.261 878.173 449.934
2645 0 98.2894 13.0024 1278 150.495 878.166 449.789
2646 0 102.339 11.501 1177 108.945 877.669 448.406
2647 0 105.189 12.3873 1303 108.498 878.018 447.203
2648 0 109.319 13.2182 1445 105.909 877.671 445.971
2649 0 110.32 12.6812 1399 108.85 877.409 445.239
2650 0 115.297 13.4609 1552 107.035 876.898 445.505
2651 0 119.208 13.5394 1614 106.542 876.517 440.884
2652 0 118.135 12.7482 1506 105.374 875.641 438.519
2653 0 116.213 12.6406 1469 105.562 875.938 429.355
2654 0 122.083 12.2867 1500 105.09 875.938 429.425
2655 0 127.122 12.4448 1582 104.93 876.286 428.096
2656 0 133.179 14.4693 1927 99.9606 876.011 429.678
2657 1 76.0405 9.7185 739 102.33 875.729 454.447
2658 0 74.0692 8.53256 632 107.794 876.59 451.038
2659 0 76.0993 9.90811 754 101.659 877.078 451.077
2660 0 83.0664 10.305 856 99.7185 876.499 452.081
2661 0 85.1678 8.86485 755 103.899 876.846 449.616
2662 0 84.1435 8.69942 732 107.309 877.313 445.06
2663 0 91.1036 9.64836 879 103.397 877.234 450.109
2664 0 92.0725 9.73146 896 106.671 877.07 441.712
2665 0 96.1103 10.4983 1009 104.907 877.474 444.11
2666 0 100.216 9.71901 974 107.464 876.928 441.954
2667 0 96.0908 9.21003 885 111.759 876.766 438.336
2668 0 102.152 9.66208 987 110.29 876.908 438.477
2669 0 103.138 9.63755 994 110.593 877.147 438.915
2670 0 109.17 11.1936 1222 106.892 877.528 437.917
2671 0 113.128 9.63506 1090 107.672 877.06 442.578
2672 0 115.232 9.82369 1132 109.883 877.218 436.17
2673 0 119.204 10.7211 1278 109.342 876.34 434.117
2674 0 121.184 8.40047 1018 115.043 877.735 432.51
2675 1 71.1313 9.40515 669 106.728 877.547 457.332
2676 0 71.1382 8.67326 617 109.433 877.953 454.22
2677 0 76.0513 9.13857 695 108.501 877.337 454.029
2678 0 74.2131 10.8741 807 104.358 877.195 456.214
2679 0 81.1725 11.7404 953 108.945 876.451 461.857
2680 0 80.1256 9.16062 734 118.21 876.435 457.749
2681 0 86.1383 11.8182 1018 111.197 875.849 459.352
2682 0 86.1187 11.1242 958 114.714 876.3 458.386
2683 0 89.173 10.9002 972 116.046 875.632 455.652
2684 0 95.1113 12.743 1212 116.137 876.137 454.72
2685 0 95.1648 12.1473 1156 119.536 875.736 452.798
2686 0 98.1226 12.8615 1262 118.258 875.672 449.089
2687 0 100.09 11.5795 1159 121.035 875.601 451.139
2688 0 103.13 11.7716 1214 122.783 876.141 446.798
2689 0 106.429 12.553 1336 121.067 876.332 444.719
2690 0 108.159 12.3337 1334 120.469 876.671 442.225
2691 0 112.17 12.6861 1423 117.602 876.746 445.916
2692 0 116.424 11.8962 1385 120.5 878.649 434.44
2693 0 120.295 11.9456 1437 119.319 877.758 440.895
2694 0 124.385 11.5689 1439 118.762 878.108 437.653
2695 0 129.311 11.0663 1431 117.805 877.019 435.014
2696 1 74.1553 10.478 777 107.914 876.543 463.196
2697 0 76.1896 11.012 839 107.895 876.826 463.844
2698 0 77.1378 10.1896 786 110.237 876.443 462.687
2699 0 79.1181 10.8825 861 109.625 876.474 461.588
2700 0 80.1447 10.4686 839 112.271 876.584 456.421
2701 0 85.1142 10.8795 926 110.907 876.152 459.238
2702 0 87.096 12.0557 1050 109.037 876.657 456.93
2703 0 88.1173 11.0535 974 112.028 876.012 455.029
2704 0 90.1159 11.1745 1007 112.768 876.616 452.591
2705 0 94.1161 11.7408 1105 114.766 876.298 449.835
2706 0 96.0726 11.9493 1148 114.404 876.429 450.855
2707 0 99.1328 11.7217 1162 113.833 876.426 451.281
2708 0 102.182 11.1958 1144 115.399 876.652 448.867
2709 0 103.136 10.4037 1073 118.374 876.172 445.804
2710 0 108.209 13.1782 1426 111.539 876.471 443.876
2711 0 111.226 10.9596 1219 116.468 876.797 443.125
2712 0 112.132 11.2011 1256 115.329 876.895 443.821
2713 0 119.236 11.8169 1409 112.111 876.894 440.766
2714 0 121.331 10.4507 1268 116.097 876.844 437.173
2715 1 72.1826 9.82231 709 103.499 876.746 466.756
2716 0 68.1237 9.82038 669 107.794 876.631 459.547
2717 0 75.17 12.3986 932 101.218 880.368 461.847
2718 0 75.2829 11.6095 874 104.816 879.55 461.141
2719 0 75.2419 11.7754 886 107.184 878.816 459.334
2720 0 79.3056 11.6133 921 109.857 879.031 458.704
2721 0 81.2525 11.3104 919 110.332 879.044 457.725
2722 0 84.2726 11.6645 983 109.649 878.606 456.773
2723 0 86.2833 11.6013 1001 110.127 878.62 456.683
2724 0 88.3872 11.3817 1006 112.135 879.488 453.687
2725 0 91.4651 11.9499 1093 111.993 879.284 449.975
2726 0 95.4638 13.073 1248 107.381 879.236 452.675
2727 0 97.4764 13.1929 1286 108.409 878.86 450.065
2728 0 98.3424 12.7717 1256 110.973 878.162 448.242
2729 0 100.252 11.6307 1166 114.564 878.122 447.113
2730 0 104.331 13.6968 1429 109.617 879.152 446.223
2731 0 102.323 11.9523 1223 143.831 880.192 441.927
2732 0 108.362 13.0304 1412 113.076 878.357 438.713
2733 0 111.405 13.4734 1501 113.223 878.451 435.352
2734 0 116.408 13.9166 1620 111.57 878.578 435.544
2735 0 117.431 13.3865 1572 114.112 878.363 434.393
2736 0 119.314 13.8626 1654 113.545 878.323 430.946
2737 0 124.292 13.6292 1694 114.316 877.962 428.553
2738 0 126.506 13.6595 1728 114.984 878.048 428.108
2739 0 127.122 13.019 1655 117.224 878.949 423.68
2740 0 132.149 14.8469 1962 112.836 878.691 424.354
2741 0 134.169 13.9526 1872 114.771 878.753 423.327
2742 0 136.23 12.5303 1707 119.857 878.503 423.842
2743 0 141.232 12.9503 1829 119.78 878.149 418.736
2744 0 144.139 12.2035 1759 121.88 877.476 420.741
2745 0 150.172 11.7665 1767 125.358 878.137 414.034
2746 0 158.26 12.7006 2010 123.314 878.322 412.53
2747 1 92.163 11.7835 1086 116.426 877.613 442.82
2748 0 95.2094 11.9736 1140 114.828 877.985 441.847
2749 0 98.2044 10.5087 1032 116.944 879.835 444.251
2750 0 100.305 10.9367 1097 117.09 880.17 442.822
2751 0 105.148 13.0483 1372 111.694 879.138 439.895
2752 0 106.17 12.2351 1299 115.438 879.609 437.039
2753 0 109.178 12.7406 1391 112.229 877.991 440.332
2754 0 109.184 11.7417 1282 116.849 878.247 429.57
2755 0 117.14 12.0369 1410 114.913 877.957 430.77
2756 0 120.204 11.6386 1399 116.729 877.376 430.475
2757 1 68.0509 10.933 744 113.422 877.742 455.122
2758 0 73.0926 11.6428 851 108.637 877.398 458.214
2759 0 73.0841 12.1367 887 109.347 877.442 456.545
2760 0 76.1281 11.9141 907 109.047 876.863 456.172
2761 0 77.0854 11.4548 883 110.871 877.399 454.642
2762 0 81.1162 12.6485 1026 107.241 877.58 455.681
2763 0 81.0911 11.185 907 112.469 876.552 451.421
2764 0 85.0962 11.9512 1017 109.539 876.545 451.434
2765 0 88.0538 12.7195 1120 108.004 876.957 449.588
2766 0 93.187 12.2871 1145 108.575 876.948 447.484
2767 0 93.1748 11.8058 1100 110.693 877.025 443.684
2768 0 93.1747 11.7736 1097 137.531 877.025 443.579
2769 0 97.3291 11.6204 1131 113.607 877.242 439.708
2770 0 102.38 12.7564 1306 109.791 877.159 439.079
2771 0 107.35 12.5105 1343 110.149 877.894 436.74
2772 0 105.312 12.6861 1336 110.954 877.621 436.753
2773 0 112.524 12.7084 1430 110.049 877.511 434.473
2774 0 114.409 13.6877 1566 108.204 877.433 433.75
2775 0 118.439 13.3486 1581 109.459 877.694 434.057
2776 0 121.382 13.3793 1624 109.94 877.67 429.785
2777 0 121.347 12.3118 1494 113.734 876.849 427.295
2778 0 127.345 13.1611 1676 111.081 877.464 425.49
2779 0 131.384 12.8402 1687 111.795 877.009 424.507
2780 0 134.387 11.2288 1509 116.24 877.219 425.508
2781 0 139.256 12.6817 1766 113.023 877.148 422.048
2782 0 144.45 12.558 1814 113.611 877.349 419.243
2783 0 151.351 12.2827 1859 113.258 877.465 419.615
2784 0 155.441 12.5642 1953 113.411 876.952 417.321
2785 0 160.336 12.4364 1994 113.429 877.357 415.561
2786 0 163.379 11.6906 1910 116.237 876.733 413.228
2787 0 169.477 12.7805 2166 113.696 877.437 409.646
2788 0 171.385 11.4537 1963 116.658 877.334 410.489
2789 0 179.356 12.5895 2258 113.886 877.244 407.73
2790 0 184.321 12.641 2330 114.204 877.553 406.051
2791 0 192.364 13.2405 2547 112.741 876.657 399.381
2792 0 201.32 13.9678 2812 110.827 876.958 393.438
2793 0 203.413 12.6983 2583 113.864 876.834 395.065
2794 0 209.298 12.5658 2630 114.663 877.541 390.974
2795 0 215.294 11.3798 2450 116.905 877.785 386.489
2796 0 225.23 12.7914 2881 112.606 877.848 384.844
2797 0 234.368 12.6937 2975 111.529 877.919 381.129
2798 1 173.333 12.1327 2103 109.253 877.748 409.242
2799 0 180.298 12.2686 2212 108.595 878.182 404.379
2800 0 179.177 12.1556 2178 110.076 877.88 399.109
2801 0 188.264 12.2859 2313 108.149 878.022 397.407
2802 0 195.243 12.9684 2532 107.033 878.151 391.277
2803 0 195.271 11.164 2180 111.11 878.259 389.039
2804 0 203.378 12.1104 2463 109.474 878.042 380.457
2805 0 204.325 11.1195 2272 112.002 877.771 373.826
2806 0 219.217 11.8421 2596 107.789 877.883 371.38
2807 1 62.3784 9.57061 597 87.3451 878.744 455.946
2808 0 65.1359 9.22687 601 86.4659 879.517 460.666
2809 0 66.1885 10.8629 719 88.7733 879.814 462.035
2810 0 69.2007 11.4883 795 87.5874 879.594 463.045
2811 0 70.2038 10.7117 752 89.2261 878.916 463.782
2812 0 73.1033 11.6137 849 87.4888 879.336 464.066
2813 0 75.1729 11.6797 878 88.0604 879.131 464.405
2814 0 78.2774 10.7822 844 91.0296 878.467 461.566
2815 0 81.3732 11.5763 942 89.4862 878.412 462.294
2816 0 82.1952 11.9472 982 89.4603 878.771 459.106
2817 0 82.2449 10.2134 840 94.0036 878.486 459.698
2818 0 86.4475 12.042 1041 97.0058 878.311 455.904
2819 0 88.4198 12.599 1114 96.0969 877.592 455.365
2820 0 89.4491 11.9956 1073 98.2293 877.797 454.732
2821 0 94.534 14.6297 1383 93.1793 877.381 450.591
2822 0 95.6391 13.3418 1276 97.1583 877.734 451.062
2823 0 95.3966 11.447 1092 102.31 877.747 448.646
2824 0 100.742 14.3733 1448 96.1602 877.416 448.867
2825 0 100.344 11.3011 1134 97.7619 877.993 451.111
2826 0 103.413 11.3332 1172 97.2901 878.279 451.645
2827 0 104.291 11.4008 1189 100.09 878.5 446.95
2828 1 65.2248 11.4374 746 94.7681 879.239 469.566
2829 0 66.0684 10.1561 671 98.5276 879.346 463.449
2830 0 67.1041 10.3272 693 99.0851 879.3 463.341
2831 0 71.0767 12.6483 899 92.812 879.732 464.677
2832 0 68.097 10.8815 741 99.668 879.238 466.64
2833 0 70.1253 11.1229 780 99.1026 879.237 466.299
2834 0 68.0793 11.0312 751 99.5206 879.165 466.619
2835 0 63.2694 10.6529 674 100.172 879.108 464.58
2836 0 64.4213 11.6887 753 100.274 879.155 464.042
2837 0 65.4315 9.33801 611 102.673 879.3 466.568
2838 1 82.378 11.6657 961 100.314 878.414 455.865
2839 0 83.2903 12.5465 1045 98.9282 878.544 456.622
2840 0 89.3033 12.116 1082 99.3586 878.29 455.384
2841 0 87.4267 11.7355 1026 100.944 878.34 455.5
2842 0 88.3175 11.9229 1053 101.301 878.145 453.482
2843 0 94.3803 12.8099 1209 98.3342 878.061 452.859
2844 0 97.2482 13.5941 1322 98.5333 877.862 446.733
2845 0 101.41 12.5235 1270 99.7937 876.965 447.599
2846 0 102.305 11.2116 1147 103.007 877.181 447.115
2847 0 108.405 13.5049 1464 98.2821 877.411 445.243
2848 0 109.213 12.2147 1334 101.84 877.29 444.888
2849 0 112.273 12.3271 1384 101.981 876.613 441.366
2850 0 117.463 14.2939 1679 97.1191 876.57 439.174
2851 0 122.284 13.8285 1691 97.4063 876.282 436.363
2852 0 125.327 14.7135 1844 95.1996 876.484 434.082
2853 0 127.528 13.2049 1684 98.2423 876.529 435.288
2854 0 131.492 12.168 1600 101.605 876.201 430.758
2855 0 133.482 13.5449 1808 99.5321 875.769 431.142
2856 0 136.476 12.5737 1716 102.145 876.199 430.55
2857 0 143.552 13.1938 1894 102.079 876.347 428.459
2858 0 145.493 13.8769 2019 101.878 875.85 428.286
2859 0 148.426 12.491 1854 106.689 876.179 421.376
2860 0 154.375 12.7547 1969 105.737 875.715 424.384
2861 0 160.579 13.1213 2107 105.853 875.6 420.756
2862 0 164.615 13.3037 2190 106.643 875.932 413.841
2863 0 170.522 13.2886 2266 106.209 876.752 416.502
2864 0 178.527 12.872 2298 108.285 876.179 410.656
2865 0 183.512 12.4679 2288 109.676 875.463 406.106
2866 0 190.566 12.3212 2348 106.664 875.926 410.281
2867 0 196.549 12.1293 2384 109.619 876.056 400.978
2868 0 198.495 11.2899 2241 116.634 876.138 400.759
2869 1 104.356 13.2431 1382 105.252 876.611 444.659
2870 0 108.41 13.1261 1423 104.985 875.63 444.051
2871 0 111.283 12.8052 1425 105.626 876.385 441.713
2872 0 111.143 11.5437 1283 108.591 875.769 442.62
2873 0 117.279 12.5001 1466 106.387 876.168 440.088
2874 0 117.279 12.3892 1453 160.802 876.156 439.979
2875 0 123.476 11.4435 1413 109.652 876.756 439.09
2876 0 127.371 12.4283 1583 108.822 877.045 438.023
2877 0 129.365 12.6077 1631 111.219 877.275 429.698
2878 0 135.426 12.1763 1649 111.073 876.731 431.158
2879 0 138.488 12.3765 1714 111.608 876.361 424.384
2880 0 143.448 13.8168 1982 107.726 876.864 425.481
2881 0 150.452 12.9477 1948 109.459 876.364 422.584
2882 0 153.382 12.283 1884 110.977 876.375 418.694
2883 0 161.636 13.1283 2122 108.257 876.99 417.843
2884 0 171.357 13.0138 2230 107.796 876.536 418.016
2885 1 97.3661 12.3041 1198 109.882 876.987 444
2886 0 103.476 13.4427 1391 106.827 876.636 444.4
2887 0 105.473 12.6193 1331 111.425 876.439 440.405
2888 0 109.286 13.7986 1508 109.487 875.768 440.202
2889 0 113.504 13.3563 1516 110.681 876.462 440.518
2890 0 117.356 13.4548 1579 110.617 876.398 438.687
2891 0 120.445 12.7361 1534 112.924 875.922 433.834
2892 0 122.495 13.274 1626 111.532 876.063 431.794
2893 0 126.229 12.7229 1606 114.414 876.321 428.196
2894 0 131.371 12.5066 1643 113.118 875.82 428.531
2895 0 134.4 11.994 1612 113.994 876.202 425.792
2896 0 136.236 11.8911 1620 112.54 875.859 419.727
2897 1 82.2457 11.9885 986 103.967 876.292 452.564
2898 0 85.2362 13.4567 1147 102.24 876.662 450.566
2899 0 89.2239 12.4742 1113 104.108 876.433 449.255
2900 0 90.1242 11.8836 1071 105.566 876.739 444.626
2901 0 92.2681 13.9702 1289 100.384 876.749 444.695
2902 0 94.1811 13.3785 1260 101.329 876.259 439.494
2903 0 101.337 12.5719 1274 100.68 876.724 441.286
2904 0 102.223 12.1695 1244 102.78 876.905 438.598
2905 0 104.441 12.6292 1319 101.694 876.532 437.711
2906 0 108.151 12.7969 1384 101.103 876.749 435.582
2907 0 113.423 12.114 1374 101.756 876.916 432.462
2908 0 115.202 11.4408 1318 103.605 876.671 430.673
2909 0 119.24 12.9739 1547 100.195 876.556 429.428
2910 0 122.258 11.3694 1390 103.581 876.582 429.564
2911 0 127.397 13.1557 1676 100.379 876.633 425.539
2912 0 132.325 13.3459 1766 99.9179 876.149 423.172
2913 0 132.284 12.0422 1593 104.325 876.839 419.371
2914 0 139.302 12.3616 1722 102.456 876.778 420.646
2915 0 141.289 10.4962 1483 108.004 877.158 417.692
2916 0 147.289 10.3063 1518 109.454 877.376 414.892
2917 0 153.315 10.9643 1681 108.075 877.269 413.358
2918 1 88.1786 12.8262 1131 98.351 877.304 447.149
2919 0 89.2003 12.0179 1072 101.773 877.108 445.924
2920 0 92.2682 13.1898 1217 98.2482 876.185 441.814
2921 0 96.2583 11.3029 1088 104.103 876.62 440.256
2922 0 95.2504 12.1574 1158 104.231 876.793 437.608
2923 0 97.1389 12.8064 1244 103.089 877.443 438.229
2924 0 103.239 12.4758 1288 103.494 877.186 435.743
2925 0 107.183 12.4833 1338 103.527 876.809 434.808
2926 0 109.275 12.4914 1365 105.418 876.591 432.217
2927 0 107.285 10.2997 1105 111.204 876.773 434.529
2928 0 116.378 11.6946 1361 106.8 876.781 432.501
2929 0 117.166 11.7013 1371 109.192 876.438 428.015
2930 0 120.209 10.9892 1321 110.864 876.722 427.375
2931 0 122.29 11.7017 1431 109.226 876.774 427.404
2932 0 129.33 12.1318 1569 108.713 876.366 421.013
2933 0 134.393 12.4709 1676 107.838 876.362 421.854
2934 1 72.0666 12.3219 888 108.765 876.381 449.977
2935 0 73.0414 11.4182 834 112.663 876.162 446.269
2936 0 77.0641 13.9624 1076 106.624 876.487 446.229
2937 0 79.069 12.2425 968 110.471 876.239 441.732
2938 0 83.1407 12.4969 1039 108.765 875.917 441.969
2939 0 83.1219 12.608 1048 109.839 876.211 441.958
2940 0 83.1115 11.8756 987 112.252 876.65 439.002
2941 0 93.0614 13.1848 1227 105.685 876.708 442.471
2942 0 93.0988 12.4384 1158 110.135 876.805 435.679
2943 0 90.1037 11.4313 1030 115.085 876.643 432.601
2944 0 98.125 11.9847 1176 112.139 877.116 434.951
2945 0 103.23 12.6223 1303 110.028 877.299 432.54
2946 0 107.411 13.6113 1462 106.479 877.475 433.778
2947 0 111.31 13.7814 1534 106.744 877.261 429.741
2948 0 114.184 13.4432 1535 108.109 877.252 429.04
2949 0 116.372 13.6888 1593 107.805 876.407 429.14
2950 0 119.328 13.3079 1588 109.268 876.391 425.344
2951 0 125.393 13.7249 1721 107.471 876.769 426.04
2952 0 124.368 14.0631 1749 108.762 876.348 421.848
2953 0 129.331 12.2245 1581 113.163 876.495 422.404
2954 0 133.236 14.0203 1868 108.425 876.681 418.164
2955 1 68.0661 9.37324 638 123.343 875.998 441.172
2956 0 79.0864 10.596 838 115.378 876.185 445.568
2957 0 84.4523 12.1252 1024 111.76 876.041 444.065
2958 0 82.2531 12.34 1015 115.061 876.382 439.648
2959 0 86.316 13.1609 1136 111.678 876.544 441.762
2960 0 89.3289 12.5603 1122 113.632 876.83 438.727
2961 0 89.4375 12.3215 1102 116.058 876.898 436.774
2962 0 91.1188 12.2478 1116 118.072 877.09 433.285
2963 0 96.4041 12.9559 1249 97.2666 877.059 434.914
2964 0 96.4041 12.8936 1243 159.283 876.048 434.718
2965 0 102.433 12.5154 1282 118.416 876.523 430.587
2966 1 112.502 11.6531 1311 119.615 876.208 430.204
2967 0 108.361 11.7386 1272 121.88 876.626 428.776
2968 0 110.374 11.5788 1278 123.085 876.138 426.541
2969 0 113.477 12.4431 1412 121.836 876.428 426.5
2970 0 116.402 12.6029 1467 122.496 876.633 426.022
2971 0 121.404 11.9848 1455 125.432 876.319 419.856
2972 0 126.403 13.1247 1659 120.59 876.257 422.241
2973 0 128.522 12.6049 1620 122.465 875.677 418.238
2974 0 132.317 12.916 1709 122.737 875.642 414.414
2975 0 133.277 12.3877 1651 122.739 874.975 413.748
2976 0 138.339 12.3032 1702 121.578 875.455 413.268
2977 0 144.326 13.2963 1919 118.615 875.62 410.765
2978 0 144.204 12.2881 1772 123.616 875.262 401.824
2979 1 88.2827 10.591 935 115.381 875.123 439.141
2980 0 86.2129 11.9472 1030 115.073 875.442 434.337
2981 0 90.2897 11.6292 1050 115.53 875.639 434.293
2982 0 93.2001 11.2446 1048 116.508 875.616 435.26
2983 0 87.242 11.13 971 122.31 875.88 427.241
2984 0 99.2104 11.652 1156 115.007 875.668 433.635
2985 0 100.168 12.2095 1223 116.588 875.798 425.905
2986 0 103.168 11.6509 1202 117.677 876.074 426.993
2987 0 98.176 10.9905 1079 124.111 875.313 421.547
2988 0 104.235 13.0186 1357 117.806 875.289 420.219
2989 0 111.262 11.9448 1329 120.868 875.425 417.909
2990 0 113.216 12.5689 1423 119.758 875.27 419.357
2991 0 112.185 11.1868 1255 124.355 875.657 413.88
2992 0 117.251 11.9743 1404 122.049 875.35 413.163
2993 0 117.124 12.38 1450 122.166 875.195 410.633
2994 0 125.136 12.3066 1540 122.676 875.278 407.725
2995 1 132.235 11.3661 1503 123.79 875.111 404.379
2996 0 134.146 13.202 1771 120.012 875.154 403.488
2997 0 141.252 13.0122 1838 119.35 875.867 402.95
2998 0 146.278 12.9479 1894 119.122 875.622 402.452
2999 0 147.308 11.8663 1748 123.459 875.537 394.309
3000 0 158.236 12.2791 1943 121.198 875.199 393.656
3001 0 163.274 12.7516 2082 119.496 875.686 392.753
3002 0 172.338 13.6534 2353 117.133 875.218 391.233
3003 0 174.333 14.1855 2473 117.206 875.56 385.066
3004 0 183.304 12.6184 2313 121.538 875.333 386.718
3005 0 180.362 12.1201 2186 126.14 875.693 379.244
3006 0 186.267 13.1102 2442 123.305 875.645 376.823
3007 0 184.36 12.8011 2360 126.248 875.498 371.733
3008 1 305.425 20.2668 6190 107.111 874.669 304.93
3009 0 304.524 17.5651 5349 116.483 875.223 307.109
3010 0 310.517 13.1973 4098 130.403 874.905 311.847
3011 0 325.882 23.3397 7606 98.9028 875.425 273.007
3012 1 34.0127 1.88165 64 84.4219 878.703 478.297
3013 0 39.0275 7.43067 290 77.0517 879.097 474.755
3014 0 33.0306 3.93574 130 82.8692 878.815 475.485
3015 0 36.0245 4.13607 149 83.1007 878.174 477.725
3016 0 38.0985 5.74826 219 80.3196 877.932 475.078
3017 0 37.063 6.34056 235 80.6809 877.753 476.017
3018 0 40.2045 4.97456 200 82.06 878.055 476.09
3019 0 38.3423 5.42481 208 81.1538 877.947 472.986
3020 0 36.0743 3.74228 135 79.763 878.333 466.133
3021 0 41.1811 4.32237 178 80.7191 877.281 477.404
3022 1 0 0 0 -nan -nan -nan
3023 1 16.0059 6.06027 97 79.6907 877.639 462.402
3024 1 0 0 0 -nan -nan -nan
3025 1 12.0018 4.416 53 82.7547 876.509 492.377
3026 1 0 0 0 -nan -nan -nan
3027 1 0 0 0 -nan -nan -nan
3028 0 13.0106 1.38349 18 89.9444 877.278 491.389
3029 0 10.001 5.49946 55 85.5091 876.982 494.491
3030 1 26.0219 8.07014 210 82.0238 876.171 487.319
3031 0 28.069 7.48155 210 81.3476 876.386 486.333
3032 0 23.0064 3.2165 74 90.973 876.297 489.095
3033 0 27.027 6.549 177 85.3616 876.198 486.294
3034 0 27.0138 6.33009 171 85.2807 876.246 485.526
3035 0 27.0504 7.5045 203 85.3596 876.818 486.645
3036 0 28.0501 7.62921 214 85.7523 876.178 489.332
3037 0 27.1432 7.29464 198 87.3182 876.894 489.05
3038 0 27.0906 6.79202 184 88.2989 876.587 488.668
3039 0 28.0422 5.67004 159 89.9057 877.346 489.843
