time division length width area intensity CMx CMy
0 0 197.301 11.3836 2246 118.226 890.657 414.407
1 1 112.167 11.6612 1308 110.498 890.606 453.11
2 0 116.195 10.9729 1275 109.465 891.144 451.787
3 0 120.226 9.715 1168 111.144 890.135 447.323
4 0 120.226 9.715 1168 131.807 889.113 447.093
5 0 128.164 12.1641 1559 107.436 890.144 440.659
6 0 132.277 10.6822 1413 111.471 891.011 436.892
7 0 138.134 12.0969 1671 109.334 890.796 439.253
8 0 143.164 11.1969 1603 108.517 891.437 442.349
9 0 144.326 11.5225 1663 113.485 890.311 433.791
10 0 151.306 11.1893 1693 113.39 890.834 432.579
11 0 155.278 11.3087 1756 112.761 890.577 428.212
12 0 160.47 12.1455 1949 109.831 892.902 428.987
13 0 165.479 12.8476 2126 108.857 892.362 427.133
14 0 169.277 11.8563 2007 111.238 891.788 420.676
15 0 176.321 12.9082 2276 107.735 891.508 424.108
16 1 93.0825 10.5068 978 94.771 892.463 466.947
17 0 95.1128 10.5559 1004 95.9661 892.086 462.142
18 0 98.1719 11.541 1133 94.9153 892.568 463.122
19 0 98.1507 8.50733 835 99.6251 892.503 462.03
20 0 100.117 11.127 1114 96.2774 891.974 458.636
21 0 100.114 11.0274 1104 119.607 891.961 458.615
22 0 109.271 10.7988 1180 95.8297 891.637 456.276
23 0 111.224 9.29655 1034 99.8056 891.639 451.755
24 0 115.238 10.3525 1193 98.1031 892.176 451.411
25 0 119.188 9.90031 1180 98.9305 892.073 451.108
26 1 70.1021 10.8556 761 91.2273 892.148 476.277
27 0 72.2138 11.3275 818 90.0746 891.892 475.363
28 0 72.1981 11.5654 835 91.6371 891.745 473.727
29 0 75.2391 11.0315 830 92.5627 892.183 472.972
30 0 77.1409 11.1225 858 90.6527 892.247 467.188
31 0 80.1535 12.0144 963 91.8816 892.216 470.705
32 0 84.1918 11.6282 979 92.7487 892.671 468.495
33 0 86.1326 11.3198 975 107.461 892.925 466.017
34 0 90.2649 11.3998 1029 107.454 892.672 465.6
35 0 92.3491 11.3807 1051 106.353 891.661 465.07
36 0 96.3126 11.0162 1061 108.256 891.979 460.338
37 0 98.1411 11.1778 1097 109.094 891.68 459.014
38 0 101.27 11.5533 1170 107.998 892.671 458.496
39 0 105.296 11.5389 1215 108.872 892.467 455.469
40 0 114.326 8.38827 959 112.337 893.043 453.523
41 0 112.156 10.5568 1184 107.249 892.845 450.261
42 0 115.223 10.1716 1172 107.298 891.957 454.041
43 1 61.1006 9.50891 581 96.2289 892.365 480.976
44 0 64.0614 9.66261 619 96.9063 892.365 477.447
45 0 61.1121 8.18169 500 96.438 892.47 470.068
46 0 66.1333 11.8246 782 90.1176 892.831 470.445
47 0 69.0357 10.3714 716 95.433 892.573 474.925
48 0 71.0687 10.8205 769 95.0767 892.934 474.935
49 0 71.0893 10.6908 760 97.6711 892.847 472.116
50 0 75.1062 11.304 849 107.481 892.205 468.855
51 0 78.1267 10.419 814 108.381 892.783 467.693
52 0 82.0973 11.9614 982 105.254 892.137 468.058
53 0 82.1049 10.9738 901 108.215 892.026 464.811
54 0 84.1108 12.5786 1058 104.201 892.063 465.991
55 0 89.303 15.6322 1396 95.2407 891.817 460.509
56 0 88.2283 11.4702 1012 107.393 891.652 464.277
57 0 90.2078 12.1276 1094 105.05 892.647 464.86
58 0 95.1442 13.1064 1247 104.767 891.963 459.319
59 0 98.3779 11.9234 1173 106.91 892.276 453.398
60 0 100.186 9.72196 974 111.073 891.36 454.314
61 0 100.257 10.4132 1044 110.809 891.998 450.218
62 0 104.174 10.4537 1089 109.175 892.224 454.202
63 0 108.098 11.1287 1203 106.87 892.767 454.106
64 0 109.328 10.9395 1196 108.092 892.225 449.71
65 0 114.364 11.0349 1262 106.808 892.189 448.413
66 0 119.272 12.0397 1436 105.34 891.397 447.068
67 0 120.384 11.8703 1429 107.112 892.019 444.341
68 0 124.222 11.238 1396 109.176 892.039 439.862
69 0 127.287 12.5621 1599 106.552 891.916 439.41
70 0 133.211 11.7558 1566 106.501 892.257 441.628
71 0 137.298 11.1582 1532 106.142 891.473 435.795
72 0 143.276 12.4096 1778 104.406 891.38 430.798
73 0 143.231 12.4275 1780 121.619 891.394 430.907
74 1 152.152 11.6331 1770 106.362 891.866 428.15
75 0 152.136 11.2925 1718 111.316 891.405 430.036
76 0 154.245 10.976 1693 108.389 891.414 429.823
77 1 84.0834 7.9326 667 97.7286 891.519 461.72
78 0 90.142 10.4724 944 93.6271 891.912 463.377
79 0 93.1056 10.2787 957 94.5674 891.795 461.381
80 0 95.108 9.79939 932 96.1685 892.756 463.214
81 0 98.1052 10.5295 1033 96.4763 892.771 456.913
82 0 102.105 11.3902 1163 95.6595 892.488 456.69
83 0 106.119 11.9771 1271 94.4382 891.993 455.745
84 0 108.081 11.658 1260 96.7714 892.917 452.837
85 0 111.223 10.942 1217 100.157 892.074 452.882
86 1 125.126 9.43849 1181 102.59 891.914 448.899
87 0 119.28 9.67473 1154 102.263 891.485 444.27
88 0 123.228 9.72994 1199 103.485 891.529 435.852
89 0 125.196 9.28946 1163 105.203 892.182 441.039
90 0 132.177 10.7205 1417 102.64 892.699 441.362
91 1 253.322 13.1295 3326 108.114 892.422 385.673
92 0 261.543 11.413 2985 110.446 891.74 385.411
93 1 322.437 6.59975 2128 114.744 891.22 395.667
94 0 322.39 5.14904 1660 117.383 891.856 396.427
95 1 156.25 8.93443 1396 107.433 891.087 426.845
96 0 160.303 12.4639 1998 106.901 891.408 429.608
97 0 167.149 11.0082 1840 109.803 891.54 414.594
98 0 170.183 13.9027 2366 105.976 891.521 403.718
99 1 99.1291 10.683 1059 96.2238 891.396 443.246
100 0 102.073 11.2664 1150 92.5974 890.777 445.679
101 0 105.082 11.1246 1169 92.1155 890.621 453.598
102 0 106.14 9.91141 1052 95.0352 891.237 458.663
103 0 110.107 11.6886 1287 92.5719 891.846 454.948
104 0 113.089 11.0356 1248 93.8654 891.998 455.237
105 0 114.14 11.2493 1284 94.5623 891.736 452.942
106 0 118.083 11.6189 1372 93.6501 891.555 449.217
107 0 119.245 9.4008 1121 95.7529 891.211 440.522
108 0 126.081 11.1436 1405 95.284 891.892 446.437
109 0 131.164 11.7944 1547 95.3051 890.992 443.533
110 0 132.13 8.70357 1150 99.6583 891.518 442.779
111 0 141.151 10.9032 1539 94.2885 891.316 442.342
112 1 79.0631 10.1564 803 83.279 892.096 475.121
113 0 79.1532 9.00785 713 84.5568 891.08 467.227
114 0 80.1132 8.87494 711 86.1716 891.143 475.702
115 0 83.177 6.69656 557 87.3896 890.485 457.853
116 0 83.1481 7.26415 604 88.7947 890.247 453.604
117 0 86.2535 10.075 869 84.2658 891.018 461.36
118 0 89.2527 8.41431 751 88.4048 891.256 454.57
119 0 92.141 8.61723 794 88.937 890.884 453.031
120 0 96.1798 8.10981 780 87.9949 891.226 461.363
121 0 98.1287 9.39583 922 88.359 890.605 456.544
122 0 102.204 10.6356 1087 89.4039 890.638 459.52
123 0 105.136 9.88241 1039 90.7979 890.679 454.989
124 0 110.163 11.3559 1251 88.1215 889.868 457.282
125 0 109.215 10.0627 1099 89.0127 890.45 448.45
126 0 118.199 10.8292 1280 100.341 889.795 447.059
127 0 120.136 11.2456 1351 100.315 889.956 447.025
128 0 123.462 11.6797 1442 104.405 890.357 441.015
129 0 127.616 12.0909 1543 103.571 889.293 437.522
130 0 133.392 12.1372 1619 102.639 890.401 436.884
131 1 73.2155 9.83399 720 100.958 890.728 463.693
132 0 77.3405 10.9774 849 95.0259 890.588 468.631
133 0 79.3172 11.952 948 92.6973 890.601 462.302
134 0 80.2879 12.1438 975 92.1774 890.245 462.448
135 0 82.2969 12.3091 1013 92.4176 890.77 462.786
136 0 82.0724 11.5751 950 94.6632 891.22 461.368
137 0 85.0952 11.8573 1009 94.5976 891.042 457.085
138 0 92.1364 11.8303 1090 93.022 890.738 459.892
139 0 94.1776 12.4233 1170 93.0752 890.492 455.585
140 0 98.1254 13.2891 1304 90.6549 890.896 459.024
141 0 101.262 13.8255 1400 90.3986 890.142 455.311
142 0 101.33 12.0892 1225 95.2571 890.43 450.527
143 0 104.069 15.1726 1579 89.0355 889.816 453.155
144 0 108.152 12.9169 1397 93.791 890.878 448.842
145 0 107.196 11.8754 1273 97.0157 890.13 446.366
146 0 112.125 13.8595 1554 93.5418 889.976 443.564
147 0 119.161 13.1418 1566 94.3831 889.658 446.797
148 0 128.114 12.8089 1641 94.5229 890.109 441.028
149 0 129.35 12.8025 1656 95.1093 889.938 432.565
150 0 132.234 13.9904 1850 92.7519 891.046 433.959
151 0 134.291 10.2315 1374 103.997 890.41 435.252
152 0 140.371 13.2791 1864 99.3112 891.001 431.813
153 1 76.1934 12.3239 939 96.7306 891.771 463.84
154 0 80.1681 12.7357 1021 94.4035 890.799 463.654
155 0 81.151 11.9407 969 96.8762 891.304 461.516
156 0 83.1655 12.7697 1062 95.9699 891.148 461.534
157 0 86.1694 12.3478 1064 98.8036 890.877 459.251
158 0 85.1521 10.769 917 102.897 890.887 453.702
159 0 94.1391 11.0262 1038 99.0703 890.808 454.13
160 0 93.1058 13.8122 1286 96.3974 890.4 447.684
161 0 95.1876 13.1004 1247 99.0489 891 446.815
162 0 97.1183 14.3433 1393 96 890.289 449.251
163 0 98.1957 12.2103 1199 101.242 889.289 446.34
164 0 102.129 12.6899 1296 98.0563 888.687 449.252
165 0 105.135 13.7823 1449 96.4189 889.859 449.654
166 0 106.234 12.6796 1347 99.7825 888.877 446.815
167 0 113.335 12.5028 1417 101.251 889.69 440.135
168 0 114.271 13.9493 1594 98.7422 889.595 442.266
169 0 121.237 16.1502 1958 93.4382 889.334 436.708
170 0 122.247 13.8326 1691 100.053 889.088 435.21
171 0 125.221 12.9691 1624 102.451 888.771 435.343
172 0 129.181 14.0501 1815 100.796 888.742 426.779
173 0 137.308 15.3305 2105 97.9677 888.67 428.341
174 0 139.214 14.3736 2001 101.659 888.988 423.155
175 0 143.297 13.8174 1980 102.705 889.644 423.151
176 0 147.344 14.137 2083 103.913 889.296 421.918
177 0 151.216 13.4708 2037 104.035 889.483 415.84
178 0 155.34 13.4479 2089 106.569 889.244 415.139
179 1 83.0842 11.3018 939 99.5857 890.687 451.749
180 0 83.0903 10.8557 902 101.313 890.394 449.228
181 0 88.0819 11.3531 1000 98.064 890.73 451.725
182 0 96.07 12.9593 1245 94.9912 890.435 456.059
183 0 96.2018 12.058 1160 96.6328 890.409 456.294
184 0 104.072 11.5017 1197 96.6867 889.622 449.842
185 0 103.118 10.9292 1127 97.9583 890.147 452.658
186 0 105.111 10.4461 1098 98.7158 890.214 452.417
187 0 112.213 12.2534 1375 94.9658 890.89 446.949
188 0 114.218 12.6074 1440 94.4819 890.285 446.873
189 0 120.086 14.2898 1716 91.1393 889.558 447.429
190 0 122.179 12.7518 1558 93.5565 889.113 445.413
191 0 128.248 11.852 1520 94.977 889.285 439.181
192 0 129.269 11.0004 1422 97.0647 889.409 436.618
193 1 69.0895 11.97 827 88.607 888.849 460.93
194 0 69.1929 10.6225 735 92.2082 888.788 458.556
195 0 75.0395 10.3812 779 90.4814 889.433 460.454
196 0 73.0821 11.1382 814 90.9459 888.463 458.593
197 0 78.0762 11.3095 883 90.6501 889.231 455.683
198 0 83.0647 11.7378 975 89.4267 888.917 454.967
199 0 86.1156 10.6601 918 92.3878 888.525 452.063
200 0 90.2261 11.2384 1014 91.2929 889.091 454.709
201 0 88.1187 12.4605 1098 91.2842 888.27 452.106
202 0 95.0564 12.0139 1142 92.1988 889.409 452.351
203 0 94.0704 10.928 1028 95.0233 889.422 451.657
204 0 101.214 11.1941 1133 93.0035 889.62 463.276
205 0 103.202 12.3835 1278 92.849 889.129 457.894
206 0 106.077 12.9623 1375 91.6531 889.549 459.252
207 0 110.106 11.8158 1301 92.9124 889.815 455.253
208 0 119.176 14.1051 1681 95.5354 889.413 451.016
209 0 123.151 12.1964 1502 99.7996 889.49 448.771
210 0 127.222 14.0542 1788 95.9827 889.504 445.266
211 0 128.235 12.1964 1564 100.629 889.751 445.057
212 0 134.269 12.5941 1691 98.2466 889.912 444.131
213 0 138.669 12.6488 1754 99.6779 890.208 439.526
214 0 142.217 12.4176 1766 100.29 890.164 438.631
215 0 148.231 14.0389 2081 98.9308 890.541 432.468
216 0 152.326 13.3004 2026 99.5508 890.657 430.551
217 1 92.2465 11.9463 1102 91.8966 892.115 464.805
218 0 92.2837 12.039 1111 92.9523 891.166 462.077
219 0 96.2539 10.3372 995 93.609 890.786 463.297
220 0 99.1548 9.96422 988 95.7692 890.457 457.217
221 0 104.203 11.6888 1218 93.5878 890.289 454.848
222 0 106.407 11.7004 1245 94.7229 890.531 453.675
223 0 107.214 10.9221 1171 96.4944 890.268 453.937
224 0 112.328 12.2231 1373 95.1741 890.525 451.095
225 0 115.114 11.0586 1273 96.2859 890.797 455.661
226 0 115.337 8.30607 958 103.864 890.297 443.418
227 0 122.316 10.7999 1321 99.1908 890.315 445.212
228 0 125.221 10.7729 1349 99.5019 889.941 446.012
229 0 129.308 12.2808 1588 97.6058 889.71 441.559
230 0 132.196 11.8309 1564 98.61 889.965 444.159
231 0 136.316 12.1189 1652 99.5291 890.501 438.886
232 0 140.243 12.2929 1724 99.739 890.519 438.757
233 0 146.245 12.862 1881 99.9553 890.307 435.049
234 0 150.276 13.016 1956 103.532 890.813 434.922
235 0 156.26 13.1767 2059 105.512 889.025 427.981
236 0 150.115 11.6644 1751 107.682 890.276 414.279
237 1 163.287 12.3586 2018 103.739 889.677 428.069
238 0 167.305 12.7731 2137 103.927 889.72 424.463
239 1 97.1424 9.30592 904 96.1361 890.624 462.708
240 0 98.2239 10.1197 994 96.9095 890.496 459.342
241 0 104.109 10.3737 1080 96.4083 890.739 457.861
242 0 104.141 10.8602 1131 96.916 890.959 456.974
243 0 110.21 12.331 1359 96.0486 890.338 451.495
244 0 113.171 11.5754 1310 97.8885 890.466 453.343
245 0 115.149 11.5329 1328 102.907 890.57 450.86
246 0 117.186 10.8375 1270 103.56 890.234 451.341
247 0 123.155 12.0661 1486 99.897 889.706 450.321
248 0 125.156 11.8093 1478 102.262 890.179 444.164
249 0 131.175 12.6701 1662 100.992 890.231 442.022
250 0 134.225 12.3673 1660 103.721 890.79 439.46
251 1 73.1971 8.93478 654 100.272 889.887 470.434
252 0 77.1526 11.406 880 92.3443 889.644 468.988
253 0 81.0498 10.7835 874 95.7346 889.394 469.244
254 0 80.112 9.68644 776 93.4188 889.876 470.249
255 0 83.128 9.335 776 92.9317 890.338 468.263
256 0 84.1151 10.4737 881 92.0556 889.477 462.185
257 0 88.1589 8.01961 707 95.4583 889.57 466.809
258 0 90.067 9.47073 853 93.4138 889.104 463.114
259 0 94.332 10.9189 1030 91.7893 888.186 461.57
260 0 95.1039 10.3676 986 93.6014 889.255 461.118
261 0 100.183 10.5208 1054 93.6053 889.928 461.193
262 0 105.072 8.7559 920 93.3989 889.346 464.274
263 0 104.109 9.7974 1020 93.5373 889.557 457.522
264 0 104.137 9.34345 973 94.9887 889.417 454.704
265 0 110.152 9.04204 996 94.6988 890.089 458.509
266 0 115.076 7.9252 912 98.3399 889.298 456.503
267 0 118.218 12.4854 1476 92.3984 889.638 451.666
268 0 122.069 10.9692 1339 94.6699 889.755 450.805
269 0 127.323 12.6765 1614 92.9647 889.502 449.039
270 0 129.283 10.6278 1374 96.2533 890.162 444.957
271 0 135.204 10.9095 1475 95.6956 890.121 448.089
272 0 138.195 11.3608 1570 96.4229 889.235 435.989
273 0 149.216 12.8405 1916 92.536 889.74 430.387
274 0 140.247 9.29788 1304 95.7301 890.878 435.505
275 0 150.402 11.5889 1743 94.4062 890.26 437.065
276 0 152.322 11.1343 1696 93.5767 891.022 439.802
277 0 151.261 9.75797 1476 96.1762 890.629 440.69
278 1 163.328 12.1045 1977 93.5771 889.614 424.255
279 0 169.476 11.3173 1918 96.1262 890.857 421.616
280 0 175.367 12.6364 2216 92.6805 890.443 417.874
281 0 180.586 10.8314 1956 95.2791 890.105 417.361
282 0 186.183 10.9999 2048 94.3286 889.339 415.287
283 0 189.376 10.6455 2016 94.6994 890.468 416.051
284 0 187.338 6.71515 1258 98.7583 889.808 419.859
285 0 190.379 8.64064 1645 95.6079 890.651 421.325
286 0 187.323 5.68003 1064 100.814 890.459 417.207
287 1 64.1894 9.61217 617 82.0665 889.955 475.517
288 0 69.101 12.0838 835 77.5629 890.947 477.878
289 0 70.0915 10.4007 729 80.299 890.892 477.114
290 0 70.1019 10.5418 739 80.9824 890.912 475.253
291 0 73.0884 11.9718 875 80.1463 890.349 473.403
292 0 75.0749 11.3753 854 81.1686 889.95 472.843
293 0 78.0503 10.7495 839 81.3075 890.01 473.989
294 0 80.1005 10.9363 876 82.4235 889.971 468.267
295 0 82.0841 11.671 958 82.2923 889.804 468.621
296 0 80.0826 8.51621 682 89.1129 889.067 469.525
297 0 85.0889 9.80151 834 87.8657 889.448 466.64
298 0 88.0638 10.3334 910 87.5538 889.688 464.843
299 0 90.1369 10.1956 919 88.494 889.682 465.937
300 0 92.1534 10.9166 1006 89.3588 890.741 462.23
301 0 97.1375 11.6948 1136 87.5246 890.842 463.981
302 0 100.064 10.5932 1060 90.0151 890.375 462.703
303 0 103.276 11.9776 1237 88.8909 890.036 459.061
304 0 106.125 9.41343 999 92.8458 890.222 459.172
305 0 107.105 10.5411 1129 93.0868 889.696 458.576
306 0 111.105 10.3686 1152 95.0312 889.917 456.236
307 0 114.098 9.83363 1122 95.8815 889.232 455.87
308 0 118.135 12.3334 1457 94.4091 890.437 450.1
309 0 122.219 12.0112 1468 98.2466 889.811 448.163
310 0 125.294 11.1897 1402 100.956 890.068 445.185
311 0 129.278 12.3841 1601 99.7033 889.809 441.58
312 0 132.143 12.1081 1600 101.027 890.228 443.082
313 0 137.2 12.0554 1654 101.828 890.659 438.885
314 1 76.1463 11.0051 838 96.9606 891.629 468.288
315 0 78.1566 10.5813 827 98.5719 890.71 467.064
316 0 79.2081 9.59497 760 96.7066 891.086 461.871
317 0 82.0604 10.5898 869 99.6133 890.52 463.406
318 0 84.1502 10.612 893 95.43 891.449 465.87
319 0 88.1402 11.7313 1034 95.2988 891.458 461.746
320 0 92.1112 12.2895 1132 93.144 891.581 459.483
321 0 93.1135 12.082 1125 93.7529 890.988 462.302
322 0 96.07 11.2002 1076 96.9721 891.376 458.332
323 0 95.1135 8.54769 813 101.688 890.911 454.326
324 0 105.117 11.0924 1166 96.2916 891.068 456.399
325 0 104.12 11.2754 1174 97.5673 891.647 454.312
326 0 107.062 12.1985 1306 95.8721 891.264 453.923
327 0 111.088 12.1165 1346 101.135 891.523 454.4
328 0 116.097 11.499 1335 97.7985 891.936 451.872
329 0 117.156 10.7549 1260 101.279 891.728 444.987
330 0 124.147 11.9294 1481 99.4362 892.33 447.097
331 0 126.172 10.4857 1323 102.125 891.503 446.587
332 0 134.151 11.8523 1590 99.6447 890.895 442.704
333 0 137.072 11.1474 1528 100.934 891.13 444.286
334 1 79.1464 10.5753 837 94.7622 891.589 471.732
335 0 82.188 11.5467 949 92.6048 891.38 472.385
336 0 86.139 12.4798 1075 92.7935 892.054 469.168
337 0 87.2566 11.0249 962 91.4127 891.705 467.508
338 0 87.1258 10.1003 880 92.6045 891.542 465.534
339 0 92.2015 12.4727 1150 89.2817 891.567 465.461
340 0 93.1157 10.7608 1002 92.0299 890.969 465.198
341 0 97.1483 11.9096 1157 90.1098 891.057 463.227
342 0 99.1812 11.4639 1137 91.8355 891.234 462.966
343 0 102.247 10.7093 1095 93.295 890.538 461.356
344 0 106.2 11.8926 1263 91.5677 890.817 458.669
345 0 109.241 12.3489 1349 91.2513 890.864 454.603
346 0 112.235 11.4402 1284 94.2741 890.919 453.022
347 0 113.269 12.4924 1415 90.9279 891.384 458.591
348 0 117.306 12.6763 1487 92.115 891.069 456.387
349 0 121.145 11.4244 1384 90.0925 890.342 445.82
350 0 127.158 10.7347 1365 90.1619 890.132 447.628
351 0 127.244 9.76075 1242 93.1602 890.184 444.817
352 0 134.382 10.3958 1397 92.1775 890.56 445.922
353 0 139.147 10.586 1473 92.4616 890.53 449.912
354 1 81.2243 11.2774 916 89.9236 890.516 466.741
355 0 84.2027 10.0591 847 88.7804 891.414 467.462
356 0 87.139 10.2595 894 88.7427 890.811 466.441
357 0 92.2363 10.1045 932 88.6663 890.4 468.622
358 0 90.0505 10.3164 929 88.4392 890.886 467.287
359 0 94.1999 11.3057 1065 86.9399 890.197 466.909
360 0 101.137 11.7465 1188 85.8889 890.726 455.881
361 0 109.106 14.7838 1613 79.0899 890.001 452.582
362 0 101.143 12.0819 1222 83.5884 891.127 453.25
363 0 102.14 9.76116 997 88.7342 890.696 449.822
364 0 106.16 10.4654 1111 87.8011 890.302 448.445
365 0 113.14 10.7565 1217 87.0181 890.279 450.254
366 0 113.173 8.91552 1009 90.223 890.364 449.241
367 0 117.069 11.3864 1333 86.6234 890.011 445.641
368 0 124.277 11.772 1463 86.5434 890.848 444.925
369 0 127.133 9.93445 1263 89.7047 890.451 439.618
370 0 129.224 10.9577 1416 88.4251 890.628 439.88
371 0 137.259 11.7078 1607 88.4356 890.49 437.792
372 0 141.309 12.1648 1719 90.79 890.472 440.298
373 0 147.267 12.44 1832 98.7877 889.979 437.973
374 0 151.305 11.6586 1764 99.7942 890.079 435.738
375 0 157.223 13.325 2095 92.9251 890.672 429.58
376 1 92.2689 10.7078 988 87.7864 891.05 465.505
377 0 94.1871 11.371 1071 86.5658 891.306 462.661
378 0 100.231 11.0445 1107 85.3207 891.221 464.586
379 0 103.116 11.4435 1180 84.1288 890.886 462.864
380 0 104.361 11.8148 1233 84.4858 891.373 458.76
381 0 110.207 12.2497 1350 83.3044 890.828 456.555
382 0 110.29 10.4724 1155 87.31 891.126 458.402
383 0 114.167 10.9752 1253 86.9721 890.875 457.393
384 0 114.105 10.4027 1187 88.428 890.96 459.892
385 1 216.341 12.9564 2803 98.6693 890.804 404.768
386 0 223.339 11.4535 2558 101.843 889.963 401.093
387 0 231.371 12.2185 2827 100.477 889.856 393.815
388 0 237.277 11.337 2690 102.764 890.104 386.509
389 1 134.281 11.543 1550 86.2065 890.257 445.83
390 0 138.312 9.70994 1343 90.8585 889.997 443.922
391 0 139.215 7.6788 1069 93.565 890.177 442.46
392 1 82.167 11.0263 906 81.649 890.06 471.526
393 0 86.1197 11.7395 1011 81.6993 890.353 471.326
394 0 86.1424 11.7016 1008 82.9514 889.912 468.412
395 0 89.0727 11.1819 996 84.2129 890.589 466.548
396 0 89.0632 9.3866 836 95.1998 890.169 460.809
397 0 92.1518 11.3183 1043 91.4813 890.447 463.186
398 0 96.1126 10.6334 1022 90.2309 889.795 455.844
399 0 99.1023 12.1592 1205 88.1668 889.498 457.595
400 0 102.277 10.4716 1071 91.5135 889.333 454.908
401 0 105.163 11.0305 1160 90.6138 889.807 453.665
402 0 108.097 11.8412 1280 89.8078 889.984 453.716
403 0 111.159 11.0203 1225 91.618 889.856 456.144
404 0 114.109 10.1569 1159 93.6462 890.626 454.491
405 0 117.173 11.769 1379 91.1385 890.842 452.177
406 0 121.297 11.3028 1371 92.1517 889.949 450.239
407 0 126.125 12.8126 1616 90.2246 890.355 448.994
408 0 128.227 12.8132 1643 90.7018 890.323 448.78
409 0 130.235 12.3853 1613 91.8617 889.838 446.245
410 0 136.211 12.6054 1717 91.127 889.618 442.877
411 0 140.149 12.4225 1741 91.3688 889.65 445.526
412 0 144.218 12.8209 1849 92.1493 889.801 437.35
413 0 149.159 13.2745 1980 90.1126 890.255 440.458
414 0 155.181 12.6047 1956 91.7566 890.259 433.108
415 0 158.361 12.8062 2028 92.0113 889.627 430.771
416 0 165.467 14.2083 2351 89.3092 889.992 430.743
417 1 91.0531 10.5433 960 84.6958 890.592 467.65
418 0 94.2471 11.629 1096 84.8832 890.098 464.48
419 0 96.1018 11.6959 1124 85.2856 890.131 466.424
420 0 102.137 11.23 1147 86.7611 889.915 461.907
421 0 104.236 11.6083 1210 87.0421 890.052 460.747
422 0 105.231 10.5767 1113 89.0674 889.819 460.859
423 0 109.223 9.75984 1066 91.8077 890.28 457.451
424 0 113.474 12.7166 1443 87.1566 890.468 461.525
425 0 114.073 10.7125 1222 91.8396 890.682 457.337
426 0 118.152 10.969 1296 92.1049 890.489 455.222
427 0 121.219 12.3743 1500 90.9027 890.235 454.4
428 0 126.252 13.4492 1698 89.192 890.094 452.307
429 0 130.139 12.8401 1671 91.3656 889.972 450.527
430 0 133.212 12.1986 1625 93.6498 889.843 446.918
431 0 136.263 12.3878 1688 95.1908 890.161 444.774
432 0 140.189 11.3918 1597 96.8654 890.264 445.708
433 1 214.396 10.1401 2174 102.88 889.345 412.774
434 1 149.145 13.6914 2042 95.5769 890.562 438.768
435 0 154.17 13.2386 2041 97.6208 889.866 433.38
436 0 158.164 12.8348 2030 101.314 889.92 430.997
437 0 164.195 12.8628 2112 102.068 890.097 428.639
438 0 168.31 11.8294 1991 105.431 889.626 424.193
439 0 173.29 13.9246 2413 100.864 890.345 428.049
440 0 179.379 13.3962 2403 103.339 889.637 422.047
441 0 183.338 13.9469 2557 103.217 889.683 416.771
442 0 189.334 15.1426 2867 101.24 890.18 413.124
443 0 195.213 13.8874 2711 104.575 890.229 412.136
444 0 198.418 14.6408 2905 103.848 890.023 406.897
445 0 208.405 14.6254 3048 103.158 889.561 408.447
446 0 213.264 14.0811 3003 104.483 889.673 405.546
447 0 213.246 13.5946 2899 108.113 890.518 399.552
448 0 222.292 13.5273 3007 108.074 889.289 396.485
449 0 231.518 13.7009 3172 108.075 889.314 393.043
450 0 236.312 13.1098 3098 110.244 889.313 383.107
451 0 246.402 13.6728 3369 108.89 889.295 381.59
452 1 58.0894 10.6216 617 91.8882 889.804 480.674
453 0 58.139 9.9245 577 92.0676 889.402 482.62
454 0 58.0655 10.6776 620 92.0565 889.685 479.682
455 0 61.0683 9.33382 570 88.9158 889.663 481.865
456 0 64.2529 9.99177 642 90.1137 889.477 482.07
457 0 64.0736 9.34862 599 94.5159 891.299 479.157
458 0 67.0726 9.81026 658 93.8374 891.164 482.269
459 0 69.0592 11.5698 799 92.7071 891.039 476.488
460 0 71.1475 10.8788 774 93.7003 890.681 478.203
461 0 73.0913 11.0683 809 94.4376 890.265 477.119
462 0 72.0903 9.61294 693 98.2208 890.394 477.957
463 0 75.1245 10.4759 787 97.7217 890.349 474.981
464 0 78.0917 12.4597 973 93.8171 889.506 475.222
465 0 76.1755 9.91132 755 99.7205 889.608 472.634
466 0 81.1748 9.3502 759 99.1581 890.588 473.705
467 1 158.322 9.85968 1561 106.39 889.302 433.453
468 1 96.1312 13.0343 1253 90.2793 889.831 463.246
469 0 93.1438 11.5735 1078 96.41 889.19 468.285
470 0 180.18 7.84216 1413 104.856 889.96 444.777
471 0 180.509 9.68928 1749 105.778 888.955 424.174
472 0 190.37 10.9944 2093 104.61 889.315 421.994
473 0 186.486 10.108 1885 105.338 889.469 428.232
474 0 187.306 7.63456 1430 104.772 890.341 416.343
475 0 188.334 9.30794 1753 102.483 889.864 414.787
476 0 186.489 7.91466 1476 106.562 889.856 418.565
477 1 137.202 8.52757 1170 94.8453 890.018 451.524
478 0 138.178 8.81471 1218 94.5501 889.829 454.885
479 0 139.168 10.3041 1434 94.0572 890.123 447.018
480 0 133.199 9.82737 1309 96.9465 889.898 450.923
481 0 136.224 10.9819 1496 95.5595 890.104 449.961
482 0 135.349 9.47184 1282 99.6841 889.995 446.819
483 0 143.287 11.1455 1597 96.6312 889.69 447.078
484 1 77.0761 10.2107 787 92.2961 890.485 477.424
485 0 82.137 12.2235 1004 89.7201 889.879 475.555
486 0 84.1224 10.9602 922 92.9219 890.359 474.379
487 0 86.2397 11.3405 978 92.9448 890.101 474.359
488 0 89.2068 11.748 1048 94.3111 889.687 469.971
489 0 93.1245 12.5101 1165 93.5416 889.439 470.729
490 0 93.0462 12.252 1140 95.7763 889.407 465.36
491 0 96.1418 12.2423 1177 98.5956 889.316 464.413
492 0 101.16 14.739 1491 99.77 890.117 465.331
493 0 103.073 13.9319 1436 103.195 889.719 465.557
494 0 104.12 12.8602 1339 103.44 890.326 463.385
495 0 109.159 14.0803 1537 105.766 889.666 460.501
496 0 111.118 14.552 1617 105.084 890.416 458.318
497 0 114.112 13.4692 1537 106.875 890.703 457.263
498 0 117.139 13.0101 1524 108.595 890.415 455.643
499 0 122.125 14.5916 1782 105.13 889.741 451.701
500 0 126.173 14.179 1789 106.975 889.065 449.064
501 0 130.08 13.3457 1736 107.914 889.727 446.391
502 0 134.083 14.0212 1880 106.468 889.164 445.92
503 0 133.216 12.0331 1603 106.173 889.988 448.227
504 0 138.208 12.4884 1726 104.936 889.887 447.716
505 0 142.115 13.2498 1883 103.28 889.859 442.476
506 1 85.1903 11.7032 997 95.652 889.708 473.66
507 0 88.2668 10.6609 941 96.9894 889.349 475.773
508 0 90.1338 11.0391 995 96.7568 890.425 476.043
509 0 94.1349 11.9509 1125 96.6373 889.611 471.219
510 0 95.0739 12.4429 1183 96.3956 889.652 468.739
511 0 99.1734 11.5454 1145 96.7406 889.341 471.277
512 0 102.301 11.9646 1224 97.9085 889.669 467.076
513 0 106.155 12.2463 1300 97.5908 889.489 466.808
514 0 110.167 12.245 1349 100.085 889.878 461.757
515 0 113.251 12.8564 1456 98.8867 890.011 459.88
516 1 65.1125 10.3513 674 98.4288 889.617 481.657
517 0 70.0833 12 841 95.1986 889.259 482.245
518 0 72.2061 13.1014 946 92.9175 889.052 480.818
519 0 76.082 11.1722 850 96.0976 889.364 479.972
520 0 77.0855 12.5964 971 93.8198 889.37 478.717
521 0 79.0857 12.948 1024 94.0381 889.399 475.617
522 0 83.038 12.5364 1041 94.1047 889.709 476.932
523 0 85.0762 12.1773 1036 94.833 889.19 476.798
524 0 89.2043 12.6451 1128 94.2934 890.061 475.617
525 0 90.1212 11.6177 1047 97.1385 890.148 473.132
526 0 93.0631 13.0019 1210 95.3372 890.426 471.258
527 0 100.19 11.4782 1150 106.87 889.523 468.926
528 0 99.2473 11.819 1173 108.177 889.005 468.921
529 0 102.187 12.9175 1320 106.65 889.141 465.358
530 0 105.15 11.8878 1250 108.25 888.903 463.993
531 0 108.245 11.4647 1241 108.066 889.693 463.859
532 0 110.152 10.7397 1183 109.801 889.941 459.56
533 0 112.146 12.243 1373 108.228 889.35 459.281
534 0 117.1 12.7071 1488 106.233 888.85 458.651
535 0 121.073 11.3898 1379 108.168 889.124 458.08
536 0 121.129 12.2679 1486 107.779 889.522 455.429
537 0 124.175 11.3469 1409 109.735 889.994 453.784
538 0 126.262 9.24266 1167 114.015 889.284 450.178
539 0 135.161 11.6454 1574 107.916 888.452 447.933
540 0 141.174 12.7927 1806 107.09 888.829 446.825
541 0 142.173 11.8166 1680 112.693 889.389 445.868
542 1 80.0978 10.3623 830 107.512 889.508 476.351
543 0 84.0763 11.6204 977 101.807 889.864 477.986
544 0 89.1085 12.9281 1152 99.4852 890.286 475.069
545 0 91.0549 13.7829 1255 98.8853 890.457 474.249
546 0 94.1458 13.4791 1269 99.2774 890.3 473.738
547 0 95.1376 11.5832 1102 104.393 890.602 471.609
548 0 98.2351 13.3048 1307 102.428 889.633 470.422
549 0 102.222 12.4631 1274 103.577 890.098 465.722
550 0 103.154 12.651 1305 103.89 890.067 465.796
551 0 108.221 13.1029 1418 101.779 890.07 465.358
552 0 110.157 11.6652 1285 104.325 890.075 467.295
553 0 118.219 10.2691 1214 106.285 890.124 469.119
554 0 115.198 11.0158 1269 107.244 890.36 460.331
555 0 120.125 12.8116 1539 100.713 890.452 456.953
556 0 121.145 12.5965 1526 104.627 890.785 457.776
557 0 121.137 11.714 1419 109.235 890.966 459.833
558 0 124.171 11.7258 1456 102.434 890.675 455.959
559 0 128.214 11.7148 1502 103.872 890.468 461.696
560 0 127.232 13.1335 1671 105.566 890.357 452.149
561 0 127.161 12.6769 1612 105.64 890.271 455.811
562 0 130.112 13.6728 1779 106.302 890.342 455.271
563 0 131.12 14.3075 1876 106.77 889.848 453.361
564 0 131.176 13.9127 1825 108.399 889.516 449.092
565 0 133.118 12.1847 1622 109.814 889.584 454.239
566 0 139.175 11.791 1641 108.278 888.832 447.275
567 0 145.199 12.9202 1876 104.101 888.667 445.741
568 0 151.271 12.2628 1855 104.169 888.741 445.854
569 0 153.257 12.2931 1884 105.573 888.441 442.516
570 1 84.108 11.7349 987 104.812 888.73 477.984
571 0 86.1598 13.266 1143 101.686 889.448 474.157
572 0 89.0678 13.0462 1162 106.086 888.528 472.231
573 0 92.0753 13.2174 1217 105.55 889.703 471.956
574 0 88.1121 11.1562 983 105.14 889.067 473.31
575 0 92.126 12.0487 1110 104.406 888.547 472.1
576 0 94.1795 12.2744 1156 102.914 888.51 472.148
577 0 97.0879 12.0406 1169 104.774 888.7 470.378
578 0 101.093 12.9188 1306 103.678 888.717 469.591
579 0 101.173 13.976 1414 105.104 888.373 465.871
580 0 104.121 12.4086 1292 110.37 888.615 464.037
581 0 109.062 13.5153 1474 112.572 889.393 459.456
582 0 108.117 12.4032 1341 112.756 889.23 462.868
583 0 112.06 12.5647 1408 115.411 888.95 461.486
584 0 117.166 11.6502 1365 118.199 888.568 462.427
585 1 68.0776 13.2936 905 112.948 888.564 482.052
586 0 70.0988 12.5537 880 116.408 888.766 482.869
587 0 72.0626 12.392 893 112.96 889.215 483.373
588 0 71.0619 13.4249 954 113.462 889.092 482.738
589 0 74.055 12.3422 914 120.454 889.677 477.307
590 0 77.0636 13.5992 1048 117.988 889.498 479.561
591 0 78.1695 13.1893 1031 120.861 890.016 479.609
592 0 80.0644 12.5274 1003 124.104 889.188 477.323
593 0 83.0797 13.1922 1096 124.074 889.714 476.257
594 0 82.1969 12.5674 1033 128.21 889.67 477.555
595 0 85.1683 13.3383 1136 129.418 889.542 473.145
596 0 88.0894 13.1798 1161 130.358 889.795 473.956
597 0 92.1396 14.109 1300 129.638 889.305 472.442
598 0 96.1236 14.1381 1359 130.359 889.346 469.424
599 0 95.1913 12.7428 1213 135.619 888.634 468.468
600 0 98.1196 13.1268 1288 134.033 888.971 466.095
601 0 100.089 13.6578 1367 133.679 888.203 463.96
602 0 102.176 13.692 1399 134.751 888.07 458.658
603 0 104.123 12.6101 1313 136.43 888.482 457.517
604 0 109.151 12.8996 1408 134.44 889.697 459.655
605 0 115.166 13.9885 1611 132.075 888.62 453.285
606 0 121.06 13.4891 1633 133.434 889.287 446.882
607 0 124.087 13.5631 1683 135.004 889.658 441.699
608 0 128.106 13.6059 1743 137.858 888.414 442.342
609 0 137.154 13.8311 1897 135.419 888.741 449.123
610 0 140.311 15.2518 2140 132.475 887.971 448.428
611 0 144.384 12.8754 1859 139.332 887.869 445.636
612 1 84.0861 13.058 1098 132.96 889.23 476.477
613 0 86.1806 13.5529 1168 133.114 889.11 474.227
614 0 88.15 13.3295 1175 135.149 889.455 471.903
615 0 91.1269 13.4977 1230 134.587 888.661 470.562
616 0 93.2969 13.1087 1223 137.305 888.764 469.554
617 0 95.1388 13.0546 1242 136.312 889.205 468.775
618 0 99.2458 13.915 1381 134.093 888.35 464.84
619 0 101.181 13.5895 1375 135.7 888.992 465.161
620 0 106.136 14.2177 1509 132.946 888.366 464.478
621 0 108.235 14.1913 1536 133.98 888.619 460.361
622 0 110.305 13.1363 1449 138.635 888.863 458.28
623 0 115.212 13.7399 1583 136.96 889.06 456.622
624 0 119.121 13.4485 1602 133.416 888.498 456.716
625 0 124.251 13.5774 1687 131.551 887.531 452.229
626 0 126.143 13.5322 1707 130.029 888.376 452.005
627 0 131.17 15.0492 1974 126.05 887.127 448.202
628 0 132.15 12.8566 1699 126.964 888.002 452.642
629 1 258.256 12.9445 3343 140.617 887.062 389.763
630 1 144.183 12.9349 1865 131.269 887.495 439.491
631 0 150.162 13.2191 1985 126.664 887.868 439.259
632 0 155.224 12.904 2003 131.207 887.779 437.222
633 0 156.176 12.1786 1902 130.258 887.323 441.061
634 1 94.1726 12.2435 1153 126.298 888.731 469.122
635 0 97.2303 12.4755 1213 126.039 887.132 467.515
636 0 101.307 12.7434 1291 125.837 887.835 463.626
637 0 103.259 13.7131 1416 124.106 886.971 461.668
638 0 105.128 12.442 1308 127.089 887.471 460.145
639 0 110.118 12.2595 1350 126.737 886.901 459.927
640 1 197.29 12.9961 2564 131.662 887.587 419.11
641 1 116.132 12.2878 1427 127.327 887.544 456.484
642 0 120.147 11.3611 1365 129.073 887.467 457.134
643 0 122.141 11.5358 1409 129.508 886.999 451.072
644 0 128.41 12.3044 1580 127.793 887.089 447.721
645 0 134.265 12.7807 1716 124.587 887.524 446.934
646 0 134.237 11.9937 1610 127.379 887.444 445.276
647 0 141.083 12.3402 1741 126.267 887.965 442.907
648 0 144.233 12.7086 1833 125.266 888.045 439.857
649 0 151.342 12.4288 1881 125.693 887.778 435.393
650 0 154.248 12.8884 1988 126.478 887.811 434.715
651 0 160.381 12.5389 2011 125.834 887.704 435.562
652 0 166.196 12.6537 2103 125.731 887.48 432.562
653 0 168.262 12.956 2180 127.787 887.767 425.233
654 0 173.308 13.2711 2300 128.74 886.861 420.983
655 0 175.22 12.8353 2249 130.876 887.79 415.583
656 0 183.4 13.2606 2432 130.2 887.662 415.281
657 0 190.326 14.2913 2720 128.632 888.38 412.4
658 0 192.207 12.6582 2433 132.558 887.28 411.906
659 0 200.275 13.4365 2691 132.322 887.109 405.912
660 0 208.397 13.623 2839 131.017 887.654 403.099
661 0 214.264 12.2559 2626 134.496 887.801 399.001
662 0 224.361 12.9167 2898 133.797 887.571 395.513
663 0 231.222 12.767 2952 136.278 887.711 388.716
664 1 48.1621 10.7346 517 114.992 888.855 485.199
665 0 49.0923 10.6534 523 117.335 889.346 483.327
666 0 52.0619 11.6208 605 111.197 889.552 484.554
667 0 56.0572 11.6131 651 111.802 889.519 475.043
668 0 57.1186 11.6424 665 112.164 889.504 477.364
669 0 58.0304 10.2016 592 116.231 888.889 482.073
670 0 58.0468 10.1642 590 118.712 889.066 480.597
671 0 61.2197 11.1075 680 116.316 888.929 479.468
672 0 64.067 10.9729 703 116.23 888.255 478.762
673 0 62.0731 10.6648 662 118.559 888.485 476.153
674 0 68.1853 9.85549 672 118.766 889.107 477.457
675 0 68.0984 10.0883 687 120.613 888.818 474.917
676 0 68.1496 10.477 714 120.364 889.541 473.352
677 0 67.0744 10.6747 716 122.292 889.501 469.476
678 0 77.321 10.8767 841 117.751 888.811 471.717
679 0 76.2865 11.3913 869 118.252 889.026 470.537
680 0 79.0608 10.0935 798 121.154 889.134 469.273
681 0 84.1283 11.4587 964 117.16 888.976 463.113
682 0 89.2169 11.4216 1019 116.69 889.184 462.099
683 0 92.1749 11.5975 1069 117.541 888.98 460.842
684 0 95.1623 10.004 952 121.077 888.917 457.705
685 0 98.1747 11.449 1124 115.287 889.85 460.964
686 0 101.095 11.7415 1187 114.608 888.865 454.282
687 0 104.206 12.5041 1303 115.269 889.392 446.98
688 1 58.1027 10.7396 624 111.918 888.407 473.264
689 0 57.0234 9.66271 551 116.303 888.612 470.305
690 0 63.0795 10.1618 641 111.153 889.114 476.36
691 0 64.0615 10.3806 665 112.117 890.277 471.338
692 0 66.1323 11.2653 745 109.728 889.432 474.123
693 0 66.1792 10.6076 702 114.397 889.577 463.717
694 0 72.1485 10.6031 765 114.152 889.437 449.306
695 0 75.1129 12.4213 933 113.16 889.017 436.95
696 0 77.1562 11.2499 868 116.461 888.446 439.081
697 0 78.0901 12.7929 999 113.425 888.48 439.898
698 0 81.1367 12.8549 1043 113.892 888.896 439.908
699 0 81.0673 11.1882 907 120.289 889.105 437.202
700 0 87.2259 13.4822 1176 114.026 889.016 440.175
701 0 89.2281 12.7987 1142 116.342 888.978 438.05
702 0 90.1253 13.337 1202 114.464 888.76 440.047
703 0 92.1533 13.0435 1202 116.282 888.413 442.895
704 0 97.1827 13.5415 1316 113.943 889.274 450.247
705 0 96.1919 12.4855 1201 118.805 888.786 450.244
706 0 100.256 13.296 1333 115.962 888.917 453.158
707 0 101.255 12.7796 1294 118.356 888.985 454.423
708 0 105.115 13.5185 1421 116.907 888.899 449.657
709 0 107.09 13.5307 1449 118.368 888.957 446.172
710 0 110.1 13.297 1464 119.756 889.732 446.86
711 0 114.295 14.3488 1640 116.771 889.824 447.651
712 0 117.352 13.745 1613 118.632 889.79 444.914
713 0 123.23 14.1849 1748 115.96 889.229 442.638
714 0 127.17 13.2893 1690 118.38 888.805 439.473
715 0 131.303 14.3181 1880 115.531 888.266 439.62
716 0 135.263 12.8638 1740 119.343 889.03 440.861
717 0 139.122 14.0812 1959 120.425 889.007 432.069
718 1 78.0881 10.6546 832 120.425 889.683 462.173
719 0 84.0803 11.2155 943 116.813 889.918 464.405
720 0 87.1021 11.6185 1012 112.396 889.608 465.292
721 0 87.1276 10.3526 902 112.051 890.004 464.691
722 0 90.1507 11.5917 1045 110.539 890.338 463.162
723 0 92.2688 12.5503 1158 108.191 889.748 457.442
724 0 96.1627 11.9069 1145 109.471 889.601 460.669
725 0 97.143 12.1676 1182 109.913 889.392 458.055
726 0 102.105 12.5753 1284 106.893 889.868 460.469
727 0 104.163 11.5204 1200 109.563 888.965 456.262
728 0 104.168 11.0014 1146 111.031 888.452 451.897
729 0 110.138 11.0407 1216 111.081 889.973 451.875
730 0 113.146 11.631 1316 108.372 889.913 448.841
731 0 120.293 12.6358 1520 105.796 890.105 447.821
732 0 122.175 11.7045 1430 106.929 889.891 448.689
733 0 125.289 12.2756 1538 106.932 889.516 441.788
734 0 129.112 13.0739 1688 105.018 889.415 442.787
735 0 130.308 12.2556 1597 106.461 889.034 441.052
736 0 133.262 10.3705 1382 110.06 889.037 442.391
737 0 132.17 11.0691 1463 111.024 888.816 437.205
738 0 133.188 8.77707 1169 109.838 889.425 446.453
739 1 87.1724 11.0585 964 103.589 889.785 459.385
740 0 93.197 12.1034 1128 99.7863 889.892 459.287
741 0 96.1183 11.3298 1089 100.478 889.511 455.669
742 0 95.077 11.4118 1085 100.67 889.076 457.284
743 0 95.1775 12.0617 1148 101.564 889.314 450.307
744 0 99.2309 12.2039 1211 100.923 889.222 448.704
745 0 101.183 12.1068 1225 101.656 889.049 454.242
746 0 101.183 12.1068 1225 139.699 890.068 454.362
747 0 110.246 11.937 1316 102.143 889.059 448.524
748 0 111.078 12.1896 1354 102.091 889.49 447.634
749 0 117.323 12.2397 1436 101.781 889.391 442.324
750 0 123.246 12.4467 1534 100.672 888.832 439.027
751 0 126.332 11.731 1482 102.621 888.829 440.25
752 0 131.417 10.4705 1376 104.129 888.483 442.879
753 0 135.214 11.3967 1541 103.132 888.86 440.959
754 0 138.376 12.4732 1726 102.244 888.839 434.36
755 0 146.264 12.8603 1881 102.027 888.885 432.081
756 0 153.299 13.4378 2060 101 888.558 428.677
757 0 152.304 12.8428 1956 105.223 889.126 419.143
758 0 159.345 12.6016 2008 106.086 889.025 420.617
759 0 167.439 13.0376 2183 105.424 888.887 419.303
760 0 171.504 12.7286 2183 108.2 888.313 413.371
761 0 182.365 13.5881 2478 108.798 888.442 412.065
762 0 188.348 14.0113 2639 108.916 888.227 408.98
763 0 195.326 14.6217 2856 107.065 888.388 407.421
764 0 197.344 13.0838 2582 111.837 887.968 402.253
765 0 206.54 14.6461 3025 107.868 888.296 401.92
766 0 212.491 12.857 2732 112.925 887.904 397.216
767 0 221.451 14.7256 3261 109.588 888.916 393.793
768 0 226.476 12.8446 2909 113.776 888.272 389.522
769 0 235.615 13.2292 3117 112.911 888.011 388.425
770 1 59.2913 8.33174 494 94.6498 887.725 483.043
771 0 59.2085 9.99857 592 90.853 888.1 480.836
772 0 61.3286 10.566 648 87.804 887.918 485.747
773 0 62.1951 10.66 663 88.6863 888.469 484.145
774 0 63.1338 8.58494 542 93.0314 888.378 481.637
775 0 64.1154 9.84163 631 91.084 888.811 483.143
776 0 65.2847 9.14456 597 93.9481 887.899 481.372
777 0 69.1941 9.72626 673 93.4606 887.04 479.733
778 0 72.3448 11.1411 806 91.9144 887.587 476.553
779 0 73.1397 10.5141 769 93.9402 887.957 476.121
780 0 72.1868 7.64683 552 100.938 887.368 472.111
781 0 77.256 11.2483 869 94.7411 888.743 473.634
782 0 74.2085 8.66477 643 101.093 887.717 471.944
783 0 80.2511 11.4017 915 95.0623 888.462 470.628
784 0 85.2631 11.5407 984 94.747 888.302 469.634
785 0 87.4499 12.3042 1076 93.7221 888.496 466.033
786 0 89.2885 11.7148 1046 95.2486 888.013 465.729
787 0 91.1734 10.8584 990 97.9131 888.195 461.906
788 0 94.2875 11.9528 1127 96.2431 887.573 462.398
789 0 99.3224 12.8773 1279 94.4691 888.594 455.353
790 0 104.349 15.659 1634 93.4743 886.617 410.428
791 0 104.473 15.6978 1640 93.5634 888.407 400.024
792 0 107.436 14.604 1569 97.9171 888.323 400.158
793 0 108.39 15.2227 1650 95.8988 888.061 421.847
794 0 110.486 14.9159 1648 96.0176 888.338 428.904
795 0 116.748 16.0687 1876 91.9749 888.894 431.94
796 0 116.433 14.9185 1737 96.3362 888.036 432.826
797 0 119.578 14.9693 1790 97.8933 888.963 429.822
798 0 124.317 17.7208 2203 92.1847 889.212 430.289
799 0 124.487 14.5156 1807 99.9961 888.925 427.241
800 0 128.476 16.5323 2124 95.7669 888.2 428.495
801 0 131.635 16.9483 2231 96.6746 887.952 429.015
802 0 133.484 14.0242 1872 104.004 888.378 424.622
803 0 136.465 15.7842 2154 101.435 887.767 423.783
804 0 143.358 15.688 2249 101.205 888.08 425.066
805 0 143.356 17.0206 2440 100.37 888.266 426.024
806 0 149.48 16.3434 2443 101.271 887.71 424.027
807 0 154.274 17.0346 2628 100.212 888.384 425.817
808 0 156.355 15.2793 2389 104.887 888.311 422.121
809 0 163.396 15.1534 2476 106.067 888.214 419.387
810 0 165.535 17.6941 2929 101.405 888.48 417.401
811 0 164.419 14.9253 2454 110.348 887.929 411.832
812 0 171.283 14.9577 2562 110.03 887.729 405.48
813 0 182.442 17.1671 3132 103.823 887.844 408.152
814 0 182.346 16.699 3045 106.572 887.853 402.964
815 0 188.275 15.6155 2940 110.078 887.044 401.071
816 1 118.308 9.93169 1175 106.546 888.172 444.346
817 0 116.227 10.9097 1268 107.924 887.752 437.854
818 0 124.216 12.8727 1599 102.746 887.572 436.518
819 0 129.207 11.5473 1492 106.625 887.816 436.688
820 0 129.376 12.6917 1642 106.029 887.847 434.318
821 0 134.281 13.3079 1787 105.234 887.526 428.406
822 0 140.313 12.8712 1806 106.348 887.728 426.565
823 0 144.458 11.6851 1688 108.315 887.743 421.751
824 0 144.116 10.5956 1527 111.041 887.492 416.608
825 0 155.27 11.5669 1796 107.407 887.936 420.493
826 0 155.185 12.759 1980 107.191 888.007 411.67
827 0 160.259 13.603 2180 105.859 887.385 409.45
828 0 169.312 12.2673 2077 107.488 887.542 407.128
829 0 175.274 10.9999 1928 111.043 887.74 400.322
830 0 182.338 12.0655 2200 108.996 887.595 396.114
831 0 184.341 11.4516 2111 111.186 887.649 393.941
832 0 188.27 12.2377 2304 110.729 887.575 386.834
833 0 197.389 10.2488 2023 111.306 887.32 392.735
834 0 208.308 13.3504 2781 106.969 888.182 387.009
835 0 216.298 11.1605 2414 112.106 887.937 376.906
836 1 40.0787 7.58508 304 87.3224 888.908 472.243
837 0 49.0471 8.29814 407 86.8649 888.327 469.224
838 0 55.1199 4.82584 266 78.2218 887.256 481.786
839 0 57.0393 4.29528 245 79.1673 887.212 477.535
840 0 58.067 3.56485 207 79.4589 887.092 481.57
841 0 58.0737 8.00706 465 76.3957 887.948 479.667
842 0 62.0541 5.54355 344 80.3227 888.192 472.387
843 0 61.0415 1.58908 97 82.9794 887.948 485.814
844 0 52.0584 4.72546 246 80.7561 889.988 486.691
845 1 22.0137 4.54263 100 74.81 889.58 503.07
846 0 27.014 7.14444 193 74.4041 889.539 500.741
847 0 25.0092 5.79787 145 75.4345 889.124 502.993
848 0 26.0458 7.44841 194 75.0928 888.428 501
849 0 31.0316 8.28188 257 73.0739 889.062 501.51
850 0 30.0501 8.85189 266 73.515 888.741 500.68
851 0 31.0349 8.34543 259 73.6371 889.753 500.413
852 0 32.0137 8.74624 280 73.1286 889.543 497.614
853 0 31.0502 8.53457 265 76.6792 891.045 497.392
854 0 33.0048 5.96882 197 77.1624 890.558 499.685
855 0 33.0658 7.65141 253 75.4664 890.395 496.49
856 0 35.0263 9.90683 347 73.8617 890.386 499.47
857 0 36.0594 8.43053 304 77.3586 889.724 496.069
858 0 33.021 8.78229 290 76.4207 889.934 497.169
859 0 33.0131 7.391 244 73.4959 890.418 496.889
860 0 37.0246 9.18309 340 75.1059 890.632 496.459
861 0 36.0438 7.54638 272 73.7353 890.364 499.062
862 0 37.1224 6.57285 244 77.0369 890.459 498.861
863 0 33.1022 6.55546 217 70.5899 890.101 490.935
864 0 28.0096 3.21318 90 72.8222 890.644 492.789
865 0 123.185 11.4543 1411 97.6031 889.57 439.342
866 0 121.271 12.9957 1576 95.8953 889.118 438.929
867 0 128.198 12.1609 1559 97.8679 888.755 434.999
868 0 129.07 11.3582 1466 101.091 888.43 429.463
869 0 133.128 11.8081 1572 101.697 888.796 425.149
870 0 137.13 13.2793 1821 98.1021 888.281 427.333
871 0 141.281 13.0378 1842 99.855 887.913 421.212
872 0 144.223 11.5446 1665 104.022 888.098 415.304
873 0 147.154 11.5661 1702 104.334 888.03 412.311
874 0 153.323 11.7138 1796 104.717 888.128 412.04
875 0 157.273 12.3416 1941 104.647 887.906 409.971
876 0 165.169 13.5316 2235 100.681 888.154 415.817
877 0 167.321 12.3416 2065 106.372 887.999 402.538
878 0 173.283 13.6597 2367 103.99 887.921 394.423
879 0 294.449 16.8722 4968 100.742 888.38 321.467
880 0 305.584 17.3111 5290 101.288 888.474 321
881 1 208.349 8.95132 1865 116.226 888.82 388.371
882 1 173.135 12.4989 2164 113.076 886.937 386.602
883 1 201.408 11.8466 2386 110.902 887.81 388.35
884 0 204.593 11.9408 2443 111.841 887.481 376.945
885 1 170.185 12.98 2209 115.785 887.892 375.685
886 1 204.4 10.2984 2105 114.808 887.838 383.75
